##NAMES=Gormanite
##RRUFFID=R050093
##IDEAL CHEMISTRY=Fe^2+^_3_Al_4_(PO_4_)_4_(OH)_6_&#183;2H_2_O
##LOCALITY=Rapid Creek, Yukon Territory, Canada
##OWNER=RRUFF
##SOURCE=Rock Currier
##DESCRIPTION=Radial aggregates of blue bladed crystals
##STATUS=The identification of this mineral has been confirmed by X-ray diffraction and chemical analysis
##URL=rruff.info/R050093
##MEASURED CHEMISTRY=(Fe^2+^_1.85_Mg_1.09_Mn_0.06_)_Σ=3_(Al_3.76_Fe^3+^_0.24_)_Σ=4_(P_1.00_O_4_)_4_((OH_5.65_F_0.35_)_Σ=6_·2H_2_O ; (light phase) : (Fe^2+^_1.53_Mg_1.42_Mn_0.05_)_Σ=3_(Al_3.89_Fe^3+^_0.11_)_Σ=4_(P_1.00_O_4_)_4_((OH_5.60_F_0.40_)_Σ=6_·2H_2_O (dark phase
176.9547, 6655.426
177.4368, 6670.572
177.9189, 6742.534
178.4010, 6834.998
178.8832, 6895.796
179.3653, 6892.334
179.8474, 6848.105
180.3295, 6834.010
180.8116, 6867.054
181.2937, 6901.598
181.7759, 6919.191
182.2580, 6930.611
182.7401, 6950.833
183.2222, 6989.788
183.7043, 7037.885
184.1864, 7066.200
184.6686, 7061.920
185.1507, 7059.158
185.6328, 7065.563
186.1149, 7078.690
186.5970, 7097.849
187.0791, 7124.301
187.5613, 7152.107
188.0434, 7163.948
188.5255, 7145.557
189.0076, 7135.663
189.4897, 7146.924
189.9718, 7167.662
190.4540, 7186.148
190.9361, 7197.064
191.4182, 7203.382
191.9003, 7212.150
192.3824, 7224.271
192.8645, 7237.566
193.3467, 7253.634
193.8288, 7269.617
194.3109, 7283.077
194.7930, 7293.062
195.2751, 7299.786
195.7572, 7302.921
196.2394, 7298.525
196.7215, 7298.155
197.2036, 7303.333
197.6857, 7312.341
198.1678, 7325.271
198.6499, 7341.955
199.1321, 7358.836
199.6142, 7369.582
200.0963, 7373.904
200.5784, 7371.690
201.0605, 7358.849
201.5426, 7343.337
202.0248, 7330.417
202.5069, 7321.749
202.9890, 7317.057
203.4711, 7316.271
203.9532, 7321.013
204.4353, 7326.223
204.9175, 7334.341
205.3996, 7340.987
205.8817, 7340.785
206.3638, 7333.750
206.8459, 7326.948
207.3280, 7333.126
207.8102, 7364.999
208.2923, 7376.340
208.7744, 7355.035
209.2565, 7325.166
209.7386, 7295.513
210.2207, 7269.846
210.7029, 7252.055
211.1850, 7249.738
211.6671, 7270.856
212.1492, 7277.873
212.6313, 7260.375
213.1134, 7238.781
213.5956, 7220.055
214.0777, 7206.030
214.5598, 7196.867
215.0419, 7192.644
215.5240, 7193.244
216.0061, 7200.073
216.4883, 7222.107
216.9704, 7242.008
217.4525, 7254.932
217.9346, 7260.180
218.4167, 7257.639
218.8988, 7245.093
219.3810, 7221.957
219.8631, 7210.198
220.3452, 7227.046
220.8273, 7238.947
221.3094, 7230.101
221.7915, 7209.284
222.2737, 7195.748
222.7558, 7204.622
223.2379, 7233.008
223.7200, 7248.964
224.2021, 7244.101
224.6842, 7234.594
225.1664, 7217.491
225.6485, 7199.089
226.1306, 7189.921
226.6127, 7197.535
227.0948, 7215.603
227.5770, 7216.486
228.0591, 7179.396
228.5412, 7152.833
229.0233, 7147.880
229.5054, 7156.066
229.9875, 7170.122
230.4697, 7187.192
230.9518, 7203.029
231.4339, 7206.411
231.9160, 7189.440
232.3981, 7172.784
232.8802, 7158.688
233.3624, 7146.297
233.8445, 7134.407
234.3266, 7122.728
234.8087, 7112.276
235.2908, 7105.336
235.7729, 7104.014
236.2551, 7101.180
236.7372, 7092.279
237.2193, 7084.504
237.7014, 7084.698
238.1835, 7093.261
238.6656, 7102.697
239.1478, 7103.084
239.6299, 7091.671
240.1120, 7081.270
240.5941, 7076.541
241.0762, 7069.469
241.5583, 7052.538
242.0405, 7027.705
242.5226, 7005.500
243.0047, 6997.627
243.4868, 7005.591
243.9689, 7009.785
244.4510, 7008.682
244.9332, 7004.833
245.4153, 7001.790
245.8974, 6997.068
246.3795, 6983.594
246.8616, 6950.822
247.3437, 6902.757
247.8259, 6878.980
248.3080, 6901.957
248.7901, 6919.869
249.2722, 6906.736
249.7543, 6878.307
250.2364, 6861.376
250.7186, 6872.933
251.2007, 6902.274
251.6828, 6918.852
252.1649, 6919.667
252.6470, 6913.042
253.1291, 6891.677
253.6113, 6869.180
254.0934, 6862.610
254.5755, 6880.317
255.0576, 6907.576
255.5397, 6921.140
256.0219, 6918.316
256.5040, 6911.725
256.9861, 6895.823
257.4682, 6882.776
257.9503, 6884.053
258.4324, 6902.459
258.9146, 6925.148
259.3967, 6941.698
259.8788, 6952.300
260.3609, 6951.170
260.8430, 6923.242
261.3251, 6895.474
261.8073, 6888.937
262.2894, 6903.393
262.7715, 6921.129
263.2536, 6931.113
263.7357, 6934.044
264.2178, 6932.928
264.7000, 6924.201
265.1821, 6917.552
265.6642, 6923.520
266.1463, 6938.005
266.6284, 6947.104
267.1105, 6938.166
267.5927, 6920.510
268.0748, 6914.603
268.5569, 6923.256
269.0390, 6936.007
269.5211, 6951.778
270.0032, 6966.276
270.4854, 6970.204
270.9675, 6951.965
271.4496, 6929.713
271.9317, 6925.875
272.4138, 6940.989
272.8959, 6956.115
273.3781, 6960.184
273.8602, 6959.269
274.3423, 6965.433
274.8244, 6982.603
275.3065, 7000.760
275.7886, 7016.754
276.2708, 7029.149
276.7529, 7030.333
277.2350, 7013.401
277.7171, 6989.623
278.1992, 6976.534
278.6813, 6973.509
279.1635, 6979.335
279.6456, 7002.763
280.1277, 7032.781
280.6098, 7049.463
281.0919, 7047.683
281.5740, 7037.238
282.0562, 7027.699
282.5383, 7018.906
283.0204, 7013.706
283.5025, 7011.784
283.9846, 7014.026
284.4667, 7024.325
284.9489, 7041.946
285.4310, 7056.987
285.9131, 7060.423
286.3952, 7052.375
286.8773, 7048.974
287.3594, 7059.230
287.8416, 7065.021
288.3237, 7052.749
288.8058, 7028.359
289.2879, 7007.404
289.7700, 6998.017
290.2521, 6999.298
290.7343, 7008.271
291.2164, 7041.081
291.6985, 7061.256
292.1806, 7053.944
292.6627, 7034.340
293.1448, 7023.365
293.6270, 7028.136
294.1091, 7036.751
294.5912, 7026.667
295.0733, 6974.992
295.5554, 6948.864
296.0375, 6965.317
296.5197, 6993.056
297.0018, 7010.784
297.4839, 7016.047
297.9660, 7018.583
298.4481, 7029.267
298.9302, 7050.395
299.4124, 7063.623
299.8945, 7061.276
300.3766, 7058.946
300.8587, 7065.379
301.3408, 7075.996
301.8229, 7079.431
302.3050, 7066.659
302.7871, 7042.355
303.2693, 7031.359
303.7514, 7046.543
304.2335, 7056.327
304.7156, 7053.204
305.1977, 7042.438
305.6798, 7026.850
306.1620, 7007.083
306.6441, 6990.696
307.1262, 6992.980
307.6083, 7020.373
308.0904, 7042.395
308.5725, 7050.946
309.0547, 7054.222
309.5368, 7057.124
310.0189, 7059.886
310.5010, 7058.428
310.9831, 7045.128
311.4652, 7021.729
311.9474, 7008.591
312.4295, 7012.100
312.9116, 7019.271
313.3937, 7025.951
313.8758, 7030.029
314.3579, 7025.218
314.8401, 6999.157
315.3222, 6966.650
315.8043, 6959.673
316.2864, 6984.165
316.7685, 6999.055
317.2506, 6973.252
317.7328, 6926.400
318.2149, 6890.978
318.6970, 6873.484
319.1791, 6863.398
319.6612, 6855.029
320.1433, 6848.182
320.6255, 6842.511
321.1076, 6839.368
321.5897, 6835.096
322.0718, 6821.643
322.5539, 6797.121
323.0360, 6777.272
323.5182, 6766.695
324.0003, 6763.123
324.4824, 6764.951
324.9645, 6771.879
325.4466, 6780.880
325.9287, 6791.136
326.4109, 6803.015
326.8930, 6801.632
327.3751, 6776.669
327.8572, 6748.480
328.3393, 6724.120
328.8214, 6705.572
329.3036, 6698.353
329.7857, 6707.616
330.2678, 6727.248
330.7499, 6729.180
331.2320, 6688.351
331.7141, 6660.847
332.1963, 6664.362
332.6784, 6678.518
333.1605, 6681.644
333.6426, 6667.125
334.1247, 6642.528
334.6068, 6617.635
335.0890, 6589.225
335.5711, 6570.070
336.0532, 6567.820
336.5353, 6566.934
337.0174, 6558.183
337.4995, 6543.287
337.9817, 6530.543
338.4638, 6528.005
338.9459, 6533.768
339.4280, 6529.428
339.9101, 6502.620
340.3922, 6484.339
340.8744, 6493.019
341.3565, 6511.009
341.8386, 6515.342
342.3207, 6496.433
342.8028, 6465.908
343.2849, 6438.990
343.7671, 6415.400
344.2492, 6396.933
344.7313, 6379.773
345.2134, 6372.205
345.6955, 6389.353
346.1776, 6430.492
346.6598, 6458.240
347.1419, 6438.812
347.6240, 6388.203
348.1061, 6348.113
348.5882, 6320.994
349.0703, 6309.492
349.5525, 6327.109
350.0346, 6363.603
350.5167, 6388.320
350.9988, 6392.933
351.4809, 6386.274
351.9630, 6371.001
352.4452, 6349.085
352.9273, 6331.208
353.4094, 6323.958
353.8915, 6322.042
354.3736, 6309.539
354.8557, 6275.757
355.3379, 6255.576
355.8200, 6271.637
356.3021, 6298.684
356.7842, 6300.201
357.2663, 6270.306
357.7484, 6241.805
358.2306, 6254.408
358.7127, 6319.948
359.1948, 6360.703
359.6769, 6373.818
360.1590, 6369.235
360.6411, 6341.946
361.1233, 6300.785
361.6054, 6261.712
362.0875, 6233.827
362.5696, 6215.337
363.0517, 6199.537
363.5338, 6186.256
364.0160, 6176.362
364.4981, 6174.056
364.9802, 6172.222
365.4623, 6165.786
365.9444, 6153.381
366.4265, 6135.305
366.9087, 6107.668
367.3908, 6068.860
367.8729, 6045.074
368.3550, 6049.980
368.8371, 6055.137
369.3192, 6045.656
369.8014, 6025.255
370.2835, 6003.126
370.7656, 5981.657
371.2477, 5962.453
371.7298, 5947.735
372.2119, 5937.321
372.6941, 5933.926
373.1762, 5945.030
373.6583, 5960.054
374.1404, 5964.447
374.6225, 5957.855
375.1046, 5940.359
375.5868, 5900.271
376.0689, 5851.326
376.5510, 5821.572
377.0331, 5817.332
377.5152, 5828.206
377.9973, 5848.719
378.4795, 5880.340
378.9616, 5894.712
379.4437, 5881.742
379.9258, 5860.146
380.4079, 5836.625
380.8900, 5813.346
381.3722, 5794.280
381.8543, 5781.735
382.3364, 5774.229
382.8185, 5767.162
383.3006, 5762.862
383.7827, 5755.844
384.2649, 5740.800
384.7470, 5726.415
385.2291, 5723.339
385.7112, 5731.077
386.1933, 5736.448
386.6754, 5723.420
387.1576, 5690.573
387.6397, 5667.807
388.1218, 5662.547
388.6039, 5659.285
389.0860, 5653.807
389.5681, 5646.736
390.0503, 5637.886
390.5324, 5625.212
391.0145, 5616.334
391.4966, 5630.917
391.9787, 5673.606
392.4608, 5693.548
392.9430, 5661.847
393.4251, 5615.441
393.9072, 5588.614
394.3893, 5581.746
394.8714, 5581.534
395.3535, 5584.254
395.8357, 5588.517
396.3178, 5592.570
396.7999, 5596.343
397.2820, 5598.632
397.7641, 5599.820
398.2462, 5598.546
398.7284, 5589.909
399.2105, 5565.527
399.6926, 5543.429
400.1747, 5529.369
400.6568, 5522.476
401.1389, 5525.152
401.6211, 5538.289
402.1032, 5549.007
402.5853, 5535.544
403.0674, 5480.864
403.5495, 5455.333
404.0316, 5482.179
404.5138, 5512.127
404.9959, 5519.025
405.4780, 5507.559
405.9601, 5495.642
406.4422, 5495.290
406.9243, 5501.367
407.4065, 5494.597
407.8886, 5467.089
408.3707, 5442.873
408.8528, 5424.930
409.3349, 5412.721
409.8170, 5404.952
410.2992, 5401.748
410.7813, 5406.613
411.2634, 5432.469
411.7455, 5472.057
412.2276, 5483.753
412.7097, 5455.783
413.1919, 5421.687
413.6740, 5399.624
414.1561, 5388.287
414.6382, 5388.920
415.1203, 5415.282
415.6024, 5437.092
416.0846, 5422.525
416.5667, 5384.139
417.0488, 5364.392
417.5309, 5381.065
418.0130, 5409.198
418.4951, 5410.577
418.9773, 5374.993
419.4594, 5346.155
419.9415, 5323.728
420.4236, 5310.087
420.9057, 5313.130
421.3878, 5327.275
421.8700, 5334.824
422.3521, 5323.001
422.8342, 5298.683
423.3163, 5292.604
423.7984, 5324.807
424.2805, 5343.973
424.7627, 5341.268
425.2448, 5327.159
425.7269, 5308.663
426.2090, 5287.475
426.6911, 5263.506
427.1732, 5228.625
427.6554, 5185.662
428.1375, 5175.483
428.6196, 5214.304
429.1017, 5254.962
429.5838, 5277.305
430.0659, 5285.051
430.5481, 5280.042
431.0302, 5256.497
431.5123, 5233.772
431.9944, 5232.060
432.4765, 5245.203
432.9586, 5250.060
433.4408, 5239.204
433.9229, 5223.740
434.4050, 5216.294
434.8871, 5217.662
435.3692, 5220.583
435.8513, 5229.923
436.3335, 5236.027
436.8156, 5228.737
437.2977, 5213.264
437.7798, 5203.751
438.2619, 5207.803
438.7440, 5219.795
439.2262, 5225.042
439.7083, 5216.127
440.1904, 5213.772
440.6725, 5226.588
441.1546, 5238.553
441.6367, 5236.345
442.1189, 5222.598
442.6010, 5211.252
443.0831, 5214.296
443.5652, 5227.359
444.0473, 5233.893
444.5294, 5233.385
445.0116, 5227.654
445.4937, 5205.158
445.9758, 5184.194
446.4579, 5188.139
446.9400, 5223.518
447.4221, 5254.342
447.9043, 5253.070
448.3864, 5232.707
448.8685, 5220.538
449.3506, 5220.519
449.8327, 5222.193
450.3148, 5215.037
450.7970, 5201.484
451.2791, 5203.435
451.7612, 5232.976
452.2433, 5262.638
452.7254, 5285.791
453.2076, 5302.776
453.6897, 5313.629
454.1718, 5318.548
454.6539, 5318.573
455.1360, 5312.848
455.6181, 5297.515
456.1003, 5298.338
456.5824, 5341.161
457.0645, 5373.896
457.5466, 5373.504
458.0287, 5354.232
458.5108, 5338.238
458.9930, 5334.021
459.4751, 5340.347
459.9572, 5359.362
460.4393, 5391.261
460.9214, 5417.588
461.4035, 5433.742
461.8857, 5444.674
462.3678, 5452.729
462.8499, 5458.838
463.3320, 5468.483
463.8141, 5490.839
464.2962, 5511.381
464.7784, 5511.993
465.2605, 5498.097
465.7426, 5492.701
466.2247, 5506.868
466.7068, 5530.912
467.1889, 5546.050
467.6711, 5548.730
468.1532, 5549.085
468.6353, 5544.952
469.1174, 5540.416
469.5995, 5536.115
470.0816, 5533.562
470.5638, 5536.875
471.0459, 5549.838
471.5280, 5567.228
472.0101, 5573.260
472.4922, 5564.131
472.9743, 5553.873
473.4565, 5538.434
473.9386, 5528.043
474.4207, 5535.388
474.9028, 5558.179
475.3849, 5573.713
475.8670, 5560.782
476.3492, 5535.584
476.8313, 5526.724
477.3134, 5534.997
477.7955, 5546.600
478.2776, 5557.896
478.7597, 5565.521
479.2419, 5559.369
479.7240, 5532.980
480.2061, 5511.443
480.6882, 5497.592
481.1703, 5491.909
481.6524, 5502.366
482.1346, 5524.192
482.6167, 5534.888
483.0988, 5515.030
483.5809, 5472.880
484.0630, 5455.453
484.5451, 5484.255
485.0273, 5502.729
485.5094, 5494.835
485.9915, 5480.351
486.4736, 5473.990
486.9557, 5477.638
487.4378, 5485.650
487.9200, 5497.947
488.4021, 5511.033
488.8842, 5512.594
489.3663, 5500.721
489.8484, 5488.135
490.3305, 5483.069
490.8127, 5480.178
491.2948, 5467.927
491.7769, 5442.287
492.2590, 5419.053
492.7411, 5402.587
493.2232, 5392.002
493.7054, 5388.960
494.1875, 5392.185
494.6696, 5393.906
495.1517, 5387.486
495.6338, 5374.973
496.1159, 5369.867
496.5981, 5383.595
497.0802, 5388.551
497.5623, 5379.694
498.0444, 5363.099
498.5265, 5339.392
499.0086, 5311.289
499.4908, 5289.032
499.9729, 5285.788
500.4550, 5294.950
500.9371, 5289.208
501.4192, 5264.138
501.9013, 5243.195
502.3835, 5241.628
502.8656, 5247.015
503.3477, 5239.220
503.8298, 5215.043
504.3119, 5189.914
504.7940, 5164.923
505.2762, 5144.729
505.7583, 5137.454
506.2404, 5142.115
506.7225, 5150.343
507.2046, 5158.291
507.6867, 5162.910
508.1689, 5150.096
508.6510, 5092.664
509.1331, 5057.939
509.6152, 5069.521
510.0973, 5088.488
510.5794, 5084.549
511.0616, 5058.792
511.5437, 5033.667
512.0258, 5028.982
512.5079, 5034.169
512.9901, 5014.066
513.4722, 4961.946
513.9543, 4927.732
514.4364, 4942.308
514.9185, 4971.714
515.4006, 4969.552
515.8828, 4933.364
516.3649, 4899.535
516.8470, 4874.144
517.3291, 4859.442
517.8112, 4867.371
518.2933, 4890.112
518.7755, 4897.052
519.2576, 4870.763
519.7397, 4824.272
520.2218, 4787.897
520.7039, 4761.548
521.1860, 4746.095
521.6682, 4755.809
522.1503, 4761.808
522.6324, 4742.716
523.1145, 4706.985
523.5966, 4678.483
524.0787, 4670.531
524.5609, 4673.902
525.0430, 4676.600
525.5251, 4678.583
526.0072, 4671.912
526.4893, 4650.232
526.9714, 4626.583
527.4536, 4616.502
527.9357, 4618.213
528.4178, 4617.813
528.8999, 4608.754
529.3820, 4601.653
529.8641, 4609.880
530.3463, 4623.265
530.8284, 4619.384
531.3105, 4590.988
531.7926, 4554.430
532.2747, 4532.080
532.7568, 4525.818
533.2390, 4521.647
533.7211, 4520.641
534.2032, 4520.604
534.6853, 4526.332
535.1674, 4530.533
535.6495, 4521.101
536.1317, 4493.244
536.6138, 4463.915
537.0959, 4450.399
537.5780, 4448.177
538.0601, 4442.350
538.5422, 4430.756
539.0244, 4419.300
539.5065, 4412.460
539.9886, 4409.262
540.4707, 4404.848
540.9528, 4395.581
541.4349, 4390.114
541.9171, 4392.829
542.3992, 4398.408
542.8813, 4401.101
543.3634, 4400.958
543.8455, 4403.856
544.3276, 4417.086
544.8098, 4434.602
545.2919, 4425.953
545.7740, 4377.584
546.2561, 4340.267
546.7382, 4332.756
547.2203, 4337.159
547.7024, 4344.858
548.1845, 4354.047
548.6666, 4354.285
549.1487, 4328.550
549.6309, 4300.353
550.1130, 4303.114
550.5951, 4328.747
551.0772, 4338.857
551.5593, 4316.641
552.0414, 4279.733
552.5236, 4256.091
553.0057, 4248.505
553.4878, 4245.100
553.9699, 4249.347
554.4520, 4253.416
554.9341, 4253.273
555.4163, 4251.151
555.8984, 4251.404
556.3805, 4255.726
556.8626, 4259.950
557.3447, 4257.579
557.8268, 4249.766
558.3090, 4246.017
558.7911, 4247.586
559.2732, 4252.159
559.7553, 4260.213
560.2374, 4269.885
560.7195, 4275.814
561.2017, 4280.319
561.6838, 4277.007
562.1659, 4255.624
562.6480, 4230.457
563.1301, 4216.154
563.6122, 4214.006
564.0944, 4219.128
564.5765, 4229.612
565.0586, 4241.646
565.5407, 4238.536
566.0228, 4211.728
566.5049, 4191.463
566.9871, 4192.611
567.4692, 4193.955
567.9513, 4177.812
568.4334, 4148.405
568.9155, 4127.384
569.3976, 4126.371
569.8798, 4135.377
570.3619, 4146.579
570.8440, 4159.475
571.3261, 4174.145
571.8082, 4191.238
572.2903, 4203.346
572.7725, 4199.639
573.2546, 4177.258
573.7367, 4166.121
574.2188, 4176.713
574.7009, 4185.300
575.1830, 4184.626
575.6652, 4179.586
576.1473, 4177.038
576.6294, 4178.010
577.1115, 4175.929
577.5936, 4162.640
578.0757, 4141.550
578.5579, 4122.780
579.0400, 4106.031
579.5221, 4096.174
580.0042, 4097.632
580.4863, 4105.433
580.9684, 4109.944
581.4506, 4110.112
581.9327, 4112.052
582.4148, 4122.359
582.8969, 4129.447
583.3790, 4122.075
583.8611, 4105.784
584.3433, 4093.238
584.8254, 4090.314
585.3075, 4092.339
585.7896, 4093.032
586.2717, 4092.628
586.7538, 4087.079
587.2360, 4070.970
587.7181, 4058.255
588.2002, 4059.269
588.6823, 4068.219
589.1644, 4077.802
589.6465, 4091.528
590.1287, 4093.977
590.6108, 4065.026
591.0929, 4027.483
591.5750, 4013.099
592.0571, 4021.727
592.5392, 4030.913
593.0214, 4025.023
593.5035, 4011.534
593.9856, 4015.652
594.4677, 4050.481
594.9498, 4071.676
595.4319, 4066.874
595.9141, 4055.210
596.3962, 4041.628
596.8783, 4028.758
597.3604, 4022.318
597.8425, 4027.885
598.3246, 4033.789
598.8068, 4023.410
599.2889, 4005.642
599.7710, 4007.861
600.2531, 4035.428
600.7352, 4062.117
601.2173, 4065.397
601.6995, 4048.024
602.1816, 4032.251
602.6637, 4004.615
603.1458, 3998.096
603.6279, 4036.690
604.1100, 4079.943
604.5922, 4098.085
605.0743, 4091.804
605.5564, 4077.865
606.0385, 4063.235
606.5206, 4049.754
607.0027, 4038.046
607.4849, 4028.945
607.9670, 4031.279
608.4491, 4049.773
608.9312, 4070.834
609.4133, 4083.255
609.8954, 4086.906
610.3776, 4074.592
610.8597, 4024.192
611.3418, 3987.433
611.8239, 3985.367
612.3060, 3996.873
612.7881, 4003.057
613.2703, 4000.471
613.7524, 3993.253
614.2345, 3982.929
614.7166, 3971.508
615.1987, 3965.083
615.6808, 3963.996
616.1630, 3959.783
616.6451, 3948.707
617.1272, 3936.004
617.6093, 3926.913
618.0914, 3921.508
618.5735, 3919.449
619.0557, 3926.053
619.5378, 3929.854
620.0199, 3922.281
620.5020, 3911.471
620.9841, 3907.620
621.4662, 3912.560
621.9484, 3922.064
622.4305, 3935.603
622.9126, 3949.292
623.3947, 3943.960
623.8768, 3915.086
624.3589, 3894.205
624.8411, 3894.964
625.3232, 3902.975
625.8053, 3899.141
626.2874, 3884.290
626.7695, 3877.687
627.2516, 3888.353
627.7338, 3900.970
628.2159, 3909.478
628.6980, 3914.371
629.1801, 3914.065
629.6622, 3909.642
630.1443, 3910.167
630.6265, 3929.369
631.1086, 3960.367
631.5907, 3959.348
632.0728, 3914.667
632.5549, 3884.320
633.0370, 3895.538
633.5192, 3919.104
634.0013, 3921.399
634.4834, 3903.678
634.9655, 3888.820
635.4476, 3882.957
635.9297, 3879.419
636.4119, 3875.584
636.8940, 3871.222
637.3761, 3864.079
637.8582, 3854.693
638.3403, 3850.593
638.8224, 3861.813
639.3046, 3884.421
639.7867, 3893.724
640.2688, 3887.527
640.7509, 3875.277
641.2330, 3853.412
641.7151, 3832.631
642.1973, 3826.333
642.6794, 3833.092
643.1615, 3835.216
643.6436, 3824.503
644.1257, 3813.136
644.6078, 3809.614
645.0900, 3809.042
645.5721, 3803.745
646.0542, 3792.229
646.5363, 3777.720
647.0184, 3761.716
647.5005, 3746.168
647.9827, 3741.885
648.4648, 3751.998
648.9469, 3761.262
649.4290, 3767.791
649.9111, 3769.934
650.3932, 3763.711
650.8754, 3750.633
651.3575, 3741.383
651.8396, 3745.514
652.3217, 3744.985
652.8038, 3720.296
653.2859, 3691.238
653.7681, 3692.431
654.2502, 3723.402
654.7323, 3744.738
655.2144, 3720.761
655.6965, 3668.106
656.1786, 3643.313
656.6608, 3650.650
657.1429, 3660.798
657.6250, 3672.954
658.1071, 3678.680
658.5892, 3662.773
659.0714, 3631.734
659.5535, 3615.649
660.0356, 3631.112
660.5177, 3644.534
660.9998, 3639.940
661.4819, 3630.609
661.9641, 3634.606
662.4462, 3649.477
662.9283, 3655.141
663.4104, 3636.183
663.8925, 3605.827
664.3746, 3595.101
664.8568, 3604.854
665.3389, 3604.738
665.8210, 3585.419
666.3031, 3566.888
666.7852, 3566.195
667.2673, 3578.698
667.7495, 3582.984
