##NAMES=Gotzenite
##RRUFFID=R141182
##IDEAL CHEMISTRY=Ca_4_NaCa_2_Ti^4+^(Si_2_O_7_)_2_(OF)F_2_
##LOCALITY=Po√ßos De Caldas, Minas Gerais, Brazil
##OWNER=RRUFF
##SOURCE=Marcelo B. Andrade
##DESCRIPTION=Brown prismatic crystals
##STATUS=The identification of this mineral is confirmed by single-crystal X-ray diffraction and chemical analysis.
##URL=rruff.info/R141182
##MEASURED CHEMISTRY=Na_1.00_(Ca_4.77_Na_0.62_Ce_0.12_Mn_0.12_Sr_0.10_Zr_0.07_Fe_0.07_La_0.06_Nd_0.04_Y_0.03_Dy_0.02_)(Ti_0.90_Zr_0.06_Nb_0.04_)(Si_2.01_O_7_)_2_OF_3.06_  ; lighter areas
299.9861, 2975.069
300.4682, 2978.853
300.9503, 2983.970
301.4324, 2987.669
301.9146, 2990.380
302.3967, 2994.004
302.8788, 3000.028
303.3609, 3007.600
303.8430, 3015.625
304.3251, 3024.157
304.8073, 3032.324
305.2894, 3038.493
305.7715, 3043.575
306.2536, 3050.001
306.7357, 3059.816
307.2178, 3071.059
307.7000, 3081.696
308.1821, 3091.501
308.6642, 3100.906
309.1463, 3109.605
309.6284, 3118.120
310.1105, 3127.430
310.5927, 3138.107
311.0748, 3149.439
311.5569, 3161.673
312.0390, 3174.762
312.5211, 3186.623
313.0032, 3194.832
313.4854, 3201.866
313.9675, 3210.248
314.4496, 3222.616
314.9317, 3234.963
315.4138, 3245.173
315.8959, 3253.596
316.3781, 3262.552
316.8602, 3274.525
317.3423, 3286.522
317.8244, 3296.179
318.3065, 3301.091
318.7886, 3306.321
319.2708, 3314.007
319.7529, 3323.298
320.2350, 3331.833
320.7171, 3338.786
321.1992, 3344.758
321.6813, 3350.051
322.1635, 3354.886
322.6456, 3358.483
323.1277, 3360.124
323.6098, 3360.468
324.0919, 3360.643
324.5740, 3361.798
325.0562, 3361.873
325.5383, 3360.224
326.0204, 3356.701
326.5025, 3351.993
326.9846, 3345.844
327.4667, 3338.721
327.9489, 3331.056
328.4310, 3323.397
328.9131, 3314.680
329.3952, 3304.358
329.8773, 3292.406
330.3594, 3280.926
330.8416, 3270.509
331.3237, 3260.214
331.8058, 3249.234
332.2879, 3235.812
332.7700, 3224.709
333.2521, 3217.157
333.7343, 3212.241
334.2164, 3205.472
334.6985, 3196.047
335.1806, 3186.064
335.6627, 3176.211
336.1448, 3165.761
336.6270, 3158.123
337.1090, 3154.483
337.5912, 3152.944
338.0733, 3149.402
338.5554, 3143.274
339.0375, 3137.206
339.5196, 3132.566
340.0017, 3129.552
340.4839, 3124.970
340.9660, 3118.507
341.4481, 3111.351
341.9302, 3105.084
342.4123, 3099.675
342.8944, 3094.821
343.3766, 3091.046
343.8587, 3087.704
344.3408, 3080.932
344.8229, 3070.288
345.3050, 3059.406
345.7871, 3052.224
346.2693, 3048.138
346.7514, 3042.769
347.2335, 3034.971
347.7156, 3025.886
348.1977, 3017.857
348.6798, 3010.837
349.1620, 3003.919
349.6441, 2996.458
350.1262, 2988.692
350.6083, 2981.148
351.0904, 2973.825
351.5725, 2966.754
352.0547, 2959.745
352.5368, 2952.938
353.0189, 2946.757
353.5010, 2941.760
353.9831, 2937.321
354.4652, 2932.762
354.9474, 2928.003
355.4295, 2923.107
355.9116, 2917.318
356.3937, 2911.539
356.8758, 2907.208
357.3579, 2905.443
357.8401, 2904.734
358.3222, 2904.557
358.8043, 2904.759
359.2864, 2904.405
359.7685, 2901.792
360.2506, 2899.043
360.7328, 2898.054
361.2149, 2899.845
361.6970, 2902.371
362.1791, 2905.235
362.6612, 2908.210
363.1433, 2910.796
363.6255, 2912.499
364.1076, 2913.993
364.5897, 2915.340
365.0718, 2916.097
365.5539, 2918.148
366.0360, 2922.808
366.5182, 2928.608
367.0003, 2933.793
367.4824, 2938.653
367.9645, 2942.440
368.4466, 2944.286
368.9287, 2944.046
369.4109, 2945.688
369.8930, 2950.033
370.3751, 2955.722
370.8572, 2961.956
371.3393, 2969.149
371.8214, 2976.218
372.3036, 2983.575
372.7857, 2990.737
373.2678, 2995.719
373.7499, 2996.851
374.2320, 2998.759
374.7141, 3003.829
375.1963, 3012.961
375.6784, 3021.476
376.1605, 3029.271
376.6426, 3036.450
377.1247, 3042.882
377.6068, 3048.576
378.0890, 3053.833
378.5711, 3058.848
379.0532, 3063.548
379.5353, 3066.777
380.0174, 3068.338
380.4995, 3069.613
380.9817, 3072.304
381.4638, 3076.146
381.9459, 3078.839
382.4280, 3079.522
382.9101, 3079.282
383.3922, 3080.111
383.8744, 3081.929
384.3565, 3084.044
384.8386, 3086.098
385.3207, 3088.088
385.8028, 3090.178
386.2849, 3092.550
386.7671, 3094.178
387.2492, 3093.439
387.7313, 3091.138
388.2134, 3089.124
388.6955, 3089.398
389.1776, 3089.647
389.6598, 3087.211
390.1419, 3082.263
390.6240, 3077.725
391.1061, 3075.560
391.5882, 3074.677
392.0703, 3073.927
392.5525, 3072.968
393.0346, 3072.205
393.5167, 3071.885
393.9988, 3071.927
394.4809, 3072.068
394.9630, 3072.019
395.4452, 3072.205
395.9273, 3072.793
396.4094, 3073.738
396.8915, 3075.268
397.3736, 3078.750
397.8557, 3082.363
398.3379, 3083.872
398.8200, 3079.449
399.3021, 3076.635
399.7842, 3077.033
400.2663, 3080.602
400.7484, 3084.890
401.2306, 3091.027
401.7127, 3096.650
402.1948, 3099.896
402.6769, 3098.500
403.1590, 3099.791
403.6411, 3105.542
404.1233, 3113.574
404.6054, 3118.268
405.0875, 3118.414
405.5696, 3118.707
406.0517, 3121.440
406.5338, 3126.752
407.0160, 3130.472
407.4981, 3132.219
407.9802, 3133.523
408.4623, 3135.997
408.9444, 3139.686
409.4265, 3144.340
409.9087, 3150.217
410.3908, 3156.823
410.8729, 3162.831
411.3550, 3168.313
411.8371, 3173.923
412.3192, 3180.993
412.8014, 3188.531
413.2835, 3193.879
413.7656, 3196.288
414.2477, 3198.176
414.7298, 3202.732
415.2119, 3208.776
415.6941, 3213.405
416.1762, 3214.511
416.6583, 3214.011
417.1404, 3213.637
417.6225, 3213.343
418.1046, 3212.188
418.5868, 3209.841
419.0689, 3206.198
419.5510, 3201.096
420.0331, 3194.132
420.5152, 3186.177
420.9973, 3177.644
421.4795, 3168.448
421.9616, 3158.676
422.4437, 3148.839
422.9258, 3137.989
423.4079, 3125.626
423.8900, 3111.278
424.3722, 3096.877
424.8543, 3082.212
425.3364, 3067.835
425.8185, 3054.371
426.3006, 3042.258
426.7827, 3030.294
427.2649, 3018.578
427.7470, 3007.003
428.2291, 2994.369
428.7112, 2980.310
429.1933, 2965.918
429.6754, 2951.465
430.1576, 2937.007
430.6397, 2922.213
431.1218, 2906.659
431.6039, 2891.436
432.0860, 2877.932
432.5681, 2866.177
433.0503, 2856.219
433.5324, 2848.878
434.0145, 2843.133
434.4966, 2834.991
434.9787, 2824.403
435.4608, 2813.795
435.9430, 2805.157
436.4251, 2798.035
436.9072, 2791.137
437.3893, 2784.114
437.8714, 2777.438
438.3535, 2771.336
438.8357, 2765.968
439.3178, 2761.779
439.7999, 2759.551
440.2820, 2758.205
440.7641, 2757.008
441.2462, 2755.869
441.7284, 2754.317
442.2105, 2750.817
442.6926, 2747.286
443.1747, 2745.610
443.6568, 2747.883
444.1389, 2750.109
444.6211, 2750.492
445.1032, 2749.808
445.5853, 2750.311
446.0674, 2753.507
446.5495, 2757.057
447.0316, 2760.084
447.5138, 2762.344
447.9959, 2765.047
448.4780, 2768.456
448.9601, 2772.261
449.4422, 2776.029
449.9243, 2778.739
450.4065, 2783.762
450.8886, 2792.660
451.3707, 2804.164
451.8528, 2812.760
452.3349, 2817.444
452.8170, 2822.307
453.2992, 2830.092
453.7813, 2840.849
454.2634, 2849.938
454.7455, 2856.824
455.2276, 2863.474
455.7097, 2872.614
456.1919, 2883.914
456.6740, 2896.069
457.1561, 2909.013
457.6382, 2921.965
458.1203, 2933.323
458.6024, 2943.237
459.0846, 2951.945
459.5667, 2959.258
460.0488, 2965.777
460.5309, 2972.078
461.0130, 2978.033
461.4951, 2984.815
461.9773, 2994.247
462.4594, 3004.716
462.9415, 3013.981
463.4236, 3019.368
463.9057, 3024.932
464.3878, 3032.734
464.8700, 3042.499
465.3521, 3052.199
465.8342, 3062.187
466.3163, 3071.417
466.7984, 3079.107
467.2805, 3083.179
467.7627, 3089.431
468.2448, 3099.650
468.7269, 3111.288
469.2090, 3120.752
469.6911, 3126.709
470.1732, 3133.160
470.6554, 3141.633
471.1375, 3151.672
471.6196, 3158.365
472.1017, 3160.543
472.5838, 3162.635
473.0659, 3168.379
473.5481, 3177.807
474.0302, 3185.192
474.5123, 3189.725
474.9944, 3193.227
475.4765, 3198.952
475.9586, 3206.433
476.4408, 3212.468
476.9229, 3215.131
477.4050, 3215.996
477.8871, 3217.258
478.3692, 3218.957
478.8513, 3221.235
479.3335, 3224.759
479.8156, 3228.703
480.2977, 3232.089
480.7798, 3234.725
481.2619, 3236.761
481.7440, 3237.970
482.2262, 3238.634
482.7083, 3239.187
483.1904, 3239.985
483.6725, 3240.380
484.1546, 3239.745
484.6367, 3238.165
485.1189, 3237.172
485.6010, 3237.953
486.0831, 3238.550
486.5652, 3237.949
487.0473, 3235.522
487.5294, 3233.155
488.0116, 3230.704
488.4937, 3228.442
488.9758, 3226.836
489.4579, 3226.146
489.9400, 3225.335
490.4221, 3224.213
490.9043, 3222.770
491.3864, 3220.427
491.8685, 3216.890
492.3506, 3214.496
492.8327, 3216.278
493.3148, 3220.936
493.7970, 3222.094
494.2791, 3218.880
494.7612, 3214.267
495.2433, 3211.305
495.7254, 3209.606
496.2076, 3208.159
496.6897, 3207.199
497.1718, 3205.801
497.6539, 3202.767
498.1360, 3198.473
498.6181, 3194.241
499.1003, 3190.985
499.5824, 3187.917
500.0645, 3184.466
500.5466, 3180.324
501.0287, 3176.578
501.5108, 3173.777
501.9930, 3171.364
502.4751, 3168.817
502.9572, 3167.598
503.4393, 3164.281
503.9214, 3156.680
504.4035, 3146.626
504.8857, 3140.677
505.3678, 3141.474
505.8499, 3141.686
506.3320, 3137.744
506.8141, 3129.204
507.2962, 3123.553
507.7784, 3121.291
508.2605, 3120.472
508.7426, 3119.205
509.2247, 3117.526
509.7068, 3116.035
510.1889, 3114.927
510.6711, 3113.875
511.1532, 3112.237
511.6353, 3110.114
512.1174, 3108.097
512.5995, 3105.438
513.0817, 3103.566
513.5638, 3105.531
514.0459, 3111.100
514.5280, 3114.825
515.0101, 3111.824
515.4922, 3106.109
515.9744, 3101.338
516.4565, 3098.163
516.9386, 3096.236
517.4207, 3095.879
517.9028, 3096.649
518.3849, 3097.807
518.8671, 3099.888
519.3492, 3101.647
519.8313, 3102.756
520.3134, 3103.237
520.7955, 3103.630
521.2776, 3103.694
521.7598, 3103.969
522.2419, 3104.615
522.7240, 3105.480
523.2061, 3107.505
523.6882, 3110.950
524.1703, 3115.033
524.6525, 3118.687
525.1346, 3121.986
525.6167, 3125.754
526.0988, 3130.400
526.5809, 3135.437
527.0630, 3139.959
527.5452, 3144.041
528.0273, 3148.073
528.5094, 3151.785
528.9915, 3155.890
529.4736, 3161.265
529.9557, 3168.006
530.4379, 3175.558
530.9200, 3184.265
531.4021, 3193.331
531.8842, 3201.929
532.3663, 3208.638
532.8484, 3216.510
533.3306, 3227.792
533.8127, 3240.587
534.2948, 3250.605
534.7769, 3254.489
535.2590, 3259.196
535.7411, 3266.389
536.2233, 3275.990
536.7054, 3286.239
537.1875, 3297.778
537.6696, 3308.690
538.1517, 3317.427
538.6339, 3323.704
539.1160, 3331.305
539.5981, 3340.696
540.0802, 3350.672
540.5623, 3359.631
541.0444, 3367.825
541.5266, 3376.962
542.0087, 3387.948
542.4908, 3399.651
542.9729, 3410.284
543.4550, 3419.977
543.9371, 3429.663
544.4193, 3440.369
544.9014, 3451.010
545.3835, 3460.461
545.8656, 3468.540
546.3477, 3476.899
546.8298, 3486.877
547.3120, 3497.149
547.7941, 3506.591
548.2762, 3516.394
548.7583, 3523.511
549.2404, 3526.832
549.7225, 3527.609
550.2047, 3527.831
550.6868, 3527.237
551.1689, 3526.682
551.6510, 3526.979
552.1331, 3527.633
552.6152, 3524.663
553.0974, 3517.429
553.5795, 3509.979
554.0616, 3505.970
554.5437, 3504.493
555.0258, 3499.729
555.5079, 3491.127
555.9901, 3481.197
556.4722, 3472.644
556.9543, 3464.637
557.4364, 3455.328
557.9185, 3443.625
558.4006, 3431.305
558.8828, 3419.024
559.3649, 3407.083
559.8470, 3395.941
560.3291, 3387.410
560.8112, 3378.118
561.2933, 3365.964
561.7755, 3350.794
562.2576, 3335.989
562.7397, 3321.288
563.2218, 3307.766
563.7039, 3296.226
564.1860, 3288.287
564.6682, 3277.782
565.1503, 3263.271
565.6324, 3247.956
566.1145, 3236.263
566.5966, 3228.448
567.0787, 3221.504
567.5609, 3214.936
568.0430, 3208.815
568.5251, 3203.221
569.0072, 3198.200
569.4893, 3194.312
569.9714, 3191.807
570.4536, 3190.591
570.9357, 3190.189
571.4178, 3190.651
571.8999, 3193.102
572.3820, 3199.065
572.8641, 3206.845
573.3463, 3214.721
573.8284, 3221.894
574.3105, 3230.622
574.7926, 3242.712
575.2747, 3256.282
575.7568, 3268.878
576.2390, 3277.928
576.7211, 3289.276
577.2032, 3303.391
577.6853, 3320.339
578.1674, 3340.479
578.6495, 3365.120
579.1317, 3389.112
579.6138, 3409.715
580.0959, 3427.551
580.5780, 3447.696
581.0601, 3470.435
581.5422, 3494.473
582.0244, 3519.257
582.5065, 3544.649
582.9886, 3569.561
583.4707, 3594.071
583.9528, 3619.079
584.4349, 3645.555
584.9170, 3673.092
585.3991, 3701.112
585.8812, 3731.416
586.3633, 3760.061
586.8455, 3784.310
587.3276, 3805.509
587.8097, 3826.425
588.2918, 3849.435
588.7739, 3870.222
589.2560, 3887.055
589.7382, 3899.851
590.2203, 3913.151
590.7024, 3928.365
591.1845, 3941.291
591.6666, 3948.711
592.1487, 3950.324
592.6309, 3951.376
593.1130, 3952.424
593.5951, 3951.733
594.0772, 3947.118
594.5593, 3938.947
595.0414, 3928.770
595.5236, 3917.073
596.0057, 3903.278
596.4878, 3886.805
596.9699, 3867.851
597.4520, 3846.976
597.9341, 3823.305
598.4163, 3798.687
598.8984, 3774.501
599.3805, 3750.474
599.8626, 3724.820
600.3447, 3695.398
600.8268, 3665.699
601.3090, 3637.106
601.7911, 3609.805
602.2732, 3582.424
602.7553, 3555.000
603.2374, 3527.469
603.7195, 3500.297
604.2017, 3473.332
604.6838, 3445.825
605.1659, 3417.112
605.6480, 3388.635
606.1301, 3363.428
606.6122, 3340.946
607.0944, 3318.640
607.5765, 3294.467
608.0586, 3270.844
608.5407, 3250.132
609.0228, 3232.161
609.5049, 3215.581
609.9871, 3200.801
610.4692, 3186.499
610.9513, 3171.980
611.4334, 3157.041
611.9155, 3141.998
612.3976, 3125.051
612.8798, 3109.432
613.3619, 3097.434
613.8440, 3090.948
614.3261, 3083.084
614.8082, 3072.978
615.2903, 3062.652
615.7725, 3055.028
616.2546, 3050.287
616.7367, 3045.475
617.2188, 3039.716
617.7009, 3034.104
618.1830, 3030.805
618.6652, 3029.461
619.1473, 3028.626
619.6294, 3027.211
620.1115, 3026.260
620.5936, 3027.371
621.0757, 3030.105
621.5579, 3032.319
622.0400, 3031.610
622.5221, 3031.078
623.0042, 3032.358
623.4863, 3035.648
623.9684, 3040.516
624.4506, 3048.677
624.9327, 3056.894
625.4148, 3062.782
625.8969, 3064.881
626.3790, 3068.917
626.8611, 3075.359
627.3433, 3083.295
627.8254, 3091.744
628.3075, 3100.676
628.7896, 3109.440
629.2717, 3117.792
629.7538, 3126.070
630.2360, 3134.231
630.7181, 3142.614
631.2002, 3152.196
631.6823, 3164.151
632.1644, 3177.033
632.6465, 3189.337
633.1287, 3201.390
633.6108, 3214.633
634.0929, 3230.675
634.5750, 3247.294
635.0571, 3263.295
635.5392, 3278.661
636.0214, 3293.491
636.5035, 3306.527
636.9856, 3320.599
637.4677, 3338.157
637.9498, 3359.685
638.4319, 3380.757
638.9141, 3400.986
639.3962, 3420.423
639.8783, 3439.051
640.3604, 3456.760
640.8425, 3473.757
641.3246, 3489.626
641.8068, 3505.355
642.2889, 3521.248
642.7710, 3537.918
643.2531, 3557.160
643.7352, 3581.884
644.2173, 3607.086
644.6995, 3629.801
645.1816, 3650.494
645.6637, 3673.231
646.1458, 3698.674
646.6279, 3726.207
647.1100, 3756.323
647.5922, 3788.901
648.0743, 3821.286
648.5564, 3852.660
649.0385, 3885.299
649.5206, 3920.848
650.0027, 3958.854
650.4849, 3995.619
650.9670, 4030.283
651.4491, 4065.390
651.9312, 4103.207
652.4133, 4143.187
652.8954, 4183.886
653.3776, 4226.574
653.8597, 4267.979
654.3418, 4306.041
654.8239, 4341.763
655.3060, 4376.036
655.7881, 4406.944
656.2703, 4439.063
656.7524, 4474.272
657.2345, 4511.555
657.7166, 4548.135
658.1987, 4584.638
658.6808, 4619.136
659.1630, 4650.739
659.6451, 4679.773
660.1272, 4708.126
660.6093, 4736.133
661.0914, 4762.667
661.5735, 4788.438
662.0557, 4812.075
662.5378, 4830.650
663.0199, 4843.978
663.5020, 4854.087
663.9841, 4862.389
664.4662, 4868.126
664.9484, 4870.940
665.4305, 4871.756
665.9126, 4866.885
666.3947, 4853.768
666.8768, 4835.327
667.3589, 4814.776
667.8411, 4793.227
668.3232, 4767.786
668.8053, 4738.520
669.2874, 4705.385
669.7695, 4667.828
670.2516, 4625.782
670.7338, 4581.896
671.2159, 4536.796
671.6980, 4491.148
672.1801, 4445.900
672.6622, 4401.485
673.1443, 4357.814
673.6265, 4316.080
674.1086, 4274.772
674.5907, 4232.227
675.0728, 4189.161
675.5549, 4147.771
676.0370, 4109.202
676.5192, 4072.257
677.0013, 4035.077
677.4834, 3997.055
677.9655, 3964.367
678.4476, 3938.641
678.9297, 3914.804
679.4119, 3889.098
679.8940, 3861.163
680.3761, 3837.035
680.8582, 3816.747
681.3403, 3798.928
681.8224, 3782.403
682.3046, 3767.043
682.7867, 3752.281
683.2688, 3738.241
683.7509, 3724.378
684.2330, 3709.735
684.7151, 3695.509
685.1973, 3683.571
685.6794, 3676.158
686.1615, 3668.848
686.6436, 3659.874
687.1257, 3650.774
687.6078, 3644.856
688.0900, 3643.832
688.5721, 3641.597
689.0542, 3636.285
689.5363, 3629.070
690.0184, 3623.257
690.5005, 3618.817
690.9827, 3614.846
691.4648, 3611.121
691.9469, 3607.387
692.4290, 3603.061
692.9111, 3598.240
693.3932, 3593.521
693.8754, 3588.946
694.3575, 3584.788
694.8396, 3581.227
695.3217, 3578.301
695.8038, 3575.970
696.2859, 3574.912
696.7681, 3573.867
697.2502, 3572.145
697.7323, 3569.577
698.2144, 3567.503
698.6965, 3566.144
699.1786, 3564.717
699.6608, 3561.745
700.1429, 3557.835
700.6250, 3556.491
701.1071, 3558.638
701.5892, 3560.483
702.0714, 3557.106
702.5535, 3551.309
703.0356, 3547.197
703.5177, 3546.425
703.9998, 3546.639
704.4819, 3548.028
704.9641, 3549.522
705.4462, 3549.411
705.9283, 3546.646
706.4104, 3543.861
706.8925, 3541.319
707.3746, 3538.998
707.8568, 3536.603
708.3389, 3534.060
708.8210, 3532.610
709.3031, 3533.093
709.7852, 3534.578
710.2673, 3535.311
710.7495, 3535.394
711.2316, 3535.190
711.7137, 3534.552
712.1958, 3533.978
712.6779, 3534.285
713.1600, 3535.213
713.6422, 3534.955
714.1243, 3530.528
714.6064, 3527.247
715.0885, 3528.057
715.5706, 3533.160
716.0527, 3534.625
716.5349, 3531.038
717.0170, 3527.489
717.4991, 3527.593
717.9812, 3530.864
718.4633, 3533.500
718.9454, 3535.406
719.4276, 3536.913
719.9097, 3537.179
720.3918, 3537.703
720.8739, 3540.955
721.3560, 3547.799
721.8381, 3554.238
722.3203, 3558.016
722.8024, 3560.772
723.2845, 3563.959
723.7666, 3567.656
724.2487, 3571.948
724.7308, 3577.240
725.2130, 3582.708
725.6951, 3586.876
726.1772, 3589.491
726.6593, 3594.972
727.1414, 3604.762
727.6235, 3615.128
728.1057, 3620.554
728.5878, 3622.470
729.0699, 3624.443
729.5520, 3626.596
730.0341, 3630.874
730.5162, 3640.275
730.9984, 3652.430
731.4805, 3663.110
731.9626, 3668.932
732.4447, 3676.076
732.9268, 3686.063
733.4089, 3698.018
733.8911, 3709.409
734.3732, 3720.106
734.8553, 3730.294
735.3374, 3739.602
735.8195, 3748.765
736.3016, 3759.928
736.7838, 3772.849
737.2659, 3786.035
737.7480, 3798.887
738.2301, 3811.442
738.7122, 3824.374
739.1943, 3837.337
739.6765, 3848.707
740.1586, 3853.805
740.6407, 3861.064
741.1228, 3875.790
741.6049, 3897.594
742.0870, 3915.058
742.5692, 3926.512
743.0513, 3937.811
743.5334, 3951.836
744.0155, 3968.478
744.4976, 3986.490
744.9797, 4005.950
745.4619, 4025.506
745.9440, 4043.856
746.4261, 4061.565
746.9082, 4079.376
747.3903, 4097.337
747.8724, 4115.685
748.3546, 4133.981
748.8367, 4152.811
749.3188, 4172.589
749.8009, 4192.885
750.2830, 4214.593
750.7651, 4239.130
751.2473, 4262.837
751.7294, 4282.487
752.2115, 4297.988
752.6936, 4314.758
753.1757, 4333.256
753.6578, 4352.668
754.1400, 4372.518
754.6221, 4392.660
755.1042, 4413.243
755.5863, 4434.284
756.0684, 4455.268
756.5505, 4475.787
757.0327, 4496.169
757.5148, 4516.144
757.9969, 4535.849
758.4790, 4555.553
758.9611, 4574.983
759.4432, 4594.671
759.9254, 4615.127
760.4075, 4636.538
760.8896, 4656.925
761.3717, 4675.534
761.8538, 4694.339
762.3359, 4717.634
762.8181, 4742.851
763.3002, 4764.277
763.7823, 4778.406
764.2644, 4792.161
764.7465, 4809.724
765.2286, 4829.167
765.7108, 4848.103
766.1929, 4866.741
766.6750, 4883.835
767.1571, 4898.594
767.6392, 4912.281
768.1213, 4927.701
768.6035, 4945.032
769.0856, 4961.436
769.5677, 4975.813
770.0498, 4989.839
770.5319, 5006.639
771.0140, 5025.158
771.4962, 5042.756
771.9783, 5058.466
772.4604, 5072.767
772.9425, 5085.141
773.4246, 5096.220
773.9067, 5107.394
774.3889, 5119.615
774.8710, 5130.791
775.3531, 5140.261
775.8352, 5148.623
776.3173, 5157.620
776.7994, 5167.252
777.2816, 5176.917
777.7637, 5186.356
778.2458, 5195.825
778.7279, 5205.982
779.2100, 5216.633
779.6921, 5226.872
780.1743, 5235.891
780.6564, 5244.910
781.1385, 5254.312
781.6206, 5264.275
782.1027, 5275.330
782.5848, 5288.353
783.0670, 5301.030
783.5491, 5312.333
784.0312, 5322.872
784.5133, 5335.906
784.9954, 5351.542
785.4775, 5366.005
785.9597, 5376.031
786.4418, 5385.034
786.9239, 5398.879
787.4060, 5416.476
787.8881, 5433.813
788.3702, 5446.899
788.8524, 5460.748
789.3345, 5478.341
789.8166, 5499.330
790.2987, 5518.722
790.7808, 5535.163
791.2629, 5552.782
791.7451, 5573.553
792.2272, 5596.578
792.7093, 5620.138
