##NAMES=Gotzenite
##RRUFFID=R141182
##IDEAL CHEMISTRY=Ca_4_NaCa_2_Ti^4+^(Si_2_O_7_)_2_(OF)F_2_
##LOCALITY=Po√ßos De Caldas, Minas Gerais, Brazil
##OWNER=RRUFF
##SOURCE=Marcelo B. Andrade
##DESCRIPTION=Brown prismatic crystals
##STATUS=The identification of this mineral is confirmed by single-crystal X-ray diffraction and chemical analysis.
##URL=rruff.info/R141182
##MEASURED CHEMISTRY=Na_1.00_(Ca_4.77_Na_0.62_Ce_0.12_Mn_0.12_Sr_0.10_Zr_0.07_Fe_0.07_La_0.06_Nd_0.04_Y_0.03_Dy_0.02_)(Ti_0.90_Zr_0.06_Nb_0.04_)(Si_2.01_O_7_)_2_OF_3.06_  ; lighter areas
172.5555, 12148.38
173.0376, 12202.54
173.5197, 12251.70
174.0018, 12302.98
174.4839, 12360.71
174.9661, 12423.83
175.4482, 12485.20
175.9303, 12545.17
176.4124, 12602.82
176.8945, 12653.74
177.3766, 12702.41
177.8588, 12756.03
178.3409, 12820.78
178.8230, 12896.92
179.3051, 12970.06
179.7872, 13038.81
180.2693, 13106.04
180.7515, 13171.06
181.2336, 13234.95
181.7157, 13298.97
182.1978, 13364.12
182.6799, 13430.16
183.1620, 13499.50
183.6441, 13572.73
184.1263, 13647.70
184.6084, 13723.30
185.0905, 13799.39
185.5726, 13876.71
186.0547, 13956.63
186.5368, 14039.97
187.0190, 14114.07
187.5011, 14168.68
187.9832, 14221.13
188.4653, 14284.89
188.9474, 14360.98
189.4296, 14441.15
189.9117, 14518.91
190.3938, 14593.86
190.8759, 14665.31
191.3580, 14723.55
191.8401, 14782.30
192.3223, 14862.58
192.8044, 14970.94
193.2865, 15079.47
193.7686, 15152.20
194.2507, 15200.63
194.7328, 15259.91
195.2150, 15347.71
195.6971, 15452.60
196.1792, 15554.12
196.6613, 15652.71
197.1434, 15742.64
197.6255, 15810.21
198.1077, 15865.20
198.5898, 15932.43
199.0719, 16034.35
199.5540, 16161.88
200.0361, 16273.72
200.5182, 16358.92
201.0004, 16442.23
201.4825, 16537.06
201.9646, 16640.45
202.4467, 16743.65
202.9288, 16840.73
203.4109, 16932.21
203.8930, 17022.13
204.3752, 17099.40
204.8573, 17187.50
205.3394, 17302.29
205.8215, 17435.25
206.3036, 17566.40
206.7857, 17676.29
207.2679, 17763.18
207.7500, 17863.55
208.2321, 17994.12
208.7142, 18123.81
209.1963, 18241.49
209.6784, 18349.14
210.1606, 18454.75
210.6427, 18565.55
211.1248, 18681.42
211.6069, 18797.18
212.0890, 18913.66
212.5711, 19028.93
213.0533, 19139.91
213.5354, 19248.39
214.0175, 19360.94
214.4996, 19483.56
214.9817, 19617.76
215.4638, 19754.07
215.9460, 19898.23
216.4281, 20039.44
216.9102, 20172.85
217.3923, 20298.26
217.8744, 20419.59
218.3565, 20538.99
218.8387, 20655.99
219.3208, 20775.94
219.8029, 20896.31
220.2850, 21021.65
220.7671, 21160.71
221.2492, 21311.10
221.7314, 21455.58
222.2135, 21576.92
222.6956, 21673.18
223.1777, 21780.85
223.6598, 21906.84
224.1419, 22039.07
224.6240, 22171.99
225.1062, 22304.79
225.5883, 22429.56
226.0704, 22536.53
226.5525, 22627.62
227.0346, 22725.03
227.5167, 22835.60
227.9989, 22949.45
228.4810, 23054.73
228.9631, 23150.47
229.4452, 23248.05
229.9273, 23359.60
230.4094, 23478.80
230.8916, 23588.61
231.3737, 23681.96
231.8558, 23766.63
232.3379, 23851.74
232.8200, 23938.00
233.3021, 24019.28
233.7843, 24081.98
234.2664, 24139.14
234.7485, 24212.79
235.2306, 24318.61
235.7127, 24434.59
236.1948, 24532.24
236.6770, 24610.21
237.1591, 24677.36
237.6412, 24734.20
238.1233, 24784.38
238.6054, 24831.58
239.0875, 24877.32
239.5697, 24920.04
240.0518, 24954.86
240.5339, 24978.06
241.0160, 25005.94
241.4981, 25050.01
241.9802, 25099.45
242.4624, 25143.97
242.9445, 25179.34
243.4266, 25210.06
243.9087, 25245.50
244.3908, 25290.58
244.8729, 25326.03
245.3550, 25341.97
245.8372, 25349.09
246.3193, 25356.41
246.8014, 25367.09
247.2835, 25376.91
247.7656, 25378.14
248.2477, 25367.46
248.7299, 25355.54
249.2120, 25341.44
249.6941, 25328.64
250.1762, 25321.83
250.6583, 25322.14
251.1404, 25323.50
251.6226, 25316.42
252.1047, 25301.29
252.5868, 25275.93
253.0689, 25229.52
253.5510, 25181.69
254.0331, 25147.44
254.5153, 25130.13
254.9974, 25120.71
255.4795, 25104.53
255.9616, 25075.08
256.4437, 25053.65
256.9258, 25045.45
257.4080, 25040.42
257.8901, 25031.81
258.3722, 25018.54
258.8543, 25004.30
259.3364, 24994.63
259.8185, 24993.72
260.3007, 24986.40
260.7828, 24971.97
261.2649, 24953.08
261.7470, 24924.39
262.2291, 24889.24
262.7112, 24863.40
263.1934, 24867.60
263.6755, 24915.85
264.1576, 24942.55
264.6397, 24936.33
265.1218, 24922.50
265.6039, 24908.04
266.0861, 24897.31
266.5682, 24898.34
267.0503, 24921.11
267.5324, 24970.82
268.0145, 25008.42
268.4966, 25034.50
268.9788, 25050.87
269.4609, 25053.78
269.9430, 25046.42
270.4251, 25036.93
270.9072, 25030.42
271.3893, 25026.50
271.8715, 25040.68
272.3536, 25088.89
272.8357, 25135.40
273.3178, 25163.37
273.7999, 25176.65
274.2820, 25187.42
274.7642, 25203.15
275.2463, 25223.82
275.7284, 25250.02
276.2105, 25293.78
276.6926, 25328.92
277.1747, 25337.10
277.6568, 25329.80
278.1389, 25333.97
278.6211, 25365.96
279.1032, 25417.98
279.5853, 25456.72
280.0674, 25474.41
280.5495, 25491.21
281.0316, 25512.52
281.5138, 25536.36
281.9959, 25559.12
282.4780, 25579.19
282.9601, 25597.81
283.4422, 25617.98
283.9243, 25642.69
284.4065, 25663.75
284.8886, 25676.80
285.3707, 25685.97
285.8528, 25696.16
286.3349, 25708.63
286.8170, 25725.07
287.2992, 25749.08
287.7813, 25780.92
288.2634, 25817.87
288.7455, 25867.62
289.2276, 25918.88
289.7097, 25954.58
290.1919, 25970.32
290.6740, 25981.79
291.1561, 26011.52
291.6382, 26063.50
292.1203, 26099.87
292.6024, 26104.41
293.0846, 26098.68
293.5667, 26101.90
294.0488, 26116.68
294.5309, 26139.06
295.0130, 26166.50
295.4951, 26199.33
295.9773, 26234.18
296.4594, 26273.56
296.9415, 26312.84
297.4236, 26345.09
297.9057, 26371.11
298.3878, 26404.03
298.8700, 26456.95
299.3521, 26525.05
299.8342, 26577.39
300.3163, 26599.71
300.7984, 26619.11
301.2805, 26649.55
301.7627, 26690.27
302.2448, 26738.17
302.7269, 26794.06
303.2090, 26854.82
303.6911, 26910.55
304.1732, 26955.25
304.6554, 27005.52
305.1375, 27073.60
305.6196, 27153.45
306.1017, 27228.69
306.5838, 27292.09
307.0659, 27350.30
307.5481, 27415.69
308.0302, 27489.08
308.5123, 27564.24
308.9944, 27635.48
309.4765, 27707.83
309.9586, 27792.20
310.4408, 27893.26
310.9229, 27996.73
311.4050, 28074.88
311.8871, 28125.33
312.3692, 28202.27
312.8513, 28333.51
313.3335, 28488.59
313.8156, 28633.89
314.2977, 28764.04
314.7798, 28888.48
315.2619, 29016.00
315.7440, 29146.36
316.2262, 29273.09
316.7083, 29395.35
317.1904, 29513.92
317.6725, 29622.72
318.1546, 29723.93
318.6367, 29837.79
319.1188, 29979.92
319.6010, 30146.82
320.0831, 30315.41
320.5652, 30496.88
321.0473, 30669.91
321.5294, 30814.87
322.0115, 30939.40
322.4937, 31073.33
322.9758, 31230.34
323.4579, 31404.47
323.9400, 31576.53
324.4221, 31745.13
324.9042, 31916.29
325.3864, 32094.15
325.8685, 32276.12
326.3506, 32459.36
326.8327, 32643.71
327.3148, 32827.69
327.7969, 33008.54
328.2791, 33185.11
328.7612, 33365.30
329.2433, 33552.49
329.7254, 33742.64
330.2075, 33929.79
330.6896, 34112.95
331.1718, 34298.11
331.6539, 34493.70
332.1360, 34700.51
332.6181, 34902.93
333.1002, 35094.65
333.5823, 35284.89
334.0645, 35477.52
334.5466, 35673.18
335.0287, 35882.23
335.5108, 36115.71
335.9929, 36368.22
336.4750, 36594.61
336.9572, 36783.76
337.4393, 36964.08
337.9214, 37139.70
338.4035, 37315.73
338.8856, 37504.59
339.3677, 37714.34
339.8499, 37934.30
340.3320, 38133.37
340.8141, 38298.77
341.2962, 38468.97
341.7783, 38656.12
342.2604, 38850.46
342.7426, 39040.24
343.2247, 39221.43
343.7068, 39393.99
344.1889, 39556.59
344.6710, 39705.49
345.1531, 39854.00
345.6353, 39992.16
346.1174, 40135.96
346.5995, 40305.59
347.0816, 40497.50
347.5637, 40686.53
348.0458, 40847.69
348.5280, 40979.98
349.0101, 41110.79
349.4922, 41234.51
349.9743, 41362.66
350.4564, 41498.13
350.9385, 41640.91
351.4207, 41793.49
351.9028, 41958.13
352.3849, 42129.86
352.8670, 42288.63
353.3491, 42410.52
353.8312, 42548.89
354.3134, 42719.02
354.7955, 42905.25
355.2776, 43093.27
355.7597, 43277.45
356.2418, 43455.37
356.7239, 43624.74
357.2061, 43786.74
357.6882, 43935.27
358.1703, 44054.90
358.6524, 44173.74
359.1345, 44307.93
359.6166, 44460.36
360.0987, 44627.51
360.5808, 44811.00
361.0630, 45015.80
361.5451, 45185.69
362.0272, 45289.44
362.5093, 45392.53
362.9914, 45516.98
363.4735, 45657.27
363.9557, 45796.51
364.4378, 45924.24
364.9199, 46045.04
365.4020, 46179.18
365.8841, 46345.20
366.3662, 46499.19
366.8484, 46620.48
367.3305, 46735.47
367.8126, 46875.36
368.2947, 47047.98
368.7768, 47229.57
369.2589, 47380.72
369.7411, 47484.99
370.2232, 47603.02
370.7053, 47757.60
371.1874, 47908.43
371.6695, 48027.73
372.1516, 48120.25
372.6338, 48217.38
373.1159, 48349.17
373.5980, 48513.93
374.0801, 48666.28
374.5622, 48786.83
375.0443, 48919.38
375.5265, 49087.42
376.0086, 49274.23
376.4907, 49449.04
376.9728, 49593.48
377.4549, 49728.61
377.9370, 49906.22
378.4192, 50142.51
378.9013, 50375.68
379.3834, 50586.59
379.8655, 50789.50
380.3476, 50988.94
380.8297, 51186.36
381.3119, 51398.63
381.7940, 51644.74
382.2761, 51924.70
382.7582, 52211.91
383.2403, 52503.77
383.7224, 52802.85
384.2046, 53114.09
384.6867, 53433.36
385.1688, 53754.38
385.6509, 54066.16
386.1330, 54375.45
386.6151, 54697.94
387.0973, 55031.01
387.5794, 55382.84
388.0615, 55772.99
388.5436, 56182.52
389.0257, 56585.77
389.5078, 56974.20
389.9900, 57361.48
390.4721, 57758.64
390.9542, 58166.14
391.4363, 58575.32
391.9184, 58979.96
392.4005, 59389.82
392.8827, 59818.45
393.3648, 60265.68
393.8469, 60723.20
394.3290, 61198.64
394.8111, 61678.51
395.2932, 62131.04
395.7754, 62553.65
396.2575, 62972.56
396.7396, 63410.09
397.2217, 63867.84
397.7038, 64344.60
398.1859, 64866.30
398.6681, 65389.86
399.1501, 65887.24
399.6323, 66362.99
400.1144, 66834.31
400.5965, 67306.98
401.0786, 67784.33
401.5607, 68271.73
402.0428, 68778.26
402.5250, 69277.17
403.0071, 69749.45
403.4892, 70218.28
403.9713, 70718.09
404.4534, 71251.95
404.9355, 71781.37
405.4177, 72258.32
405.8998, 72665.60
406.3819, 73089.11
406.8640, 73538.14
407.3461, 73990.62
407.8282, 74432.98
408.3104, 74871.20
408.7925, 75325.81
409.2746, 75817.23
409.7567, 76330.73
410.2388, 76806.11
410.7209, 77199.48
411.2031, 77608.86
411.6852, 78052.73
412.1673, 78510.20
412.6494, 78964.20
413.1315, 79409.45
413.6136, 79847.88
414.0958, 80279.55
414.5779, 80703.10
415.0600, 81133.89
415.5421, 81577.83
416.0242, 82022.11
416.5063, 82467.80
416.9885, 82911.66
417.4706, 83335.62
417.9527, 83721.90
418.4348, 84090.08
418.9169, 84519.58
419.3990, 85036.05
419.8812, 85553.33
420.3633, 86044.52
420.8454, 86521.66
421.3275, 86993.77
421.8096, 87462.48
422.2917, 87918.94
422.7739, 88350.44
423.2560, 88756.83
423.7381, 89156.30
424.2202, 89536.00
424.7023, 89929.66
425.1844, 90377.34
425.6666, 90862.89
426.1487, 91331.84
426.6308, 91747.88
427.1129, 92140.90
427.5950, 92548.64
428.0771, 92973.85
428.5593, 93415.44
429.0414, 93885.48
429.5235, 94363.99
430.0056, 94807.09
430.4877, 95208.15
430.9698, 95590.98
431.4520, 95956.14
431.9341, 96311.74
432.4162, 96679.33
432.8983, 97064.14
433.3804, 97450.93
433.8625, 97825.74
434.3447, 98188.07
434.8268, 98522.55
435.3089, 98805.76
435.7910, 99080.02
436.2731, 99387.61
436.7552, 99712.54
437.2374, 99996.98
437.7195, 100204.4
438.2016, 100351.7
438.6837, 100499.3
439.1658, 100668.9
439.6479, 100811.0
440.1301, 100898.9
440.6122, 100971.2
441.0943, 101081.6
441.5764, 101231.2
442.0585, 101355.9
442.5406, 101376.7
443.0227, 101279.3
443.5049, 101185.9
443.9870, 101118.2
444.4691, 101032.8
444.9512, 100932.0
445.4333, 100801.9
445.9154, 100616.8
446.3976, 100361.9
446.8797, 100058.2
447.3618, 99755.45
447.8439, 99467.81
448.3260, 99138.28
448.8081, 98738.73
449.2903, 98303.39
449.7724, 97843.59
450.2545, 97363.27
450.7366, 96871.80
451.2187, 96390.76
451.7008, 95906.95
452.1830, 95376.79
452.6651, 94800.05
453.1472, 94180.57
453.6293, 93489.27
454.1114, 92763.42
454.5935, 92056.27
455.0757, 91395.21
455.5578, 90728.51
456.0399, 90005.13
456.5220, 89237.05
457.0041, 88462.94
457.4862, 87692.23
457.9684, 86920.27
458.4505, 86142.70
458.9326, 85361.86
459.4147, 84560.40
459.8968, 83714.43
460.3789, 82865.42
460.8611, 82052.58
461.3432, 81273.45
461.8253, 80501.66
462.3074, 79715.42
462.7895, 78924.16
463.2716, 78146.98
463.7538, 77386.06
464.2359, 76635.48
464.7180, 75879.94
465.2001, 75135.00
465.6822, 74415.95
466.1643, 73723.84
466.6465, 73062.14
467.1286, 72437.34
467.6107, 71847.02
468.0928, 71266.83
468.5749, 70703.55
469.0570, 70141.91
469.5392, 69566.19
470.0213, 68993.59
470.5034, 68454.67
470.9855, 67962.84
471.4676, 67503.05
471.9497, 67049.98
472.4319, 66603.28
472.9140, 66168.61
473.3961, 65749.27
473.8782, 65343.95
474.3603, 64948.46
474.8424, 64567.63
475.3246, 64208.48
475.8067, 63879.91
476.2888, 63577.23
476.7709, 63287.14
477.2530, 63010.96
477.7351, 62746.63
478.2173, 62486.89
478.6994, 62243.69
479.1815, 62037.07
479.6636, 61875.30
480.1457, 61723.57
480.6278, 61558.34
481.1100, 61392.83
481.5920, 61253.40
482.0742, 61145.14
482.5563, 61047.89
483.0384, 60940.89
483.5205, 60825.52
484.0026, 60733.42
484.4847, 60668.14
484.9669, 60620.20
485.4490, 60592.48
485.9311, 60577.59
486.4132, 60563.04
486.8953, 60544.07
487.3774, 60525.75
487.8596, 60517.61
488.3417, 60526.43
488.8238, 60526.47
489.3059, 60504.04
489.7880, 60487.58
490.2701, 60495.29
490.7523, 60520.27
491.2344, 60544.96
491.7165, 60558.54
492.1986, 60565.73
492.6807, 60579.55
493.1628, 60602.11
493.6450, 60625.82
494.1271, 60655.11
494.6092, 60680.69
495.0913, 60695.43
495.5734, 60699.39
496.0555, 60698.70
496.5377, 60699.66
497.0198, 60698.91
497.5019, 60685.99
497.9840, 60658.77
498.4661, 60628.21
498.9482, 60604.79
499.4304, 60578.99
499.9125, 60531.71
500.3946, 60452.22
500.8767, 60374.93
501.3588, 60328.50
501.8409, 60292.45
502.3231, 60227.37
502.8052, 60125.29
503.2873, 60009.36
503.7694, 59906.01
504.2515, 59815.21
504.7336, 59680.09
505.2158, 59466.65
505.6979, 59252.46
506.1800, 59073.27
506.6621, 58908.30
507.1442, 58728.09
507.6263, 58521.48
508.1085, 58293.54
508.5906, 58052.01
509.0727, 57793.48
509.5548, 57531.89
510.0369, 57276.50
510.5190, 57008.86
511.0012, 56724.49
511.4833, 56420.95
511.9654, 56089.50
512.4475, 55719.23
512.9296, 55338.89
513.4117, 55010.99
513.8939, 54745.53
514.3760, 54446.16
514.8581, 54079.50
515.3402, 53680.91
515.8223, 53281.32
516.3044, 52880.18
516.7866, 52471.26
517.2687, 52047.74
517.7508, 51615.61
518.2329, 51179.71
518.7150, 50740.50
519.1971, 50301.00
519.6793, 49862.10
520.1614, 49423.64
520.6435, 48994.55
521.1256, 48576.11
521.6077, 48155.80
522.0898, 47737.18
522.5720, 47313.51
523.0541, 46877.47
523.5362, 46432.86
524.0183, 45987.73
524.5004, 45548.59
524.9825, 45118.91
525.4647, 44706.54
525.9468, 44335.70
526.4289, 43952.47
526.9110, 43549.52
527.3931, 43133.45
527.8752, 42699.96
528.3574, 42255.61
528.8395, 41828.36
529.3216, 41449.44
529.8037, 41110.80
530.2858, 40756.67
530.7679, 40381.75
531.2501, 40005.90
531.7322, 39631.13
532.2143, 39263.59
532.6964, 38905.12
533.1785, 38555.91
533.6606, 38219.66
534.1428, 37901.40
534.6249, 37596.22
535.1070, 37287.93
535.5891, 36973.58
536.0712, 36669.60
536.5533, 36396.13
537.0355, 36144.82
537.5176, 35870.05
537.9997, 35535.42
538.4818, 35222.98
538.9639, 34968.38
539.4460, 34741.64
539.9282, 34506.24
540.4103, 34254.66
540.8924, 33996.80
541.3745, 33741.35
541.8566, 33487.55
542.3387, 33263.06
542.8209, 33111.18
543.3029, 32938.81
543.7850, 32708.83
544.2672, 32458.36
544.7493, 32230.53
545.2314, 32036.53
545.7135, 31856.59
546.1956, 31670.36
546.6777, 31478.75
547.1599, 31302.87
547.6420, 31150.39
548.1241, 31000.50
548.6062, 30837.20
549.0883, 30668.91
549.5704, 30506.95
550.0526, 30352.35
550.5347, 30207.63
551.0168, 30079.32
551.4989, 29960.62
551.9810, 29834.37
552.4631, 29696.70
552.9453, 29563.21
553.4274, 29451.52
553.9095, 29361.32
554.3916, 29253.57
554.8737, 29111.50
555.3558, 28974.51
555.8380, 28849.32
556.3201, 28736.13
556.8022, 28642.15
557.2843, 28565.88
557.7664, 28488.99
558.2485, 28386.83
558.7307, 28258.63
559.2128, 28143.50
559.6949, 28050.61
560.1770, 27959.54
560.6591, 27857.81
561.1412, 27756.13
561.6234, 27671.13
562.1055, 27609.16
562.5876, 27542.83
563.0697, 27439.01
563.5518, 27310.99
564.0339, 27203.69
564.5161, 27123.19
564.9982, 27057.43
565.4803, 27004.27
565.9624, 26958.85
566.4445, 26899.72
566.9266, 26809.48
567.4088, 26730.34
567.8909, 26691.05
568.3730, 26664.04
568.8551, 26612.40
569.3372, 26531.29
569.8193, 26440.71
570.3015, 26359.91
570.7836, 26287.90
571.2657, 26211.98
571.7478, 26124.01
572.2299, 26042.79
572.7120, 25977.52
573.1942, 25915.63
573.6763, 25842.63
574.1584, 25757.46
574.6405, 25675.09
575.1226, 25613.26
575.6047, 25565.51
576.0869, 25503.96
576.5690, 25426.00
577.0511, 25345.13
577.5332, 25267.59
578.0153, 25191.59
578.4974, 25113.36
578.9796, 25031.14
579.4617, 24954.64
579.9438, 24896.56
580.4259, 24840.90
580.9080, 24766.85
581.3901, 24675.22
581.8723, 24578.29
582.3544, 24481.12
582.8365, 24389.78
583.3186, 24325.49
583.8007, 24327.20
584.2828, 24296.09
584.7650, 24207.46
585.2471, 24107.08
585.7292, 24021.91
586.2113, 23952.36
586.6934, 23888.21
587.1755, 23824.31
587.6577, 23759.54
588.1398, 23689.79
588.6219, 23613.01
589.1040, 23545.33
589.5861, 23498.30
590.0682, 23452.61
590.5504, 23388.29
591.0325, 23308.33
591.5146, 23232.79
591.9967, 23175.22
592.4788, 23118.29
592.9609, 23042.46
593.4431, 22955.32
593.9252, 22880.69
594.4073, 22827.99
594.8894, 22784.70
595.3715, 22732.86
595.8536, 22669.12
596.3358, 22611.66
596.8179, 22566.41
597.3000, 22519.99
597.7821, 22468.27
598.2642, 22411.99
598.7463, 22352.72
599.2285, 22290.82
599.7106, 22225.61
600.1927, 22151.60
600.6748, 22069.28
601.1569, 22002.36
601.6390, 21955.57
602.1212, 21916.49
602.6033, 21883.66
603.0854, 21852.42
603.5675, 21817.43
604.0496, 21780.16
604.5317, 21732.47
605.0139, 21660.27
605.4960, 21579.26
605.9781, 21513.51
606.4602, 21465.23
606.9423, 21421.28
607.4244, 21371.95
607.9066, 21320.34
608.3887, 21280.17
608.8708, 21266.32
609.3529, 21243.16
609.8350, 21209.03
610.3171, 21165.99
610.7993, 21106.99
611.2814, 21039.32
611.7635, 20985.15
612.2456, 20962.66
612.7277, 20955.11
613.2098, 20922.16
613.6920, 20860.09
614.1741, 20815.79
614.6562, 20810.92
615.1383, 20813.56
615.6204, 20788.68
616.1025, 20741.03
616.5847, 20698.87
617.0668, 20673.13
617.5489, 20649.40
618.0310, 20613.26
618.5131, 20573.41
618.9952, 20552.53
619.4774, 20556.45
619.9595, 20559.73
620.4416, 20528.64
620.9237, 20458.86
621.4058, 20419.90
621.8879, 20446.16
622.3701, 20461.91
622.8522, 20444.51
623.3343, 20413.35
623.8164, 20387.02
624.2985, 20369.70
624.7806, 20356.88
625.2628, 20346.26
625.7448, 20337.26
626.2269, 20329.04
626.7090, 20321.74
627.1912, 20311.97
627.6733, 20295.02
628.1554, 20277.61
628.6375, 20276.07
629.1196, 20295.91
629.6017, 20302.80
630.0839, 20278.66
630.5660, 20251.54
631.0481, 20242.63
631.5302, 20246.46
632.0123, 20246.66
632.4944, 20235.71
632.9766, 20219.53
633.4587, 20209.09
633.9408, 20206.65
634.4229, 20197.13
634.9050, 20169.86
635.3871, 20149.56
635.8693, 20151.50
636.3514, 20165.06
636.8335, 20174.47
637.3156, 20175.88
637.7977, 20173.62
638.2798, 20167.81
638.7620, 20161.46
639.2441, 20163.21
639.7262, 20173.47
640.2083, 20177.84
640.6904, 20165.99
641.1725, 20142.46
641.6547, 20122.15
642.1368, 20105.21
642.6189, 20091.64
643.1010, 20081.45
643.5831, 20074.48
644.0652, 20073.52
644.5474, 20075.51
645.0295, 20073.91
645.5116, 20065.42
645.9937, 20051.25
646.4758, 20028.75
646.9579, 19998.11
647.4401, 19984.06
647.9222, 19997.29
648.4043, 20013.00
648.8864, 20011.31
649.3685, 19997.03
649.8506, 19985.03
650.3328, 19977.84
650.8149, 19971.13
651.2970, 19971.38
651.7791, 19966.91
652.2612, 19935.54
652.7433, 19880.70
653.2255, 19834.26
653.7076, 19821.10
654.1897, 19831.68
654.6718, 19829.52
655.1539, 19806.71
655.6360, 19790.05
656.1182, 19791.53
656.6003, 19792.60
657.0824, 19780.93
657.5645, 19759.94
658.0466, 19742.13
658.5287, 19734.69
659.0109, 19727.69
659.4930, 19713.24
659.9751, 19691.67
660.4572, 19661.98
660.9393, 19623.80
661.4214, 19584.76
661.9036, 19551.82
662.3857, 19524.15
662.8678, 19493.09
663.3499, 19449.68
663.8320, 19415.27
664.3141, 19398.03
664.7963, 19385.75
665.2784, 19372.53
