##NAMES=Goudeyite
##RRUFFID=R060268
##IDEAL CHEMISTRY=Cu^2+^_6_Al(As^5+^O_4_)_3_(OH)_6_&#183;3H_2_O
##LOCALITY=Copper Stope, Majuba Hill mine, Pershing County, Nevada, USA
##OWNER=RRUFF
##SOURCE=Michael Scott
##DESCRIPTION=Green acicular crystals in spherical aggregates
##STATUS=The identification of this mineral has been confirmed only by X-ray diffraction
##URL=rruff.info/R060268
93.46167, 69.27512
93.94379, 68.08196
94.42590, 65.88337
94.90802, 63.63073
95.39014, 62.30109
95.87225, 62.10994
96.35437, 61.88146
96.83649, 60.83602
97.31860, 59.64794
97.80072, 59.13659
98.28284, 59.88828
98.76495, 61.44651
99.24707, 61.80164
99.72919, 60.24668
100.2113, 58.28847
100.6934, 55.69248
101.1755, 52.93859
101.6577, 50.89319
102.1398, 50.34211
102.6219, 51.51543
103.1040, 52.94672
103.5861, 55.72822
104.0682, 57.87681
104.5504, 57.91044
105.0325, 55.77432
105.5146, 52.91669
105.9967, 51.39183
106.4788, 51.97078
106.9609, 51.88835
107.4431, 50.52221
107.9252, 48.52831
108.4073, 46.67316
108.8894, 45.09254
109.3715, 44.02092
109.8536, 44.06808
110.3358, 45.51511
110.8179, 46.66572
111.3000, 46.23602
111.7821, 44.41733
112.2642, 43.12040
112.7463, 43.62119
113.2285, 44.67195
113.7106, 45.06908
114.1927, 44.58154
114.6748, 43.49762
115.1569, 41.94493
115.6390, 39.34370
116.1212, 37.80871
116.6033, 38.81530
117.0854, 40.70702
117.5675, 41.81661
118.0496, 41.25343
118.5317, 39.40257
119.0139, 38.09545
119.4960, 37.09998
119.9781, 37.04435
120.4602, 38.96780
120.9423, 41.88734
121.4244, 44.12590
121.9066, 44.32608
122.3887, 42.30968
122.8708, 40.67964
123.3529, 39.34010
123.8350, 38.34469
124.3171, 37.93580
124.7993, 38.02188
125.2814, 38.09075
125.7635, 37.54408
126.2456, 36.17145
126.7277, 35.40071
127.2098, 35.45085
127.6920, 36.02391
128.1741, 37.03411
128.6562, 38.58601
129.1383, 39.97040
129.6204, 40.12384
130.1025, 39.20704
130.5847, 38.08823
131.0668, 36.82647
131.5489, 35.57363
132.0310, 34.87285
132.5131, 34.94433
132.9952, 35.56260
133.4774, 36.81233
133.9595, 38.66415
134.4416, 40.01942
134.9237, 39.54684
135.4058, 36.90043
135.8879, 34.82449
136.3701, 34.51385
136.8522, 34.50710
137.3343, 33.71817
137.8164, 31.92018
138.2985, 30.12591
138.7806, 30.37785
139.2628, 35.01572
139.7449, 37.32304
140.2270, 35.06602
140.7091, 31.35353
141.1912, 28.99293
141.6733, 29.25727
142.1555, 31.37755
142.6376, 32.72768
143.1197, 32.84652
143.6018, 32.63626
144.0839, 31.80549
144.5660, 30.73974
145.0482, 30.06932
145.5303, 30.21140
146.0124, 31.02280
146.4945, 31.41709
146.9766, 31.22572
147.4587, 30.89014
147.9409, 30.47515
148.4230, 30.02873
148.9051, 29.75476
149.3872, 29.90242
149.8693, 30.35548
150.3514, 30.43849
150.8336, 29.94952
151.3157, 29.20434
151.7978, 28.29866
152.2799, 27.15640
152.7620, 26.39944
153.2441, 27.15746
153.7263, 28.61601
154.2084, 29.35004
154.6905, 28.09195
155.1726, 25.89804
155.6547, 25.20822
156.1368, 26.66304
156.6190, 28.56109
157.1011, 30.39961
157.5832, 31.96003
158.0653, 32.77511
158.5474, 32.19657
159.0295, 30.36970
159.5117, 29.25218
159.9938, 29.55438
160.4759, 29.92092
160.9580, 29.77456
161.4401, 29.25843
161.9222, 28.83577
162.4044, 28.98436
162.8865, 29.85642
163.3686, 30.40678
163.8507, 30.78931
164.3328, 30.76223
164.8149, 29.86849
165.2971, 28.28466
165.7792, 26.76121
166.2613, 26.17263
166.7434, 26.82663
167.2255, 27.68174
167.7076, 29.35872
168.1898, 30.80521
168.6719, 31.14136
169.1540, 30.23751
169.6361, 28.76301
170.1182, 27.62419
170.6003, 26.94715
171.0825, 26.34021
171.5646, 25.34168
172.0467, 24.57982
172.5288, 24.97709
173.0109, 26.89438
173.4930, 29.41381
173.9752, 31.16905
174.4573, 32.27932
174.9394, 32.67327
175.4215, 31.88803
175.9036, 30.37427
176.3857, 29.13729
176.8679, 28.47098
177.3500, 28.16673
177.8321, 27.90735
178.3142, 27.67735
178.7963, 27.57235
179.2784, 27.95539
179.7606, 28.69774
180.2427, 28.61550
180.7248, 26.44345
181.2069, 24.17125
181.6890, 23.68039
182.1711, 25.15789
182.6533, 27.14924
183.1354, 28.32424
183.6175, 28.60269
184.0996, 28.70048
184.5817, 28.35358
185.0638, 28.13404
185.5460, 28.74324
186.0281, 30.27839
186.5102, 31.63314
186.9923, 30.78807
187.4744, 26.15812
187.9565, 23.63623
188.4387, 25.45973
188.9208, 28.43762
189.4029, 30.39219
189.8850, 30.65003
190.3671, 29.91352
190.8492, 29.49809
191.3314, 29.61538
191.8135, 29.74727
192.2956, 29.83827
192.7777, 29.93743
193.2598, 30.11596
193.7419, 30.39742
194.2241, 30.71193
194.7062, 30.89264
195.1883, 31.21160
195.6704, 31.02026
196.1525, 29.92027
196.6346, 28.42721
197.1168, 27.05672
197.5989, 26.02036
198.0810, 25.34691
198.5631, 25.17996
199.0452, 26.56313
199.5273, 27.06382
200.0095, 25.36168
200.4916, 22.65093
200.9737, 20.82731
201.4558, 20.72038
201.9379, 22.04346
202.4200, 24.20817
202.9022, 28.15177
203.3843, 31.19435
203.8664, 32.12473
204.3485, 31.38863
204.8306, 30.06321
205.3127, 28.31144
205.7949, 26.57127
206.2770, 25.77797
206.7591, 26.21823
207.2412, 26.86148
207.7233, 27.19860
208.2054, 27.25413
208.6876, 27.16693
209.1697, 26.97506
209.6518, 26.66188
210.1339, 26.19993
210.6160, 25.52787
211.0981, 24.88590
211.5803, 24.43321
212.0624, 24.16981
212.5445, 24.11497
213.0266, 24.40787
213.5087, 24.84824
213.9908, 25.31838
214.4730, 25.83476
214.9551, 26.18715
215.4372, 25.97388
215.9193, 25.04483
216.4014, 24.48281
216.8836, 25.20497
217.3657, 26.07055
217.8478, 26.24407
218.3299, 25.51553
218.8120, 24.44852
219.2941, 23.71432
219.7763, 23.25724
220.2584, 23.35372
220.7405, 24.64574
221.2226, 26.10845
221.7047, 27.10168
222.1868, 27.44260
222.6690, 27.27109
223.1511, 26.70645
223.6332, 25.41483
224.1153, 24.49902
224.5974, 23.92179
225.0795, 23.76952
225.5617, 24.30855
226.0438, 25.55155
226.5259, 27.02250
227.0080, 27.88536
227.4901, 27.81590
227.9722, 27.66710
228.4544, 27.42261
228.9365, 27.15433
229.4186, 26.90121
229.9007, 26.68044
230.3828, 26.50965
230.8649, 26.44345
231.3471, 26.76558
231.8292, 26.70175
232.3113, 25.71026
232.7934, 24.67846
233.2755, 24.44093
233.7576, 25.19452
234.2398, 26.39025
234.7219, 27.11065
235.2040, 26.98217
235.6861, 27.00812
236.1682, 27.61746
236.6503, 28.15130
237.1325, 27.78382
237.6146, 26.34402
238.0967, 24.67055
238.5788, 24.07637
239.0609, 25.30914
239.5430, 25.92042
240.0252, 25.40763
240.5073, 24.44804
240.9894, 23.65047
241.4715, 23.15818
241.9536, 22.89132
242.4357, 22.78163
242.9179, 22.87597
243.4000, 22.92320
243.8821, 22.63761
244.3642, 22.41558
244.8463, 22.80216
245.3284, 23.93166
245.8106, 25.25608
246.2927, 26.27656
246.7748, 27.02043
247.2569, 27.05467
247.7390, 25.76439
248.2211, 23.96358
248.7033, 22.44413
249.1854, 21.27187
249.6675, 20.78348
250.1496, 21.93077
250.6317, 24.40199
251.1138, 25.87045
251.5960, 25.00158
252.0781, 23.23598
252.5602, 22.51272
253.0423, 23.13784
253.5244, 24.04531
254.0065, 24.37192
254.4887, 24.26222
254.9708, 24.04724
255.4529, 23.69491
255.9350, 23.32747
256.4171, 23.10567
256.8992, 23.03516
257.3813, 23.10573
257.8635, 23.51278
258.3456, 24.04540
258.8277, 24.31895
259.3098, 24.03982
259.7919, 23.55052
260.2740, 23.31826
260.7562, 23.36034
261.2383, 23.58461
261.7204, 24.37368
262.2025, 25.20868
262.6846, 25.38726
263.1667, 24.58916
263.6489, 23.19455
264.1310, 21.39096
264.6131, 18.85919
265.0952, 17.31653
265.5773, 18.51004
266.0594, 20.71707
266.5416, 22.49339
267.0237, 23.53445
267.5058, 23.81438
267.9879, 22.97523
268.4700, 20.66285
268.9521, 18.88639
269.4343, 18.50565
269.9164, 18.86414
270.3985, 19.68481
270.8806, 20.93963
271.3627, 22.27503
271.8448, 23.37297
272.3270, 24.30984
272.8091, 24.62821
273.2912, 23.60498
273.7733, 22.29000
274.2554, 21.20189
274.7375, 20.44347
275.2197, 20.03679
275.7018, 20.06944
276.1839, 20.59997
276.6660, 21.18702
277.1481, 22.37713
277.6302, 23.14089
278.1124, 22.48609
278.5945, 20.56581
279.0766, 18.78229
279.5587, 18.73735
280.0408, 20.67234
280.5229, 22.15413
281.0051, 23.17340
281.4872, 23.58141
281.9693, 22.77664
282.4514, 21.14589
282.9335, 19.88566
283.4156, 20.35465
283.8978, 22.61564
284.3799, 23.60279
284.8620, 21.70770
285.3441, 20.09638
285.8262, 20.17369
286.3083, 21.39719
286.7905, 22.46875
287.2726, 22.42082
287.7547, 21.37920
288.2368, 20.54666
288.7189, 20.07575
289.2010, 19.65135
289.6832, 18.99622
290.1653, 18.36548
290.6474, 18.26072
291.1295, 19.09250
291.6116, 20.46086
292.0938, 20.58865
292.5759, 17.73652
293.0580, 16.18566
293.5401, 17.80259
294.0222, 20.64079
294.5043, 22.49435
294.9865, 22.36595
295.4686, 20.96456
295.9507, 19.95441
296.4328, 19.37251
296.9149, 19.17836
297.3970, 19.33930
297.8792, 19.82722
298.3613, 20.90525
298.8434, 22.57844
299.3255, 24.12552
299.8076, 24.17795
300.2897, 21.74030
300.7719, 20.05032
301.2540, 19.48903
301.7361, 19.42380
302.2182, 19.55370
302.7003, 19.78234
303.1824, 20.07767
303.6646, 20.46859
304.1467, 21.09988
304.6288, 21.27409
305.1109, 20.36205
305.5930, 19.56827
306.0751, 19.74768
306.5573, 20.66685
307.0394, 21.30540
307.5215, 20.53728
308.0036, 18.17419
308.4857, 17.14797
308.9678, 19.35404
309.4500, 21.07893
309.9321, 20.73319
310.4142, 19.08518
310.8963, 17.83778
311.3784, 18.18463
311.8605, 19.91203
312.3427, 21.33331
312.8248, 22.60617
313.3069, 23.33055
313.7890, 23.01778
314.2711, 22.25461
314.7532, 21.82264
315.2354, 22.12291
315.7175, 22.86528
316.1996, 23.21006
316.6817, 22.92554
317.1638, 22.57782
317.6459, 22.05028
318.1281, 21.59098
318.6102, 21.59094
319.0923, 22.12580
319.5744, 22.67807
320.0565, 22.23927
320.5386, 19.98524
321.0208, 18.67257
321.5029, 18.85891
321.9850, 19.52120
322.4671, 20.21997
322.9492, 20.80098
323.4313, 21.14032
323.9135, 21.01362
324.3956, 20.25293
324.8777, 19.88803
325.3598, 21.07416
325.8419, 21.58565
326.3240, 19.52630
326.8062, 15.89552
327.2883, 13.44953
327.7704, 14.59972
328.2525, 19.08944
328.7346, 22.34943
329.2167, 24.05072
329.6989, 24.73342
330.1810, 23.89768
330.6631, 22.29659
331.1452, 20.99609
331.6273, 20.58698
332.1094, 20.78400
332.5916, 20.68064
333.0737, 19.98129
333.5558, 19.49052
334.0379, 19.35416
334.5200, 19.44826
335.0021, 19.89141
335.4843, 20.68856
335.9664, 21.22702
336.4485, 20.12432
336.9306, 16.21326
337.4127, 14.18384
337.8948, 16.42639
338.3770, 19.11013
338.8591, 19.74549
339.3412, 18.28113
339.8233, 16.57953
340.3055, 16.83000
340.7876, 19.34648
341.2697, 20.61245
341.7518, 19.53399
342.2339, 18.17664
342.7160, 17.20245
343.1982, 16.58896
343.6803, 16.08271
344.1624, 15.36209
344.6445, 14.63459
345.1266, 15.11985
345.6087, 17.97749
346.0909, 20.14218
346.5730, 20.36082
347.0551, 19.51478
347.5372, 18.63321
348.0193, 18.08617
348.5014, 17.83036
348.9836, 17.81415
349.4657, 18.09036
349.9478, 18.43112
350.4299, 18.85784
350.9120, 19.27842
351.3941, 19.60246
351.8763, 19.81543
352.3584, 20.02094
352.8405, 20.37279
353.3226, 20.88088
353.8047, 21.24332
354.2868, 21.60815
354.7690, 21.58141
355.2511, 20.63585
355.7332, 19.00490
356.2153, 17.66514
356.6974, 17.49631
357.1795, 18.16793
357.6617, 18.29519
358.1438, 17.50914
358.6259, 16.92472
359.1080, 17.63693
359.5901, 18.87481
360.0722, 19.29075
360.5544, 17.88836
361.0365, 16.05819
361.5186, 16.00331
362.0007, 17.98013
362.4828, 19.72241
362.9649, 20.18266
363.4471, 19.98752
363.9292, 19.87317
364.4113, 19.95910
364.8934, 19.90773
365.3755, 19.13606
365.8576, 17.86910
366.3398, 17.47055
366.8219, 18.67464
367.3040, 20.21526
367.7861, 20.76061
368.2682, 20.39965
368.7503, 19.82919
369.2325, 18.83479
369.7146, 17.94891
370.1967, 18.46779
370.6788, 20.77737
371.1609, 22.75256
371.6430, 22.34940
372.1252, 20.23962
372.6073, 18.70357
373.0894, 18.20300
373.5715, 18.23994
374.0536, 18.51947
374.5357, 19.02744
375.0179, 19.80369
375.5000, 21.14474
375.9821, 22.48302
376.4642, 22.36039
376.9463, 19.99391
377.4284, 18.17002
377.9106, 18.52765
378.3927, 19.96897
378.8748, 20.40002
379.3569, 19.16368
379.8390, 17.66194
380.3211, 17.92929
380.8033, 20.46143
381.2854, 21.78290
381.7675, 20.74356
382.2496, 19.05321
382.7317, 17.93718
383.2138, 17.48846
383.6960, 17.30322
384.1781, 17.05365
384.6602, 16.77854
385.1423, 17.02745
385.6244, 18.40179
386.1065, 19.52781
386.5887, 19.71353
387.0708, 19.38766
387.5529, 19.28850
388.0350, 19.74129
388.5171, 20.55877
388.9992, 21.34860
389.4814, 22.41740
389.9635, 22.93003
390.4456, 22.69511
390.9277, 22.04342
391.4098, 21.01860
391.8919, 19.75517
392.3741, 18.66919
392.8562, 18.20368
393.3383, 18.41111
393.8204, 18.85203
394.3025, 20.18421
394.7846, 21.05799
395.2668, 20.54752
395.7489, 19.28939
396.2310, 18.56140
396.7131, 19.16699
397.1952, 20.60858
397.6773, 21.08590
398.1595, 19.64689
398.6416, 18.81863
399.1237, 19.32982
399.6058, 20.26233
400.0879, 20.80035
400.5700, 20.77029
401.0522, 20.62211
401.5343, 20.99851
402.0164, 22.05088
402.4985, 22.71491
402.9806, 22.84588
403.4627, 22.64587
403.9449, 22.04932
404.4270, 21.18131
404.9091, 20.30413
405.3912, 19.50471
405.8733, 18.85004
406.3554, 18.60771
406.8376, 18.93625
407.3197, 19.28013
407.8018, 19.55069
408.2839, 19.66460
408.7660, 19.39813
409.2481, 18.60472
409.7303, 17.92900
410.2124, 18.16513
410.6945, 19.24718
411.1766, 20.20398
411.6587, 21.08378
412.1408, 21.41554
412.6230, 20.43320
413.1051, 18.35409
413.5872, 16.82517
414.0693, 16.54428
414.5514, 17.23342
415.0335, 18.88304
415.5157, 21.63656
415.9978, 23.71181
416.4799, 23.50051
416.9620, 21.77174
417.4441, 21.10085
417.9262, 22.73344
418.4084, 23.89849
418.8905, 22.08658
419.3726, 18.55464
419.8547, 16.91518
420.3368, 18.75471
420.8189, 21.73909
421.3011, 21.69099
421.7832, 17.40013
422.2653, 15.39852
422.7474, 18.90430
423.2295, 23.27752
423.7116, 24.06124
424.1938, 21.28539
424.6759, 18.30951
425.1580, 17.73965
425.6401, 19.44366
426.1222, 20.96801
426.6043, 22.89425
427.0865, 24.00439
427.5686, 23.30771
428.0507, 21.82899
428.5328, 21.07318
429.0149, 21.60286
429.4970, 22.69477
429.9792, 23.00709
430.4613, 21.76049
430.9434, 21.46821
431.4255, 23.11545
431.9076, 24.68444
432.3897, 24.86704
432.8719, 23.87974
433.3540, 22.78026
433.8361, 22.34341
434.3182, 22.52885
434.8003, 23.19103
435.2824, 25.48746
435.7646, 26.38581
436.2467, 23.97776
436.7288, 20.52887
437.2109, 18.43811
437.6930, 18.45909
438.1751, 19.58104
438.6573, 20.84823
439.1394, 22.31712
439.6215, 23.07531
440.1036, 22.70326
440.5857, 21.87744
441.0678, 20.78635
441.5500, 19.58660
442.0321, 18.81023
442.5142, 18.93112
442.9963, 19.55970
443.4784, 19.93767
443.9605, 20.00728
444.4427, 20.31104
444.9248, 21.46472
445.4069, 22.83539
445.8890, 23.25079
446.3711, 22.30761
446.8532, 21.41031
447.3354, 21.66542
447.8175, 22.48778
448.2996, 22.41652
448.7817, 21.00780
449.2638, 19.46528
449.7459, 19.18657
450.2281, 20.26980
450.7102, 20.96031
451.1923, 21.01006
451.6744, 20.81473
452.1565, 20.30755
452.6386, 19.72567
453.1208, 19.78782
453.6029, 20.93905
454.0850, 22.73619
454.5671, 23.95497
455.0492, 24.60174
455.5313, 24.57800
456.0135, 23.30951
456.4956, 21.75807
456.9777, 20.54528
457.4598, 19.83488
457.9419, 19.62856
458.4240, 19.99690
458.9062, 20.95011
459.3883, 21.71620
459.8704, 22.07024
460.3525, 22.48792
460.8346, 23.51278
461.3167, 24.49792
461.7989, 24.38824
462.2810, 22.75887
462.7631, 20.77398
463.2452, 20.41191
463.7273, 22.01873
464.2094, 23.18567
464.6916, 23.29619
465.1737, 23.17575
465.6558, 23.30390
466.1379, 23.62408
466.6200, 23.84907
467.1021, 23.68296
467.5843, 23.38272
468.0664, 23.66400
468.5485, 24.68197
469.0306, 25.08925
469.5127, 23.56363
469.9948, 21.50484
470.4770, 21.24626
470.9591, 23.35329
471.4412, 25.41219
471.9233, 26.05985
472.4054, 25.88423
472.8875, 26.01420
473.3697, 26.67412
473.8518, 27.22974
474.3339, 27.03754
474.8160, 26.09774
475.2981, 25.44769
475.7802, 25.29741
476.2624, 25.20883
476.7445, 24.97830
477.2266, 24.66933
477.7087, 24.38201
478.1908, 24.15140
478.6729, 24.05020
479.1551, 24.26030
479.6372, 25.19262
480.1193, 25.43435
480.6014, 24.24383
481.0835, 23.12255
481.5656, 23.06523
482.0478, 23.82067
482.5299, 24.50570
483.0120, 24.51734
483.4941, 24.06328
483.9762, 23.97790
484.4583, 24.62475
484.9405, 24.88655
485.4226, 24.14138
485.9047, 23.23387
486.3868, 22.76554
486.8689, 22.82989
487.3510, 23.24339
487.8332, 24.03409
488.3153, 25.08731
488.7974, 25.84479
489.2795, 26.21561
489.7616, 26.46293
490.2437, 27.11504
490.7259, 27.65688
491.2080, 27.07000
491.6901, 24.55641
492.1722, 22.11886
492.6543, 21.48009
493.1364, 22.08735
493.6186, 22.18301
494.1007, 21.16506
494.5828, 20.25271
495.0649, 21.19938
495.5470, 24.27846
496.0291, 25.69667
496.5113, 23.95523
496.9934, 21.80992
497.4755, 20.71496
497.9576, 20.51634
498.4397, 20.77957
498.9218, 21.33961
499.4040, 21.82530
499.8861, 21.30628
500.3682, 18.53027
500.8503, 17.09861
501.3324, 17.74644
501.8145, 18.93787
502.2967, 20.07470
502.7788, 20.93177
503.2609, 21.21336
503.7430, 20.56885
504.2251, 19.36456
504.7072, 19.09800
505.1894, 20.19255
505.6715, 21.26057
506.1536, 22.31635
506.6357, 22.96886
507.1178, 22.58916
507.5999, 21.18355
508.0821, 19.97020
508.5642, 19.91163
509.0463, 20.73565
509.5284, 21.89984
510.0105, 23.61538
510.4926, 24.55545
510.9748, 23.41366
511.4569, 21.01009
511.9390, 19.25745
512.4211, 18.15219
512.9032, 17.91807
513.3853, 19.76821
513.8674, 22.27368
514.3495, 22.50824
514.8317, 19.82961
515.3138, 16.78931
515.7959, 16.04558
516.2780, 17.79373
516.7601, 18.98725
517.2422, 19.14636
517.7244, 19.38839
518.2065, 20.16589
518.6886, 21.23565
519.1707, 22.38242
519.6528, 23.49125
520.1349, 24.23224
520.6171, 24.07351
521.0992, 22.89792
521.5813, 21.28992
522.0634, 17.91408
522.5455, 15.46957
523.0276, 15.55135
523.5098, 17.18627
523.9919, 18.54539
524.4740, 18.83110
524.9561, 18.49536
525.4382, 17.83534
525.9203, 16.83186
526.4025, 17.10781
526.8846, 20.11355
527.3667, 23.07036
527.8488, 22.58754
528.3309, 19.29834
528.8130, 17.35903
529.2952, 19.54364
529.7773, 22.39770
530.2594, 22.51358
530.7415, 20.34868
531.2236, 18.16679
531.7057, 16.84866
532.1879, 16.39627
532.6700, 16.93001
533.1521, 19.24795
533.6342, 20.72964
534.1163, 21.06518
534.5984, 20.77258
535.0806, 19.77059
535.5627, 18.41029
536.0448, 17.42688
536.5269, 17.26970
537.0090, 17.83261
537.4911, 18.98729
537.9733, 21.63040
538.4554, 22.87013
538.9375, 21.23237
539.4196, 19.10225
539.9017, 17.66314
540.3839, 17.04579
540.8660, 17.10373
541.3481, 18.14084
541.8302, 19.56803
542.3123, 19.94195
542.7944, 19.14017
543.2766, 18.33627
543.7587, 17.81941
544.2408, 17.69271
544.7229, 18.28166
545.2050, 19.74073
545.6871, 20.55275
546.1693, 19.70233
546.6514, 18.25114
547.1335, 17.01985
547.6156, 16.20290
548.0977, 16.48004
548.5798, 18.53604
549.0620, 21.55592
549.5441, 22.77674
550.0262, 19.63705
550.5083, 18.09024
550.9904, 19.60919
551.4725, 21.62993
551.9547, 22.39915
552.4368, 21.80543
552.9189, 20.43025
553.4010, 18.52998
553.8831, 16.38845
554.3652, 15.17333
554.8474, 15.00478
555.3295, 15.47612
555.8116, 17.56653
556.2937, 19.51549
556.7758, 19.81278
557.2579, 18.47107
557.7401, 17.00714
558.2222, 15.90732
558.7043, 15.41107
559.1864, 16.53983
559.6685, 19.31944
560.1506, 20.78986
560.6328, 18.89548
561.1149, 15.39816
561.5970, 14.40413
562.0791, 16.84164
562.5612, 18.29350
563.0433, 17.08237
563.5255, 15.22125
564.0076, 14.43898
564.4897, 14.65714
564.9718, 14.73721
565.4539, 13.89691
565.9360, 12.56860
566.4182, 12.29248
566.9003, 13.98255
567.3824, 14.99667
567.8645, 14.72576
568.3466, 14.17191
568.8287, 13.83990
569.3109, 13.78697
569.7930, 13.94144
570.2751, 14.27110
570.7572, 14.76630
571.2393, 15.50780
571.7214, 16.53613
572.2036, 17.30184
572.6857, 17.62436
573.1678, 17.59727
573.6499, 17.18455
574.1320, 16.39936
574.6141, 15.95250
575.0963, 16.31650
575.5784, 16.87701
576.0605, 17.15236
576.5426, 17.16396
577.0247, 17.00511
577.5068, 16.68710
577.9890, 16.43071
578.4711, 16.73340
578.9532, 18.22123
579.4353, 18.62951
579.9174, 16.92656
580.3995, 15.31454
580.8817, 14.89769
581.3638, 15.35515
581.8459, 16.07782
582.3280, 16.83816
582.8101, 17.25694
583.2922, 16.40937
583.7744, 14.15673
584.2565, 12.75571
584.7386, 12.88575
585.2207, 13.36859
585.7029, 13.35324
586.1850, 13.02656
586.6671, 12.84074
587.1492, 12.70482
587.6313, 13.00814
588.1135, 14.61011
588.5956, 16.81145
589.0777, 17.68126
589.5598, 16.69475
590.0419, 15.59378
590.5240, 16.42530
