##NAMES=Gowerite
##RRUFFID=R050673
##IDEAL CHEMISTRY=Ca[B_5_O_8_(OH)][B(OH)_3_]&#183;3H_2_O
##LOCALITY=Death Valley, California, USA
##OWNER=RRUFF
##SOURCE=University of Arizona Mineral Museum
##DESCRIPTION=Colorless bladed crystals associated with gypsum and priceite
##STATUS=The identification of this mineral is confirmed by single-crystal X-ray diffraction and chemical analysis.
##URL=rruff.info/R050673
##MEASURED CHEMISTRY=(Ca_0.98_Sr_0.02_)_Σ=1_[B_5_O_8_(OH)][B(OH)_3_]·3H_2_O ; B not measured but estimated by stoichiometry
92.02539, 317.9324
92.50751, 321.0269
92.98962, 324.7934
93.47174, 324.4139
93.95386, 322.7557
94.43597, 320.0833
94.91809, 316.9565
95.40021, 313.6404
95.88232, 309.7404
96.36444, 304.9117
96.84656, 300.0142
97.32867, 295.2758
97.81078, 290.8393
98.29290, 286.9046
98.77502, 283.5214
99.25713, 280.3655
99.73925, 276.7831
100.2214, 272.2050
100.7035, 267.8800
101.1856, 264.3998
101.6677, 261.7393
102.1498, 259.4547
102.6320, 256.9911
103.1141, 254.0086
103.5962, 251.7211
104.0783, 250.6315
104.5604, 249.9805
105.0425, 248.9445
105.5247, 247.2493
106.0068, 245.1543
106.4889, 242.9565
106.9710, 240.5691
107.4531, 238.3779
107.9352, 236.4750
108.4173, 234.8675
108.8995, 233.6653
109.3816, 233.3362
109.8637, 233.0968
110.3458, 231.9739
110.8279, 229.6544
111.3100, 227.2136
111.7922, 226.0523
112.2743, 226.5815
112.7564, 227.0999
113.2385, 227.1074
113.7206, 226.8862
114.2027, 226.6593
114.6849, 226.5269
115.1670, 226.4525
115.6491, 226.3070
116.1312, 225.9260
116.6133, 225.6652
117.0954, 225.7775
117.5776, 226.0213
118.0597, 225.9905
118.5418, 225.3589
119.0239, 224.1086
119.5060, 223.3878
119.9881, 223.3681
120.4703, 223.5838
120.9524, 223.9181
121.4345, 224.3354
121.9166, 224.8243
122.3987, 225.4458
122.8808, 226.2317
123.3630, 226.4938
123.8451, 225.8125
124.3272, 224.8201
124.8093, 224.1373
125.2914, 223.8798
125.7735, 223.7901
126.2557, 223.6700
126.7378, 223.5174
127.2199, 223.2059
127.7020, 222.4589
128.1841, 221.4776
128.6662, 220.9773
129.1483, 221.4137
129.6305, 221.9452
130.1126, 221.8535
130.5947, 221.1902
131.0768, 220.4912
131.5589, 220.2342
132.0410, 220.4723
132.5232, 220.7241
133.0053, 220.9313
133.4874, 221.1392
133.9695, 221.4066
134.4516, 221.7327
134.9337, 222.0255
135.4159, 222.1089
135.8980, 221.7335
136.3801, 221.6342
136.8622, 222.0453
137.3443, 222.5947
137.8264, 222.9885
138.3086, 223.1123
138.7907, 223.0274
139.2728, 222.8973
139.7549, 222.8677
140.2370, 222.6137
140.7191, 221.8411
141.2013, 220.8700
141.6834, 220.2061
142.1655, 220.1515
142.6476, 220.5481
143.1297, 220.6861
143.6118, 220.3400
144.0939, 220.0309
144.5761, 220.0897
145.0582, 220.4211
145.5403, 220.5876
146.0224, 220.3238
146.5045, 219.6725
146.9866, 218.8884
147.4688, 217.7815
147.9509, 216.7106
148.4330, 216.0859
148.9151, 215.9729
149.3972, 215.8887
149.8793, 215.5444
150.3615, 215.0459
150.8436, 214.5020
151.3257, 213.9752
151.8078, 213.4152
152.2899, 212.6448
152.7720, 211.3567
153.2542, 210.4196
153.7363, 210.3921
154.2184, 210.8457
154.7005, 211.1478
155.1826, 210.9318
155.6647, 210.2205
156.1469, 209.2364
156.6290, 207.7695
157.1111, 206.2041
157.5932, 204.5021
158.0753, 202.7686
158.5574, 201.1906
159.0396, 199.9149
159.5217, 198.9471
160.0038, 198.2653
160.4859, 198.2702
160.9680, 198.1633
161.4501, 197.5263
161.9323, 196.4107
162.4144, 195.1728
162.8965, 194.1700
163.3786, 193.4368
163.8607, 192.8561
164.3428, 192.4873
164.8250, 192.2156
165.3071, 191.9883
165.7892, 191.7909
166.2713, 191.5887
166.7534, 191.3037
167.2355, 190.9038
167.7177, 190.7036
168.1998, 190.8868
168.6819, 191.2359
169.1640, 191.4686
169.6461, 191.5152
170.1282, 191.4888
170.6104, 191.4592
171.0925, 191.4247
171.5746, 191.5624
172.0567, 192.1134
172.5388, 192.9093
173.0209, 193.4451
173.5031, 193.5566
173.9852, 193.4663
174.4673, 193.2802
174.9494, 193.0258
175.4315, 192.9818
175.9136, 193.5811
176.3958, 194.7880
176.8779, 195.4653
177.3600, 195.0229
177.8421, 194.3336
178.3242, 193.9370
178.8063, 193.8335
179.2885, 193.6703
179.7706, 192.9345
180.2527, 191.3712
180.7348, 190.3603
181.2169, 190.6650
181.6990, 191.0370
182.1812, 190.7880
182.6633, 189.8284
183.1454, 188.5595
183.6275, 187.5220
184.1096, 186.7771
184.5917, 186.1653
185.0738, 185.6986
185.5560, 185.3231
186.0381, 185.0603
186.5202, 184.8941
187.0023, 184.7182
187.4844, 184.3478
187.9665, 183.5971
188.4487, 182.9314
188.9308, 182.2793
189.4129, 181.7447
189.8950, 181.5251
190.3771, 181.6787
190.8592, 181.9257
191.3414, 181.6823
191.8235, 180.5212
192.3056, 179.6831
192.7877, 179.6500
193.2698, 179.9175
193.7519, 179.7598
194.2341, 178.8763
194.7162, 177.6355
195.1983, 176.7734
195.6804, 176.2924
196.1625, 175.9788
196.6446, 175.8388
197.1268, 175.8195
197.6089, 175.8208
198.0910, 175.8464
198.5731, 175.8157
199.0552, 175.5581
199.5373, 175.0137
200.0195, 174.5736
200.5016, 174.5195
200.9837, 174.7800
201.4658, 174.9741
201.9479, 174.9079
202.4300, 174.8208
202.9122, 175.0532
203.3943, 175.6560
203.8764, 176.1404
204.3585, 176.0254
204.8406, 175.3154
205.3227, 174.6947
205.8048, 174.3636
206.2870, 174.1621
206.7691, 174.0217
207.2512, 173.9314
207.7333, 173.8075
208.2154, 173.5357
208.6975, 173.0833
209.1797, 172.6784
209.6618, 172.2951
210.1439, 172.0157
210.6260, 171.9426
211.1081, 172.0764
211.5902, 172.2755
212.0724, 172.3471
212.5545, 172.2310
213.0366, 172.1682
213.5187, 172.3319
214.0008, 172.4410
214.4829, 172.2789
214.9651, 171.8230
215.4472, 171.2510
215.9293, 170.7945
216.4114, 170.3856
216.8935, 170.2721
217.3756, 170.6900
217.8578, 171.1820
218.3399, 171.4245
218.8220, 171.3522
219.3041, 171.1364
219.7862, 171.0425
220.2683, 171.1929
220.7505, 171.2269
221.2326, 171.1629
221.7147, 170.9880
222.1968, 170.6137
222.6789, 170.0459
223.1610, 169.4756
223.6432, 169.1932
224.1253, 169.3847
224.6074, 169.5129
225.0895, 169.4070
225.5716, 169.3311
226.0537, 169.6497
226.5358, 170.4281
227.0180, 171.2144
227.5001, 171.3091
227.9822, 170.3734
228.4643, 169.8184
228.9464, 170.1738
229.4285, 170.7438
229.9107, 170.6691
230.3928, 169.7403
230.8749, 168.6434
231.3570, 168.3040
231.8391, 168.7843
232.3212, 169.2601
232.8034, 169.7227
233.2855, 170.0700
233.7676, 170.1040
234.2497, 169.7496
234.7318, 169.3201
235.2139, 169.1665
235.6961, 169.2550
236.1782, 169.4183
236.6603, 169.7303
237.1424, 170.0583
237.6245, 170.1180
238.1066, 169.7737
238.5888, 169.5046
239.0709, 169.9918
239.5530, 170.9836
240.0351, 171.6690
240.5172, 171.6575
240.9993, 171.1831
241.4815, 170.5871
241.9636, 169.7431
242.4457, 169.1654
242.9278, 169.4260
243.4099, 170.2178
243.8920, 170.9391
244.3742, 171.4116
244.8563, 171.6301
245.3384, 171.5014
245.8205, 170.8355
246.3026, 170.2541
246.7847, 170.0794
247.2668, 170.2117
247.7490, 170.5412
248.2311, 171.1380
248.7132, 171.8413
249.1953, 172.2421
249.6774, 172.2204
250.1595, 172.1246
250.6417, 172.0755
251.1238, 172.0576
251.6059, 172.0537
252.0880, 172.0585
252.5701, 172.0703
253.0522, 172.0987
253.5344, 172.1989
254.0165, 172.1996
254.4986, 171.9251
254.9807, 171.5876
255.4628, 171.4774
255.9449, 171.7641
256.4271, 172.1856
256.9092, 172.1035
257.3913, 171.2764
257.8734, 170.3731
258.3555, 169.3065
258.8376, 168.3492
259.3198, 167.8042
259.8019, 167.7963
260.2840, 168.0993
260.7661, 168.2264
261.2482, 167.9922
261.7303, 167.9421
262.2125, 168.3411
262.6946, 168.8020
263.1767, 169.0004
263.6588, 168.8358
264.1409, 168.4364
264.6230, 168.0055
265.1052, 167.4682
265.5873, 167.0526
266.0694, 166.8195
266.5515, 166.6553
267.0336, 166.4093
267.5157, 166.0780
267.9979, 165.8603
268.4800, 166.1360
268.9621, 166.8583
269.4442, 167.4336
269.9263, 167.7616
270.4084, 167.8557
270.8906, 167.0152
271.3727, 167.3815
271.8548, 167.2642
272.3369, 167.1270
272.8190, 167.6632
273.3011, 166.9586
273.7833, 167.4841
274.2654, 167.5186
274.7475, 167.7778
275.2296, 167.5504
275.7117, 167.6179
276.1938, 167.6299
276.6760, 167.5802
277.1581, 167.8435
277.6402, 168.7546
278.1223, 169.5968
278.6044, 169.9438
279.0865, 169.8967
279.5686, 169.8776
280.0508, 170.2478
280.5329, 171.0188
281.0150, 171.5525
281.4971, 171.7684
281.9792, 171.8825
282.4613, 171.8916
282.9435, 171.8564
283.4256, 171.9096
283.9077, 172.1522
284.3898, 172.5502
284.8719, 172.7859
285.3540, 172.4735
285.8362, 172.4509
286.3183, 173.1489
286.8004, 174.2684
287.2825, 175.3187
287.7646, 176.0719
288.2467, 176.5144
288.7289, 176.5766
289.2110, 175.8306
289.6931, 175.2649
290.1752, 175.2542
290.6573, 175.4572
291.1394, 175.4165
291.6216, 174.9582
292.1037, 174.1684
292.5858, 173.1787
293.0679, 171.8776
293.5500, 170.6037
294.0321, 169.4120
294.5143, 168.2544
294.9964, 167.0634
295.4785, 165.8160
295.9606, 164.5839
296.4427, 163.4694
296.9248, 162.5120
297.4070, 161.5659
297.8891, 160.4600
298.3712, 159.4622
298.8533, 158.8833
299.3354, 158.7495
299.8175, 158.7419
300.2997, 158.5558
300.7818, 158.1589
301.2639, 157.7078
301.7460, 157.2032
302.2281, 156.6487
302.7102, 155.9644
303.1924, 155.1877
303.6745, 154.5322
304.1566, 154.1851
304.6387, 154.1343
305.1208, 153.9882
305.6029, 153.7231
306.0851, 153.3962
306.5672, 152.9936
307.0493, 152.5439
307.5314, 152.1048
308.0135, 151.6741
308.4956, 151.3096
308.9778, 151.2814
309.4599, 152.0513
309.9420, 152.5311
310.4241, 152.0456
310.9062, 151.0524
311.3883, 150.4928
311.8705, 150.8016
312.3526, 151.5879
312.8347, 152.0029
313.3168, 152.0241
313.7989, 151.8262
314.2810, 151.1727
314.7632, 150.4109
315.2453, 150.0555
315.7274, 150.2612
316.2095, 150.6706
316.6916, 150.7887
317.1737, 150.5248
317.6559, 150.3729
318.1380, 150.2382
318.6201, 149.8712
319.1022, 150.5647
319.5843, 151.0109
320.0664, 151.2232
320.5485, 150.5009
321.0306, 150.9854
321.5128, 150.9863
321.9949, 150.9674
322.4770, 151.6217
322.9591, 151.0354
323.4412, 151.6791
323.9233, 151.8318
324.4055, 152.2092
324.8876, 152.1000
325.3697, 152.1411
325.8518, 152.6690
326.3339, 152.9273
326.8160, 152.7621
327.2982, 153.1538
327.7803, 152.5504
328.2624, 152.8202
328.7445, 153.4668
329.2266, 153.3260
329.7087, 153.7266
330.1909, 153.9211
330.6730, 153.1785
331.1551, 154.0654
331.6372, 154.2477
332.1193, 153.7063
332.6014, 154.5374
333.0836, 154.0958
333.5657, 154.1085
334.0478, 154.2010
334.5299, 154.7121
335.0120, 155.4100
335.4941, 155.9508
335.9763, 156.2929
336.4584, 156.6129
336.9405, 157.0945
337.4226, 157.7643
337.9047, 158.2066
338.3868, 158.3314
338.8690, 158.3481
339.3511, 158.3392
339.8332, 158.3114
340.3153, 158.2462
340.7974, 158.1213
341.2795, 157.9572
341.7617, 157.8926
342.2438, 158.0026
342.7259, 158.1083
343.2080, 158.2759
343.6901, 158.3902
344.1722, 158.2166
344.6544, 157.6512
345.1365, 156.9221
345.6186, 156.5088
346.1007, 156.7592
346.5828, 156.8096
347.0649, 156.4633
347.5471, 156.0278
348.0292, 155.7476
348.5113, 155.6791
348.9934, 155.7788
349.4755, 156.0423
349.9576, 156.6095
350.4398, 156.7098
350.9219, 156.0561
351.4040, 155.2752
351.8861, 154.7054
352.3682, 154.3087
352.8503, 153.8598
353.3325, 153.1874
353.8146, 152.3058
354.2967, 151.4111
354.7788, 150.3774
355.2609, 149.4749
355.7430, 148.7581
356.2252, 148.2094
356.7073, 147.8614
357.1894, 147.7361
357.6715, 147.6761
358.1536, 147.2664
358.6357, 146.1612
359.1179, 145.2220
359.5999, 144.4417
360.0821, 143.8474
360.5642, 143.5192
361.0463, 143.4434
361.5284, 143.4742
362.0105, 143.4363
362.4926, 143.3212
362.9748, 143.1697
363.4569, 142.9990
363.9390, 142.7810
364.4211, 142.4832
364.9032, 142.1235
365.3853, 141.7233
365.8675, 141.2489
366.3496, 140.7491
366.8317, 140.7251
367.3138, 141.7800
367.7959, 142.5496
368.2780, 142.5715
368.7602, 142.2122
369.2423, 141.8984
369.7244, 141.8103
370.2065, 141.9012
370.6886, 142.1344
371.1707, 142.6626
371.6529, 142.9339
372.1350, 142.6713
372.6171, 142.2891
373.0992, 142.0091
373.5813, 141.8820
374.0634, 141.8849
374.5456, 142.1070
375.0277, 142.5744
375.5098, 142.6578
375.9919, 141.7851
376.4740, 141.1519
376.9561, 141.4568
377.4383, 142.4139
377.9204, 143.3638
378.4025, 144.0203
378.8846, 144.3644
379.3667, 144.2352
379.8488, 143.3580
380.3310, 142.7240
380.8131, 142.9294
381.2952, 143.4879
381.7773, 143.9068
382.2594, 144.0313
382.7415, 144.1416
383.2237, 144.5935
383.7058, 145.3850
384.1879, 146.1010
384.6700, 146.7212
385.1521, 147.1319
385.6342, 147.2103
386.1164, 146.9763
386.5985, 146.7093
387.0806, 146.5720
387.5627, 146.5131
388.0448, 146.4124
388.5269, 146.2595
389.0091, 146.0706
389.4912, 145.8914
389.9733, 145.6836
390.4554, 145.3415
390.9375, 144.7981
391.4196, 144.1548
391.9018, 143.3892
392.3839, 142.5358
392.8660, 141.9501
393.3481, 141.8242
393.8302, 142.0351
394.3123, 142.3761
394.7945, 142.9615
395.2766, 143.3142
395.7587, 143.0520
396.2408, 142.4827
396.7229, 142.1636
397.2050, 142.2335
397.6872, 142.3733
398.1693, 142.1621
398.6514, 141.5518
399.1335, 141.3293
399.6156, 141.9578
400.0977, 142.6365
400.5798, 142.7626
401.0620, 142.3985
401.5441, 141.9315
402.0262, 141.5632
402.5083, 141.3116
402.9904, 141.2940
403.4725, 141.5492
403.9547, 141.9489
404.4368, 142.6605
404.9189, 143.4329
405.4010, 143.9293
405.8831, 144.0488
406.3652, 143.9589
406.8474, 143.8839
407.3295, 143.7790
407.8116, 143.8395
408.2937, 144.1971
408.7758, 144.5822
409.2579, 144.7912
409.7401, 144.8811
410.2222, 145.0817
410.7043, 145.5882
411.1864, 146.3479
411.6685, 146.9194
412.1506, 147.4802
412.6328, 147.5879
413.1149, 146.9344
413.5970, 145.9145
414.0791, 144.9678
414.5612, 144.2419
415.0433, 143.5430
415.5255, 142.4944
416.0076, 140.8836
416.4897, 139.6461
416.9718, 139.1733
417.4539, 138.8095
417.9360, 138.2496
418.4182, 137.5199
418.9003, 136.8135
419.3824, 136.2168
419.8645, 135.7573
420.3466, 135.5935
420.8287, 135.8937
421.3109, 136.1405
421.7930, 136.0682
422.2751, 135.8571
422.7572, 135.6719
423.2393, 135.5363
423.7214, 135.5325
424.2036, 135.9224
424.6857, 136.6749
425.1678, 136.9675
425.6499, 136.4176
426.1320, 135.5918
426.6141, 134.9289
427.0963, 134.4356
427.5784, 134.1883
428.0605, 134.4314
428.5426, 134.8558
429.0247, 134.9262
429.5068, 134.5936
429.9890, 134.3060
430.4711, 134.3951
430.9532, 134.7328
431.4353, 134.8725
431.9174, 134.6721
432.3995, 134.4830
432.8817, 134.4884
433.3638, 134.6306
433.8459, 134.7940
434.3280, 134.9433
434.8101, 135.0952
435.2922, 135.2780
435.7744, 135.5053
436.2565, 135.6991
436.7386, 135.7693
437.2207, 135.8736
437.7028, 136.2100
438.1849, 136.7075
438.6671, 137.0509
439.1492, 136.9956
439.6313, 136.6452
440.1134, 136.6111
440.5955, 137.2122
441.0776, 137.7431
441.5598, 138.2680
442.0418, 138.6169
442.5240, 138.4831
443.0061, 137.8474
443.4882, 137.1465
443.9703, 136.9736
444.4524, 137.4563
444.9345, 137.8713
445.4167, 138.1431
445.8988, 138.4205
446.3809, 138.7168
446.8630, 139.0596
447.3451, 139.5053
447.8272, 140.0960
448.3094, 140.7738
448.7915, 141.4205
449.2736, 142.0857
449.7557, 142.5711
450.2378, 142.5449
450.7199, 142.5111
451.2021, 142.8941
451.6842, 143.7195
452.1663, 144.5828
452.6484, 145.1690
453.1305, 145.5263
453.6126, 145.9129
454.0948, 146.4880
454.5769, 146.7441
455.0590, 146.0685
455.5411, 144.8687
456.0232, 143.8258
456.5053, 143.1564
456.9875, 142.5988
457.4696, 141.9566
457.9517, 141.2426
458.4338, 140.4683
458.9159, 139.5813
459.3980, 138.7458
459.8802, 138.3035
460.3623, 138.3063
460.8444, 138.0934
461.3265, 136.9915
461.8086, 136.0054
462.2907, 136.2748
462.7729, 137.6826
463.2550, 139.1144
463.7371, 139.8472
464.2192, 139.9599
464.7013, 139.9156
465.1834, 139.4881
465.6656, 139.2026
466.1477, 139.1499
466.6298, 139.2664
467.1119, 139.4695
467.5940, 139.7464
468.0761, 140.1744
468.5583, 140.9054
469.0404, 142.0574
469.5225, 142.7808
470.0046, 142.4472
470.4867, 142.3342
470.9688, 142.9292
471.4510, 143.9862
471.9331, 145.0673
472.4152, 145.9609
472.8973, 146.8095
473.3794, 147.9592
473.8615, 149.5477
474.3437, 150.8354
474.8258, 151.3090
475.3079, 151.7381
475.7900, 152.5707
476.2721, 153.7980
476.7542, 155.2200
477.2364, 156.8647
477.7185, 158.5818
478.2006, 160.0703
478.6827, 161.3274
479.1648, 162.3657
479.6469, 163.4901
480.1291, 164.2090
480.6112, 163.6337
481.0933, 161.3383
481.5754, 158.8479
482.0575, 156.9223
482.5396, 155.3266
483.0217, 153.5844
483.5038, 151.5934
483.9860, 149.6341
484.4681, 147.9510
484.9502, 146.5664
485.4323, 145.3304
485.9144, 144.3505
486.3965, 143.3965
486.8787, 142.1955
487.3608, 140.9783
487.8429, 140.2000
488.3250, 140.0389
488.8071, 140.2455
489.2892, 140.4045
489.7714, 140.5918
490.2535, 140.5291
490.7356, 139.8078
491.2177, 139.2568
491.6998, 139.4350
492.1819, 140.1399
492.6641, 140.8069
493.1462, 141.0664
493.6283, 141.0744
494.1104, 141.3028
494.5925, 141.8489
495.0746, 142.3504
495.5568, 142.7706
496.0389, 143.0791
496.5210, 143.2668
497.0031, 143.3257
497.4852, 143.2095
497.9673, 142.7346
498.4495, 142.0701
498.9316, 141.7952
499.4137, 142.0598
499.8958, 142.0927
500.3779, 141.3584
500.8600, 140.1051
501.3422, 138.8580
501.8243, 137.5833
502.3064, 136.4409
502.7885, 135.5660
503.2706, 134.8559
503.7527, 134.1367
504.2349, 133.3742
504.7170, 132.5395
505.1991, 131.5691
505.6812, 130.4422
506.1633, 129.5588
506.6454, 128.9421
507.1276, 128.5117
507.6097, 128.3605
508.0918, 128.3411
508.5739, 128.2922
509.0560, 128.1446
509.5381, 127.8083
510.0203, 127.0566
510.5024, 125.6086
510.9845, 124.7091
511.4666, 124.8441
511.9487, 125.0502
512.4308, 124.9282
512.9130, 124.6026
513.3951, 124.3810
513.8772, 124.4358
514.3593, 124.6181
514.8414, 124.6649
515.3235, 124.5658
515.8057, 124.4010
516.2878, 124.0998
516.7699, 123.8274
517.2520, 123.8535
517.7341, 124.1014
518.2162, 124.0332
518.6984, 123.0453
519.1805, 121.8324
519.6626, 121.3547
520.1447, 121.5800
520.6268, 121.8529
521.1089, 121.8789
521.5911, 121.7468
522.0732, 121.6611
522.5553, 121.6647
523.0374, 121.5859
523.5195, 121.2514
524.0016, 120.9245
524.4838, 120.8841
524.9659, 121.1041
525.4480, 121.3485
525.9301, 121.4545
526.4122, 121.4342
526.8943, 121.3345
527.3765, 120.8997
527.8586, 120.7700
528.3407, 121.3434
528.8228, 121.9865
529.3049, 122.1455
529.7870, 121.7930
530.2692, 121.3126
530.7513, 120.9973
531.2334, 120.8390
531.7155, 120.8130
532.1976, 120.9939
532.6797, 121.1343
533.1619, 121.1401
533.6440, 121.0469
534.1261, 120.8030
534.6082, 120.3572
535.0903, 120.1207
535.5724, 120.6003
536.0546, 121.4313
536.5367, 121.7629
537.0188, 121.4591
537.5009, 121.1260
537.9830, 121.2673
538.4651, 121.7531
538.9473, 121.8527
539.4294, 121.1989
539.9115, 120.6575
540.3936, 120.4899
540.8757, 120.5547
541.3578, 120.7567
541.8400, 121.0400
542.3221, 121.2360
542.8042, 121.1370
543.2863, 120.7346
543.7684, 120.5667
544.2505, 120.7264
544.7326, 121.0314
545.2147, 121.8004
545.6968, 122.5211
546.1790, 122.4619
546.6611, 121.4956
547.1432, 120.4823
547.6253, 120.4238
548.1074, 121.2366
548.5895, 121.9857
549.0717, 122.6842
549.5538, 123.2089
550.0359, 123.4338
550.5180, 123.4469
551.0001, 123.3298
551.4822, 123.0229
551.9644, 122.7648
552.4465, 122.6530
552.9286, 122.7055
553.4107, 123.0009
553.8928, 123.5580
554.3749, 124.2063
554.8571, 124.8272
555.3392, 125.4170
555.8213, 125.8116
556.3034, 125.7783
556.7855, 125.8621
557.2676, 126.2454
557.7498, 126.8029
558.2319, 127.4404
558.7140, 128.1079
559.1961, 128.6777
559.6782, 128.9632
560.1603, 128.9566
560.6425, 129.2257
561.1246, 130.0714
561.6067, 130.7461
562.0888, 130.7424
562.5709, 130.6019
563.0530, 131.0173
563.5352, 132.1689
564.0173, 133.4188
564.4994, 134.4036
564.9815, 135.0579
565.4636, 135.1445
565.9457, 134.6157
566.4279, 133.6090
566.9100, 131.8962
567.3921, 129.8244
567.8742, 128.5918
568.3563, 128.6948
568.8384, 128.8003
569.3206, 128.3709
569.8027, 127.7415
570.2848, 127.3570
570.7669, 127.2592
571.2490, 127.1309
571.7311, 126.6778
572.2133, 125.9426
572.6954, 125.4233
573.1775, 125.4243
573.6596, 125.2178
574.1417, 124.4991
574.6238, 123.6853
575.1060, 123.1707
575.5881, 122.9765
576.0702, 122.8120
576.5523, 122.4234
577.0344, 121.8718
577.5165, 121.3999
577.9987, 121.0415
578.4808, 120.5992
578.9629, 119.7772
579.4450, 118.9847
579.9271, 118.8721
580.4092, 119.5674
580.8914, 120.0953
581.3735, 119.8457
581.8556, 119.3947
582.3377, 119.3990
582.8198, 119.8496
583.3019, 120.4231
583.7841, 120.9714
584.2662, 121.4217
584.7483, 121.5616
585.2304, 120.9991
