##NAMES=Gowerite
##RRUFFID=R050673
##IDEAL CHEMISTRY=Ca[B_5_O_8_(OH)][B(OH)_3_]&#183;3H_2_O
##LOCALITY=Death Valley, California, USA
##OWNER=RRUFF
##SOURCE=University of Arizona Mineral Museum
##DESCRIPTION=Colorless bladed crystals associated with gypsum and priceite
##STATUS=The identification of this mineral is confirmed by single-crystal X-ray diffraction and chemical analysis.
##URL=rruff.info/R050673
##MEASURED CHEMISTRY=(Ca_0.98_Sr_0.02_)_Σ=1_[B_5_O_8_(OH)][B(OH)_3_]·3H_2_O ; B not measured but estimated by stoichiometry
90.26367, 16.63623
90.74579, 16.90023
91.22791, 16.78805
91.71002, 16.34140
92.19214, 15.92618
92.67426, 15.84022
93.15637, 16.01812
93.63850, 16.30125
94.12061, 16.78740
94.60273, 17.30729
95.08485, 16.95351
95.56696, 15.48903
96.04908, 14.77075
96.53120, 18.61238
97.01331, 26.62287
97.49543, 32.22651
97.97755, 31.11246
98.45966, 23.75104
98.94178, 18.93144
99.42390, 17.16185
99.90602, 17.30070
100.3881, 17.26933
100.8703, 17.02538
101.3524, 16.75883
101.8345, 16.56477
102.3166, 16.46259
102.7987, 16.35525
103.2808, 16.22856
103.7630, 16.09245
104.2451, 15.99033
104.7272, 15.90230
105.2093, 15.87341
105.6914, 15.93977
106.1735, 16.15574
106.6557, 16.37557
107.1378, 16.60721
107.6199, 16.85596
108.1020, 16.98822
108.5841, 16.74310
109.0662, 16.51991
109.5484, 16.67311
110.0305, 17.72383
110.5126, 18.63513
110.9947, 19.15522
111.4768, 19.16709
111.9590, 19.34270
112.4411, 19.60950
112.9232, 20.10738
113.4053, 21.00757
113.8874, 22.60445
114.3695, 24.39853
114.8517, 26.19315
115.3338, 27.93206
115.8159, 29.74733
116.2980, 31.56254
116.7801, 33.49431
117.2622, 35.77241
117.7444, 38.68977
118.2265, 41.87823
118.7086, 45.04201
119.1907, 47.91005
119.6728, 51.12115
120.1549, 55.05913
120.6371, 59.65659
121.1192, 64.66206
121.6013, 69.84486
122.0834, 75.34020
122.5655, 81.29089
123.0477, 87.93449
123.5298, 94.88060
124.0119, 101.8734
124.4940, 108.9040
124.9761, 115.8779
125.4582, 122.7105
125.9404, 129.3860
126.4225, 135.8127
126.9046, 141.8579
127.3867, 147.6622
127.8688, 153.4480
128.3509, 159.2205
128.8331, 164.9249
129.3152, 170.0361
129.7973, 174.8403
130.2794, 180.6165
130.7615, 188.3442
131.2436, 197.5743
131.7258, 206.3789
132.2079, 214.3520
132.6900, 222.8803
133.1721, 235.0410
133.6542, 250.8368
134.1364, 265.9355
134.6185, 277.8318
135.1006, 286.6798
135.5827, 295.2484
136.0648, 303.6179
136.5469, 312.0355
137.0291, 321.6173
137.5112, 332.8191
137.9933, 343.0255
138.4754, 350.2237
138.9575, 353.7905
139.4396, 357.8892
139.9218, 363.1572
140.4039, 369.2782
140.8860, 374.4919
141.3681, 378.3011
141.8502, 382.0279
142.3323, 386.6502
142.8145, 392.5886
143.2966, 398.5053
143.7787, 404.1796
144.2608, 409.6606
144.7429, 414.8828
145.2251, 419.5236
145.7072, 424.2594
146.1893, 429.7702
146.6714, 436.3885
147.1535, 443.2778
147.6356, 450.3407
148.1178, 457.6102
148.5999, 464.6284
149.0820, 470.5390
149.5641, 476.5359
150.0462, 483.9850
150.5283, 495.0455
151.0105, 505.3110
151.4926, 508.9492
151.9747, 509.0730
152.4568, 509.8387
152.9389, 511.9762
153.4210, 514.6522
153.9032, 516.7336
154.3853, 517.3441
154.8674, 518.0051
155.3495, 519.5246
155.8316, 523.2333
156.3138, 524.8604
156.7959, 522.4210
157.2780, 517.5963
157.7601, 513.5577
158.2422, 511.2571
158.7243, 509.6386
159.2065, 508.1700
159.6886, 506.7345
160.1707, 505.4696
160.6528, 504.6527
161.1349, 504.0565
161.6170, 503.0863
162.0992, 500.5737
162.5813, 498.1819
163.0634, 497.0723
163.5455, 498.3146
164.0276, 499.7400
164.5097, 500.2751
164.9919, 500.1446
165.4740, 500.2199
165.9561, 500.7593
166.4382, 501.7694
166.9203, 503.3029
167.4025, 506.0524
167.8846, 508.6381
168.3667, 510.0331
168.8488, 510.4011
169.3309, 510.7765
169.8130, 511.5682
170.2952, 512.7849
170.7773, 514.4330
171.2594, 516.9296
171.7415, 519.5416
172.2236, 521.6556
172.7057, 523.2911
173.1879, 524.7847
173.6700, 526.3130
174.1521, 527.8668
174.6342, 529.4380
175.1163, 531.1093
175.5984, 532.7616
176.0806, 534.2089
176.5627, 535.4542
177.0448, 536.6386
177.5269, 538.1772
178.0090, 539.7716
178.4911, 540.7502
178.9733, 540.7191
179.4554, 539.9332
179.9375, 538.6956
180.4196, 537.0079
180.9017, 535.0797
181.3839, 532.8766
181.8660, 530.5632
182.3481, 528.6319
182.8302, 527.4803
183.3123, 526.8820
183.7944, 526.4288
184.2766, 526.1682
184.7587, 525.7703
185.2408, 524.5024
185.7229, 522.5623
186.2050, 521.0755
186.6871, 521.0701
187.1693, 522.0501
187.6514, 522.0768
188.1335, 520.8999
188.6156, 519.3339
189.0977, 518.6243
189.5798, 518.7210
190.0620, 518.7262
190.5441, 518.1656
191.0262, 517.0831
191.5083, 515.8474
191.9904, 514.4672
192.4725, 512.9048
192.9547, 510.8823
193.4368, 508.3571
193.9189, 506.2003
194.4010, 504.9750
194.8831, 504.6367
195.3652, 504.4790
195.8474, 504.4874
196.3295, 504.6145
196.8116, 504.8577
197.2937, 505.2530
197.7758, 505.4427
198.2579, 505.0736
198.7401, 504.1259
199.2222, 503.4170
199.7043, 502.9378
200.1864, 502.7963
200.6685, 503.4924
201.1507, 505.2373
201.6328, 506.7836
202.1149, 507.2897
202.5970, 506.6541
203.0791, 506.0004
203.5612, 505.4269
204.0434, 504.8937
204.5255, 504.2557
205.0076, 503.4547
205.4897, 502.7611
205.9718, 502.3798
206.4539, 502.3681
206.9361, 502.3682
207.4182, 502.4047
207.9003, 502.4142
208.3824, 502.0779
208.8645, 501.1883
209.3466, 500.5013
209.8288, 500.5359
210.3109, 501.4489
210.7930, 502.4411
211.2751, 503.5890
211.7572, 504.7287
212.2393, 505.1964
212.7215, 504.7314
213.2036, 504.1532
213.6857, 503.9971
214.1678, 504.3932
214.6499, 504.7438
215.1321, 504.9321
215.6142, 505.0371
216.0963, 505.5132
216.5784, 506.6808
217.0605, 507.6061
217.5426, 507.5464
218.0248, 506.0280
218.5069, 504.9435
218.9890, 504.5656
219.4711, 504.7586
219.9532, 504.8742
220.4353, 504.8982
220.9175, 504.8789
221.3996, 504.7844
221.8817, 504.4277
222.3638, 504.5277
222.8459, 505.3408
223.3280, 506.6910
223.8102, 507.6472
224.2923, 508.2344
224.7744, 508.4157
225.2565, 508.0170
225.7386, 506.4994
226.2208, 505.7206
226.7029, 506.0653
227.1850, 507.3069
227.6671, 508.2979
228.1492, 509.0507
228.6313, 509.5355
229.1135, 509.6877
229.5956, 509.3029
230.0777, 509.0457
230.5598, 508.9445
231.0419, 509.0112
231.5240, 509.3193
232.0062, 510.0397
232.4883, 510.7814
232.9704, 511.2914
233.4525, 511.4151
233.9346, 511.6718
234.4167, 512.1987
234.8989, 512.9005
235.3810, 513.2850
235.8631, 513.0796
236.3452, 512.9123
236.8273, 513.1660
237.3095, 514.0687
237.7916, 514.8697
238.2737, 515.4830
238.7558, 515.9550
239.2379, 516.5194
239.7200, 517.2717
240.2022, 517.9777
240.6843, 518.4763
241.1664, 518.5349
241.6485, 518.9243
242.1306, 519.8865
242.6127, 521.2132
243.0949, 522.0317
243.5770, 522.0428
244.0591, 521.9856
244.5412, 522.2618
245.0233, 523.0991
245.5054, 523.7737
245.9876, 524.1252
246.4697, 524.3256
246.9518, 524.9625
247.4339, 526.3037
247.9160, 527.6873
248.3981, 528.7455
248.8803, 529.2303
249.3624, 530.0180
249.8445, 531.3515
250.3266, 532.9271
250.8087, 533.8481
251.2909, 533.6517
251.7730, 533.5110
252.2551, 533.9664
252.7372, 535.2357
253.2193, 536.5708
253.7014, 538.1430
254.1836, 539.6916
254.6657, 540.5146
255.1478, 540.1705
255.6299, 539.8833
256.1120, 540.2547
256.5941, 541.6589
257.0763, 542.5201
257.5584, 542.7120
258.0405, 542.4586
258.5226, 542.1892
259.0047, 541.9163
259.4868, 541.6019
259.9690, 541.1527
260.4511, 540.4330
260.9332, 540.2784
261.4153, 540.9890
261.8974, 541.9998
262.3795, 542.2850
262.8617, 541.5402
263.3438, 540.7943
263.8259, 540.2839
264.3080, 539.9532
264.7901, 540.4080
265.2722, 542.0650
265.7544, 544.0059
266.2365, 544.7589
266.7186, 543.9114
267.2007, 543.1335
267.6829, 542.9536
268.1650, 543.4044
268.6471, 543.9031
269.1292, 544.4820
269.6113, 545.0768
270.0934, 545.5361
270.5756, 545.7518
271.0577, 546.2881
271.5398, 547.4064
272.0219, 549.0933
272.5040, 550.4221
272.9861, 551.2023
273.4683, 551.9991
273.9504, 553.6896
274.4325, 556.5710
274.9146, 558.5407
275.3967, 558.6856
275.8788, 557.3575
276.3610, 557.5258
276.8431, 559.5036
277.3252, 562.0109
277.8073, 563.9004
278.2894, 565.1287
278.7715, 566.2786
279.2537, 567.4931
279.7358, 568.7297
280.2179, 569.7531
280.7000, 570.5095
281.1821, 571.3372
281.6642, 572.4464
282.1464, 573.8376
282.6285, 575.6949
283.1106, 578.1611
283.5927, 581.0155
284.0748, 583.6694
284.5569, 586.1126
285.0391, 588.4826
285.5212, 590.8887
286.0033, 593.3196
286.4854, 595.7188
286.9675, 598.0605
287.4496, 600.3748
287.9318, 602.9069
288.4139, 605.6813
288.8960, 607.9661
289.3781, 609.4344
289.8602, 610.1055
290.3424, 610.0902
290.8245, 609.4367
291.3066, 608.0187
291.7887, 605.4886
292.2708, 601.9129
292.7530, 597.9188
293.2351, 593.6425
293.7172, 589.2054
294.1993, 585.2314
294.6814, 581.8192
295.1635, 578.4100
295.6457, 574.0917
296.1278, 569.0956
296.6099, 564.4661
297.0920, 560.8290
297.5741, 557.9152
298.0562, 555.4030
298.5384, 553.3354
299.0205, 551.3150
299.5026, 548.8531
299.9847, 546.1350
300.4668, 543.5605
300.9489, 541.2108
301.4311, 539.1849
301.9132, 537.8018
302.3953, 537.0339
302.8774, 536.4373
303.3595, 535.6410
303.8416, 534.7692
304.3238, 534.0217
304.8059, 533.5453
305.2880, 533.1628
305.7701, 532.5867
306.2522, 531.8789
306.7343, 531.4577
307.2165, 532.0699
307.6986, 532.9608
308.1807, 533.0826
308.6628, 531.6632
309.1449, 530.2458
309.6270, 530.2327
310.1092, 531.2479
310.5913, 532.0936
311.0734, 532.0749
311.5555, 531.6120
312.0376, 530.8892
312.5197, 529.5979
313.0019, 528.9716
313.4840, 530.3422
313.9661, 532.8591
314.4482, 534.7945
314.9304, 535.0479
315.4125, 534.7602
315.8946, 534.4762
316.3767, 534.1797
316.8588, 534.3254
317.3409, 535.7841
317.8231, 537.6243
318.3052, 538.6130
318.7873, 537.3870
319.2694, 536.1161
319.7515, 535.6630
320.2336, 536.1104
320.7158, 536.9323
321.1979, 538.4452
321.6800, 540.0463
322.1621, 541.1847
322.6442, 541.3483
323.1263, 541.4467
323.6085, 541.6390
324.0906, 541.9300
324.5727, 542.3273
325.0548, 542.8874
325.5369, 543.5196
326.0190, 544.1702
326.5012, 544.8724
326.9833, 545.5634
327.4654, 546.1308
327.9475, 546.6578
328.4296, 547.4666
328.9117, 549.0344
329.3939, 550.4610
329.8760, 551.3713
330.3581, 551.4499
330.8402, 551.5456
331.3223, 551.3320
331.8044, 551.2080
332.2866, 552.0540
332.7687, 554.4540
333.2508, 556.9299
333.7329, 559.0324
334.2150, 560.6936
334.6971, 562.3467
335.1793, 564.2426
335.6614, 565.9098
336.1435, 566.5203
336.6256, 565.4511
337.1077, 565.0535
337.5899, 566.1337
338.0720, 568.6179
338.5541, 570.5543
339.0362, 571.8713
339.5183, 572.8849
340.0005, 573.9042
340.4826, 574.9938
340.9647, 575.7368
341.4468, 575.9882
341.9289, 575.8889
342.4110, 575.8847
342.8932, 575.9807
343.3753, 576.0953
343.8574, 576.0472
344.3395, 575.8616
344.8216, 576.1314
345.3037, 577.0127
345.7859, 578.1418
346.2680, 578.9349
346.7501, 579.4000
347.2322, 579.6666
347.7143, 579.5692
348.1964, 579.3087
348.6786, 579.7187
349.1607, 580.9550
349.6428, 582.1359
350.1249, 582.3019
350.6070, 581.6151
351.0891, 580.5624
351.5713, 579.2084
352.0534, 577.6910
352.5355, 576.1349
353.0176, 574.5681
353.4997, 573.0818
353.9818, 572.1293
354.4640, 571.2371
354.9461, 569.5562
355.4282, 566.2196
355.9103, 562.8467
356.3924, 561.2505
356.8745, 560.9776
357.3567, 560.2645
357.8388, 557.2819
358.3209, 553.8860
358.8030, 551.7869
359.2851, 551.7239
359.7672, 551.8435
360.2494, 550.9736
360.7315, 549.6057
361.2136, 548.6598
361.6957, 548.8591
362.1779, 549.2432
362.6600, 549.3273
363.1421, 549.0325
363.6242, 548.7185
364.1063, 548.2795
364.5884, 547.9518
365.0706, 547.9802
365.5527, 548.7311
366.0348, 549.4988
366.5169, 550.2517
366.9990, 550.9607
367.4811, 551.2623
367.9633, 550.5493
368.4454, 549.8076
368.9275, 549.6042
369.4096, 550.2454
369.8917, 551.0088
370.3738, 552.0069
370.8560, 553.1196
371.3381, 553.9172
371.8202, 553.6877
372.3023, 554.1257
372.7844, 555.5367
373.2665, 556.8627
373.7487, 557.9431
374.2308, 558.7908
374.7129, 558.7093
375.1950, 559.8276
375.6771, 560.4651
376.1592, 561.0829
376.6414, 562.3702
377.1235, 562.4239
377.6056, 563.7004
378.0877, 564.4889
378.5698, 565.5007
379.0519, 566.0287
379.5341, 566.7063
380.0162, 567.8677
380.4983, 568.7611
380.9804, 569.2335
381.4625, 570.2595
381.9446, 572.0192
382.4268, 574.4079
382.9089, 576.6915
383.3910, 578.7966
383.8731, 580.5330
384.3553, 581.8473
384.8374, 582.9119
385.3195, 583.9813
385.8016, 584.9711
386.2837, 585.6519
386.7658, 585.7855
387.2480, 585.6104
387.7301, 585.4465
388.2122, 585.2870
388.6943, 584.9559
389.1764, 584.5740
389.6585, 583.8669
390.1407, 582.3896
390.6228, 579.3551
391.1049, 576.4791
391.5870, 575.1357
392.0691, 574.9286
392.5512, 574.6645
393.0334, 573.8788
393.5155, 572.8045
393.9976, 571.4431
394.4797, 569.5630
394.9618, 568.2146
395.4439, 568.1619
395.9261, 568.7141
396.4082, 568.9528
396.8903, 568.3265
397.3724, 567.7275
397.8545, 567.3030
398.3366, 567.0543
398.8188, 567.2277
399.3009, 568.2017
399.7830, 569.3648
400.2651, 570.3397
400.7472, 571.1339
401.2293, 571.7102
401.7115, 571.9219
402.1936, 571.9263
402.6757, 572.2125
403.1578, 572.8759
403.6399, 573.6577
404.1220, 574.5149
404.6042, 575.5282
405.0863, 576.0447
405.5684, 575.7588
406.0505, 575.4533
406.5326, 576.3163
407.0147, 578.5273
407.4969, 580.6108
407.9790, 582.2861
408.4611, 583.5259
408.9432, 583.9271
409.4254, 583.3878
409.9075, 583.0995
410.3896, 584.4943
410.8717, 587.0837
411.3538, 588.6407
411.8359, 588.7209
412.3181, 587.9307
412.8002, 586.9534
413.2823, 585.7986
413.7644, 584.4340
414.2465, 582.5618
414.7286, 580.5960
415.2108, 579.1318
415.6929, 578.2189
416.1750, 577.3506
416.6571, 576.0774
417.1392, 574.6407
417.6213, 573.3320
418.1035, 572.4744
418.5856, 571.5460
419.0677, 569.7856
419.5498, 567.5687
420.0319, 566.3696
420.5140, 567.9939
420.9962, 569.9498
421.4783, 570.5685
421.9604, 568.9351
422.4425, 567.8215
422.9246, 568.2582
423.4067, 569.4388
423.8889, 570.2653
424.3710, 570.8464
424.8531, 570.7943
425.3352, 569.5467
425.8173, 567.0901
426.2994, 565.9945
426.7816, 567.1944
427.2637, 568.8201
427.7458, 569.6140
428.2279, 569.1017
428.7100, 568.9438
429.1921, 569.3604
429.6743, 570.1136
430.1564, 570.6243
430.6385, 570.8334
431.1206, 571.0282
431.6028, 571.2917
432.0849, 571.6301
432.5670, 572.1976
433.0491, 573.0684
433.5312, 573.8772
434.0133, 574.1439
434.4955, 573.9557
434.9776, 573.8678
435.4597, 573.9713
435.9418, 574.3107
436.4239, 574.9339
436.9060, 575.8457
437.3882, 577.1041
437.8703, 579.2568
438.3524, 581.5908
438.8345, 582.9616
439.3166, 583.1407
439.7987, 583.0645
440.2809, 583.2984
440.7630, 583.7932
441.2451, 584.4715
441.7272, 585.5107
442.2093, 586.5296
442.6914, 587.2524
443.1736, 587.7315
443.6557, 588.3271
444.1378, 589.1491
444.6199, 590.1552
445.1020, 591.3488
445.5841, 592.9078
446.0663, 594.3209
446.5484, 595.4025
447.0305, 596.3334
447.5126, 597.4098
447.9947, 598.5399
448.4768, 599.9232
448.9590, 601.6805
449.4411, 603.8113
449.9232, 605.8450
450.4053, 607.7914
450.8874, 609.6379
451.3695, 611.3359
451.8517, 612.8594
452.3338, 614.4333
452.8159, 616.2567
453.2980, 617.8965
453.7801, 618.3068
454.2622, 617.4063
454.7444, 616.3997
455.2265, 615.9359
455.7086, 615.8266
456.1907, 615.4101
456.6729, 614.7030
457.1550, 613.4168
457.6371, 610.5861
458.1192, 606.9746
458.6013, 604.4454
459.0834, 603.7870
459.5656, 603.7972
460.0477, 603.0814
460.5298, 601.9522
461.0119, 601.3664
461.4940, 602.1183
461.9761, 603.3902
462.4583, 604.5379
462.9404, 605.4987
463.4225, 606.6229
463.9046, 608.2049
464.3867, 609.9778
464.8688, 611.6517
465.3510, 612.6991
465.8331, 614.1813
466.3152, 616.8231
466.7973, 620.1721
467.2794, 622.5727
467.7615, 622.9501
468.2437, 623.3553
468.7258, 624.4763
469.2079, 626.4196
469.6900, 628.4653
470.1721, 630.4069
470.6542, 632.6544
471.1364, 635.7335
471.6185, 639.8539
472.1006, 643.9576
472.5827, 647.8226
473.0648, 651.5743
473.5469, 655.5266
474.0291, 659.6678
474.5112, 664.1702
474.9933, 669.1994
475.4754, 674.6907
475.9575, 680.5104
476.4396, 686.7221
476.9218, 692.7682
477.4039, 697.9300
477.8860, 702.4274
478.3681, 706.8251
478.8503, 712.0274
479.3324, 716.2958
479.8145, 717.9909
480.2966, 717.2937
480.7787, 714.9083
481.2608, 710.5406
481.7430, 705.0724
482.2251, 698.9914
482.7072, 692.2904
483.1893, 685.3530
483.6714, 677.8043
484.1535, 670.3007
484.6357, 663.5019
485.1178, 657.2967
485.5999, 651.9915
486.0820, 647.6798
486.5641, 644.3382
487.0462, 641.8387
487.5284, 640.3738
488.0105, 639.5144
488.4926, 639.1123
488.9747, 639.1824
489.4568, 639.7155
489.9389, 640.8432
490.4211, 642.1926
490.9032, 643.2761
491.3853, 644.0652
491.8674, 645.0754
492.3495, 646.3499
492.8316, 647.9553
493.3138, 650.2704
493.7959, 653.2234
494.2780, 655.9574
494.7601, 658.0748
495.2422, 659.5852
495.7243, 660.3527
496.2065, 660.3611
496.6886, 660.0527
497.1707, 659.7404
497.6528, 659.3464
498.1349, 658.7635
498.6170, 657.9210
499.0992, 656.9327
499.5813, 656.1908
500.0634, 655.3566
500.5455, 653.6020
501.0276, 649.8376
501.5097, 645.8458
501.9919, 642.3265
502.4740, 639.4232
502.9561, 636.4597
503.4382, 633.0123
503.9203, 629.7229
504.4025, 627.0407
504.8846, 625.3204
505.3667, 623.5338
505.8488, 621.5448
506.3309, 619.5254
506.8130, 617.9620
507.2952, 617.0329
507.7773, 615.7824
508.2594, 613.6712
508.7415, 610.9323
509.2236, 608.8402
509.7057, 607.4321
510.1879, 606.2224
510.6700, 604.7045
511.1521, 603.0527
511.6342, 601.5974
512.1163, 600.2308
512.5984, 599.8358
513.0806, 600.1247
513.5627, 600.1679
514.0448, 599.9785
514.5269, 598.8600
515.0090, 598.9413
515.4911, 598.5417
515.9733, 598.1224
516.4554, 598.3726
516.9375, 597.3892
517.4196, 597.6287
517.9017, 597.3801
518.3839, 597.3549
518.8660, 596.8458
519.3481, 596.4863
519.8302, 596.6107
520.3123, 596.4671
520.7944, 595.9024
521.2766, 595.8914
521.7587, 594.8911
522.2408, 594.7590
522.7229, 593.7942
523.2050, 594.2762
523.6871, 595.0273
524.1693, 595.8671
524.6514, 596.7570
525.1335, 597.2867
525.6156, 597.4420
526.0977, 597.3549
526.5798, 596.8405
527.0620, 596.1635
527.5441, 596.2142
528.0262, 597.4686
528.5083, 598.9477
528.9904, 599.6065
529.4725, 599.6514
529.9547, 599.5841
530.4368, 599.4981
530.9189, 599.4827
531.4010, 599.5382
531.8831, 599.6672
532.3652, 600.0506
532.8474, 601.0626
533.3295, 602.1273
533.8116, 602.8935
534.2937, 603.2213
534.7758, 603.4112
535.2579, 603.5153
535.7401, 603.4762
536.2222, 603.1511
536.7043, 602.2833
537.1865, 601.7711
537.6686, 601.9318
538.1507, 602.5936
538.6328, 602.7863
539.1149, 602.3851
539.5970, 602.3565
540.0792, 603.6718
540.5613, 605.9592
541.0434, 607.3087
541.5255, 607.5919
542.0076, 607.5019
542.4897, 607.5379
542.9719, 607.7150
543.4540, 608.0618
543.9361, 608.5516
544.4182, 609.2440
544.9003, 610.4104
545.3824, 611.8005
545.8646, 612.8644
546.3467, 612.7226
546.8288, 612.7842
547.3109, 613.9395
547.7930, 616.2334
548.2751, 618.0325
548.7573, 618.6570
549.2394, 619.0604
549.7215, 619.7896
550.2036, 621.2059
550.6857, 622.1133
551.1678, 622.2924
551.6500, 622.2033
552.1321, 622.4367
552.6142, 623.0038
553.0963, 623.8597
553.5784, 625.0128
554.0605, 626.4414
554.5427, 628.2676
555.0248, 630.4582
555.5069, 632.3817
555.9890, 633.1757
556.4711, 633.5906
556.9532, 635.1227
557.4354, 637.8205
557.9175, 640.5745
558.3996, 642.4328
558.8817, 643.9172
559.3638, 645.5464
559.8459, 647.2829
560.3281, 649.4688
560.8102, 652.8212
561.2923, 656.5665
561.7744, 659.4648
562.2565, 660.6121
562.7386, 661.6383
563.2208, 663.0552
563.7029, 664.7242
564.1850, 665.6685
564.6671, 665.5287
565.1492, 665.2987
565.6313, 665.5645
566.1135, 666.4026
566.5956, 666.6406
567.0777, 666.2010
567.5598, 665.4211
568.0419, 664.5033
568.5240, 663.5041
569.0062, 662.7624
569.4883, 662.4999
569.9704, 662.1506
570.4525, 660.9006
570.9346, 658.9805
571.4167, 657.0505
571.8989, 655.2794
572.3810, 653.6795
572.8631, 652.2855
573.3452, 651.0856
573.8273, 649.9099
574.3094, 648.9131
574.7916, 647.7699
575.2737, 646.2225
575.7558, 644.0087
576.2379, 642.1949
576.7200, 641.1619
577.2021, 640.2575
577.6843, 638.7155
578.1664, 635.9276
578.6485, 634.4459
579.1306, 634.8931
579.6127, 636.3466
580.0948, 636.9518
580.5770, 636.7040
581.0591, 636.4043
581.5412, 636.2125
582.0233, 636.2627
582.5054, 637.0374
582.9875, 638.4367
583.4697, 639.7869
