##NAMES=Goyazite
##RRUFFID=R061054
##IDEAL CHEMISTRY=SrAl_3_(PO_4_)(PO_3_OH)(OH)_6_
##LOCALITY=Yukon Territory, Canada
##OWNER=RRUFF
##SOURCE=Royal Ontario Museum
##DESCRIPTION=Pale green rhombohedral crystals with iron staining
##STATUS=The identification of this mineral has been confirmed by single-crystal X-ray diffraction.
##URL=rruff.info/R061054
171.6683, 34676.78
172.1504, 34782.97
172.6325, 34878.71
173.1146, 34939.70
173.5967, 34962.80
174.0788, 34989.61
174.5610, 35035.30
175.0431, 35096.53
175.5252, 35167.75
176.0073, 35243.70
176.4894, 35337.98
176.9715, 35469.33
177.4537, 35640.48
177.9358, 35827.78
178.4179, 36030.61
178.9000, 36239.86
179.3821, 36442.20
179.8642, 36624.61
180.3464, 36820.38
180.8285, 37083.95
181.3106, 37428.86
181.7927, 37761.50
182.2748, 38044.51
182.7569, 38296.68
183.2391, 38530.80
183.7212, 38750.59
184.2033, 38948.63
184.6854, 39113.84
185.1675, 39243.96
185.6496, 39350.61
186.1318, 39436.98
186.6139, 39500.53
187.0960, 39538.85
187.5781, 39554.03
188.0602, 39536.21
188.5423, 39468.72
189.0245, 39347.08
189.5066, 39198.82
189.9887, 39015.00
190.4708, 38818.52
190.9529, 38628.20
191.4350, 38454.03
191.9172, 38275.29
192.3993, 38054.58
192.8814, 37780.03
193.3635, 37522.98
193.8456, 37305.86
194.3277, 37116.32
194.8099, 36945.58
195.2920, 36790.25
195.7741, 36659.80
196.2562, 36577.16
196.7383, 36554.37
197.2204, 36519.43
197.7026, 36443.96
198.1847, 36350.44
198.6668, 36248.07
199.1489, 36136.19
199.6310, 36030.75
200.1131, 35944.52
200.5953, 35874.57
201.0774, 35841.21
201.5595, 35922.70
202.0416, 36002.55
202.5237, 35982.86
203.0058, 35837.87
203.4880, 35661.53
203.9701, 35571.02
204.4522, 35581.71
204.9343, 35566.04
205.4164, 35450.74
205.8985, 35323.58
206.3807, 35251.84
206.8628, 35247.52
207.3449, 35252.93
207.8270, 35192.70
208.3091, 35056.38
208.7912, 34962.32
209.2734, 34961.79
209.7555, 34995.66
210.2376, 35034.86
210.7197, 35075.04
211.2018, 35104.47
211.6839, 35101.44
212.1661, 35064.03
212.6482, 35049.52
213.1303, 35063.23
213.6124, 35111.03
214.0945, 35218.29
214.5766, 35380.75
215.0588, 35527.50
215.5409, 35586.46
216.0230, 35560.32
216.5051, 35538.09
216.9872, 35513.80
217.4693, 35517.78
217.9515, 35581.75
218.4336, 35700.02
218.9157, 35818.05
219.3978, 35894.87
219.8799, 35934.09
220.3620, 35965.64
220.8442, 35973.50
221.3263, 35998.73
221.8084, 36076.70
222.2905, 36198.31
222.7726, 36316.12
223.2547, 36411.41
223.7369, 36481.27
224.2190, 36503.41
224.7011, 36436.00
225.1832, 36381.12
225.6653, 36420.00
226.1474, 36527.55
226.6296, 36624.67
227.1117, 36653.72
227.5938, 36638.73
228.0759, 36656.93
228.5580, 36727.33
229.0401, 36797.19
229.5223, 36830.09
230.0044, 36836.97
230.4865, 36840.18
230.9686, 36838.98
231.4507, 36842.62
231.9328, 36871.07
232.4150, 36927.84
232.8971, 37000.18
233.3792, 37098.28
233.8613, 37205.00
234.3434, 37288.87
234.8255, 37313.95
235.3077, 37326.41
235.7898, 37402.82
236.2719, 37555.60
236.7540, 37701.06
237.2361, 37766.61
237.7182, 37800.83
238.2004, 37886.78
238.6825, 38073.85
239.1646, 38282.29
239.6467, 38423.96
240.1288, 38498.34
240.6109, 38568.18
241.0931, 38651.29
241.5752, 38756.57
242.0573, 38899.89
242.5394, 39107.92
243.0215, 39314.16
243.5036, 39449.61
243.9858, 39526.70
244.4679, 39636.14
244.9500, 39807.70
245.4321, 40042.06
245.9142, 40330.20
246.3963, 40687.75
246.8785, 41053.15
247.3606, 41379.69
247.8427, 41683.77
248.3248, 42020.07
248.8069, 42398.75
249.2890, 42827.92
249.7712, 43339.18
250.2533, 43943.46
250.7354, 44539.32
251.2175, 45059.61
251.6996, 45547.09
252.1817, 46087.56
252.6639, 46705.79
253.1460, 47357.43
253.6281, 47994.67
254.1102, 48618.96
254.5923, 49217.88
255.0744, 49811.11
255.5566, 50370.75
256.0387, 50875.18
256.5208, 51319.25
257.0029, 51677.30
257.4850, 51920.94
257.9671, 52036.58
258.4492, 52057.55
258.9314, 51987.70
259.4135, 51821.14
259.8956, 51555.85
260.3777, 51190.16
260.8598, 50716.95
261.3419, 50110.13
261.8241, 49366.77
262.3062, 48625.11
262.7883, 47882.81
263.2704, 47150.14
263.7525, 46416.18
264.2346, 45690.50
264.7168, 44990.46
265.1989, 44328.02
265.6810, 43699.82
266.1631, 43104.98
266.6452, 42514.11
267.1273, 41978.84
267.6095, 41525.35
268.0916, 41134.22
268.5737, 40773.63
269.0558, 40428.52
269.5379, 40103.53
270.0201, 39820.78
270.5022, 39623.62
270.9843, 39419.15
271.4664, 39177.52
271.9485, 38938.32
272.4306, 38743.49
272.9128, 38607.47
273.3949, 38511.74
273.8770, 38425.83
274.3591, 38347.16
274.8412, 38283.75
275.3233, 38223.26
275.8055, 38183.32
276.2876, 38191.95
276.7697, 38244.36
277.2518, 38295.36
277.7339, 38282.00
278.2160, 38174.41
278.6982, 38128.40
279.1803, 38200.90
279.6624, 38282.44
280.1445, 38334.86
280.6266, 38356.06
281.1087, 38356.49
281.5909, 38334.25
282.0730, 38292.21
282.5551, 38298.49
283.0372, 38396.26
283.5193, 38493.89
284.0014, 38587.59
284.4836, 38657.06
284.9657, 38666.11
285.4478, 38583.36
285.9299, 38439.80
286.4120, 38329.59
286.8941, 38278.25
287.3763, 38203.86
287.8584, 38073.44
288.3405, 37911.30
288.8226, 37735.68
289.3047, 37548.48
289.7868, 37366.22
290.2690, 37209.52
290.7511, 37079.55
291.2332, 36969.21
291.7153, 36888.15
292.1974, 36820.07
292.6795, 36752.54
293.1617, 36684.85
293.6438, 36612.89
294.1259, 36523.40
294.6080, 36423.17
295.0901, 36348.88
295.5722, 36313.82
296.0544, 36297.18
296.5365, 36269.96
297.0186, 36233.56
297.5007, 36224.04
297.9828, 36275.11
298.4649, 36355.21
298.9471, 36411.84
299.4292, 36437.45
299.9113, 36453.52
300.3934, 36475.85
300.8755, 36503.87
301.3576, 36533.09
301.8398, 36562.30
302.3219, 36593.29
302.8040, 36633.11
303.2861, 36679.13
303.7682, 36710.19
304.2503, 36703.83
304.7325, 36676.11
305.2146, 36704.85
305.6967, 36865.54
306.1788, 36990.11
306.6609, 36998.77
307.1430, 36937.77
307.6252, 36893.89
308.1073, 36904.31
308.5894, 36939.52
309.0715, 36934.92
309.5536, 36837.75
310.0357, 36780.94
310.5179, 36792.80
311.0000, 36832.07
311.4821, 36863.18
311.9642, 36878.80
312.4463, 36891.57
312.9284, 36917.50
313.4106, 36961.60
313.8927, 37001.38
314.3748, 37040.87
314.8569, 37074.28
315.3390, 37092.00
315.8211, 37100.39
316.3033, 37119.57
316.7854, 37171.49
317.2675, 37249.10
317.7496, 37270.36
318.2317, 37165.12
318.7138, 37088.19
319.1960, 37087.29
319.6781, 37131.49
320.1602, 37180.34
320.6423, 37215.84
321.1244, 37244.87
321.6065, 37281.49
322.0887, 37326.96
322.5708, 37373.68
323.0529, 37414.63
323.5350, 37458.56
324.0171, 37515.73
324.4992, 37587.65
324.9814, 37657.58
325.4635, 37706.58
325.9456, 37736.90
326.4277, 37775.97
326.9098, 37842.16
327.3919, 37897.62
327.8741, 37910.72
328.3562, 37887.18
328.8383, 37854.34
329.3204, 37808.28
329.8025, 37765.91
330.2846, 37764.86
330.7668, 37812.87
331.2489, 37857.77
331.7310, 37867.53
332.2131, 37844.29
332.6952, 37801.91
333.1773, 37713.58
333.6595, 37632.00
334.1416, 37596.30
334.6237, 37597.10
335.1058, 37604.47
335.5879, 37607.69
336.0700, 37605.56
336.5522, 37592.26
337.0343, 37553.96
337.5164, 37531.79
337.9985, 37540.24
338.4806, 37564.76
338.9627, 37581.02
339.4449, 37585.48
339.9270, 37611.38
340.4091, 37711.94
340.8912, 37936.85
341.3733, 38037.37
341.8554, 37916.86
342.3376, 37779.85
342.8197, 37733.76
343.3018, 37762.24
343.7839, 37787.50
344.2660, 37748.31
344.7481, 37659.88
345.2303, 37642.43
345.7124, 37774.91
346.1945, 37875.44
346.6766, 37882.30
347.1587, 37852.77
347.6408, 37855.03
348.1230, 37914.91
348.6051, 37999.60
349.0872, 38059.60
349.5693, 38092.02
350.0514, 38114.57
350.5335, 38115.02
351.0157, 38118.45
351.4978, 38135.95
351.9799, 38169.68
352.4620, 38224.39
352.9441, 38322.13
353.4262, 38446.18
353.9084, 38529.52
354.3905, 38554.59
354.8726, 38574.32
355.3547, 38618.96
355.8368, 38686.54
356.3189, 38779.11
356.8011, 38924.85
357.2832, 39073.94
357.7653, 39163.34
358.2474, 39205.25
358.7295, 39289.20
359.2116, 39471.82
359.6938, 39707.17
360.1759, 39876.77
360.6580, 39938.95
361.1401, 40033.13
361.6222, 40217.70
362.1043, 40444.75
362.5865, 40661.50
363.0686, 40855.38
363.5507, 41023.71
364.0328, 41158.07
364.5149, 41245.21
364.9970, 41360.04
365.4792, 41544.48
365.9613, 41713.56
366.4434, 41825.79
366.9255, 41887.54
367.4076, 41920.78
367.8897, 41938.48
368.3719, 41941.13
368.8540, 41931.61
369.3361, 41910.08
369.8182, 41873.85
370.3003, 41819.82
370.7824, 41754.34
371.2646, 41680.10
371.7467, 41598.50
372.2288, 41516.76
372.7109, 41459.86
373.1930, 41433.19
373.6751, 41335.34
374.1573, 41096.74
374.6394, 40849.50
375.1215, 40692.55
375.6036, 40603.58
376.0857, 40493.51
376.5678, 40294.93
377.0500, 40056.34
377.5321, 39875.06
378.0142, 39758.82
378.4963, 39620.15
378.9784, 39392.63
379.4605, 39114.27
379.9427, 38888.92
380.4248, 38746.68
380.9069, 38609.33
381.3890, 38415.86
381.8711, 38203.13
382.3532, 38055.75
382.8354, 38002.94
383.3175, 37978.96
383.7996, 37893.86
384.2817, 37724.54
384.7638, 37557.41
385.2459, 37382.54
385.7281, 37218.49
386.2102, 37071.62
386.6923, 36944.95
387.1744, 36847.11
387.6565, 36786.46
388.1386, 36757.23
388.6208, 36721.47
389.1029, 36659.62
389.5850, 36618.55
390.0671, 36630.76
390.5492, 36652.75
391.0313, 36631.68
391.5135, 36554.14
391.9956, 36469.15
392.4777, 36442.81
392.9598, 36480.46
393.4419, 36514.57
393.9240, 36550.95
394.4062, 36567.33
394.8883, 36541.20
395.3704, 36483.40
395.8525, 36430.55
396.3346, 36403.86
396.8167, 36389.96
397.2989, 36375.00
397.7810, 36359.82
398.2631, 36320.93
398.7452, 36237.49
399.2273, 36127.00
399.7094, 36029.45
400.1916, 35943.30
400.6737, 35872.84
401.1558, 35826.39
401.6379, 35794.29
402.1200, 35769.43
402.6021, 35749.69
403.0843, 35715.50
403.5664, 35639.73
404.0485, 35509.19
404.5306, 35416.23
405.0127, 35386.32
405.4948, 35363.48
405.9770, 35313.49
406.4591, 35253.28
406.9412, 35226.11
407.4233, 35258.37
407.9054, 35320.04
408.3875, 35320.04
408.8697, 35207.21
409.3518, 35141.86
409.8339, 35187.25
410.3160, 35251.65
410.7981, 35261.82
411.2802, 35215.40
411.7624, 35176.04
412.2445, 35214.71
412.7266, 35309.82
413.2087, 35349.04
413.6908, 35304.79
414.1729, 35261.14
414.6551, 35282.21
415.1372, 35337.78
415.6193, 35376.31
416.1014, 35374.62
416.5835, 35372.02
417.0656, 35402.59
417.5478, 35456.42
418.0299, 35507.03
418.5120, 35550.00
418.9941, 35573.29
419.4762, 35552.07
419.9583, 35462.60
420.4405, 35410.77
420.9226, 35453.70
421.4047, 35491.92
421.8868, 35438.40
422.3689, 35313.63
422.8510, 35206.04
423.3332, 35179.54
423.8153, 35212.74
424.2974, 35198.49
424.7795, 35077.14
425.2616, 35000.01
425.7437, 35012.96
426.2259, 35057.89
426.7080, 35086.50
427.1901, 35088.58
427.6722, 35083.22
428.1543, 35091.75
428.6364, 35112.36
429.1186, 35120.87
429.6007, 35113.16
430.0828, 35098.53
430.5649, 35082.77
431.0470, 35064.67
431.5291, 35040.44
432.0113, 35003.59
432.4934, 34967.40
432.9755, 34932.83
433.4576, 34906.13
433.9397, 34922.13
434.4218, 35005.22
434.9040, 35100.29
435.3861, 35112.48
435.8682, 35002.90
436.3503, 34948.57
436.8324, 35012.24
437.3145, 35091.35
437.7967, 35097.63
438.2788, 35049.76
438.7609, 35035.06
439.2430, 35117.61
439.7251, 35266.99
440.2072, 35343.70
440.6894, 35281.86
441.1715, 35252.70
441.6536, 35302.03
442.1357, 35372.69
442.6178, 35413.75
443.0999, 35419.02
443.5821, 35424.62
444.0642, 35467.40
444.5463, 35540.80
445.0284, 35603.36
445.5105, 35650.57
445.9926, 35694.30
446.4748, 35753.33
446.9569, 35812.00
447.4390, 35837.04
447.9211, 35801.34
448.4032, 35765.71
448.8853, 35781.89
449.3675, 35827.57
449.8496, 35841.16
450.3317, 35801.61
450.8138, 35761.60
451.2959, 35794.29
451.7780, 35926.33
452.2602, 36007.59
452.7423, 36010.00
453.2244, 35992.69
453.7065, 35971.63
454.1886, 35954.07
454.6707, 35949.08
455.1529, 35961.67
455.6350, 35985.71
456.1171, 36007.89
456.5992, 36026.88
457.0813, 36046.27
457.5634, 36059.35
458.0455, 36077.97
458.5276, 36115.14
459.0098, 36166.47
459.4919, 36210.04
459.9740, 36240.54
460.4561, 36251.95
460.9382, 36224.69
461.4203, 36156.24
461.9025, 36089.13
462.3846, 36044.54
462.8667, 36013.36
463.3488, 35976.68
463.8309, 35938.52
464.3130, 35887.23
464.7952, 35796.83
465.2773, 35704.85
465.7594, 35667.31
466.2415, 35682.75
466.7236, 35688.20
467.2057, 35626.38
467.6879, 35503.34
468.1700, 35412.87
468.6521, 35385.57
469.1342, 35355.31
469.6163, 35320.47
470.0984, 35273.34
470.5806, 35202.43
471.0627, 35106.34
471.5448, 35000.73
472.0269, 34910.17
472.5090, 34830.36
472.9911, 34706.59
473.4733, 34498.96
473.9554, 34320.00
474.4375, 34282.51
474.9196, 34320.18
475.4017, 34308.68
475.8839, 34191.82
476.3660, 34072.80
476.8481, 34023.27
477.3302, 34020.01
477.8123, 34015.14
478.2944, 33996.03
478.7766, 33968.15
479.2587, 33938.65
479.7408, 33909.10
480.2229, 33868.96
480.7050, 33792.68
481.1871, 33734.92
481.6693, 33732.30
482.1514, 33758.90
482.6335, 33770.51
483.1156, 33747.96
483.5977, 33713.08
484.0798, 33692.76
484.5620, 33682.49
485.0441, 33723.73
485.5262, 33875.80
486.0083, 34014.92
486.4904, 34053.13
486.9725, 34013.07
487.4547, 33968.45
487.9368, 33946.49
488.4189, 33929.28
488.9010, 33889.62
489.3831, 33836.14
489.8652, 33809.38
490.3474, 33825.73
490.8295, 33869.41
491.3116, 33923.78
491.7937, 34008.14
492.2758, 34036.93
492.7579, 33958.90
493.2401, 33874.29
493.7222, 33837.95
494.2043, 33839.95
494.6864, 33846.94
495.1685, 33841.28
495.6506, 33830.78
496.1328, 33833.20
496.6149, 33852.05
497.0970, 33871.58
497.5791, 33900.07
498.0612, 33918.53
498.5433, 33908.32
499.0255, 33875.55
499.5076, 33847.70
499.9897, 33824.66
500.4718, 33820.93
500.9539, 33865.39
501.4360, 33950.86
501.9182, 34029.61
502.4003, 34080.70
502.8824, 34119.66
503.3645, 34174.27
503.8466, 34254.12
504.3287, 34323.65
504.8109, 34369.59
505.2930, 34416.17
505.7751, 34470.06
506.2572, 34537.45
506.7393, 34636.43
507.2214, 34780.50
507.7036, 34941.35
508.1857, 35048.08
508.6678, 35088.20
509.1499, 35120.56
509.6320, 35162.41
510.1141, 35189.89
510.5963, 35172.75
511.0784, 35122.49
511.5605, 35094.10
512.0426, 35164.11
512.5247, 35231.33
513.0068, 35154.39
513.4890, 34958.79
513.9711, 34788.09
514.4532, 34702.29
514.9353, 34656.66
515.4174, 34579.39
515.8995, 34461.25
516.3817, 34330.86
516.8638, 34172.43
517.3459, 34017.08
517.8280, 33876.64
518.3101, 33754.24
518.7922, 33656.57
519.2744, 33587.81
519.7565, 33535.61
520.2386, 33479.23
520.7207, 33420.58
521.2028, 33343.46
521.6849, 33218.18
522.1671, 33106.52
522.6492, 33061.57
523.1313, 33068.05
523.6134, 33066.52
524.0955, 33029.73
524.5776, 32985.50
525.0598, 32968.30
525.5419, 32963.49
526.0240, 32915.65
526.5061, 32802.10
526.9882, 32682.65
527.4703, 32646.93
527.9525, 32726.48
528.4346, 32753.17
528.9167, 32676.61
529.3988, 32609.56
529.8809, 32591.63
530.3630, 32611.47
530.8452, 32650.67
531.3273, 32702.70
531.8094, 32760.34
532.2915, 32820.74
532.7736, 32882.73
533.2557, 32920.65
533.7379, 32925.99
534.2200, 32917.65
534.7021, 32886.39
535.1842, 32850.85
535.6663, 32872.95
536.1484, 33010.62
536.6306, 33141.65
537.1127, 33200.52
537.5948, 33219.39
538.0769, 33241.70
538.5590, 33278.15
539.0411, 33322.63
539.5233, 33372.35
540.0054, 33426.83
540.4875, 33456.72
540.9696, 33434.17
541.4517, 33426.26
541.9338, 33449.10
542.4160, 33492.27
542.8981, 33550.24
543.3802, 33621.23
543.8623, 33692.55
544.3444, 33753.13
544.8265, 33807.74
545.3087, 33867.46
545.7908, 33933.44
546.2729, 34001.94
546.7550, 34077.37
547.2371, 34149.25
547.7192, 34181.78
548.2014, 34130.04
548.6835, 34126.32
549.1656, 34230.63
549.6477, 34352.46
550.1298, 34419.71
550.6119, 34437.71
551.0941, 34451.12
551.5762, 34487.39
552.0583, 34541.74
552.5404, 34605.90
553.0225, 34685.02
553.5046, 34748.02
553.9868, 34777.00
554.4689, 34798.76
554.9510, 34851.16
555.4331, 34924.01
555.9152, 34952.70
556.3973, 34875.75
556.8795, 34783.93
557.3616, 34748.16
557.8437, 34755.39
558.3258, 34775.20
558.8079, 34797.55
559.2900, 34810.89
559.7722, 34796.74
560.2543, 34747.45
560.7364, 34712.84
561.2185, 34720.32
561.7006, 34711.75
562.1827, 34665.05
562.6649, 34594.87
563.1470, 34520.52
563.6291, 34446.70
564.1112, 34370.59
564.5933, 34287.02
565.0754, 34198.70
565.5576, 34114.89
566.0397, 34036.58
566.5218, 33963.64
567.0039, 33898.54
567.4860, 33838.32
567.9681, 33769.35
568.4503, 33666.50
568.9324, 33595.08
569.4145, 33604.11
569.8966, 33618.79
570.3787, 33564.95
570.8608, 33454.65
571.3430, 33355.39
571.8251, 33313.91
572.3072, 33315.31
572.7893, 33323.04
573.2714, 33336.55
573.7535, 33361.49
574.2357, 33407.91
574.7178, 33456.06
575.1999, 33480.72
575.6820, 33486.45
576.1641, 33508.88
576.6462, 33588.00
577.1284, 33654.68
577.6105, 33636.30
578.0926, 33578.36
578.5747, 33577.73
579.0568, 33662.11
579.5389, 33772.08
580.0211, 33834.90
580.5032, 33847.61
580.9853, 33861.05
581.4674, 33878.86
581.9495, 33891.55
582.4316, 33895.06
582.9138, 33892.96
583.3959, 33887.65
583.8780, 33879.21
584.3601, 33873.54
584.8422, 33864.98
585.3243, 33865.68
585.8065, 33904.77
586.2886, 33978.83
586.7707, 34044.73
587.2528, 34079.40
587.7349, 34090.16
588.2170, 34093.08
588.6992, 34078.72
589.1813, 34076.02
589.6634, 34115.30
590.1455, 34135.89
590.6276, 34086.46
591.1097, 33997.80
591.5919, 33933.90
592.0740, 33923.80
592.5561, 33943.66
593.0382, 33980.25
593.5203, 34025.56
594.0024, 34032.75
594.4846, 33987.04
594.9667, 33940.09
595.4488, 33935.25
595.9309, 33965.56
596.4130, 33977.71
596.8951, 33937.80
597.3773, 33926.79
597.8594, 33974.08
598.3415, 34045.51
598.8236, 34115.24
599.3057, 34179.21
599.7878, 34242.68
600.2700, 34310.46
600.7521, 34379.50
601.2342, 34436.45
601.7163, 34478.70
602.1984, 34547.20
602.6805, 34671.41
603.1627, 34797.97
603.6448, 34863.72
604.1269, 34873.21
604.6090, 34882.06
605.0911, 34878.61
605.5732, 34894.03
606.0554, 34963.29
606.5375, 35051.93
607.0196, 35118.79
607.5017, 35150.11
607.9838, 35139.49
608.4659, 35066.52
608.9481, 34942.03
609.4302, 34869.34
609.9123, 34872.99
610.3944, 34855.96
610.8765, 34789.82
611.3586, 34680.12
611.8408, 34526.27
612.3229, 34324.55
612.8050, 34135.04
613.2871, 33971.45
613.7692, 33830.07
614.2513, 33726.51
614.7335, 33641.04
615.2156, 33522.16
615.6977, 33350.88
616.1798, 33176.38
616.6619, 33084.70
617.1440, 33089.54
617.6262, 33008.54
618.1083, 32784.74
618.5904, 32569.93
619.0725, 32427.89
619.5546, 32330.64
620.0367, 32252.53
620.5189, 32193.92
621.0010, 32132.54
621.4831, 32054.81
621.9652, 31971.29
622.4473, 31894.68
622.9294, 31823.98
623.4116, 31750.91
623.8937, 31671.08
624.3758, 31590.43
624.8579, 31521.39
625.3400, 31470.12
625.8221, 31409.44
626.3043, 31334.34
626.7864, 31256.41
627.2685, 31184.51
627.7506, 31112.41
628.2327, 31024.34
628.7148, 30908.49
629.1970, 30813.79
629.6791, 30796.11
630.1612, 30802.00
630.6433, 30743.82
631.1254, 30627.75
631.6075, 30537.72
632.0897, 30526.01
632.5718, 30552.51
633.0539, 30515.47
633.5360, 30386.29
634.0181, 30274.24
634.5002, 30183.64
634.9824, 30110.75
635.4645, 30065.58
635.9466, 30034.13
636.4287, 29988.60
636.9108, 29915.66
637.3929, 29845.74
637.8751, 29804.21
638.3572, 29775.67
638.8393, 29734.79
639.3214, 29680.40
639.8035, 29630.07
640.2856, 29596.91
640.7678, 29569.92
641.2499, 29514.60
641.7320, 29416.41
642.2141, 29328.74
642.6962, 29248.76
643.1783, 29187.27
643.6605, 29170.89
644.1426, 29173.96
644.6247, 29136.68
645.1068, 29021.51
645.5889, 28919.15
646.0710, 28914.66
646.5532, 28951.06
647.0353, 28935.34
647.5174, 28862.20
647.9995, 28779.64
648.4816, 28716.83
648.9637, 28675.51
649.4459, 28663.85
649.9280, 28696.33
650.4101, 28717.56
650.8922, 28717.46
651.3743, 28710.76
651.8564, 28703.97
652.3386, 28696.23
652.8207, 28685.11
653.3028, 28668.05
653.7849, 28650.98
654.2670, 28642.24
654.7491, 28632.88
655.2313, 28611.41
655.7134, 28576.28
656.1955, 28526.03
656.6776, 28456.94
657.1597, 28382.96
657.6418, 28342.97
658.1240, 28345.57
658.6061, 28352.81
659.0882, 28388.87
659.5703, 28394.89
660.0524, 28308.00
660.5345, 28174.16
661.0167, 28093.38
661.4988, 28103.07
661.9809, 28120.50
662.4630, 28111.82
662.9451, 28086.96
663.4272, 28052.49
663.9094, 28012.40
664.3915, 27975.17
664.8736, 27945.92
665.3557, 27921.54
665.8378, 27892.37
666.3199, 27854.61
666.8021, 27843.49
667.2842, 27884.14
667.7663, 27913.49
668.2484, 27877.37
668.7305, 27806.54
669.2126, 27760.05
669.6948, 27744.41
