##NAMES=Goyazite
##RRUFFID=R061054
##IDEAL CHEMISTRY=SrAl_3_(PO_4_)(PO_3_OH)(OH)_6_
##LOCALITY=Yukon Territory, Canada
##OWNER=RRUFF
##SOURCE=Royal Ontario Museum
##DESCRIPTION=Pale green rhombohedral crystals with iron staining
##STATUS=The identification of this mineral has been confirmed by single-crystal X-ray diffraction.
##URL=rruff.info/R061054
148.0385, 3968.695
148.5207, 3983.771
149.0028, 3997.189
149.4849, 4007.098
149.9670, 4015.438
150.4491, 4026.786
150.9312, 4045.266
151.4134, 4064.123
151.8955, 4080.799
152.3776, 4092.575
152.8597, 4105.814
153.3418, 4120.613
153.8239, 4137.231
154.3061, 4156.519
154.7882, 4181.705
155.2703, 4208.022
155.7524, 4232.324
156.2345, 4251.330
156.7166, 4270.898
157.1988, 4289.295
157.6809, 4306.081
158.1630, 4332.201
158.6451, 4375.976
159.1272, 4427.789
159.6093, 4478.096
160.0915, 4516.710
160.5736, 4558.306
161.0557, 4610.125
161.5378, 4674.576
162.0199, 4740.036
162.5020, 4806.443
162.9841, 4870.127
163.4663, 4926.172
163.9484, 4956.858
164.4305, 4989.149
164.9126, 5040.866
165.3947, 5118.844
165.8768, 5208.460
166.3590, 5308.399
166.8411, 5414.810
167.3232, 5518.837
167.8053, 5608.153
168.2874, 5696.268
168.7695, 5796.143
169.2517, 5913.615
169.7338, 6041.194
170.2159, 6176.832
170.6980, 6317.774
171.1801, 6461.515
171.6622, 6599.288
172.1444, 6739.671
172.6265, 6894.638
173.1086, 7066.160
173.5907, 7255.291
174.0728, 7469.956
174.5549, 7711.440
175.0371, 7961.855
175.5192, 8201.428
176.0013, 8438.990
176.4834, 8692.556
176.9655, 8980.322
177.4476, 9283.302
177.9298, 9570.557
178.4119, 9840.791
178.8940, 10106.16
179.3761, 10383.25
179.8582, 10670.23
180.3403, 10970.17
180.8225, 11309.43
181.3046, 11659.22
181.7867, 11961.69
182.2688, 12199.94
182.7509, 12408.29
183.2330, 12640.11
183.7152, 12887.07
184.1973, 13114.64
184.6794, 13311.73
185.1615, 13471.97
185.6436, 13564.41
186.1257, 13578.89
186.6079, 13530.67
187.0900, 13445.18
187.5721, 13322.39
188.0542, 13168.76
188.5363, 12994.41
189.0184, 12797.22
189.5006, 12548.44
189.9827, 12233.29
190.4648, 11869.13
190.9469, 11489.19
191.4290, 11096.42
191.9111, 10707.01
192.3932, 10329.14
192.8754, 9964.865
193.3575, 9621.693
193.8396, 9307.284
194.3217, 9015.469
194.8038, 8724.627
195.2859, 8430.057
195.7681, 8150.727
196.2502, 7904.146
196.7323, 7692.757
197.2144, 7495.500
197.6965, 7301.432
198.1786, 7111.942
198.6608, 6950.104
199.1429, 6820.500
199.6250, 6712.064
200.1071, 6606.496
200.5892, 6503.554
201.0714, 6404.129
201.5535, 6304.737
202.0356, 6203.723
202.5177, 6124.593
202.9998, 6073.961
203.4819, 6038.367
203.9641, 5989.655
204.4462, 5924.044
204.9283, 5857.707
205.4104, 5798.061
205.8925, 5744.724
206.3746, 5699.916
206.8568, 5665.475
207.3389, 5638.483
207.8210, 5609.681
208.3031, 5577.264
208.7852, 5547.985
209.2673, 5527.422
209.7495, 5518.042
210.2316, 5507.638
210.7137, 5492.956
211.1958, 5476.420
211.6779, 5471.562
212.1600, 5483.929
212.6422, 5497.297
213.1243, 5495.333
213.6064, 5468.611
214.0885, 5457.744
214.5706, 5474.702
215.0527, 5516.589
215.5349, 5541.038
216.0170, 5538.030
216.4991, 5531.905
216.9812, 5547.124
217.4633, 5592.570
217.9454, 5635.748
218.4276, 5672.253
218.9097, 5701.879
219.3918, 5715.319
219.8739, 5698.980
220.3560, 5681.733
220.8381, 5699.275
221.3203, 5768.312
221.8024, 5835.811
222.2845, 5889.535
222.7666, 5929.439
223.2487, 5959.495
223.7308, 5976.140
224.2129, 5985.967
224.6951, 5995.988
225.1772, 6001.028
225.6593, 6016.451
226.1414, 6050.750
226.6235, 6111.121
227.1056, 6155.959
227.5878, 6179.920
228.0699, 6191.698
228.5520, 6204.754
229.0341, 6213.089
229.5162, 6232.573
229.9983, 6272.108
230.4805, 6341.512
230.9626, 6398.244
231.4447, 6435.622
231.9268, 6462.932
232.4089, 6499.283
232.8910, 6551.710
233.3732, 6603.308
233.8553, 6644.242
234.3374, 6660.037
234.8195, 6703.797
235.3016, 6790.125
235.7837, 6900.646
236.2659, 6986.898
236.7480, 7030.770
237.2301, 7076.633
237.7122, 7146.079
238.1943, 7255.181
238.6764, 7351.449
239.1586, 7422.874
239.6407, 7482.870
240.1228, 7573.613
240.6049, 7700.604
241.0870, 7851.520
241.5691, 8022.859
242.0513, 8226.120
242.5334, 8424.229
243.0155, 8606.663
243.4976, 8781.924
243.9797, 8985.600
244.4618, 9217.176
244.9440, 9473.729
245.4261, 9752.464
245.9082, 10050.05
246.3903, 10376.59
246.8724, 10738.80
247.3545, 11131.13
247.8367, 11526.68
248.3188, 11911.69
248.8009, 12311.53
249.2830, 12744.78
249.7651, 13219.22
250.2472, 13700.81
250.7294, 14187.37
251.2115, 14679.43
251.6936, 15178.93
252.1757, 15695.08
252.6578, 16209.81
253.1399, 16723.07
253.6220, 17240.87
254.1042, 17750.59
254.5863, 18262.15
255.0684, 18769.16
255.5505, 19197.90
256.0326, 19544.79
256.5147, 19818.29
256.9969, 20035.65
257.4790, 20212.88
257.9611, 20294.66
258.4432, 20280.33
258.9253, 20165.90
259.4074, 19920.20
259.8896, 19510.22
260.3717, 19010.96
260.8538, 18467.33
261.3359, 17872.21
261.8180, 17244.13
262.3001, 16569.11
262.7823, 15857.94
263.2644, 15155.29
263.7465, 14459.63
264.2286, 13782.41
264.7107, 13150.47
265.1928, 12555.41
265.6750, 12004.85
266.1571, 11497.02
266.6392, 11035.11
267.1213, 10604.21
267.6034, 10208.44
268.0855, 9842.396
268.5677, 9497.452
269.0498, 9167.101
269.5319, 8886.971
270.0140, 8672.374
270.4961, 8516.762
270.9782, 8348.048
271.4604, 8153.126
271.9425, 7969.305
272.4246, 7833.691
272.9067, 7753.573
273.3888, 7685.482
273.8709, 7623.424
274.3531, 7566.811
274.8352, 7506.829
275.3173, 7439.191
275.7994, 7379.850
276.2815, 7344.496
276.7636, 7334.934
277.2458, 7336.871
277.7279, 7349.474
278.2100, 7371.243
278.6921, 7393.458
279.1742, 7415.082
279.6563, 7440.257
280.1385, 7471.835
280.6206, 7509.157
281.1027, 7557.708
281.5848, 7626.561
282.0669, 7706.220
282.5490, 7749.616
283.0312, 7750.546
283.5133, 7744.955
283.9954, 7781.582
284.4775, 7859.843
284.9596, 7892.519
285.4417, 7854.985
285.9239, 7760.103
286.4060, 7645.354
286.8881, 7510.844
287.3702, 7364.693
287.8523, 7212.471
288.3344, 7053.758
288.8166, 6891.250
289.2987, 6719.363
289.7808, 6546.249
290.2629, 6393.485
290.7450, 6262.755
291.2271, 6143.629
291.7093, 6025.161
292.1914, 5909.956
292.6735, 5811.038
293.1556, 5736.260
293.6377, 5677.752
294.1198, 5622.927
294.6020, 5571.698
295.0841, 5525.336
295.5662, 5484.902
296.0483, 5449.770
296.5304, 5418.835
297.0125, 5393.663
297.4947, 5370.628
297.9768, 5340.186
298.4589, 5303.656
298.9410, 5275.976
299.4231, 5275.688
299.9052, 5292.278
300.3873, 5302.230
300.8694, 5295.622
301.3516, 5286.537
301.8337, 5294.089
302.3158, 5316.045
302.7979, 5339.184
303.2800, 5351.141
303.7621, 5359.077
304.2443, 5374.805
304.7264, 5401.766
305.2085, 5434.930
305.6906, 5475.594
306.1727, 5520.378
306.6548, 5557.495
307.1370, 5569.612
307.6191, 5573.769
308.1012, 5590.028
308.5833, 5624.897
309.0654, 5667.065
309.5475, 5714.547
310.0297, 5763.238
310.5118, 5802.315
310.9939, 5811.071
311.4760, 5815.047
311.9581, 5838.057
312.4402, 5890.655
312.9224, 5947.515
313.4045, 5996.685
313.8866, 6039.940
314.3687, 6080.040
314.8508, 6120.518
315.3329, 6156.875
315.8151, 6182.514
316.2972, 6189.432
316.7793, 6207.836
317.2614, 6267.643
317.7435, 6346.139
318.2256, 6402.735
318.7078, 6399.501
319.1899, 6390.266
319.6720, 6403.070
320.1541, 6447.700
320.6362, 6488.838
321.1183, 6515.000
321.6005, 6531.634
322.0826, 6546.232
322.5647, 6560.876
323.0468, 6573.137
323.5289, 6580.868
324.0110, 6582.136
324.4932, 6586.674
324.9753, 6596.634
325.4574, 6610.113
325.9395, 6624.943
326.4216, 6646.560
326.9037, 6663.836
327.3859, 6673.077
327.8680, 6672.629
328.3501, 6673.602
328.8322, 6673.589
329.3143, 6676.455
329.7964, 6685.804
330.2786, 6704.015
330.7607, 6725.875
331.2428, 6752.107
331.7249, 6782.632
332.2070, 6811.438
332.6891, 6841.959
333.1713, 6867.761
333.6534, 6881.177
334.1355, 6868.656
334.6176, 6872.762
335.0997, 6905.036
335.5818, 6961.007
336.0640, 7008.342
336.5461, 7047.938
337.0282, 7077.117
337.5103, 7090.268
337.9924, 7079.628
338.4745, 7083.971
338.9567, 7113.534
339.4388, 7158.990
339.9209, 7187.992
340.4030, 7197.175
340.8851, 7201.008
341.3672, 7208.596
341.8494, 7220.435
342.3315, 7229.109
342.8136, 7232.497
343.2957, 7235.028
343.7778, 7247.693
344.2599, 7271.176
344.7421, 7295.007
345.2242, 7311.206
345.7063, 7321.586
346.1884, 7334.743
346.6705, 7349.748
347.1526, 7371.328
347.6348, 7410.901
348.1169, 7465.637
348.5990, 7517.935
349.0811, 7549.479
349.5632, 7571.803
350.0453, 7613.537
350.5275, 7676.750
351.0096, 7749.443
351.4917, 7825.065
351.9738, 7901.287
352.4559, 7972.938
352.9380, 8017.366
353.4202, 8065.140
353.9023, 8162.327
354.3844, 8309.442
354.8665, 8462.903
355.3486, 8571.142
355.8307, 8667.366
356.3129, 8803.719
356.7950, 9042.548
357.2771, 9291.129
357.7592, 9474.173
358.2413, 9598.993
358.7234, 9721.714
359.2056, 9860.637
359.6877, 10017.93
360.1698, 10196.45
360.6519, 10409.70
361.1340, 10628.44
361.6161, 10846.83
362.0982, 11063.02
362.5804, 11270.87
363.0625, 11471.19
363.5446, 11660.29
364.0267, 11837.41
364.5088, 12011.86
364.9909, 12158.38
365.4731, 12269.20
365.9552, 12349.89
366.4373, 12412.39
366.9194, 12466.37
367.4015, 12496.01
367.8836, 12494.61
368.3658, 12454.17
368.8479, 12401.02
369.3300, 12334.49
369.8121, 12256.15
370.2942, 12169.17
370.7763, 12067.76
371.2585, 11964.54
371.7406, 11867.51
372.2227, 11781.94
372.7048, 11661.01
373.1869, 11490.98
373.6690, 11300.72
374.1512, 11117.06
374.6333, 10941.70
375.1154, 10767.63
375.5975, 10596.32
376.0796, 10424.64
376.5617, 10229.61
377.0439, 10003.79
377.5260, 9777.675
378.0081, 9582.280
378.4902, 9418.615
378.9723, 9248.806
379.4544, 9060.537
379.9366, 8868.745
380.4187, 8709.630
380.9008, 8585.673
381.3829, 8465.415
381.8650, 8322.960
382.3471, 8164.534
382.8293, 8026.675
383.3114, 7912.959
383.7935, 7815.306
384.2756, 7725.488
384.7577, 7641.687
385.2398, 7556.638
385.7220, 7460.544
386.2041, 7360.817
386.6862, 7267.938
387.1683, 7181.210
387.6504, 7103.294
388.1325, 7041.041
388.6147, 6988.006
389.0968, 6934.694
389.5789, 6875.984
390.0610, 6815.874
390.5431, 6755.808
391.0252, 6696.495
391.5074, 6644.519
391.9895, 6609.107
392.4716, 6579.986
392.9537, 6547.479
393.4358, 6507.453
393.9179, 6465.628
394.4001, 6424.321
394.8822, 6382.932
395.3643, 6338.640
395.8464, 6276.110
396.3285, 6220.698
396.8106, 6188.620
397.2928, 6199.632
397.7749, 6198.949
398.2570, 6170.648
398.7391, 6127.500
399.2212, 6093.905
399.7033, 6082.958
400.1855, 6068.672
400.6676, 6041.129
401.1497, 5995.175
401.6318, 5963.862
402.1139, 5954.702
402.5960, 5954.055
403.0782, 5948.315
403.5603, 5939.244
404.0424, 5920.327
404.5245, 5885.674
405.0066, 5838.604
405.4887, 5803.640
405.9709, 5780.939
406.4530, 5769.820
406.9351, 5773.606
407.4172, 5793.458
407.8993, 5808.093
408.3814, 5814.689
408.8636, 5814.582
409.3457, 5807.568
409.8278, 5793.699
410.3099, 5784.153
410.7920, 5789.768
411.2741, 5805.469
411.7563, 5813.817
412.2384, 5812.784
412.7205, 5808.280
413.2026, 5805.175
413.6847, 5803.742
414.1668, 5804.888
414.6490, 5806.339
415.1311, 5811.846
415.6132, 5831.098
416.0953, 5863.764
416.5774, 5888.748
417.0595, 5889.641
417.5417, 5875.875
418.0238, 5857.738
418.5059, 5827.147
418.9880, 5806.013
419.4701, 5811.665
419.9522, 5838.204
420.4344, 5863.667
420.9165, 5886.564
421.3986, 5901.243
421.8807, 5901.343
422.3628, 5871.648
422.8449, 5858.824
423.3270, 5885.139
423.8091, 5931.337
424.2913, 5965.448
424.7734, 5985.405
425.2555, 5991.044
425.7376, 5974.215
426.2197, 5928.112
426.7018, 5909.620
427.1840, 5932.890
427.6661, 5970.604
428.1482, 5998.763
428.6303, 6016.675
429.1124, 6025.880
429.5945, 6021.578
430.0767, 6009.200
430.5588, 6016.990
431.0409, 6051.542
431.5230, 6083.777
432.0051, 6090.169
432.4872, 6070.985
432.9694, 6065.459
433.4515, 6079.607
433.9336, 6100.909
434.4157, 6103.802
434.8978, 6091.418
435.3799, 6092.166
435.8621, 6131.394
436.3442, 6191.183
436.8263, 6231.178
437.3084, 6250.858
437.7905, 6262.341
438.2726, 6262.541
438.7548, 6263.920
439.2369, 6289.800
439.7190, 6367.367
440.2011, 6450.075
440.6832, 6492.397
441.1653, 6504.474
441.6475, 6525.448
442.1296, 6586.452
442.6117, 6656.460
443.0938, 6711.474
443.5759, 6739.847
444.0580, 6773.097
444.5402, 6825.581
445.0223, 6888.112
445.5044, 6945.859
445.9865, 6995.861
446.4686, 7041.389
446.9507, 7079.913
447.4329, 7109.926
447.9150, 7149.062
448.3971, 7203.274
448.8792, 7261.885
449.3613, 7316.776
449.8434, 7360.325
450.3256, 7418.146
450.8077, 7502.596
451.2898, 7600.512
451.7719, 7661.158
452.2540, 7673.575
452.7361, 7681.077
453.2183, 7708.705
453.7004, 7756.581
454.1825, 7793.707
454.6646, 7817.441
455.1467, 7835.371
455.6288, 7858.749
456.1110, 7886.398
456.5931, 7908.054
457.0752, 7917.409
457.5573, 7919.539
458.0394, 7925.072
458.5215, 7933.590
459.0037, 7937.222
459.4858, 7928.817
459.9679, 7912.080
460.4500, 7892.836
460.9321, 7872.604
461.4142, 7848.945
461.8964, 7821.436
462.3785, 7789.010
462.8606, 7749.235
463.3427, 7695.382
463.8248, 7637.632
464.3069, 7580.731
464.7891, 7523.729
465.2712, 7471.513
465.7533, 7434.065
466.2354, 7397.559
466.7175, 7349.663
467.1996, 7280.814
467.6818, 7209.851
468.1639, 7134.944
468.6460, 7058.551
469.1281, 6988.870
469.6102, 6928.003
470.0923, 6870.854
470.5745, 6813.351
471.0566, 6753.031
471.5387, 6703.915
472.0208, 6669.864
472.5029, 6641.321
472.9850, 6601.943
473.4672, 6550.767
473.9493, 6504.142
474.4314, 6470.334
474.9135, 6444.494
475.3956, 6409.639
475.8777, 6365.500
476.3599, 6319.793
476.8420, 6276.447
477.3241, 6236.846
477.8062, 6204.748
478.2883, 6182.090
478.7704, 6165.012
479.2526, 6151.243
479.7347, 6140.107
480.2168, 6130.204
480.6989, 6119.055
481.1810, 6109.727
481.6631, 6105.536
482.1453, 6106.699
482.6274, 6106.042
483.1095, 6093.465
483.5916, 6080.937
484.0737, 6078.911
484.5558, 6103.941
485.0379, 6122.585
485.5201, 6126.989
486.0022, 6120.451
486.4843, 6115.348
486.9664, 6115.313
487.4485, 6112.721
487.9306, 6101.860
488.4128, 6077.523
488.8949, 6073.933
489.3770, 6099.999
489.8591, 6134.464
490.3412, 6151.808
490.8233, 6150.595
491.3055, 6144.020
491.7876, 6130.236
492.2697, 6116.269
492.7518, 6125.465
493.2339, 6157.649
493.7160, 6193.225
494.1982, 6217.816
494.6803, 6235.591
495.1624, 6255.100
495.6445, 6276.838
496.1266, 6303.066
496.6087, 6341.568
497.0909, 6385.968
497.5730, 6425.309
498.0551, 6438.375
498.5372, 6458.301
499.0193, 6512.005
499.5014, 6595.342
499.9836, 6679.162
500.4657, 6754.208
500.9478, 6824.025
501.4299, 6890.799
501.9120, 6950.059
502.3941, 7014.368
502.8763, 7086.062
503.3584, 7163.090
503.8405, 7242.037
504.3226, 7321.713
504.8047, 7404.856
505.2868, 7494.006
505.7690, 7588.064
506.2511, 7675.003
506.7332, 7752.259
507.2153, 7826.833
507.6974, 7908.880
508.1795, 7998.295
508.6617, 8067.618
509.1438, 8113.411
509.6259, 8139.254
510.1080, 8147.392
510.5901, 8139.165
511.0722, 8122.647
511.5544, 8099.503
512.0365, 8071.428
512.5186, 8044.492
513.0007, 8017.634
513.4828, 7979.071
513.9650, 7925.175
514.4471, 7852.644
514.9292, 7754.379
515.4113, 7615.250
515.8934, 7477.601
516.3755, 7364.383
516.8576, 7265.362
517.3397, 7159.579
517.8218, 7024.140
518.3040, 6898.184
518.7861, 6796.927
519.2682, 6722.701
519.7503, 6648.710
520.2324, 6570.733
520.7145, 6496.102
521.1967, 6429.016
521.6788, 6365.691
522.1609, 6321.475
522.6430, 6303.624
523.1251, 6299.095
523.6072, 6279.524
524.0894, 6242.888
524.5715, 6214.018
525.0536, 6204.520
525.5357, 6210.150
526.0178, 6218.273
526.4999, 6228.989
526.9821, 6236.587
527.4642, 6227.727
527.9463, 6214.019
528.4284, 6219.383
528.9105, 6253.406
529.3926, 6292.870
529.8748, 6314.423
530.3569, 6327.761
530.8390, 6351.103
531.3211, 6402.119
531.8032, 6455.722
532.2853, 6499.653
532.7675, 6533.970
533.2496, 6570.670
533.7317, 6601.206
534.2138, 6643.213
534.6959, 6710.046
535.1780, 6834.752
535.6602, 6925.133
536.1423, 6963.068
536.6244, 6979.657
537.1065, 7030.070
537.5886, 7124.148
538.0707, 7218.126
538.5529, 7298.868
539.0350, 7369.631
539.5171, 7450.369
539.9992, 7541.630
540.4813, 7635.283
540.9634, 7719.931
541.4456, 7802.053
541.9277, 7901.315
542.4098, 8022.184
542.8919, 8149.083
543.3740, 8262.732
543.8561, 8368.559
544.3383, 8475.903
544.8204, 8593.319
545.3025, 8709.316
545.7846, 8813.859
546.2667, 8908.978
546.7488, 9006.216
547.2310, 9108.107
547.7131, 9212.932
548.1952, 9321.717
548.6773, 9437.569
549.1594, 9548.085
549.6415, 9653.215
550.1237, 9752.785
550.6058, 9847.292
551.0879, 9937.117
551.5700, 10017.79
552.0521, 10084.81
552.5342, 10143.63
553.0164, 10217.23
553.4985, 10308.50
553.9806, 10389.39
554.4627, 10439.22
554.9448, 10465.26
555.4269, 10498.28
555.9091, 10540.44
556.3912, 10574.73
556.8733, 10583.69
557.3554, 10573.82
557.8375, 10555.76
558.3196, 10532.17
558.8018, 10501.66
559.2839, 10462.63
559.7660, 10415.85
560.2481, 10362.27
560.7302, 10292.15
561.2123, 10224.30
561.6945, 10171.43
562.1766, 10137.24
562.6587, 10084.58
563.1408, 10000.46
563.6229, 9907.125
564.1050, 9817.772
564.5872, 9736.370
565.0693, 9645.659
565.5514, 9536.733
566.0335, 9426.157
566.5156, 9349.678
566.9977, 9309.937
567.4799, 9265.384
567.9620, 9198.027
568.4441, 9118.742
568.9262, 9060.739
569.4083, 9021.922
569.8904, 8981.383
570.3726, 8911.311
570.8547, 8835.808
571.3368, 8788.218
571.8189, 8776.623
572.3010, 8771.082
572.7831, 8755.255
573.2653, 8734.007
573.7474, 8713.443
574.2295, 8689.205
574.7116, 8672.430
575.1937, 8666.544
575.6758, 8670.504
576.1580, 8680.572
576.6401, 8706.371
577.1222, 8726.198
577.6043, 8731.424
578.0864, 8720.884
578.5685, 8711.898
579.0507, 8702.672
579.5328, 8699.407
580.0149, 8707.852
580.4970, 8727.766
580.9791, 8756.699
581.4612, 8797.150
581.9434, 8838.501
582.4255, 8865.307
582.9076, 8879.287
583.3897, 8885.600
583.8718, 8878.477
584.3539, 8870.306
584.8361, 8870.805
585.3182, 8879.737
585.8003, 8895.501
586.2824, 8927.423
586.7645, 8958.337
587.2466, 8975.955
587.7288, 8973.030
588.2109, 8975.276
588.6930, 8996.618
589.1751, 9018.185
589.6572, 9021.306
590.1393, 8994.239
590.6215, 8973.889
591.1036, 8963.471
591.5857, 8962.931
592.0678, 8973.586
592.5499, 8996.201
593.0320, 9023.211
593.5142, 9055.224
593.9963, 9088.815
594.4784, 9109.004
594.9605, 9116.267
595.4426, 9124.861
595.9247, 9147.042
596.4069, 9177.128
596.8890, 9206.339
597.3711, 9231.158
597.8532, 9262.806
598.3353, 9316.604
598.8174, 9378.628
599.2996, 9430.762
599.7817, 9458.076
600.2638, 9485.456
600.7459, 9515.728
601.2280, 9549.968
601.7101, 9591.000
602.1923, 9634.469
602.6744, 9692.524
603.1565, 9778.966
603.6386, 9895.869
604.1207, 9964.316
604.6028, 9975.276
605.0850, 9976.444
605.5671, 10017.05
606.0492, 10087.23
606.5313, 10142.51
607.0134, 10176.60
607.4955, 10194.55
607.9777, 10202.99
608.4598, 10199.76
608.9419, 10180.68
609.4240, 10139.12
609.9061, 10085.57
610.3882, 10025.59
610.8704, 9958.341
611.3525, 9882.525
611.8346, 9789.794
612.3167, 9694.811
612.7988, 9605.842
613.2809, 9524.826
613.7631, 9433.325
614.2452, 9327.052
614.7273, 9215.831
615.2094, 9109.638
615.6915, 9010.104
616.1736, 8902.349
616.6558, 8779.965
617.1379, 8661.216
617.6200, 8581.687
618.1021, 8534.195
618.5842, 8482.867
619.0663, 8413.024
619.5485, 8333.512
620.0306, 8247.335
620.5127, 8157.877
620.9948, 8077.909
621.4769, 8021.347
621.9590, 7971.772
622.4412, 7923.138
622.9233, 7876.104
623.4054, 7815.661
623.8875, 7723.227
624.3696, 7627.131
624.8517, 7546.844
625.3339, 7488.983
625.8160, 7434.516
626.2981, 7384.109
626.7802, 7335.731
627.2623, 7288.593
627.7444, 7243.269
628.2266, 7188.010
628.7087, 7115.175
629.1908, 7034.650
629.6729, 6967.617
630.1550, 6912.359
630.6371, 6861.075
631.1193, 6813.741
631.6014, 6765.965
632.0835, 6712.410
632.5656, 6652.693
633.0477, 6594.651
633.5298, 6547.991
634.0120, 6499.367
634.4941, 6438.360
634.9762, 6349.873
635.4583, 6275.182
635.9404, 6222.482
636.4225, 6179.201
636.9047, 6128.542
637.3868, 6067.455
637.8689, 6011.083
638.3510, 5963.278
638.8331, 5921.252
639.3152, 5876.198
639.7973, 5829.258
640.2794, 5791.877
640.7615, 5783.306
641.2437, 5782.512
641.7258, 5753.557
642.2079, 5699.234
642.6900, 5641.545
643.1721, 5580.357
643.6542, 5530.567
644.1364, 5507.940
644.6185, 5524.253
645.1006, 5531.691
645.5827, 5514.810
646.0648, 5486.317
