##NAMES=Graemite
##RRUFFID=R100207
##IDEAL CHEMISTRY=Cu^2+^Te^4+^O_3_&#183;H_2_O
##LOCALITY=Cole shaft, Bisbee, Cochise County, Arizona, USA
##OWNER=RRUFF
##SOURCE=Rob Lavinsky/Evan Jones 
##DESCRIPTION=Green platy, bladed crystals intimately associated with blue teineite, R100206, on cuprite
##STATUS=The identification of this mineral has been confirmed by single-crystal X-ray diffraction.
##URL=rruff.info/R100207
203.4207, 39.13633
203.9028, 38.90405
204.3849, 38.84615
204.8670, 38.75689
205.3492, 38.26841
205.8313, 37.02802
206.3134, 35.73805
206.7955, 35.44270
207.2776, 36.39520
207.7597, 37.16261
208.2419, 36.75933
208.7240, 35.95798
209.2061, 35.47411
209.6882, 35.54955
210.1703, 36.00824
210.6524, 36.63050
211.1346, 37.55791
211.6167, 38.26087
212.0988, 38.60103
212.5809, 38.65338
213.0630, 38.43654
213.5451, 37.93725
214.0273, 37.25872
214.5094, 36.58300
214.9915, 35.69703
215.4736, 35.24715
215.9557, 35.59374
216.4378, 36.24821
216.9200, 36.71984
217.4021, 36.78482
217.8842, 36.60303
218.3663, 36.63236
218.8484, 37.14660
219.3305, 37.47564
219.8127, 37.42431
220.2948, 37.21326
220.7769, 37.11550
221.2590, 37.25570
221.7411, 37.48894
222.2232, 37.37793
222.7054, 36.29981
223.1875, 35.62351
223.6696, 35.69223
224.1517, 36.10689
224.6338, 36.44709
225.1159, 36.52803
225.5980, 36.38180
226.0802, 36.09366
226.5623, 35.31280
227.0444, 34.81208
227.5265, 34.81627
228.0086, 35.08472
228.4907, 35.40123
228.9729, 35.69391
229.4550, 35.82328
229.9371, 35.34537
230.4192, 33.30974
230.9013, 32.16518
231.3834, 33.01550
231.8656, 34.82692
232.3477, 36.10652
232.8298, 36.28275
233.3119, 35.69137
233.7940, 34.89891
234.2761, 33.63521
234.7583, 32.83629
235.2404, 33.09085
235.7225, 33.91093
236.2046, 34.40004
236.6867, 34.19807
237.1688, 33.73268
237.6510, 33.79638
238.1331, 34.44370
238.6152, 35.06893
239.0973, 35.60522
239.5794, 35.97022
240.0615, 35.86391
240.5437, 35.00341
241.0258, 34.07618
241.5079, 34.21964
241.9900, 35.43452
242.4721, 36.25270
242.9542, 35.58867
243.4364, 34.05545
243.9185, 33.27610
244.4006, 33.74577
244.8827, 34.71783
245.3648, 35.67389
245.8469, 36.58081
246.3290, 36.95387
246.8112, 36.13298
247.2933, 34.55694
247.7754, 33.63890
248.2575, 33.90694
248.7396, 34.26466
249.2217, 33.48394
249.7039, 31.96685
250.1860, 31.14208
250.6681, 32.55698
251.1502, 35.41375
251.6323, 36.60957
252.1144, 35.17028
252.5966, 33.38198
253.0787, 32.55475
253.5608, 32.44090
254.0429, 32.49195
254.5250, 32.42936
255.0071, 32.29372
255.4893, 32.25790
255.9714, 32.41190
256.4535, 32.51990
256.9356, 32.59176
257.4177, 32.54459
257.8998, 32.18935
258.3820, 31.25698
258.8641, 30.01957
259.3462, 29.55267
259.8283, 30.61541
260.3104, 31.18194
260.7925, 30.03812
261.2747, 28.23942
261.7568, 27.21269
262.2389, 27.73871
262.7210, 29.32624
263.2031, 30.61137
263.6852, 31.68527
264.1674, 32.22921
264.6495, 31.82199
265.1316, 31.08370
265.6137, 30.75254
266.0958, 31.17256
266.5779, 31.91964
267.0601, 31.89373
267.5422, 30.32865
268.0243, 29.38549
268.5064, 29.61765
268.9885, 30.37033
269.4706, 31.19164
269.9528, 31.90354
270.4349, 32.39608
270.9170, 32.41309
271.3991, 31.65316
271.8812, 30.99265
272.3633, 30.33191
272.8455, 29.87388
273.3276, 29.89237
273.8097, 30.40390
274.2918, 31.06483
274.7739, 31.28624
275.2560, 30.57480
275.7382, 30.50518
276.2202, 31.78500
276.7024, 33.04419
277.1845, 33.44934
277.6666, 32.87918
278.1487, 31.68361
278.6308, 30.13147
279.1129, 27.77427
279.5951, 26.70566
280.0772, 27.73316
280.5593, 29.09844
281.0414, 30.03835
281.5235, 30.45245
282.0056, 30.52304
282.4878, 30.38093
282.9699, 29.96528
283.4520, 29.78374
283.9341, 30.10192
284.4162, 30.36200
284.8983, 30.26880
285.3805, 29.91373
285.8626, 29.55252
286.3447, 29.35444
286.8268, 29.32300
287.3089, 29.68641
287.7910, 31.12774
288.2732, 32.20309
288.7553, 32.22098
289.2374, 31.58025
289.7195, 31.07566
290.2016, 31.20182
290.6837, 31.81848
291.1659, 32.14680
291.6480, 32.08932
292.1301, 31.85796
292.6122, 31.07864
293.0943, 30.24577
293.5764, 30.22276
294.0586, 31.43821
294.5407, 33.26695
295.0228, 34.01653
295.5049, 32.48412
295.9870, 31.28963
296.4691, 30.66827
296.9513, 30.36610
297.4334, 30.14782
297.9155, 29.93318
298.3976, 29.71109
298.8797, 29.40785
299.3618, 28.40755
299.8440, 28.65342
300.3261, 31.82801
300.8082, 35.17105
301.2903, 36.20461
301.7724, 34.57427
302.2545, 31.94320
302.7367, 30.13016
303.2188, 29.17989
303.7009, 29.25953
304.1830, 31.79982
304.6651, 34.11914
305.1472, 33.94810
305.6294, 31.62368
306.1115, 29.62441
306.5936, 30.25614
307.0757, 33.73977
307.5578, 35.50457
308.0399, 34.71550
308.5221, 33.38692
309.0042, 31.95842
309.4863, 30.66448
309.9684, 29.98912
310.4505, 30.32824
310.9326, 31.48396
311.4148, 32.05425
311.8969, 31.10819
312.3790, 30.74092
312.8611, 31.98187
313.3432, 34.03347
313.8253, 35.68113
314.3075, 36.38176
314.7896, 36.27639
315.2717, 35.67524
315.7538, 33.95635
316.2359, 32.63829
316.7180, 31.84577
317.2001, 31.50888
317.6823, 31.61773
318.1644, 32.15988
318.6465, 33.00978
319.1286, 34.08346
319.6107, 35.94117
320.0928, 36.45838
320.5750, 34.03172
321.0571, 31.40746
321.5392, 30.96756
322.0213, 32.81644
322.5034, 35.14713
322.9855, 36.13248
323.4677, 35.52946
323.9498, 35.30044
324.4319, 36.23429
324.9140, 36.76095
325.3961, 35.70455
325.8782, 33.48311
326.3604, 31.42624
326.8425, 30.45104
327.3246, 30.48945
327.8067, 30.78371
328.2888, 31.86643
328.7709, 32.57003
329.2531, 32.28156
329.7352, 31.47102
330.2173, 30.85867
330.6994, 30.77792
331.1815, 31.15699
331.6636, 31.81390
332.1458, 33.41146
332.6279, 34.45469
333.1100, 34.77290
333.5921, 34.57623
334.0742, 33.85234
334.5563, 32.66409
335.0385, 31.50292
335.5206, 31.16205
336.0027, 32.27513
336.4848, 32.54505
336.9669, 31.22509
337.4490, 29.74479
337.9312, 28.90603
338.4133, 28.80937
338.8954, 29.29457
339.3775, 30.31799
339.8596, 31.98697
340.3417, 32.84575
340.8239, 32.62751
341.3060, 32.00606
341.7881, 30.89078
342.2702, 29.56240
342.7523, 28.50536
343.2344, 28.02480
343.7166, 28.04271
344.1987, 28.18859
344.6808, 28.69721
345.1629, 29.06774
345.6450, 29.03901
346.1271, 28.93556
346.6093, 29.21195
347.0914, 30.01319
347.5735, 30.98285
348.0556, 31.43369
348.5377, 31.15050
349.0198, 30.68892
349.5020, 29.63017
349.9841, 28.72525
350.4662, 28.62322
350.9483, 29.30657
351.4304, 30.20579
351.9125, 30.73850
352.3947, 30.88769
352.8768, 30.77222
353.3589, 30.13678
353.8410, 29.49389
354.3231, 28.99164
354.8052, 28.62329
355.2874, 28.27417
355.7695, 27.81016
356.2516, 27.36300
356.7337, 27.76662
357.2158, 30.40756
357.6979, 31.97392
358.1800, 31.22395
358.6621, 29.44888
359.1443, 28.01466
359.6264, 27.44104
360.1085, 27.39996
360.5906, 27.26754
361.0727, 26.85491
361.5548, 26.86487
362.0370, 27.59259
362.5191, 28.56019
363.0012, 29.71827
363.4833, 30.94060
363.9654, 31.77478
364.4475, 31.60938
364.9297, 30.36823
365.4118, 29.40958
365.8939, 28.91860
366.3760, 28.53095
366.8581, 27.98285
367.3402, 27.42993
367.8224, 27.22573
368.3045, 27.68019
368.7866, 28.54047
369.2687, 29.04411
369.7508, 29.04718
370.2329, 28.99969
370.7151, 28.93464
371.1972, 28.95396
371.6793, 29.21009
372.1614, 29.76789
372.6435, 30.39784
373.1256, 30.85852
373.6078, 31.15182
374.0899, 31.24615
374.5720, 31.08952
375.0541, 30.74817
375.5362, 30.17752
376.0183, 29.41658
376.5005, 28.77145
376.9826, 28.39663
377.4647, 28.29070
377.9468, 28.54342
378.4289, 29.39762
378.9110, 30.07912
379.3932, 29.92320
379.8753, 29.24497
380.3574, 28.58129
380.8395, 27.88308
381.3216, 27.47125
381.8037, 27.97523
382.2859, 29.41989
382.7680, 30.57582
383.2501, 30.67078
383.7322, 30.31878
384.2143, 30.62218
384.6964, 31.85349
385.1786, 32.83793
385.6607, 32.67754
386.1428, 31.74716
386.6249, 31.03952
387.1070, 30.80660
387.5891, 30.78100
388.0713, 30.60461
388.5534, 30.29719
389.0355, 30.28073
389.5176, 30.81037
389.9997, 31.56440
390.4818, 32.25906
390.9640, 32.87598
391.4461, 33.46575
391.9282, 34.12549
392.4103, 34.76928
392.8924, 35.01294
393.3745, 34.43551
393.8567, 33.95436
394.3388, 33.88801
394.8209, 34.17501
395.3030, 34.77726
395.7851, 35.72081
396.2672, 36.76178
396.7494, 37.49150
397.2315, 37.87801
397.7136, 37.97561
398.1957, 37.48505
398.6778, 36.90784
399.1599, 36.53713
399.6420, 36.46223
400.1241, 36.87941
400.6063, 38.11613
401.0884, 40.23695
401.5705, 41.03975
402.0526, 39.19654
402.5347, 37.70234
403.0168, 37.64202
403.4990, 38.50199
403.9811, 39.50782
404.4632, 40.29545
404.9453, 40.76608
405.4274, 40.61776
405.9095, 39.22086
406.3917, 38.26743
406.8738, 38.02851
407.3559, 38.04296
407.8380, 37.98044
408.3201, 37.80652
408.8022, 37.70148
409.2844, 37.88872
409.7665, 38.39821
410.2486, 38.69787
410.7307, 38.54757
411.2128, 38.43816
411.6949, 38.50098
412.1771, 38.70215
412.6592, 39.04466
413.1413, 39.58846
413.6234, 40.07478
414.1055, 39.81586
414.5876, 38.45008
415.0698, 37.43993
415.5519, 37.58703
416.0340, 37.90748
416.5161, 37.68600
416.9982, 36.85598
417.4803, 35.94578
417.9625, 35.09903
418.4446, 34.43551
418.9267, 35.03944
419.4088, 37.96187
419.8909, 40.36232
420.3730, 39.68500
420.8552, 37.23866
421.3373, 35.68448
421.8194, 36.30309
422.3015, 37.78777
422.7836, 38.67347
423.2657, 38.96324
423.7479, 39.06905
424.2300, 39.08384
424.7121, 39.05422
425.1942, 39.02214
425.6763, 38.95544
426.1584, 39.04004
426.6406, 39.45858
427.1227, 40.05184
427.6048, 40.64240
428.0869, 41.22736
428.5690, 41.50329
429.0511, 41.08936
429.5333, 39.97554
430.0154, 39.11652
430.4975, 38.45311
430.9796, 38.10298
431.4617, 38.40263
431.9438, 39.08262
432.4260, 39.42185
432.9081, 39.04463
433.3902, 38.26791
433.8723, 37.82333
434.3544, 37.63432
434.8365, 37.95686
435.3187, 39.53267
435.8008, 41.13735
436.2829, 41.57348
436.7650, 40.83644
437.2471, 39.92649
437.7292, 39.82908
438.2114, 40.57958
438.6935, 40.70924
439.1756, 39.65570
439.6577, 38.59500
440.1398, 37.37489
440.6219, 36.43940
441.1040, 36.59213
441.5862, 38.16216
442.0683, 40.22433
442.5504, 40.99923
443.0325, 40.01495
443.5146, 39.19631
443.9967, 38.55993
444.4789, 38.25439
444.9610, 38.65116
445.4431, 39.53393
445.9252, 40.16334
446.4073, 39.86726
446.8894, 38.91468
447.3716, 38.37314
447.8537, 38.40515
448.3358, 38.44387
448.8179, 38.10644
449.3000, 37.70077
449.7821, 37.70074
450.2643, 38.34618
450.7464, 38.71494
451.2285, 37.59237
451.7106, 35.35669
452.1927, 34.03461
452.6748, 34.28531
453.1570, 35.00779
453.6391, 35.12350
454.1212, 34.75608
454.6033, 34.40146
455.0854, 34.25171
455.5675, 34.10588
456.0497, 33.69340
456.5318, 33.07466
457.0139, 32.61264
457.4960, 32.49241
457.9781, 32.64794
458.4602, 32.92773
458.9424, 33.37252
459.4245, 33.83028
459.9066, 34.42809
460.3887, 34.93902
460.8708, 35.12724
461.3529, 34.96201
461.8351, 34.51571
462.3172, 33.76439
462.7993, 32.68110
463.2814, 32.30688
463.7635, 33.47632
464.2456, 34.34602
464.7278, 34.32104
465.2099, 33.76549
465.6920, 33.21696
466.1741, 32.88070
466.6562, 32.56401
467.1383, 31.85596
467.6205, 30.46336
468.1026, 29.58047
468.5847, 29.54131
469.0668, 29.76197
469.5489, 30.00668
470.0310, 30.30038
470.5132, 30.80408
470.9953, 31.72824
471.4774, 32.82236
471.9595, 33.50213
472.4416, 33.80567
472.9237, 33.54122
473.4059, 31.90912
473.8880, 30.11296
474.3701, 29.40068
474.8522, 29.94858
475.3343, 30.49481
475.8164, 29.82407
476.2986, 28.58562
476.7807, 28.68225
477.2628, 30.60435
477.7449, 32.31349
478.2270, 31.93441
478.7091, 30.02026
479.1913, 29.01829
479.6734, 29.54562
480.1555, 30.45551
480.6376, 31.56099
481.1197, 32.58084
481.6018, 32.77727
482.0839, 31.86823
482.5660, 30.58854
483.0482, 29.94840
483.5303, 30.13506
484.0124, 30.37670
484.4945, 30.68018
484.9766, 31.02734
485.4587, 31.66439
485.9409, 32.33529
486.4230, 32.38093
486.9051, 31.38962
487.3872, 29.79914
487.8693, 28.90305
488.3514, 29.09235
488.8336, 29.25449
489.3157, 29.06933
489.7978, 29.01937
490.2799, 29.73629
490.7620, 31.01482
491.2441, 31.82886
491.7263, 31.00205
492.2084, 29.04808
492.6905, 28.61793
493.1726, 30.36863
493.6547, 32.06352
494.1368, 33.10488
494.6190, 33.46320
495.1011, 32.69108
495.5832, 30.51451
496.0653, 28.78451
496.5474, 29.53780
497.0295, 31.87822
497.5117, 32.90974
497.9938, 31.95911
498.4759, 30.76067
498.9580, 30.89110
499.4401, 32.04229
499.9222, 32.50288
500.4044, 31.60723
500.8865, 30.58274
501.3686, 30.03541
501.8507, 29.81789
502.3328, 29.58764
502.8149, 29.22512
503.2971, 28.91640
503.7792, 28.93828
504.2613, 29.39797
504.7434, 29.82866
505.2255, 30.59320
505.7076, 30.97959
506.1898, 30.22952
506.6719, 28.88586
507.1540, 28.10673
507.6361, 28.52081
508.1182, 29.59655
508.6003, 30.10059
509.0825, 29.84622
509.5646, 29.51996
510.0467, 28.92198
510.5288, 28.49582
511.0109, 28.57883
511.4930, 29.07718
511.9752, 29.61313
512.4573, 29.99873
512.9394, 30.23503
513.4215, 30.38652
513.9036, 30.50173
514.3857, 30.17963
514.8679, 28.77447
515.3500, 27.21870
515.8321, 26.82587
516.3142, 27.76040
516.7963, 28.56981
517.2784, 28.50957
517.7606, 28.01505
518.2427, 27.66427
518.7248, 27.51002
519.2069, 27.41314
519.6890, 27.31005
520.1711, 27.17873
520.6533, 26.90515
521.1354, 26.01587
521.6175, 25.62690
522.0996, 26.48261
522.5817, 27.60256
523.0638, 27.96761
523.5460, 27.44311
524.0281, 26.53339
524.5102, 25.64357
524.9923, 24.78772
525.4744, 24.45174
525.9565, 24.94770
526.4387, 25.59669
526.9208, 26.58035
527.4029, 27.47658
527.8850, 27.83313
528.3671, 27.54305
528.8492, 26.87474
529.3314, 25.97445
529.8135, 24.88171
530.2956, 23.86965
530.7777, 22.67657
531.2598, 22.15223
531.7419, 23.53706
532.2241, 25.78874
532.7062, 27.23154
533.1883, 27.35723
533.6704, 27.04318
534.1525, 26.81769
534.6346, 26.60849
535.1168, 26.11691
535.5989, 25.23138
536.0810, 24.57018
536.5631, 24.92383
537.0452, 26.35604
537.5273, 26.88052
538.0095, 25.76348
538.4916, 24.64710
538.9737, 23.93946
539.4558, 23.67743
539.9379, 24.05978
540.4200, 25.09111
540.9022, 26.17356
541.3843, 26.42553
541.8664, 25.67804
542.3485, 25.05144
542.8306, 24.45364
543.3127, 24.10010
543.7948, 24.12046
544.2769, 24.41246
544.7590, 24.86925
545.2411, 25.47669
545.7233, 26.06510
546.2054, 26.38681
546.6875, 26.46112
547.1696, 26.56799
547.6517, 26.78799
548.1339, 26.97413
548.6160, 27.01172
549.0981, 26.91892
549.5802, 26.71491
550.0623, 26.36783
550.5444, 25.94864
551.0266, 25.43306
551.5087, 24.88411
551.9908, 24.40908
552.4729, 24.03488
552.9550, 23.86045
553.4371, 24.05811
553.9193, 24.73702
554.4014, 25.12230
554.8835, 25.11688
555.3656, 24.97272
555.8477, 24.54091
556.3298, 24.10707
556.8120, 24.19888
557.2941, 24.98125
557.7762, 25.87643
558.2583, 25.96814
558.7404, 25.12316
559.2225, 24.62078
559.7047, 24.91058
560.1868, 24.99385
560.6689, 23.93866
561.1510, 22.49829
561.6331, 22.06954
562.1152, 23.37533
562.5974, 24.92680
563.0795, 25.31708
563.5616, 24.80224
564.0437, 24.18277
564.5258, 23.51315
565.0079, 23.26775
565.4901, 24.17135
565.9722, 26.11314
566.4543, 26.98707
566.9364, 25.79962
567.4185, 24.69087
567.9006, 24.85810
568.3828, 25.45347
568.8649, 25.03348
569.3470, 23.32585
569.8291, 21.50295
570.3112, 20.92994
570.7933, 21.65938
571.2755, 22.68625
571.7576, 24.60222
572.2397, 26.06135
572.7218, 26.67603
573.2039, 26.72366
573.6860, 26.50275
574.1682, 26.08989
574.6503, 25.43346
575.1324, 23.95378
575.6145, 22.08335
576.0966, 22.10331
576.5787, 24.67482
577.0609, 27.07696
577.5430, 27.59684
578.0251, 26.77283
578.5072, 25.98033
578.9893, 25.15638
579.4714, 24.56617
579.9536, 24.24637
580.4357, 24.24962
580.9178, 24.80939
581.3999, 25.85721
581.8820, 26.85312
582.3641, 27.38913
582.8463, 27.51972
583.3284, 27.57877
583.8105, 27.82029
584.2926, 27.59104
584.7747, 26.22961
585.2568, 24.86671
585.7390, 24.53568
586.2211, 25.12504
586.7032, 25.63267
587.1853, 25.18016
587.6674, 24.25407
588.1495, 24.26720
588.6317, 25.36599
589.1138, 26.54657
589.5959, 27.79878
590.0780, 28.68314
590.5601, 28.50014
591.0422, 27.27210
591.5244, 26.39548
592.0065, 26.71713
592.4886, 27.24120
592.9707, 27.03513
593.4528, 26.23562
593.9349, 25.29744
594.4171, 24.37232
594.8992, 23.80095
595.3813, 24.26955
595.8634, 26.34833
596.3455, 27.78336
596.8276, 28.63709
597.3098, 28.88473
597.7919, 28.13284
598.2740, 26.86720
598.7561, 25.75400
599.2382, 25.04743
599.7203, 24.87007
600.2025, 25.73340
600.6846, 27.59104
601.1667, 28.45460
601.6488, 27.65147
602.1309, 26.78977
602.6130, 27.04203
603.0952, 28.01446
603.5773, 28.98931
604.0594, 29.99520
604.5415, 30.77282
605.0236, 31.28240
605.5057, 31.44902
605.9879, 30.94593
606.4700, 29.80660
606.9521, 28.80995
607.4342, 28.66613
607.9163, 29.21659
608.3984, 29.24397
608.8806, 28.18659
609.3627, 27.36420
609.8448, 26.76897
610.3269, 26.52808
610.8090, 26.92237
611.2911, 27.82040
611.7733, 28.68617
612.2554, 29.23393
612.7375, 29.42163
613.2196, 29.03283
613.7017, 28.00019
614.1838, 27.00746
614.6660, 25.92521
615.1481, 25.37154
615.6302, 26.63836
616.1123, 29.56256
616.5944, 31.20570
617.0765, 29.94813
617.5587, 28.19515
618.0408, 27.28251
618.5229, 27.15387
619.0050, 27.68187
619.4871, 28.80515
619.9692, 30.09361
620.4514, 30.93915
620.9335, 31.25628
621.4156, 31.80957
621.8977, 32.85249
622.3798, 33.83910
622.8619, 34.70396
623.3441, 35.40094
623.8262, 35.90788
624.3083, 36.21352
624.7904, 36.22422
625.2725, 35.58762
625.7546, 34.62222
626.2367, 34.32993
626.7188, 34.82360
627.2009, 35.22274
627.6830, 35.01633
628.1652, 34.47110
628.6473, 34.11902
629.1294, 33.79844
629.6115, 34.09584
630.0936, 35.80273
630.5757, 37.55328
631.0579, 38.24711
631.5400, 38.13846
632.0221, 38.12295
632.5042, 38.65951
632.9863, 39.38616
633.4684, 39.49559
633.9506, 38.72970
634.4327, 38.68135
634.9148, 40.14848
635.3969, 41.42738
635.8790, 41.38913
636.3611, 40.68820
636.8433, 40.51732
637.3254, 41.33544
637.8075, 42.19184
638.2896, 42.46270
638.7717, 42.27295
639.2538, 41.79701
639.7360, 41.06974
640.2181, 40.21465
640.7002, 39.24912
641.1823, 38.28526
641.6644, 37.77550
642.1465, 38.00550
642.6287, 38.32961
643.1108, 38.80291
643.5929, 39.31327
644.0750, 40.02724
644.5571, 40.71743
645.0392, 40.78461
645.5214, 39.80549
646.0035, 38.34632
646.4856, 37.25148
646.9677, 36.52124
647.4498, 36.28630
647.9319, 36.74703
648.4141, 37.35066
648.8962, 37.77273
649.3783, 37.97489
649.8604, 37.78061
650.3425, 36.79519
650.8246, 35.92931
651.3068, 35.85276
651.7889, 35.93047
652.2710, 35.20745
652.7531, 33.68843
653.2352, 32.26249
653.7173, 31.63080
654.1995, 31.63632
654.6816, 31.66562
655.1637, 31.84272
655.6458, 31.74488
656.1279, 30.81194
656.6100, 30.00159
657.0922, 29.97613
657.5743, 30.56757
658.0564, 31.14465
658.5385, 31.56936
659.0206, 31.74101
659.5027, 31.41429
659.9849, 30.75912
660.4670, 30.29156
660.9491, 30.13717
661.4312, 29.94009
661.9133, 29.25589
662.3954, 28.17782
662.8776, 28.04309
663.3597, 30.49634
663.8418, 31.72741
664.3239, 30.16703
664.8060, 28.15496
665.2881, 27.79116
665.7703, 28.90277
666.2524, 29.79142
666.7345, 29.25959
667.2166, 28.08072
667.6987, 27.68878
668.1808, 28.06440
668.6630, 28.49178
669.1451, 28.80805
669.6272, 29.13249
670.1093, 29.71949
670.5914, 30.49161
671.0735, 30.63622
671.5557, 29.38459
672.0378, 28.43030
672.5199, 28.33566
673.0020, 28.80962
673.4841, 29.78952
673.9662, 31.07903
674.4484, 32.05976
674.9305, 32.20633
675.4126, 31.76885
675.8947, 31.64707
676.3768, 32.00038
676.8589, 31.91341
677.3411, 30.64513
677.8232, 29.51778
678.3053, 29.76024
678.7874, 31.03461
679.2695, 32.12833
679.7516, 32.88414
680.2338, 33.24431
680.7159, 33.01546
681.1980, 32.42952
681.6801, 31.59444
682.1622, 30.65861
682.6443, 30.40899
683.1265, 31.64645
683.6086, 33.91175
684.0907, 34.87685
684.5728, 33.70368
685.0549, 33.06106
685.5370, 33.66376
686.0192, 34.57623
686.5013, 35.56795
686.9834, 36.43854
687.4655, 36.69799
687.9476, 35.90283
688.4297, 34.90951
688.9119, 34.48902
689.3940, 34.44774
689.8761, 34.32417
690.3582, 34.03918
690.8403, 33.82711
691.3224, 33.88585
691.8046, 34.15107
692.2867, 34.30781
692.7688, 34.10793
693.2509, 34.20935
693.7330, 35.02209
694.2151, 35.76807
694.6973, 35.81749
695.1794, 35.43483
695.6615, 35.31304
696.1436, 35.76056
696.6257, 36.52539
697.1078, 37.64515
697.5900, 38.87077
698.0721, 39.28224
698.5542, 38.72152
699.0363, 37.65287
699.5184, 36.13254
