##NAMES=Graeserite
##RRUFFID=R110054
##IDEAL CHEMISTRY=Fe^3+^_4_Ti^4+^_3_As^3+^O_13_(OH)
##LOCALITY=Binntal, Wallis, Switzerland
##OWNER=RRUFF
##SOURCE=Bob Jenkins
##DESCRIPTION=Black prismatic crystals, associated with brown rutile, yellow muscovite, green clinochlore and colorless orthoclase
##STATUS=The identification of this mineral has been confirmed by single-crystal X-ray diffraction.
##URL=rruff.info/R110054
197.6692, 106.4751
198.1513, 105.7174
198.6334, 105.7895
199.1155, 106.1349
199.5977, 106.4619
200.0798, 106.7329
200.5619, 106.8803
201.0440, 106.7571
201.5261, 106.2919
202.0082, 106.0345
202.4904, 106.5565
202.9725, 106.9407
203.4546, 106.4725
203.9367, 105.1797
204.4188, 103.8711
204.9009, 103.6873
205.3831, 105.1666
205.8652, 106.1166
206.3473, 106.2132
206.8294, 106.0019
207.3115, 105.6682
207.7936, 105.2989
208.2758, 104.9902
208.7579, 104.9099
209.2400, 105.2642
209.7221, 105.3866
210.2042, 105.2572
210.6863, 104.9584
211.1685, 104.4315
211.6506, 103.7152
212.1327, 103.0413
212.6148, 102.7646
213.0969, 103.1964
213.5790, 103.3896
214.0612, 103.2306
214.5433, 102.9248
215.0254, 102.6036
215.5075, 102.3073
215.9896, 102.0360
216.4717, 101.8007
216.9539, 101.6447
217.4360, 101.4061
217.9181, 100.9519
218.4002, 100.4780
218.8823, 100.2202
219.3644, 100.2382
219.8466, 100.3158
220.3287, 100.1621
220.8108, 99.75134
221.2929, 99.25864
221.7750, 98.50771
222.2571, 97.76203
222.7393, 97.41708
223.2214, 97.59669
223.7035, 97.92857
224.1856, 97.98290
224.6677, 97.78851
225.1498, 97.45197
225.6320, 96.74755
226.1141, 95.97792
226.5962, 95.70525
227.0783, 96.12527
227.5604, 96.73725
228.0425, 97.08137
228.5247, 97.20483
229.0068, 97.24290
229.4889, 97.23092
229.9710, 97.16959
230.4531, 97.04717
230.9352, 96.83498
231.4174, 96.61955
231.8995, 96.48650
232.3816, 96.40659
232.8637, 96.29942
233.3458, 95.98682
233.8279, 95.60229
234.3101, 95.65561
234.7922, 96.48235
235.2743, 97.19300
235.7564, 97.20113
236.2385, 96.74430
236.7206, 96.29258
237.2028, 96.11629
237.6849, 96.15785
238.1670, 96.17784
238.6491, 96.20850
239.1312, 96.15919
239.6133, 95.88951
240.0955, 95.53844
240.5776, 95.35805
241.0597, 95.56863
241.5418, 96.05024
242.0239, 96.22392
242.5060, 96.02548
242.9882, 95.55721
243.4703, 94.41499
243.9524, 93.13642
244.4345, 92.55217
244.9166, 93.23652
245.3987, 94.86757
245.8809, 95.90904
246.3630, 95.94102
246.8451, 95.86559
247.3272, 95.87979
247.8093, 95.90288
248.2914, 95.80172
248.7736, 95.49619
249.2557, 95.04562
249.7378, 94.68813
250.2199, 94.34439
250.7020, 94.22005
251.1841, 94.63428
251.6663, 95.18104
252.1484, 95.29382
252.6305, 94.68911
253.1126, 93.68272
253.5947, 93.26256
254.0768, 93.94791
254.5590, 94.66435
255.0411, 95.59884
255.5232, 96.43472
256.0053, 96.75490
256.4874, 96.38481
256.9695, 95.61733
257.4517, 95.16015
257.9338, 95.33250
258.4159, 95.46094
258.8980, 95.50271
259.3801, 95.51447
259.8622, 95.54667
260.3444, 95.61757
260.8265, 95.73135
261.3086, 95.90154
261.7907, 96.24948
262.2728, 96.45199
262.7549, 96.46580
263.2371, 96.35183
263.7192, 96.12400
264.2013, 95.79276
264.6834, 95.45661
265.1655, 95.25746
265.6476, 95.22408
266.1298, 95.29808
266.6119, 95.70146
267.0940, 96.09001
267.5761, 95.97949
268.0582, 95.30523
268.5403, 94.69548
269.0225, 94.96095
269.5046, 96.39275
269.9867, 97.41302
270.4688, 97.74323
270.9509, 97.79923
271.4330, 97.94044
271.9152, 98.20695
272.3973, 98.40601
272.8794, 98.31985
273.3615, 97.92130
273.8436, 97.64619
274.3257, 97.55611
274.8079, 97.55102
275.2900, 97.58556
275.7721, 97.64921
276.2542, 97.69016
276.7363, 97.68562
277.2184, 97.61788
277.7006, 97.44881
278.1827, 97.01604
278.6648, 96.61157
279.1469, 96.48305
279.6290, 96.60233
280.1111, 96.71797
280.5933, 96.65347
281.0754, 96.48443
281.5575, 96.48349
282.0396, 96.90115
282.5217, 97.18486
283.0038, 96.82610
283.4860, 95.96042
283.9681, 95.32259
284.4502, 95.34591
284.9323, 95.71805
285.4144, 95.76280
285.8965, 95.39588
286.3787, 94.93202
286.8608, 94.46472
287.3429, 94.02409
287.8250, 93.73058
288.3071, 93.67407
288.7892, 93.71695
289.2714, 93.64880
289.7535, 93.45707
290.2356, 93.27631
290.7177, 93.22609
291.1998, 93.23633
291.6819, 93.10677
292.1641, 92.75945
292.6462, 92.32552
293.1283, 91.91761
293.6104, 91.53590
294.0925, 91.22334
294.5746, 90.97246
295.0568, 90.80769
295.5389, 90.84017
296.0210, 91.16911
296.5031, 91.43642
296.9852, 91.19725
297.4673, 90.62743
297.9495, 90.20070
298.4316, 90.26240
298.9137, 90.48180
299.3958, 90.27151
299.8779, 89.50977
300.3600, 88.85378
300.8422, 88.90037
301.3243, 89.33206
301.8064, 89.62703
302.2885, 89.66769
302.7706, 89.53288
303.2527, 89.25597
303.7349, 88.82227
304.2170, 88.44650
304.6991, 88.30590
305.1812, 88.24541
305.6633, 88.04739
306.1454, 87.65073
306.6276, 87.20297
307.1097, 86.81464
307.5918, 86.48554
308.0739, 86.19205
308.5560, 85.89066
309.0381, 85.66895
309.5203, 85.63260
310.0024, 85.79888
310.4845, 85.99392
310.9666, 86.18323
311.4487, 86.32971
311.9308, 86.19444
312.4130, 85.53946
312.8951, 84.87202
313.3772, 84.70569
313.8593, 84.97072
314.3414, 85.23885
314.8235, 85.32127
315.3057, 85.24909
315.7878, 85.08171
316.2699, 84.78683
316.7520, 84.48643
317.2341, 84.25120
317.7162, 84.07707
318.1984, 83.96861
318.6805, 83.95754
319.1626, 84.00064
319.6447, 84.06461
320.1268, 84.17524
320.6089, 84.17725
321.0911, 83.83363
321.5732, 83.36587
322.0553, 83.09120
322.5374, 83.12436
323.0195, 83.28076
323.5016, 83.44764
323.9838, 83.62804
324.4659, 83.60153
324.9480, 83.19083
325.4301, 82.58080
325.9122, 81.93099
326.3943, 81.18761
326.8765, 80.70678
327.3586, 80.97074
327.8407, 81.81367
328.3228, 82.26966
328.8049, 81.95129
329.2870, 81.40500
329.7692, 81.20989
330.2513, 81.33524
330.7334, 81.45877
331.2155, 81.37305
331.6976, 81.17932
332.1797, 81.14413
332.6619, 81.35339
333.1440, 81.55650
333.6261, 81.59707
334.1082, 81.48337
334.5903, 81.17687
335.0724, 80.42892
335.5546, 79.60147
336.0367, 79.18975
336.5188, 79.22423
337.0009, 79.39396
337.4830, 79.63596
337.9651, 79.86169
338.4473, 79.88999
338.9294, 79.58330
339.4115, 79.26322
339.8936, 79.16906
340.3757, 79.28685
340.8578, 79.54778
341.3400, 80.05338
341.8221, 80.55616
342.3042, 80.65154
342.7863, 80.26575
343.2684, 79.91708
343.7505, 79.94834
344.2327, 80.20083
344.7148, 80.27475
345.1969, 80.05063
345.6790, 79.72863
346.1611, 79.54916
346.6432, 79.48699
347.1254, 79.37551
347.6075, 79.05091
348.0896, 78.71256
348.5717, 78.66466
349.0538, 78.94260
349.5359, 79.21713
350.0181, 79.17992
350.5002, 78.93300
350.9823, 78.93641
351.4644, 79.59193
351.9465, 80.18095
352.4286, 80.09927
352.9108, 79.47786
353.3929, 78.94079
353.8750, 78.79118
354.3571, 78.91544
354.8392, 79.03918
355.3214, 79.20814
355.8035, 79.28275
356.2856, 79.16621
356.7677, 78.92986
357.2498, 78.68396
357.7319, 78.45181
358.2141, 78.25966
358.6962, 78.15565
359.1783, 78.15530
359.6604, 78.14271
360.1425, 78.12983
360.6246, 78.08394
361.1068, 77.92295
361.5889, 77.65567
362.0710, 77.46369
362.5531, 77.52320
363.0352, 77.83121
363.5173, 78.02094
363.9995, 78.05269
364.4816, 78.01995
364.9637, 77.98050
365.4458, 77.91277
365.9279, 77.71716
366.4100, 77.30953
366.8922, 76.81469
367.3743, 76.66321
367.8564, 77.26639
368.3385, 77.60715
368.8206, 77.32677
369.3027, 76.81445
369.7849, 76.53541
370.2670, 76.61543
370.7491, 76.83609
371.2312, 76.90728
371.7133, 76.80505
372.1954, 76.59061
372.6776, 76.02853
373.1597, 75.55835
373.6418, 75.60815
374.1239, 76.05589
374.6060, 76.32828
375.0881, 75.90918
375.5703, 74.83576
376.0524, 74.35609
376.5345, 75.09745
377.0166, 75.69742
377.4987, 75.82668
377.9808, 75.63190
378.4630, 75.31274
378.9451, 74.95973
379.4272, 74.61757
379.9093, 74.39040
380.3914, 74.28893
380.8735, 74.30145
381.3557, 74.40970
381.8378, 74.62688
382.3199, 75.07249
382.8020, 75.70107
383.2841, 76.23252
383.7662, 76.31403
384.2484, 75.86393
384.7305, 75.53588
385.2126, 75.32090
385.6947, 75.24543
386.1768, 75.44263
386.6589, 75.78210
387.1411, 76.01454
387.6232, 75.97795
388.1053, 75.74561
388.5874, 75.58288
389.0695, 75.53742
389.5516, 75.47273
390.0338, 75.34126
390.5159, 75.18766
390.9980, 75.03883
391.4801, 74.90328
391.9622, 74.81070
392.4443, 74.83471
392.9265, 74.99882
393.4086, 75.04893
393.8907, 74.81350
394.3728, 74.58950
394.8549, 74.58485
395.3370, 74.75362
395.8192, 74.89568
396.3013, 74.83006
396.7834, 74.64147
397.2655, 74.65315
397.7476, 74.97981
398.2297, 75.20747
398.7119, 74.91843
399.1940, 74.46043
399.6761, 74.32667
400.1582, 74.76085
400.6403, 75.28024
401.1224, 75.35522
401.6046, 75.01254
402.0867, 74.70542
402.5688, 74.59118
403.0509, 74.54309
403.5330, 74.37019
404.0151, 74.06603
404.4973, 73.87315
404.9794, 74.03955
405.4615, 74.34619
405.9436, 74.33654
406.4257, 73.91364
406.9078, 73.54619
407.3900, 73.69030
407.8721, 74.24271
408.3542, 74.62055
408.8363, 74.71729
409.3184, 74.68948
409.8005, 74.60982
410.2827, 74.48309
410.7648, 74.28857
411.2469, 73.97540
411.7290, 73.67233
412.2111, 73.73232
412.6932, 74.36376
413.1754, 74.78175
413.6575, 74.71780
414.1396, 74.44779
414.6217, 74.25004
415.1038, 74.17358
415.5859, 74.11235
416.0681, 73.94300
416.5502, 73.64077
417.0323, 73.53093
417.5144, 73.80192
417.9965, 74.03584
418.4786, 74.02985
418.9608, 73.86625
419.4429, 73.73063
419.9250, 73.72168
420.4071, 73.77364
420.8892, 73.69458
421.3713, 73.27916
421.8535, 73.05102
422.3356, 73.20252
422.8177, 73.40950
423.2998, 73.34859
423.7819, 73.02612
424.2640, 72.77193
424.7462, 72.99612
425.2283, 73.75827
425.7104, 74.11710
426.1925, 73.64450
426.6746, 73.21106
427.1567, 73.13149
427.6389, 73.23817
428.1210, 73.24699
428.6031, 73.01150
429.0852, 72.65442
429.5673, 72.43338
430.0494, 72.39255
430.5316, 72.32691
431.0137, 72.18619
431.4958, 72.00675
431.9779, 71.70623
432.4600, 71.31931
432.9421, 71.15649
433.4243, 71.65434
433.9064, 72.61576
434.3885, 73.14922
434.8706, 73.08359
435.3527, 72.89582
435.8348, 72.95859
436.3170, 73.09855
436.7991, 72.98284
437.2812, 72.35615
437.7633, 71.69491
438.2454, 71.55608
438.7275, 71.84659
439.2097, 71.86497
439.6918, 71.21508
440.1739, 70.42313
440.6560, 70.38946
441.1381, 71.16813
441.6202, 71.75346
442.1024, 71.79285
442.5845, 71.53557
443.0666, 71.19881
443.5487, 70.81937
444.0308, 70.47778
444.5129, 70.22865
444.9951, 70.07336
445.4772, 69.99595
445.9593, 69.97126
446.4414, 70.03963
446.9235, 70.37134
447.4056, 70.75867
447.8878, 70.87027
448.3699, 70.59641
448.8520, 70.11063
449.3341, 69.64706
449.8162, 69.11595
450.2983, 68.89688
450.7805, 69.38602
451.2626, 69.77542
451.7447, 69.53468
452.2268, 68.82592
452.7089, 68.13508
453.1910, 67.77740
453.6732, 67.71189
454.1553, 67.79364
454.6374, 68.16546
455.1195, 68.44029
455.6016, 68.61919
456.0837, 68.65200
456.5659, 68.40836
457.0480, 67.89891
457.5301, 67.40744
458.0122, 67.29184
458.4943, 67.54131
458.9764, 67.60259
459.4586, 67.36870
459.9407, 67.07439
460.4228, 66.77406
460.9049, 66.51547
461.3870, 66.41041
461.8691, 66.58147
462.3513, 66.78309
462.8334, 66.63637
463.3155, 66.16041
463.7976, 65.88087
464.2797, 66.08012
464.7618, 66.40189
465.2440, 66.33198
465.7261, 65.86123
466.2082, 65.54330
466.6903, 65.69285
467.1724, 66.02470
467.6545, 66.26340
468.1367, 66.37376
468.6188, 66.22320
469.1009, 65.60271
469.5830, 64.68190
470.0651, 64.30763
470.5472, 64.96938
471.0294, 65.48011
471.5115, 65.40706
471.9936, 65.07301
472.4757, 64.94428
472.9578, 65.12033
473.4399, 65.24181
473.9221, 64.81539
474.4042, 63.65300
474.8863, 63.04938
475.3684, 63.38024
475.8505, 63.79454
476.3326, 64.02524
476.8148, 64.11504
477.2969, 64.19334
477.7790, 64.32494
478.2611, 64.43551
478.7432, 64.32156
479.2253, 63.83458
479.7075, 63.54891
480.1896, 63.76820
480.6717, 64.00709
481.1538, 63.90574
481.6359, 63.54670
482.1180, 63.35598
482.6002, 63.79457
483.0823, 64.55565
483.5644, 64.68784
484.0465, 64.00719
484.5286, 63.36804
485.0107, 63.17059
485.4929, 63.20873
485.9750, 63.27009
486.4571, 63.35014
486.9392, 63.37098
487.4213, 63.26827
487.9034, 63.07425
488.3856, 62.81312
488.8677, 62.46415
489.3498, 62.23391
489.8319, 62.35023
490.3140, 62.78827
490.7961, 63.09132
491.2783, 63.29176
491.7604, 63.32805
492.2425, 63.02814
492.7246, 62.57125
493.2067, 62.34355
493.6888, 62.48185
494.1710, 62.68357
494.6531, 62.44660
495.1352, 61.51189
495.6173, 60.96533
496.0994, 61.06977
496.5815, 61.24749
497.0637, 61.14524
497.5458, 60.90160
498.0279, 60.90627
498.5100, 61.40825
498.9921, 62.13666
499.4742, 62.39376
499.9564, 62.01768
500.4385, 61.56968
500.9206, 60.81133
501.4027, 60.25326
501.8848, 60.35976
502.3669, 61.04055
502.8491, 61.72159
503.3312, 62.02885
503.8133, 62.04770
504.2954, 61.96845
504.7775, 61.76397
505.2596, 61.59109
505.7418, 61.51365
506.2239, 61.51935
506.7060, 61.66897
507.1881, 62.07637
507.6702, 62.15328
508.1523, 61.16378
508.6345, 59.79562
509.1166, 59.30592
509.5987, 59.88147
510.0808, 60.67697
510.5629, 61.03887
511.0450, 60.99560
511.5272, 60.95962
512.0093, 60.90250
512.4914, 60.88422
512.9735, 60.94367
513.4556, 61.04285
513.9377, 61.17044
514.4199, 61.30898
514.9020, 61.35854
515.3841, 61.15133
515.8662, 60.60955
516.3483, 60.34990
516.8304, 60.78045
517.3126, 61.06440
517.7947, 60.85484
518.2768, 60.38530
518.7589, 59.98655
519.2410, 59.78661
519.7231, 59.73689
520.2053, 59.83207
520.6874, 60.09276
521.1695, 60.17271
521.6516, 59.88585
522.1337, 59.58762
522.6158, 59.58131
523.0980, 59.76111
523.5801, 59.81950
524.0622, 59.58612
524.5443, 59.24707
525.0264, 58.88915
525.5085, 58.55489
525.9907, 58.58429
526.4728, 59.21456
526.9549, 59.99371
527.4370, 60.19781
527.9191, 59.72134
528.4012, 59.40327
528.8834, 59.41123
529.3655, 59.52969
529.8476, 59.71081
530.3297, 59.88099
530.8118, 59.84854
531.2939, 59.49605
531.7761, 58.97105
532.2582, 58.65147
532.7403, 58.64536
533.2224, 58.65441
533.7045, 58.58920
534.1866, 58.60627
534.6688, 58.90739
535.1509, 59.38574
535.6330, 59.72089
536.1151, 59.68281
536.5972, 59.38795
537.0793, 59.10585
537.5615, 58.79984
538.0436, 58.66896
538.5257, 58.92104
539.0078, 59.26260
539.4899, 59.49651
539.9720, 59.60748
540.4542, 59.51685
540.9363, 58.94987
541.4184, 58.27640
541.9005, 58.08776
542.3826, 58.38114
542.8647, 58.68882
543.3469, 58.76293
543.8290, 58.70144
544.3111, 58.75948
544.7932, 58.97481
545.2753, 59.19739
545.7574, 59.50432
546.2396, 59.74102
546.7217, 59.74799
547.2038, 59.54451
547.6859, 59.25407
548.1680, 58.94804
548.6501, 58.65245
549.1323, 58.49386
549.6144, 58.59087
550.0965, 58.62147
550.5786, 58.44353
551.0607, 58.27639
551.5428, 58.29137
552.0250, 58.48562
552.5071, 58.72773
552.9892, 58.87788
553.4713, 59.02016
553.9534, 59.53511
554.4355, 60.57513
554.9177, 61.18201
555.3998, 60.68326
555.8819, 59.75554
556.3640, 59.32162
556.8461, 59.43962
557.3282, 59.67229
557.8104, 60.01867
558.2925, 60.29241
558.7746, 60.15373
559.2567, 59.65123
559.7388, 59.28936
560.2209, 59.39546
560.7031, 59.81643
561.1852, 60.06254
561.6673, 59.90559
562.1494, 59.89719
562.6315, 60.27642
563.1136, 60.62507
563.5958, 60.58197
564.0779, 60.20474
564.5600, 59.78814
565.0421, 59.51111
565.5242, 59.39743
566.0063, 59.63433
566.4885, 60.50209
566.9706, 60.89541
567.4527, 59.90321
567.9348, 58.83117
568.4169, 58.69427
568.8990, 59.42028
569.3812, 60.09211
569.8633, 60.14381
570.3454, 59.90676
570.8275, 59.79197
571.3096, 59.80806
571.7917, 60.05397
572.2739, 60.68723
572.7560, 61.39228
573.2381, 61.57622
573.7202, 61.13333
574.2023, 60.63708
574.6844, 59.89078
575.1666, 59.32148
575.6487, 59.35383
576.1308, 59.80987
576.6129, 60.18335
577.0950, 60.20573
577.5771, 60.06736
578.0593, 60.23544
578.5414, 60.93610
579.0235, 61.32259
579.5056, 61.21111
579.9877, 60.90245
580.4698, 60.22675
580.9520, 59.47262
581.4341, 59.30986
581.9162, 60.24271
582.3983, 61.46354
582.8804, 61.85415
583.3625, 61.48561
583.8447, 61.09119
584.3268, 60.82909
584.8089, 60.60797
585.2910, 60.25583
585.7731, 59.81247
586.2552, 59.71499
586.7374, 60.52830
587.2195, 61.14545
587.7016, 60.64991
588.1837, 59.65563
588.6658, 59.29551
589.1479, 59.89281
589.6301, 60.85627
590.1122, 61.50328
590.5943, 61.82911
591.0764, 61.85555
591.5585, 61.06341
592.0406, 60.58258
592.5228, 60.97242
593.0049, 61.67529
593.4870, 62.02156
593.9691, 61.84335
594.4512, 61.49168
594.9333, 61.23930
595.4155, 61.08395
595.8976, 61.00346
596.3797, 60.98013
596.8618, 61.12551
597.3439, 61.69142
597.8260, 62.39481
598.3082, 62.55615
598.7903, 61.99196
599.2724, 61.35440
599.7545, 60.62879
600.2366, 60.07117
600.7188, 60.07903
601.2009, 60.59121
601.6830, 61.14851
602.1651, 61.45865
602.6472, 61.53939
603.1293, 61.43135
603.6115, 60.92268
604.0936, 60.61894
604.5757, 60.80272
605.0578, 60.96981
605.5399, 60.68821
606.0220, 60.10078
606.5042, 59.72579
606.9863, 59.91503
607.4684, 60.37576
607.9505, 60.69397
608.4326, 60.86891
608.9147, 60.81250
609.3969, 60.36443
609.8790, 59.93432
610.3611, 60.09873
610.8432, 60.79219
611.3253, 61.16076
611.8074, 60.98856
612.2896, 60.60363
612.7717, 59.92849
613.2538, 59.22781
613.7359, 59.02648
614.2180, 59.44828
614.7001, 60.01878
615.1823, 60.19361
615.6644, 59.96068
616.1465, 59.54943
616.6286, 58.48640
617.1107, 57.92385
617.5928, 58.51949
618.0750, 59.51260
618.5571, 60.16777
619.0392, 60.33784
619.5213, 60.24612
620.0034, 59.90807
620.4855, 59.46634
620.9677, 59.23882
621.4498, 59.24232
621.9319, 59.40066
622.4140, 59.77018
622.8961, 60.17311
623.3782, 60.19420
623.8604, 59.72011
624.3425, 59.28039
624.8246, 58.73167
625.3067, 58.41525
625.7888, 58.83593
626.2709, 59.66361
626.7531, 60.04468
627.2352, 59.54762
627.7173, 58.69884
628.1994, 58.53137
628.6815, 59.22754
629.1636, 59.57484
629.6458, 59.24389
630.1279, 58.89526
630.6100, 58.95061
631.0921, 59.19192
631.5742, 59.21926
632.0563, 58.88412
632.5385, 58.47308
633.0206, 58.14907
633.5027, 57.90709
633.9848, 57.73505
634.4669, 57.63204
634.9490, 57.60404
635.4312, 57.65527
635.9133, 57.78437
636.3954, 57.98720
636.8775, 58.26242
637.3596, 58.61924
637.8417, 59.48510
638.3239, 60.08347
638.8060, 59.53210
639.2881, 58.17170
639.7702, 57.18557
640.2523, 57.33837
640.7344, 58.10888
641.2166, 58.55703
641.6987, 58.67765
642.1808, 58.59857
642.6629, 58.24882
643.1450, 57.85919
643.6271, 57.59258
644.1093, 57.44714
644.5914, 57.45826
645.0735, 57.79898
645.5556, 58.10498
646.0377, 58.27915
646.5198, 58.28519
647.0020, 57.93713
647.4841, 57.27089
647.9662, 56.74017
648.4483, 56.78387
648.9304, 57.30398
649.4125, 57.60861
649.8947, 57.63241
650.3768, 57.55275
650.8589, 57.35128
651.3410, 57.10180
651.8231, 56.76397
652.3052, 56.39857
652.7874, 56.25208
653.2695, 56.56789
653.7516, 57.04801
654.2337, 57.32569
654.7158, 57.44115
655.1979, 57.62759
655.6801, 57.98406
656.1622, 58.22186
656.6443, 57.96442
657.1264, 57.17189
657.6085, 56.67050
658.0906, 56.52987
658.5728, 56.54796
659.0549, 56.81361
659.5370, 57.13154
660.0191, 57.31202
660.5012, 57.32671
660.9833, 57.26369
661.4655, 57.21021
661.9476, 57.12608
662.4297, 56.83370
662.9118, 56.29119
663.3939, 55.87270
663.8760, 55.69201
664.3582, 55.68706
664.8403, 55.84613
665.3224, 56.15316
665.8045, 56.39574
666.2866, 56.45237
666.7687, 56.52835
667.2509, 56.89854
667.7330, 57.31104
668.2151, 57.28149
668.6972, 56.71833
669.1793, 56.02632
669.6614, 55.58979
670.1436, 55.40825
670.6257, 55.49427
671.1078, 56.03835
671.5899, 56.45612
672.0720, 56.49125
672.5541, 56.40449
673.0363, 56.41994
673.5184, 56.53143
674.0005, 56.53886
674.4826, 56.20534
674.9647, 55.84993
675.4468, 55.81327
675.9290, 56.02070
676.4111, 56.27766
676.8932, 56.52652
677.3753, 56.67975
677.8574, 56.60707
678.3395, 56.29430
678.8217, 56.12670
679.3038, 56.22480
679.7859, 56.32022
680.2680, 56.40625
680.7501, 56.44535
681.2322, 56.38927
681.7144, 56.24462
682.1965, 56.07850
682.6786, 55.91958
683.1607, 55.77747
683.6428, 55.65955
684.1249, 55.56891
684.6071, 55.56260
685.0892, 55.68762
685.5713, 55.78619
686.0534, 55.65088
686.5355, 55.26101
687.0176, 55.01179
687.4998, 54.92575
687.9819, 54.93658
688.4640, 55.20250
688.9461, 55.44763
689.4282, 55.31051
689.9103, 54.81479
690.3925, 54.36013
690.8746, 54.23962
691.3567, 54.38058
691.8388, 54.70475
692.3209, 55.22863
692.8030, 55.47834
693.2852, 55.20564
693.7673, 54.85534
