##NAMES=Graeserite
##RRUFFID=R110054
##IDEAL CHEMISTRY=Fe^3+^_4_Ti^4+^_3_As^3+^O_13_(OH)
##LOCALITY=Binntal, Wallis, Switzerland
##OWNER=RRUFF
##SOURCE=Bob Jenkins
##DESCRIPTION=Black prismatic crystals, associated with brown rutile, yellow muscovite, green clinochlore and colorless orthoclase
##STATUS=The identification of this mineral has been confirmed by single-crystal X-ray diffraction.
##URL=rruff.info/R110054
208.1287, 73.18838
208.6108, 73.21165
209.0929, 73.00878
209.5750, 72.76462
210.0571, 72.59068
210.5392, 72.49673
211.0214, 72.43990
211.5035, 72.48111
211.9856, 72.53883
212.4677, 72.25882
212.9498, 71.46779
213.4319, 70.72952
213.9140, 70.48875
214.3962, 71.01138
214.8783, 71.03515
215.3604, 70.23332
215.8425, 68.88467
216.3246, 68.13046
216.8067, 68.04797
217.2889, 68.38799
217.7710, 69.15369
218.2531, 70.71082
218.7352, 71.59717
219.2173, 71.59377
219.6994, 70.82517
220.1816, 69.80198
220.6637, 68.20805
221.1458, 66.86800
221.6279, 66.39956
222.1100, 67.20320
222.5921, 67.82269
223.0743, 68.21304
223.5564, 68.33860
224.0385, 67.89998
224.5206, 66.39081
225.0027, 65.13017
225.4848, 65.08543
225.9670, 67.02483
226.4491, 68.30815
226.9312, 68.57382
227.4133, 68.02090
227.8954, 67.57504
228.3775, 67.19589
228.8597, 66.99379
229.3418, 67.09889
229.8239, 67.76579
230.3060, 68.13251
230.7881, 68.01619
231.2702, 67.53429
231.7524, 67.24888
232.2345, 67.21255
232.7166, 67.29668
233.1987, 67.45952
233.6808, 67.82465
234.1629, 67.97922
234.6451, 67.80296
235.1272, 67.38875
235.6093, 67.12955
236.0914, 67.00038
236.5735, 67.05891
237.0556, 67.44704
237.5378, 68.69225
238.0199, 69.05872
238.5020, 67.99290
238.9841, 65.96827
239.4662, 64.98128
239.9483, 65.53834
240.4305, 66.44050
240.9126, 67.12598
241.3947, 67.72433
241.8768, 67.77554
242.3589, 66.89416
242.8410, 65.47449
243.3232, 64.98166
243.8053, 66.00841
244.2874, 67.15136
244.7695, 67.70372
245.2516, 67.48814
245.7337, 67.04740
246.2159, 66.14497
246.6980, 65.05598
247.1801, 64.77000
247.6622, 65.87298
248.1443, 66.88649
248.6264, 66.97550
249.1086, 65.39063
249.5907, 64.75742
250.0728, 65.67136
250.5549, 67.40581
251.0370, 67.88548
251.5191, 66.20400
252.0013, 64.70811
252.4834, 64.54687
252.9655, 66.46635
253.4476, 67.77398
253.9297, 68.35811
254.4118, 68.38123
254.8940, 68.14053
255.3761, 67.38619
255.8582, 66.80901
256.3403, 66.75680
256.8224, 67.44543
257.3046, 67.95280
257.7867, 68.29891
258.2688, 68.44593
258.7509, 68.22388
259.2330, 67.33031
259.7151, 66.68956
260.1973, 66.75078
260.6794, 67.73523
261.1615, 68.44118
261.6436, 68.88091
262.1257, 69.02770
262.6078, 68.74598
263.0900, 67.81590
263.5721, 66.99118
264.0542, 66.53407
264.5363, 66.47258
265.0184, 66.62785
265.5005, 67.16515
265.9827, 67.73332
266.4648, 67.72868
266.9469, 66.87211
267.4290, 66.25258
267.9111, 66.21284
268.3932, 66.77843
268.8754, 67.62120
269.3575, 68.95988
269.8396, 70.23634
270.3217, 70.59041
270.8038, 69.74377
271.2859, 69.04813
271.7681, 68.89877
272.2502, 69.27673
272.7323, 69.71987
273.2144, 70.29298
273.6965, 70.78243
274.1786, 70.86746
274.6608, 70.44004
275.1429, 70.22694
275.6250, 70.54675
276.1071, 71.27303
276.5892, 71.34502
277.0714, 70.58508
277.5535, 69.67517
278.0356, 69.28471
278.5177, 69.46476
278.9998, 69.61071
279.4819, 69.52783
279.9641, 69.32994
280.4462, 69.61125
280.9283, 70.48288
281.4104, 71.35896
281.8925, 71.87627
282.3746, 72.03889
282.8568, 71.57629
283.3389, 70.17597
283.8210, 68.33755
284.3031, 67.54249
284.7852, 67.87999
285.2673, 68.49984
285.7495, 68.90755
286.2316, 69.10478
286.7137, 69.04404
287.1958, 68.63529
287.6779, 68.09305
288.1600, 67.85880
288.6422, 67.93504
289.1243, 68.12804
289.6064, 68.40739
290.0885, 68.72988
290.5706, 68.81463
291.0527, 68.57706
291.5349, 68.23577
292.0170, 68.18062
292.4991, 68.38407
292.9812, 68.54350
293.4633, 68.34811
293.9454, 67.96435
294.4276, 68.02138
294.9097, 68.63578
295.3918, 69.31735
295.8739, 69.39290
296.3560, 68.96464
296.8381, 68.51699
297.3203, 68.28741
297.8024, 68.19796
298.2845, 68.02975
298.7666, 67.75691
299.2487, 67.63036
299.7308, 68.04783
300.2130, 68.83906
300.6951, 69.51030
301.1772, 69.92102
301.6593, 70.07157
302.1414, 69.82294
302.6235, 69.18773
303.1057, 68.62523
303.5878, 68.76622
304.0699, 69.23017
304.5520, 69.28446
305.0341, 68.34249
305.5162, 67.21369
305.9984, 66.80573
306.4805, 67.03607
306.9626, 67.31330
307.4447, 67.25153
307.9268, 66.99125
308.4089, 66.68119
308.8911, 66.22871
309.3732, 65.93955
309.8553, 66.28981
310.3374, 67.07052
310.8195, 67.58009
311.3016, 67.10017
311.7838, 66.33070
312.2659, 65.91323
312.7480, 66.08079
313.2301, 66.35369
313.7122, 66.59141
314.1943, 66.72921
314.6765, 66.62431
315.1586, 65.80378
315.6407, 65.00874
316.1228, 64.72266
316.6049, 65.08170
317.0870, 65.64408
317.5692, 66.50861
318.0513, 67.39059
318.5334, 67.88464
319.0155, 67.60930
319.4976, 67.13557
319.9797, 66.59180
320.4619, 65.95999
320.9440, 65.63098
321.4261, 65.93279
321.9082, 66.50144
322.3903, 66.99210
322.8724, 67.41041
323.3546, 67.66241
323.8367, 67.80789
324.3188, 67.83403
324.8009, 67.42799
325.2830, 65.72429
325.7651, 64.07938
326.2473, 63.37634
326.7294, 65.15176
327.2115, 66.19421
327.6936, 65.67918
328.1757, 64.00225
328.6578, 63.12123
329.1400, 63.78110
329.6221, 64.63664
330.1042, 65.12174
330.5863, 64.95010
331.0684, 64.87489
331.5505, 64.83031
332.0327, 64.89275
332.5148, 65.30635
332.9969, 66.75912
333.4790, 67.61691
333.9611, 67.05884
334.4432, 64.39898
334.9254, 63.15795
335.4075, 64.02810
335.8896, 65.74129
336.3717, 66.51525
336.8538, 65.96458
337.3359, 65.38400
337.8180, 65.13041
338.3001, 65.19829
338.7823, 65.15817
339.2644, 64.95850
339.7465, 64.75661
340.2286, 64.69563
340.7107, 64.78103
341.1928, 64.99017
341.6750, 65.33207
342.1571, 65.79021
342.6392, 66.34819
343.1213, 67.05993
343.6034, 67.61597
344.0855, 67.85155
344.5677, 67.76337
345.0498, 67.17132
345.5319, 65.86171
346.0140, 64.36097
346.4961, 63.76689
346.9782, 64.04967
347.4604, 64.44531
347.9425, 64.43321
348.4246, 64.16976
348.9067, 64.26471
349.3888, 64.79139
349.8709, 65.47031
350.3531, 66.07896
350.8352, 66.58439
351.3173, 66.86353
351.7994, 66.76096
352.2815, 66.43423
352.7636, 66.00930
353.2458, 65.48686
353.7279, 65.25648
354.2100, 66.04735
354.6921, 67.29603
355.1742, 68.00691
355.6563, 67.63286
356.1385, 66.86042
356.6206, 66.17894
357.1027, 65.60982
357.5848, 65.27351
358.0669, 65.34318
358.5490, 65.62283
359.0312, 65.99974
359.5133, 66.64037
359.9954, 66.94971
360.4775, 66.20516
360.9596, 64.87892
361.4417, 63.98368
361.9239, 64.35352
362.4060, 64.93053
362.8881, 65.10371
363.3702, 64.72672
363.8523, 64.39334
364.3344, 64.35236
364.8166, 64.43724
365.2987, 64.45815
365.7808, 64.03770
366.2629, 63.88203
366.7450, 64.47650
367.2271, 65.81169
367.7093, 66.44912
368.1914, 65.68208
368.6735, 64.50522
369.1556, 63.55186
369.6377, 62.62561
370.1198, 62.24266
370.6020, 62.86186
371.0841, 64.10085
371.5662, 64.51808
372.0483, 63.29369
372.5304, 62.24189
373.0125, 62.27244
373.4947, 64.13676
373.9768, 64.84769
374.4589, 63.89902
374.9410, 62.21051
375.4231, 61.27509
375.9052, 61.29623
376.3874, 61.48875
376.8695, 61.66830
377.3516, 61.83606
377.8337, 61.94403
378.3158, 62.03143
378.7979, 61.96449
379.2801, 61.39754
379.7622, 60.27553
380.2443, 59.83038
380.7264, 60.48988
381.2085, 61.81602
381.6906, 62.70869
382.1728, 63.16301
382.6549, 63.33551
383.1370, 63.17833
383.6191, 62.79043
384.1012, 62.57402
384.5833, 62.57933
385.0655, 62.71729
385.5476, 62.91114
386.0297, 63.14746
386.5118, 63.36937
386.9939, 63.57585
387.4760, 63.74348
387.9582, 63.90342
388.4403, 64.05935
388.9224, 63.99054
389.4045, 63.21070
389.8866, 62.17686
390.3687, 61.55054
390.8509, 61.88212
391.3330, 62.33885
391.8151, 62.30719
392.2972, 61.88778
392.7793, 61.49141
393.2614, 61.20922
393.7436, 61.09827
394.2257, 61.22495
394.7078, 61.69417
395.1899, 62.17049
395.6720, 62.65554
396.1541, 63.05108
396.6363, 63.19945
397.1184, 62.79208
397.6005, 62.38231
398.0826, 62.13760
398.5647, 62.07314
399.0468, 62.12374
399.5290, 62.34066
400.0111, 62.63890
400.4932, 62.95926
400.9753, 63.56958
401.4574, 63.83382
401.9395, 63.55614
402.4217, 62.86020
402.9038, 62.31178
403.3859, 61.86981
403.8680, 61.63646
404.3501, 61.75673
404.8322, 62.46450
405.3144, 62.63947
405.7965, 62.05520
406.2786, 61.20567
406.7607, 60.92370
407.2428, 61.30784
407.7249, 61.72369
408.2071, 61.96163
408.6892, 62.05097
409.1713, 62.14803
409.6534, 62.24406
410.1355, 62.40195
410.6176, 62.72291
411.0998, 63.17563
411.5819, 63.59541
412.0640, 63.99938
412.5461, 64.27280
413.0282, 64.16761
413.5103, 63.73098
413.9925, 63.24506
414.4746, 62.82072
414.9567, 62.46431
415.4388, 62.16624
415.9209, 61.91277
416.4030, 61.81021
416.8852, 62.15046
417.3673, 62.66612
417.8494, 62.92354
418.3315, 62.40424
418.8136, 61.86682
419.2957, 61.95183
419.7779, 62.54341
420.2600, 62.87026
420.7421, 62.18419
421.2242, 61.34035
421.7063, 61.00724
422.1884, 61.60884
422.6706, 62.13209
423.1527, 62.24003
423.6348, 62.11718
424.1169, 62.11201
424.5990, 62.46163
425.0811, 62.75703
425.5633, 62.83604
426.0454, 62.65123
426.5275, 62.58075
427.0096, 62.73489
427.4917, 62.91334
427.9738, 62.94234
428.4560, 62.72978
428.9381, 62.56216
429.4202, 62.49860
429.9023, 62.49682
430.3844, 62.39338
430.8665, 62.15017
431.3487, 61.91528
431.8308, 61.74343
432.3129, 61.63237
432.7950, 61.66600
433.2771, 61.88636
433.7592, 62.14333
434.2414, 62.21150
434.7235, 62.11044
435.2056, 62.07491
435.6877, 62.20517
436.1698, 62.42960
436.6519, 62.69864
437.1341, 62.99518
437.6162, 63.04217
438.0983, 62.32260
438.5804, 61.28954
439.0625, 60.76485
439.5446, 60.96632
440.0268, 61.40769
440.5089, 61.81005
440.9910, 62.12899
441.4731, 62.26952
441.9552, 62.03600
442.4373, 61.73319
442.9195, 61.51878
443.4016, 61.40089
443.8837, 61.39789
444.3658, 61.69354
444.8479, 62.00782
445.3300, 62.11101
445.8122, 61.67628
446.2943, 61.39748
446.7764, 61.55876
447.2585, 61.96440
447.7406, 62.11339
448.2227, 61.71870
448.7049, 61.31281
449.1870, 61.00203
449.6691, 60.76302
450.1512, 60.83710
450.6333, 61.60271
451.1154, 62.27194
451.5976, 61.96996
452.0797, 60.32003
452.5618, 58.94882
453.0439, 58.03655
453.5260, 57.60378
454.0081, 57.82815
454.4903, 58.82152
454.9724, 59.75273
455.4545, 60.21299
455.9366, 60.22141
456.4187, 59.83324
456.9008, 58.98794
457.3830, 58.09950
457.8651, 57.56775
458.3472, 57.38396
458.8293, 57.61304
459.3114, 58.69519
459.7935, 59.76432
460.2757, 59.42960
460.7578, 57.96543
461.2399, 56.76162
461.7220, 57.09751
462.2041, 57.86905
462.6862, 57.94109
463.1684, 56.98512
463.6505, 56.08710
464.1326, 55.86890
464.6147, 56.02394
465.0968, 56.15422
465.5789, 55.86836
466.0611, 55.81960
466.5432, 56.46974
467.0253, 57.71523
467.5074, 58.40623
467.9895, 58.08698
468.4716, 57.44220
468.9538, 56.74776
469.4359, 55.82629
469.9180, 55.27486
470.4001, 55.25072
470.8822, 55.48215
471.3643, 55.58350
471.8465, 55.55772
472.3286, 55.38767
472.8107, 55.04966
473.2928, 54.56481
473.7749, 53.95091
474.2570, 53.15744
474.7392, 52.51838
475.2213, 52.32985
475.7034, 52.54118
476.1855, 52.83888
476.6676, 53.21920
477.1497, 53.58441
477.6319, 53.82610
478.1140, 53.94650
478.5961, 53.94430
479.0782, 53.66943
479.5603, 53.36431
480.0424, 53.38797
480.5246, 53.69479
481.0067, 53.91348
481.4888, 53.54844
481.9709, 53.13570
482.4530, 53.24469
482.9352, 54.30113
483.4173, 55.08582
483.8994, 54.97708
484.3815, 54.32374
484.8636, 53.65935
485.3457, 53.02498
485.8279, 52.47601
486.3100, 51.97233
486.7921, 51.51959
487.2742, 51.37850
487.7563, 51.88239
488.2384, 52.36013
488.7206, 52.34745
489.2027, 51.39936
489.6848, 51.24290
490.1669, 52.25413
490.6490, 53.67933
491.1311, 54.30077
491.6133, 54.01497
492.0954, 53.60699
492.5775, 53.31895
493.0596, 53.08942
493.5417, 52.62027
494.0238, 51.90788
494.5060, 51.26238
494.9881, 50.92373
495.4702, 50.83013
495.9523, 50.86476
496.4344, 51.04809
496.9165, 51.19191
497.3987, 50.91729
497.8808, 50.48519
498.3629, 50.39397
498.8450, 51.40883
499.3271, 52.36079
499.8092, 52.42326
500.2914, 51.71110
500.7735, 50.87848
501.2556, 49.60792
501.7377, 48.70467
502.2198, 48.74567
502.7019, 50.23298
503.1841, 51.51561
503.6662, 52.55970
504.1483, 53.22179
504.6304, 53.27776
505.1125, 52.11456
505.5946, 51.35198
506.0768, 51.37178
506.5589, 51.99683
507.0410, 52.41813
507.5231, 52.74361
508.0052, 52.56438
508.4873, 51.21516
508.9695, 48.69328
509.4516, 47.78481
509.9337, 48.76565
510.4158, 50.27271
510.8979, 50.65953
511.3800, 50.18248
511.8622, 50.01334
512.3443, 50.62741
512.8264, 51.45042
513.3085, 51.76933
513.7906, 51.65319
514.2728, 51.34871
514.7549, 50.65718
515.2370, 50.05764
515.7191, 50.13105
516.2012, 50.96313
516.6833, 51.54649
517.1655, 51.28585
517.6476, 50.64555
518.1297, 50.01542
518.6118, 49.14835
519.0939, 48.70549
519.5760, 49.12663
520.0582, 50.02777
520.5403, 50.49041
521.0224, 50.20459
521.5045, 49.90148
521.9866, 49.75034
522.4688, 49.75111
522.9509, 49.93150
523.4330, 50.44244
523.9151, 50.78527
524.3972, 50.42064
524.8793, 49.32808
525.3615, 48.57002
525.8436, 48.22363
526.3257, 48.26598
526.8078, 48.94323
527.2899, 50.08242
527.7720, 50.83318
528.2542, 50.61082
528.7363, 50.00743
529.2184, 49.74270
529.7005, 49.79322
530.1826, 50.01757
530.6647, 50.58455
531.1469, 51.13299
531.6290, 51.34574
532.1111, 51.14040
532.5932, 50.78099
533.0753, 49.99490
533.5574, 49.26979
534.0396, 49.12391
534.5217, 50.39724
535.0038, 51.37075
535.4859, 51.72722
535.9680, 51.61249
536.4501, 51.49175
536.9323, 51.46162
537.4144, 51.24654
537.8965, 50.56919
538.3786, 49.40086
538.8607, 49.18382
539.3428, 50.15128
539.8250, 51.35427
540.3071, 51.91845
540.7892, 51.89231
541.2713, 51.78759
541.7534, 51.67445
542.2355, 51.51745
542.7177, 51.10085
543.1998, 50.56579
543.6819, 50.37560
544.1640, 51.04746
544.6461, 51.94662
545.1282, 52.53429
545.6104, 52.82914
546.0925, 52.97788
546.5746, 52.95807
547.0567, 52.88800
547.5388, 52.88723
548.0209, 53.06042
548.5031, 52.99607
548.9852, 52.28053
549.4673, 51.44146
549.9494, 51.04722
550.4315, 51.48035
550.9136, 51.76033
551.3958, 51.67553
551.8779, 51.40040
552.3600, 51.48751
552.8421, 52.03172
553.3242, 52.60405
553.8063, 53.01424
554.2885, 53.28927
554.7706, 53.70478
555.2527, 54.28655
555.7348, 54.73895
556.2169, 54.69720
556.6990, 54.32973
557.1812, 54.08357
557.6633, 54.05527
558.1454, 54.05698
558.6275, 53.84894
559.1096, 53.55359
559.5917, 53.38207
560.0739, 53.48594
560.5560, 53.67393
561.0381, 53.87166
561.5202, 54.07761
562.0023, 54.29760
562.4844, 54.59345
562.9666, 54.85159
563.4487, 55.06646
563.9308, 55.30107
564.4129, 55.16181
564.8950, 54.35853
565.3771, 53.49753
565.8593, 53.06110
566.3414, 53.09572
566.8235, 53.43186
567.3056, 54.22234
567.7877, 55.05233
568.2698, 54.99878
568.7520, 54.12242
569.2341, 53.45921
569.7162, 53.49005
570.1983, 53.91502
570.6804, 54.26181
571.1625, 54.52612
571.6447, 54.68697
572.1268, 54.47850
572.6089, 54.30662
573.0910, 54.71741
573.5731, 55.88316
574.0552, 56.75581
574.5374, 56.78149
575.0195, 56.33394
575.5016, 55.76472
575.9837, 54.63744
576.4658, 54.01926
576.9479, 54.32858
577.4301, 55.12447
577.9122, 55.53451
578.3943, 55.36101
578.8764, 55.20302
579.3585, 55.25970
579.8406, 55.47768
580.3228, 55.46811
580.8049, 55.20799
581.2870, 54.86920
581.7691, 54.26336
582.2512, 53.62669
582.7333, 54.15353
583.2155, 56.02884
583.6975, 57.93283
584.1796, 58.78330
584.6617, 58.81249
585.1439, 58.34528
585.6260, 57.17346
586.1081, 56.07048
586.5902, 55.40072
587.0723, 55.14441
587.5544, 55.26788
588.0366, 56.66905
588.5187, 57.52488
589.0008, 56.74109
589.4829, 54.45176
589.9650, 53.44044
590.4471, 54.41058
590.9293, 55.75388
591.4114, 56.81462
591.8935, 57.62887
592.3756, 57.82016
592.8577, 57.18183
593.3398, 56.47752
593.8220, 56.67913
594.3041, 57.63905
594.7862, 58.13890
595.2683, 57.84223
595.7504, 57.32663
596.2325, 57.31436
596.7147, 57.68434
597.1968, 58.11761
597.6789, 58.73471
598.1610, 59.15064
598.6431, 58.94845
599.1252, 58.25238
599.6074, 57.64303
600.0895, 57.47170
600.5716, 57.30919
601.0537, 56.84893
601.5358, 55.91473
602.0179, 55.49714
602.5001, 55.86012
602.9822, 56.48954
603.4643, 57.08514
603.9464, 57.75668
604.4285, 57.91461
604.9106, 57.37173
605.3928, 56.58675
605.8749, 56.32499
606.3570, 56.53703
606.8391, 56.55543
607.3212, 56.01540
607.8033, 55.38240
608.2855, 55.50511
608.7676, 56.18912
609.2497, 56.72382
609.7318, 56.74977
610.2139, 56.44063
610.6960, 55.70932
611.1782, 54.58915
611.6603, 53.89419
612.1424, 54.30475
612.6245, 54.93592
613.1066, 55.27299
613.5887, 55.31020
614.0709, 54.91397
614.5530, 53.52616
615.0351, 52.20504
615.5172, 52.25467
615.9993, 54.12796
616.4814, 55.28801
616.9636, 55.25772
617.4457, 54.52151
617.9278, 53.80801
618.4099, 53.14736
618.8920, 52.83744
619.3741, 53.17304
619.8563, 53.79708
620.3384, 54.23253
620.8205, 54.49480
621.3026, 54.66296
621.7847, 54.73653
622.2668, 54.76682
622.7490, 54.80713
623.2311, 54.87115
623.7132, 54.84333
624.1953, 54.61164
624.6774, 54.33431
625.1595, 54.13475
625.6417, 54.17802
626.1238, 53.92779
626.6059, 53.10028
627.0880, 52.29376
627.5701, 52.56661
628.0522, 54.10824
628.5344, 54.78265
629.0165, 53.82847
629.4986, 52.23779
629.9807, 52.11664
630.4628, 53.20095
630.9449, 54.06564
631.4271, 53.71425
631.9092, 52.97722
632.3913, 52.77863
632.8734, 53.04316
633.3555, 53.26748
633.8376, 53.19953
634.3198, 53.01392
634.8019, 52.84028
635.2840, 52.72923
635.7661, 52.40879
636.2482, 51.44874
636.7303, 50.60183
637.2125, 50.41918
637.6946, 51.14931
638.1767, 51.84193
638.6588, 52.46749
639.1409, 53.03774
639.6230, 53.69835
640.1052, 54.41552
640.5873, 54.48149
641.0694, 53.40275
641.5515, 52.13481
642.0336, 52.38233
642.5157, 53.68065
642.9979, 54.67855
643.4800, 54.46989
643.9621, 53.91479
644.4442, 53.44822
644.9263, 53.10909
645.4084, 53.05450
645.8906, 53.74212
646.3727, 54.37355
646.8548, 54.52954
647.3369, 54.14386
647.8190, 53.80817
648.3011, 53.53342
648.7833, 53.29667
649.2654, 53.10096
649.7475, 52.95091
650.2296, 52.70852
650.7117, 52.31997
651.1938, 52.01243
651.6760, 52.21799
652.1581, 52.75443
652.6402, 53.02767
653.1223, 52.78965
653.6044, 52.43904
654.0865, 52.22557
654.5687, 52.16879
655.0508, 52.30201
655.5329, 52.91096
656.0150, 53.43267
656.4971, 53.54698
656.9792, 53.35623
657.4614, 53.43016
657.9435, 54.15498
658.4256, 54.62836
658.9077, 54.45433
659.3898, 53.67031
659.8719, 53.19596
660.3541, 53.04700
660.8362, 53.13262
661.3183, 53.54502
661.8004, 54.15822
662.2825, 54.46415
662.7646, 54.42415
663.2468, 54.27328
663.7289, 54.21436
664.2110, 54.17170
664.6931, 54.01454
665.1752, 53.62012
665.6573, 53.36285
666.1395, 53.58430
666.6216, 53.96505
667.1037, 54.11193
667.5858, 53.70615
668.0679, 53.38643
668.5500, 53.12711
669.0322, 53.01552
669.5143, 53.37976
669.9964, 54.40118
670.4785, 54.98515
670.9606, 54.62691
671.4427, 53.72327
671.9249, 53.37297
672.4070, 53.52562
672.8891, 53.79829
673.3712, 54.03122
673.8533, 54.22235
674.3354, 54.33644
674.8176, 54.38449
675.2997, 54.47193
675.7818, 54.78822
676.2639, 55.05581
676.7460, 55.05059
677.2281, 54.62771
677.7103, 54.42351
678.1924, 54.57227
678.6745, 54.83006
679.1566, 55.06777
679.6387, 55.33848
680.1208, 55.26107
680.6030, 54.69721
681.0851, 54.09406
681.5672, 54.06901
682.0493, 54.50280
682.5314, 54.88698
683.0135, 55.08855
683.4957, 55.21769
683.9778, 55.45479
684.4599, 55.69267
684.9420, 55.72340
685.4241, 55.18056
685.9063, 54.72568
686.3884, 54.63168
686.8705, 54.82632
687.3526, 55.05604
687.8347, 55.44783
688.3168, 55.66339
688.7990, 55.54991
689.2811, 55.17164
689.7632, 54.95318
690.2453, 54.90313
690.7274, 54.95597
691.2095, 55.07521
691.6917, 55.26751
692.1738, 55.67783
692.6559, 56.28206
693.1380, 56.64330
693.6201, 56.07911
694.1022, 55.32997
694.5844, 55.19149
695.0665, 55.86921
695.5486, 56.45084
696.0307, 56.55901
696.5128, 56.48664
696.9949, 56.48172
697.4771, 56.72942
697.9592, 56.64272
698.4413, 56.04840
698.9234, 55.34465
699.4055, 55.03215
699.8876, 55.11800
700.3698, 55.22801
700.8519, 55.28075
701.3340, 55.38263
701.8161, 55.86679
702.2982, 56.52167
702.7803, 56.80250
703.2625, 56.28579
703.7446, 55.60032
704.2267, 54.98041
