##NAMES=Graemite
##RRUFFID=R100207
##IDEAL CHEMISTRY=Cu^2+^Te^4+^O_3_&#183;H_2_O
##LOCALITY=Cole shaft, Bisbee, Cochise County, Arizona, USA
##OWNER=RRUFF
##SOURCE=Rob Lavinsky/Evan Jones 
##DESCRIPTION=Green platy, bladed crystals intimately associated with blue teineite, R100206, on cuprite
##STATUS=The identification of this mineral has been confirmed by single-crystal X-ray diffraction.
##URL=rruff.info/R100207
165.7633, 183.8987
166.2454, 184.5237
166.7276, 183.8334
167.2097, 183.2468
167.6918, 183.4279
168.1739, 184.3784
168.6560, 186.1115
169.1381, 188.8604
169.6203, 192.2649
170.1024, 194.6738
170.5845, 197.0012
171.0666, 199.4311
171.5487, 201.5505
172.0309, 203.3751
172.5130, 205.1267
172.9951, 207.5215
173.4772, 209.8729
173.9593, 211.0981
174.4414, 209.9836
174.9236, 207.9819
175.4057, 206.5018
175.8878, 205.5283
176.3699, 205.0628
176.8520, 205.2943
177.3341, 206.0181
177.8163, 206.8010
178.2984, 207.2430
178.7805, 207.6917
179.2626, 208.6565
179.7447, 210.1268
180.2268, 212.0300
180.7090, 214.3613
181.1911, 217.0635
181.6732, 219.9527
182.1553, 223.1146
182.6374, 226.3776
183.1195, 229.2275
183.6017, 231.6423
184.0838, 233.9241
184.5659, 236.4571
185.0480, 239.2018
185.5301, 242.0996
186.0123, 244.9501
186.4944, 247.9052
186.9765, 251.2723
187.4586, 255.0352
187.9407, 259.3995
188.4228, 264.9082
188.9050, 271.4436
189.3871, 278.1361
189.8692, 284.9498
190.3513, 291.6289
190.8334, 297.0210
191.3155, 301.0252
191.7977, 303.7958
192.2798, 305.5770
192.7619, 306.3810
193.2440, 306.0889
193.7261, 304.6530
194.2082, 302.0856
194.6904, 298.1872
195.1725, 292.6794
195.6546, 286.3772
196.1367, 280.8685
196.6188, 276.1396
197.1009, 271.9193
197.5831, 268.1535
198.0652, 264.8053
198.5473, 261.6601
199.0294, 258.7468
199.5115, 255.9603
199.9937, 252.9351
200.4758, 249.6015
200.9579, 246.6656
201.4400, 244.7334
201.9221, 243.8922
202.4042, 242.6963
202.8864, 240.8586
203.3685, 238.8237
203.8506, 237.6203
204.3327, 237.3129
204.8148, 237.5903
205.2969, 238.3679
205.7791, 239.6917
206.2612, 241.1476
206.7433, 242.6598
207.2254, 244.3259
207.7075, 246.4329
208.1896, 249.0711
208.6718, 251.9042
209.1539, 254.8141
209.6360, 257.7890
210.1181, 260.8370
210.6002, 264.1655
211.0823, 267.4632
211.5645, 269.7545
212.0466, 270.7727
212.5287, 271.4546
213.0108, 272.3461
213.4929, 273.6094
213.9750, 274.4842
214.4572, 274.8874
214.9393, 274.8972
215.4214, 274.7032
215.9035, 274.2040
216.3856, 273.7006
216.8678, 273.5106
217.3499, 274.0059
217.8320, 273.5725
218.3141, 272.0342
218.7962, 269.5491
219.2783, 266.5252
219.7605, 262.7589
220.2426, 258.8554
220.7247, 255.1673
221.2068, 251.7919
221.6889, 248.3537
222.1710, 244.7631
222.6532, 241.1276
223.1353, 237.9477
223.6174, 235.4205
224.0995, 232.9700
224.5816, 230.3560
225.0637, 227.6305
225.5459, 224.4713
226.0280, 220.4672
226.5101, 216.1017
226.9922, 213.0763
227.4743, 212.0187
227.9564, 211.2657
228.4386, 210.0059
228.9207, 208.0866
229.4028, 206.0445
229.8849, 203.6584
230.3670, 201.2028
230.8492, 199.4323
231.3313, 198.6933
231.8134, 198.1372
232.2955, 197.3484
232.7776, 196.1286
233.2597, 195.1989
233.7419, 194.7523
234.2240, 194.5491
234.7061, 193.9496
235.1882, 192.7435
235.6703, 191.4737
236.1524, 190.2793
236.6346, 188.8647
237.1167, 188.2858
237.5988, 188.9521
238.0809, 190.2995
238.5630, 190.9632
239.0451, 190.4162
239.5273, 189.9653
240.0094, 190.1575
240.4915, 191.2268
240.9736, 192.3548
241.4557, 193.6967
241.9378, 195.0306
242.4200, 195.8496
242.9021, 195.8372
243.3842, 195.8109
243.8663, 196.1145
244.3484, 196.9426
244.8306, 197.5396
245.3127, 197.9971
245.7948, 198.1739
246.2769, 197.7592
246.7590, 196.5213
247.2411, 195.1000
247.7233, 193.7080
248.2054, 192.3765
248.6875, 190.8888
249.1696, 188.8750
249.6517, 186.9665
250.1338, 186.3823
250.6160, 188.1149
251.0981, 189.3714
251.5802, 189.0034
252.0623, 186.4614
252.5444, 185.2204
253.0265, 185.9358
253.5087, 187.4244
253.9908, 187.9184
254.4729, 186.8250
254.9550, 185.9504
255.4371, 185.8184
255.9192, 186.5022
256.4014, 187.3621
256.8835, 188.5321
257.3656, 189.7455
257.8477, 190.6399
258.3298, 190.9373
258.8120, 191.5619
259.2941, 192.8983
259.7762, 195.0239
260.2583, 196.5466
260.7404, 197.1796
261.2225, 197.5777
261.7047, 198.5072
262.1868, 200.2101
262.6689, 201.8263
263.1510, 203.2833
263.6331, 204.5578
264.1152, 205.1943
264.5974, 204.9819
265.0795, 204.4474
265.5616, 204.1519
266.0437, 204.2666
266.5258, 204.0270
267.0079, 203.1852
267.4901, 201.8262
267.9722, 200.8098
268.4543, 200.2966
268.9364, 199.7946
269.4185, 198.9947
269.9006, 197.9779
270.3828, 196.2747
270.8649, 193.5534
271.3470, 190.1022
271.8291, 187.2256
272.3112, 184.9483
272.7933, 183.0846
273.2755, 181.6463
273.7576, 180.7267
274.2397, 179.4790
274.7218, 177.6078
275.2039, 175.4632
275.6860, 174.2977
276.1682, 174.3751
276.6503, 174.3982
277.1324, 173.5213
277.6145, 171.7033
278.0966, 169.5715
278.5787, 166.8955
279.0609, 164.2763
279.5430, 163.2635
280.0251, 164.1133
280.5072, 165.0523
280.9893, 165.1587
281.4715, 164.4380
281.9536, 163.3342
282.4357, 161.6516
282.9178, 160.0039
283.3999, 159.6845
283.8820, 160.7711
284.3642, 161.7322
284.8463, 161.6961
285.3284, 160.7632
285.8105, 160.0612
286.2926, 159.5238
286.7747, 159.4205
287.2569, 160.5039
287.7390, 162.7113
288.2211, 164.4168
288.7032, 164.6484
289.1853, 163.7886
289.6674, 163.5758
290.1496, 164.0635
290.6317, 164.8355
291.1138, 165.5358
291.5959, 166.1570
292.0780, 166.6002
292.5602, 166.7090
293.0423, 166.6720
293.5244, 167.0449
294.0065, 167.8445
294.4886, 168.6624
294.9707, 168.9932
295.4529, 169.0075
295.9350, 169.3225
296.4171, 170.1796
296.8992, 171.3535
297.3813, 172.5521
297.8634, 173.7546
298.3456, 174.7769
298.8277, 174.9226
299.3098, 174.7975
299.7919, 175.9806
300.2740, 179.3890
300.7561, 183.1579
301.2383, 184.6147
301.7204, 184.1452
302.2025, 183.3898
302.6846, 182.8174
303.1667, 182.7754
303.6488, 184.0850
304.1310, 187.2808
304.6131, 190.5157
305.0952, 191.4560
305.5773, 190.8623
306.0594, 190.7898
306.5415, 193.0306
307.0237, 195.9922
307.5058, 197.9256
307.9879, 198.5421
308.4700, 198.9127
308.9521, 199.7085
309.4343, 200.8356
309.9164, 202.1403
310.3985, 203.8707
310.8806, 205.5511
311.3627, 206.6596
311.8448, 207.1754
312.3270, 207.8985
312.8091, 209.7653
313.2912, 211.9659
313.7733, 213.5443
314.2554, 214.0326
314.7375, 213.9264
315.2197, 213.1292
315.7018, 211.7573
316.1839, 210.7966
316.6660, 211.2032
317.1481, 211.9423
317.6302, 212.1624
318.1124, 211.4109
318.5945, 210.4288
319.0766, 209.3977
319.5587, 208.3169
320.0408, 207.1707
320.5229, 205.4838
321.0051, 204.0584
321.4872, 203.4390
321.9693, 204.3623
322.4514, 204.8724
322.9335, 204.2364
323.4156, 202.9505
323.8978, 201.9707
324.3799, 202.1257
324.8620, 202.0368
325.3441, 201.0124
325.8262, 198.4680
326.3083, 196.7200
326.7905, 196.2337
327.2726, 196.5419
327.7547, 197.0717
328.2368, 197.9230
328.7189, 198.8692
329.2010, 199.8482
329.6832, 200.8357
330.1653, 202.0307
330.6474, 203.6087
331.1295, 205.2664
331.6116, 206.7540
332.0938, 207.7861
332.5759, 209.1075
333.0580, 210.8213
333.5401, 212.9126
334.0222, 215.1382
334.5043, 217.4719
334.9865, 219.9987
335.4686, 222.8427
335.9507, 226.1965
336.4328, 229.3555
336.9149, 232.2482
337.3970, 234.9848
337.8792, 237.7415
338.3613, 240.5609
338.8434, 243.3942
339.3255, 246.4229
339.8076, 249.8037
340.2898, 252.3158
340.7719, 254.0621
341.2540, 254.8179
341.7361, 254.0059
342.2182, 251.5057
342.7003, 248.7525
343.1825, 246.2841
343.6646, 244.0003
344.1467, 241.4072
344.6288, 238.4748
345.1109, 235.2694
345.5930, 231.5466
346.0752, 227.4369
346.5573, 223.8194
347.0394, 220.9836
347.5215, 218.6698
348.0036, 216.3643
348.4857, 214.0684
348.9679, 211.5539
349.4500, 208.0959
349.9321, 204.2224
350.4142, 201.6158
350.8963, 200.7829
351.3784, 200.6003
351.8606, 199.7251
352.3427, 198.2944
352.8248, 196.7854
353.3069, 195.6432
353.7890, 194.5315
354.2711, 192.8863
354.7533, 190.6247
355.2354, 188.2761
355.7175, 186.2225
356.1996, 184.4216
356.6817, 182.7989
357.1638, 181.5316
357.6460, 180.2805
358.1281, 178.7598
358.6102, 176.9871
359.0923, 175.1332
359.5744, 172.9714
360.0565, 170.9366
360.5387, 169.4605
361.0208, 168.8549
361.5029, 168.5858
361.9850, 168.5943
362.4671, 168.7879
362.9492, 168.8814
363.4314, 169.0004
363.9135, 168.8309
364.3956, 168.0540
364.8777, 166.1126
365.3598, 164.8033
365.8419, 165.0305
366.3241, 165.9992
366.8062, 166.5171
367.2883, 165.6511
367.7704, 165.0582
368.2526, 165.3456
368.7347, 166.7527
369.2168, 167.7134
369.6989, 167.7476
370.1810, 167.6121
370.6631, 167.9602
371.1453, 169.4365
371.6274, 170.4200
372.1095, 170.4815
372.5916, 169.8121
373.0737, 169.7349
373.5558, 170.6489
374.0380, 171.5604
374.5201, 171.8818
375.0022, 171.3908
375.4843, 171.0153
375.9664, 170.7342
376.4485, 170.6271
376.9307, 170.9547
377.4128, 171.8523
377.8949, 172.5953
378.3770, 172.8371
378.8591, 172.6038
379.3412, 172.3855
379.8234, 172.1517
380.3055, 172.0452
380.7876, 172.2556
381.2697, 172.7735
381.7518, 173.4275
382.2339, 174.2988
382.7161, 175.1810
383.1982, 175.5251
383.6803, 175.3435
384.1624, 175.0613
384.6445, 174.9520
385.1266, 174.9845
385.6088, 175.0485
386.0909, 175.0840
386.5730, 175.2843
387.0551, 176.0059
387.5372, 177.0951
388.0193, 178.1268
388.5015, 178.7946
388.9836, 179.3260
389.4657, 179.9618
389.9478, 180.7169
390.4299, 181.4947
390.9120, 182.1295
391.3942, 182.7809
391.8763, 183.6433
392.3584, 185.2966
392.8405, 186.6870
393.3226, 186.9332
393.8047, 186.3247
394.2869, 186.1842
394.7690, 187.5883
395.2511, 189.2383
395.7332, 190.2992
396.2154, 190.3256
396.6975, 190.4203
397.1796, 190.8812
397.6617, 191.5482
398.1438, 192.1417
398.6259, 192.3350
399.1081, 192.7357
399.5902, 193.5910
400.0723, 194.9871
400.5544, 196.2497
401.0365, 197.6214
401.5186, 198.6761
402.0008, 198.9302
402.4829, 197.4339
402.9650, 196.9496
403.4471, 197.9854
403.9292, 200.2644
404.4113, 202.7415
404.8935, 205.7463
405.3756, 208.2317
405.8577, 209.2769
406.3398, 208.5020
406.8219, 209.2829
407.3040, 212.1385
407.7862, 215.6402
408.2683, 217.5464
408.7504, 217.8018
409.2325, 218.4053
409.7146, 220.1119
410.1967, 222.6573
410.6789, 225.2935
411.1610, 228.0196
411.6431, 230.9414
412.1252, 234.4132
412.6073, 238.1569
413.0894, 241.2688
413.5716, 243.3302
414.0537, 245.0962
414.5358, 247.4547
415.0179, 250.2564
415.5000, 253.1016
415.9821, 255.8923
416.4643, 258.5078
416.9464, 260.6890
417.4285, 262.3685
417.9106, 264.1623
418.3927, 266.1071
418.8748, 268.5120
419.3570, 271.7062
419.8391, 277.1327
420.3212, 282.1110
420.8033, 285.0495
421.2854, 286.4174
421.7675, 288.4871
422.2497, 292.5267
422.7318, 297.0302
423.2139, 301.2724
423.6960, 305.4113
424.1781, 308.7583
424.6602, 310.5016
425.1424, 311.5963
425.6245, 313.4354
426.1066, 316.8411
426.5887, 319.9338
427.0709, 322.3164
427.5530, 323.9878
428.0351, 325.3180
428.5172, 326.3944
428.9993, 327.0197
429.4814, 326.8446
429.9636, 325.4503
430.4457, 324.9216
430.9278, 325.6397
431.4099, 327.1012
431.8920, 328.2177
432.3741, 328.9551
432.8563, 329.6786
433.3384, 330.3804
433.8205, 331.1551
434.3026, 332.5247
434.7847, 334.4693
435.2668, 337.1770
435.7490, 341.2101
436.2311, 346.2618
436.7132, 351.0611
437.1953, 355.1033
437.6774, 358.9997
438.1595, 363.9110
438.6417, 369.5637
439.1238, 374.8226
439.6059, 378.5075
440.0880, 381.7072
440.5701, 385.5653
441.0522, 390.2665
441.5344, 395.3478
442.0165, 401.1294
442.4986, 406.9323
442.9807, 411.8905
443.4628, 414.8437
443.9449, 417.7558
444.4271, 421.3453
444.9092, 425.5451
445.3913, 429.9511
445.8734, 435.1968
446.3555, 439.9590
446.8376, 443.4522
447.3198, 444.7552
447.8019, 446.5150
448.2840, 449.2045
448.7661, 452.1888
449.2482, 454.5395
449.7303, 455.7282
450.2125, 457.1478
450.6946, 459.1242
451.1767, 461.6389
451.6588, 464.4182
452.1409, 467.8736
452.6230, 470.7020
453.1052, 471.8116
453.5873, 471.1048
454.0694, 470.0910
454.5515, 468.8869
455.0337, 467.4276
455.5158, 465.6297
455.9979, 463.4811
456.4800, 461.0682
456.9621, 458.4916
457.4442, 455.6332
457.9264, 452.2465
458.4085, 448.3484
458.8906, 443.8301
459.3727, 438.4653
459.8548, 432.4896
460.3369, 426.3482
460.8191, 419.9909
461.3012, 413.6753
461.7833, 407.9587
462.2654, 402.4149
462.7475, 396.1815
463.2296, 387.8943
463.7118, 379.5435
464.1939, 372.2632
464.6760, 366.0655
465.1581, 360.1386
465.6402, 354.7816
466.1223, 349.3046
466.6045, 343.2884
467.0866, 336.0551
467.5687, 329.0605
468.0508, 322.0350
468.5329, 315.2899
469.0150, 309.4713
469.4972, 305.0619
469.9793, 300.9570
470.4614, 296.8959
470.9435, 292.8781
471.4256, 288.9243
471.9077, 284.9545
472.3899, 281.2183
472.8720, 278.1192
473.3541, 275.7067
473.8362, 272.8121
474.3183, 269.0786
474.8004, 265.0551
475.2826, 261.8569
475.7647, 259.4393
476.2468, 257.1837
476.7289, 254.6565
477.2110, 252.0795
477.6931, 250.0576
478.1753, 248.5823
478.6574, 247.2435
479.1395, 245.5959
479.6216, 243.8979
480.1037, 242.5471
480.5858, 241.7303
481.0680, 241.1185
481.5501, 240.7671
482.0322, 240.4482
482.5143, 239.6835
482.9964, 237.6101
483.4786, 235.6372
483.9607, 234.5511
484.4428, 234.4787
484.9249, 234.2686
485.4070, 233.4182
485.8892, 232.5377
486.3713, 232.0706
486.8534, 232.3866
487.3355, 232.5812
487.8176, 232.5950
488.2997, 232.4866
488.7819, 232.3065
489.2640, 231.8191
489.7461, 231.7992
490.2282, 232.5530
490.7103, 234.0498
491.1924, 235.8429
491.6746, 238.1029
492.1567, 239.9957
492.6388, 240.4618
493.1209, 239.7014
493.6030, 239.4202
494.0851, 239.8504
494.5673, 240.8025
495.0494, 242.3993
495.5315, 244.3887
496.0136, 245.8041
496.4957, 245.4597
496.9778, 244.7569
497.4600, 245.6392
497.9421, 247.9152
498.4242, 249.6668
498.9063, 249.1950
499.3884, 248.0215
499.8705, 247.5308
500.3527, 248.3486
500.8348, 248.9757
501.3169, 248.6690
501.7990, 247.9078
502.2811, 247.3633
502.7632, 247.6771
503.2454, 247.6641
503.7275, 246.7960
504.2096, 245.1993
504.6917, 244.2690
505.1738, 244.5433
505.6559, 244.7732
506.1381, 244.3212
506.6202, 243.0976
507.1023, 241.3978
507.5844, 238.8708
508.0665, 236.5056
508.5486, 235.9232
509.0308, 237.1676
509.5129, 238.3278
509.9950, 239.0884
510.4771, 239.2844
510.9592, 238.2209
511.4413, 236.0246
511.9235, 233.9162
512.4056, 232.7552
512.8877, 232.1339
513.3698, 231.4841
513.8519, 230.7670
514.3340, 229.9400
514.8162, 228.9559
515.2983, 227.8512
515.7804, 226.6388
516.2625, 224.8027
516.7446, 223.5270
517.2267, 223.6798
517.7089, 224.7680
518.1910, 225.5790
518.6731, 225.8963
519.1552, 225.8636
519.6373, 225.3853
520.1194, 224.3967
520.6016, 223.7240
521.0837, 223.6193
521.5658, 223.5539
522.0479, 223.0743
522.5300, 221.9635
523.0121, 221.3020
523.4943, 221.3488
523.9764, 221.6211
524.4585, 221.2067
524.9406, 220.0999
525.4227, 218.9033
525.9048, 217.7968
526.3870, 216.7720
526.8691, 215.8463
527.3513, 215.0021
527.8334, 214.0404
528.3155, 212.9466
528.7976, 211.5867
529.2797, 209.5674
529.7618, 206.6822
530.2440, 204.0735
530.7261, 203.1101
531.2082, 202.7390
531.6903, 201.6324
532.1724, 198.0279
532.6545, 195.0151
533.1367, 193.9178
533.6188, 194.2581
534.1009, 194.2693
534.5830, 193.6062
535.0651, 192.6584
535.5472, 191.5547
536.0294, 190.2905
536.5115, 188.7846
536.9936, 186.7881
537.4757, 184.8994
537.9578, 183.7335
538.4399, 183.4404
538.9221, 182.7703
539.4042, 181.3987
539.8863, 179.9275
540.3684, 179.6777
540.8505, 180.5261
541.3326, 180.9980
541.8148, 180.3860
542.2969, 179.0960
542.7790, 177.5417
543.2611, 175.8117
543.7432, 174.5465
544.2253, 174.5730
544.7075, 175.0758
545.1896, 175.1894
545.6717, 174.7314
546.1538, 174.2547
546.6359, 174.0838
547.1180, 174.0129
547.6002, 173.8250
548.0823, 173.1099
548.5644, 172.6882
549.0465, 173.0342
549.5286, 173.7931
550.0107, 173.8952
550.4929, 172.7509
550.9750, 171.8472
551.4571, 171.8142
551.9392, 172.6581
552.4213, 172.7302
552.9034, 171.8007
553.3856, 170.8192
553.8677, 170.6710
554.3498, 171.2710
554.8319, 171.5477
555.3140, 171.3351
555.7961, 171.0039
556.2783, 171.0732
556.7604, 171.4214
557.2425, 171.7094
557.7246, 171.8474
558.2067, 171.8372
558.6888, 171.5706
559.1710, 171.1330
559.6531, 170.8148
560.1352, 170.9871
560.6173, 171.1445
561.0994, 170.9770
561.5815, 170.4314
562.0637, 169.8084
562.5458, 168.7481
563.0279, 167.9096
563.5100, 167.7775
563.9921, 168.9147
564.4742, 169.7829
564.9564, 170.3621
565.4385, 170.6433
565.9206, 170.4746
566.4027, 169.7051
566.8848, 169.2543
567.3669, 169.4636
567.8491, 170.1376
568.3312, 170.8252
568.8133, 171.5091
569.2954, 171.7580
569.7775, 171.0490
570.2596, 169.7815
570.7418, 168.5411
571.2239, 167.3396
571.7060, 166.5895
572.1881, 166.8315
572.6702, 167.5891
573.1523, 168.3867
573.6345, 169.3027
574.1166, 169.8736
574.5987, 169.6905
575.0808, 169.0924
575.5629, 168.6372
576.0450, 168.6940
576.5272, 168.5772
577.0093, 167.8488
577.4914, 166.7263
577.9735, 166.7942
578.4556, 168.6452
578.9377, 170.4664
579.4199, 171.3760
579.9020, 171.3499
580.3841, 171.1503
580.8662, 170.7653
581.3483, 170.2888
581.8304, 169.7091
582.3126, 169.1052
582.7947, 168.7519
583.2768, 168.7100
583.7589, 168.9003
584.2410, 169.3883
584.7231, 170.0327
585.2053, 170.5545
585.6874, 170.8163
586.1696, 170.9365
586.6517, 170.8416
587.1338, 170.6117
587.6159, 170.6048
588.0980, 171.3975
588.5801, 171.9942
589.0623, 171.7232
589.5444, 170.3045
590.0265, 169.9240
590.5086, 171.0433
590.9907, 172.6121
591.4728, 173.9551
591.9550, 175.1228
592.4371, 175.6110
592.9192, 175.2380
593.4013, 174.5251
593.8834, 174.2580
594.3655, 174.3615
594.8477, 174.3320
595.3298, 173.9222
595.8119, 173.4149
596.2940, 173.0678
596.7761, 172.9236
597.2582, 173.1137
597.7404, 173.7992
598.2225, 174.7700
598.7046, 176.0476
599.1867, 177.6110
599.6688, 178.8430
600.1509, 179.3476
600.6331, 179.6249
601.1152, 179.9520
601.5973, 180.2954
602.0794, 180.8317
602.5615, 181.7769
603.0436, 182.7035
603.5258, 182.9695
604.0079, 182.3498
604.4900, 182.3108
604.9721, 183.1725
605.4542, 184.6057
605.9363, 186.1531
606.4185, 187.7608
606.9006, 189.0443
607.3827, 189.6010
607.8648, 189.8518
608.3469, 190.2923
608.8290, 190.9334
609.3112, 191.8104
609.7933, 193.2254
610.2754, 194.6919
610.7575, 195.7921
611.2396, 196.3934
611.7217, 197.1603
612.2039, 198.4211
612.6860, 199.8078
613.1681, 201.0406
613.6502, 201.7969
614.1323, 202.9524
614.6144, 204.7803
615.0966, 206.7583
615.5787, 208.0684
616.0608, 208.5554
616.5429, 209.3314
617.0250, 210.6724
617.5071, 212.4356
617.9893, 214.4949
618.4714, 216.7807
618.9535, 218.6586
619.4356, 219.6095
619.9177, 220.1134
620.3998, 220.6488
620.8820, 221.2517
621.3641, 222.1300
621.8462, 223.6992
622.3283, 225.3976
622.8104, 226.7766
623.2925, 227.6963
623.7747, 228.6658
624.2568, 229.7501
624.7389, 230.9337
625.2210, 232.2297
625.7031, 233.8129
626.1852, 235.1539
626.6674, 236.3123
627.1495, 237.0994
627.6316, 236.9003
628.1137, 235.6512
628.5958, 235.0258
629.0779, 235.6669
629.5601, 237.0269
630.0422, 238.1993
630.5243, 239.1733
631.0064, 239.9394
631.4885, 240.0106
631.9706, 240.2001
632.4528, 241.5965
632.9349, 244.0787
633.4170, 246.1165
633.8991, 246.6507
634.3812, 246.8273
634.8633, 247.3433
635.3455, 248.3838
635.8276, 249.3774
636.3097, 250.1859
636.7918, 251.0515
637.2739, 252.3161
637.7560, 254.2556
638.2382, 255.3423
638.7203, 255.2490
639.2024, 254.6306
639.6845, 254.5539
640.1666, 254.9202
640.6487, 254.9240
641.1309, 254.1636
641.6130, 253.1364
642.0951, 252.7291
642.5772, 252.6539
643.0594, 252.1193
643.5415, 250.0955
644.0236, 248.0521
644.5057, 246.8931
644.9879, 246.5687
645.4700, 246.3499
645.9521, 245.9126
646.4342, 245.7005
646.9163, 245.9475
647.3984, 246.7428
647.8806, 247.4531
648.3627, 248.0783
648.8448, 248.6474
649.3269, 249.0214
649.8090, 249.2085
650.2911, 250.1771
650.7733, 252.1035
651.2554, 254.4155
651.7375, 256.6719
652.2196, 258.7956
652.7017, 260.6083
653.1838, 262.0042
653.6660, 263.1786
654.1481, 264.3525
654.6302, 265.3891
655.1123, 266.0627
655.5944, 266.3060
656.0765, 266.1420
656.5587, 265.3438
657.0408, 264.0721
657.5229, 263.1600
658.0050, 263.3306
658.4871, 262.6204
658.9692, 260.1397
659.4514, 256.0558
659.9335, 252.2171
660.4156, 248.6641
660.8977, 245.1407
661.3798, 241.4332
661.8619, 237.6680
