##NAMES=Graftonite
##RRUFFID=R070153
##IDEAL CHEMISTRY=Fe^2+^Fe^2+^_2_(P^5+^O_4_)_2_
##LOCALITY=Bull Moose mine, Custer, Custer County, South Dakota, USA
##OWNER=RRUFF
##SOURCE=James Shigley
##DESCRIPTION=Dark brown vitreous massive
##STATUS=The identification of this mineral has been confirmed only by single crystal X-ray diffraction.
##URL=rruff.info/R070153
135.2360, 720.2382
135.7182, 737.9844
136.2003, 756.7969
136.6824, 778.4849
137.1645, 804.0711
137.6466, 822.5212
138.1287, 832.6743
138.6109, 836.6332
139.0930, 839.0845
139.5751, 839.8400
140.0572, 839.5602
140.5393, 838.1180
141.0214, 834.4521
141.5036, 832.8104
141.9857, 833.4119
142.4678, 836.2761
142.9499, 841.9836
143.4320, 851.8536
143.9141, 862.8539
144.3963, 872.6142
144.8784, 881.2529
145.3605, 888.5017
145.8426, 893.3015
146.3247, 895.0297
146.8068, 900.5536
147.2890, 909.9882
147.7711, 923.1505
148.2532, 940.0460
148.7353, 967.0119
149.2174, 991.0219
149.6995, 1008.495
150.1817, 1017.218
150.6638, 1025.718
151.1459, 1031.679
151.6280, 1037.733
152.1101, 1048.394
152.5922, 1071.804
153.0744, 1093.437
153.5565, 1108.122
154.0386, 1111.091
154.5207, 1113.656
155.0028, 1118.136
155.4849, 1123.460
155.9671, 1126.326
156.4492, 1123.500
156.9313, 1119.663
157.4134, 1117.420
157.8955, 1117.936
158.3777, 1119.386
158.8598, 1122.391
159.3419, 1126.562
159.8240, 1128.828
160.3061, 1126.474
160.7882, 1122.545
161.2704, 1119.650
161.7525, 1119.026
162.2346, 1119.208
162.7167, 1120.496
163.1988, 1122.953
163.6809, 1123.336
164.1631, 1116.781
164.6452, 1107.988
165.1273, 1103.048
165.6094, 1108.796
166.0915, 1116.329
166.5736, 1119.870
167.0558, 1118.584
167.5379, 1115.279
168.0200, 1107.444
168.5021, 1098.828
168.9842, 1096.890
169.4663, 1112.979
169.9485, 1133.927
170.4306, 1146.917
170.9127, 1148.570
171.3948, 1145.500
171.8769, 1141.969
172.3590, 1137.979
172.8412, 1133.564
173.3233, 1124.901
173.8054, 1116.881
174.2875, 1117.645
174.7696, 1134.346
175.2517, 1152.802
175.7339, 1154.808
176.2160, 1142.394
176.6981, 1129.515
177.1802, 1127.857
177.6623, 1132.999
178.1444, 1135.624
178.6266, 1131.208
179.1087, 1124.333
179.5908, 1122.315
180.0729, 1125.094
180.5550, 1129.505
181.0371, 1134.528
181.5193, 1139.264
182.0014, 1140.545
182.4835, 1134.574
182.9656, 1125.033
183.4477, 1120.490
183.9298, 1121.389
184.4120, 1124.135
184.8941, 1124.284
185.3762, 1122.435
185.8583, 1122.150
186.3404, 1127.136
186.8225, 1135.296
187.3047, 1137.490
187.7868, 1132.015
188.2689, 1125.675
188.7510, 1129.626
189.2331, 1143.316
189.7152, 1156.623
190.1974, 1164.152
190.6795, 1166.483
191.1616, 1167.784
191.6437, 1168.414
192.1258, 1167.848
192.6080, 1163.396
193.0901, 1154.624
193.5722, 1148.791
194.0543, 1152.628
194.5364, 1165.545
195.0185, 1174.246
195.5007, 1176.432
195.9828, 1174.406
196.4649, 1173.429
196.9470, 1173.437
197.4291, 1174.753
197.9112, 1178.187
198.3934, 1183.884
198.8755, 1188.779
199.3576, 1192.239
199.8397, 1194.645
200.3218, 1198.008
200.8039, 1203.027
201.2861, 1206.629
201.7682, 1204.965
202.2503, 1196.925
202.7324, 1191.656
203.2145, 1191.266
203.6966, 1195.238
204.1788, 1200.463
204.6609, 1207.717
205.1430, 1214.303
205.6251, 1216.821
206.1072, 1214.089
206.5893, 1212.530
207.0715, 1213.597
207.5536, 1217.237
208.0357, 1223.049
208.5178, 1233.007
208.9999, 1241.967
209.4820, 1242.734
209.9642, 1232.255
210.4463, 1223.567
210.9284, 1220.864
211.4105, 1224.639
211.8926, 1227.920
212.3747, 1232.148
212.8569, 1234.204
213.3390, 1227.893
213.8211, 1208.498
214.3032, 1193.182
214.7853, 1188.392
215.2674, 1196.013
215.7496, 1203.802
216.2317, 1213.371
216.7138, 1221.806
217.1959, 1223.292
217.6780, 1214.545
218.1601, 1205.904
218.6423, 1201.796
219.1244, 1204.102
219.6065, 1203.905
220.0886, 1200.646
220.5707, 1195.148
221.0528, 1188.825
221.5350, 1179.877
222.0171, 1173.195
222.4992, 1171.206
222.9813, 1175.996
223.4634, 1179.960
223.9455, 1182.407
224.4277, 1184.221
224.9098, 1187.932
225.3919, 1195.249
225.8740, 1201.797
226.3561, 1204.889
226.8382, 1201.183
227.3204, 1202.336
227.8025, 1211.892
228.2846, 1226.182
228.7667, 1232.122
229.2488, 1224.011
229.7310, 1215.623
230.2131, 1214.448
230.6952, 1224.193
231.1773, 1233.121
231.6594, 1240.576
232.1415, 1246.765
232.6237, 1252.741
233.1058, 1258.446
233.5879, 1264.015
234.0700, 1269.050
234.5521, 1271.285
235.0342, 1277.845
235.5164, 1290.483
235.9985, 1308.234
236.4806, 1325.993
236.9627, 1346.447
237.4448, 1363.232
237.9269, 1371.126
238.4091, 1362.724
238.8912, 1360.410
239.3733, 1369.040
239.8554, 1386.789
240.3375, 1398.126
240.8196, 1397.600
241.3018, 1397.037
241.7839, 1405.308
242.2660, 1426.813
242.7481, 1448.568
243.2302, 1470.818
243.7123, 1492.980
244.1945, 1507.183
244.6766, 1509.719
245.1587, 1508.585
245.6408, 1509.749
246.1229, 1514.276
246.6050, 1518.984
247.0872, 1523.814
247.5693, 1528.685
248.0514, 1532.408
248.5335, 1536.267
249.0156, 1537.514
249.4977, 1532.148
249.9799, 1512.678
250.4620, 1503.171
250.9441, 1511.440
251.4262, 1536.442
251.9083, 1551.346
252.3904, 1553.300
252.8726, 1548.350
253.3547, 1541.655
253.8368, 1533.797
254.3189, 1522.476
254.8010, 1505.341
255.2831, 1482.725
255.7653, 1466.608
256.2474, 1460.112
256.7295, 1456.397
257.2116, 1449.839
257.6937, 1441.037
258.1758, 1427.607
258.6580, 1406.859
259.1401, 1379.142
259.6222, 1359.471
260.1043, 1350.332
260.5864, 1346.099
261.0685, 1342.449
261.5507, 1340.675
262.0328, 1335.777
262.5149, 1325.733
262.9970, 1310.741
263.4791, 1298.197
263.9612, 1288.509
264.4434, 1280.440
264.9255, 1273.013
265.4076, 1266.550
265.8897, 1259.655
266.3718, 1251.643
266.8539, 1242.714
267.3361, 1235.323
267.8182, 1230.193
268.3003, 1225.437
268.7824, 1218.688
269.2645, 1209.008
269.7466, 1201.149
270.2288, 1196.592
270.7109, 1194.958
271.1930, 1191.148
271.6751, 1183.709
272.1572, 1177.146
272.6393, 1177.492
273.1215, 1186.775
273.6036, 1191.455
274.0857, 1186.653
274.5678, 1174.200
275.0499, 1167.934
275.5320, 1168.881
276.0142, 1173.081
276.4963, 1176.850
276.9784, 1180.039
277.4605, 1184.356
277.9426, 1190.707
278.4247, 1198.473
278.9069, 1205.473
279.3890, 1212.275
279.8711, 1216.019
280.3532, 1210.148
280.8354, 1193.906
281.3175, 1188.390
281.7996, 1202.984
282.2817, 1230.504
282.7638, 1242.794
283.2459, 1238.211
283.7281, 1227.827
284.2102, 1219.083
284.6923, 1212.117
285.1744, 1210.967
285.6565, 1218.628
286.1386, 1231.543
286.6208, 1239.799
287.1029, 1243.271
287.5850, 1243.444
288.0671, 1239.913
288.5492, 1233.355
289.0313, 1228.872
289.5135, 1227.915
289.9956, 1229.389
290.4777, 1229.641
290.9598, 1228.646
291.4419, 1231.002
291.9240, 1244.342
292.4062, 1265.378
292.8883, 1279.255
293.3704, 1280.813
293.8525, 1276.658
294.3346, 1277.928
294.8167, 1284.414
295.2989, 1293.215
295.7810, 1302.788
296.2631, 1313.005
296.7452, 1323.941
297.2273, 1335.825
297.7094, 1347.886
298.1916, 1359.517
298.6737, 1370.559
299.1558, 1380.697
299.6379, 1391.371
300.1200, 1400.674
300.6021, 1403.636
301.0843, 1395.750
301.5664, 1388.850
302.0485, 1399.790
302.5306, 1424.623
303.0127, 1447.398
303.4948, 1459.276
303.9770, 1463.214
304.4591, 1462.557
304.9412, 1456.714
305.4233, 1449.329
305.9054, 1444.102
306.3875, 1440.060
306.8697, 1434.440
307.3518, 1423.531
307.8339, 1411.406
308.3160, 1402.843
308.7981, 1399.522
309.2802, 1396.050
309.7624, 1388.161
310.2445, 1377.384
310.7266, 1366.901
311.2087, 1360.259
311.6908, 1353.028
312.1729, 1341.038
312.6551, 1322.628
313.1372, 1304.853
313.6193, 1292.495
314.1014, 1283.191
314.5835, 1273.430
315.0656, 1258.203
315.5478, 1244.874
316.0299, 1238.406
316.5120, 1240.170
316.9941, 1241.826
317.4762, 1243.063
317.9583, 1241.565
318.4405, 1234.540
318.9226, 1213.921
319.4047, 1194.124
319.8868, 1179.524
320.3689, 1170.353
320.8510, 1167.151
321.3332, 1181.272
321.8153, 1196.558
322.2974, 1197.877
322.7795, 1163.354
323.2616, 1134.039
323.7437, 1122.993
324.2259, 1130.932
324.7080, 1132.781
325.1901, 1114.481
325.6722, 1095.428
326.1543, 1090.033
326.6364, 1119.820
327.1186, 1139.589
327.6007, 1141.017
328.0828, 1125.773
328.5649, 1114.392
329.0470, 1108.828
329.5291, 1105.553
330.0113, 1102.500
330.4934, 1098.879
330.9755, 1096.683
331.4576, 1095.917
331.9397, 1096.652
332.4218, 1100.140
332.9040, 1112.255
333.3861, 1119.262
333.8682, 1111.252
334.3503, 1076.115
334.8324, 1058.328
335.3145, 1065.074
335.7967, 1087.358
336.2788, 1101.898
336.7609, 1107.255
337.2430, 1108.709
337.7251, 1108.052
338.2072, 1104.891
338.6894, 1101.960
339.1715, 1099.302
339.6536, 1096.800
340.1357, 1093.465
340.6178, 1088.646
341.0999, 1086.874
341.5821, 1091.251
342.0642, 1101.318
342.5463, 1109.990
343.0284, 1117.287
343.5105, 1122.884
343.9926, 1124.931
344.4748, 1123.670
344.9569, 1124.426
345.4390, 1130.990
345.9211, 1140.887
346.4032, 1145.047
346.8853, 1143.109
347.3675, 1139.726
347.8496, 1138.734
348.3317, 1140.005
348.8138, 1143.393
349.2959, 1150.646
349.7780, 1158.533
350.2602, 1160.416
350.7423, 1156.772
351.2244, 1154.449
351.7065, 1160.224
352.1887, 1170.753
352.6708, 1180.053
353.1529, 1186.805
353.6350, 1191.599
354.1171, 1196.482
354.5992, 1200.516
355.0814, 1199.803
355.5635, 1186.479
356.0456, 1169.774
356.5277, 1159.802
357.0098, 1160.535
357.4919, 1162.714
357.9741, 1160.564
358.4562, 1155.549
358.9383, 1150.682
359.4204, 1143.604
359.9025, 1139.766
360.3846, 1144.891
360.8668, 1162.638
361.3489, 1175.801
361.8310, 1176.269
362.3131, 1168.518
362.7952, 1158.415
363.2773, 1139.858
363.7595, 1126.402
364.2416, 1126.078
364.7237, 1141.194
365.2058, 1149.867
365.6879, 1142.344
366.1700, 1129.694
366.6522, 1121.630
367.1343, 1123.341
367.6164, 1124.961
368.0985, 1124.972
368.5806, 1123.479
369.0627, 1122.564
369.5449, 1124.069
370.0270, 1124.574
370.5091, 1121.483
370.9912, 1109.551
371.4733, 1103.627
371.9554, 1106.440
372.4376, 1115.743
372.9197, 1124.755
373.4018, 1136.016
373.8839, 1142.128
374.3660, 1136.814
374.8481, 1115.160
375.3303, 1104.738
375.8124, 1108.990
376.2945, 1121.156
376.7766, 1129.959
377.2587, 1135.098
377.7408, 1138.233
378.2230, 1139.587
378.7051, 1139.278
379.1872, 1138.852
379.6693, 1138.210
380.1514, 1137.849
380.6335, 1136.398
381.1157, 1134.514
381.5978, 1139.370
382.0799, 1157.706
382.5620, 1182.136
383.0441, 1194.385
383.5262, 1194.658
384.0084, 1192.059
384.4905, 1192.038
384.9726, 1194.956
385.4547, 1202.267
385.9368, 1216.966
386.4189, 1232.153
386.9011, 1237.248
387.3832, 1235.062
387.8653, 1236.626
388.3474, 1253.704
388.8295, 1275.631
389.3116, 1290.292
389.7938, 1293.797
390.2759, 1296.078
390.7580, 1301.543
391.2401, 1310.284
391.7222, 1322.468
392.2043, 1345.838
392.6865, 1366.511
393.1686, 1374.604
393.6507, 1367.311
394.1328, 1364.073
394.6149, 1372.708
395.0970, 1387.773
395.5792, 1403.867
396.0613, 1421.196
396.5434, 1438.042
397.0255, 1454.110
397.5076, 1469.225
397.9897, 1484.368
398.4719, 1498.733
398.9540, 1513.772
399.4361, 1530.204
399.9182, 1547.496
400.4003, 1567.159
400.8824, 1591.151
401.3646, 1617.483
401.8467, 1639.119
402.3288, 1652.105
402.8109, 1667.182
403.2930, 1688.028
403.7751, 1714.269
404.2573, 1749.354
404.7394, 1796.328
405.2215, 1848.119
405.7036, 1894.639
406.1857, 1935.630
406.6678, 1971.863
407.1500, 2001.797
407.6321, 2026.843
408.1142, 2055.571
408.5963, 2088.144
409.0784, 2121.510
409.5605, 2152.589
410.0427, 2181.721
410.5248, 2211.167
411.0069, 2241.297
411.4890, 2272.627
411.9711, 2306.941
412.4532, 2343.695
412.9354, 2378.750
413.4175, 2411.787
413.8996, 2440.012
414.3817, 2457.914
414.8638, 2463.227
415.3459, 2463.342
415.8281, 2462.387
416.3102, 2460.732
416.7923, 2459.077
417.2744, 2466.239
417.7565, 2467.171
418.2386, 2446.802
418.7208, 2403.505
419.2029, 2366.213
419.6850, 2350.323
420.1671, 2344.529
420.6492, 2338.040
421.1313, 2338.598
421.6135, 2327.153
422.0956, 2295.878
422.5777, 2247.563
423.0598, 2196.109
423.5420, 2130.247
424.0241, 2072.447
424.5062, 2032.952
424.9883, 2022.351
425.4704, 2011.582
425.9525, 2000.775
426.4347, 1989.596
426.9168, 1977.382
427.3989, 1963.672
427.8810, 1949.459
428.3631, 1934.247
428.8452, 1917.920
429.3274, 1904.607
429.8095, 1893.247
430.2916, 1887.683
430.7737, 1895.443
431.2558, 1917.601
431.7379, 1932.911
432.2201, 1934.974
432.7022, 1928.817
433.1843, 1925.610
433.6664, 1925.374
434.1485, 1931.046
434.6306, 1948.748
435.1128, 1974.007
435.5949, 1993.345
436.0770, 2004.014
436.5591, 2013.718
437.0412, 2032.234
437.5233, 2056.646
438.0055, 2079.389
438.4876, 2089.252
438.9697, 2100.612
439.4518, 2130.210
439.9339, 2178.046
440.4160, 2225.892
440.8982, 2262.204
441.3803, 2293.369
441.8624, 2326.112
442.3445, 2361.452
442.8266, 2399.576
443.3087, 2439.413
443.7909, 2482.042
444.2730, 2530.071
444.7551, 2589.850
445.2372, 2650.821
445.7193, 2709.541
446.2014, 2767.501
446.6836, 2819.149
447.1657, 2864.775
447.6478, 2904.282
448.1299, 2936.343
448.6120, 2951.045
449.0941, 2975.114
449.5763, 3018.060
450.0584, 3078.487
450.5405, 3125.855
451.0226, 3158.294
451.5047, 3182.656
451.9868, 3205.558
452.4690, 3227.878
452.9511, 3237.995
453.4332, 3232.192
453.9153, 3217.549
454.3974, 3206.910
454.8795, 3200.103
455.3617, 3194.990
455.8438, 3198.455
456.3259, 3202.158
456.8080, 3179.270
457.2901, 3128.005
457.7722, 3072.543
458.2544, 3038.005
458.7365, 3015.567
459.2186, 2989.269
459.7007, 2950.963
460.1828, 2909.506
460.6649, 2870.135
461.1471, 2833.249
461.6292, 2800.617
462.1113, 2780.635
462.5934, 2759.893
463.0755, 2726.873
463.5576, 2673.227
464.0398, 2625.606
464.5219, 2595.381
465.0040, 2574.841
465.4861, 2553.081
465.9682, 2528.660
466.4503, 2502.761
466.9325, 2475.780
467.4146, 2447.863
467.8967, 2416.728
468.3788, 2381.639
468.8609, 2344.125
469.3430, 2304.338
469.8252, 2259.925
470.3073, 2220.219
470.7894, 2186.660
471.2715, 2157.442
471.7536, 2128.805
472.2357, 2100.690
472.7179, 2073.529
473.2000, 2047.574
473.6821, 2022.760
474.1642, 1999.089
474.6463, 1976.747
475.1284, 1954.081
475.6106, 1926.643
476.0927, 1897.044
476.5748, 1874.634
477.0569, 1864.379
477.5390, 1858.101
478.0211, 1849.823
478.5033, 1838.243
478.9854, 1818.531
479.4675, 1781.495
479.9496, 1739.301
480.4317, 1699.998
480.9138, 1663.790
481.3960, 1637.258
481.8781, 1630.753
482.3602, 1632.983
482.8423, 1630.893
483.3244, 1619.820
483.8065, 1605.648
484.2887, 1587.160
484.7708, 1565.355
485.2529, 1548.657
485.7350, 1541.909
486.2171, 1535.621
486.6992, 1525.626
487.1814, 1511.310
487.6635, 1494.470
488.1456, 1472.023
488.6277, 1449.944
489.1098, 1438.490
489.5919, 1440.026
490.0741, 1440.167
490.5562, 1434.091
491.0383, 1423.415
491.5204, 1416.555
492.0026, 1413.864
492.4847, 1409.883
492.9668, 1398.310
493.4489, 1381.883
493.9310, 1368.992
494.4131, 1361.514
494.8953, 1355.896
495.3774, 1350.503
495.8595, 1344.020
496.3416, 1333.574
496.8237, 1310.450
497.3058, 1288.135
497.7880, 1278.866
498.2701, 1282.271
498.7522, 1284.886
499.2343, 1277.713
499.7164, 1268.867
500.1985, 1264.439
500.6807, 1267.653
501.1628, 1272.423
501.6449, 1281.172
502.1270, 1290.537
502.6091, 1293.530
503.0912, 1288.963
503.5734, 1279.200
504.0555, 1261.918
504.5376, 1236.694
505.0197, 1221.776
505.5018, 1220.304
505.9839, 1223.882
506.4661, 1226.628
506.9482, 1228.731
507.4303, 1228.522
507.9124, 1226.103
508.3945, 1220.753
508.8766, 1208.512
509.3588, 1190.231
509.8409, 1175.807
510.3230, 1170.802
510.8051, 1172.733
511.2872, 1179.561
511.7693, 1191.202
512.2515, 1199.252
512.7336, 1192.999
513.2157, 1180.833
513.6978, 1174.242
514.1799, 1180.741
514.6620, 1185.342
515.1442, 1175.195
515.6263, 1157.195
516.1084, 1146.488
516.5905, 1155.254
517.0726, 1165.212
517.5547, 1168.587
518.0369, 1163.939
518.5190, 1161.626
519.0011, 1164.790
519.4832, 1168.222
519.9653, 1167.911
520.4474, 1160.946
520.9296, 1157.176
521.4117, 1158.657
521.8938, 1162.633
522.3759, 1162.159
522.8580, 1156.159
523.3401, 1151.829
523.8223, 1152.402
524.3044, 1157.094
524.7865, 1163.370
525.2686, 1171.427
525.7507, 1177.002
526.2328, 1174.376
526.7150, 1166.543
527.1971, 1160.431
527.6792, 1158.209
528.1613, 1156.200
528.6434, 1147.158
529.1255, 1135.805
529.6077, 1132.056
530.0898, 1147.927
530.5719, 1166.279
531.0540, 1176.615
531.5361, 1178.512
532.0182, 1183.494
532.5004, 1201.851
532.9825, 1219.520
533.4646, 1227.019
533.9467, 1214.688
534.4288, 1205.629
534.9109, 1197.011
535.3931, 1192.939
535.8752, 1202.722
536.3573, 1233.256
536.8394, 1258.880
537.3215, 1272.027
537.8036, 1274.198
538.2858, 1274.995
538.7679, 1274.198
539.2500, 1273.595
539.7321, 1271.691
540.2142, 1270.621
540.6964, 1281.150
541.1785, 1306.794
541.6606, 1333.625
542.1427, 1345.094
542.6248, 1345.827
543.1069, 1345.778
543.5891, 1348.858
544.0712, 1352.823
544.5533, 1353.630
545.0354, 1352.904
545.5175, 1359.075
545.9996, 1388.498
546.4818, 1416.019
546.9639, 1424.837
547.4460, 1402.403
547.9281, 1390.207
548.4102, 1395.387
548.8923, 1409.968
549.3745, 1426.625
549.8566, 1447.491
550.3387, 1466.102
550.8208, 1481.986
551.3029, 1494.839
551.7850, 1502.933
552.2672, 1505.914
552.7493, 1506.617
553.2314, 1504.795
553.7135, 1501.473
554.1956, 1501.745
554.6777, 1505.610
555.1599, 1513.763
555.6420, 1530.917
556.1241, 1552.243
556.6062, 1567.595
557.0883, 1571.418
557.5704, 1573.766
558.0526, 1581.533
558.5347, 1593.720
559.0168, 1608.235
559.4989, 1629.193
559.9810, 1647.449
560.4631, 1654.716
560.9453, 1649.909
561.4274, 1656.796
561.9095, 1695.409
562.3916, 1733.825
562.8737, 1753.401
563.3558, 1742.888
563.8380, 1737.701
564.3201, 1739.449
564.8022, 1745.460
565.2843, 1751.815
565.7664, 1758.469
566.2485, 1766.255
566.7307, 1776.552
567.2128, 1787.581
567.6949, 1793.706
568.1770, 1795.228
568.6591, 1796.194
569.1412, 1796.037
569.6234, 1798.217
570.1055, 1810.201
570.5876, 1833.760
571.0697, 1857.071
571.5518, 1865.770
572.0339, 1871.843
572.5161, 1889.121
572.9982, 1932.946
573.4803, 1975.720
573.9624, 2007.371
574.4445, 2031.989
574.9266, 2059.721
575.4088, 2089.593
575.8909, 2125.137
576.3730, 2168.227
576.8551, 2218.934
577.3372, 2270.228
577.8193, 2323.041
578.3015, 2373.625
578.7836, 2415.516
579.2657, 2448.083
579.7478, 2497.940
580.2299, 2570.704
580.7120, 2651.200
581.1942, 2717.588
581.6763, 2772.452
582.1584, 2825.198
582.6405, 2875.766
583.1226, 2928.551
583.6047, 2994.843
584.0869, 3069.211
584.5690, 3128.378
585.0511, 3143.058
585.5332, 3151.698
586.0153, 3181.699
586.4974, 3242.291
586.9796, 3292.528
587.4617, 3324.024
587.9438, 3342.695
588.4259, 3353.802
588.9080, 3356.688
589.3901, 3352.570
589.8723, 3339.761
590.3544, 3321.174
590.8365, 3302.499
591.3186, 3283.293
591.8007, 3267.220
592.2828, 3261.803
592.7650, 3258.805
593.2471, 3227.212
593.7292, 3167.444
594.2113, 3101.654
594.6934, 3050.530
595.1755, 3001.573
595.6577, 2932.072
596.1398, 2836.220
596.6219, 2739.750
597.1040, 2664.725
597.5862, 2596.786
598.0683, 2517.751
598.5504, 2408.018
599.0325, 2303.898
599.5146, 2213.611
599.9968, 2135.638
600.4789, 2065.826
600.9610, 2010.090
601.4431, 1954.660
601.9252, 1892.917
602.4073, 1826.451
602.8895, 1773.212
603.3716, 1735.397
603.8537, 1702.715
604.3358, 1666.818
604.8179, 1628.831
605.3000, 1592.959
605.7822, 1558.617
606.2643, 1530.321
606.7464, 1514.482
607.2285, 1507.514
607.7106, 1501.793
608.1927, 1494.529
608.6749, 1488.047
609.1570, 1484.520
609.6391, 1483.086
610.1212, 1481.537
610.6033, 1480.183
611.0854, 1477.590
611.5676, 1472.442
612.0497, 1464.277
612.5318, 1458.138
613.0139, 1453.276
613.4960, 1451.354
613.9781, 1455.186
614.4603, 1467.087
614.9424, 1470.859
615.4245, 1464.003
615.9066, 1453.496
616.3887, 1447.367
616.8708, 1445.528
617.3530, 1447.762
617.8351, 1456.387
618.3172, 1465.352
618.7993, 1462.104
619.2814, 1451.872
619.7635, 1450.870
620.2457, 1480.149
620.7278, 1511.102
621.2099, 1523.588
621.6920, 1517.032
622.1741, 1511.099
622.6563, 1509.736
623.1384, 1511.475
623.6205, 1516.258
624.1026, 1527.530
624.5847, 1532.198
625.0668, 1526.558
625.5490, 1518.633
626.0311, 1519.224
626.5132, 1529.539
626.9953, 1535.364
627.4774, 1532.843
627.9595, 1526.451
628.4417, 1522.602
628.9238, 1521.751
629.4059, 1526.242
629.8880, 1539.659
630.3701, 1557.449
630.8522, 1576.568
631.3344, 1596.305
631.8165, 1613.135
632.2986, 1621.966
632.7807, 1629.730
