##NAMES=Graftonite
##RRUFFID=R070153
##IDEAL CHEMISTRY=Fe^2+^Fe^2+^_2_(P^5+^O_4_)_2_
##LOCALITY=Bull Moose mine, Custer, Custer County, South Dakota, USA
##OWNER=RRUFF
##SOURCE=James Shigley
##DESCRIPTION=Dark brown vitreous massive
##STATUS=The identification of this mineral has been confirmed only by single crystal X-ray diffraction.
##URL=rruff.info/R070153
170.9677, 1297.816
171.4499, 1289.916
171.9320, 1294.856
172.4141, 1309.809
172.8962, 1325.163
173.3783, 1338.427
173.8604, 1348.181
174.3426, 1352.685
174.8247, 1351.154
175.3068, 1346.854
175.7889, 1337.612
176.2710, 1325.671
176.7531, 1322.563
177.2353, 1337.233
177.7174, 1358.530
178.1995, 1368.087
178.6816, 1363.207
179.1637, 1355.845
179.6458, 1352.859
180.1279, 1353.653
180.6101, 1354.626
181.0922, 1353.901
181.5743, 1353.747
182.0564, 1357.605
182.5385, 1366.476
183.0206, 1374.292
183.5028, 1376.466
183.9849, 1373.727
184.4670, 1370.533
184.9491, 1366.765
185.4312, 1364.564
185.9133, 1366.487
186.3955, 1372.904
186.8776, 1379.415
187.3597, 1384.000
187.8418, 1386.489
188.3239, 1385.098
188.8060, 1375.414
189.2882, 1366.138
189.7703, 1366.765
190.2524, 1377.285
190.7345, 1386.802
191.2166, 1386.701
191.6987, 1378.332
192.1809, 1370.918
192.6630, 1364.242
193.1451, 1361.328
193.6272, 1366.066
194.1093, 1377.616
194.5914, 1387.557
195.0736, 1388.389
195.5557, 1381.739
196.0378, 1378.431
196.5199, 1380.456
197.0020, 1385.373
197.4841, 1391.319
197.9663, 1398.270
198.4484, 1406.099
198.9305, 1416.007
199.4126, 1427.178
199.8947, 1435.157
200.3768, 1437.470
200.8590, 1439.455
201.3411, 1445.399
201.8232, 1453.956
202.3053, 1461.066
202.7874, 1464.309
203.2695, 1464.076
203.7517, 1461.612
204.2338, 1454.354
204.7159, 1449.100
205.1980, 1450.081
205.6801, 1455.469
206.1622, 1461.355
206.6444, 1465.919
207.1265, 1469.366
207.6086, 1472.920
208.0907, 1478.587
208.5728, 1480.330
209.0549, 1471.107
209.5371, 1457.147
210.0192, 1449.122
210.5013, 1455.300
210.9834, 1468.739
211.4655, 1471.047
211.9476, 1456.903
212.4298, 1443.250
212.9119, 1437.936
213.3940, 1437.017
213.8761, 1435.780
214.3582, 1431.938
214.8403, 1427.386
215.3225, 1426.534
215.8046, 1431.368
216.2867, 1434.115
216.7688, 1430.971
217.2509, 1424.816
217.7330, 1417.719
218.2152, 1409.849
218.6973, 1402.828
219.1794, 1399.520
219.6615, 1400.878
220.1436, 1402.240
220.6257, 1401.875
221.1079, 1401.070
221.5900, 1400.543
222.0721, 1400.409
222.5542, 1401.151
223.0363, 1404.756
223.5184, 1412.248
224.0006, 1415.204
224.4827, 1404.667
224.9648, 1393.402
225.4469, 1391.090
225.9290, 1398.968
226.4111, 1408.993
226.8933, 1413.556
227.3754, 1412.517
227.8575, 1410.573
228.3396, 1409.502
228.8217, 1406.518
229.3038, 1396.493
229.7859, 1380.634
230.2681, 1369.869
230.7502, 1374.838
231.2323, 1394.276
231.7144, 1413.949
232.1965, 1437.098
232.6786, 1454.405
233.1608, 1458.610
233.6429, 1452.191
234.1250, 1444.646
234.6071, 1439.409
235.0892, 1437.279
235.5714, 1443.066
236.0535, 1462.145
236.5356, 1480.292
237.0177, 1489.141
237.4998, 1491.360
237.9819, 1492.129
238.4641, 1492.683
238.9462, 1493.836
239.4283, 1498.118
239.9104, 1506.965
240.3925, 1515.112
240.8746, 1518.023
241.3568, 1518.921
241.8389, 1522.226
242.3210, 1529.566
242.8031, 1539.752
243.2852, 1552.804
243.7673, 1570.014
244.2495, 1583.036
244.7316, 1584.961
245.2137, 1581.981
245.6958, 1579.819
246.1779, 1578.781
246.6600, 1580.788
247.1422, 1590.624
247.6243, 1608.385
248.1064, 1620.355
248.5885, 1618.082
249.0706, 1610.857
249.5527, 1610.105
250.0349, 1617.665
250.5170, 1623.409
250.9991, 1618.167
251.4812, 1603.994
251.9633, 1592.843
252.4454, 1588.640
252.9276, 1586.580
253.4097, 1580.637
253.8918, 1570.997
254.3739, 1563.743
254.8560, 1564.402
255.3381, 1569.435
255.8203, 1570.887
256.3024, 1568.057
256.7845, 1560.561
257.2666, 1543.291
257.7487, 1519.430
258.2308, 1502.338
258.7130, 1503.413
259.1951, 1510.186
259.6772, 1503.069
260.1593, 1479.183
260.6414, 1457.745
261.1235, 1457.642
261.6057, 1471.260
262.0878, 1473.038
262.5699, 1449.179
263.0520, 1420.531
263.5341, 1404.835
264.0162, 1400.988
264.4984, 1396.965
264.9805, 1385.800
265.4626, 1370.278
265.9447, 1358.990
266.4268, 1355.053
266.9089, 1350.541
267.3911, 1340.735
267.8732, 1327.227
268.3553, 1313.954
268.8374, 1301.902
269.3195, 1291.791
269.8016, 1285.437
270.2838, 1282.858
270.7659, 1282.450
271.2480, 1287.142
271.7301, 1292.694
272.2122, 1292.527
272.6943, 1284.774
273.1765, 1273.609
273.6586, 1263.338
274.1407, 1253.020
274.6228, 1248.957
275.1049, 1255.405
275.5870, 1265.618
276.0692, 1276.070
276.5513, 1285.609
277.0334, 1291.119
277.5155, 1289.574
277.9976, 1280.431
278.4797, 1269.873
278.9619, 1252.200
279.4440, 1238.697
279.9261, 1235.792
280.4082, 1241.624
280.8903, 1251.652
281.3724, 1264.060
281.8546, 1277.307
282.3367, 1282.092
282.8188, 1272.238
283.3009, 1261.737
283.7830, 1249.857
284.2651, 1239.627
284.7473, 1235.059
285.2294, 1237.794
285.7115, 1245.807
286.1936, 1255.407
286.6757, 1273.114
287.1578, 1281.785
287.6400, 1274.175
288.1221, 1262.993
288.6042, 1258.473
289.0863, 1262.064
289.5684, 1267.718
290.0505, 1267.792
290.5327, 1260.162
291.0148, 1255.875
291.4969, 1257.005
291.9790, 1259.250
292.4611, 1261.801
292.9432, 1263.989
293.4254, 1264.592
293.9075, 1262.104
294.3896, 1257.063
294.8717, 1255.924
295.3538, 1262.854
295.8359, 1268.589
296.3181, 1271.567
296.8002, 1271.840
297.2823, 1268.596
297.7644, 1260.882
298.2465, 1252.065
298.7286, 1250.432
299.2108, 1259.995
299.6929, 1266.206
300.1750, 1261.957
300.6571, 1255.743
301.1392, 1254.256
301.6213, 1258.786
302.1035, 1265.192
302.5855, 1268.606
303.0677, 1268.866
303.5498, 1271.757
304.0319, 1282.785
304.5140, 1291.272
304.9961, 1289.184
305.4782, 1278.063
305.9604, 1265.879
306.4425, 1257.059
306.9246, 1250.806
307.4067, 1245.005
307.8888, 1239.821
308.3709, 1234.626
308.8531, 1227.027
309.3352, 1219.346
309.8173, 1216.399
310.2994, 1223.022
310.7815, 1231.336
311.2636, 1233.190
311.7458, 1228.721
312.2279, 1220.806
312.7100, 1208.149
313.1921, 1194.563
313.6742, 1186.732
314.1563, 1185.519
314.6385, 1187.476
315.1206, 1195.134
315.6027, 1204.476
316.0848, 1205.654
316.5669, 1195.120
317.0490, 1179.609
317.5312, 1167.195
318.0133, 1157.772
318.4954, 1150.932
318.9775, 1149.793
319.4596, 1149.213
319.9417, 1142.329
320.4239, 1129.751
320.9060, 1120.789
321.3881, 1124.339
321.8702, 1139.785
322.3523, 1146.835
322.8344, 1140.226
323.3166, 1132.353
323.7987, 1126.209
324.2808, 1122.175
324.7629, 1121.376
325.2450, 1124.624
325.7271, 1129.302
326.2093, 1128.504
326.6914, 1115.549
327.1735, 1105.909
327.6556, 1099.824
328.1377, 1096.979
328.6198, 1098.915
329.1020, 1105.016
329.5841, 1110.603
330.0662, 1109.266
330.5483, 1098.492
331.0304, 1093.587
331.5125, 1100.548
331.9947, 1107.538
332.4768, 1111.762
332.9589, 1112.535
333.4410, 1108.869
333.9231, 1098.947
334.4052, 1085.271
334.8874, 1077.529
335.3695, 1076.315
335.8516, 1080.523
336.3337, 1095.335
336.8158, 1112.067
337.2979, 1121.483
337.7801, 1120.636
338.2622, 1115.512
338.7443, 1113.262
339.2264, 1114.067
339.7085, 1112.692
340.1906, 1104.677
340.6728, 1098.043
341.1549, 1100.187
341.6370, 1110.147
342.1191, 1119.549
342.6012, 1123.460
343.0833, 1123.874
343.5655, 1125.442
344.0476, 1128.983
344.5297, 1130.828
345.0118, 1126.859
345.4939, 1119.301
345.9760, 1114.267
346.4582, 1114.470
346.9403, 1115.205
347.4224, 1113.245
347.9045, 1109.081
348.3866, 1103.375
348.8687, 1094.925
349.3509, 1087.920
349.8330, 1093.456
350.3151, 1118.793
350.7972, 1134.021
351.2793, 1123.451
351.7614, 1105.992
352.2436, 1102.742
352.7257, 1116.204
353.2078, 1132.867
353.6899, 1139.958
354.1720, 1136.865
354.6541, 1129.679
355.1363, 1112.062
355.6184, 1097.754
356.1005, 1093.080
356.5826, 1095.391
357.0647, 1100.242
357.5468, 1105.548
358.0290, 1110.112
358.5111, 1110.111
358.9932, 1101.088
359.4753, 1095.105
359.9574, 1094.927
360.4395, 1096.462
360.9217, 1097.609
361.4038, 1097.557
361.8859, 1095.277
362.3680, 1087.623
362.8501, 1074.128
363.3322, 1068.170
363.8144, 1075.513
364.2965, 1083.596
364.7786, 1087.444
365.2607, 1087.948
365.7428, 1087.163
366.2249, 1086.737
366.7071, 1084.516
367.1892, 1074.413
367.6713, 1054.890
368.1534, 1041.674
368.6355, 1044.078
369.1176, 1053.305
369.5998, 1058.259
370.0819, 1057.906
370.5640, 1057.121
371.0461, 1058.556
371.5282, 1061.395
372.0103, 1064.570
372.4925, 1068.255
372.9746, 1069.787
373.4567, 1064.328
373.9388, 1052.492
374.4209, 1049.354
374.9030, 1064.733
375.3852, 1080.625
375.8673, 1086.332
376.3494, 1083.564
376.8315, 1077.247
377.3136, 1069.098
377.7957, 1061.296
378.2779, 1059.586
378.7600, 1072.072
379.2421, 1079.816
379.7242, 1077.745
380.2063, 1073.916
380.6884, 1075.283
381.1706, 1082.559
381.6527, 1091.626
382.1348, 1097.927
382.6169, 1101.073
383.0990, 1108.828
383.5811, 1132.681
384.0633, 1148.439
384.5454, 1143.082
385.0275, 1127.402
385.5096, 1117.427
385.9917, 1120.457
386.4738, 1130.698
386.9560, 1139.422
387.4381, 1146.923
387.9202, 1150.749
388.4023, 1145.302
388.8844, 1140.198
389.3665, 1141.903
389.8487, 1150.599
390.3308, 1163.682
390.8129, 1185.112
391.2950, 1208.795
391.7771, 1220.106
392.2592, 1216.585
392.7414, 1210.977
393.2235, 1211.420
393.7056, 1216.064
394.1877, 1218.630
394.6698, 1215.748
395.1519, 1214.917
395.6341, 1222.309
396.1162, 1234.339
396.5983, 1241.942
397.0804, 1241.701
397.5625, 1241.727
398.0446, 1254.655
398.5268, 1287.332
399.0089, 1311.005
399.4910, 1322.740
399.9731, 1328.289
400.4552, 1327.833
400.9373, 1323.789
401.4194, 1320.301
401.9016, 1319.480
402.3837, 1322.609
402.8658, 1336.336
403.3479, 1373.815
403.8300, 1400.831
404.3121, 1404.506
404.7943, 1402.953
405.2764, 1413.012
405.7585, 1436.812
406.2406, 1461.437
406.7227, 1471.424
407.2048, 1467.604
407.6870, 1471.587
408.1691, 1487.551
408.6512, 1505.564
409.1333, 1519.577
409.6154, 1531.855
410.0975, 1547.181
410.5797, 1570.007
411.0618, 1591.754
411.5439, 1600.442
412.0260, 1598.327
412.5081, 1601.892
412.9902, 1618.686
413.4724, 1639.528
413.9545, 1648.712
414.4366, 1645.097
414.9187, 1647.226
415.4008, 1670.162
415.8829, 1692.265
416.3651, 1689.318
416.8472, 1664.323
417.3293, 1641.675
417.8114, 1638.557
418.2935, 1650.274
418.7756, 1651.567
419.2578, 1626.117
419.7399, 1610.540
420.2220, 1618.127
420.7041, 1631.368
421.1862, 1633.711
421.6683, 1621.830
422.1505, 1602.947
422.6326, 1583.873
423.1147, 1564.432
423.5968, 1547.713
424.0789, 1534.484
424.5610, 1523.254
425.0432, 1514.581
425.5253, 1507.127
426.0074, 1498.577
426.4895, 1487.500
426.9716, 1476.739
427.4537, 1469.800
427.9359, 1466.572
428.4180, 1465.063
428.9001, 1464.583
429.3822, 1466.044
429.8643, 1470.705
430.3464, 1478.302
430.8286, 1487.151
431.3107, 1500.338
431.7928, 1512.140
432.2749, 1514.107
432.7570, 1508.227
433.2391, 1506.504
433.7213, 1515.731
434.2034, 1533.032
434.6855, 1549.773
435.1676, 1569.745
435.6497, 1583.397
436.1318, 1583.049
436.6140, 1580.995
437.0961, 1587.149
437.5782, 1602.545
438.0603, 1622.937
438.5424, 1644.639
439.0245, 1667.767
439.5067, 1694.208
439.9888, 1730.315
440.4709, 1759.784
440.9530, 1772.358
441.4351, 1780.088
441.9172, 1796.460
442.3994, 1825.172
442.8815, 1858.115
443.3636, 1889.515
443.8457, 1918.854
444.3278, 1940.770
444.8099, 1950.532
445.2921, 1961.993
445.7742, 1988.059
446.2563, 2024.783
446.7384, 2062.353
447.2205, 2098.337
447.7026, 2135.122
448.1848, 2174.931
448.6669, 2216.720
449.1490, 2259.070
449.6311, 2302.627
450.1132, 2341.086
450.5953, 2365.046
451.0775, 2370.451
451.5596, 2371.821
452.0417, 2362.081
452.5238, 2355.258
453.0059, 2364.761
453.4880, 2382.934
453.9702, 2392.596
454.4523, 2384.173
454.9344, 2361.369
455.4165, 2330.800
455.8986, 2285.687
456.3807, 2251.814
456.8629, 2243.384
457.3450, 2239.848
457.8271, 2232.083
458.3092, 2218.855
458.7913, 2200.093
459.2734, 2170.824
459.7556, 2137.639
460.2377, 2115.342
460.7198, 2105.055
461.2019, 2089.529
461.6840, 2058.915
462.1661, 2019.563
462.6483, 1983.360
463.1304, 1949.844
463.6125, 1920.851
464.0946, 1901.604
464.5767, 1884.396
465.0588, 1859.952
465.5410, 1828.172
466.0231, 1796.100
466.5052, 1769.201
466.9873, 1746.834
467.4694, 1724.170
467.9515, 1696.797
468.4337, 1674.792
468.9158, 1662.813
469.3979, 1654.376
469.8800, 1645.286
470.3621, 1633.912
470.8442, 1618.380
471.3264, 1594.326
471.8085, 1563.171
472.2906, 1537.712
472.7727, 1519.696
473.2548, 1503.766
473.7369, 1490.252
474.2191, 1476.335
474.7012, 1457.081
475.1833, 1429.613
475.6654, 1403.386
476.1475, 1384.158
476.6296, 1370.518
477.1118, 1361.025
477.5939, 1355.549
478.0760, 1349.170
478.5581, 1336.177
479.0402, 1316.768
479.5223, 1306.093
480.0045, 1318.897
480.4866, 1321.710
480.9687, 1298.427
481.4508, 1262.950
481.9329, 1229.906
482.4150, 1204.377
482.8972, 1188.653
483.3793, 1188.576
483.8614, 1206.128
484.3435, 1213.885
484.8256, 1208.290
485.3077, 1197.092
485.7899, 1179.835
486.2720, 1160.699
486.7541, 1145.816
487.2362, 1137.207
487.7183, 1132.100
488.2004, 1130.617
488.6826, 1130.914
489.1647, 1124.753
489.6468, 1109.181
490.1289, 1093.760
490.6110, 1088.219
491.0931, 1092.162
491.5753, 1090.870
492.0574, 1080.615
492.5395, 1069.358
493.0216, 1060.678
493.5037, 1052.839
493.9858, 1041.338
494.4680, 1025.494
494.9501, 1012.381
495.4322, 1012.790
495.9143, 1029.322
496.3964, 1037.445
496.8785, 1030.167
497.3607, 1022.213
497.8428, 1021.049
498.3249, 1021.007
498.8070, 1012.371
499.2891, 990.7672
499.7712, 968.8962
500.2533, 961.6454
500.7354, 966.0157
501.2176, 966.6213
501.6997, 960.0021
502.1818, 953.6349
502.6639, 954.5121
503.1460, 961.3664
503.6281, 964.9235
504.1103, 965.4995
504.5924, 962.1395
505.0745, 950.8315
505.5566, 936.6823
506.0387, 928.2155
506.5208, 927.0313
507.0030, 926.3635
507.4851, 917.5247
507.9672, 899.6402
508.4493, 890.7458
508.9314, 899.0843
509.4135, 906.3402
509.8957, 909.0472
510.3778, 907.7667
510.8599, 901.4955
511.3420, 889.9405
511.8241, 880.3126
512.3063, 881.2151
512.7884, 889.8934
513.2705, 896.1318
513.7526, 899.1278
514.2347, 898.9287
514.7169, 893.6998
515.1990, 885.4300
515.6811, 881.5659
516.1632, 884.3776
516.6453, 887.8989
517.1274, 893.4069
517.6096, 897.0036
518.0917, 891.6806
518.5738, 878.0538
519.0559, 865.9736
519.5380, 864.7619
520.0201, 872.7270
520.5023, 873.7943
520.9844, 861.0562
521.4665, 852.9641
521.9486, 856.1271
522.4307, 862.7130
522.9128, 866.3347
523.3950, 866.2112
523.8771, 865.2588
524.3592, 864.7341
524.8413, 864.9950
525.3234, 867.7571
525.8055, 873.2092
526.2877, 876.2745
526.7698, 873.2725
527.2519, 867.5967
527.7340, 867.3337
528.2161, 874.4205
528.6982, 880.1347
529.1804, 883.9130
529.6625, 885.4060
530.1446, 883.0829
530.6267, 878.1104
531.1088, 874.2474
531.5909, 874.0069
532.0731, 874.6843
532.5552, 867.7939
533.0373, 848.0837
533.5194, 837.4298
534.0015, 845.3951
534.4836, 856.9838
534.9658, 864.3490
535.4479, 868.1853
535.9300, 872.2471
536.4121, 879.2931
536.8942, 885.7833
537.3763, 886.7847
537.8585, 883.7369
538.3406, 881.8154
538.8227, 882.2405
539.3048, 886.1912
539.7869, 896.6628
540.2690, 915.8222
540.7512, 924.5201
541.2333, 913.6545
541.7154, 903.7761
542.1975, 902.7581
542.6796, 906.7807
543.1617, 910.3808
543.6439, 911.8679
544.1260, 913.2419
544.6081, 918.5273
545.0902, 927.3101
545.5723, 928.0212
546.0544, 915.6443
546.5366, 906.1275
547.0187, 909.7814
547.5008, 920.6673
547.9829, 931.1926
548.4650, 941.6857
548.9471, 948.3810
549.4292, 947.6001
549.9113, 943.0735
550.3934, 938.0691
550.8755, 933.5683
551.3577, 932.5203
551.8398, 937.6347
552.3219, 946.3063
552.8040, 948.2090
553.2861, 934.6612
553.7682, 929.6194
554.2504, 942.4209
554.7325, 956.2208
555.2146, 958.8607
555.6967, 952.7874
556.1788, 949.3095
556.6609, 956.2335
557.1431, 966.5900
557.6252, 968.0230
558.1073, 961.6108
558.5894, 961.0941
559.0715, 971.9365
559.5536, 985.2996
560.0358, 990.6279
560.5179, 987.1844
561.0000, 989.0437
561.4821, 1001.392
561.9642, 1013.503
562.4464, 1022.075
562.9285, 1027.307
563.4106, 1028.470
563.8927, 1025.921
564.3748, 1023.605
564.8569, 1026.381
565.3391, 1033.975
565.8212, 1040.450
566.3033, 1046.391
566.7854, 1049.921
567.2675, 1048.745
567.7496, 1045.472
568.2318, 1041.896
568.7139, 1037.793
569.1960, 1036.995
569.6781, 1044.508
570.1602, 1054.171
570.6423, 1056.965
571.1245, 1054.328
571.6066, 1056.525
572.0887, 1069.467
572.5708, 1087.972
573.0529, 1099.635
573.5350, 1097.428
574.0172, 1104.726
574.4993, 1133.699
574.9814, 1159.481
575.4635, 1166.295
575.9456, 1162.820
576.4277, 1167.217
576.9099, 1188.201
577.3920, 1212.114
577.8741, 1220.763
578.3562, 1219.295
578.8383, 1228.211
579.3204, 1251.086
579.8026, 1281.808
580.2847, 1319.254
580.7668, 1360.889
581.2489, 1389.787
581.7310, 1392.754
582.2131, 1402.728
582.6953, 1430.758
583.1774, 1463.123
583.6595, 1488.265
584.1416, 1505.854
584.6237, 1522.685
585.1058, 1543.722
585.5880, 1566.375
586.0701, 1585.304
586.5522, 1600.814
587.0343, 1609.238
587.5164, 1605.119
587.9985, 1599.788
588.4807, 1607.153
588.9628, 1624.344
589.4449, 1634.551
589.9270, 1631.579
590.4091, 1624.743
590.8912, 1618.549
591.3734, 1611.740
591.8555, 1603.531
592.3376, 1593.149
592.8197, 1576.585
593.3018, 1547.466
593.7839, 1507.773
594.2661, 1483.881
594.7482, 1487.866
595.2303, 1483.157
595.7124, 1453.979
596.1945, 1415.503
596.6766, 1379.060
597.1588, 1345.228
597.6409, 1310.376
598.1230, 1271.934
598.6051, 1232.501
599.0872, 1190.981
599.5693, 1150.428
600.0515, 1122.563
600.5336, 1112.133
601.0157, 1106.727
601.4978, 1089.044
601.9799, 1057.083
602.4620, 1027.030
602.9442, 997.9349
603.4263, 972.3552
603.9084, 948.9062
604.3905, 930.1956
604.8726, 921.6902
605.3547, 923.9243
605.8369, 924.8493
606.3190, 912.8094
606.8011, 895.1049
607.2832, 885.3946
607.7653, 883.5961
608.2474, 882.1488
608.7296, 877.8064
609.2117, 871.6989
609.6938, 865.5466
610.1759, 858.5011
610.6580, 854.3351
611.1401, 856.6997
611.6223, 857.7016
612.1044, 852.5549
612.5865, 844.6629
613.0686, 838.9240
613.5507, 836.8255
614.0328, 837.0239
614.5150, 839.2238
614.9971, 842.6707
615.4792, 844.3188
615.9613, 843.8082
616.4434, 844.8213
616.9255, 850.2404
617.4077, 857.1973
617.8898, 859.0684
618.3719, 852.4457
618.8540, 849.8817
619.3361, 854.0211
619.8182, 860.1712
620.3004, 869.1450
620.7825, 877.3668
621.2646, 877.5583
621.7467, 866.9486
622.2288, 854.6585
622.7109, 853.9832
623.1931, 862.4545
623.6752, 862.3908
624.1573, 850.8198
624.6394, 839.9764
625.1215, 835.5703
625.6036, 836.7006
626.0858, 842.7718
626.5679, 857.9486
627.0500, 865.4647
627.5321, 854.3434
628.0142, 842.7360
628.4963, 844.2383
628.9785, 854.5155
629.4606, 862.7834
629.9427, 864.4269
630.4248, 863.2711
630.9069, 864.2960
631.3890, 867.3607
631.8712, 870.0204
632.3533, 871.2920
632.8354, 875.1157
633.3175, 884.8854
633.7996, 898.0188
634.2817, 909.1818
634.7639, 918.6021
635.2460, 925.4470
635.7281, 924.5913
636.2102, 925.4672
636.6923, 936.9397
637.1744, 955.3505
637.6566, 971.6719
638.1387, 982.0809
638.6208, 989.5677
639.1029, 998.5965
639.5850, 1009.089
640.0671, 1015.715
640.5493, 1015.977
641.0314, 1019.698
641.5135, 1036.236
641.9956, 1057.121
642.4777, 1064.060
642.9598, 1051.618
643.4420, 1045.595
643.9241, 1060.000
644.4062, 1074.630
644.8883, 1075.044
645.3704, 1064.447
645.8525, 1051.742
646.3347, 1040.483
646.8168, 1027.450
647.2989, 1006.611
647.7810, 978.6094
648.2631, 955.0793
648.7452, 936.6085
649.2274, 921.7774
649.7095, 910.5536
650.1916, 902.2341
650.6737, 896.1424
651.1558, 893.3293
651.6379, 887.5400
652.1201, 873.5540
652.6022, 860.2911
653.0843, 855.8116
653.5664, 855.4028
654.0485, 848.5966
654.5306, 832.3925
655.0128, 816.7252
655.4949, 815.3948
655.9770, 825.9830
656.4591, 831.0113
656.9412, 830.7718
657.4233, 822.6277
657.9055, 800.8759
658.3876, 775.3648
658.8697, 762.0808
659.3518, 762.0237
659.8339, 761.5658
660.3160, 757.7213
660.7982, 755.0504
661.2803, 757.2666
661.7624, 761.3474
662.2445, 762.7485
662.7266, 760.5240
663.2087, 757.4605
663.6909, 755.3123
664.1730, 754.5859
664.6551, 758.7787
665.1372, 768.5383
665.6193, 772.8450
666.1014, 767.0632
666.5836, 756.4126
667.0657, 745.8489
667.5478, 735.2070
668.0299, 728.7373
668.5120, 731.0291
