##NAMES=Grandreefite
##RRUFFID=R100012
##IDEAL CHEMISTRY=Pb^2+^_2_(S^6+^O_4_)F_2_
##LOCALITY=Grand Reef mine, Klondyke, Aravaipa District, Graham County, Arizona, USA
##OWNER=RRUFF
##SOURCE=Natural History Museum of Los Angeles County
##DESCRIPTION=Colorless fragments from type specimen, associated with laurelite R100035 and pseudograndreefite R100006.  Photos of type specimen are courtesy of LACMNH.
##STATUS=The identification of this mineral has been confirmed by single-crystal X-ray diffraction.
##URL=rruff.info/R100012
92.49744, 4251.029
92.97955, 4306.647
93.46167, 4376.264
93.94379, 4399.951
94.42590, 4401.283
94.90802, 4390.802
95.39014, 4369.619
95.87225, 4338.014
96.35437, 4298.469
96.83649, 4255.848
97.31860, 4210.439
97.80072, 4161.049
98.28284, 4102.118
98.76495, 4031.888
99.24707, 3961.069
99.72919, 3886.754
100.2113, 3816.237
100.6934, 3748.340
101.1755, 3684.160
101.6577, 3626.724
102.1398, 3577.906
102.6219, 3537.832
103.1040, 3505.459
103.5861, 3481.666
104.0682, 3461.549
104.5504, 3442.020
105.0325, 3422.665
105.5146, 3405.094
105.9967, 3391.338
106.4788, 3381.608
106.9609, 3374.922
107.4431, 3371.634
107.9252, 3371.006
108.4073, 3371.939
108.8894, 3373.817
109.3715, 3377.608
109.8536, 3385.358
110.3358, 3397.589
110.8179, 3410.195
111.3000, 3421.091
111.7821, 3430.404
112.2642, 3439.380
112.7463, 3448.524
113.2285, 3457.494
113.7106, 3466.307
114.1927, 3475.270
114.6748, 3483.071
115.1569, 3487.564
115.6390, 3487.797
116.1212, 3486.989
116.6033, 3486.133
117.0854, 3484.853
117.5675, 3482.547
118.0496, 3478.744
118.5317, 3473.888
119.0139, 3470.223
119.4960, 3468.210
119.9781, 3467.048
120.4602, 3467.576
120.9423, 3468.797
121.4244, 3468.990
121.9066, 3466.672
122.3887, 3461.554
122.8708, 3457.868
123.3529, 3456.157
123.8350, 3454.978
124.3171, 3453.313
124.7993, 3451.294
125.2814, 3450.128
125.7635, 3451.103
126.2456, 3454.737
126.7277, 3458.747
127.2098, 3462.159
127.6920, 3466.324
128.1741, 3472.449
128.6562, 3480.629
129.1383, 3491.231
129.6204, 3504.802
130.1025, 3520.883
130.5847, 3540.097
131.0668, 3564.791
131.5489, 3593.280
132.0310, 3619.447
132.5131, 3641.005
132.9952, 3661.205
133.4774, 3683.849
133.9595, 3708.957
134.4416, 3732.792
134.9237, 3753.467
135.4058, 3771.760
135.8879, 3782.105
136.3701, 3784.675
136.8522, 3778.044
137.3343, 3760.164
137.8164, 3730.475
138.2985, 3690.834
138.7806, 3642.817
139.2628, 3580.036
139.7449, 3520.108
140.2270, 3462.811
140.7091, 3409.267
141.1912, 3360.256
141.6733, 3316.352
142.1555, 3277.281
142.6376, 3242.975
143.1197, 3214.736
143.6018, 3190.262
144.0839, 3170.256
144.5660, 3153.793
145.0482, 3139.513
145.5303, 3126.672
146.0124, 3115.340
146.4945, 3105.879
146.9766, 3097.128
147.4587, 3090.817
147.9409, 3088.812
148.4230, 3090.384
148.9051, 3092.218
149.3872, 3091.767
149.8693, 3089.659
150.3514, 3089.532
150.8336, 3093.560
151.3157, 3098.308
151.7978, 3100.340
152.2799, 3099.251
152.7620, 3097.999
153.2441, 3098.571
153.7263, 3100.540
154.2084, 3103.555
154.6905, 3108.521
155.1726, 3114.306
155.6547, 3118.172
156.1368, 3118.946
156.6190, 3119.855
157.1011, 3123.217
157.5832, 3127.970
158.0653, 3132.033
158.5474, 3133.364
159.0295, 3132.304
159.5117, 3133.528
159.9938, 3139.518
160.4759, 3145.512
160.9580, 3150.177
161.4401, 3153.443
161.9222, 3155.532
162.4044, 3156.555
162.8865, 3156.403
163.3686, 3155.725
163.8507, 3155.261
164.3328, 3153.703
164.8149, 3150.260
165.2971, 3144.992
165.7792, 3138.667
166.2613, 3132.132
166.7434, 3125.629
167.2255, 3118.134
167.7076, 3108.295
168.1898, 3098.510
168.6719, 3091.086
169.1540, 3086.274
169.6361, 3081.899
170.1182, 3074.729
170.6003, 3063.141
171.0825, 3052.819
171.5646, 3044.376
172.0467, 3037.215
172.5288, 3030.592
173.0109, 3024.258
173.4930, 3018.670
173.9752, 3014.897
174.4573, 3012.976
174.9394, 3011.391
175.4215, 3009.344
175.9036, 3007.295
176.3857, 3006.524
176.8679, 3007.924
177.3500, 3009.880
177.8321, 3010.102
178.3142, 3008.466
178.7963, 3006.781
179.2784, 3005.637
179.7606, 3005.129
180.2427, 3006.289
180.7248, 3010.866
181.2069, 3015.991
181.6890, 3018.823
182.1711, 3019.089
182.6533, 3019.100
183.1354, 3021.285
183.6175, 3025.961
184.0996, 3030.341
184.5817, 3034.306
185.0638, 3037.450
185.5460, 3038.825
186.0281, 3038.321
186.5102, 3037.728
186.9923, 3039.893
187.4744, 3046.253
187.9565, 3051.542
188.4387, 3053.495
188.9208, 3055.235
189.4029, 3058.915
189.8850, 3065.224
190.3671, 3073.379
190.8492, 3082.181
191.3314, 3092.329
191.8135, 3101.848
192.2956, 3109.757
192.7777, 3117.440
193.2598, 3126.199
193.7419, 3136.508
194.2241, 3147.823
194.7062, 3158.808
195.1883, 3168.952
195.6704, 3179.418
196.1525, 3190.189
196.6346, 3201.274
197.1168, 3212.828
197.5989, 3224.946
198.0810, 3237.298
198.5631, 3248.894
199.0452, 3259.337
199.5273, 3269.631
200.0095, 3279.345
200.4916, 3289.064
200.9737, 3300.040
201.4558, 3313.122
201.9379, 3327.344
202.4200, 3340.158
202.9022, 3351.109
203.3843, 3361.757
203.8664, 3373.825
204.3485, 3386.209
204.8306, 3395.295
205.3127, 3398.394
205.7949, 3398.474
206.2770, 3402.614
206.7591, 3413.354
207.2412, 3422.456
207.7233, 3424.559
208.2054, 3420.492
208.6876, 3415.321
209.1697, 3411.085
209.6518, 3406.589
210.1339, 3400.383
210.6160, 3392.325
211.0981, 3382.876
211.5803, 3372.654
212.0624, 3361.691
212.5445, 3348.568
213.0266, 3330.505
213.5087, 3311.548
213.9908, 3295.843
214.4730, 3284.487
214.9551, 3274.175
215.4372, 3261.444
215.9193, 3245.886
216.4014, 3230.219
216.8836, 3215.398
217.3657, 3200.573
217.8478, 3185.028
218.3299, 3168.661
218.8120, 3151.747
219.2941, 3134.272
219.7763, 3115.367
220.2584, 3098.877
220.7405, 3086.559
221.2226, 3075.937
221.7047, 3065.703
222.1868, 3055.438
222.6690, 3044.957
223.1511, 3033.792
223.6332, 3021.088
224.1153, 3009.573
224.5974, 3000.454
225.0795, 2991.859
225.5617, 2982.170
226.0438, 2971.035
226.5259, 2959.671
227.0080, 2950.377
227.4901, 2945.164
227.9722, 2938.471
228.4544, 2929.106
228.9365, 2919.068
229.4186, 2909.882
229.9007, 2902.016
230.3828, 2895.031
230.8649, 2888.309
231.3471, 2882.438
231.8292, 2875.755
232.3113, 2867.641
232.7934, 2859.155
233.2755, 2851.397
233.7576, 2844.619
234.2398, 2837.723
234.7219, 2828.865
235.2040, 2815.253
235.6861, 2804.771
236.1682, 2799.548
236.6503, 2796.197
237.1325, 2792.204
237.6146, 2786.831
238.0967, 2779.963
238.5788, 2771.229
239.0609, 2759.505
239.5430, 2748.501
240.0252, 2739.288
240.5073, 2730.430
240.9894, 2720.024
241.4715, 2707.586
241.9536, 2695.375
242.4357, 2686.654
242.9179, 2682.412
243.4000, 2677.511
243.8821, 2670.419
244.3642, 2662.966
244.8463, 2657.204
245.3284, 2653.547
245.8106, 2651.051
246.2927, 2649.201
246.7748, 2648.109
247.2569, 2645.258
247.7390, 2638.375
248.2211, 2630.340
248.7033, 2625.250
249.1854, 2624.073
249.6675, 2622.890
250.1496, 2616.544
250.6317, 2605.938
251.1138, 2597.763
251.5960, 2595.110
252.0781, 2594.880
252.5602, 2593.058
253.0423, 2589.144
253.5244, 2584.578
254.0065, 2580.492
254.4887, 2576.755
254.9708, 2573.007
255.4529, 2568.703
255.9350, 2564.539
256.4171, 2561.583
256.8992, 2559.992
257.3813, 2559.040
257.8635, 2558.687
258.3456, 2558.591
258.8277, 2558.146
259.3098, 2556.989
259.7919, 2555.491
260.2740, 2554.212
260.7562, 2553.213
261.2383, 2552.118
261.7204, 2550.520
262.2025, 2548.719
262.6846, 2547.092
263.1667, 2545.829
263.6489, 2544.668
264.1310, 2543.304
264.6131, 2541.776
265.0952, 2539.859
265.5773, 2537.094
266.0594, 2534.052
266.5416, 2531.401
267.0237, 2529.548
267.5058, 2527.568
267.9879, 2523.469
268.4700, 2516.370
268.9521, 2511.414
269.4343, 2513.506
269.9164, 2516.868
270.3985, 2516.894
270.8806, 2512.332
271.3627, 2505.924
271.8448, 2500.781
272.3270, 2496.970
272.8091, 2493.944
273.2912, 2491.931
273.7733, 2490.456
274.2554, 2489.513
274.7375, 2489.038
275.2197, 2488.392
275.7018, 2486.742
276.1839, 2483.922
276.6660, 2481.141
277.1481, 2478.813
277.6302, 2476.365
278.1124, 2473.129
278.5945, 2469.253
279.0766, 2465.914
279.5587, 2464.829
280.0408, 2466.430
280.5229, 2466.438
281.0051, 2463.056
281.4872, 2459.380
281.9693, 2456.811
282.4514, 2455.168
282.9335, 2453.432
283.4156, 2450.840
283.8978, 2447.386
284.3799, 2443.216
284.8620, 2436.729
285.3441, 2431.155
285.8262, 2427.618
286.3083, 2425.841
286.7905, 2425.166
287.2726, 2425.403
287.7547, 2426.375
288.2368, 2426.374
288.7189, 2423.804
289.2010, 2422.158
289.6832, 2423.574
290.1653, 2426.264
290.6474, 2427.369
291.1295, 2425.038
291.6116, 2420.276
292.0938, 2417.297
292.5759, 2418.376
293.0580, 2417.995
293.5401, 2413.687
294.0222, 2408.028
294.5043, 2404.116
294.9865, 2403.376
295.4686, 2404.439
295.9507, 2403.906
296.4328, 2400.661
296.9149, 2397.759
297.3970, 2395.385
297.8792, 2393.558
298.3613, 2392.686
298.8434, 2392.782
299.3255, 2392.846
299.8076, 2390.978
300.2897, 2385.762
300.7719, 2381.796
301.2540, 2378.906
301.7361, 2377.354
302.2182, 2378.304
302.7003, 2381.411
303.1824, 2384.200
303.6646, 2383.067
304.1467, 2376.017
304.6288, 2372.358
305.1109, 2375.223
305.5930, 2378.498
306.0751, 2379.421
306.5573, 2378.056
307.0394, 2375.992
307.5215, 2374.717
308.0036, 2374.336
308.4857, 2373.050
308.9678, 2369.424
309.4500, 2366.265
309.9321, 2364.621
310.4142, 2364.062
310.8963, 2363.610
311.3784, 2362.598
311.8605, 2361.112
312.3427, 2359.849
312.8248, 2359.307
313.3069, 2358.387
313.7890, 2356.297
314.2711, 2353.903
314.7532, 2352.363
315.2354, 2352.283
315.7175, 2353.211
316.1996, 2353.906
316.6817, 2354.707
317.1638, 2354.669
317.6459, 2353.330
318.1281, 2351.424
318.6102, 2349.541
319.0923, 2347.883
319.5744, 2346.372
320.0565, 2344.972
320.5386, 2344.061
321.0208, 2342.328
321.5029, 2338.734
321.9850, 2335.159
322.4671, 2332.437
322.9492, 2330.829
323.4313, 2330.528
323.9135, 2332.376
324.3956, 2337.414
324.8777, 2339.136
325.3598, 2333.294
325.8419, 2328.050
326.3240, 2327.368
326.8062, 2330.122
327.2883, 2332.440
327.7704, 2331.003
328.2525, 2326.142
328.7346, 2323.678
329.2167, 2326.405
329.6989, 2328.507
330.1810, 2328.884
330.6631, 2327.707
331.1452, 2325.008
331.6273, 2320.595
332.1094, 2315.397
332.5916, 2312.422
333.0737, 2313.093
333.5558, 2313.688
334.0379, 2313.573
334.5200, 2313.091
335.0021, 2312.443
335.4843, 2311.709
335.9664, 2311.108
336.4485, 2311.198
336.9306, 2312.543
337.4127, 2312.838
337.8948, 2310.833
338.3770, 2308.527
338.8591, 2307.015
339.3412, 2306.408
339.8233, 2306.241
340.3055, 2306.283
340.7876, 2306.633
341.2697, 2306.131
341.7518, 2303.927
342.2339, 2301.651
342.7160, 2300.326
343.1982, 2299.462
343.6803, 2297.696
344.1624, 2293.534
344.6445, 2287.825
345.1266, 2285.119
345.6087, 2287.787
346.0909, 2289.658
346.5730, 2288.212
347.0551, 2285.106
347.5372, 2282.269
348.0193, 2280.364
348.5014, 2279.397
348.9836, 2279.659
349.4657, 2281.703
349.9478, 2283.116
350.4299, 2283.184
350.9120, 2282.432
351.3941, 2280.953
351.8763, 2278.794
352.3584, 2276.543
352.8405, 2274.813
353.3226, 2273.609
353.8047, 2272.479
354.2868, 2271.307
354.7690, 2270.274
355.2511, 2268.949
355.7332, 2267.661
356.2153, 2267.709
356.6974, 2271.725
357.1795, 2278.054
357.6617, 2279.604
358.1438, 2274.099
358.6259, 2268.355
359.1080, 2266.228
359.5901, 2266.408
360.0722, 2267.082
360.5544, 2268.215
361.0365, 2268.853
361.5186, 2267.169
362.0007, 2262.809
362.4828, 2258.905
362.9649, 2256.510
363.4471, 2255.415
363.9292, 2255.849
364.4113, 2258.344
364.8934, 2260.052
365.3755, 2258.150
365.8576, 2253.283
366.3398, 2248.913
366.8219, 2245.571
367.3040, 2243.366
367.7861, 2242.454
368.2682, 2242.736
368.7503, 2243.605
369.2325, 2245.832
369.7146, 2248.209
370.1967, 2248.373
370.6788, 2245.868
371.1609, 2242.760
371.6430, 2240.541
372.1252, 2238.984
372.6073, 2237.372
373.0894, 2235.620
373.5715, 2233.784
374.0536, 2231.918
374.5357, 2230.023
375.0179, 2227.985
375.5000, 2225.601
375.9821, 2223.223
376.4642, 2221.757
376.9463, 2221.745
377.4284, 2221.300
377.9106, 2218.974
378.3927, 2215.933
378.8748, 2214.493
379.3569, 2215.415
379.8390, 2216.893
380.3211, 2216.560
380.8033, 2214.070
381.2854, 2211.677
381.7675, 2209.309
382.2496, 2207.266
382.7317, 2205.914
383.2138, 2205.196
383.6960, 2204.598
384.1781, 2203.687
384.6602, 2202.510
385.1423, 2201.822
385.6244, 2202.211
386.1065, 2202.303
386.5887, 2201.353
387.0708, 2199.842
387.5529, 2198.473
388.0350, 2197.528
388.5171, 2197.146
388.9992, 2197.706
389.4814, 2201.448
389.9635, 2202.542
390.4456, 2198.693
390.9277, 2193.776
391.4098, 2191.099
391.8919, 2190.994
392.3741, 2191.398
392.8562, 2190.046
393.3383, 2186.533
393.8204, 2184.415
394.3025, 2184.425
394.7846, 2184.976
395.2668, 2186.069
395.7489, 2187.258
396.2310, 2187.934
396.7131, 2187.761
397.1952, 2186.736
397.6773, 2184.709
398.1595, 2180.385
398.6416, 2177.226
399.1237, 2175.378
399.6058, 2174.870
400.0879, 2176.557
400.5700, 2180.309
401.0522, 2183.772
401.5343, 2183.530
402.0164, 2178.691
402.4985, 2175.450
402.9806, 2175.520
403.4627, 2175.853
403.9449, 2174.870
404.4270, 2173.046
404.9091, 2171.819
405.3912, 2172.297
405.8733, 2173.899
406.3554, 2174.925
406.8376, 2175.490
407.3197, 2175.159
407.8018, 2173.681
408.2839, 2171.279
408.7660, 2167.609
409.2481, 2162.192
409.7303, 2157.514
410.2124, 2156.688
410.6945, 2159.453
411.1766, 2161.666
411.6587, 2162.832
412.1408, 2162.647
412.6230, 2160.173
413.1051, 2155.813
413.5872, 2152.600
414.0693, 2152.600
414.5514, 2154.238
415.0335, 2155.316
415.5157, 2155.753
415.9978, 2155.073
416.4799, 2152.185
416.9620, 2148.033
417.4441, 2145.558
417.9262, 2145.606
418.4084, 2146.344
418.8905, 2147.174
419.3726, 2147.909
419.8547, 2147.926
420.3368, 2146.892
420.8189, 2145.461
421.3011, 2144.585
421.7832, 2144.199
422.2653, 2144.637
422.7474, 2146.935
423.2295, 2149.419
423.7116, 2151.021
424.1938, 2151.499
424.6759, 2150.353
425.1580, 2146.754
425.6401, 2140.971
426.1222, 2138.008
426.6043, 2140.003
427.0865, 2141.840
427.5686, 2141.878
428.0507, 2141.098
428.5328, 2140.774
429.0149, 2141.408
429.4970, 2142.990
429.9792, 2145.767
430.4613, 2151.453
430.9434, 2154.476
431.4255, 2152.023
431.9076, 2149.845
432.3897, 2151.341
432.8719, 2156.174
433.3540, 2162.188
433.8361, 2168.011
434.3182, 2173.464
434.8003, 2177.222
435.2824, 2178.872
435.7646, 2179.287
436.2467, 2177.496
436.7288, 2175.322
437.2109, 2174.868
437.6930, 2176.806
438.1751, 2179.644
438.6573, 2181.454
439.1394, 2182.128
439.6215, 2183.114
440.1036, 2183.379
440.5857, 2185.513
441.0678, 2191.843
441.5500, 2201.491
442.0321, 2211.073
442.5142, 2218.393
442.9963, 2224.787
443.4784, 2232.676
443.9605, 2242.112
444.4427, 2252.423
444.9248, 2261.150
445.4069, 2271.901
445.8890, 2290.711
446.3711, 2320.091
446.8532, 2351.373
447.3354, 2379.133
447.8175, 2405.355
448.2996, 2435.854
448.7817, 2472.748
449.2638, 2508.678
449.7459, 2537.426
450.2281, 2558.489
450.7102, 2565.831
451.1923, 2557.215
451.6744, 2536.587
452.1565, 2501.048
452.6386, 2454.855
453.1208, 2408.405
453.6029, 2366.150
454.0850, 2329.572
454.5671, 2302.874
455.0492, 2290.439
455.5313, 2282.887
456.0135, 2281.311
456.4956, 2283.728
456.9777, 2289.373
457.4598, 2297.642
457.9419, 2307.031
458.4240, 2315.724
458.9062, 2323.636
459.3883, 2336.773
459.8704, 2359.463
460.3525, 2383.003
460.8346, 2404.695
461.3167, 2426.464
461.7989, 2451.166
462.2810, 2480.032
462.7631, 2510.807
463.2452, 2540.654
463.7273, 2569.832
464.2094, 2596.705
464.6916, 2625.226
465.1737, 2646.754
465.6558, 2656.728
466.1379, 2655.592
466.6200, 2646.025
467.1021, 2629.030
467.5843, 2604.663
468.0664, 2571.896
468.5485, 2529.740
469.0306, 2485.192
469.5127, 2439.750
469.9948, 2394.606
470.4770, 2351.629
470.9591, 2310.347
471.4412, 2273.326
471.9233, 2241.958
472.4054, 2215.656
472.8875, 2194.262
473.3697, 2177.880
473.8518, 2164.316
474.3339, 2151.858
474.8160, 2140.632
475.2981, 2130.460
475.7802, 2120.866
476.2624, 2112.808
476.7445, 2107.389
477.2266, 2103.645
477.7087, 2099.997
478.1908, 2095.791
478.6729, 2090.986
479.1551, 2085.394
479.6372, 2077.885
480.1193, 2072.261
480.6014, 2069.394
481.0835, 2067.320
481.5656, 2065.115
482.0478, 2062.768
482.5299, 2060.634
483.0120, 2058.983
483.4941, 2057.673
483.9762, 2056.195
484.4583, 2054.369
484.9405, 2052.780
485.4226, 2052.259
485.9047, 2051.539
486.3868, 2049.459
486.8689, 2045.952
487.3510, 2042.127
487.8332, 2038.362
488.3153, 2034.942
488.7974, 2033.592
489.2795, 2035.394
489.7616, 2036.742
490.2437, 2034.656
490.7259, 2030.850
491.2080, 2027.822
491.6901, 2026.138
492.1722, 2025.061
492.6543, 2024.126
493.1364, 2023.382
493.6186, 2023.104
494.1007, 2023.467
494.5828, 2023.833
495.0649, 2023.505
495.5470, 2022.426
496.0291, 2020.947
496.5113, 2018.871
496.9934, 2016.591
497.4755, 2014.385
497.9576, 2012.163
498.4397, 2009.413
498.9218, 2005.831
499.4040, 2002.297
499.8861, 2000.976
500.3682, 2004.154
500.8503, 2005.340
501.3324, 2003.168
501.8145, 2000.415
502.2967, 1998.347
502.7788, 1997.204
503.2609, 1997.055
503.7430, 1998.179
504.2251, 2000.057
504.7072, 2000.787
505.1894, 2000.519
505.6715, 1998.708
506.1536, 1993.488
506.6357, 1987.846
507.1178, 1984.115
507.5999, 1982.581
508.0821, 1982.028
508.5642, 1981.933
509.0463, 1982.131
509.5284, 1982.079
510.0105, 1981.691
510.4926, 1981.340
510.9748, 1981.365
511.4569, 1981.563
511.9390, 1981.556
512.4211, 1981.761
512.9032, 1980.934
513.3853, 1977.208
513.8674, 1972.369
514.3495, 1969.709
514.8317, 1969.934
515.3138, 1971.351
515.7959, 1972.528
516.2780, 1973.542
516.7601, 1972.700
517.2422, 1969.040
517.7244, 1964.914
518.2065, 1960.141
518.6886, 1955.721
519.1707, 1953.035
519.6528, 1952.557
520.1349, 1953.623
520.6171, 1955.836
521.0992, 1960.277
521.5813, 1961.476
522.0634, 1955.498
522.5455, 1950.105
523.0276, 1949.073
523.5098, 1950.510
523.9919, 1950.463
524.4740, 1946.790
524.9561, 1942.057
525.4382, 1940.046
525.9203, 1940.809
526.4025, 1941.985
526.8846, 1943.639
527.3667, 1944.693
527.8488, 1943.825
528.3309, 1941.314
528.8130, 1938.897
529.2952, 1936.652
529.7773, 1935.032
530.2594, 1934.903
530.7415, 1935.913
531.2236, 1936.342
531.7057, 1935.287
532.1879, 1933.692
532.6700, 1933.464
533.1521, 1935.720
533.6342, 1936.788
534.1163, 1936.130
534.5984, 1934.674
535.0806, 1932.806
535.5627, 1930.660
536.0448, 1928.254
536.5269, 1925.543
537.0090, 1922.839
537.4911, 1921.269
537.9733, 1921.673
538.4554, 1921.308
538.9375, 1918.946
539.4196, 1916.501
539.9017, 1915.075
540.3839, 1914.667
540.8660, 1914.814
541.3481, 1915.998
541.8302, 1917.115
542.3123, 1914.842
542.7944, 1908.619
543.2766, 1904.190
543.7587, 1904.862
544.2408, 1907.685
544.7229, 1908.336
545.2050, 1906.647
545.6871, 1904.629
546.1693, 1902.282
546.6514, 1900.380
547.1335, 1900.125
547.6156, 1901.334
548.0977, 1902.499
548.5798, 1902.734
549.0620, 1902.193
549.5441, 1901.417
550.0262, 1899.240
550.5083, 1898.406
550.9904, 1900.971
551.4725, 1903.306
551.9547, 1901.820
552.4368, 1897.220
552.9189, 1893.272
553.4010, 1892.954
553.8831, 1895.286
554.3652, 1896.393
554.8474, 1896.039
555.3295, 1895.075
555.8116, 1892.723
556.2937, 1890.545
556.7758, 1890.006
557.2579, 1891.064
557.7401, 1891.963
558.2222, 1891.676
558.7043, 1890.579
559.1864, 1888.847
559.6685, 1886.491
560.1506, 1885.451
560.6328, 1887.375
561.1149, 1890.510
561.5970, 1890.763
562.0791, 1887.297
562.5612, 1884.252
563.0433, 1882.592
563.5255, 1881.480
564.0076, 1880.049
564.4897, 1878.435
564.9718, 1877.469
565.4539, 1877.731
565.9360, 1878.881
566.4182, 1879.797
566.9003, 1880.577
567.3824, 1880.955
567.8645, 1879.684
568.3466, 1879.112
568.8287, 1881.294
569.3109, 1885.666
569.7930, 1889.920
570.2751, 1892.927
570.7572, 1894.641
571.2393, 1894.250
571.7214, 1891.458
572.2036, 1890.231
572.6857, 1892.512
573.1678, 1896.157
573.6499, 1898.624
574.1320, 1899.935
574.6141, 1901.398
575.0963, 1903.054
575.5784, 1905.236
576.0605, 1908.891
576.5426, 1913.414
577.0247, 1916.481
577.5068, 1916.829
577.9890, 1916.446
578.4711, 1919.116
578.9532, 1926.093
579.4353, 1933.095
579.9174, 1939.209
580.3995, 1946.265
580.8817, 1955.527
581.3638, 1966.301
581.8459, 1977.446
582.3280, 1988.549
582.8101, 1998.922
583.2922, 2007.540
583.7744, 2014.338
584.2565, 2020.284
584.7386, 2027.331
585.2207, 2030.862
585.7029, 2027.536
