##NAMES=Grandidierite
##RRUFFID=R050196
##IDEAL CHEMISTRY=MgAl_3_O_2_(BO_3_)SiO_4_
##LOCALITY=Madagascar
##OWNER=RRUFF
##SOURCE=Marcus Origlieri
##DESCRIPTION=Aggregate of anhedral blue-green crystals
##STATUS=The identification of this mineral has been confirmed by X-ray diffraction and chemical analysis
##URL=rruff.info/R050196
##MEASURED CHEMISTRY=(Mg_0.829_Fe^2+^_0.169_Mn_0.002_)Al_3_(BO_3_)(SiO_4_)O_2_
93.77539, 27.19919
94.25751, 26.31391
94.73962, 26.70419
95.22174, 28.18759
95.70386, 30.10839
96.18597, 32.27422
96.66809, 34.69035
97.15021, 37.34845
97.63232, 40.23207
98.11444, 43.48928
98.59656, 47.26685
99.07867, 51.58019
99.56079, 56.37039
100.0429, 61.60992
100.5250, 67.27473
101.0071, 73.24283
101.4893, 79.31644
101.9714, 85.84174
102.4535, 93.59799
102.9356, 102.9682
103.4177, 112.6564
103.8998, 121.8960
104.3820, 130.7914
104.8641, 139.1853
105.3462, 146.9310
105.8283, 154.1676
106.3104, 162.2503
106.7925, 172.0488
107.2747, 181.6685
107.7568, 189.5784
108.2389, 194.4137
108.7210, 199.6331
109.2031, 205.5925
109.6852, 212.3567
110.1674, 219.6563
110.6495, 227.4478
111.1316, 235.8634
111.6137, 245.0142
112.0958, 254.6209
112.5779, 265.3528
113.0601, 277.6828
113.5422, 292.0890
114.0243, 306.2819
114.5064, 319.9896
114.9885, 333.2531
115.4706, 346.3116
115.9528, 359.2213
116.4349, 371.8579
116.9170, 383.9702
117.3991, 395.6666
117.8812, 407.0735
118.3633, 418.4303
118.8455, 429.5417
119.3276, 439.9794
119.8097, 449.3621
120.2918, 458.2784
120.7739, 467.0934
121.2560, 476.0354
121.7382, 484.7308
122.2203, 492.9278
122.7024, 500.6812
123.1845, 508.1739
123.6666, 515.6642
124.1487, 522.8740
124.6309, 529.5746
125.1130, 535.3953
125.5951, 540.8279
126.0772, 546.2051
126.5593, 551.5446
127.0414, 557.0035
127.5236, 562.7433
128.0057, 568.6691
128.4878, 574.7311
128.9699, 580.8217
129.4520, 587.0145
129.9341, 593.3654
130.4162, 599.8719
130.8984, 606.5923
131.3805, 613.6694
131.8626, 621.0515
132.3447, 628.4977
132.8268, 635.8318
133.3089, 643.1447
133.7911, 649.5233
134.2732, 653.1616
134.7553, 654.5341
135.2374, 655.3839
135.7195, 655.7271
136.2016, 655.9700
136.6838, 656.1453
137.1659, 656.2604
137.6480, 656.8876
138.1301, 658.1069
138.6122, 659.6984
139.0943, 661.4382
139.5765, 663.4561
140.0586, 665.1189
140.5407, 665.9615
141.0228, 665.7307
141.5049, 666.0364
141.9870, 667.0389
142.4692, 668.5307
142.9513, 669.9640
143.4334, 671.4348
143.9155, 672.6705
144.3976, 673.4496
144.8797, 673.4116
145.3619, 673.7401
145.8440, 674.5164
146.3261, 675.7001
146.8082, 677.1065
147.2903, 678.9824
147.7724, 680.8194
148.2546, 682.2803
148.7367, 682.6360
149.2188, 683.7100
149.7009, 685.9642
150.1830, 689.3167
150.6651, 692.2108
151.1473, 694.4404
151.6294, 696.3519
152.1115, 698.1639
152.5936, 699.4786
153.0757, 701.1324
153.5578, 703.0140
154.0400, 705.0606
154.5221, 708.1387
155.0042, 712.5212
155.4863, 717.8379
155.9684, 723.7487
156.4505, 729.4457
156.9327, 736.4919
157.4148, 745.0837
157.8969, 755.0680
158.3790, 767.1776
158.8611, 783.8896
159.3432, 802.0872
159.8254, 818.3903
160.3075, 838.2526
160.7896, 850.8348
161.2717, 851.1711
161.7538, 837.7744
162.2359, 818.8430
162.7181, 792.4535
163.2002, 763.1990
163.6823, 737.4500
164.1644, 717.6439
164.6465, 701.7732
165.1286, 688.9716
165.6108, 679.2531
166.0929, 671.8806
166.5750, 667.1971
167.0571, 664.4634
167.5392, 662.3488
168.0213, 660.4481
168.5035, 658.7946
168.9856, 657.3492
169.4677, 656.0008
169.9498, 655.1318
170.4319, 655.7023
170.9140, 657.0135
171.3962, 657.4161
171.8783, 655.0691
172.3604, 651.8121
172.8425, 649.5010
173.3246, 648.5670
173.8067, 648.3761
174.2889, 648.7048
174.7710, 649.4067
175.2531, 649.9943
175.7352, 649.9741
176.2173, 649.7211
176.6994, 649.8021
177.1816, 650.5010
177.6637, 651.2487
178.1458, 651.3640
178.6279, 650.9365
179.1100, 650.4059
179.5921, 649.8347
180.0743, 649.3778
180.5564, 649.4127
181.0385, 650.2162
181.5206, 651.2382
182.0027, 651.6537
182.4848, 651.5068
182.9670, 651.2327
183.4491, 651.2139
183.9312, 651.3212
184.4133, 651.1809
184.8954, 650.6307
185.3775, 649.8755
185.8597, 649.2280
186.3418, 648.6912
186.8239, 648.2628
187.3060, 648.0667
187.7881, 648.0195
188.2702, 647.7452
188.7523, 647.0801
189.2345, 646.1937
189.7166, 645.4953
190.1987, 644.9952
190.6808, 644.5261
191.1629, 643.9636
191.6451, 643.3195
192.1272, 642.5801
192.6093, 641.5751
193.0914, 640.5561
193.5735, 640.4071
194.0556, 641.2221
194.5378, 642.2849
195.0199, 642.7422
195.5020, 642.6357
195.9841, 643.0883
196.4662, 644.6241
196.9483, 646.8950
197.4305, 648.3195
197.9126, 648.7361
198.3947, 648.9316
198.8768, 649.7226
199.3589, 651.1225
199.8410, 652.4221
200.3232, 653.2947
200.8053, 653.8738
201.2874, 655.1220
201.7695, 657.1529
202.2516, 659.4756
202.7337, 661.7405
203.2159, 663.9799
203.6980, 665.7269
204.1801, 666.6234
204.6622, 666.8289
205.1443, 668.0225
205.6264, 670.5653
206.1086, 673.2737
206.5907, 674.6491
207.0728, 674.3160
207.5549, 674.6354
208.0370, 676.3995
208.5191, 679.4987
209.0013, 681.9803
209.4834, 683.6755
209.9655, 685.0795
210.4476, 686.6544
210.9297, 688.3484
211.4118, 690.4278
211.8940, 693.2459
212.3761, 696.7664
212.8582, 699.1408
213.3403, 700.1315
213.8224, 700.3755
214.3045, 700.4607
214.7867, 700.2961
215.2688, 700.2673
215.7509, 700.4725
216.2330, 700.9064
216.7151, 701.3897
217.1972, 701.8591
217.6794, 702.4503
218.1615, 703.2772
218.6436, 704.3068
219.1257, 705.6769
219.6078, 707.5985
220.0899, 710.0892
220.5721, 711.6392
221.0542, 711.7642
221.5363, 711.5162
222.0184, 711.9924
222.5005, 713.4461
222.9826, 715.0530
223.4648, 716.6691
223.9469, 718.3192
224.4290, 719.8361
224.9111, 721.2333
225.3932, 722.5098
225.8753, 723.6037
226.3575, 724.1995
226.8396, 725.3525
227.3217, 727.6791
227.8038, 731.2496
228.2859, 732.9540
228.7680, 731.9099
229.2502, 730.0150
229.7323, 729.2444
230.2144, 730.7004
230.6965, 731.0162
231.1786, 729.3314
231.6607, 725.6517
232.1429, 722.1285
232.6250, 718.7131
233.1071, 715.5109
233.5892, 712.6113
234.0713, 709.8455
234.5534, 707.7413
235.0356, 706.5169
235.5177, 706.1545
235.9998, 705.8425
236.4819, 705.2639
236.9640, 705.0699
237.4461, 705.8438
237.9283, 707.8904
238.4104, 710.2894
238.8925, 713.0045
239.3746, 716.0227
239.8567, 718.8978
240.3388, 721.7347
240.8210, 724.3257
241.3031, 726.6408
241.7852, 729.2597
242.2673, 730.4371
242.7494, 729.9891
243.2315, 727.9022
243.7137, 723.9883
244.1958, 717.0828
244.6779, 709.7556
245.1600, 703.8037
245.6421, 699.5696
246.1242, 696.0189
246.6064, 693.1227
247.0885, 690.8477
247.5706, 688.9454
248.0527, 687.3910
248.5348, 686.2771
249.0169, 685.6841
249.4990, 685.6446
249.9812, 686.0976
250.4633, 687.3082
250.9454, 689.0461
251.4275, 690.1116
251.9096, 690.0002
252.3917, 689.9464
252.8739, 690.8067
253.3560, 693.3320
253.8381, 694.8666
254.3202, 694.7043
254.8023, 693.4839
255.2844, 693.6371
255.7666, 695.7538
256.2487, 698.2395
256.7308, 700.2402
257.2129, 701.5677
257.6950, 702.9092
258.1772, 704.2090
258.6593, 705.5527
259.1414, 707.2653
259.6235, 709.5794
260.1056, 711.8458
260.5877, 713.7668
261.0699, 715.1469
261.5520, 716.7176
262.0341, 718.4313
262.5162, 720.3695
262.9983, 722.9137
263.4804, 726.5070
263.9626, 729.6892
264.4447, 731.6385
264.9268, 731.9052
265.4089, 733.1528
265.8910, 735.8346
266.3731, 739.0870
266.8553, 741.4122
267.3374, 742.5032
267.8195, 743.5135
268.3016, 745.1315
268.7837, 747.6486
269.2658, 748.2570
269.7480, 746.4030
270.2301, 743.4118
270.7122, 741.4319
271.1943, 741.0130
271.6764, 739.5291
272.1585, 735.7006
272.6407, 729.5190
273.1228, 724.6540
273.6049, 721.2892
274.0870, 718.9443
274.5691, 717.2418
275.0512, 716.3464
275.5334, 715.2230
276.0155, 713.4425
276.4976, 711.1047
276.9797, 709.4158
277.4618, 708.5377
277.9439, 707.8721
278.4261, 706.8187
278.9081, 705.3546
279.3903, 703.8849
279.8724, 702.6027
280.3545, 701.4075
280.8366, 699.5311
281.3187, 696.7787
281.8008, 694.2481
282.2830, 693.1050
282.7651, 693.3827
283.2472, 693.3847
283.7293, 692.8248
284.2114, 691.7869
284.6935, 690.2911
285.1757, 688.2377
285.6578, 686.5616
286.1399, 686.1663
286.6220, 686.9439
287.1041, 687.5193
287.5862, 687.7028
288.0684, 687.6064
288.5505, 687.3972
289.0326, 687.0690
289.5147, 686.7740
289.9968, 686.4654
290.4789, 686.2137
290.9611, 686.5203
291.4432, 687.5330
291.9253, 688.8248
292.4074, 689.8226
292.8895, 690.5330
293.3716, 690.9396
293.8538, 690.8792
294.3359, 690.5032
294.8180, 690.2523
295.3001, 690.1370
295.7822, 690.2209
296.2643, 690.6733
296.7465, 691.4340
297.2286, 692.2154
297.7107, 692.6242
298.1928, 693.0295
298.6749, 694.3737
299.1570, 696.7120
299.6392, 699.2172
300.1213, 701.1955
300.6034, 702.6937
301.0855, 703.7228
301.5676, 704.0383
302.0497, 704.0613
302.5319, 704.4083
303.0140, 705.0630
303.4961, 705.7405
303.9782, 706.2516
304.4603, 706.6224
304.9424, 706.9260
305.4246, 707.2062
305.9067, 707.3841
306.3888, 707.1942
306.8709, 706.7400
307.3530, 706.5388
307.8351, 707.0710
308.3173, 707.9922
308.7994, 709.0252
309.2815, 710.4586
309.7636, 711.2823
310.2457, 710.3896
310.7278, 708.2090
311.2100, 705.9120
311.6921, 704.1432
312.1742, 702.5118
312.6563, 700.5378
313.1384, 697.8895
313.6205, 695.9257
314.1027, 696.0234
314.5848, 697.2805
315.0669, 698.1210
315.5490, 697.1641
316.0311, 696.1382
316.5132, 696.2341
316.9954, 697.6531
317.4775, 699.0173
317.9596, 699.5660
318.4417, 699.7801
318.9238, 700.2101
319.4059, 701.1229
319.8881, 702.1713
320.3702, 703.2258
320.8523, 704.2773
321.3344, 705.3369
321.8165, 706.5141
322.2986, 707.6297
322.7808, 708.5482
323.2629, 708.8859
323.7450, 709.4120
324.2271, 710.2188
324.7092, 711.3242
325.1913, 712.8182
325.6735, 715.0352
326.1556, 717.4326
326.6377, 719.7785
327.1198, 722.5443
327.6019, 724.5780
328.0840, 725.2499
328.5662, 725.1317
329.0483, 725.6768
329.5304, 727.2128
330.0125, 729.1119
330.4946, 731.2673
330.9767, 733.9150
331.4589, 736.1348
331.9410, 737.4166
332.4231, 738.4990
332.9052, 740.4402
333.3873, 743.7557
333.8694, 747.1383
334.3516, 750.0828
334.8337, 752.5031
335.3158, 755.8474
335.7979, 760.2851
336.2800, 765.4008
336.7621, 770.5707
337.2443, 775.3036
337.7264, 781.5660
338.2085, 790.0427
338.6906, 800.3472
339.1727, 810.7319
339.6548, 821.2652
340.1370, 831.7913
340.6191, 842.6971
341.1012, 854.0278
341.5833, 864.3820
342.0654, 874.2717
342.5475, 882.3153
343.0297, 885.4980
343.5118, 883.8193
343.9939, 877.1786
344.4760, 863.7792
344.9581, 844.3552
345.4402, 825.7682
345.9224, 808.2158
346.4045, 791.9599
346.8866, 777.3261
347.3687, 764.2718
347.8508, 753.9125
348.3329, 747.3549
348.8151, 743.6735
349.2972, 740.4789
349.7793, 737.7922
350.2614, 735.4177
350.7435, 732.9716
351.2256, 730.7014
351.7078, 729.3490
352.1899, 729.4590
352.6720, 730.2314
353.1541, 730.4773
353.6362, 730.3144
354.1183, 730.4394
354.6005, 731.3712
355.0826, 732.8658
355.5647, 734.6311
356.0468, 736.6509
356.5289, 738.8138
357.0110, 740.7274
357.4932, 742.7029
357.9753, 745.4739
358.4574, 750.3889
358.9395, 755.6239
359.4216, 759.5781
359.9037, 762.0262
360.3859, 764.1616
360.8680, 766.6541
361.3501, 769.2009
361.8322, 771.4201
362.3143, 774.3312
362.7964, 775.8304
363.2786, 774.5492
363.7607, 770.6765
364.2428, 766.3979
364.7249, 761.9670
365.2070, 757.7137
365.6891, 753.8712
366.1713, 750.3570
366.6534, 747.4035
367.1355, 745.1894
367.6176, 743.5955
368.0997, 742.3193
368.5818, 740.8416
369.0640, 740.1043
369.5461, 740.5842
370.0282, 742.9303
370.5103, 744.9875
370.9924, 746.3821
371.4745, 747.6790
371.9567, 749.6481
372.4388, 752.6707
372.9209, 755.7809
373.4030, 758.7737
373.8851, 761.6537
374.3672, 764.9219
374.8494, 769.5880
375.3315, 773.3012
375.8136, 773.9191
376.2957, 770.7078
376.7778, 766.6992
377.2599, 761.9739
377.7421, 756.8146
378.2242, 752.2050
378.7063, 748.2368
379.1884, 744.5524
379.6705, 741.0019
380.1526, 737.5532
380.6348, 734.2665
381.1169, 731.0506
381.5990, 728.2561
382.0811, 726.5787
382.5632, 725.9736
383.0453, 725.3710
383.5275, 724.2250
384.0096, 722.8099
384.4917, 721.8641
384.9738, 721.3962
385.4559, 721.4434
385.9380, 722.6412
386.4202, 724.4064
386.9023, 725.1293
387.3844, 723.9410
387.8665, 722.2781
388.3486, 721.9235
388.8307, 722.6485
389.3129, 723.5402
389.7950, 724.1204
390.2771, 724.5390
390.7592, 724.9273
391.2413, 725.2843
391.7234, 725.6688
392.2056, 725.7646
392.6877, 725.9664
393.1698, 726.8936
393.6519, 729.6269
394.1340, 732.4365
394.6161, 734.4644
395.0983, 735.6892
395.5804, 736.4631
396.0625, 737.0510
396.5446, 737.1658
397.0267, 736.5677
397.5089, 733.5712
397.9910, 731.8262
398.4731, 732.7875
398.9552, 735.5811
399.4373, 737.5859
399.9194, 737.8912
400.4016, 737.9360
400.8837, 738.1784
401.3658, 738.5987
401.8479, 739.2899
402.3300, 740.5194
402.8121, 741.8507
403.2942, 742.6453
403.7763, 742.1609
404.2585, 742.6218
404.7406, 744.8607
405.2227, 748.6399
405.7048, 751.1907
406.1869, 751.9993
406.6690, 752.6916
407.1512, 754.7430
407.6333, 758.4621
408.1154, 760.7988
408.5975, 761.0878
409.0796, 760.4052
409.5617, 760.9055
410.0439, 762.6111
410.5260, 764.4182
411.0081, 765.9180
411.4902, 767.0897
411.9723, 767.6610
412.4544, 767.5193
412.9366, 767.6990
413.4187, 769.2747
413.9008, 772.0180
414.3829, 775.2986
414.8650, 779.2690
415.3471, 783.3350
415.8293, 785.9934
416.3114, 787.7542
416.7935, 790.9025
417.2756, 797.8122
417.7577, 806.3990
418.2398, 814.2521
418.7220, 820.8499
419.2041, 827.8615
419.6862, 836.2838
420.1683, 845.9442
420.6504, 856.2959
421.1325, 868.0609
421.6147, 879.9183
422.0968, 891.7704
422.5789, 903.6344
423.0610, 913.8417
423.5431, 923.7230
424.0252, 930.7657
424.5074, 933.4427
424.9895, 930.2623
425.4716, 924.2322
425.9537, 914.6262
426.4358, 902.2819
426.9179, 888.9398
427.4001, 872.8478
427.8822, 857.6748
428.3643, 844.2257
428.8464, 832.3651
429.3285, 823.3179
429.8106, 817.8168
430.2928, 814.1806
430.7749, 810.6887
431.2570, 807.1483
431.7391, 804.7360
432.2212, 803.8809
432.7033, 804.1625
433.1855, 804.2169
433.6676, 803.9865
434.1497, 804.0406
434.6318, 804.4973
435.1139, 805.4551
435.5960, 807.6744
436.0782, 811.3504
436.5603, 815.6302
437.0424, 819.3356
437.5245, 822.7236
438.0066, 826.6492
438.4887, 831.7670
438.9709, 837.3193
439.4530, 842.5185
439.9351, 847.3519
440.4172, 851.5472
440.8993, 855.6215
441.3814, 858.7029
441.8636, 859.9355
442.3457, 859.2283
442.8278, 856.4819
443.3099, 851.2628
443.7920, 844.0439
444.2741, 835.4770
444.7563, 824.2252
445.2384, 813.2279
445.7205, 803.4251
446.2026, 794.8669
446.6847, 787.6144
447.1668, 782.2083
447.6490, 777.8370
448.1311, 774.0031
448.6132, 770.4332
449.0953, 767.7861
449.5774, 766.4626
450.0595, 765.9821
450.5417, 765.3510
451.0238, 764.5069
451.5059, 763.6339
451.9880, 762.7529
452.4701, 761.8488
452.9522, 761.1520
453.4344, 760.6796
453.9165, 760.3427
454.3986, 760.0214
454.8807, 759.7029
455.3628, 759.6677
455.8449, 760.0824
456.3271, 760.6155
456.8092, 760.5479
457.2913, 759.9128
457.7734, 759.1862
458.2555, 758.4064
458.7376, 757.7546
459.2198, 757.6849
459.7019, 758.2352
460.1840, 759.0176
460.6661, 759.8444
461.1482, 760.6532
461.6303, 761.3351
462.1125, 761.9252
462.5946, 762.3026
463.0767, 762.0473
463.5588, 761.4531
464.0409, 761.3750
464.5230, 762.6231
465.0052, 764.1680
465.4873, 765.4201
465.9694, 766.2647
466.4515, 767.0671
466.9336, 767.7858
467.4157, 768.5405
467.8979, 769.4432
468.3800, 770.5281
468.8621, 771.7225
469.3442, 773.1417
469.8263, 774.6729
470.3084, 775.8516
470.7906, 776.2691
471.2727, 776.9622
471.7548, 778.4777
472.2369, 781.0168
472.7190, 783.1503
473.2011, 784.7680
473.6833, 786.2897
474.1654, 788.3791
474.6475, 791.0844
475.1296, 793.3116
475.6117, 794.8235
476.0938, 795.6959
476.5760, 795.8847
477.0581, 795.4327
477.5402, 794.9802
478.0223, 795.0865
478.5044, 795.4164
478.9865, 795.1788
479.4687, 794.2567
479.9508, 793.4590
480.4329, 793.2758
480.9150, 793.7396
481.3971, 794.9364
481.8792, 797.3909
482.3614, 800.0647
482.8435, 802.2111
483.3256, 804.0472
483.8077, 806.2122
484.2898, 809.2181
484.7719, 812.3867
485.2541, 815.2840
485.7362, 817.6482
486.2183, 820.5938
486.7004, 825.0234
487.1825, 829.6937
487.6646, 833.5208
488.1468, 836.5145
488.6289, 838.5207
489.1110, 839.5836
489.5931, 839.6261
490.0752, 838.3619
490.5573, 835.6228
491.0395, 831.9529
491.5216, 827.3600
492.0037, 821.7796
492.4858, 816.3561
492.9679, 811.0129
493.4500, 805.8838
493.9322, 801.1249
494.4143, 796.7092
494.8964, 792.7581
495.3785, 789.2744
495.8606, 786.2116
496.3427, 783.5760
496.8249, 781.3123
497.3070, 779.1671
497.7891, 776.8548
498.2712, 774.6827
498.7533, 772.9723
499.2354, 771.7227
499.7176, 768.7608
500.1997, 769.2549
500.6818, 769.4021
501.1639, 769.2236
501.6460, 767.5951
502.1281, 767.9532
502.6103, 767.5850
503.0924, 767.2349
503.5745, 768.0151
504.0566, 766.8540
504.5387, 767.7168
505.0208, 767.8414
505.5030, 768.3766
505.9851, 768.1806
506.4672, 768.2756
506.9493, 769.2017
507.4314, 769.7451
507.9135, 772.2092
508.3957, 774.0956
508.8778, 774.9664
509.3599, 775.3187
509.8420, 776.1667
510.3241, 777.4832
510.8062, 778.1543
511.2884, 777.4276
511.7705, 775.9163
512.2526, 775.0792
512.7347, 774.8775
513.2168, 774.9291
513.6989, 775.4315
514.1810, 775.8439
514.6631, 775.2581
515.1453, 773.3698
515.6274, 771.3629
516.1095, 769.9834
516.5916, 768.9857
517.0737, 768.0403
517.5558, 767.1895
518.0380, 766.2218
518.5201, 764.9509
519.0022, 763.4605
519.4843, 762.1445
519.9664, 760.7235
520.4485, 759.8241
520.9307, 759.8328
521.4128, 761.0931
521.8949, 761.8096
522.3770, 761.7271
522.8591, 761.3772
523.3412, 761.2370
523.8234, 761.3095
524.3055, 761.5997
524.7876, 762.1653
525.2697, 762.8910
525.7518, 763.4164
526.2339, 763.7475
526.7161, 764.3369
527.1982, 765.8021
527.6803, 767.6373
528.1624, 768.3394
528.6445, 767.9436
529.1266, 767.5023
529.6088, 767.7110
530.0909, 768.4348
530.5730, 769.6024
531.0551, 771.4629
531.5372, 773.0321
532.0193, 773.2985
532.5015, 772.9852
532.9836, 773.2122
533.4657, 774.9457
533.9478, 776.6501
534.4299, 777.7428
534.9120, 778.2767
535.3942, 778.9963
535.8763, 780.2233
536.3584, 781.3869
536.8405, 782.2332
537.3226, 782.6920
537.8047, 783.0830
538.2869, 783.2728
538.7690, 783.5944
539.2511, 784.6813
539.7332, 786.6826
540.2153, 787.7692
540.6974, 787.3323
541.1796, 786.1683
541.6617, 785.8251
542.1438, 786.2637
542.6259, 787.0472
543.1080, 787.8895
543.5901, 788.9460
544.0723, 790.6722
544.5544, 793.0156
545.0365, 795.2068
545.5186, 796.4642
546.0007, 797.3766
546.4828, 798.6058
546.9650, 800.4870
547.4471, 802.1533
547.9292, 803.3914
548.4113, 804.1641
548.8934, 804.4196
549.3755, 803.3767
549.8577, 802.6875
550.3398, 803.1356
550.8219, 804.3530
551.3040, 804.2595
551.7861, 801.9022
552.2682, 799.7930
552.7504, 799.2762
553.2325, 800.5690
553.7146, 800.6326
554.1967, 799.1116
554.6788, 797.4294
555.1609, 797.1202
555.6431, 798.0396
556.1252, 799.0831
556.6073, 800.0713
557.0894, 801.0803
557.5715, 802.2831
558.0536, 803.6088
558.5358, 804.8447
559.0179, 805.5430
559.5000, 806.3625
559.9821, 807.8633
560.4642, 809.9987
560.9464, 812.4083
561.4285, 815.0969
561.9106, 817.8824
562.3927, 820.5811
562.8748, 823.0810
563.3569, 825.8113
563.8391, 829.0551
564.3212, 832.4108
564.8033, 835.5421
565.2854, 838.2708
565.7675, 841.0859
566.2496, 843.8816
566.7318, 846.9428
567.2139, 850.8904
567.6960, 855.8193
568.1781, 861.2696
568.6602, 867.0591
569.1423, 873.2380
569.6245, 879.7227
570.1066, 886.6061
570.5887, 893.8218
571.0708, 901.3972
571.5529, 909.4393
572.0350, 918.0707
572.5172, 927.4395
572.9993, 937.0673
573.4814, 946.9836
573.9635, 956.8616
574.4456, 966.1610
574.9277, 974.9910
575.4099, 982.8727
575.8920, 990.4514
576.3741, 997.0526
576.8562, 1000.883
577.3383, 1001.112
577.8204, 999.4785
578.3026, 996.6489
578.7847, 992.6262
579.2668, 985.1479
579.7489, 973.4977
580.2310, 960.2137
580.7131, 946.7407
581.1953, 933.1437
581.6774, 919.9413
582.1595, 907.1832
582.6416, 894.9791
583.1237, 883.5558
583.6058, 872.9188
584.0880, 863.0394
584.5701, 853.9988
585.0522, 845.7147
585.5343, 838.0469
586.0164, 831.0375
586.4985, 824.9205
586.9807, 820.0338
587.4628, 815.7617
587.9449, 811.9031
588.4270, 808.4449
588.9091, 805.3329
589.3912, 802.8229
589.8734, 800.4526
590.3555, 797.8829
