##NAMES=Grandidierite
##RRUFFID=R050196
##IDEAL CHEMISTRY=MgAl_3_O_2_(BO_3_)SiO_4_
##LOCALITY=Madagascar
##OWNER=RRUFF
##SOURCE=Marcus Origlieri
##DESCRIPTION=Aggregate of anhedral blue-green crystals
##STATUS=The identification of this mineral has been confirmed by X-ray diffraction and chemical analysis
##URL=rruff.info/R050196
##MEASURED CHEMISTRY=(Mg_0.829_Fe^2+^_0.169_Mn_0.002_)Al_3_(BO_3_)(SiO_4_)O_2_
92.96582, 459.2959
93.44794, 455.9911
93.93005, 456.8745
94.41217, 460.3390
94.89429, 461.9112
95.37640, 463.0117
95.85852, 463.9148
96.34064, 464.4185
96.82275, 464.6519
97.30487, 464.3347
97.78699, 463.2779
98.26910, 461.5459
98.75122, 459.5742
99.23334, 457.4775
99.71545, 455.0326
100.1976, 451.9937
100.6797, 449.7367
101.1618, 448.1587
101.6439, 446.8040
102.1260, 445.5019
102.6081, 444.2324
103.0903, 442.9855
103.5724, 441.5212
104.0545, 440.4261
104.5366, 440.0135
105.0187, 440.0410
105.5008, 440.0663
105.9830, 439.7753
106.4651, 439.1406
106.9472, 438.4264
107.4293, 437.3191
107.9114, 436.2326
108.3935, 435.3286
108.8757, 434.6026
109.3578, 433.9546
109.8399, 433.2414
110.3220, 432.3109
110.8041, 431.6432
111.2862, 431.2155
111.7684, 430.9984
112.2505, 430.8979
112.7326, 430.8858
113.2147, 431.1307
113.6968, 432.0851
114.1789, 434.1414
114.6611, 436.0946
115.1432, 437.5882
115.6253, 438.8160
116.1074, 440.2473
116.5895, 442.1948
117.0716, 444.3301
117.5538, 445.8258
118.0359, 446.2736
118.5180, 446.7857
119.0001, 448.2164
119.4822, 450.5818
119.9643, 453.1154
120.4465, 455.5104
120.9286, 457.8357
121.4107, 460.2445
121.8928, 463.0129
122.3749, 465.6427
122.8570, 467.1934
123.3392, 467.4669
123.8213, 466.8493
124.3034, 465.5635
124.7855, 463.6702
125.2676, 461.2011
125.7497, 458.1418
126.2319, 454.5078
126.7140, 450.6454
127.1961, 446.2504
127.6782, 441.8663
128.1603, 437.4887
128.6424, 433.2035
129.1246, 429.1716
129.6067, 425.4944
130.0888, 422.1700
130.5709, 419.4094
131.0530, 417.3403
131.5351, 415.5712
132.0173, 413.7181
132.4994, 411.7845
132.9815, 410.2682
133.4636, 409.8705
133.9457, 411.0002
134.4278, 412.0435
134.9100, 412.7209
135.3921, 413.3441
135.8742, 414.2030
136.3563, 415.3203
136.8384, 416.8783
137.3205, 419.3144
137.8027, 422.6271
138.2848, 426.0180
138.7669, 429.4253
139.2490, 432.7253
139.7311, 435.4326
140.2132, 437.3776
140.6954, 438.5976
141.1775, 439.0755
141.6596, 438.7350
142.1417, 438.3484
142.6238, 438.7159
143.1059, 439.9658
143.5881, 441.1367
144.0702, 441.7331
144.5523, 442.2988
145.0344, 443.2073
145.5165, 444.5734
145.9986, 446.2249
146.4807, 447.8587
146.9629, 449.4709
147.4450, 451.0839
147.9271, 452.5946
148.4092, 454.1545
148.8913, 455.8751
149.3734, 457.8121
149.8556, 459.9819
150.3377, 462.4515
150.8198, 465.5031
151.3019, 468.6071
151.7840, 471.7619
152.2661, 474.9365
152.7483, 477.9458
153.2304, 480.5973
153.7125, 483.0172
154.1946, 486.8874
154.6767, 492.3842
155.1588, 498.7310
155.6410, 505.1017
156.1231, 511.8698
156.6052, 520.4788
157.0873, 532.2712
157.5694, 547.2248
158.0515, 561.9408
158.5337, 579.8557
159.0158, 595.2048
159.4979, 604.5485
159.9800, 607.7375
160.4621, 603.0206
160.9442, 584.7668
161.4264, 556.6047
161.9085, 529.0633
162.3906, 503.0115
162.8727, 479.4311
163.3548, 459.8213
163.8369, 444.5982
164.3191, 432.8478
164.8012, 424.8099
165.2833, 419.4846
165.7654, 415.0732
166.2475, 410.5176
166.7296, 406.0196
167.2118, 402.6215
167.6939, 401.0347
168.1760, 399.8600
168.6581, 398.5388
169.1402, 397.0797
169.6223, 395.5543
170.1045, 393.9150
170.5866, 392.1020
171.0687, 390.8669
171.5508, 390.7242
172.0329, 390.7582
172.5150, 390.6780
172.9972, 390.4688
173.4793, 390.2661
173.9614, 390.2507
174.4435, 390.5667
174.9256, 390.5478
175.4077, 389.9021
175.8899, 389.2166
176.3720, 388.8830
176.8541, 388.9194
177.3362, 389.0215
177.8183, 388.7675
178.3004, 387.8468
178.7826, 387.3148
179.2647, 387.3988
179.7468, 387.7059
180.2289, 387.9254
180.7110, 387.9785
181.1931, 387.9738
181.6752, 388.0938
182.1574, 388.4290
182.6395, 388.6220
183.1216, 388.7488
183.6037, 388.6812
184.0858, 388.1004
184.5679, 386.8067
185.0501, 385.3773
185.5322, 384.8710
186.0143, 385.3164
186.4964, 385.7867
186.9785, 386.0608
187.4606, 386.1263
187.9428, 385.8605
188.4249, 384.9844
188.9070, 384.1339
189.3891, 384.1986
189.8712, 385.2338
190.3533, 386.2138
190.8355, 386.2242
191.3176, 385.4310
191.7997, 385.2859
192.2818, 386.6641
192.7639, 388.3824
193.2460, 389.3832
193.7282, 389.5978
194.2103, 389.6904
194.6924, 390.3034
195.1745, 391.5017
195.6566, 392.6426
196.1387, 393.5801
196.6209, 394.4322
197.1030, 395.1549
197.5851, 395.7700
198.0672, 396.5145
198.5493, 397.8104
199.0314, 399.9610
199.5136, 401.6807
199.9957, 402.4165
200.4778, 402.9980
200.9599, 403.9784
201.4420, 405.4791
201.9241, 407.1815
202.4063, 408.5791
202.8884, 409.4832
203.3705, 410.4499
203.8526, 411.3281
204.3347, 412.3661
204.8168, 413.8964
205.2990, 415.9645
205.7811, 418.1979
206.2632, 419.8835
206.7453, 420.4011
207.2274, 421.2094
207.7095, 422.5580
208.1917, 424.0529
208.6738, 425.2656
209.1559, 426.0582
209.6380, 426.7011
210.1201, 427.7501
210.6022, 429.6790
211.0844, 431.3204
211.5665, 432.4116
212.0486, 433.2656
212.5307, 434.2630
213.0128, 435.5488
213.4949, 436.9457
213.9771, 438.0567
214.4592, 438.6215
214.9413, 439.4821
215.4234, 441.1104
215.9055, 443.0629
216.3876, 444.6983
216.8698, 445.8126
217.3519, 446.4841
217.8340, 446.6764
218.3161, 446.1964
218.7982, 446.0964
219.2803, 447.0386
219.7625, 448.6109
220.2446, 449.8621
220.7267, 450.4356
221.2088, 450.6845
221.6909, 451.0977
222.1730, 451.6601
222.6552, 452.3724
223.1373, 453.5487
223.6194, 454.9430
224.1015, 455.5799
224.5836, 454.7749
225.0657, 453.6647
225.5479, 453.7752
226.0300, 455.1528
226.5121, 456.1310
226.9942, 455.5336
227.4763, 453.5343
227.9584, 451.3312
228.4406, 449.3989
228.9227, 447.0086
229.4048, 443.5841
229.8869, 439.1501
230.3690, 434.3080
230.8511, 429.4474
231.3333, 424.5770
231.8154, 419.5820
232.2975, 414.0072
232.7796, 408.7618
233.2617, 404.3543
233.7438, 400.7881
234.2260, 397.7638
234.7081, 395.1630
235.1902, 393.0185
235.6723, 390.7746
236.1544, 387.7498
236.6365, 385.1776
237.1187, 383.8596
237.6008, 383.6283
238.0829, 383.6489
238.5650, 383.0203
239.0471, 381.5659
239.5292, 380.7705
240.0114, 381.9136
240.4935, 382.6452
240.9756, 381.8408
241.4577, 379.6992
241.9398, 377.2144
242.4219, 375.3024
242.9041, 374.0684
243.3862, 372.6888
243.8683, 371.1953
244.3504, 369.5391
244.8325, 367.4471
245.3146, 365.1287
245.7968, 363.1082
246.2789, 361.9129
246.7610, 361.6374
247.2431, 361.3185
247.7252, 360.8106
248.2073, 360.4012
248.6895, 360.2446
249.1716, 360.2902
249.6537, 360.4014
250.1358, 360.4827
250.6179, 360.5431
251.1000, 360.3851
251.5822, 359.8715
252.0643, 359.3015
252.5464, 358.6772
253.0285, 358.0686
253.5106, 357.6222
253.9927, 357.4567
254.4748, 357.5693
254.9570, 357.6811
255.4391, 357.9048
255.9212, 358.0125
256.4033, 357.8062
256.8854, 357.4076
257.3676, 357.1220
257.8497, 357.1759
258.3318, 357.5301
258.8139, 357.6744
259.2960, 357.4624
259.7781, 357.2586
260.2603, 357.2842
260.7424, 357.4222
261.2245, 357.3539
261.7066, 356.8546
262.1887, 356.0463
262.6708, 355.5844
263.1530, 355.6325
263.6351, 355.7524
264.1172, 355.9889
264.5993, 356.1987
265.0814, 356.0251
265.5635, 355.2298
266.0457, 354.0319
266.5278, 353.1605
267.0099, 352.7965
267.4920, 352.3799
267.9741, 351.7135
268.4562, 350.8703
268.9384, 349.9699
269.4204, 349.0323
269.9026, 348.1245
270.3847, 347.3964
270.8668, 346.8237
271.3489, 346.4106
271.8310, 346.4690
272.3131, 346.6584
272.7953, 346.2048
273.2774, 344.7264
273.7595, 342.9173
274.2416, 341.9012
274.7237, 341.6622
275.2058, 341.6975
275.6880, 342.1158
276.1701, 342.6588
276.6522, 342.8367
277.1343, 342.4906
277.6164, 341.9305
278.0985, 341.5450
278.5807, 341.3177
279.0628, 341.0061
279.5449, 340.3963
280.0270, 339.7053
280.5091, 339.2978
280.9912, 339.2686
281.4734, 339.3437
281.9555, 339.2635
282.4376, 339.0619
282.9197, 338.8633
283.4018, 338.7116
283.8839, 338.5736
284.3661, 338.3712
284.8482, 338.0777
285.3303, 337.8596
285.8124, 337.8959
286.2945, 338.1098
286.7766, 338.3257
287.2588, 338.5701
287.7409, 338.7638
288.2230, 338.8136
288.7051, 338.7158
289.1872, 338.5120
289.6693, 338.1606
290.1515, 337.7325
290.6336, 337.3670
291.1157, 337.1283
291.5978, 336.9020
292.0799, 336.5302
292.5620, 336.0105
293.0442, 335.5799
293.5263, 335.2371
294.0084, 335.1317
294.4905, 335.5215
294.9726, 336.6048
295.4547, 337.6901
295.9369, 338.1400
296.4190, 338.0007
296.9011, 337.8865
297.3832, 337.9447
297.8653, 338.1597
298.3474, 338.5791
298.8296, 339.2419
299.3117, 339.7256
299.7938, 339.5019
300.2759, 338.7536
300.7580, 338.5474
301.2401, 339.4749
301.7223, 340.4991
302.2044, 340.5405
302.6865, 339.7126
303.1686, 338.9784
303.6507, 338.8592
304.1328, 339.2378
304.6150, 339.8417
305.0971, 340.8870
305.5792, 341.6625
306.0613, 341.3558
306.5434, 340.3382
307.0255, 339.6036
307.5077, 339.7432
307.9898, 340.4172
308.4719, 340.9943
308.9540, 341.5099
309.4361, 341.8004
309.9182, 341.5255
310.4004, 340.9990
310.8825, 340.7053
311.3646, 340.9103
311.8467, 341.2979
312.3288, 341.3681
312.8109, 341.0511
313.2931, 340.8875
313.7752, 341.3159
314.2573, 341.9584
314.7394, 342.4058
315.2215, 342.5853
315.7036, 342.5598
316.1858, 342.2584
316.6679, 341.6844
317.1500, 341.3587
317.6321, 341.6267
318.1142, 342.0777
318.5963, 342.2572
319.0785, 342.1197
319.5606, 342.0019
320.0427, 342.1765
320.5248, 342.5962
321.0069, 342.9815
321.4890, 343.2900
321.9712, 343.5346
322.4533, 343.6811
322.9354, 343.7548
323.4175, 343.9225
323.8996, 344.2886
324.3817, 344.8138
324.8639, 345.4420
325.3460, 346.2672
325.8281, 346.9586
326.3102, 347.1748
326.7923, 347.0766
327.2744, 346.9853
327.7566, 346.9288
328.2387, 346.9824
328.7208, 347.2379
329.2029, 347.6859
329.6850, 348.3996
330.1671, 349.6946
330.6493, 351.2066
331.1314, 352.4120
331.6135, 353.1719
332.0956, 353.6736
332.5777, 353.8763
333.0598, 353.8054
333.5420, 354.1884
334.0241, 355.2913
334.5062, 357.0558
334.9883, 359.5074
335.4704, 362.8462
335.9525, 365.8150
336.4347, 366.9218
336.9168, 366.8276
337.3989, 368.2451
337.8810, 372.3683
338.3631, 377.1767
338.8452, 380.4746
339.3274, 382.3986
339.8094, 384.3471
340.2916, 387.2630
340.7737, 390.4409
341.2558, 392.9154
341.7379, 394.7552
342.2200, 395.1384
342.7021, 392.7263
343.1843, 388.1950
343.6664, 383.4598
344.1485, 378.6867
344.6306, 373.9627
345.1127, 369.1385
345.5948, 364.2345
346.0770, 360.0401
346.5591, 357.0678
347.0412, 355.1670
347.5233, 353.6555
348.0054, 352.5435
348.4875, 351.7787
348.9697, 351.3375
349.4518, 351.2183
349.9339, 351.5162
350.4160, 352.4310
350.8981, 353.5061
351.3802, 353.7934
351.8624, 353.0724
352.3445, 352.8687
352.8266, 353.7865
353.3087, 355.4774
353.7908, 357.5930
354.2729, 360.1225
354.7551, 362.5363
355.2372, 364.1266
355.7193, 364.8738
356.2014, 366.0370
356.6835, 367.5891
357.1656, 369.6991
357.6478, 372.6832
358.1299, 376.4808
358.6120, 380.5523
359.0941, 384.5418
359.5762, 388.4855
360.0583, 392.7013
360.5405, 398.4631
361.0226, 403.1581
361.5047, 406.0052
361.9868, 406.9981
362.4689, 406.0854
362.9510, 403.1826
363.4332, 398.5757
363.9153, 392.8192
364.3974, 385.0992
364.8795, 377.8322
365.3616, 371.1452
365.8438, 365.1389
366.3259, 359.9038
366.8080, 355.4514
367.2901, 351.9745
367.7722, 349.8076
368.2543, 349.3545
368.7365, 348.6509
369.2186, 347.2299
369.7007, 345.9854
370.1828, 345.6440
370.6649, 346.0101
371.1470, 346.2753
371.6292, 345.8238
372.1113, 344.7331
372.5934, 343.9423
373.0755, 343.6241
373.5576, 343.3895
374.0397, 343.3924
374.5219, 343.3677
375.0040, 342.9036
375.4861, 341.8219
375.9682, 340.3913
376.4503, 339.1684
376.9324, 338.1064
377.4146, 337.3695
377.8967, 337.0521
378.3788, 336.9567
378.8609, 337.0119
379.3430, 337.1657
379.8251, 337.3239
380.3073, 337.4192
380.7894, 337.4891
381.2715, 337.2076
381.7536, 335.9266
382.2357, 334.9330
382.7178, 334.7881
383.2000, 335.2494
383.6821, 335.8242
384.1642, 336.2397
384.6463, 336.4865
385.1284, 336.4878
385.6105, 335.9219
386.0927, 335.6570
386.5748, 336.0499
387.0569, 336.6677
387.5390, 337.1219
388.0211, 337.2985
388.5032, 337.3112
388.9854, 337.1860
389.4675, 336.8012
389.9496, 336.9616
390.4317, 338.5570
390.9138, 340.0565
391.3959, 340.4875
391.8781, 340.0532
392.3602, 339.7332
392.8423, 340.5193
393.3244, 342.0580
393.8065, 342.4537
394.2886, 340.9881
394.7708, 339.8002
395.2529, 340.2470
395.7350, 341.4696
396.2171, 342.2605
396.6992, 342.0951
397.1813, 341.6670
397.6635, 341.9237
398.1456, 342.9009
398.6277, 343.7194
399.1098, 344.0727
399.5919, 344.1563
400.0740, 344.0661
400.5562, 343.7830
401.0383, 343.8168
401.5204, 344.7209
402.0025, 346.1423
402.4846, 347.1021
402.9667, 347.3281
403.4489, 347.5787
403.9310, 348.7895
404.4131, 350.6356
404.8952, 351.9198
405.3773, 352.0703
405.8594, 351.8442
406.3416, 351.9009
406.8237, 352.1985
407.3058, 352.4233
407.7879, 352.5174
408.2700, 352.3389
408.7521, 351.4492
409.2343, 349.4678
409.7164, 347.7318
410.1985, 346.6544
410.6806, 346.0742
411.1627, 345.8389
411.6448, 345.9099
412.1269, 346.1316
412.6090, 346.3047
413.0912, 346.3849
413.5733, 346.7144
414.0554, 347.5477
414.5375, 348.3881
415.0196, 348.6501
415.5017, 348.6191
415.9839, 349.2423
416.4660, 351.1821
416.9481, 354.1259
417.4302, 356.5854
417.9123, 357.8557
418.3944, 359.5009
418.8766, 361.7387
419.3587, 364.3710
419.8408, 367.2318
420.3229, 370.2513
420.8050, 373.4502
421.2871, 377.0108
421.7693, 381.4056
422.2514, 384.3776
422.7335, 385.2282
423.2156, 385.4444
423.6977, 385.6967
424.1798, 385.8099
424.6620, 385.2109
425.1441, 383.4591
425.6262, 380.8190
426.1083, 378.2570
426.5904, 375.7016
427.0725, 373.3618
427.5547, 371.4576
428.0368, 369.6634
428.5189, 367.5179
429.0010, 364.9447
429.4831, 362.6840
429.9652, 361.7190
430.4474, 362.0497
430.9295, 362.2805
431.4116, 362.2324
431.8937, 362.1138
432.3758, 362.2160
432.8579, 362.3783
433.3401, 362.1298
433.8222, 360.8649
434.3043, 359.3164
434.7864, 358.8120
435.2685, 359.4521
435.7506, 359.9529
436.2328, 359.6689
436.7149, 358.9384
437.1970, 358.2674
437.6791, 357.5846
438.1612, 357.2484
438.6433, 357.7047
439.1255, 358.6059
439.6076, 359.2731
440.0897, 359.5874
440.5718, 359.5550
441.0539, 359.0717
441.5360, 358.1360
442.0182, 357.3505
442.5003, 356.6227
442.9824, 356.1606
443.4645, 356.3305
443.9466, 356.9189
444.4287, 357.2685
444.9109, 357.0332
445.3930, 356.3867
445.8751, 355.7780
446.3572, 355.1104
446.8393, 354.6387
447.3214, 354.5928
447.8036, 354.6073
448.2857, 354.3013
448.7678, 353.6652
449.2499, 353.0182
449.7320, 352.6901
450.2141, 352.6998
450.6963, 352.6421
451.1784, 352.7137
451.6605, 352.4930
452.1426, 351.5690
452.6247, 350.3864
453.1068, 349.6049
453.5890, 349.5079
454.0711, 349.7070
454.5532, 349.4540
455.0353, 348.5598
455.5174, 347.8747
455.9995, 347.3873
456.4817, 347.2404
456.9638, 347.8700
457.4459, 349.0248
457.9280, 349.7663
458.4101, 349.2198
458.8922, 347.8360
459.3744, 347.0244
459.8565, 346.8735
460.3386, 347.0119
460.8207, 347.6466
461.3028, 348.3127
461.7849, 348.3707
462.2671, 347.5923
462.7492, 346.7283
463.2313, 346.2371
463.7134, 346.0875
464.1955, 346.2441
464.6776, 346.7822
465.1598, 347.3561
465.6419, 347.5378
466.1240, 347.3795
466.6061, 347.4557
467.0882, 347.9861
467.5703, 348.6403
468.0525, 349.1891
468.5346, 349.6634
469.0167, 350.1795
469.4988, 350.7784
469.9809, 351.4949
470.4630, 352.4359
470.9452, 353.8068
471.4273, 355.0303
471.9094, 356.2326
472.3915, 357.1805
472.8736, 357.5416
473.3557, 357.3944
473.8379, 357.1705
474.3200, 357.2002
474.8021, 357.4884
475.2842, 358.1169
475.7663, 359.3965
476.2484, 360.6484
476.7306, 361.8371
477.2127, 362.9112
477.6948, 363.7542
478.1769, 364.3470
478.6590, 364.9137
479.1411, 365.7114
479.6233, 366.7464
480.1054, 367.9456
480.5875, 369.2658
481.0696, 370.8229
481.5517, 372.4998
482.0338, 374.4417
482.5159, 377.0219
482.9980, 380.6060
483.4802, 384.5926
483.9623, 388.1091
484.4444, 391.1548
484.9265, 394.2328
485.4086, 397.6673
485.8907, 401.0399
486.3729, 404.0514
486.8550, 406.7574
487.3371, 408.4470
487.8192, 408.6929
488.3013, 407.9048
488.7834, 406.7265
489.2656, 405.1400
489.7477, 402.3512
490.2298, 397.6692
490.7119, 391.4198
491.1940, 385.3348
491.6761, 378.9285
492.1583, 373.2403
492.6404, 368.8376
493.1225, 365.0264
493.6046, 361.0089
494.0867, 356.6596
494.5688, 352.4206
495.0510, 348.7736
495.5331, 345.7370
496.0152, 343.1085
496.4973, 341.2320
496.9794, 339.4057
497.4615, 337.5247
497.9437, 335.5737
498.4258, 333.5164
498.9079, 331.3389
499.3900, 329.1971
499.8721, 327.2916
500.3542, 325.6287
500.8364, 324.2474
501.3185, 323.4085
501.8006, 322.5838
502.2827, 321.4131
502.7648, 320.0181
503.2469, 318.6945
503.7291, 317.5301
504.2112, 316.5604
504.6933, 315.9061
505.1754, 315.5593
505.6575, 315.2278
506.1396, 314.7925
506.6218, 314.3481
507.1039, 314.0613
507.5860, 313.9500
508.0681, 313.7688
508.5502, 313.4893
509.0323, 313.0877
509.5145, 312.3565
509.9966, 311.3949
510.4787, 310.8122
510.9608, 311.0556
511.4429, 311.8887
511.9250, 312.3537
512.4072, 312.2316
512.8893, 312.0247
513.3714, 311.8333
513.8535, 311.5200
514.3356, 310.7500
514.8177, 309.6327
515.2999, 308.8024
515.7820, 308.8955
516.2641, 309.8359
516.7462, 310.6724
517.2283, 311.6368
517.7104, 312.0981
518.1926, 311.4673
518.6747, 310.5624
519.1568, 310.2089
519.6389, 310.6035
520.1210, 311.3228
520.6031, 312.1314
521.0853, 312.9698
521.5674, 313.3780
522.0495, 313.1484
522.5316, 312.8996
523.0137, 313.1641
523.4958, 313.6941
523.9780, 313.9804
524.4601, 313.7148
524.9422, 313.5655
525.4243, 314.0997
525.9064, 315.0672
526.3885, 315.9116
526.8707, 316.4969
527.3528, 316.8834
527.8349, 317.1468
528.3170, 317.2910
528.7991, 317.1572
529.2813, 316.1710
529.7634, 315.5401
530.2455, 316.0971
530.7276, 317.2686
531.2097, 318.0631
531.6918, 318.0967
532.1740, 317.7746
532.6561, 317.8294
533.1382, 318.5567
533.6203, 318.6437
534.1024, 317.0424
534.5845, 315.8121
535.0667, 316.1854
535.5488, 317.4238
536.0309, 318.0019
536.5130, 317.1087
536.9951, 315.6054
537.4772, 314.8095
537.9594, 314.7381
538.4415, 314.5225
538.9236, 313.9266
539.4057, 313.1919
539.8878, 312.4180
540.3699, 311.6523
540.8521, 311.1942
541.3342, 311.3022
541.8163, 311.6111
542.2984, 311.8297
542.7805, 311.9785
543.2626, 312.2207
543.7448, 312.6706
544.2269, 313.0521
544.7090, 312.8528
545.1911, 311.7359
545.6732, 310.9066
546.1553, 310.5552
546.6375, 310.3083
547.1196, 309.9513
547.6017, 309.5208
548.0838, 309.1719
548.5659, 308.9922
549.0480, 308.8807
549.5302, 308.5682
550.0123, 307.9209
550.4944, 307.4722
550.9765, 307.5631
551.4586, 307.6205
551.9407, 307.2003
552.4229, 306.4820
552.9050, 306.0535
553.3871, 306.0293
553.8692, 306.7938
554.3513, 307.1949
554.8334, 307.2522
555.3156, 305.9354
555.7977, 306.3928
556.2798, 306.1393
556.7619, 305.8565
557.2440, 306.5636
557.7261, 305.4467
558.2083, 306.1382
558.6904, 306.1077
559.1725, 306.4077
559.6546, 305.9923
560.1367, 305.7978
560.6188, 306.3189
561.1010, 306.4438
561.5831, 305.9460
562.0652, 306.2670
562.5473, 304.8723
563.0294, 305.2185
563.5115, 305.6183
563.9937, 305.8487
564.4758, 305.8995
564.9579, 305.7885
565.4400, 305.4999
565.9221, 305.1608
566.4042, 304.9972
566.8864, 305.0177
567.3685, 305.1514
567.8506, 305.4745
568.3327, 305.8016
568.8148, 306.0124
569.2969, 306.1143
569.7791, 306.1336
570.2612, 305.9838
570.7433, 305.8385
571.2254, 305.8165
571.7075, 305.9256
572.1896, 306.2506
572.6718, 306.8610
573.1539, 307.4865
573.6360, 307.7521
574.1181, 307.5658
574.6002, 307.4563
575.0823, 307.4692
575.5645, 307.5074
576.0466, 307.6722
576.5287, 307.7959
577.0108, 307.5213
577.4929, 306.7295
577.9750, 305.8423
578.4572, 305.6098
578.9393, 306.2075
579.4214, 306.2704
579.9035, 305.5298
580.3856, 304.5462
580.8677, 303.3365
581.3499, 302.1380
581.8320, 301.4226
582.3141, 301.4752
582.7962, 301.5284
583.2783, 300.7289
583.7604, 299.3716
584.2426, 298.3791
584.7247, 297.9195
585.2068, 297.7983
585.6889, 297.9571
586.1710, 298.3471
586.6531, 298.5310
587.1352, 298.5213
587.6173, 298.3022
588.0994, 297.6962
588.5815, 296.9678
589.0637, 296.3463
589.5458, 295.9124
