##NAMES=Grandreefite
##RRUFFID=R100012
##IDEAL CHEMISTRY=Pb^2+^_2_(S^6+^O_4_)F_2_
##LOCALITY=Grand Reef mine, Klondyke, Aravaipa District, Graham County, Arizona, USA
##OWNER=RRUFF
##SOURCE=Natural History Museum of Los Angeles County
##DESCRIPTION=Colorless fragments from type specimen, associated with laurelite R100035 and pseudograndreefite R100006.  Photos of type specimen are courtesy of LACMNH.
##STATUS=The identification of this mineral has been confirmed by single-crystal X-ray diffraction.
##URL=rruff.info/R100012
119.4192, 48.49033
119.9013, 49.09978
120.3834, 49.76698
120.8655, 50.34309
121.3477, 50.96618
121.8298, 51.64439
122.3119, 52.32997
122.7940, 53.36583
123.2761, 54.94096
123.7582, 57.04381
124.2404, 59.64861
124.7225, 62.69319
125.2046, 66.26547
125.6867, 70.47466
126.1688, 75.44325
126.6509, 80.85110
127.1331, 86.15319
127.6152, 91.48721
128.0973, 97.53731
128.5794, 104.7410
129.0615, 113.0077
129.5436, 122.0876
130.0258, 131.8628
130.5079, 142.5060
130.9900, 154.1686
131.4721, 166.7511
131.9542, 181.3868
132.4363, 198.9635
132.9185, 219.4187
133.4006, 242.2917
133.8827, 267.5290
134.3648, 294.9088
134.8469, 325.6845
135.3290, 360.0821
135.8112, 397.0478
136.2933, 436.0575
136.7754, 477.5442
137.2575, 517.1693
137.7396, 553.7392
138.2217, 586.6809
138.7039, 618.3294
139.1860, 649.4765
139.6681, 678.1354
140.1502, 701.1911
140.6323, 717.1129
141.1144, 731.7720
141.5966, 746.9659
142.0787, 762.3076
142.5608, 779.3951
143.0429, 797.4666
143.5250, 817.6359
144.0071, 842.3898
144.4893, 871.7569
144.9714, 905.3350
145.4535, 942.7042
145.9356, 985.2801
146.4177, 1029.789
146.8998, 1077.790
147.3820, 1128.003
147.8641, 1177.196
148.3462, 1223.978
148.8283, 1270.426
149.3104, 1318.227
149.7925, 1369.227
150.2747, 1418.841
150.7568, 1466.034
151.2389, 1510.910
151.7210, 1554.536
152.2031, 1597.335
152.6852, 1638.202
153.1674, 1676.916
153.6495, 1713.604
154.1316, 1747.603
154.6137, 1776.861
155.0958, 1801.250
155.5779, 1829.307
156.0601, 1865.722
156.5422, 1904.638
157.0243, 1940.620
157.5064, 1968.032
157.9885, 1996.785
158.4706, 2029.718
158.9528, 2067.239
159.4349, 2106.699
159.9170, 2149.117
160.3991, 2192.616
160.8812, 2235.030
161.3633, 2273.144
161.8455, 2312.114
162.3276, 2354.944
162.8097, 2402.118
163.2918, 2449.264
163.7739, 2495.770
164.2560, 2537.876
164.7382, 2558.095
165.2203, 2568.840
165.7024, 2576.675
166.1845, 2582.075
166.6666, 2585.072
167.1487, 2586.170
167.6309, 2586.304
168.1130, 2584.863
168.5951, 2580.523
169.0772, 2571.190
169.5593, 2559.553
170.0414, 2548.030
170.5236, 2537.476
171.0057, 2525.975
171.4878, 2510.805
171.9699, 2493.076
172.4520, 2476.519
172.9341, 2462.628
173.4163, 2451.033
173.8984, 2441.438
174.3805, 2434.042
174.8626, 2427.993
175.3447, 2422.742
175.8268, 2418.107
176.3090, 2413.316
176.7911, 2406.599
177.2732, 2399.593
177.7553, 2395.128
178.2374, 2394.526
178.7195, 2395.983
179.2017, 2397.524
179.6838, 2399.148
180.1659, 2400.821
180.6480, 2402.252
181.1301, 2403.705
181.6122, 2405.907
182.0944, 2409.488
182.5765, 2413.603
183.0586, 2417.505
183.5407, 2421.128
184.0228, 2423.130
184.5049, 2421.510
184.9871, 2417.029
185.4692, 2412.490
185.9513, 2409.090
186.4334, 2406.070
186.9155, 2401.082
187.3976, 2393.982
187.8798, 2386.870
188.3619, 2381.253
188.8440, 2377.192
189.3261, 2375.567
189.8082, 2377.902
190.2903, 2382.856
190.7725, 2384.954
191.2546, 2383.662
191.7367, 2382.478
192.2188, 2385.496
192.7009, 2392.586
193.1830, 2401.115
193.6652, 2410.845
194.1473, 2421.477
194.6294, 2429.998
195.1115, 2435.784
195.5936, 2441.520
196.0757, 2451.563
196.5579, 2466.090
197.0400, 2479.741
197.5221, 2489.571
198.0042, 2495.919
198.4863, 2504.785
198.9684, 2516.526
199.4506, 2529.969
199.9327, 2543.149
200.4148, 2556.009
200.8969, 2569.605
201.3790, 2585.276
201.8611, 2603.095
202.3433, 2618.085
202.8254, 2629.473
203.3075, 2639.241
203.7896, 2650.891
204.2717, 2664.973
204.7538, 2678.208
205.2360, 2688.720
205.7181, 2696.068
206.2002, 2704.794
206.6823, 2715.667
207.1644, 2726.965
207.6465, 2735.625
208.1287, 2741.407
208.6108, 2745.245
209.0929, 2746.909
209.5750, 2745.742
210.0571, 2746.655
210.5392, 2750.964
211.0214, 2756.316
211.5035, 2757.544
211.9856, 2753.733
212.4677, 2748.528
212.9498, 2743.558
213.4319, 2739.183
213.9140, 2733.742
214.3962, 2726.893
214.8783, 2719.127
215.3604, 2711.771
215.8425, 2704.994
216.3246, 2697.976
216.8067, 2690.294
217.2889, 2682.028
217.7710, 2672.853
218.2531, 2662.476
218.7352, 2651.272
219.2173, 2639.929
219.6994, 2628.406
220.1816, 2616.652
220.6637, 2604.155
221.1458, 2589.969
221.6279, 2577.922
222.1100, 2569.111
222.5921, 2562.073
223.0743, 2552.398
223.5564, 2538.751
224.0385, 2525.059
224.5206, 2513.390
225.0027, 2503.987
225.4848, 2495.780
225.9670, 2489.547
226.4491, 2484.362
226.9312, 2477.485
227.4133, 2468.022
227.8954, 2458.362
228.3775, 2449.720
228.8597, 2441.993
229.3418, 2435.065
229.8239, 2429.087
230.3060, 2423.733
230.7881, 2418.518
231.2702, 2413.980
231.7524, 2408.472
232.2345, 2401.027
232.7166, 2389.969
233.1987, 2380.604
233.6808, 2373.884
234.1629, 2368.663
234.6451, 2361.677
235.1272, 2352.159
235.6093, 2342.210
236.0914, 2332.726
236.5735, 2323.816
237.0556, 2315.409
237.5378, 2308.022
238.0199, 2301.091
238.5020, 2293.108
238.9841, 2283.531
239.4662, 2273.653
239.9483, 2263.912
240.4305, 2254.335
240.9126, 2244.955
241.3947, 2235.270
241.8768, 2225.881
242.3589, 2218.543
242.8410, 2214.716
243.3232, 2210.603
243.8053, 2204.308
244.2874, 2193.896
244.7695, 2186.109
245.2516, 2182.623
245.7337, 2181.051
246.2159, 2175.656
246.6980, 2163.429
247.1801, 2152.135
247.6622, 2145.051
248.1443, 2144.115
248.6264, 2141.862
249.1086, 2137.354
249.5907, 2132.006
250.0728, 2128.946
250.5549, 2129.708
251.0370, 2130.160
251.5191, 2128.441
252.0013, 2123.464
252.4834, 2119.946
252.9655, 2118.318
253.4476, 2117.859
253.9297, 2117.395
254.4118, 2117.176
254.8940, 2116.414
255.3761, 2114.573
255.8582, 2111.089
256.3403, 2108.932
256.8224, 2109.015
257.3046, 2109.747
257.7867, 2108.316
258.2688, 2103.739
258.7509, 2099.114
259.2330, 2095.383
259.7151, 2092.547
260.1973, 2090.788
260.6794, 2090.655
261.1615, 2091.162
261.6436, 2090.739
262.1257, 2088.810
262.6078, 2087.363
263.0900, 2087.137
263.5721, 2088.273
264.0542, 2089.076
264.5363, 2089.393
265.0184, 2089.512
265.5005, 2089.977
265.9827, 2091.152
266.4648, 2091.463
266.9469, 2090.081
267.4290, 2086.933
267.9111, 2085.114
268.3932, 2085.250
268.8754, 2085.730
269.3575, 2084.415
269.8396, 2080.554
270.3217, 2077.733
270.8038, 2077.419
271.2859, 2079.398
271.7681, 2078.983
272.2502, 2075.491
272.7323, 2071.067
273.2144, 2067.968
273.6965, 2066.386
274.1786, 2065.036
274.6608, 2063.674
275.1429, 2062.316
275.6250, 2061.064
276.1071, 2059.988
276.5892, 2058.839
277.0714, 2057.423
277.5535, 2055.725
278.0356, 2053.902
278.5177, 2051.950
278.9998, 2049.923
279.4819, 2047.986
279.9641, 2046.103
280.4462, 2044.465
280.9283, 2043.295
281.4104, 2042.629
281.8925, 2041.972
282.3746, 2041.240
282.8568, 2040.482
283.3389, 2039.816
283.8210, 2039.226
284.3031, 2038.721
284.7852, 2038.029
285.2673, 2037.192
285.7495, 2037.411
286.2316, 2039.110
286.7137, 2041.444
287.1958, 2042.651
287.6779, 2042.679
288.1600, 2042.353
288.6422, 2041.755
289.1243, 2041.037
289.6064, 2041.669
290.0885, 2044.164
290.5706, 2047.074
291.0527, 2047.826
291.5349, 2046.571
292.0170, 2045.303
292.4991, 2045.547
292.9812, 2046.767
293.4633, 2046.805
293.9454, 2045.402
294.4276, 2043.558
294.9097, 2042.754
295.3918, 2042.774
295.8739, 2042.470
296.3560, 2040.319
296.8381, 2037.526
297.3203, 2037.553
297.8024, 2040.721
298.2845, 2044.166
298.7666, 2044.557
299.2487, 2042.669
299.7308, 2040.916
300.2130, 2040.238
300.6951, 2040.316
301.1772, 2040.888
301.6593, 2041.962
302.1414, 2042.857
302.6235, 2042.644
303.1057, 2041.857
303.5878, 2041.544
304.0699, 2042.081
304.5520, 2043.279
305.0341, 2045.796
305.5162, 2049.337
305.9984, 2051.394
306.4805, 2048.417
306.9626, 2043.249
307.4447, 2039.990
307.9268, 2040.515
308.4089, 2042.149
308.8911, 2042.127
309.3732, 2040.994
309.8553, 2041.056
310.3374, 2045.225
310.8195, 2050.521
311.3016, 2053.818
311.7838, 2053.852
312.2659, 2053.122
312.7480, 2052.826
313.2301, 2052.998
313.7122, 2053.677
314.1943, 2056.124
314.6765, 2058.341
315.1586, 2058.474
315.6407, 2055.464
316.1228, 2053.279
316.6049, 2054.755
317.0870, 2058.189
317.5692, 2060.751
318.0513, 2060.326
318.5334, 2059.665
319.0155, 2060.243
319.4976, 2062.365
319.9797, 2064.157
320.4619, 2064.754
320.9440, 2064.730
321.4261, 2064.731
321.9082, 2064.389
322.3903, 2064.558
322.8724, 2065.676
323.3546, 2067.771
323.8367, 2069.876
324.3188, 2072.636
324.8009, 2074.953
325.2830, 2075.969
325.7651, 2074.042
326.2473, 2072.638
326.7294, 2072.365
327.2115, 2073.156
327.6936, 2074.257
328.1757, 2076.672
328.6578, 2078.653
329.1400, 2079.325
329.6221, 2077.547
330.1042, 2075.950
330.5863, 2073.929
331.0684, 2072.048
331.5505, 2072.086
332.0327, 2075.440
332.5148, 2078.994
332.9969, 2081.531
333.4790, 2082.598
333.9611, 2083.643
334.4432, 2084.505
334.9254, 2085.417
335.4075, 2086.967
335.8896, 2089.994
336.3717, 2091.957
336.8538, 2091.524
337.3359, 2088.294
337.8180, 2087.346
338.3001, 2089.300
338.7823, 2092.627
339.2644, 2095.949
339.7465, 2099.615
340.2286, 2101.765
340.7107, 2101.350
341.1928, 2098.897
341.6750, 2098.428
342.1571, 2100.371
342.6392, 2102.596
343.1213, 2103.080
343.6034, 2101.768
344.0855, 2101.072
344.5677, 2101.507
345.0498, 2102.627
345.5319, 2103.253
346.0140, 2103.358
346.4961, 2103.763
346.9782, 2105.483
347.4604, 2108.144
347.9425, 2109.647
348.4246, 2109.642
348.9067, 2109.072
349.3888, 2109.260
349.8709, 2110.120
350.3531, 2111.065
350.8352, 2111.844
351.3173, 2112.522
351.7994, 2113.473
352.2815, 2114.784
352.7636, 2115.435
353.2458, 2113.157
353.7279, 2109.478
354.2100, 2107.740
354.6921, 2110.789
355.1742, 2115.269
355.6563, 2117.406
356.1385, 2117.399
356.6206, 2117.593
357.1027, 2119.942
357.5848, 2123.243
358.0669, 2126.173
358.5490, 2128.581
359.0312, 2130.196
359.5133, 2130.020
359.9954, 2128.735
360.4775, 2128.469
360.9596, 2131.325
361.4417, 2134.823
361.9239, 2136.997
362.4060, 2136.714
362.8881, 2137.522
363.3702, 2142.475
363.8523, 2149.027
364.3344, 2153.273
364.8166, 2153.173
365.2987, 2151.436
365.7808, 2148.431
366.2629, 2143.894
366.7450, 2140.782
367.2271, 2140.522
367.7093, 2141.452
368.1914, 2142.118
368.6735, 2142.603
369.1556, 2142.621
369.6377, 2141.685
370.1198, 2139.992
370.6020, 2139.403
371.0841, 2141.638
371.5662, 2143.380
372.0483, 2142.554
372.5304, 2136.117
373.0125, 2132.977
373.4947, 2134.886
373.9768, 2139.645
374.4589, 2141.958
374.9410, 2140.646
375.4231, 2139.302
375.9052, 2139.268
376.3874, 2140.678
376.8695, 2142.581
377.3516, 2145.391
377.8337, 2148.046
378.3158, 2149.077
378.7979, 2148.271
379.2801, 2147.428
379.7622, 2146.747
380.2443, 2146.438
380.7264, 2147.848
381.2085, 2151.209
381.6906, 2154.542
382.1728, 2156.070
382.6549, 2156.019
383.1370, 2155.623
383.6191, 2154.803
384.1012, 2154.217
384.5833, 2155.241
385.0655, 2157.698
385.5476, 2160.202
386.0297, 2162.332
386.5118, 2163.913
386.9939, 2164.266
387.4760, 2163.112
387.9582, 2162.311
388.4403, 2164.549
388.9224, 2168.421
389.4045, 2170.991
389.8866, 2169.905
390.3687, 2167.819
390.8509, 2166.705
391.3330, 2166.566
391.8151, 2167.198
392.2972, 2168.797
392.7793, 2170.953
393.2614, 2173.367
393.7436, 2176.647
394.2257, 2179.141
394.7078, 2179.817
395.1899, 2179.132
395.6720, 2178.276
396.1541, 2176.433
396.6363, 2175.490
397.1184, 2176.960
397.6005, 2182.497
398.0826, 2185.748
398.5647, 2183.805
399.0468, 2179.754
399.5290, 2177.328
400.0111, 2177.898
400.4932, 2178.927
400.9753, 2179.916
401.4574, 2180.873
401.9395, 2182.613
402.4217, 2185.644
402.9038, 2188.899
403.3859, 2191.637
403.8680, 2193.550
404.3501, 2195.774
404.8322, 2198.995
405.3144, 2202.247
405.7965, 2202.426
406.2786, 2198.533
406.7607, 2194.882
407.2428, 2193.343
407.7249, 2193.957
408.2071, 2195.588
408.6892, 2198.455
409.1713, 2201.691
409.6534, 2204.273
410.1355, 2206.211
410.6176, 2207.901
411.0998, 2209.351
411.5819, 2210.727
412.0640, 2212.521
412.5461, 2214.704
413.0282, 2216.855
413.5103, 2218.769
413.9925, 2220.381
414.4746, 2221.622
414.9567, 2222.542
415.4388, 2222.912
415.9209, 2222.255
416.4030, 2220.853
416.8852, 2219.390
417.3673, 2217.497
417.8494, 2216.169
418.3315, 2216.392
418.8136, 2218.226
419.2957, 2220.576
419.7779, 2223.694
420.2600, 2226.653
420.7421, 2228.473
421.2242, 2227.292
421.7063, 2226.640
422.1884, 2228.713
422.6706, 2232.523
423.1527, 2234.380
423.6348, 2231.271
424.1169, 2227.777
424.5990, 2225.895
425.0811, 2226.060
425.5633, 2227.322
426.0454, 2230.548
426.5275, 2234.460
427.0096, 2237.468
427.4917, 2239.005
427.9738, 2240.455
428.4560, 2241.967
428.9381, 2243.565
429.4202, 2245.590
429.9023, 2247.874
430.3844, 2250.796
430.8665, 2254.723
431.3487, 2259.800
431.8308, 2264.564
432.3129, 2268.096
432.7950, 2272.232
433.2771, 2281.046
433.7592, 2294.560
434.2414, 2309.791
434.7235, 2325.688
435.2056, 2342.186
435.6877, 2359.836
436.1698, 2378.773
436.6519, 2396.261
437.1341, 2408.992
437.6162, 2417.859
438.0983, 2425.381
438.5804, 2431.702
439.0625, 2437.742
439.5446, 2444.175
440.0268, 2451.144
440.5089, 2459.125
440.9910, 2467.519
441.4731, 2477.588
441.9552, 2490.647
442.4373, 2506.854
442.9195, 2525.414
443.4016, 2544.711
443.8837, 2566.515
444.3658, 2592.979
444.8479, 2622.332
445.3300, 2658.886
445.8122, 2706.802
446.2943, 2764.591
446.7764, 2822.681
447.2585, 2877.345
447.7406, 2933.707
448.2227, 2994.650
448.7049, 3060.219
449.1870, 3129.572
449.6691, 3206.933
450.1512, 3285.686
450.6333, 3358.020
451.1154, 3439.151
451.5976, 3482.296
452.0797, 3472.312
452.5618, 3411.293
453.0439, 3319.703
453.5260, 3189.907
454.0081, 3058.851
454.4903, 2952.170
454.9724, 2870.678
455.4545, 2813.247
455.9366, 2782.700
456.4187, 2771.286
456.9008, 2768.645
457.3830, 2774.649
457.8651, 2788.103
458.3472, 2810.313
458.8293, 2839.054
459.3114, 2870.050
459.7935, 2903.066
460.2757, 2942.371
460.7578, 2992.972
461.2399, 3051.130
461.7220, 3111.719
462.2041, 3175.060
462.6862, 3238.878
463.1684, 3301.522
463.6505, 3363.883
464.1326, 3426.571
464.6147, 3496.351
465.0968, 3561.528
465.5789, 3617.486
466.0611, 3665.103
466.5432, 3694.747
467.0253, 3706.776
467.5074, 3698.331
467.9895, 3666.969
468.4716, 3606.034
468.9538, 3529.277
469.4359, 3432.461
469.9180, 3321.370
470.4001, 3212.220
470.8822, 3102.477
471.3643, 3000.610
471.8465, 2909.802
472.3286, 2830.187
472.8107, 2760.594
473.2928, 2702.503
473.7749, 2652.794
474.2570, 2609.582
474.7392, 2572.866
475.2213, 2542.294
475.7034, 2518.564
476.1855, 2499.983
476.6676, 2483.895
477.1497, 2470.093
477.6319, 2457.405
478.1140, 2444.038
478.5961, 2431.474
479.0782, 2422.854
479.5603, 2418.586
480.0424, 2415.066
480.5246, 2409.062
481.0067, 2402.029
481.4888, 2396.039
481.9709, 2392.306
482.4530, 2389.056
482.9352, 2384.774
483.4173, 2380.120
483.8994, 2377.194
484.3815, 2378.271
484.8636, 2379.946
485.3457, 2380.705
485.8279, 2380.374
486.3100, 2379.336
486.7921, 2376.983
487.2742, 2374.297
487.7563, 2372.097
488.2384, 2370.466
488.7206, 2369.227
489.2027, 2368.552
489.6848, 2368.238
490.1669, 2367.589
490.6490, 2366.631
491.1311, 2365.331
491.6133, 2363.281
492.0954, 2360.519
492.5775, 2359.818
493.0596, 2361.663
493.5417, 2363.593
494.0238, 2361.721
494.5060, 2357.188
494.9881, 2355.667
495.4702, 2359.682
495.9523, 2365.595
496.4344, 2367.988
496.9165, 2367.668
497.3987, 2367.673
497.8808, 2370.712
498.3629, 2374.262
498.8450, 2375.444
499.3271, 2373.922
499.8092, 2372.915
500.2914, 2374.989
500.7735, 2377.949
501.2556, 2379.728
501.7377, 2377.262
502.2198, 2376.579
502.7019, 2381.086
503.1841, 2388.438
503.6662, 2392.265
504.1483, 2388.974
504.6304, 2385.427
505.1125, 2383.438
505.5946, 2383.089
506.0768, 2383.416
506.5589, 2384.931
507.0410, 2386.419
507.5231, 2386.591
508.0052, 2385.092
508.4873, 2384.938
508.9695, 2386.876
509.4516, 2389.682
509.9337, 2390.839
510.4158, 2390.443
510.8979, 2390.361
511.3800, 2391.913
511.8622, 2394.155
512.3443, 2394.750
512.8264, 2393.756
513.3085, 2392.682
513.7906, 2392.550
514.2728, 2393.052
514.7549, 2393.817
515.2370, 2394.793
515.7191, 2395.974
516.2012, 2398.132
516.6833, 2400.337
517.1655, 2401.200
517.6476, 2398.211
518.1297, 2395.888
518.6118, 2396.380
519.0939, 2399.429
519.5760, 2401.598
520.0582, 2401.299
520.5403, 2401.067
521.0224, 2402.157
521.5045, 2405.534
521.9866, 2407.301
522.4688, 2406.794
522.9509, 2405.371
523.4330, 2404.497
523.9151, 2404.093
524.3972, 2404.713
524.8793, 2406.792
525.3615, 2409.677
525.8436, 2411.449
526.3257, 2412.138
526.8078, 2413.276
527.2899, 2417.447
527.7720, 2422.467
528.2542, 2422.229
528.7363, 2416.333
529.2184, 2410.573
529.7005, 2410.217
530.1826, 2412.939
530.6647, 2415.681
531.1469, 2417.702
531.6290, 2419.368
532.1111, 2420.659
532.5932, 2421.729
533.0753, 2422.886
533.5574, 2424.872
534.0396, 2426.314
534.5217, 2426.340
535.0038, 2424.789
535.4859, 2424.185
535.9680, 2424.622
536.4501, 2425.925
536.9323, 2428.333
537.4144, 2433.130
537.8965, 2435.234
538.3786, 2433.710
538.8607, 2430.641
539.3428, 2428.998
539.8250, 2428.824
540.3071, 2429.629
540.7892, 2431.759
541.2713, 2434.421
541.7534, 2435.505
542.2355, 2435.122
542.7177, 2434.303
543.1998, 2432.933
543.6819, 2431.835
544.1640, 2432.621
544.6461, 2435.483
545.1282, 2438.437
545.6104, 2440.668
546.0925, 2441.948
546.5746, 2441.888
547.0567, 2438.566
547.5388, 2436.394
548.0209, 2437.665
548.5031, 2441.090
548.9852, 2443.865
549.4673, 2444.657
549.9494, 2445.726
550.4315, 2447.888
550.9136, 2451.138
551.3958, 2453.388
551.8779, 2454.204
552.3600, 2454.773
552.8421, 2456.122
553.3242, 2458.479
553.8063, 2459.181
554.2885, 2457.685
554.7706, 2455.727
555.2527, 2455.843
555.7348, 2457.714
556.2169, 2459.351
556.6990, 2460.058
557.1812, 2460.345
557.6633, 2460.774
558.1454, 2461.365
558.6275, 2462.205
559.1096, 2463.149
559.5917, 2464.499
560.0739, 2466.794
560.5560, 2470.103
561.0381, 2472.942
561.5202, 2474.357
562.0023, 2475.266
562.4844, 2476.263
562.9666, 2476.351
563.4487, 2478.251
563.9308, 2483.642
564.4129, 2490.186
564.8950, 2494.208
565.3771, 2494.587
565.8593, 2494.739
566.3414, 2495.083
566.8235, 2495.783
567.3056, 2497.632
567.7877, 2500.619
568.2698, 2504.672
568.7520, 2509.991
569.2341, 2516.358
569.7162, 2523.513
570.1983, 2531.468
570.6804, 2539.065
571.1625, 2544.186
571.6447, 2548.423
572.1268, 2554.542
572.6089, 2564.220
573.0910, 2573.887
573.5731, 2581.519
574.0552, 2587.605
574.5374, 2593.160
575.0195, 2597.304
575.5016, 2602.164
575.9837, 2607.788
576.4658, 2614.382
576.9479, 2624.268
577.4301, 2640.000
577.9122, 2655.868
578.3943, 2668.818
578.8764, 2677.402
579.3585, 2691.384
579.8406, 2711.996
580.3228, 2735.266
580.8049, 2757.461
581.2870, 2778.521
581.7691, 2799.184
582.2512, 2819.127
582.7333, 2839.309
583.2155, 2862.446
583.6975, 2887.013
584.1796, 2909.435
584.6617, 2928.198
585.1439, 2943.570
585.6260, 2957.884
586.1081, 2969.840
586.5902, 2973.022
587.0723, 2965.106
587.5544, 2947.073
588.0366, 2917.380
588.5187, 2873.286
589.0008, 2829.624
589.4829, 2785.487
589.9650, 2744.274
590.4471, 2708.471
590.9293, 2678.099
591.4114, 2653.351
591.8935, 2635.177
592.3756, 2621.387
592.8577, 2607.759
593.3398, 2594.242
593.8220, 2583.786
594.3041, 2578.029
594.7862, 2575.434
595.2683, 2573.043
595.7504, 2570.799
596.2325, 2568.126
596.7147, 2563.395
597.1968, 2558.745
597.6789, 2557.116
598.1610, 2558.776
598.6431, 2560.316
599.1252, 2559.953
599.6074, 2558.621
600.0895, 2557.009
600.5716, 2554.767
601.0537, 2553.120
601.5358, 2551.997
602.0179, 2551.696
602.5001, 2552.741
602.9822, 2555.857
603.4643, 2558.833
603.9464, 2561.317
604.4285, 2563.367
604.9106, 2564.230
605.3928, 2563.335
605.8749, 2566.110
606.3570, 2578.589
606.8391, 2596.543
607.3212, 2604.472
607.8033, 2602.761
608.2855, 2601.746
608.7676, 2610.881
609.2497, 2624.758
609.7318, 2636.446
610.2139, 2644.772
610.6960, 2652.079
611.1782, 2659.493
611.6603, 2666.633
612.1424, 2673.188
612.6245, 2678.491
