##NAMES=Graphite
##RRUFFID=R090047
##IDEAL CHEMISTRY=C
##LOCALITY=Merelani, Tanzania
##OWNER=RRUFF
##SOURCE=Wendell Wilson
##DESCRIPTION=Silver gray platelets associated with diopside, R090046
##STATUS=The identification of this mineral has been confirmed by single-crystal X-ray diffraction.
##URL=rruff.info/R090047
150.0462, 23.12580
150.5283, 23.43955
151.0104, 23.86928
151.4925, 24.31926
151.9746, 25.07418
152.4567, 25.73950
152.9389, 26.43405
153.4210, 27.01369
153.9031, 27.25971
154.3852, 27.08681
154.8673, 26.65416
155.3494, 25.94263
155.8316, 24.73267
156.3137, 23.76728
156.7958, 23.19056
157.2779, 22.91833
157.7600, 22.81280
158.2421, 22.99705
158.7243, 23.21987
159.2064, 23.36545
159.6885, 23.40924
160.1706, 23.38905
160.6527, 23.20096
161.1348, 22.93993
161.6170, 22.86271
162.0991, 23.49881
162.5812, 24.08834
163.0633, 24.10546
163.5454, 23.10219
164.0275, 21.97171
164.5097, 20.96931
164.9918, 20.12360
165.4739, 19.55536
165.9560, 19.30497
166.4381, 19.36209
166.9202, 19.72513
167.4024, 20.58368
167.8845, 21.54993
168.3666, 22.47609
168.8487, 23.34281
169.3308, 24.01355
169.8129, 24.56875
170.2951, 24.83297
170.7772, 24.56617
171.2593, 23.12214
171.7414, 21.54566
172.2235, 20.83405
172.7056, 20.94028
173.1878, 21.12709
173.6699, 20.67677
174.1520, 19.95165
174.6341, 19.57529
175.1162, 20.01886
175.5984, 20.81159
176.0805, 21.49187
176.5626, 22.06419
177.0447, 22.44516
177.5268, 22.48300
178.0089, 22.27117
178.4911, 22.03829
178.9732, 21.88372
179.4553, 21.76681
179.9374, 21.63668
180.4195, 21.49421
180.9016, 21.31555
181.3838, 21.04298
181.8659, 20.70087
182.3480, 20.38588
182.8301, 20.06095
183.3122, 19.80035
183.7943, 19.81269
184.2765, 20.13798
184.7586, 20.55289
185.2407, 20.80507
185.7228, 20.90798
186.2049, 20.92777
186.6870, 20.85783
187.1692, 20.72437
187.6513, 20.68345
188.1334, 20.79917
188.6155, 20.82063
189.0976, 20.11903
189.5797, 18.75827
190.0619, 17.77420
190.5440, 17.95688
191.0261, 19.11030
191.5082, 20.02342
191.9903, 20.64862
192.4724, 20.97114
192.9546, 20.80184
193.4367, 20.11832
193.9188, 19.57065
194.4009, 19.62451
194.8830, 20.24388
195.3651, 20.66815
195.8473, 20.85411
196.3294, 20.82557
196.8115, 20.58830
197.2936, 20.12728
197.7757, 19.58718
198.2578, 18.92122
198.7400, 18.11900
199.2221, 17.76931
199.7042, 17.99242
200.1863, 18.61570
200.6684, 19.38076
201.1505, 20.38441
201.6327, 21.06685
202.1148, 20.91006
202.5969, 19.79767
203.0790, 19.06873
203.5611, 18.92205
204.0432, 19.16109
204.5254, 19.27927
205.0075, 19.26429
205.4896, 19.17268
205.9717, 18.97243
206.4538, 18.60392
206.9359, 18.51169
207.4181, 18.83315
207.9002, 19.41105
208.3823, 19.75627
208.8644, 19.84041
209.3465, 19.76932
209.8286, 19.55591
210.3108, 19.12943
210.7929, 18.85577
211.2750, 18.78428
211.7571, 18.88080
212.2392, 19.04966
212.7213, 19.35126
213.2035, 19.59775
213.6856, 19.62316
214.1677, 19.31760
214.6498, 19.18999
215.1319, 19.38270
215.6140, 19.78064
216.0962, 19.87835
216.5783, 19.58550
217.0604, 19.16119
217.5425, 18.71787
218.0246, 18.15730
218.5067, 17.87674
218.9889, 18.01680
219.4710, 18.47064
219.9531, 18.68641
220.4352, 18.58328
220.9173, 18.38461
221.3994, 18.22512
221.8816, 18.10813
222.3637, 18.01493
222.8458, 17.92445
223.3279, 17.85393
223.8100, 17.91177
224.2922, 18.20056
224.7743, 18.46167
225.2564, 18.50779
225.7385, 18.20595
226.2206, 18.00012
226.7027, 17.92807
227.1849, 17.98013
227.6670, 18.13014
228.1491, 18.47246
228.6312, 18.77581
229.1133, 18.89108
229.5954, 18.76337
230.0776, 18.55754
230.5597, 18.19214
231.0418, 17.74639
231.5239, 17.63974
232.0060, 18.12256
232.4881, 18.60833
232.9703, 18.70934
233.4524, 18.12475
233.9345, 17.80199
234.4166, 17.89240
234.8987, 18.30841
235.3808, 18.63346
235.8630, 18.90225
236.3451, 19.03445
236.8272, 18.96443
237.3093, 18.56569
237.7914, 18.22481
238.2735, 17.94714
238.7557, 17.74182
239.2378, 17.66676
239.7199, 17.83110
240.2020, 17.97823
240.6841, 17.93757
241.1662, 17.50802
241.6484, 17.32995
242.1305, 17.52883
242.6126, 17.99928
243.0947, 18.35806
243.5768, 18.61972
244.0589, 18.75156
244.5411, 18.71713
245.0232, 18.42116
245.5053, 18.17756
245.9874, 18.03207
246.4695, 17.94193
246.9516, 17.72624
247.4338, 17.15325
247.9159, 16.79080
248.3980, 17.02027
248.8801, 18.36091
249.3622, 19.00411
249.8443, 18.58446
250.3265, 17.53354
250.8086, 17.06494
251.2907, 17.49944
251.7728, 18.01412
252.2549, 18.21258
252.7370, 17.92598
253.2192, 17.77178
253.7013, 17.78912
254.1834, 17.92307
254.6655, 18.03114
255.1476, 18.04845
255.6297, 18.15865
256.1119, 18.53687
256.5940, 19.45839
257.0761, 19.70035
257.5582, 18.94963
258.0403, 17.71600
258.5225, 17.02579
259.0046, 17.08977
259.4867, 17.27995
259.9688, 17.39822
260.4509, 17.46124
260.9330, 17.33402
261.4152, 16.87873
261.8973, 16.35432
262.3794, 16.23267
262.8615, 16.66884
263.3436, 17.14256
263.8257, 17.49685
264.3079, 17.73649
264.7900, 17.82347
265.2721, 17.68680
265.7542, 17.48238
266.2363, 17.47617
266.7184, 17.78417
267.2006, 17.93738
267.6827, 17.68473
268.1648, 16.97951
268.6469, 16.77735
269.1290, 17.27034
269.6111, 17.96646
270.0933, 18.25643
270.5754, 18.05429
271.0575, 17.75625
271.5396, 17.42505
272.0217, 17.06610
272.5038, 16.82945
272.9860, 16.72040
273.4681, 16.72196
273.9502, 16.86277
274.4323, 17.18253
274.9144, 17.40611
275.3965, 17.44361
275.8787, 17.31891
276.3608, 17.21494
276.8429, 17.13202
277.3250, 17.07177
277.8071, 17.03357
278.2892, 17.01694
278.7714, 17.04751
279.2535, 17.18799
279.7356, 17.36666
280.2177, 17.21484
280.6998, 16.66629
281.1819, 16.11281
281.6641, 15.92228
282.1462, 16.09655
282.6283, 16.19016
283.1104, 16.10545
283.5925, 15.91239
284.0746, 15.77599
284.5568, 15.69015
285.0389, 15.71193
285.5210, 15.93669
286.0031, 16.34308
286.4852, 16.69126
286.9673, 16.96435
287.4495, 17.14472
287.9316, 17.17997
288.4137, 17.06881
288.8958, 16.89025
289.3779, 16.68448
289.8600, 16.44888
290.3422, 16.12388
290.8243, 15.63899
291.3064, 15.22871
291.7885, 15.38423
292.2706, 16.05448
292.7527, 16.65317
293.2349, 16.76656
293.7170, 16.55861
294.1991, 16.54988
294.6812, 16.79654
295.1633, 17.10249
295.6454, 17.24206
296.1276, 17.23316
296.6097, 17.16093
297.0918, 17.06911
297.5739, 16.94009
298.0560, 16.66042
298.5381, 16.20525
299.0203, 15.86989
299.5024, 16.14105
299.9845, 16.78845
300.4666, 17.17038
300.9487, 16.78821
301.4308, 16.13086
301.9130, 15.93913
302.3951, 16.19819
302.8772, 16.46529
303.3593, 16.23942
303.8414, 15.78631
304.3235, 15.60105
304.8057, 16.03967
305.2878, 16.61218
305.7699, 16.79268
306.2520, 16.63065
306.7341, 16.44460
307.2162, 16.51615
307.6984, 16.66481
308.1805, 16.65346
308.6626, 16.34253
309.1447, 15.98839
309.6268, 15.71950
310.1089, 15.55208
310.5911, 15.53336
311.0732, 15.84639
311.5553, 16.23535
312.0374, 16.46323
312.5195, 16.44805
313.0016, 16.38413
313.4838, 16.44391
313.9659, 16.53593
314.4480, 16.47809
314.9301, 16.02250
315.4122, 15.51158
315.8943, 15.14424
316.3765, 14.94870
316.8586, 14.86705
317.3407, 14.97286
317.8228, 15.15146
318.3049, 15.24908
318.7870, 15.06140
319.2692, 14.91982
319.7513, 14.98529
320.2334, 15.27989
320.7155, 15.58238
321.1976, 15.98576
321.6797, 16.29659
322.1619, 16.33772
322.6440, 15.76836
323.1261, 15.24087
323.6082, 14.87613
324.0903, 14.67674
324.5724, 14.62440
325.0546, 14.80365
325.5367, 15.07419
326.0188, 15.35124
326.5009, 15.89566
326.9830, 16.13378
327.4651, 15.76839
327.9473, 14.99083
328.4294, 14.60162
328.9115, 14.96489
329.3936, 15.40107
329.8757, 15.63855
330.3578, 15.56362
330.8400, 15.49317
331.3221, 15.37599
331.8042, 15.27661
332.2863, 15.34881
332.7684, 15.82208
333.2505, 16.13432
333.7327, 16.04440
334.2148, 15.42193
334.6969, 15.03127
335.1790, 14.89024
335.6611, 14.96692
336.1432, 15.29825
336.6254, 16.07557
337.1075, 16.58986
337.5896, 16.59004
338.0717, 16.10789
338.5538, 15.85412
339.0359, 15.93031
339.5181, 16.01783
340.0002, 15.79928
340.4823, 15.23186
340.9644, 14.64132
341.4465, 14.01176
341.9286, 13.44016
342.4108, 13.34130
342.8929, 13.76637
343.3750, 14.33594
343.8571, 14.89556
344.3392, 15.42625
344.8214, 15.66054
345.3035, 15.50558
345.7856, 15.16344
346.2677, 14.96877
346.7498, 14.91534
347.2319, 14.87217
347.7141, 14.72588
348.1962, 14.53253
348.6783, 14.50468
349.1604, 14.67704
349.6425, 14.86258
350.1247, 14.85151
350.6068, 14.68035
351.0889, 14.47046
351.5710, 14.17703
352.0531, 13.91783
352.5352, 13.95253
353.0174, 14.26723
353.4995, 14.54778
353.9816, 14.49977
354.4637, 14.26745
354.9458, 14.07492
355.4279, 13.95810
355.9101, 13.93923
356.3922, 14.13928
356.8743, 14.49049
357.3564, 14.71257
357.8385, 14.49289
358.3206, 14.15851
358.8028, 14.02117
359.2849, 14.20385
359.7670, 14.39797
360.2491, 14.49142
360.7312, 14.47714
361.2133, 14.34232
361.6955, 13.84325
362.1776, 13.41637
362.6597, 13.32059
363.1418, 13.61594
363.6239, 13.92337
364.1060, 14.24181
364.5882, 14.47194
365.0703, 14.50958
365.5524, 14.05426
366.0345, 13.69701
366.5166, 13.61818
366.9987, 13.80540
367.4809, 13.96537
367.9630, 14.20195
368.4451, 14.31453
368.9272, 14.17994
369.4093, 13.37916
369.8914, 12.90242
370.3736, 12.91476
370.8557, 13.25241
371.3378, 13.46403
371.8199, 13.48057
372.3020, 13.46260
372.7841, 13.48825
373.2663, 13.60814
373.7484, 13.54787
374.2305, 13.18450
374.7126, 12.76416
375.1947, 12.66422
375.6768, 12.99433
376.1590, 13.28620
376.6411, 13.40458
377.1232, 13.36768
377.6053, 12.74789
378.0874, 13.50279
378.5695, 13.92028
379.0517, 14.01848
379.5338, 12.84111
380.0159, 13.31088
380.4980, 13.12055
380.9801, 12.90315
381.4622, 13.60475
381.9444, 12.61290
382.4265, 13.29992
382.9086, 13.31678
383.3907, 13.64035
383.8728, 13.29974
384.3549, 13.16428
384.8371, 13.69321
385.3192, 13.85426
385.8013, 13.43720
386.2834, 13.78026
386.7655, 12.76523
387.2477, 12.94194
387.7298, 13.63285
388.2119, 13.24918
388.6940, 13.60440
389.1761, 13.67820
389.6582, 12.47314
390.1404, 13.49216
390.6225, 13.54933
391.1046, 12.61891
391.5867, 13.56172
392.0688, 12.76745
392.5509, 12.59321
393.0331, 12.88558
393.5152, 12.69152
393.9973, 13.26438
394.4794, 13.09842
394.9615, 12.86644
395.4436, 12.92254
395.9258, 12.71297
396.4079, 12.91653
396.8900, 12.63626
397.3721, 12.87021
397.8542, 13.22071
398.3363, 12.67876
398.8185, 13.08163
399.3006, 12.01931
399.7827, 12.18297
400.2648, 12.21461
400.7469, 13.02987
401.2290, 11.97469
401.7112, 12.10428
402.1933, 12.73833
402.6754, 12.66653
403.1575, 12.88985
403.6396, 12.23949
404.1217, 12.40989
404.6039, 12.35405
405.0860, 13.07997
405.5681, 13.18873
406.0502, 12.55319
406.5323, 11.92081
407.0144, 12.70299
407.4966, 12.14443
407.9787, 12.30919
408.4608, 11.72692
408.9429, 11.78965
409.4250, 11.84215
409.9071, 12.22530
410.3893, 12.14229
410.8714, 12.28692
411.3535, 12.21632
411.8356, 12.36715
412.3177, 12.49334
412.7998, 12.56698
413.2820, 12.39982
413.7641, 12.68281
414.2462, 12.00597
414.7283, 11.69332
415.2104, 11.63956
415.6925, 12.80765
416.1747, 12.84005
416.6568, 11.51495
417.1389, 12.62920
417.6210, 12.24271
418.1031, 12.30220
418.5852, 12.19897
419.0674, 12.14391
419.5495, 12.18957
420.0316, 11.61585
420.5137, 12.41195
420.9958, 12.08889
421.4779, 12.52630
421.9601, 11.57779
422.4422, 11.45194
422.9243, 11.54445
423.4064, 11.71660
423.8885, 11.25243
424.3706, 11.39904
424.8528, 11.33664
425.3349, 11.24871
425.8170, 11.27204
426.2991, 11.16313
426.7812, 10.97295
427.2633, 11.80596
427.7455, 11.04685
428.2276, 11.78839
428.7097, 12.04895
429.1918, 11.65925
429.6739, 11.61507
430.1560, 10.91536
430.6382, 11.22094
431.1203, 11.18078
431.6024, 11.71027
432.0845, 11.01320
432.5666, 11.72816
433.0487, 11.06399
433.5309, 11.38455
434.0130, 11.26923
434.4951, 11.20494
434.9772, 11.12919
435.4593, 10.97317
435.9414, 10.86432
436.4236, 11.13165
436.9057, 11.71023
437.3878, 12.19831
437.8699, 12.28828
438.3520, 12.14876
438.8341, 12.01664
439.3163, 11.92124
439.7984, 11.80271
440.2805, 11.54143
440.7626, 11.23906
441.2447, 11.05604
441.7268, 11.16395
442.2090, 11.30687
442.6911, 11.34471
443.1732, 11.28957
443.6553, 11.23526
444.1374, 11.17689
444.6195, 11.15549
445.1017, 11.20709
445.5838, 11.40242
446.0659, 11.54327
446.5480, 11.60488
447.0302, 11.59833
447.5123, 11.53647
447.9944, 11.32071
448.4765, 11.15465
448.9586, 11.12962
449.4407, 11.25536
449.9229, 11.17661
450.4050, 10.73502
450.8871, 10.31877
451.3692, 10.26434
451.8513, 10.69096
452.3334, 10.93636
452.8156, 10.89392
453.2977, 10.69862
453.7798, 10.61830
454.2619, 10.65675
454.7440, 10.69843
455.2261, 10.70028
455.7083, 10.68231
456.1904, 10.62413
456.6725, 10.50486
457.1546, 10.49160
457.6367, 10.93402
458.1188, 11.63019
458.6010, 12.03381
459.0831, 11.94233
459.5652, 11.64392
460.0473, 11.36316
460.5294, 11.11981
461.0115, 10.96677
461.4937, 11.03300
461.9758, 11.12895
462.4579, 11.08558
462.9400, 10.87806
463.4221, 10.69950
463.9042, 10.59122
464.3864, 10.57138
464.8685, 10.65382
465.3506, 11.07864
465.8327, 11.36036
466.3148, 11.33277
466.7969, 11.05888
467.2791, 10.83432
467.7612, 10.69205
468.2433, 10.60718
468.7254, 10.58766
469.2075, 10.65671
469.6896, 10.63481
470.1718, 10.45335
470.6539, 10.25446
471.1360, 10.18876
471.6181, 10.28010
472.1002, 10.45782
472.5823, 10.75385
473.0645, 11.09419
473.5466, 11.26122
474.0287, 11.24421
474.5108, 11.18674
474.9929, 11.11819
475.4750, 11.06592
475.9572, 11.22984
476.4393, 11.65528
476.9214, 11.99459
477.4035, 11.73273
477.8856, 11.11490
478.3677, 10.72334
478.8499, 10.84905
479.3320, 11.14520
479.8141, 11.34622
480.2962, 11.44294
480.7783, 11.41965
481.2604, 11.08675
481.7426, 10.76192
482.2247, 10.71128
482.7068, 11.02011
483.1889, 11.27069
483.6710, 11.29305
484.1531, 11.19850
484.6353, 11.10051
485.1174, 10.90838
485.5995, 10.84002
486.0816, 11.05528
486.5637, 11.44655
487.0458, 11.58300
487.5280, 11.22280
488.0101, 10.93982
488.4922, 11.02023
488.9743, 11.56194
489.4564, 11.77740
489.9385, 11.54242
490.4207, 11.19985
490.9028, 11.16139
491.3849, 11.45569
491.8670, 11.64836
492.3491, 11.63677
492.8312, 11.49755
493.3134, 11.37759
493.7955, 11.27880
494.2776, 11.19990
494.7597, 11.18177
495.2418, 11.16970
495.7239, 11.01679
496.2061, 10.70717
496.6882, 10.44809
497.1703, 10.42730
497.6524, 10.56208
498.1345, 10.74252
498.6166, 10.97283
499.0988, 11.15733
499.5809, 11.20379
500.0630, 11.19212
500.5451, 11.22031
501.0272, 11.39045
501.5093, 11.52320
501.9915, 11.55409
502.4736, 11.50467
502.9557, 11.45988
503.4378, 11.46881
503.9199, 11.42931
504.4020, 11.31025
504.8842, 11.03971
505.3663, 10.84893
505.8484, 10.76953
506.3305, 10.74262
506.8126, 10.63712
507.2947, 10.41847
507.7769, 10.27244
508.2590, 10.29020
508.7411, 10.43750
509.2232, 10.52729
509.7053, 10.56117
510.1874, 10.60069
510.6696, 10.70781
511.1517, 10.84382
511.6338, 10.89632
512.1159, 10.84170
512.5980, 10.78986
513.0801, 10.91936
513.5623, 11.09976
514.0444, 11.15005
514.5265, 10.82868
515.0086, 10.53885
515.4907, 10.50877
515.9728, 10.68712
516.4550, 10.92311
516.9371, 11.42832
517.4192, 11.79515
517.9013, 11.70314
518.3834, 10.82053
518.8655, 10.18444
519.3477, 10.01965
519.8298, 10.14250
520.3119, 10.31202
520.7940, 10.54332
521.2761, 10.76021
521.7582, 11.06383
522.2404, 11.42128
522.7225, 11.53056
523.2046, 11.28833
523.6867, 11.01113
524.1688, 10.90674
524.6509, 10.97219
525.1331, 11.07528
525.6152, 11.20345
526.0973, 11.22640
526.5794, 10.95007
527.0615, 10.50522
527.5436, 10.19411
528.0258, 10.09141
528.5079, 10.07994
528.9900, 10.07017
529.4721, 10.05919
529.9542, 10.04255
530.4363, 9.981772
530.9185, 9.935205
531.4006, 9.998328
531.8827, 10.19154
532.3648, 10.37401
532.8469, 10.42843
533.3290, 10.45370
533.8112, 10.51084
534.2933, 10.66610
534.7754, 10.75240
535.2575, 10.67373
535.7396, 10.49971
536.2217, 10.47482
536.7039, 10.78427
537.1860, 11.09552
537.6681, 11.18866
538.1502, 11.09258
538.6323, 10.99508
539.1144, 10.88341
539.5966, 10.85293
540.0787, 11.09332
540.5608, 11.55429
541.0429, 11.83807
541.5250, 11.88849
542.0071, 11.77356
542.4893, 11.55634
542.9714, 11.23806
543.4535, 10.74896
543.9356, 9.840270
544.4177, 9.144821
544.8998, 9.480562
545.3820, 10.49165
545.8641, 11.34221
546.3462, 11.64014
546.8283, 11.74549
547.3104, 11.66449
547.7925, 11.35962
548.2747, 11.05654
548.7568, 10.92656
549.2389, 10.85156
549.7210, 10.76826
550.2031, 10.65738
550.6852, 10.61604
551.1674, 10.56556
551.6495, 10.51826
552.1316, 10.57075
552.6137, 10.87249
553.0958, 11.20868
553.5779, 11.44337
554.0601, 11.53213
554.5422, 11.59517
555.0243, 11.70408
555.5064, 11.72659
555.9885, 11.37634
556.4706, 10.82916
556.9528, 10.54077
557.4349, 10.57906
557.9170, 10.77147
558.3991, 11.04782
558.8812, 11.26855
559.3633, 11.28543
559.8455, 10.98650
560.3276, 10.81782
560.8097, 11.06386
561.2918, 11.39804
561.7739, 11.31644
562.2560, 10.22524
562.7382, 9.504056
563.2203, 9.645399
563.7024, 10.50190
564.1845, 11.01163
564.6666, 10.90876
565.1487, 10.67612
565.6309, 10.56208
566.1130, 10.67524
566.5951, 10.78151
567.0772, 10.82736
567.5593, 10.82379
568.0414, 10.84163
568.5236, 10.91085
569.0057, 10.99353
569.4878, 11.09961
569.9699, 11.17605
570.4520, 11.07289
570.9341, 10.83363
571.4163, 10.59635
571.8984, 10.57447
572.3805, 10.69163
572.8626, 10.88155
573.3447, 11.03514
573.8268, 11.06273
574.3090, 10.90002
574.7911, 10.74137
575.2732, 10.67327
575.7553, 10.81328
576.2374, 10.93924
576.7195, 10.97275
577.2017, 10.93192
577.6838, 10.87694
578.1659, 10.94427
578.6480, 10.96825
579.1301, 10.88276
579.6122, 10.70518
580.0944, 10.69051
580.5765, 10.86002
581.0586, 10.94927
581.5407, 10.79188
582.0228, 10.50281
582.5049, 10.36759
582.9871, 10.38766
583.4692, 10.41284
583.9513, 10.22912
584.4334, 10.00005
584.9155, 9.919736
585.3976, 10.07501
585.8798, 10.27220
586.3619, 10.31151
586.8440, 10.36045
587.3261, 10.63828
587.8082, 11.46437
588.2903, 11.95492
588.7725, 11.79515
589.2546, 11.34960
589.7367, 11.01396
590.2188, 10.76140
590.7009, 10.69827
591.1830, 10.93794
591.6652, 11.44519
592.1473, 11.64455
592.6294, 11.46134
593.1115, 11.08832
593.5936, 10.79673
594.0757, 10.65143
594.5579, 10.46966
595.0400, 10.17146
595.5222, 9.914533
596.0043, 10.01987
596.4864, 10.36295
596.9685, 10.72371
597.4506, 11.02527
597.9327, 11.19833
598.4149, 11.09646
598.8970, 10.88880
599.3791, 10.81011
599.8612, 10.97097
600.3433, 11.11194
600.8254, 11.16388
601.3076, 11.22609
601.7897, 11.21919
602.2718, 11.08918
602.7539, 10.97212
603.2360, 10.96740
603.7181, 11.03208
604.2003, 10.96041
604.6824, 10.72477
605.1645, 10.56622
605.6466, 10.68801
606.1287, 10.99911
606.6108, 11.09579
607.0930, 10.88854
607.5751, 10.71668
608.0572, 11.17511
608.5393, 11.88044
609.0214, 12.13496
609.5035, 11.30840
609.9857, 10.47255
610.4678, 10.23322
610.9499, 10.44749
611.4320, 10.74812
611.9141, 11.20332
612.3962, 11.55396
612.8784, 11.75238
613.3605, 11.81548
613.8426, 11.69967
614.3247, 11.28687
614.8068, 10.90661
615.2889, 10.75979
615.7711, 10.86216
616.2532, 10.85942
616.7353, 10.73126
617.2174, 10.59050
617.6995, 10.54582
618.1816, 10.57889
618.6638, 10.63344
619.1459, 10.71265
619.6280, 10.79649
620.1101, 10.86233
620.5922, 10.90874
621.0743, 10.94837
621.5565, 11.01260
622.0386, 11.05387
622.5207, 10.99419
623.0028, 10.87132
623.4849, 10.85863
623.9670, 11.12017
624.4492, 11.36677
624.9313, 11.50127
625.4134, 11.52088
625.8955, 11.50845
626.3776, 11.45811
626.8597, 11.37410
627.3419, 11.29962
627.8240, 11.23787
628.3061, 11.08390
628.7882, 10.80485
629.2703, 10.58249
629.7524, 10.62936
630.2346, 10.85275
630.7167, 11.07520
631.1988, 11.28175
631.6809, 11.43081
632.1630, 11.51231
632.6451, 11.49675
633.1273, 11.39065
633.6094, 11.07828
634.0915, 10.84436
634.5736, 10.71412
635.0557, 10.61718
635.5378, 10.61892
636.0200, 10.70220
636.5021, 10.95778
636.9842, 11.45467
637.4663, 12.13701
637.9484, 12.35441
638.4305, 12.08103
638.9127, 11.72473
639.3948, 11.40042
639.8769, 11.10978
640.3590, 11.03215
640.8411, 11.30700
641.3232, 11.66721
641.8054, 11.75324
642.2875, 11.60790
642.7696, 11.53946
643.2517, 11.76852
643.7338, 11.96559
644.2159, 11.78538
644.6981, 11.38903
645.1802, 11.15054
645.6623, 11.27540
646.1444, 11.47813
646.6265, 11.70363
647.1086, 11.82614
647.5908, 11.69807
648.0729, 11.23343
648.5550, 10.98188
