##NAMES=Gratonite
##RRUFFID=R060956
##IDEAL CHEMISTRY=Pb^2+^_9_As^3+^_4_S^2-^_15_
##LOCALITY=Rio Tinto mine, Rio Tinto, Huelva Province, Spain
##OWNER=RRUFF
##SOURCE=Bob Jenkins
##DESCRIPTION=Dark-gray metallic elongated prismatic trigonal crystals
##STATUS=The identification of this mineral is confirmed by single-crystal X-ray diffraction and chemical analysis.
##URL=rruff.info/R060956
##MEASURED CHEMISTRY=Pb_9.00_As_4.00_S_15.00_
119.1124, 183.6576
119.5946, 187.5498
120.0767, 187.8103
120.5588, 175.8354
121.0409, 162.6054
121.5230, 158.5612
122.0051, 170.7073
122.4873, 185.3346
122.9694, 192.0936
123.4515, 191.7274
123.9336, 187.5666
124.4157, 178.6581
124.8979, 167.8766
125.3800, 159.8240
125.8621, 155.7222
126.3442, 155.2198
126.8263, 159.5064
127.3084, 168.6372
127.7905, 177.5525
128.2727, 181.2167
128.7548, 180.5437
129.2369, 178.5420
129.7190, 174.4832
130.2011, 169.9325
130.6832, 170.2187
131.1654, 176.2909
131.6475, 184.2390
132.1296, 189.6151
132.6117, 192.4296
133.0938, 191.9693
133.5759, 185.9858
134.0581, 175.0079
134.5402, 166.5850
135.0223, 161.2130
135.5044, 158.6641
135.9865, 158.7265
136.4686, 161.5722
136.9508, 166.0575
137.4329, 171.9785
137.9150, 179.5802
138.3971, 186.4329
138.8792, 192.5815
139.3613, 197.7439
139.8434, 200.2743
140.3256, 199.9343
140.8077, 197.4717
141.2898, 193.0200
141.7719, 185.5166
142.2540, 179.0981
142.7361, 175.4392
143.2183, 174.9465
143.7004, 170.6390
144.1825, 158.6572
144.6646, 145.8714
145.1467, 141.9075
145.6288, 152.0344
146.1110, 163.4027
146.5931, 173.3046
147.0752, 183.2999
147.5573, 187.4542
148.0394, 181.8239
148.5215, 171.0200
149.0037, 164.4236
149.4858, 165.6804
149.9679, 167.9535
150.4500, 168.9769
150.9321, 169.3669
151.4142, 167.6639
151.8964, 161.2826
152.3785, 152.1893
152.8606, 147.3414
153.3427, 150.0491
153.8248, 155.0557
154.3069, 159.6546
154.7890, 165.8618
155.2712, 169.2860
155.7533, 168.0817
156.2354, 162.7415
156.7175, 157.8983
157.1996, 153.5661
157.6817, 150.4557
158.1639, 149.0993
158.6460, 153.0234
159.1281, 155.5769
159.6102, 153.1238
160.0923, 145.2907
160.5744, 140.1318
161.0566, 142.2369
161.5387, 147.9216
162.0208, 153.0132
162.5029, 157.6630
162.9850, 160.1660
163.4671, 158.4184
163.9493, 151.3053
164.4314, 145.7719
164.9135, 147.0032
165.3956, 151.8472
165.8777, 155.1077
166.3598, 151.5899
166.8420, 147.4077
167.3241, 148.0462
167.8062, 156.3671
168.2883, 163.3056
168.7704, 161.3786
169.2525, 153.2732
169.7346, 145.7888
170.2168, 141.6837
170.6989, 140.5219
171.1810, 142.4028
171.6631, 148.8896
172.1452, 155.7563
172.6273, 159.6536
173.1095, 160.8375
173.5916, 160.6209
174.0737, 159.4705
174.5558, 157.5219
175.0379, 154.8086
175.5201, 150.2080
176.0022, 145.9690
176.4843, 145.5960
176.9664, 148.7583
177.4485, 151.9200
177.9306, 152.1050
178.4128, 150.1972
178.8949, 148.0748
179.3770, 145.6429
179.8591, 143.7138
180.3412, 144.2057
180.8233, 147.1918
181.3055, 150.1925
181.7876, 150.3683
182.2697, 148.4591
182.7518, 147.0519
183.2339, 148.2774
183.7160, 150.6634
184.1982, 150.0437
184.6803, 146.0216
185.1624, 141.4285
185.6445, 139.6050
186.1266, 140.2555
186.6087, 141.3406
187.0908, 142.3810
187.5730, 143.1895
188.0551, 142.2682
188.5372, 138.8044
189.0193, 135.8899
189.5014, 138.9904
189.9835, 147.9171
190.4657, 156.8791
190.9478, 163.3788
191.4299, 167.4940
191.9120, 168.8785
192.3941, 166.8201
192.8762, 163.3147
193.3584, 162.0534
193.8405, 163.1183
194.3226, 164.8678
194.8047, 166.7824
195.2868, 168.8203
195.7689, 169.4730
196.2511, 168.1437
196.7332, 165.8102
197.2153, 165.7704
197.6974, 168.6434
198.1795, 169.9689
198.6616, 164.2431
199.1438, 150.6545
199.6259, 144.7090
200.1080, 151.1510
200.5901, 165.6079
201.0722, 171.7377
201.5543, 168.1717
202.0364, 161.4669
202.5186, 156.0667
203.0007, 151.9094
203.4828, 149.5505
203.9649, 149.2717
204.4470, 150.8871
204.9291, 154.2952
205.4113, 160.9988
205.8934, 165.7602
206.3755, 161.8757
206.8576, 146.4770
207.3397, 136.0804
207.8218, 135.4239
208.3040, 143.6010
208.7861, 149.3549
209.2682, 152.5421
209.7503, 153.4869
210.2324, 152.0765
210.7145, 147.6888
211.1967, 143.0024
211.6788, 137.5271
212.1609, 131.2068
212.6430, 131.8183
213.1251, 143.1589
213.6072, 156.2003
214.0894, 160.0839
214.5715, 151.8609
215.0536, 142.2374
215.5357, 133.3646
216.0178, 124.9875
216.4999, 119.8651
216.9820, 118.7760
217.4642, 120.1881
217.9463, 122.8174
218.4284, 128.5076
218.9105, 131.0020
219.3926, 126.8421
219.8747, 113.9959
220.3569, 107.5930
220.8390, 110.2984
221.3211, 117.3251
221.8032, 121.8114
222.2853, 123.6173
222.7674, 123.0065
223.2496, 118.9668
223.7317, 109.4681
224.2138, 105.4362
224.6959, 109.6474
225.1780, 117.5409
225.6601, 120.8588
226.1423, 116.7538
226.6244, 113.1070
227.1065, 113.5812
227.5886, 121.0330
228.0707, 122.9639
228.5528, 116.5612
229.0350, 105.9170
229.5171, 99.16595
229.9992, 96.45895
230.4813, 97.22528
230.9634, 102.1786
231.4455, 114.7187
231.9276, 122.4155
232.4098, 124.0049
232.8919, 121.1835
233.3740, 117.7208
233.8561, 113.1749
234.3382, 108.6498
234.8203, 104.1823
235.3025, 98.32851
235.7846, 96.31732
236.2667, 100.2882
236.7488, 107.5747
237.2309, 110.9014
237.7130, 107.7774
238.1952, 104.2962
238.6773, 102.9645
239.1594, 103.9941
239.6415, 107.0888
240.1236, 114.9330
240.6057, 124.4147
241.0879, 125.6232
241.5700, 111.7137
242.0521, 99.30559
242.5342, 97.00836
243.0163, 112.5487
243.4984, 121.2906
243.9806, 120.6378
244.4627, 113.1972
244.9448, 106.6714
245.4269, 100.7305
245.9090, 96.16242
246.3911, 93.08237
246.8732, 90.58723
247.3554, 92.08475
247.8375, 100.9577
248.3196, 113.5101
248.8017, 117.0326
249.2838, 106.0259
249.7659, 94.01412
250.2481, 87.53479
250.7302, 88.55874
251.2123, 90.62970
251.6944, 93.92300
252.1765, 98.05203
252.6586, 101.8924
253.1408, 105.4628
253.6229, 108.7385
254.1050, 112.3132
254.5871, 118.1763
255.0692, 118.8359
255.5513, 111.2967
256.0334, 98.85212
256.5156, 92.03893
256.9977, 92.60641
257.4798, 95.96345
257.9619, 100.0825
258.4440, 105.6165
258.9261, 110.2433
259.4083, 113.9498
259.8904, 116.6942
260.3725, 118.0539
260.8546, 117.2044
261.3367, 116.4886
261.8188, 117.2813
262.3010, 120.1952
262.7831, 122.8538
263.2652, 125.6324
263.7473, 127.9252
264.2294, 127.9567
264.7115, 125.3796
265.1937, 121.2594
265.6758, 115.4484
266.1579, 106.8727
266.6400, 101.3937
267.1221, 100.4438
267.6042, 102.1896
268.0864, 101.0026
268.5685, 94.94240
269.0506, 90.80922
269.5327, 93.48031
270.0148, 105.1449
270.4969, 112.6309
270.9791, 114.6131
271.4612, 112.7282
271.9433, 110.4724
272.4254, 107.5100
272.9075, 105.2904
273.3896, 104.8710
273.8718, 106.5449
274.3539, 108.0138
274.8360, 109.5499
275.3181, 110.4724
275.8002, 108.3266
276.2823, 102.0118
276.7645, 97.51603
277.2466, 98.85891
277.7287, 106.6926
278.2108, 112.7488
278.6929, 117.1133
279.1750, 119.1069
279.6572, 115.2513
280.1393, 104.2138
280.6214, 96.92680
281.1035, 102.5484
281.5856, 120.9153
282.0677, 128.1671
282.5499, 121.1531
283.0320, 107.7335
283.5141, 100.7088
283.9962, 100.3501
284.4783, 101.8299
284.9604, 103.5502
285.4425, 105.4331
285.9247, 106.5454
286.4068, 106.9594
286.8889, 106.3608
287.3710, 102.7221
287.8531, 96.22843
288.3352, 92.75475
288.8174, 98.27947
289.2995, 110.2048
289.7816, 113.3245
290.2637, 105.9547
290.7458, 96.04859
291.2279, 94.22266
291.7101, 99.57690
292.1922, 104.9071
292.6743, 106.9840
293.1564, 106.6113
293.6385, 105.7918
294.1206, 104.3842
294.6028, 103.5275
295.0849, 106.9613
295.5670, 112.9101
296.0491, 113.7484
296.5312, 99.97793
297.0133, 80.53337
297.4955, 76.21986
297.9776, 87.75136
298.4597, 102.4634
298.9418, 109.3202
299.4239, 109.8274
299.9060, 107.7088
300.3882, 102.2507
300.8703, 96.01018
301.3524, 92.37830
301.8345, 91.36565
302.3166, 93.27968
302.7987, 101.1862
303.2809, 111.9510
303.7630, 119.8970
304.2451, 122.6706
304.7272, 121.9959
305.2093, 118.4459
305.6914, 112.2828
306.1736, 106.6523
306.6557, 104.8616
307.1378, 104.5611
307.6199, 102.2372
308.1020, 94.20193
308.5841, 86.81843
309.0663, 86.35651
309.5484, 91.70785
310.0305, 97.20222
310.5126, 99.56062
310.9947, 100.4099
311.4768, 101.2413
311.9590, 102.0768
312.4411, 103.5019
312.9232, 106.7535
313.4053, 111.1111
313.8874, 114.1339
314.3695, 115.1004
314.8517, 114.1167
315.3337, 110.5993
315.8159, 101.9691
316.2980, 95.84229
316.7801, 97.63779
317.2622, 104.4266
317.7443, 109.4185
318.2264, 108.6509
318.7086, 106.4076
319.1907, 104.9734
319.6728, 105.0170
320.1549, 104.9494
320.6370, 104.9000
321.1191, 104.3778
321.6013, 102.5409
322.0834, 95.16545
322.5655, 89.90032
323.0476, 90.61531
323.5297, 99.72449
324.0118, 106.9538
324.4940, 111.2034
324.9761, 112.6470
325.4582, 111.5052
325.9403, 101.4678
326.4224, 95.00648
326.9045, 97.24286
327.3867, 110.8697
327.8688, 118.5395
328.3509, 115.9740
328.8330, 109.2168
329.3151, 103.7582
329.7972, 100.1683
330.2794, 97.17873
330.7615, 94.61551
331.2436, 92.47222
331.7257, 90.58038
332.2078, 87.19345
332.6899, 85.65629
333.1721, 89.13959
333.6542, 101.6424
334.1363, 111.3498
334.6184, 116.6926
335.1005, 118.0515
335.5826, 117.9606
336.0648, 116.3132
336.5469, 113.3827
337.0290, 108.5694
337.5111, 100.3593
337.9932, 95.91646
338.4753, 97.16888
338.9575, 101.8125
339.4396, 102.5293
339.9217, 97.66611
340.4038, 94.54150
340.8859, 99.30970
341.3680, 112.8983
341.8502, 119.1076
342.3323, 115.4854
342.8144, 106.9496
343.2965, 101.8060
343.7786, 100.1257
344.2607, 99.81547
344.7429, 100.1687
345.2250, 101.1439
345.7071, 102.7987
346.1892, 105.4818
346.6713, 107.5374
347.1534, 106.2165
347.6355, 102.0195
348.1176, 98.41261
348.5998, 96.64254
349.0819, 96.41878
349.5640, 97.90051
350.0461, 101.2419
350.5282, 103.3942
351.0103, 99.78059
351.4925, 92.74516
351.9746, 87.94786
352.4567, 87.87206
352.9388, 90.45640
353.4209, 94.30270
353.9030, 99.09262
354.3852, 102.3385
354.8673, 102.3850
355.3494, 99.81496
355.8315, 94.76909
356.3136, 84.76921
356.7957, 76.43583
357.2779, 76.08990
357.7600, 82.06230
358.2421, 88.91644
358.7242, 97.18367
359.2063, 103.2537
359.6884, 103.1470
360.1706, 93.58159
360.6527, 85.32640
361.1348, 85.27101
361.6169, 89.83416
362.0990, 92.49550
362.5811, 87.87305
363.0633, 83.45729
363.5454, 83.03550
364.0275, 87.62206
364.5096, 92.38840
364.9917, 97.57915
365.4738, 101.8310
365.9560, 103.6306
366.4381, 98.65501
366.9202, 95.30479
367.4023, 96.97791
367.8844, 104.1059
368.3665, 107.4423
368.8487, 102.0754
369.3308, 95.53443
369.8129, 93.12483
370.2950, 98.55926
370.7771, 102.7970
371.2592, 105.0858
371.7414, 105.5641
372.2235, 104.7937
372.7056, 101.2850
373.1877, 98.51770
373.6698, 98.94767
374.1519, 104.7320
374.6341, 107.1589
375.1162, 104.7395
375.5983, 99.68079
376.0804, 96.37499
376.5625, 94.67707
377.0446, 95.36373
377.5267, 100.0094
378.0089, 108.9253
378.4910, 114.3577
378.9731, 116.1604
379.4552, 114.8863
379.9373, 108.9774
380.4194, 98.43148
380.9016, 92.72594
381.3837, 97.81853
381.8658, 109.4872
382.3479, 112.2595
382.8300, 105.7224
383.3121, 98.42428
383.7943, 99.03596
384.2764, 105.4058
384.7585, 110.9063
385.2406, 113.9643
385.7227, 115.3233
386.2048, 115.9283
386.6870, 115.7214
387.1691, 114.3568
387.6512, 110.5038
388.1333, 105.7621
388.6154, 102.4896
389.0975, 101.6506
389.5797, 100.4961
390.0618, 93.97565
390.5439, 85.57208
391.0260, 82.45722
391.5081, 94.82420
391.9902, 108.5430
392.4724, 113.4487
392.9545, 107.9208
393.4366, 102.3412
393.9187, 102.0191
394.4008, 103.7333
394.8829, 104.0821
395.3651, 98.39159
395.8472, 94.95152
396.3293, 98.76225
396.8114, 108.9359
397.2935, 114.2268
397.7756, 110.4606
398.2578, 102.7647
398.7399, 94.09269
399.2220, 78.27646
399.7041, 69.52303
400.1862, 71.53036
400.6683, 80.58317
401.1505, 87.01022
401.6326, 90.89217
402.1147, 91.96672
402.5968, 89.07343
403.0789, 80.06657
403.5610, 76.58079
404.0432, 81.31149
404.5253, 88.68127
405.0074, 89.75742
405.4895, 81.43629
405.9716, 78.81404
406.4537, 89.27276
406.9359, 109.8091
407.4180, 115.9387
407.9001, 104.7601
408.3822, 91.43360
408.8643, 90.84751
409.3464, 101.8525
409.8285, 109.1351
410.3106, 109.0872
410.7928, 105.0341
411.2749, 102.8620
411.7570, 102.3905
412.2391, 101.8564
412.7212, 99.40740
413.2033, 96.23989
413.6855, 95.13826
414.1676, 96.65255
414.6497, 98.59332
415.1318, 97.45174
415.6139, 95.15073
416.0960, 95.69748
416.5782, 106.1625
417.0603, 116.5568
417.5424, 116.6166
418.0245, 106.7040
418.5066, 97.87290
418.9887, 96.64661
419.4709, 98.98726
419.9530, 101.1974
420.4351, 102.8307
420.9172, 103.5215
421.3993, 101.0254
421.8814, 97.08272
422.3636, 97.30515
422.8457, 110.0374
423.3278, 121.4800
423.8099, 124.9045
424.2920, 115.9233
424.7741, 108.3297
425.2563, 101.9817
425.7384, 97.57802
426.2205, 96.33704
426.7026, 100.0107
427.1847, 104.2591
427.6668, 108.9228
428.1490, 113.9724
428.6311, 115.2527
429.1132, 111.0228
429.5953, 105.8525
430.0774, 104.0613
430.5595, 106.6512
431.0417, 106.2662
431.5238, 100.8366
432.0059, 93.02724
432.4880, 89.24838
432.9701, 89.63882
433.4522, 92.10611
433.9344, 97.37292
434.4165, 104.2408
434.8986, 106.7607
435.3807, 104.3384
435.8628, 99.72842
436.3449, 93.96327
436.8271, 88.24400
437.3092, 86.48789
437.7913, 93.82384
438.2734, 103.2728
438.7555, 106.2096
439.2376, 103.1471
439.7197, 98.14356
440.2018, 89.65240
440.6840, 82.51535
441.1661, 82.92120
441.6482, 96.43845
442.1303, 108.7945
442.6124, 110.6760
443.0945, 106.1581
443.5767, 103.6051
444.0588, 109.0827
444.5409, 114.2723
445.0230, 115.0231
445.5051, 110.1426
445.9872, 106.4172
446.4694, 106.1932
446.9515, 106.8912
447.4336, 106.1764
447.9157, 100.7441
448.3978, 98.32712
448.8799, 101.3856
449.3621, 108.4815
449.8442, 111.9069
450.3263, 109.3924
450.8084, 107.0721
451.2905, 108.8021
451.7726, 116.1357
452.2548, 119.9884
452.7369, 120.0441
453.2190, 116.9706
453.7011, 109.7780
454.1832, 98.06361
454.6653, 90.77699
455.1475, 92.64232
455.6296, 100.7499
456.1117, 106.0665
456.5938, 108.5290
457.0759, 109.1603
457.5580, 106.5809
458.0402, 102.8957
458.5223, 103.8289
459.0044, 112.2854
459.4865, 121.3519
459.9686, 124.8762
460.4507, 123.4016
460.9329, 118.4205
461.4150, 104.7830
461.8971, 92.14039
462.3792, 89.00555
462.8613, 96.51701
463.3434, 104.4117
463.8256, 109.3994
464.3077, 111.7929
464.7898, 111.9235
465.2719, 106.6536
465.7540, 102.6051
466.2361, 101.6945
466.7183, 103.3048
467.2004, 104.7414
467.6825, 107.4054
468.1646, 108.3512
468.6467, 105.8059
469.1288, 97.45895
469.6110, 92.59075
470.0930, 91.16433
470.5752, 93.16834
471.0573, 100.0484
471.5394, 114.4021
472.0215, 124.3976
472.5036, 126.8100
472.9857, 122.7370
473.4679, 115.2607
473.9500, 103.5371
474.4321, 95.25878
474.9142, 98.06847
475.3963, 109.7946
475.8784, 120.3834
476.3606, 129.1730
476.8427, 135.1320
477.3248, 137.1636
477.8069, 135.3093
478.2890, 129.5736
478.7711, 114.5547
479.2533, 98.95332
479.7354, 92.98347
480.2175, 96.08920
480.6996, 100.2604
481.1817, 101.6710
481.6638, 101.3395
482.1460, 99.98574
482.6281, 96.84359
483.1102, 94.32996
483.5923, 93.38562
484.0744, 93.61313
484.5565, 94.22373
485.0387, 94.61483
485.5208, 95.78920
486.0029, 98.62072
486.4850, 103.4690
486.9671, 106.5789
487.4492, 107.2038
487.9314, 106.7838
488.4135, 106.3308
488.8956, 105.7939
489.3777, 105.1788
489.8598, 103.7587
490.3419, 102.7818
490.8241, 106.5539
491.3062, 116.0603
491.7883, 123.7160
492.2704, 125.1954
492.7525, 121.4994
493.2346, 118.1075
493.7168, 115.0228
494.1989, 112.7412
494.6810, 112.3954
495.1631, 113.2765
495.6452, 113.5142
496.1273, 112.3296
496.6095, 110.7328
497.0916, 109.2047
497.5737, 108.0573
498.0558, 108.2457
498.5379, 112.9087
499.0201, 117.2407
499.5022, 117.0335
499.9843, 111.2500
500.4664, 106.3670
500.9485, 106.2879
501.4306, 107.5005
501.9127, 106.7544
502.3948, 98.96127
502.8770, 94.48464
503.3591, 96.59962
503.8412, 103.2969
504.3233, 107.7776
504.8054, 108.9434
505.2875, 109.3833
505.7697, 110.1596
506.2518, 111.4579
506.7339, 111.5995
507.2160, 110.0785
507.6981, 108.4218
508.1802, 108.4686
508.6624, 110.2360
509.1445, 112.6608
509.6266, 117.0648
510.1087, 120.1112
510.5908, 111.2098
511.0729, 92.18220
511.5551, 77.76385
512.0372, 79.75038
512.5193, 90.90346
513.0014, 101.3176
513.4835, 110.4602
513.9656, 117.0622
514.4478, 119.5539
514.9299, 119.1789
515.4120, 117.3618
515.8941, 111.0985
516.3762, 107.3360
516.8583, 111.8354
517.3405, 121.4880
517.8226, 126.6871
518.3047, 119.9324
518.7868, 113.1012
519.2689, 112.0734
519.7510, 119.6572
520.2332, 120.5815
520.7153, 109.1319
521.1974, 96.47997
521.6795, 93.75372
522.1616, 104.6180
522.6437, 113.7896
523.1259, 119.3154
523.6080, 121.7534
524.0901, 122.0247
524.5722, 120.0000
525.0543, 117.2323
525.5364, 113.2495
526.0186, 109.0364
526.5007, 108.7946
526.9828, 112.7294
527.4649, 117.2489
527.9470, 121.4937
528.4291, 123.5625
528.9113, 118.9986
529.3934, 101.7145
529.8755, 86.78559
530.3576, 88.16770
530.8397, 100.3078
531.3218, 110.6940
531.8040, 112.4234
532.2861, 112.7818
532.7682, 115.6627
533.2503, 121.6256
533.7324, 125.2721
534.2145, 126.0626
534.6967, 124.1167
535.1788, 119.1441
535.6609, 107.1237
536.1430, 99.82648
536.6251, 99.77860
537.1072, 103.2797
537.5894, 102.2219
538.0715, 94.70016
538.5536, 91.27007
539.0357, 97.16361
539.5178, 110.0196
539.9999, 119.2433
540.4821, 124.6320
540.9642, 127.6293
541.4463, 129.4417
541.9284, 129.6982
542.4105, 127.2404
542.8926, 121.5960
543.3748, 114.6017
543.8569, 104.6903
544.3390, 95.18642
544.8211, 91.81837
545.3032, 103.4137
545.7853, 115.7950
546.2675, 121.3757
546.7495, 120.9697
547.2316, 119.8504
547.7137, 118.4997
548.1959, 117.6081
548.6780, 117.6031
549.1601, 118.9589
549.6422, 120.0923
550.1243, 121.9226
550.6064, 122.7974
551.0886, 120.5887
551.5707, 114.1940
552.0528, 107.8650
552.5349, 101.3637
553.0170, 96.11454
553.4991, 97.98542
553.9813, 107.3747
554.4634, 114.8372
554.9455, 113.1442
555.4276, 105.7117
555.9097, 102.7436
556.3918, 104.4744
556.8740, 107.4949
557.3561, 109.8074
557.8382, 111.3310
558.3203, 111.4249
558.8024, 107.9598
559.2845, 107.0255
559.7667, 116.5827
560.2488, 130.5732
560.7309, 137.9762
561.2130, 129.6383
561.6951, 119.9771
562.1772, 113.4076
562.6594, 110.1317
563.1415, 107.0411
563.6236, 102.3197
564.1057, 99.76593
564.5878, 102.2441
565.0699, 112.2100
565.5521, 118.4616
566.0342, 120.5230
566.5163, 119.5746
566.9984, 115.4732
567.4805, 108.3375
567.9626, 105.6147
568.4448, 110.9813
568.9269, 119.9224
569.4090, 125.3542
569.8911, 127.2092
570.3732, 125.3800
570.8553, 114.0979
571.3375, 102.1636
571.8196, 101.7566
572.3017, 114.1036
572.7838, 124.3346
573.2659, 121.0699
573.7480, 114.0109
574.2302, 111.9835
574.7123, 124.5559
575.1944, 131.6093
575.6765, 124.0287
576.1586, 110.0569
576.6407, 105.6231
577.1229, 118.7713
577.6050, 128.0205
578.0871, 127.1750
578.5692, 117.4127
579.0513, 109.4146
579.5334, 103.2297
580.0156, 98.59953
580.4977, 94.84884
580.9798, 92.30132
581.4619, 94.15633
581.9440, 101.2742
582.4261, 108.2683
582.9083, 107.3584
583.3904, 102.0678
583.8725, 100.0240
584.3546, 106.2884
584.8367, 112.7242
585.3188, 112.0406
585.8010, 106.8224
586.2831, 103.7121
586.7652, 106.5762
587.2473, 110.8532
587.7294, 116.0589
588.2115, 122.5875
588.6937, 123.5628
589.1758, 112.6963
589.6579, 102.1843
590.1400, 99.83949
590.6221, 109.2252
591.1042, 115.8980
591.5864, 119.2343
592.0685, 120.1711
592.5506, 119.3243
593.0327, 116.7302
593.5148, 114.9397
593.9969, 115.3852
594.4791, 116.2141
594.9612, 112.0480
595.4433, 104.3900
595.9254, 100.4208
596.4075, 109.9966
596.8896, 121.8202
597.3718, 123.3472
597.8539, 113.7725
598.3360, 105.0424
598.8181, 104.6358
599.3002, 106.2337
599.7823, 104.5542
600.2645, 93.36054
600.7466, 87.96765
601.2287, 95.18697
601.7108, 106.0991
602.1929, 106.8652
602.6750, 90.49467
603.1572, 81.35508
603.6393, 87.05773
604.1214, 102.5696
604.6035, 108.5227
605.0856, 104.0851
605.5677, 101.4538
606.0499, 111.5698
606.5320, 128.4205
607.0141, 134.7668
607.4962, 130.1521
607.9783, 122.9642
608.4604, 117.5202
608.9425, 114.4493
609.4246, 115.2704
609.9067, 122.4621
610.3889, 128.4144
610.8710, 130.4431
611.3531, 128.9015
611.8352, 124.3209
612.3173, 110.9016
612.7994, 101.2938
613.2816, 98.18851
613.7637, 100.5790
614.2458, 104.2579
614.7279, 110.2661
