##NAMES=Gratonite
##RRUFFID=R050365
##IDEAL CHEMISTRY=Pb^2+^_9_As^3+^_4_S^2-^_15_
##LOCALITY=Cerro de Pasco, Peru
##OWNER=RRUFF
##SOURCE=University of Arizona Mineral Museum
##DESCRIPTION=Dark lead gray aggregate, including single crystals
##STATUS=The identification of this mineral has been confirmed by X-ray diffraction and chemical analysis
##URL=rruff.info/R050365
##MEASURED CHEMISTRY=Pb_9.00_As_4.00_S_15.00_
91.87140, 0.0000000E+00
92.35352, 4.842378
92.83563, 4.689186
93.31775, 4.624046
93.79987, 4.637825
94.28198, 4.738530
94.76410, 4.982633
95.24622, 5.461388
95.72833, 6.005691
96.21045, 6.179515
96.69257, 5.962245
97.17468, 5.720557
97.65680, 5.845198
98.13892, 6.327400
98.62103, 6.695504
99.10315, 6.757072
99.58527, 6.581227
100.0674, 6.640876
100.5495, 6.964917
101.0316, 7.460546
101.5137, 8.022013
101.9958, 8.657973
102.4780, 9.341170
102.9601, 10.04927
103.4422, 10.77052
103.9243, 11.59616
104.4064, 12.56207
104.8885, 13.61372
105.3707, 14.67166
105.8528, 15.68237
106.3349, 16.76229
106.8170, 17.96025
107.2991, 19.38348
107.7813, 20.72495
108.2634, 22.02257
108.7455, 23.25000
109.2276, 24.27440
109.7097, 24.82441
110.1918, 25.37733
110.6740, 26.13196
111.1561, 27.35747
111.6382, 28.48814
112.1203, 29.34303
112.6024, 30.00450
113.0845, 30.92722
113.5667, 32.25408
114.0488, 33.82085
114.5309, 35.53379
115.0130, 37.45897
115.4951, 39.43188
115.9772, 41.44278
116.4594, 43.50523
116.9415, 45.51839
117.4236, 47.50114
117.9057, 49.39998
118.3878, 51.15025
118.8699, 52.57542
119.3521, 53.97815
119.8342, 55.54863
120.3163, 57.30577
120.7984, 59.14849
121.2805, 61.00771
121.7626, 62.91132
122.2448, 64.90701
122.7269, 67.47568
123.2090, 69.92563
123.6911, 71.51918
124.1732, 72.08916
124.6553, 72.17741
125.1375, 71.89825
125.6196, 71.44725
126.1017, 71.44324
126.5838, 72.60213
127.0659, 74.40311
127.5480, 75.85774
128.0302, 76.70714
128.5123, 77.43611
128.9944, 78.80806
129.4765, 80.76073
129.9586, 82.71252
130.4407, 84.29961
130.9229, 85.55080
131.4050, 86.56179
131.8871, 87.25514
132.3692, 87.77950
132.8513, 88.39880
133.3334, 88.96709
133.8156, 89.30705
134.2977, 89.66611
134.7798, 90.34160
135.2619, 90.99214
135.7440, 91.54666
136.2261, 92.01740
136.7083, 92.50691
137.1904, 93.03201
137.6725, 93.54017
138.1546, 93.99226
138.6367, 94.39539
139.1188, 94.74946
139.6010, 95.17219
140.0831, 95.66872
140.5652, 95.48502
141.0473, 94.46658
141.5294, 93.00233
142.0115, 91.50455
142.4937, 89.73272
142.9758, 88.44388
143.4579, 87.99130
143.9400, 88.64409
144.4221, 88.78604
144.9042, 88.21021
145.3864, 87.24717
145.8685, 86.45528
146.3506, 85.78880
146.8327, 85.33614
147.3148, 85.18204
147.7969, 85.63371
148.2791, 85.68366
148.7612, 85.03513
149.2433, 84.01897
149.7254, 83.39061
150.2075, 83.56774
150.6896, 83.77243
151.1718, 83.71941
151.6539, 83.18970
152.1360, 82.72976
152.6181, 82.28160
153.1002, 81.89851
153.5823, 81.74290
154.0645, 82.27729
154.5466, 82.71127
155.0287, 82.67539
155.5108, 81.75146
155.9929, 80.81309
156.4750, 79.94769
156.9572, 79.15665
157.4393, 78.47187
157.9214, 77.85996
158.4035, 77.37017
158.8856, 77.03066
159.3677, 77.03030
159.8499, 76.99625
160.3320, 76.74879
160.8141, 76.33842
161.2962, 76.07168
161.7783, 76.26297
162.2604, 76.55085
162.7426, 76.63728
163.2247, 76.23125
163.7068, 75.78465
164.1889, 75.54607
164.6710, 75.49866
165.1531, 75.34949
165.6353, 74.84123
166.1174, 74.19434
166.5995, 73.64604
167.0816, 73.23943
167.5637, 72.98667
168.0458, 72.97659
168.5280, 73.20665
169.0101, 73.38379
169.4922, 73.29258
169.9743, 73.03715
170.4564, 72.76274
170.9385, 72.50560
171.4207, 72.26846
171.9028, 72.10136
172.3849, 72.01452
172.8670, 71.82803
173.3491, 71.30210
173.8312, 70.57949
174.3134, 69.93066
174.7955, 69.46212
175.2776, 69.14579
175.7597, 68.99532
176.2418, 69.02812
176.7239, 69.08461
177.2061, 69.01855
177.6882, 68.85728
178.1703, 68.67664
178.6524, 68.53068
179.1345, 68.38288
179.6166, 68.19376
180.0988, 67.96969
180.5809, 67.65008
181.0630, 67.02197
181.5451, 66.18235
182.0272, 65.54784
182.5093, 65.54030
182.9915, 65.88147
183.4736, 65.84029
183.9557, 65.29510
184.4378, 64.62824
184.9199, 64.36774
185.4020, 64.47073
185.8842, 64.60275
186.3663, 64.68911
186.8484, 64.67671
187.3305, 64.30344
187.8126, 63.46519
188.2947, 62.47611
188.7769, 61.81614
189.2590, 61.47554
189.7411, 61.25718
190.2232, 61.10156
190.7053, 60.99221
191.1874, 60.80846
191.6696, 60.52220
192.1517, 60.19011
192.6338, 59.88786
193.1159, 59.61328
193.5980, 59.42302
194.0801, 59.47780
194.5623, 59.74095
195.0444, 59.60803
195.5265, 58.90316
196.0086, 57.95044
196.4907, 57.44737
196.9728, 57.42887
197.4550, 57.55918
197.9371, 57.75790
198.4192, 58.03209
198.9013, 57.88789
199.3834, 57.14107
199.8655, 56.10089
200.3477, 55.57053
200.8298, 55.65504
201.3119, 55.78215
201.7940, 55.52333
202.2761, 54.81955
202.7582, 54.43738
203.2404, 54.55475
203.7225, 54.95308
204.2046, 55.00184
204.6867, 54.62675
205.1688, 54.15839
205.6509, 53.78930
206.1331, 53.52423
206.6152, 53.32032
207.0973, 53.19698
207.5794, 53.12075
208.0615, 52.98651
208.5436, 52.78251
209.0258, 52.55042
209.5079, 52.32165
209.9900, 52.10634
210.4721, 51.84188
210.9542, 51.49169
211.4363, 51.09904
211.9185, 50.82306
212.4006, 50.70440
212.8827, 50.61185
213.3648, 50.46484
213.8469, 50.24240
214.3290, 50.03057
214.8112, 49.81527
215.2933, 49.61964
215.7754, 49.55379
216.2575, 49.72023
216.7396, 49.82198
217.2217, 49.64613
217.7039, 49.06704
218.1860, 48.59930
218.6681, 48.30004
219.1502, 48.13506
219.6323, 48.01427
220.1144, 48.02571
220.5966, 47.93346
221.0787, 47.52567
221.5608, 46.53350
222.0429, 45.99366
222.5250, 46.16811
223.0071, 46.81982
223.4893, 47.03141
223.9714, 46.54281
224.4535, 46.02894
224.9356, 45.89907
225.4177, 46.43188
225.8998, 46.66311
226.3820, 46.43841
226.8641, 45.89311
227.3462, 45.49327
227.8283, 45.25904
228.3104, 45.13808
228.7925, 45.12961
229.2747, 45.33509
229.7568, 45.41470
230.2389, 45.30581
230.7210, 45.07156
231.2031, 44.92200
231.6852, 44.91114
232.1674, 44.90455
232.6495, 44.82647
233.1316, 44.60679
233.6137, 44.46988
234.0958, 44.41567
234.5779, 44.44973
235.0601, 44.62732
235.5422, 45.16030
236.0243, 45.53276
236.5064, 45.46311
236.9885, 44.61467
237.4706, 44.08632
237.9528, 44.03466
238.4349, 44.26825
238.9170, 44.28836
239.3991, 43.89400
239.8812, 43.58737
240.3633, 43.64082
240.8455, 44.37152
241.3276, 44.64971
241.8097, 44.24775
242.2918, 43.47425
242.7739, 43.02306
243.2560, 43.09530
243.7382, 43.17765
244.2203, 43.03373
244.7024, 42.46989
245.1845, 42.25326
245.6666, 42.59144
246.1487, 43.17765
246.6309, 43.41259
247.1130, 43.11824
247.5951, 42.76063
248.0772, 42.48226
248.5593, 42.26532
249.0414, 42.19960
249.5236, 42.37732
250.0057, 42.64765
250.4878, 42.76024
250.9699, 42.65175
251.4520, 42.49635
251.9341, 42.34485
252.4163, 42.19795
252.8984, 42.04536
253.3805, 41.87744
253.8626, 41.70995
254.3447, 41.56399
254.8268, 41.41780
255.3090, 41.33502
255.7911, 41.35918
256.2732, 41.51278
256.7553, 41.59724
257.2374, 41.65732
257.7195, 41.60303
258.2017, 41.28309
258.6838, 40.53403
259.1659, 39.88580
259.6480, 39.46916
260.1301, 39.29354
260.6122, 39.19203
261.0944, 39.20124
261.5765, 39.23925
262.0586, 39.20530
262.5407, 39.05157
263.0228, 38.96828
263.5049, 39.05245
263.9871, 39.29005
264.4692, 39.26632
264.9513, 38.85625
265.4334, 38.38524
265.9155, 38.19673
266.3976, 38.43218
266.8798, 38.47058
267.3619, 38.13283
267.8440, 37.47869
268.3261, 37.01633
268.8082, 36.77280
269.2903, 36.66405
269.7725, 36.64289
270.2546, 36.72302
270.7367, 36.83092
271.2188, 36.97203
271.7009, 37.12944
272.1830, 37.24990
272.6652, 37.35160
273.1473, 37.36279
273.6294, 37.18958
274.1115, 36.78560
274.5936, 36.47719
275.0757, 36.28692
275.5579, 36.21519
276.0400, 36.29585
276.5221, 36.55853
277.0042, 36.85250
277.4863, 37.13247
277.9684, 37.41008
278.4506, 37.49384
278.9327, 37.33324
279.4148, 37.02038
279.8969, 36.70062
280.3790, 36.35514
280.8611, 36.13612
281.3433, 36.16996
281.8254, 36.45519
282.3075, 36.72249
282.7896, 36.99596
283.2717, 37.18362
283.7538, 37.06553
284.2360, 36.62787
284.7181, 36.24757
285.2002, 36.08671
285.6823, 36.13171
286.1644, 36.32857
286.6465, 36.73227
287.1287, 37.08168
287.6108, 36.89675
288.0929, 36.21587
288.5750, 35.75610
289.0571, 35.88709
289.5392, 36.45510
290.0214, 36.85948
290.5035, 37.09012
290.9856, 37.23357
291.4677, 37.34819
291.9498, 37.44165
292.4319, 37.56276
292.9141, 37.76394
293.3962, 37.98342
293.8783, 38.02222
294.3604, 37.87701
294.8425, 37.78176
295.3246, 38.02489
295.8068, 38.49978
296.2889, 38.82207
296.7710, 38.81864
297.2531, 38.72181
297.7352, 38.98197
298.2173, 39.55671
298.6995, 40.09496
299.1816, 40.30770
299.6637, 40.30005
300.1458, 40.25950
300.6279, 40.17548
301.1100, 40.16537
301.5922, 40.47400
302.0743, 41.01976
302.5564, 41.47259
303.0385, 41.55242
303.5206, 41.44810
304.0027, 41.43283
304.4849, 41.55115
304.9670, 41.71697
305.4491, 41.86467
305.9312, 41.99711
306.4133, 42.12134
306.8954, 42.25238
307.3776, 42.37206
307.8597, 42.47235
308.3418, 42.55754
308.8239, 42.58418
309.3060, 42.55426
309.7881, 42.44033
310.2703, 42.20074
310.7524, 41.69584
311.2345, 41.14862
311.7166, 40.71556
312.1987, 40.39793
312.6808, 40.13519
313.1630, 39.94274
313.6451, 39.76550
314.1272, 39.54286
314.6093, 39.28990
315.0914, 38.95652
315.5735, 38.43318
316.0557, 37.77013
316.5378, 37.23557
317.0199, 37.06170
317.5020, 36.99235
317.9841, 36.82625
318.4662, 36.38987
318.9484, 36.05166
319.4305, 36.07331
319.9126, 36.29980
320.3947, 36.32357
320.8768, 35.70139
321.3589, 35.09323
321.8411, 34.88081
322.3232, 35.35121
322.8053, 35.63338
323.2874, 35.34291
323.7695, 34.80345
324.2516, 34.52753
324.7338, 34.97279
325.2159, 35.34353
325.6980, 35.37089
326.1801, 34.96926
326.6622, 34.55139
327.1443, 34.08320
327.6265, 33.63660
328.1086, 33.28333
328.5907, 33.08561
329.0728, 32.91692
329.5549, 32.76678
330.0370, 32.63490
330.5192, 32.50298
331.0013, 32.35415
331.4834, 32.21877
331.9655, 32.12175
332.4476, 32.11723
332.9297, 32.05613
333.4119, 31.90852
333.8940, 31.69305
334.3761, 31.47009
334.8582, 31.15125
335.3403, 30.97012
335.8224, 31.09665
336.3046, 31.70324
336.7867, 32.08985
337.2688, 32.17389
337.7509, 32.08614
338.2330, 32.07158
338.7151, 32.11609
339.1973, 32.28437
339.6794, 32.69390
340.1615, 33.36762
340.6436, 33.65461
341.1257, 33.43955
341.6078, 33.08532
342.0900, 33.06922
342.5721, 33.41384
343.0542, 33.79489
343.5363, 34.11877
344.0184, 34.40103
344.5005, 34.72195
344.9827, 35.08356
345.4648, 35.45143
345.9469, 35.80940
346.4290, 36.15477
346.9111, 36.40548
347.3932, 36.48657
347.8754, 36.54851
348.3575, 36.94633
348.8396, 37.64819
349.3217, 38.32099
349.8038, 38.71472
350.2859, 38.90737
350.7681, 39.10754
351.2502, 39.36132
351.7323, 39.53815
352.2144, 39.41037
352.6965, 39.06574
353.1786, 38.77339
353.6608, 38.74827
354.1429, 38.81363
354.6250, 38.76704
355.1071, 38.60016
355.5892, 38.33188
356.0714, 37.89238
356.5535, 37.37959
357.0356, 36.93929
357.5177, 36.72606
357.9998, 36.51730
358.4819, 36.09557
358.9641, 35.50780
359.4462, 35.02779
359.9283, 34.99122
360.4104, 35.02042
360.8925, 34.77404
361.3746, 33.99071
361.8568, 33.24305
362.3389, 32.71493
362.8210, 32.39472
363.3031, 32.24252
363.7852, 32.49164
364.2673, 32.70914
364.7495, 32.67454
365.2316, 32.30344
365.7137, 31.90541
366.1958, 31.48865
366.6779, 31.09828
367.1600, 30.78366
367.6422, 30.72418
368.1243, 30.56141
368.6064, 30.14618
369.0885, 29.45706
369.5706, 28.96066
370.0527, 28.84176
370.5349, 28.76999
371.0170, 28.52661
371.4991, 28.02750
371.9812, 27.49691
372.4633, 26.88311
372.9454, 26.24837
373.4276, 25.83230
373.9097, 25.70386
374.3918, 25.66763
374.8739, 25.66725
375.3560, 25.74131
375.8381, 25.66732
376.3203, 25.40462
376.8024, 25.04810
377.2845, 24.72179
377.7666, 24.42010
378.2487, 24.19631
378.7308, 24.10023
379.2130, 24.10622
379.6951, 24.02190
380.1772, 23.82011
380.6593, 23.66342
381.1414, 23.79696
381.6235, 24.17192
382.1057, 24.32559
382.5878, 24.11298
383.0699, 23.69779
383.5520, 23.32483
384.0341, 22.99855
384.5162, 22.79807
384.9984, 22.81297
385.4805, 22.98266
385.9626, 23.22494
386.4447, 23.56340
386.9268, 23.80260
387.4089, 23.65259
387.8911, 23.24770
388.3732, 22.89345
388.8553, 22.73653
389.3374, 22.68508
389.8195, 22.67203
390.3016, 22.69444
390.7838, 22.73064
391.2659, 22.83582
391.7480, 22.91881
392.2301, 22.87836
392.7122, 22.61372
393.1943, 22.32291
393.6765, 22.06040
394.1586, 21.84045
394.6407, 21.70720
395.1228, 21.77337
395.6049, 21.85128
396.0870, 21.83309
396.5692, 21.66227
397.0513, 21.54102
397.5334, 21.55168
398.0155, 21.61835
398.4976, 21.64582
398.9797, 21.60414
399.4619, 21.54411
399.9440, 21.46558
400.4261, 21.36856
400.9082, 21.28979
401.3903, 21.24559
401.8724, 21.20350
402.3546, 21.13403
402.8367, 20.98727
403.3188, 20.92940
403.8009, 21.00809
404.2830, 21.16427
404.7651, 21.25601
405.2473, 21.28506
405.7294, 21.24254
406.2115, 21.11110
406.6936, 20.88978
407.1757, 20.63433
407.6578, 20.30929
408.1400, 20.04571
408.6221, 20.04527
409.1042, 20.30116
409.5863, 20.49931
410.0684, 20.54977
410.5505, 20.49527
411.0327, 20.41230
411.5148, 20.30256
411.9969, 20.22604
412.4790, 20.29524
412.9611, 20.42459
413.4432, 20.38151
413.9254, 20.10100
414.4075, 19.77922
414.8896, 19.60086
415.3717, 19.54235
415.8538, 19.55143
416.3359, 19.65291
416.8181, 19.77920
417.3002, 19.88308
417.7823, 19.96290
418.2644, 19.99244
418.7465, 19.88696
419.2286, 19.75717
419.7108, 19.71878
420.1929, 19.91415
420.6750, 20.05177
421.1571, 19.96143
421.6392, 19.72425
422.1213, 19.55301
422.6035, 19.60512
423.0856, 19.64856
423.5677, 19.55870
424.0498, 19.25568
424.5319, 19.07794
425.0140, 19.16593
425.4962, 19.33610
425.9783, 19.40200
426.4604, 19.28124
426.9425, 19.17640
427.4246, 19.11065
427.9067, 19.08271
428.3889, 19.09183
428.8710, 19.15757
429.3531, 19.22573
429.8352, 19.27656
430.3173, 19.31821
430.7994, 19.28105
431.2816, 19.13132
431.7637, 18.95322
432.2458, 18.89033
432.7279, 18.94762
433.2100, 19.03844
433.6921, 19.17951
434.1743, 19.32325
434.6564, 19.24793
435.1385, 18.94545
435.6206, 18.64001
436.1027, 18.52579
436.5848, 18.55844
437.0670, 18.63392
437.5491, 18.75880
438.0312, 18.85575
438.5133, 18.80447
438.9954, 18.65018
439.4775, 18.51800
439.9597, 18.44083
440.4418, 18.43477
440.9239, 18.56439
441.4060, 18.83352
441.8881, 19.03546
442.3702, 19.03708
442.8524, 18.91953
443.3345, 18.75838
443.8166, 18.50903
444.2987, 18.29473
444.7808, 18.14793
445.2629, 18.06393
445.7451, 18.02904
446.2272, 18.05349
446.7093, 18.11592
447.1914, 18.22809
447.6735, 18.43256
448.1556, 18.54268
448.6378, 18.52011
449.1199, 18.42817
449.6020, 18.32187
450.0841, 18.17887
450.5662, 18.07894
451.0483, 18.06812
451.5305, 18.10808
452.0126, 17.99519
452.4947, 17.66054
452.9768, 17.38268
453.4589, 17.37399
453.9410, 17.64423
454.4232, 17.70428
454.9053, 17.49067
455.3874, 17.24069
455.8695, 17.29891
456.3516, 17.62358
456.8337, 17.91141
457.3159, 18.09889
457.7980, 18.16687
458.2801, 18.02576
458.7622, 17.70289
459.2443, 17.38318
459.7264, 17.17421
460.2086, 17.05381
460.6907, 17.01237
461.1728, 17.06280
461.6549, 17.12409
462.1370, 17.12708
462.6191, 17.10603
463.1013, 17.11103
463.5834, 17.20074
464.0655, 17.28313
464.5476, 17.31457
465.0297, 17.29836
465.5118, 17.27122
465.9940, 17.25874
466.4761, 17.22618
466.9582, 17.15335
467.4403, 17.01871
467.9224, 16.87508
468.4045, 16.66284
468.8867, 16.46821
469.3688, 16.43326
469.8509, 16.70505
470.3330, 16.86357
470.8151, 16.76021
471.2972, 16.43339
471.7794, 16.30752
472.2615, 16.44123
472.7436, 16.61329
473.2257, 16.65680
473.7078, 16.56907
474.1899, 16.53724
474.6721, 16.58842
475.1542, 16.66206
475.6363, 16.67622
476.1184, 16.63430
476.6005, 16.55529
477.0826, 16.40319
477.5648, 16.24463
478.0469, 16.20278
478.5290, 16.26806
479.0111, 16.35357
479.4932, 16.43670
479.9753, 16.48909
480.4575, 16.45503
480.9396, 16.28716
481.4217, 16.15834
481.9038, 16.24641
482.3859, 16.42648
482.8680, 16.51387
483.3502, 16.37714
483.8323, 16.20597
484.3144, 16.05956
484.7965, 15.93981
485.2786, 15.82371
485.7607, 15.66924
486.2429, 15.55004
486.7250, 15.51120
487.2071, 15.62551
487.6892, 15.66121
488.1713, 15.57499
488.6534, 15.44073
489.1356, 15.36194
489.6177, 15.34648
490.0998, 15.36784
490.5819, 15.43459
491.0640, 15.53263
491.5461, 15.58913
492.0283, 15.60311
492.5104, 15.58835
492.9925, 15.55356
493.4746, 15.49763
493.9567, 15.39541
494.4388, 15.22759
494.9210, 15.09906
495.4031, 15.19099
495.8852, 15.41738
496.3673, 15.56107
496.8494, 15.47774
497.3315, 15.33563
497.8137, 15.29147
498.2958, 15.32724
498.7779, 15.37135
499.2600, 15.44532
499.7421, 15.47339
500.2242, 15.36568
500.7064, 15.05902
501.1885, 14.85441
501.6706, 14.95096
502.1527, 15.14676
502.6348, 15.23673
503.1169, 15.08687
503.5991, 14.95953
504.0812, 14.89375
504.5633, 14.87301
505.0454, 14.82910
505.5275, 14.72878
506.0096, 14.66586
506.4918, 14.70679
506.9739, 14.87089
507.4560, 14.88114
507.9381, 14.69255
508.4202, 14.47114
508.9023, 14.42124
509.3845, 14.52882
509.8666, 14.53235
510.3487, 14.34493
510.8308, 14.10306
511.3129, 14.06194
511.7950, 14.18184
512.2772, 14.27707
512.7593, 14.19206
513.2414, 14.05924
513.7235, 14.05858
514.2056, 14.18744
514.6877, 14.30537
515.1699, 14.36391
515.6520, 14.34876
516.1341, 14.22743
516.6162, 13.89802
517.0983, 13.64821
517.5804, 13.58953
518.0626, 13.66507
518.5447, 13.78158
519.0268, 14.04582
519.5089, 14.21773
519.9910, 14.20509
520.4731, 14.02312
520.9553, 13.91622
521.4374, 13.95341
521.9195, 13.96472
522.4016, 13.81207
522.8837, 13.42556
523.3658, 13.27580
523.8480, 13.42361
524.3301, 13.68800
524.8122, 13.84847
525.2943, 13.90748
525.7764, 13.89679
526.2585, 13.79785
526.7407, 13.66527
527.2228, 13.61455
527.7049, 13.62934
528.1870, 13.61580
528.6691, 13.46999
529.1512, 13.28856
529.6334, 13.19134
530.1155, 13.18782
530.5976, 13.19916
531.0797, 13.17450
531.5618, 13.14240
532.0439, 13.13456
532.5261, 13.21012
533.0082, 13.23631
533.4903, 13.13124
533.9724, 12.95825
534.4545, 12.85106
534.9366, 12.88678
535.4188, 12.91352
535.9009, 12.86979
536.3830, 12.75989
536.8651, 12.80223
537.3472, 13.09875
537.8293, 13.34750
538.3115, 13.27543
538.7936, 12.84335
539.2757, 12.69600
539.7578, 12.93400
540.2399, 13.26399
540.7220, 13.25404
541.2042, 12.96362
541.6863, 12.73539
542.1684, 12.68832
542.6505, 12.73720
543.1326, 12.77750
543.6147, 12.81122
544.0969, 12.84747
544.5790, 12.90848
545.0611, 12.96177
545.5432, 13.01131
546.0253, 13.06260
546.5074, 12.98552
546.9896, 12.47968
547.4717, 11.96138
547.9538, 11.77346
548.4359, 12.32968
548.9180, 12.73230
549.4001, 12.86622
549.8823, 12.82281
550.3644, 12.74078
550.8465, 12.56925
551.3286, 12.45738
551.8107, 12.46654
552.2928, 12.57322
552.7750, 12.60256
553.2571, 12.54743
553.7392, 12.45251
554.2213, 12.30881
554.7034, 12.13826
555.1855, 12.07249
555.6677, 12.12500
556.1498, 12.22759
556.6319, 12.34612
557.1140, 12.45706
557.5961, 12.50705
558.0782, 12.46239
558.5604, 12.38305
559.0425, 12.28388
559.5246, 12.18714
560.0067, 12.14373
560.4888, 12.26562
560.9709, 12.36321
561.4531, 12.32793
561.9352, 12.15707
562.4173, 12.01709
562.8994, 11.94276
563.3815, 11.89531
563.8636, 11.85844
564.3458, 11.84268
564.8279, 11.80041
565.3100, 11.69334
565.7921, 11.60741
566.2742, 11.69154
566.7563, 11.97317
567.2385, 12.15712
567.7206, 12.16601
568.2027, 12.05855
568.6848, 11.90725
569.1669, 11.72709
569.6490, 11.64810
570.1312, 11.83401
570.6133, 12.11921
571.0954, 12.26494
571.5775, 12.27253
572.0596, 12.22358
572.5417, 12.15594
573.0239, 12.06471
573.5060, 11.93403
573.9881, 11.72546
574.4702, 11.57352
574.9523, 11.53298
575.4344, 11.56431
575.9166, 11.61835
576.3987, 11.72645
576.8808, 11.81067
577.3629, 11.86713
577.8450, 11.89373
578.3271, 11.88083
578.8093, 11.81994
579.2914, 11.74337
579.7735, 11.64908
580.2556, 11.54644
580.7377, 11.51379
581.2198, 11.55680
581.7020, 11.60907
582.1841, 11.59384
582.6662, 11.54783
583.1483, 11.57559
583.6304, 11.70494
584.1125, 11.82779
584.5947, 11.83589
585.0768, 11.77953
585.5589, 11.73325
586.0410, 11.77395
586.5231, 11.77253
587.0052, 11.60321
587.4874, 11.34603
587.9695, 11.21805
