##NAMES=Gratonite
##RRUFFID=R050365
##IDEAL CHEMISTRY=Pb^2+^_9_As^3+^_4_S^2-^_15_
##LOCALITY=Cerro de Pasco, Peru
##OWNER=RRUFF
##SOURCE=University of Arizona Mineral Museum
##DESCRIPTION=Dark lead gray aggregate, including single crystals
##STATUS=The identification of this mineral has been confirmed by X-ray diffraction and chemical analysis
##URL=rruff.info/R050365
##MEASURED CHEMISTRY=Pb_9.00_As_4.00_S_15.00_
92.52344, 2580.435
93.00555, 2549.286
93.48767, 2553.170
93.96979, 2650.638
94.45190, 2759.238
94.93402, 2871.999
95.41614, 2944.648
95.89825, 2985.341
96.38037, 3015.585
96.86249, 3036.719
97.34460, 3054.497
97.82672, 3082.757
98.30884, 3099.183
98.79095, 3096.446
99.27307, 3076.249
99.75519, 3047.796
100.2373, 3024.753
100.7194, 3009.854
101.2015, 3001.699
101.6837, 2994.458
102.1658, 2995.406
102.6479, 3010.466
103.1300, 3039.697
103.6121, 3077.941
104.0942, 3122.313
104.5764, 3172.506
105.0585, 3230.077
105.5406, 3297.457
106.0227, 3372.907
106.5048, 3450.177
106.9869, 3525.778
107.4691, 3607.038
107.9512, 3696.576
108.4333, 3793.874
108.9154, 3896.994
109.3975, 4005.795
109.8796, 4121.336
110.3618, 4235.210
110.8439, 4340.892
111.3260, 4450.207
111.8081, 4568.238
112.2902, 4695.140
112.7723, 4828.747
113.2544, 4966.064
113.7366, 5109.485
114.2187, 5252.815
114.7008, 5389.311
115.1829, 5529.083
115.6650, 5681.120
116.1471, 5849.183
116.6293, 6028.621
117.1114, 6209.731
117.5935, 6390.037
118.0756, 6574.838
118.5577, 6765.735
119.0398, 6962.056
119.5220, 7164.159
120.0041, 7369.324
120.4862, 7583.030
120.9683, 7810.620
121.4504, 8052.599
121.9325, 8306.015
122.4147, 8570.514
122.8968, 8846.898
123.3789, 9123.942
123.8610, 9389.503
124.3431, 9655.125
124.8252, 9933.052
125.3074, 10229.31
125.7895, 10537.08
126.2716, 10843.17
126.7537, 11144.57
127.2358, 11445.89
127.7179, 11750.54
128.2001, 12055.62
128.6822, 12361.96
129.1643, 12669.42
129.6464, 12978.17
130.1285, 13273.21
130.6107, 13549.33
131.0928, 13817.45
131.5749, 14076.75
132.0570, 14328.53
132.5391, 14577.49
133.0212, 14827.03
133.5034, 15080.60
133.9855, 15313.89
134.4676, 15511.86
134.9497, 15706.22
135.4318, 15916.18
135.9139, 16142.49
136.3960, 16372.73
136.8782, 16590.89
137.3603, 16794.01
137.8424, 17001.51
138.3245, 17214.28
138.8066, 17431.53
139.2887, 17653.78
139.7709, 17882.38
140.2530, 18107.08
140.7351, 18311.96
141.2172, 18497.97
141.6993, 18682.69
142.1814, 18872.52
142.6636, 19065.44
143.1457, 19257.37
143.6278, 19452.52
144.1099, 19637.43
144.5920, 19808.91
145.0741, 19965.72
145.5563, 20102.39
146.0384, 20215.79
146.5205, 20306.33
147.0026, 20369.01
147.4847, 20399.59
147.9668, 20402.53
148.4490, 20377.11
148.9311, 20323.46
149.4132, 20243.00
149.8953, 20136.12
150.3774, 19993.58
150.8595, 19838.60
151.3417, 19679.50
151.8238, 19509.02
152.3059, 19321.44
152.7880, 19115.86
153.2701, 18892.30
153.7522, 18653.78
154.2344, 18402.64
154.7165, 18131.52
155.1986, 17835.09
155.6807, 17519.43
156.1628, 17192.45
156.6449, 16859.53
157.1271, 16517.21
157.6092, 16149.37
158.0913, 15748.77
158.5734, 15334.71
159.0555, 14906.17
159.5376, 14468.01
160.0198, 14033.29
160.5019, 13611.57
160.9840, 13197.27
161.4661, 12774.75
161.9482, 12333.29
162.4303, 11894.46
162.9125, 11471.25
163.3946, 11063.63
163.8767, 10672.74
164.3588, 10301.70
164.8409, 9951.587
165.3230, 9620.216
165.8052, 9310.676
166.2873, 9018.395
166.7694, 8743.155
167.2515, 8484.521
167.7336, 8241.787
168.2157, 8012.462
168.6979, 7797.284
169.1800, 7597.146
169.6621, 7411.400
170.1442, 7241.790
170.6263, 7093.810
171.1084, 6978.241
171.5906, 6869.569
172.0727, 6757.833
172.5548, 6646.506
173.0369, 6539.820
173.5190, 6439.837
174.0011, 6346.787
174.4833, 6262.874
174.9654, 6191.377
175.4475, 6126.740
175.9296, 6069.024
176.4117, 6017.483
176.8938, 5970.467
177.3760, 5926.706
177.8581, 5886.116
178.3402, 5852.537
178.8223, 5825.728
179.3044, 5805.129
179.7865, 5792.591
180.2687, 5786.704
180.7508, 5783.886
181.2329, 5780.990
181.7150, 5777.838
182.1971, 5779.803
182.6792, 5786.970
183.1614, 5798.223
183.6435, 5815.982
184.1256, 5839.124
184.6077, 5860.504
185.0898, 5874.372
185.5719, 5879.565
186.0541, 5878.644
186.5362, 5872.825
187.0183, 5860.090
187.5004, 5840.175
187.9825, 5813.274
188.4646, 5775.037
188.9468, 5718.262
189.4289, 5645.684
189.9110, 5563.997
190.3931, 5476.663
190.8752, 5380.540
191.3573, 5268.777
191.8395, 5138.601
192.3216, 4998.514
192.8037, 4851.884
193.2858, 4701.253
193.7679, 4551.005
194.2500, 4401.260
194.7322, 4253.626
195.2143, 4110.256
195.6964, 3969.534
196.1785, 3837.730
196.6606, 3715.981
197.1427, 3603.439
197.6249, 3499.714
198.1070, 3405.926
198.5891, 3321.391
199.0712, 3239.000
199.5533, 3154.978
200.0354, 3078.099
200.5176, 3013.828
200.9997, 2959.510
201.4818, 2909.376
201.9639, 2859.175
202.4460, 2808.779
202.9281, 2762.400
203.4103, 2724.411
203.8924, 2687.059
204.3745, 2647.283
204.8566, 2606.005
205.3387, 2566.889
205.8208, 2533.219
206.3030, 2505.383
206.7851, 2478.398
207.2672, 2453.270
207.7493, 2427.942
208.2314, 2401.687
208.7135, 2374.628
209.1957, 2347.357
209.6778, 2320.321
210.1599, 2293.506
210.6420, 2267.622
211.1241, 2242.581
211.6062, 2218.391
212.0884, 2194.313
212.5705, 2170.822
213.0526, 2149.683
213.5347, 2132.893
214.0168, 2121.164
214.4989, 2107.183
214.9811, 2087.086
215.4632, 2067.855
215.9453, 2054.421
216.4274, 2046.878
216.9095, 2041.761
217.3916, 2036.332
217.8737, 2030.649
218.3559, 2026.048
218.8380, 2022.787
219.3201, 2020.445
219.8022, 2018.239
220.2843, 2016.120
220.7664, 2015.735
221.2486, 2019.403
221.7307, 2026.218
222.2128, 2031.996
222.6949, 2036.503
223.1770, 2039.526
223.6591, 2040.631
224.1413, 2039.706
224.6234, 2037.580
225.1055, 2033.267
225.5876, 2028.241
226.0697, 2025.497
226.5518, 2027.611
227.0340, 2031.502
227.5161, 2031.954
227.9982, 2027.652
228.4803, 2024.478
228.9624, 2026.637
229.4445, 2031.793
229.9267, 2037.159
230.4088, 2041.286
230.8909, 2045.407
231.3730, 2052.464
231.8551, 2064.177
232.3372, 2074.399
232.8194, 2077.098
233.3015, 2078.128
233.7836, 2085.161
234.2657, 2102.742
234.7478, 2125.905
235.2299, 2143.844
235.7121, 2156.395
236.1942, 2163.514
236.6763, 2164.248
237.1584, 2161.003
237.6405, 2156.364
238.1227, 2151.524
238.6048, 2145.470
239.0869, 2136.246
239.5690, 2126.347
240.0511, 2107.715
240.5332, 2075.996
241.0154, 2037.724
241.4975, 1999.121
241.9796, 1962.842
242.4617, 1928.044
242.9438, 1893.175
243.4259, 1858.199
243.9081, 1822.933
244.3902, 1787.141
244.8723, 1751.305
245.3544, 1715.661
245.8365, 1680.172
246.3186, 1645.468
246.8008, 1612.453
247.2829, 1580.382
247.7650, 1551.788
248.2471, 1528.921
248.7292, 1508.194
249.2113, 1486.031
249.6935, 1461.281
250.1756, 1435.797
250.6577, 1413.209
251.1398, 1396.045
251.6219, 1378.535
252.1040, 1361.925
252.5862, 1344.467
253.0683, 1324.081
253.5504, 1300.395
254.0325, 1275.222
254.5146, 1251.578
254.9967, 1231.078
255.4789, 1209.349
255.9610, 1185.190
256.4431, 1160.645
256.9252, 1138.080
257.4073, 1117.850
257.8894, 1097.418
258.3716, 1073.009
258.8537, 1041.993
259.3358, 1014.020
259.8179, 990.1404
260.3000, 968.5555
260.7821, 948.0897
261.2643, 928.4079
261.7464, 909.0623
262.2285, 889.1818
262.7106, 868.2168
263.1927, 849.9163
263.6748, 835.7111
264.1570, 823.3608
264.6391, 811.1573
265.1212, 798.8991
265.6033, 787.1853
266.0854, 776.4211
266.5675, 766.8127
267.0497, 759.4421
267.5318, 756.0244
268.0139, 753.7164
268.4960, 750.4140
268.9781, 746.0002
269.4602, 741.1763
269.9424, 736.2611
270.4245, 731.3739
270.9066, 727.0304
271.3887, 723.1078
271.8708, 719.8312
272.3529, 717.8434
272.8351, 717.0049
273.3172, 715.6954
273.7993, 712.5281
274.2814, 708.2455
274.7635, 705.3040
275.2456, 704.9673
275.7278, 704.6405
276.2099, 701.3821
276.6920, 695.7614
277.1741, 692.6080
277.6562, 694.9390
278.1383, 700.9146
278.6205, 706.0851
279.1026, 710.3473
279.5847, 714.1355
280.0668, 717.4093
280.5489, 720.3235
281.0310, 723.6862
281.5132, 727.6533
281.9953, 732.4099
282.4774, 737.7847
282.9595, 743.6356
283.4416, 750.7953
283.9237, 761.2722
284.4059, 773.9005
284.8880, 783.4507
285.3701, 786.9977
285.8522, 789.2713
286.3343, 794.6723
286.8164, 803.0748
287.2986, 813.9812
287.7807, 828.1050
288.2628, 844.6823
288.7449, 861.1700
289.2270, 877.4359
289.7091, 893.2574
290.1913, 908.1442
290.6734, 922.4005
291.1555, 937.6417
291.6376, 954.0264
292.1197, 971.8488
292.6018, 992.5720
293.0840, 1017.143
293.5661, 1042.292
294.0482, 1065.274
294.5303, 1087.223
295.0124, 1110.578
295.4945, 1135.449
295.9767, 1162.509
296.4588, 1193.610
296.9409, 1229.823
297.4230, 1266.498
297.9051, 1302.946
298.3872, 1338.265
298.8694, 1370.932
299.3515, 1399.799
299.8336, 1427.150
300.3157, 1455.251
300.7978, 1483.842
301.2799, 1515.859
301.7621, 1554.941
302.2442, 1597.005
302.7263, 1638.493
303.2084, 1678.561
303.6905, 1719.682
304.1726, 1765.023
304.6548, 1814.633
305.1369, 1865.467
305.6190, 1921.581
306.1011, 1974.770
306.5832, 2019.064
307.0653, 2054.071
307.5475, 2082.373
308.0296, 2104.396
308.5117, 2120.519
308.9938, 2135.814
309.4759, 2151.393
309.9580, 2165.387
310.4402, 2176.243
310.9223, 2184.485
311.4044, 2192.154
311.8865, 2203.681
312.3686, 2216.402
312.8507, 2218.728
313.3329, 2209.164
313.8150, 2190.515
314.2971, 2168.511
314.7792, 2139.470
315.2613, 2095.605
315.7434, 2031.060
316.2256, 1950.755
316.7077, 1863.272
317.1898, 1764.648
317.6719, 1667.682
318.1540, 1574.545
318.6361, 1487.060
319.1183, 1408.013
319.6004, 1337.932
320.0825, 1276.226
320.5646, 1222.101
321.0467, 1175.645
321.5288, 1136.229
322.0110, 1105.161
322.4931, 1080.785
322.9752, 1063.006
323.4573, 1051.960
323.9394, 1045.379
324.4215, 1041.853
324.9037, 1041.366
325.3858, 1042.504
325.8679, 1044.745
326.3500, 1049.155
326.8321, 1056.313
327.3142, 1066.115
327.7964, 1077.799
328.2785, 1094.120
328.7606, 1112.864
329.2427, 1123.292
329.7248, 1123.622
330.2069, 1117.143
330.6891, 1106.462
331.1712, 1091.383
331.6533, 1070.681
332.1354, 1040.247
332.6175, 1005.645
333.0996, 977.5371
333.5818, 955.7991
334.0639, 940.6569
334.5460, 932.1104
335.0281, 930.3431
335.5102, 936.6912
335.9923, 951.6672
336.4745, 974.5634
336.9566, 1004.933
337.4387, 1042.682
337.9208, 1087.521
338.4029, 1142.964
338.8850, 1203.512
339.3671, 1264.275
339.8492, 1325.283
340.3314, 1384.503
340.8135, 1440.436
341.2956, 1493.596
341.7777, 1543.716
342.2598, 1588.575
342.7419, 1633.558
343.2241, 1681.484
343.7062, 1732.803
344.1883, 1789.839
344.6704, 1853.746
345.1525, 1924.150
345.6346, 2000.375
346.1168, 2082.349
346.5989, 2169.831
347.0810, 2261.421
347.5631, 2358.042
348.0452, 2464.035
348.5273, 2580.875
349.0095, 2707.138
349.4916, 2842.402
349.9737, 2986.208
350.4558, 3135.571
350.9379, 3283.775
351.4200, 3440.281
351.9022, 3618.668
352.3843, 3823.488
352.8664, 4037.471
353.3485, 4254.191
353.8306, 4471.290
354.3127, 4681.512
354.7949, 4889.346
355.2770, 5079.443
355.7591, 5243.991
356.2412, 5386.066
356.7233, 5474.282
357.2054, 5505.474
357.6876, 5473.380
358.1697, 5360.764
358.6518, 5161.440
359.1339, 4908.533
359.6160, 4615.637
360.0981, 4287.686
360.5803, 3963.080
361.0624, 3636.535
361.5445, 3323.238
362.0266, 3033.488
362.5087, 2767.791
362.9908, 2533.339
363.4730, 2337.541
363.9551, 2175.899
364.4372, 2025.750
364.9193, 1885.342
365.4014, 1758.478
365.8835, 1649.521
366.3657, 1555.600
366.8478, 1471.355
367.3299, 1396.052
367.8120, 1327.246
368.2941, 1261.196
368.7762, 1197.738
369.2584, 1137.554
369.7405, 1079.710
370.2226, 1026.061
370.7047, 979.9902
371.1868, 941.2308
371.6689, 904.9196
372.1511, 866.1266
372.6332, 824.6882
373.1153, 787.9442
373.5974, 756.2343
374.0795, 728.0021
374.5616, 702.9985
375.0438, 680.8165
375.5259, 660.4387
376.0080, 641.5214
376.4901, 623.8823
376.9722, 607.0568
377.4543, 590.7809
377.9365, 575.6647
378.4186, 561.6682
378.9007, 548.8932
379.3828, 537.7855
379.8649, 528.3900
380.3470, 519.9719
380.8292, 511.5196
381.3113, 502.7809
381.7934, 494.7374
382.2755, 487.7044
382.7576, 480.9821
383.2397, 474.4811
383.7219, 467.9841
384.2040, 460.9426
384.6861, 452.7122
385.1682, 443.5006
385.6503, 436.9266
386.1324, 436.3309
386.6146, 434.8021
387.0967, 430.6725
387.5788, 425.1349
388.0609, 419.7420
388.5430, 415.1712
389.0251, 410.9779
389.5073, 406.1069
389.9894, 399.6733
390.4715, 394.4528
390.9536, 390.7218
391.4357, 387.9412
391.9178, 386.1408
392.4000, 385.0922
392.8821, 384.0614
393.3642, 382.3466
393.8463, 379.9262
394.3284, 377.2654
394.8105, 372.8818
395.2927, 370.0626
395.7748, 371.3004
396.2569, 374.5339
396.7390, 376.3515
397.2211, 374.9399
397.7032, 371.3846
398.1854, 368.0119
398.6675, 364.8552
399.1496, 361.7500
399.6317, 358.4710
400.1138, 355.3180
400.5959, 352.4511
401.0781, 349.9114
401.5602, 347.8868
402.0423, 347.0043
402.5244, 347.0951
403.0065, 346.1212
403.4886, 343.2170
403.9708, 340.1243
404.4529, 338.0461
404.9350, 336.7571
405.4171, 335.6329
405.8992, 334.3647
406.3813, 333.1382
406.8635, 332.5060
407.3456, 332.6035
407.8277, 331.9733
408.3098, 329.3098
408.7919, 325.7182
409.2740, 323.0815
409.7562, 321.6678
410.2383, 320.7581
410.7204, 320.5590
411.2025, 320.5576
411.6846, 318.8348
412.1667, 314.3368
412.6489, 309.6255
413.1310, 308.2936
413.6131, 310.2026
414.0952, 311.6247
414.5773, 311.6277
415.0594, 311.0736
415.5416, 310.9859
416.0237, 311.2791
416.5058, 310.6449
416.9879, 307.8076
417.4700, 303.4629
417.9521, 301.4250
418.4343, 303.5700
418.9164, 305.3491
419.3985, 305.3885
419.8806, 304.3526
420.3627, 303.0899
420.8448, 301.8770
421.3270, 300.7623
421.8091, 299.7527
422.2912, 298.5807
422.7733, 298.4496
423.2554, 300.3855
423.7375, 302.3832
424.2197, 303.6807
424.7018, 304.0177
425.1839, 302.8637
425.6660, 299.5756
426.1481, 294.7237
426.6302, 292.1911
427.1124, 294.3173
427.5945, 296.0617
428.0766, 296.7429
428.5587, 296.7988
429.0408, 296.5315
429.5229, 296.0888
430.0051, 295.7908
430.4872, 296.2009
430.9693, 297.5674
431.4514, 298.5971
431.9335, 299.5775
432.4156, 299.8934
432.8978, 298.8574
433.3799, 296.9141
433.8620, 295.0712
434.3441, 293.7785
434.8262, 293.1653
435.3083, 294.0529
435.7905, 297.4585
436.2726, 299.5198
436.7547, 297.3662
437.2368, 294.0252
437.7189, 291.9829
438.2010, 291.7031
438.6832, 292.5748
439.1653, 294.9471
439.6474, 298.3260
440.1295, 299.7805
440.6116, 298.0790
441.0938, 295.8874
441.5759, 295.6467
442.0580, 296.8065
442.5401, 297.7831
443.0222, 298.6602
443.5043, 298.7973
443.9865, 296.4334
444.4686, 292.0405
444.9507, 290.0041
445.4328, 293.1606
445.9149, 299.1535
446.3970, 302.7357
446.8792, 303.9124
447.3613, 303.3910
447.8434, 299.8983
448.3255, 295.4808
448.8076, 292.7042
449.2897, 291.9675
449.7719, 292.0339
450.2540, 291.7263
450.7361, 291.0019
451.2182, 291.0501
451.7003, 292.9466
452.1824, 294.3250
452.6646, 294.0554
453.1467, 292.7486
453.6288, 291.5640
454.1109, 291.0084
454.5930, 290.5112
455.0751, 288.7617
455.5573, 284.2079
456.0394, 281.4995
456.5215, 282.6797
457.0036, 283.6594
457.4857, 280.9099
457.9678, 275.4774
458.4500, 271.5689
458.9321, 272.8709
459.4142, 278.2415
459.8963, 280.8438
460.3784, 279.2626
460.8605, 277.3315
461.3427, 276.1655
461.8248, 275.1346
462.3069, 273.3791
462.7890, 270.6898
463.2711, 268.2487
463.7532, 267.7973
464.2354, 269.1207
464.7175, 268.9986
465.1996, 266.1374
465.6817, 263.2754
466.1638, 262.7249
466.6459, 263.6805
467.1281, 264.1119
467.6102, 262.7783
468.0923, 261.1506
468.5744, 261.4579
469.0565, 263.3949
469.5386, 263.7289
470.0208, 260.8186
470.5029, 256.1190
470.9850, 251.8956
471.4671, 247.9080
471.9492, 245.1788
472.4313, 244.4545
472.9135, 244.8167
473.3956, 245.5075
473.8777, 246.3696
474.3598, 247.2871
474.8419, 248.3744
475.3240, 249.4505
475.8062, 248.6291
476.2883, 244.0863
476.7704, 240.1623
477.2525, 237.8098
477.7346, 236.5114
478.2167, 236.0564
478.6989, 236.2209
479.1810, 235.9933
479.6631, 233.6292
480.1452, 228.0976
480.6273, 225.8500
481.1094, 231.1288
481.5916, 235.3639
482.0737, 235.3008
482.5558, 232.3292
483.0379, 228.9100
483.5200, 226.0922
484.0021, 224.0124
484.4843, 223.2448
484.9664, 224.2462
485.4485, 224.4230
485.9306, 222.6604
486.4127, 220.4173
486.8948, 218.3448
487.3770, 216.5686
487.8591, 215.4584
488.3412, 216.1095
488.8233, 217.3019
489.3054, 216.2787
489.7875, 212.7857
490.2697, 209.4955
490.7518, 207.8128
491.2339, 207.2028
491.7160, 206.3814
492.1981, 205.1645
492.6802, 204.2873
493.1624, 204.3842
493.6445, 204.8997
494.1266, 205.1331
494.6087, 204.9512
495.0908, 204.2027
495.5729, 202.6639
496.0551, 200.3426
496.5372, 198.0909
497.0193, 195.1599
497.5014, 193.1448
497.9835, 193.7209
498.4656, 195.0892
498.9478, 194.3245
499.4299, 190.5879
499.9120, 186.0897
500.3941, 184.1471
500.8762, 185.5063
501.3583, 186.4116
501.8405, 187.4493
502.3226, 187.4278
502.8047, 185.0894
503.2868, 181.4913
503.7689, 178.5356
504.2510, 177.1583
504.7331, 176.7614
505.2152, 176.4880
505.6974, 176.4841
506.1795, 175.6755
506.6616, 173.3725
507.1437, 170.6109
507.6258, 167.9141
508.1079, 165.3643
508.5901, 163.3752
509.0722, 162.5178
509.5543, 162.1496
510.0364, 161.2875
510.5185, 159.9348
511.0006, 158.6325
511.4828, 157.6809
511.9649, 156.8928
512.4470, 155.9168
512.9291, 154.8105
513.4113, 153.3898
513.8934, 151.1134
514.3755, 148.8046
514.8576, 147.5834
515.3397, 147.3811
515.8218, 146.9602
516.3040, 145.2682
516.7861, 142.6087
517.2682, 141.2063
517.7503, 142.9118
518.2324, 143.5691
518.7145, 141.8328
519.1967, 139.4657
519.6788, 138.3112
520.1609, 138.5582
520.6430, 138.8816
521.1251, 137.8944
521.6072, 135.6323
522.0894, 133.5556
522.5715, 131.4477
523.0536, 129.8978
523.5357, 129.4615
524.0178, 129.4507
524.4999, 129.0749
524.9821, 128.1204
525.4642, 126.9391
525.9463, 125.8402
526.4284, 124.7906
526.9105, 123.4984
527.3926, 121.7631
527.8748, 120.3024
528.3569, 119.9248
528.8390, 120.3071
529.3211, 120.3257
529.8032, 120.1515
530.2853, 119.2745
530.7675, 116.3332
531.2496, 112.6760
531.7317, 111.4157
532.2138, 113.4853
532.6959, 116.3124
533.1780, 116.6643
533.6602, 114.0402
534.1423, 112.0091
534.6244, 110.5202
535.1065, 109.5565
535.5886, 109.6129
536.0707, 110.0452
536.5529, 109.7992
537.0350, 108.4768
537.5171, 106.7737
537.9992, 105.7557
538.4813, 105.4660
538.9634, 105.6891
539.4456, 107.4206
539.9277, 108.5350
540.4098, 107.5141
540.8919, 105.2586
541.3740, 103.6623
541.8561, 103.7207
542.3383, 104.1811
542.8204, 103.3384
543.3025, 101.3574
543.7846, 99.77617
544.2667, 98.88010
544.7488, 98.67381
545.2310, 99.58888
545.7131, 101.4632
546.1952, 102.7061
546.6773, 102.8021
547.1594, 102.4507
547.6415, 101.9914
548.1237, 101.4514
548.6058, 100.7673
549.0879, 99.90282
549.5700, 99.11687
550.0521, 98.88786
550.5342, 99.53204
551.0164, 99.76633
551.4985, 99.16479
551.9806, 98.65195
552.4627, 99.11406
552.9448, 99.87682
553.4269, 99.48315
553.9091, 97.16846
554.3912, 94.16386
554.8733, 92.65393
555.3554, 92.82424
555.8375, 93.26337
556.3196, 94.62103
556.8018, 95.20617
557.2839, 93.11996
557.7660, 89.43559
558.2481, 87.25839
558.7302, 88.55386
559.2123, 90.78496
559.6945, 91.57246
560.1766, 91.09295
560.6587, 89.94955
561.1408, 88.14218
561.6229, 86.35115
562.1050, 85.52673
562.5872, 85.88532
563.0693, 85.69715
563.5514, 84.54162
564.0335, 83.24138
564.5156, 81.95374
564.9977, 80.87856
565.4799, 80.41661
565.9620, 80.71628
566.4441, 81.31645
566.9262, 81.46080
567.4083, 80.99606
567.8904, 80.70451
568.3726, 81.49914
568.8547, 81.48296
569.3368, 78.89571
569.8189, 75.34113
570.3010, 73.60292
570.7831, 74.88737
571.2653, 77.20727
571.7474, 78.51118
572.2295, 78.83286
572.7116, 78.32706
573.1937, 76.71185
573.6758, 75.03656
574.1580, 74.11327
574.6401, 73.85854
575.1222, 73.96022
575.6043, 75.08549
576.0864, 75.77173
576.5685, 74.99788
577.0507, 73.39157
577.5328, 71.62833
578.0149, 69.96586
578.4970, 69.35310
578.9791, 71.12903
579.4612, 75.47124
579.9434, 77.72267
580.4255, 76.06140
580.9076, 74.38977
581.3897, 73.23860
581.8718, 72.51662
582.3539, 72.26604
582.8361, 72.41482
583.3182, 72.42899
583.8003, 71.61842
584.2824, 70.12340
584.7645, 69.01266
585.2466, 68.36620
585.7288, 67.86587
586.2108, 67.14716
586.6929, 66.59480
587.1750, 66.95700
587.6572, 68.58959
588.1393, 69.79704
588.6214, 69.76435
