##NAMES=Greifensteinite
##RRUFFID=R100221
##IDEAL CHEMISTRY=Ca_2_Fe^2+^_5_Be_4_(PO_4_)_6_(OH)_4_&#183;6H_2_O
##LOCALITY=Xanda mine, Virgem da Lapa, Minas Gerais, Brazil
##OWNER=RRUFF
##SOURCE=Luiz Menezes
##DESCRIPTION=Rosettes of green platy crystals on microcline and muscovite
##STATUS=The identification of this mineral has been confirmed only by single crystal X-ray diffraction.
##URL=rruff.info/R100221
171.6010, 255.3164
172.0831, 253.1797
172.5652, 249.7811
173.0474, 247.1826
173.5295, 245.6070
174.0116, 244.4055
174.4937, 243.2056
174.9758, 242.0053
175.4579, 240.7049
175.9401, 239.1804
176.4222, 237.5651
176.9043, 236.0695
177.3864, 234.8160
177.8685, 233.4685
178.3506, 231.4322
178.8328, 228.4182
179.3149, 225.7475
179.7970, 224.0231
180.2791, 222.7510
180.7612, 221.5837
181.2433, 220.3990
181.7255, 219.2163
182.2076, 218.0750
182.6897, 216.9936
183.1718, 215.9211
183.6539, 214.7838
184.1360, 213.6684
184.6181, 212.6481
185.1003, 211.7519
185.5824, 211.0022
186.0645, 210.5158
186.5466, 210.9597
187.0287, 210.8150
187.5108, 209.3675
187.9930, 207.3726
188.4751, 205.7457
188.9572, 205.0044
189.4393, 205.0472
189.9214, 205.3528
190.4035, 206.9316
190.8857, 207.6560
191.3678, 206.6560
191.8499, 204.5616
192.3320, 202.3764
192.8141, 200.6450
193.2962, 199.3771
193.7784, 198.7008
194.2605, 198.8815
194.7426, 199.2054
195.2247, 199.6194
195.7068, 200.0149
196.1889, 200.1198
196.6711, 199.7492
197.1532, 198.9353
197.6353, 197.9935
198.1174, 196.3279
198.5995, 195.0715
199.0816, 195.1085
199.5638, 196.2686
200.0459, 197.4584
200.5280, 198.2791
201.0101, 198.5276
201.4922, 197.8743
201.9743, 195.4163
202.4565, 192.9469
202.9386, 192.1608
203.4207, 193.0982
203.9028, 194.1960
204.3849, 194.6881
204.8670, 194.7958
205.3492, 194.8430
205.8313, 194.9707
206.3134, 194.9480
206.7955, 194.3620
207.2776, 193.0610
207.7597, 191.9048
208.2419, 191.5445
208.7240, 191.4331
209.2061, 191.0085
209.6882, 190.0007
210.1703, 188.7882
210.6524, 187.9975
211.1346, 187.6758
211.6167, 187.6957
212.0988, 188.6588
212.5809, 189.6377
213.0630, 189.5021
213.5451, 187.6549
214.0273, 185.0733
214.5094, 184.1075
214.9915, 185.9546
215.4736, 187.2960
215.9557, 187.3691
216.4378, 186.7593
216.9200, 185.8773
217.4021, 184.8841
217.8842, 184.0189
218.3663, 184.0170
218.8484, 185.7191
219.3305, 187.1159
219.8127, 188.1013
220.2948, 188.6475
220.7769, 188.6831
221.2590, 188.1752
221.7411, 187.2537
222.2232, 186.2773
222.7054, 184.1930
223.1875, 183.4333
223.6696, 185.3500
224.1517, 188.2292
224.6338, 190.1908
225.1159, 190.4081
225.5980, 189.2084
226.0802, 187.5010
226.5623, 183.1246
227.0444, 180.8691
227.5265, 182.6608
228.0086, 186.3278
228.4907, 189.0235
228.9729, 189.5186
229.4550, 188.7281
229.9371, 189.0412
230.4192, 191.6428
230.9013, 193.4400
231.3834, 193.5395
231.8656, 192.6394
232.3477, 191.6272
232.8298, 190.7754
233.3119, 190.2197
233.7940, 190.4169
234.2761, 191.7222
234.7583, 192.7312
235.2404, 192.6749
235.7225, 192.1555
236.2046, 192.3272
236.6867, 193.7047
237.1688, 195.5706
237.6510, 196.6301
238.1331, 196.7935
238.6152, 196.9917
239.0973, 197.6926
239.5794, 198.6385
240.0615, 199.2099
240.5437, 199.1206
241.0258, 198.8701
241.5079, 199.1731
241.9900, 200.0152
242.4721, 200.8405
242.9542, 201.3095
243.4364, 201.5846
243.9185, 202.1907
244.4006, 203.4913
244.8827, 204.6385
245.3648, 204.4794
245.8469, 203.2131
246.3290, 202.3585
246.8112, 203.1272
247.2933, 204.9224
247.7754, 205.8922
248.2575, 205.5712
248.7396, 204.7479
249.2217, 203.8724
249.7039, 203.0025
250.1860, 202.3721
250.6681, 202.1607
251.1502, 202.2986
251.6323, 202.6350
252.1144, 203.5694
252.5966, 203.9870
253.0787, 202.9099
253.5608, 200.8855
254.0429, 199.1159
254.5250, 198.1965
255.0071, 198.0610
255.4893, 198.6059
255.9714, 200.5212
256.4535, 201.9794
256.9356, 201.9285
257.4177, 200.9924
257.8998, 200.1917
258.3820, 200.1404
258.8641, 200.6002
259.3462, 200.7050
259.8283, 200.1938
260.3104, 199.7471
260.7925, 199.7254
261.2747, 199.8527
261.7568, 199.7367
262.2389, 199.1388
262.7210, 198.2572
263.2031, 197.7535
263.6852, 198.2400
264.1674, 198.0016
264.6495, 196.0588
265.1316, 193.5463
265.6137, 191.6192
266.0958, 190.7695
266.5779, 190.7843
267.0601, 191.2963
267.5422, 192.9255
268.0243, 193.8979
268.5064, 193.5412
268.9885, 192.7506
269.4706, 192.3442
269.9528, 192.6042
270.4349, 193.1774
270.9170, 193.4428
271.3991, 193.5143
271.8812, 192.9782
272.3633, 191.2187
272.8455, 189.3270
273.3276, 188.1770
273.8097, 187.9569
274.2918, 188.2108
274.7739, 188.2213
275.2560, 187.6649
275.7382, 187.5809
276.2202, 188.2191
276.7024, 189.0352
277.1845, 189.8013
277.6666, 190.4267
278.1487, 190.8156
278.6308, 190.7884
279.1129, 190.0950
279.5951, 189.8669
280.0772, 190.4401
280.5593, 191.0979
281.0414, 191.6075
281.5235, 191.8763
282.0056, 191.7796
282.4878, 191.1186
282.9699, 189.7319
283.4520, 188.9553
283.9341, 189.1168
284.4162, 189.4670
284.8983, 189.8998
285.3805, 190.2902
285.8626, 190.3779
286.3447, 189.8897
286.8268, 188.8478
287.3089, 188.5278
287.7910, 189.2623
288.2732, 190.2896
288.7553, 191.8095
289.2374, 193.4452
289.7195, 194.4832
290.2016, 194.4506
290.6837, 193.5678
291.1659, 193.0569
291.6480, 193.2510
292.1301, 193.4254
292.6122, 193.4482
293.0943, 193.3844
293.5764, 193.3479
294.0586, 193.3928
294.5407, 193.4621
295.0228, 193.4010
295.5049, 193.1325
295.9870, 192.8170
296.4691, 192.3804
296.9513, 191.9343
297.4334, 191.5719
297.9155, 191.3288
298.3976, 191.2347
298.8797, 191.3716
299.3618, 192.1235
299.8440, 192.3389
300.3261, 191.4429
300.8082, 190.3803
301.2903, 190.1579
301.7724, 190.8612
302.2545, 191.4524
302.7367, 190.5682
303.2188, 187.5023
303.7009, 185.7943
304.1830, 186.0349
304.6651, 186.9939
305.1472, 188.0188
305.6294, 189.0374
306.1115, 190.3117
306.5936, 192.2308
307.0757, 194.8943
307.5578, 195.8643
308.0399, 193.7736
308.5221, 191.6716
309.0042, 190.8894
309.4863, 191.1920
309.9684, 191.8177
310.4505, 192.3316
310.9326, 192.7160
311.4148, 192.8065
311.8969, 192.3757
312.3790, 191.9657
312.8611, 191.5731
313.3432, 191.3096
313.8253, 191.4526
314.3075, 192.1662
314.7896, 193.1082
315.2717, 193.3672
315.7538, 191.7194
316.2359, 191.1701
316.7180, 193.2682
317.2001, 196.0062
317.6823, 196.8380
318.1644, 195.0846
318.6465, 192.5554
319.1286, 192.0198
319.6107, 194.7629
320.0928, 196.5221
320.5750, 196.7690
321.0571, 196.4364
321.5392, 196.0760
322.0213, 195.8225
322.5034, 195.7723
322.9855, 196.1471
323.4677, 197.1396
323.9498, 196.8818
324.4319, 193.9028
324.9140, 191.2290
325.3961, 190.5769
325.8782, 191.5924
326.3604, 192.9204
326.8425, 193.6725
327.3246, 193.8723
327.8067, 193.7698
328.2888, 192.7784
328.7709, 192.1919
329.2531, 192.5079
329.7352, 193.4212
330.2173, 194.4997
330.6994, 195.5564
331.1815, 196.5169
331.6636, 197.1787
332.1458, 197.6059
332.6279, 197.6136
333.1100, 197.1552
333.5921, 196.2965
334.0742, 194.9766
334.5563, 193.2208
335.0385, 191.2951
335.5206, 189.5826
336.0027, 188.0768
336.4848, 186.8439
336.9669, 185.6182
337.4490, 184.8197
337.9312, 184.7724
338.4133, 185.4504
338.8954, 186.6756
339.3775, 188.4517
339.8596, 190.9546
340.3417, 191.7750
340.8239, 190.0456
341.3060, 187.7961
341.7881, 184.9300
342.2702, 182.1153
342.7523, 180.7274
343.2344, 181.7520
343.7166, 184.5174
344.1987, 185.7420
344.6808, 183.1452
345.1629, 181.5463
345.6450, 182.2821
346.1271, 183.8689
346.6093, 184.4897
347.0914, 183.5093
347.5735, 181.8792
348.0556, 181.5218
348.5377, 183.8993
349.0198, 184.8685
349.5020, 182.9189
349.9841, 180.8768
350.4662, 181.0271
350.9483, 183.3730
351.4304, 186.0260
351.9125, 186.8246
352.3947, 185.3576
352.8768, 184.7812
353.3589, 185.6015
353.8410, 186.7954
354.3231, 188.3296
354.8052, 189.9570
355.2874, 191.2769
355.7695, 191.9828
356.2516, 192.1809
356.7337, 192.4610
357.2158, 192.4390
357.6979, 193.0874
358.1800, 194.9613
358.6621, 197.3818
359.1443, 199.6269
359.6264, 201.4300
360.1085, 202.9650
360.5906, 204.5128
361.0727, 205.9819
361.5548, 207.7224
362.0370, 210.3896
362.5191, 212.8532
363.0012, 214.0943
363.4833, 214.2105
363.9654, 214.3663
364.4475, 215.8912
364.9297, 218.8924
365.4118, 221.4354
365.8939, 222.9616
366.3760, 224.6285
366.8581, 227.2231
367.3402, 230.2781
367.8224, 232.7834
368.3045, 233.9662
368.7866, 234.3259
369.2687, 235.4735
369.7508, 238.0017
370.2329, 239.9822
370.7151, 240.3878
371.1972, 240.1589
371.6793, 240.1488
372.1614, 240.5938
372.6435, 241.3381
373.1256, 242.5657
373.6078, 244.3957
374.0899, 244.9283
374.5720, 242.5938
375.0541, 239.8362
375.5362, 238.7591
376.0183, 239.2097
376.5005, 239.2569
376.9826, 237.1791
377.4647, 233.6106
377.9468, 231.0609
378.4289, 230.2292
378.9110, 229.1813
379.3932, 226.3782
379.8753, 222.4652
380.3574, 218.5558
380.8395, 214.7651
381.3216, 211.3354
381.8037, 208.8405
382.2859, 207.3008
382.7680, 205.3892
383.2501, 201.9170
383.7322, 198.1855
384.2143, 196.3090
384.6964, 196.8265
385.1786, 197.4644
385.6607, 197.1680
386.1428, 196.0133
386.6249, 193.9893
387.1070, 190.8496
387.5891, 187.5480
388.0713, 185.0452
388.5534, 183.2745
389.0355, 182.3401
389.5176, 183.2081
389.9997, 184.3364
390.4818, 183.9570
390.9640, 182.0608
391.4461, 180.1840
391.9282, 179.4508
392.4103, 179.5972
392.8924, 179.1173
393.3745, 177.5114
393.8567, 175.8822
394.3388, 174.7392
394.8209, 173.8674
395.3030, 172.7718
395.7851, 171.2118
396.2672, 169.6352
396.7494, 168.8879
397.2315, 169.5227
397.7136, 169.6729
398.1957, 168.6941
398.6778, 167.5788
399.1599, 167.1877
399.6420, 167.5657
400.1241, 168.2500
400.6063, 168.9304
401.0884, 169.6344
401.5705, 169.4002
402.0526, 167.2467
402.5347, 165.3819
403.0168, 164.6473
403.4990, 164.6148
403.9811, 164.6099
404.4632, 164.3148
404.9453, 163.7591
405.4274, 162.9146
405.9095, 160.8266
406.3917, 160.1703
406.8738, 162.0049
407.3559, 164.4216
407.8380, 166.3316
408.3201, 167.4556
408.8022, 167.8229
409.2844, 167.2597
409.7665, 165.6629
410.2486, 164.8387
410.7307, 165.5765
411.2128, 166.2680
411.6949, 166.3202
412.1771, 166.0358
412.6592, 165.9171
413.1413, 166.2052
413.6234, 166.8134
414.1055, 167.5939
414.5876, 168.6123
415.0698, 169.6158
415.5519, 170.6486
416.0340, 171.5722
416.5161, 172.1642
416.9982, 172.4395
417.4803, 172.8280
417.9625, 173.8282
418.4446, 175.3261
418.9267, 176.4829
419.4088, 176.9268
419.8909, 177.5984
420.3730, 179.2824
420.8552, 181.5968
421.3373, 183.7798
421.8194, 185.5589
422.3015, 187.1143
422.7836, 188.6320
423.2657, 190.1089
423.7479, 191.5808
424.2300, 193.2264
424.7121, 194.7034
425.1942, 195.4333
425.6763, 195.2484
426.1584, 195.1978
426.6406, 195.6166
427.1227, 196.4949
427.6048, 197.9625
428.0869, 200.0918
428.5690, 202.2799
429.0511, 204.0502
429.5333, 205.3574
430.0154, 206.2529
430.4975, 206.3321
430.9796, 206.3813
431.4617, 207.0244
431.9438, 207.9974
432.4260, 208.5507
432.9081, 208.2915
433.3902, 207.5564
433.8723, 207.1449
434.3544, 207.4291
434.8365, 207.4178
435.3187, 206.8700
435.8008, 206.1518
436.2829, 205.6750
436.7650, 205.4133
437.2471, 204.9083
437.7292, 203.6791
438.2114, 201.6946
438.6935, 200.0393
439.1756, 199.2794
439.6577, 198.2170
440.1398, 196.3976
440.6219, 194.1763
441.1040, 192.0461
441.5862, 190.2231
442.0683, 188.5548
442.5504, 186.7801
443.0325, 184.8483
443.5146, 182.9531
443.9967, 181.0056
444.4789, 179.1939
444.9610, 177.6460
445.4431, 176.3469
445.9252, 175.2032
446.4073, 174.3470
446.8894, 173.5778
447.3716, 171.8455
447.8537, 168.3898
448.3358, 165.8838
448.8179, 166.4871
449.3000, 168.2248
449.7821, 169.0623
450.2643, 168.5376
450.7464, 167.3095
451.2285, 165.3722
451.7106, 163.0289
452.1927, 162.0977
452.6748, 163.4682
453.1570, 165.2346
453.6391, 165.3017
454.1212, 164.0281
454.6033, 162.9044
455.0854, 162.4635
455.5675, 162.1789
456.0497, 161.4363
456.5318, 160.3417
457.0139, 159.6358
457.4960, 159.8273
457.9781, 160.4891
458.4602, 160.4450
458.9424, 159.5895
459.4245, 158.4149
459.9066, 156.2154
460.3887, 154.1822
460.8708, 153.8962
461.3529, 155.4031
461.8351, 157.1353
462.3172, 157.6367
462.7993, 156.8690
463.2814, 155.9365
463.7635, 154.2903
464.2456, 153.1163
464.7278, 153.1564
465.2099, 153.6936
465.6920, 153.5688
466.1741, 152.3599
466.6562, 150.9330
467.1383, 150.9585
467.6205, 153.2556
468.1026, 154.4455
468.5847, 153.1303
469.0668, 151.8403
469.5489, 151.9610
470.0310, 153.0915
470.5132, 153.9699
470.9953, 153.8478
471.4774, 152.9360
471.9595, 151.6356
472.4416, 149.7793
472.9237, 148.1591
473.4059, 146.8886
473.8880, 146.1185
474.3701, 146.1039
474.8522, 146.8907
475.3343, 147.9551
475.8164, 149.4881
476.2986, 150.9958
476.7807, 150.9205
477.2628, 148.7817
477.7449, 146.7368
478.2270, 146.5907
478.7091, 147.9272
479.1913, 148.8242
479.6734, 148.8486
480.1555, 148.7905
480.6376, 148.9504
481.1197, 149.3328
481.6018, 150.0001
482.0839, 150.9864
482.5660, 152.1145
483.0482, 153.2381
483.5303, 154.5740
484.0124, 154.9147
484.4945, 153.2058
484.9766, 151.5548
485.4587, 151.1509
485.9409, 151.7309
486.4230, 152.5247
486.9051, 153.1268
487.3872, 153.4999
487.8693, 153.4818
488.3514, 152.6510
488.8336, 152.2309
489.3157, 153.0373
489.7978, 153.6504
490.2799, 152.7911
490.7620, 150.6752
491.2441, 148.7082
491.7263, 148.1045
492.2084, 148.5813
492.6905, 148.7959
493.1726, 148.7209
493.6547, 148.4497
494.1368, 147.5796
494.6190, 146.7487
495.1011, 146.8739
495.5832, 148.2722
496.0653, 149.3582
496.5474, 148.5135
497.0295, 146.3870
497.5117, 145.0667
497.9938, 145.0262
498.4759, 145.0654
498.9580, 144.0347
499.4401, 142.1817
499.9222, 140.8921
500.4044, 140.6650
500.8865, 140.5842
501.3686, 140.0511
501.8507, 139.3352
502.3328, 139.0822
502.8149, 139.5296
503.2971, 140.1746
503.7792, 140.3371
504.2613, 139.9792
504.7434, 139.1808
505.2255, 137.1506
505.7076, 135.5077
506.1898, 135.1578
506.6719, 135.7743
507.1540, 136.6845
507.6361, 137.5542
508.1182, 138.3213
508.6003, 138.8104
509.0825, 138.9157
509.5646, 139.0285
510.0467, 139.5717
510.5288, 139.8009
511.0109, 138.8779
511.4930, 137.1739
511.9752, 136.0619
512.4573, 136.7602
512.9394, 138.3923
513.4215, 138.9052
513.9036, 138.1658
514.3857, 137.1033
514.8679, 135.5465
515.3500, 134.2460
515.8321, 134.2945
516.3142, 135.8740
516.7963, 137.3116
517.2784, 138.4083
517.7606, 138.7042
518.2427, 136.9133
518.7248, 133.0886
519.2069, 129.8497
519.6890, 129.0185
520.1711, 130.1524
520.6533, 131.1069
521.1354, 131.7746
521.6175, 132.4442
522.0996, 133.6462
522.5817, 134.5934
523.0638, 134.0751
523.5460, 132.1510
524.0281, 130.3656
524.5102, 130.3393
524.9923, 131.9984
525.4744, 132.6724
525.9565, 131.4457
526.4387, 130.3857
526.9208, 129.7605
527.4029, 129.5739
527.8850, 130.0900
528.3671, 131.3073
528.8492, 132.2850
529.3314, 131.6326
529.8135, 129.5989
530.2956, 128.8266
530.7777, 130.1450
531.2598, 131.3107
531.7419, 130.6134
532.2241, 128.9076
532.7062, 127.3904
533.1883, 125.9485
533.6704, 125.4070
534.1525, 127.2307
534.6346, 130.2873
535.1168, 131.6610
535.5989, 130.5792
536.0810, 129.0065
536.5631, 128.9588
537.0452, 130.5266
537.5273, 131.5630
538.0095, 131.6721
538.4916, 131.7463
538.9737, 131.9424
539.4558, 132.3700
539.9379, 133.3635
540.4200, 134.9691
540.9022, 136.5154
541.3843, 136.9500
541.8664, 135.9847
542.3485, 135.5399
542.8306, 135.8626
543.3127, 136.4812
543.7948, 137.9048
544.2769, 139.3374
544.7590, 139.2204
545.2411, 136.7475
545.7233, 134.2875
546.2054, 135.6442
546.6875, 140.4465
547.1696, 142.7810
547.6517, 140.6401
548.1339, 138.0037
548.6160, 138.6472
549.0981, 141.5145
549.5802, 143.7461
550.0623, 144.2485
550.5444, 144.5713
551.0266, 146.1075
551.5087, 148.1875
551.9908, 149.1077
552.4729, 148.3193
552.9550, 146.9476
553.4371, 146.3329
553.9193, 146.5473
554.4014, 147.1550
554.8835, 148.8192
555.3656, 150.0890
555.8477, 150.2174
556.3298, 149.6966
556.8120, 149.2309
557.2941, 149.0850
557.7762, 149.1262
558.2583, 149.4126
558.7404, 150.1178
559.2225, 149.5318
559.7047, 146.5847
560.1868, 143.6666
560.6689, 141.9336
561.1510, 140.9613
561.6331, 140.0182
562.1152, 138.8810
562.5974, 137.7499
563.0795, 136.5554
563.5616, 135.4846
564.0437, 135.5464
564.5258, 137.2445
565.0079, 138.6340
565.4901, 137.6038
565.9722, 134.2998
566.4543, 132.3139
566.9364, 132.6321
567.4185, 133.1279
567.9006, 133.1286
568.3828, 132.7649
568.8649, 132.1366
569.3470, 131.3183
569.8291, 130.5423
570.3112, 130.0355
570.7933, 129.7780
571.2755, 130.1818
571.7576, 132.8322
572.2397, 134.0945
572.7218, 131.6081
573.2039, 128.0768
573.6860, 126.8209
574.1682, 128.6119
574.6503, 130.9226
575.1324, 131.3234
575.6145, 130.2028
576.0966, 129.2532
576.5787, 128.5855
577.0609, 128.0499
577.5430, 127.4987
578.0251, 127.0551
578.5072, 127.0283
578.9893, 127.7020
579.4714, 128.1665
579.9536, 127.8014
580.4357, 127.1808
580.9178, 127.2291
581.3999, 127.9230
581.8820, 128.2167
582.3641, 127.2356
582.8463, 125.2422
583.3284, 123.7736
583.8105, 123.4742
584.2926, 122.7623
584.7747, 120.4914
585.2568, 118.5543
585.7390, 118.7594
586.2211, 120.8647
586.7032, 123.0348
587.1853, 123.9116
587.6674, 123.9554
588.1495, 124.5678
588.6317, 125.9589
589.1138, 126.5394
589.5959, 125.1733
590.0780, 123.3617
590.5601, 123.1975
591.0422, 124.6442
591.5244, 125.1955
592.0065, 123.2961
592.4886, 120.7979
592.9707, 119.0852
593.4528, 118.2159
593.9349, 118.2157
594.4171, 119.1527
594.8992, 120.5575
595.3813, 121.6136
595.8634, 122.1713
596.3455, 122.8189
596.8276, 123.9845
597.3098, 124.7817
597.7919, 124.8147
598.2740, 124.2313
598.7561, 123.1020
599.2382, 121.4126
599.7203, 119.9647
600.2025, 120.0535
600.6846, 121.6315
601.1667, 122.9112
601.6488, 123.7025
602.1309, 124.2051
602.6130, 124.6626
603.0952, 124.9082
603.5773, 124.4641
604.0594, 122.8345
604.5415, 121.3371
605.0236, 120.7198
605.5057, 120.6276
605.9879, 120.6601
606.4700, 120.7014
606.9521, 120.4178
607.4342, 119.3993
607.9163, 117.8587
608.3984, 117.4421
608.8806, 119.5758
609.3627, 120.8820
609.8448, 120.5743
610.3269, 119.7384
610.8090, 119.0152
611.2911, 118.5666
611.7733, 118.5022
612.2554, 119.1092
612.7375, 119.9611
613.2196, 119.8794
613.7017, 118.7365
614.1838, 118.0812
614.6660, 118.7587
615.1481, 119.6484
615.6302, 119.1336
616.1123, 117.3370
616.5944, 116.3333
617.0765, 117.0824
617.5587, 118.2442
618.0408, 118.9654
618.5229, 119.4015
619.0050, 119.8294
619.4871, 120.3609
619.9692, 121.4009
620.4514, 123.7973
620.9335, 128.0484
621.4156, 129.8716
621.8977, 126.1524
622.3798, 123.6606
622.8619, 125.4060
623.3441, 128.6371
623.8262, 130.0098
624.3083, 128.7605
624.7904, 127.0458
625.2725, 126.6488
625.7546, 127.1927
626.2367, 127.6596
626.7188, 127.9882
627.2009, 128.4032
627.6830, 129.0461
628.1652, 129.8320
628.6473, 130.6037
629.1294, 131.4140
629.6115, 132.0512
630.0936, 132.0707
630.5757, 132.2617
631.0579, 133.6601
631.5400, 135.7143
632.0221, 136.8995
632.5042, 136.4230
632.9863, 135.0378
633.4684, 134.0921
633.9506, 133.6371
634.4327, 133.3902
634.9148, 133.8020
635.3969, 133.8143
635.8790, 132.5049
636.3611, 130.5887
636.8433, 129.3479
637.3254, 129.2545
637.8075, 129.3921
638.2896, 129.2570
638.7717, 128.8509
639.2538, 128.1308
639.7360, 127.0994
640.2181, 125.8782
640.7002, 124.4948
641.1823, 123.0414
641.6644, 121.8849
642.1465, 121.6496
642.6287, 120.8419
643.1108, 118.6719
643.5929, 116.5933
644.0750, 115.7441
644.5571, 115.8467
645.0392, 115.8461
645.5214, 115.1091
646.0035, 114.1469
646.4856, 114.1563
646.9677, 115.1286
647.4498, 114.6579
647.9319, 111.5426
648.4141, 108.5355
648.8962, 108.2555
649.3783, 110.0174
649.8604, 111.2657
650.3425, 111.9101
650.8246, 111.8694
651.3068, 110.3102
651.7889, 108.4614
652.2710, 108.1205
652.7531, 109.3113
653.2352, 110.4809
653.7173, 110.3931
654.1995, 109.3537
654.6816, 108.6372
655.1637, 108.3743
655.6458, 108.1265
656.1279, 107.9644
656.6100, 107.6785
657.0922, 106.9214
657.5743, 105.9027
658.0564, 105.3284
658.5385, 105.5734
659.0206, 106.2163
659.5027, 107.3343
659.9849, 108.5208
660.4670, 108.3406
660.9491, 106.4224
661.4312, 104.3468
661.9133, 103.4997
662.3954, 103.8262
662.8776, 104.5406
663.3597, 106.2461
663.8418, 107.5473
664.3239, 108.0902
664.8060, 108.3509
665.2881, 108.7500
665.7703, 109.2611
666.2524, 109.5924
666.7345, 109.6174
667.2166, 109.2689
667.6987, 107.9990
668.1808, 105.8626
