##NAMES=Greifensteinite
##RRUFFID=R070613
##IDEAL CHEMISTRY=Ca_2_Fe^2+^_5_Be_4_(PO_4_)_6_(OH)_4_&#183;6H_2_O
##LOCALITY=Tip Top mine, Custer County, South Dakota, USA
##OWNER=RRUFF
##SOURCE=Dakota Matrix Minerals
##DESCRIPTION=Darker orange-brown blebs in pale salmon colored montgomeryite, associated with tiptopite (R070609)
##STATUS=The identification of this mineral has been confirmed only by single crystal X-ray diffraction.
##URL=rruff.info/R070613
127.2358, 133.1179
127.7179, 133.6319
128.2001, 134.1441
128.6822, 134.6008
129.1643, 134.9377
129.6464, 135.1822
130.1285, 135.6666
130.6106, 137.1351
131.0928, 138.1382
131.5749, 138.0607
132.0570, 137.1887
132.5391, 136.1779
133.0212, 135.5799
133.5033, 135.4210
133.9855, 135.6137
134.4676, 136.8158
134.9497, 137.7814
135.4318, 137.6173
135.9139, 136.3231
136.3960, 134.7470
136.8782, 133.8767
137.3603, 133.9017
137.8424, 133.6589
138.3245, 132.7994
138.8066, 131.7495
139.2887, 131.1251
139.7709, 131.1651
140.2530, 131.2274
140.7351, 130.2562
141.2172, 128.3597
141.6993, 126.7840
142.1814, 126.2850
142.6636, 126.5972
143.1457, 126.6956
143.6278, 126.1052
144.1099, 125.5566
144.5920, 125.7696
145.0741, 126.7339
145.5563, 127.7157
146.0384, 128.0139
146.5205, 127.5422
147.0026, 127.1286
147.4847, 126.7851
147.9668, 126.6311
148.4490, 126.7223
148.9311, 127.0773
149.4132, 127.7244
149.8953, 128.7978
150.3774, 130.7328
150.8595, 132.1930
151.3417, 132.7380
151.8238, 133.0426
152.3059, 133.6225
152.7880, 134.6688
153.2701, 136.0517
153.7522, 137.4329
154.2344, 138.8732
154.7165, 140.2239
155.1986, 141.3993
155.6807, 142.5056
156.1628, 143.6970
156.6449, 145.0555
157.1271, 146.5175
157.6092, 147.8125
158.0913, 148.5850
158.5734, 149.6188
159.0555, 151.2450
159.5376, 153.3181
160.0198, 155.4498
160.5019, 157.4024
160.9840, 159.2787
161.4661, 161.4024
161.9482, 163.9738
162.4303, 166.5741
162.9125, 168.9622
163.3946, 171.1398
163.8767, 173.1065
164.3588, 174.6684
164.8409, 176.0561
165.3230, 177.6979
165.8052, 179.8348
166.2873, 182.0917
166.7694, 183.8955
167.2515, 185.1224
167.7336, 186.3409
168.2157, 187.8778
168.6979, 189.5597
169.1800, 191.2491
169.6621, 193.0042
170.1442, 194.6451
170.6263, 195.6437
171.1084, 195.7221
171.5906, 195.5294
172.0727, 195.4154
172.5548, 195.1914
173.0369, 194.5619
173.5190, 193.2966
174.0011, 191.4744
174.4833, 189.7665
174.9654, 188.3214
175.4475, 186.8394
175.9296, 185.3130
176.4117, 183.7052
176.8938, 181.9615
177.3760, 180.0496
177.8581, 177.9710
178.3402, 175.6425
178.8223, 172.8359
179.3044, 170.0401
179.7865, 167.4195
180.2687, 164.9659
180.7508, 162.5862
181.2329, 160.1845
181.7150, 157.7335
182.1971, 155.7537
182.6792, 154.6289
183.1614, 153.5866
183.6435, 152.1189
184.1256, 150.2364
184.6077, 148.3598
185.0898, 146.8742
185.5719, 145.8199
186.0540, 144.7270
186.5362, 143.4141
187.0183, 142.1598
187.5004, 141.3114
187.9825, 140.9227
188.4646, 140.5691
188.9467, 139.7177
189.4289, 138.5275
189.9110, 137.6644
190.3931, 137.2761
190.8752, 137.3047
191.3573, 137.8277
191.8394, 139.0935
192.3216, 140.1626
192.8037, 140.0726
193.2858, 139.2291
193.7679, 138.5143
194.2500, 138.3344
194.7321, 138.5885
195.2143, 138.9695
195.6964, 139.5344
196.1785, 140.1395
196.6606, 140.7200
197.1427, 141.2770
197.6248, 141.8033
198.1070, 142.2615
198.5891, 142.6669
199.0712, 143.1810
199.5533, 143.8526
200.0354, 144.5932
200.5175, 145.5190
200.9997, 146.4926
201.4818, 147.2020
201.9639, 147.2739
202.4460, 146.6770
202.9281, 146.6649
203.4102, 147.8897
203.8924, 149.1450
204.3745, 150.0401
204.8566, 150.6565
205.3387, 151.3016
205.8208, 152.3037
206.3029, 153.7703
206.7851, 154.5932
207.2672, 154.1298
207.7493, 153.6997
208.2314, 153.9194
208.7135, 154.6802
209.1956, 155.4580
209.6778, 155.7621
210.1599, 155.5046
210.6420, 155.4350
211.1241, 155.8847
211.6062, 156.1996
212.0883, 156.0550
212.5705, 155.4467
213.0526, 154.5226
213.5347, 153.3582
214.0168, 151.9139
214.4989, 150.6389
214.9810, 149.8340
215.4632, 148.9503
215.9453, 147.6068
216.4274, 145.7901
216.9095, 143.7660
217.3916, 141.7637
217.8737, 139.7577
218.3559, 137.5585
218.8380, 134.9067
219.3201, 132.2071
219.8022, 129.7568
220.2843, 127.5787
220.7664, 125.6536
221.2486, 124.1207
221.7307, 122.8577
222.2128, 121.3974
222.6949, 119.4434
223.1770, 117.3762
223.6591, 115.6103
224.1413, 114.1654
224.6234, 112.9463
225.1055, 112.0317
225.5876, 111.2959
226.0697, 110.5230
226.5518, 109.6618
227.0340, 108.7336
227.5161, 107.7161
227.9982, 106.5401
228.4803, 105.5172
228.9624, 104.9802
229.4445, 104.6751
229.9267, 104.2622
230.4088, 103.5579
230.8909, 102.7348
231.3730, 102.1624
231.8551, 101.9619
232.3372, 101.7082
232.8194, 101.0737
233.3015, 100.3341
233.7836, 99.84889
234.2657, 99.83884
234.7478, 100.0516
235.2299, 99.85826
235.7121, 98.94268
236.1942, 98.26318
236.6763, 98.28451
237.1584, 98.57463
237.6405, 98.63462
238.1227, 98.21510
238.6048, 97.58080
239.0869, 97.44806
239.5690, 98.20992
240.0511, 98.79498
240.5332, 99.02312
241.0154, 98.99690
241.4975, 98.73991
241.9796, 98.25735
242.4617, 97.70232
242.9438, 97.46627
243.4259, 97.69263
243.9081, 98.05141
244.3902, 98.66103
244.8723, 99.29431
245.3544, 99.65022
245.8365, 99.62521
246.3186, 99.48872
246.8007, 99.90155
247.2829, 101.6642
247.7650, 102.7997
248.2471, 102.7776
248.7292, 102.3632
249.2113, 102.2624
249.6934, 102.7145
250.1756, 103.4598
250.6577, 103.9907
251.1398, 104.0884
251.6219, 104.2696
252.1040, 104.6041
252.5861, 104.9786
253.0683, 105.3223
253.5504, 105.6057
254.0325, 105.7947
254.5146, 105.8187
254.9967, 105.4929
255.4788, 105.3511
255.9610, 105.6565
256.4431, 105.9952
256.9252, 105.9264
257.4073, 105.3677
257.8894, 104.6842
258.3716, 104.3526
258.8537, 104.4824
259.3358, 104.7846
259.8179, 105.6483
260.3000, 106.4552
260.7821, 106.6025
261.2643, 106.0026
261.7464, 105.0917
262.2285, 104.3027
262.7106, 103.6476
263.1927, 103.1285
263.6748, 102.7674
264.1570, 102.5294
264.6391, 102.4767
265.1212, 102.5947
265.6033, 102.6291
266.0854, 102.3073
266.5675, 101.6055
267.0497, 101.0075
267.5318, 100.6560
268.0139, 100.3222
268.4960, 99.75964
268.9781, 98.97287
269.4602, 98.26781
269.9424, 97.92307
270.4245, 97.88873
270.9066, 97.70444
271.3887, 97.23391
271.8708, 96.70583
272.3529, 96.27400
272.8351, 95.93862
273.3172, 95.67339
273.7993, 95.47411
274.2814, 95.33747
274.7635, 95.23872
275.2456, 95.33129
275.7278, 95.29171
276.2099, 94.76020
276.6920, 93.80502
277.1741, 92.99422
277.6562, 92.64437
278.1383, 92.58908
278.6204, 92.43770
279.1025, 92.15190
279.5847, 91.84923
280.0668, 91.54546
280.5489, 91.26334
281.0310, 91.16193
281.5131, 91.36082
281.9952, 91.71236
282.4774, 92.00662
282.9595, 92.24530
283.4416, 92.42124
283.9237, 92.53995
284.4058, 92.59507
284.8879, 92.53185
285.3701, 92.23970
285.8522, 91.96245
286.3343, 91.97929
286.8164, 92.27468
287.2985, 92.58001
287.7806, 92.75642
288.2628, 92.83138
288.7449, 92.90813
289.2270, 93.04603
289.7091, 93.09869
290.1912, 92.80524
290.6733, 92.28880
291.1555, 92.01382
291.6376, 92.37980
292.1197, 93.12348
292.6018, 93.62425
293.0839, 93.80277
293.5660, 93.85027
294.0482, 93.85731
294.5303, 93.83315
295.0124, 93.78996
295.4945, 93.73254
295.9766, 93.65901
296.4587, 93.54356
296.9409, 93.35474
297.4230, 93.23338
297.9051, 93.27990
298.3872, 93.42770
298.8693, 93.65544
299.3514, 94.06377
299.8336, 94.36445
300.3157, 94.07275
300.7978, 93.07312
301.2799, 92.16610
301.7620, 91.69164
302.2441, 91.43709
302.7263, 91.23466
303.2084, 91.05428
303.6905, 90.92823
304.1726, 90.88090
304.6547, 90.91204
305.1368, 91.05548
305.6190, 91.60944
306.1011, 92.02864
306.5832, 91.76479
307.0653, 90.80978
307.5474, 89.86256
308.0295, 89.57941
308.5117, 89.89458
308.9938, 89.97334
309.4759, 89.45485
309.9580, 88.99140
310.4401, 89.06718
310.9222, 89.57936
311.4044, 90.11976
311.8865, 90.43616
312.3686, 90.56824
312.8507, 90.72232
313.3328, 91.01381
313.8149, 91.11446
314.2971, 90.64467
314.7792, 89.90114
315.2613, 89.43248
315.7434, 89.52465
316.2255, 90.01914
316.7076, 90.69048
317.1898, 91.74587
317.6719, 92.40064
318.1540, 91.88173
318.6361, 90.95491
319.1182, 90.46153
319.6003, 90.71370
320.0825, 91.29128
320.5646, 91.65047
321.0467, 91.76332
321.5288, 91.83745
322.0109, 91.98280
322.4930, 92.08142
322.9752, 91.93991
323.4573, 91.51929
323.9394, 91.22998
324.4215, 91.63774
324.9036, 92.71938
325.3857, 93.37548
325.8679, 93.08325
326.3500, 92.63326
326.8321, 92.60838
327.3142, 92.96718
327.7963, 93.35823
328.2784, 93.58903
328.7606, 93.66688
329.2427, 93.61153
329.7248, 93.35737
330.2069, 93.08183
330.6890, 92.85607
331.1711, 92.68948
331.6533, 92.61719
332.1354, 92.76005
332.6175, 92.95422
333.0996, 92.75312
333.5817, 91.94759
334.0638, 91.42413
334.5460, 91.95695
335.0281, 92.91061
335.5102, 93.60935
335.9923, 93.87693
336.4744, 93.85950
336.9565, 93.64828
337.4387, 93.22826
337.9208, 92.89064
338.4029, 92.85262
338.8850, 92.84762
339.3671, 92.56367
339.8492, 91.95296
340.3314, 91.38791
340.8135, 91.27074
341.2956, 91.50048
341.7777, 91.42666
342.2598, 90.81002
342.7419, 90.03224
343.2241, 89.33801
343.7062, 88.74123
344.1883, 88.36173
344.6704, 88.48520
345.1525, 88.82897
345.6346, 88.70477
346.1168, 87.94102
346.5989, 87.15260
347.0810, 86.89775
347.5631, 86.92004
348.0452, 86.76129
348.5273, 86.13356
349.0095, 85.43089
349.4916, 85.10026
349.9737, 85.14808
350.4558, 85.33850
350.9379, 85.63223
351.4200, 85.97207
351.9022, 86.27211
352.3843, 86.53499
352.8664, 86.73721
353.3485, 86.78423
353.8306, 86.73634
354.3127, 86.85857
354.7949, 87.29265
355.2770, 87.80866
355.7591, 88.06837
356.2412, 88.07485
356.7233, 88.19887
357.2054, 88.60348
357.6876, 89.19778
358.1697, 89.89044
358.6518, 90.69285
359.1339, 91.42638
359.6160, 91.85109
360.0981, 92.04336
360.5803, 92.40572
361.0624, 93.12036
361.5445, 93.92080
362.0266, 94.57607
362.5087, 95.10221
362.9908, 95.64836
363.4730, 96.30382
363.9551, 97.03355
364.4372, 97.72989
364.9193, 98.34080
365.4014, 99.00045
365.8835, 99.75293
366.3657, 100.5899
366.8478, 101.5191
367.3299, 102.5521
367.8120, 103.6216
368.2941, 104.5881
368.7762, 105.3673
369.2584, 106.4066
369.7405, 108.1159
370.2226, 109.9053
370.7047, 111.1336
371.1868, 111.7488
371.6689, 112.2001
372.1511, 112.8797
372.6332, 113.8036
373.1153, 114.7116
373.5974, 115.4617
374.0795, 116.3426
374.5616, 117.6329
375.0438, 119.1768
375.5259, 120.5872
376.0080, 121.6370
376.4901, 122.4207
376.9722, 123.2618
377.4543, 124.2126
377.9365, 125.1487
378.4186, 126.1206
378.9007, 127.0431
379.3828, 127.6619
379.8649, 127.9505
380.3470, 128.3899
380.8292, 129.7320
381.3113, 132.5455
381.7934, 134.5562
382.2755, 135.2059
382.7576, 135.6533
383.2397, 136.6075
383.7219, 137.9851
384.2040, 139.2198
384.6861, 139.8056
385.1682, 139.8174
385.6503, 140.4358
386.1324, 142.1633
386.6146, 143.9783
387.0967, 145.9261
387.5788, 147.7825
388.0609, 149.2013
388.5430, 150.0345
389.0251, 150.6349
389.5073, 151.7484
389.9894, 153.6805
390.4715, 155.5047
390.9536, 157.0517
391.4357, 158.5780
391.9178, 160.2090
392.4000, 161.9782
392.8821, 163.9156
393.3642, 166.1345
393.8463, 168.6560
394.3284, 170.8224
394.8105, 172.2835
395.2927, 173.7998
395.7748, 175.7353
396.2569, 177.8766
396.7390, 179.8435
397.2211, 181.3951
397.7032, 182.7749
398.1854, 184.5996
398.6675, 187.1254
399.1496, 189.3382
399.6317, 190.9386
400.1138, 192.1383
400.5959, 193.0916
401.0780, 193.8213
401.5602, 194.1584
402.0423, 193.8123
402.5244, 192.8424
403.0065, 191.8910
403.4886, 191.0506
403.9707, 190.2128
404.4529, 189.5246
404.9350, 188.8155
405.4171, 187.5574
405.8992, 185.2637
406.3813, 182.4290
406.8634, 179.7280
407.3456, 177.1458
407.8277, 174.8083
408.3098, 172.8615
408.7919, 171.1468
409.2740, 169.4037
409.7561, 167.6191
410.2383, 165.7884
410.7204, 163.7989
411.2025, 161.7433
411.6846, 159.8415
412.1667, 158.1069
412.6488, 156.6369
413.1310, 155.7203
413.6131, 155.3363
414.0952, 154.6858
414.5773, 153.6752
415.0594, 152.3103
415.5415, 150.2988
416.0237, 147.7634
416.5058, 145.6850
416.9879, 144.8660
417.4700, 144.9884
417.9521, 144.2970
418.4342, 141.9116
418.9164, 139.9089
419.3985, 139.2022
419.8806, 139.1150
420.3627, 138.6307
420.8448, 137.4237
421.3269, 135.9226
421.8091, 134.7619
422.2912, 134.1004
422.7733, 133.3596
423.2554, 132.5553
423.7375, 131.6686
424.2196, 130.6838
424.7018, 129.6108
425.1839, 128.4393
425.6660, 127.1258
426.1481, 125.7453
426.6302, 124.7935
427.1123, 124.9130
427.5945, 124.6868
428.0766, 123.6757
428.5587, 122.3830
429.0408, 121.2759
429.5229, 120.5079
430.0050, 119.9728
430.4872, 119.5620
430.9693, 119.3255
431.4514, 119.0141
431.9335, 118.5568
432.4156, 118.0765
432.8977, 117.6670
433.3799, 117.2757
433.8620, 116.7501
434.3441, 115.9515
434.8262, 114.9934
435.3083, 114.2386
435.7904, 113.7965
436.2726, 113.2601
436.7547, 112.3609
437.2368, 111.3611
437.7189, 110.5533
438.2010, 110.0119
438.6831, 109.3575
439.1653, 108.0791
439.6474, 106.3394
440.1295, 105.0718
440.6116, 104.6202
441.0937, 104.2783
441.5758, 103.2919
442.0580, 101.8929
442.5401, 100.8119
443.0222, 100.4974
443.5043, 100.4258
443.9864, 100.0951
444.4685, 99.52260
444.9507, 98.88991
445.4328, 98.30373
445.9149, 97.68290
446.3970, 96.79827
446.8791, 95.50785
447.3612, 94.40778
447.8434, 93.66380
448.3255, 93.19637
448.8076, 92.98716
449.2897, 93.01118
449.7718, 93.05125
450.2539, 92.89687
450.7361, 92.53548
451.2182, 92.21916
451.7003, 91.88018
452.1824, 91.65112
452.6645, 91.63286
453.1466, 91.74461
453.6288, 91.90874
454.1109, 92.09201
454.5930, 92.17368
455.0751, 91.87687
455.5572, 90.85619
456.0393, 90.13304
456.5215, 89.77584
457.0036, 89.60381
457.4857, 89.46684
457.9678, 89.40480
458.4499, 89.61354
458.9320, 90.32466
459.4142, 91.40378
459.8963, 92.05385
460.3784, 92.10386
460.8605, 92.00675
461.3426, 91.78734
461.8247, 91.55138
462.3069, 91.42677
462.7890, 91.44505
463.2711, 91.46358
463.7532, 91.33281
464.2353, 91.06023
464.7174, 90.74678
465.1996, 90.35951
465.6817, 90.00466
466.1638, 89.80217
466.6459, 89.68956
467.1280, 89.50796
467.6101, 89.20436
468.0923, 88.80999
468.5744, 88.34581
469.0565, 87.81194
469.5386, 87.24998
470.0207, 86.67580
470.5028, 86.08028
470.9850, 85.43179
471.4671, 84.70428
471.9492, 84.05418
472.4313, 83.64452
472.9134, 83.25665
473.3955, 82.62938
473.8777, 81.75642
474.3598, 80.79097
474.8419, 79.79011
475.3240, 78.79993
475.8061, 78.31187
476.2882, 78.87041
476.7704, 79.18929
477.2525, 78.92419
477.7346, 78.31966
478.2167, 77.58838
478.6988, 76.81810
479.1809, 76.14295
479.6631, 75.76086
480.1452, 75.76551
480.6273, 75.59274
481.1094, 74.92513
481.5915, 74.40639
482.0736, 74.34551
482.5558, 74.56254
483.0379, 74.74327
483.5200, 74.74071
484.0021, 74.61024
484.4842, 74.44871
484.9663, 74.25264
485.4485, 74.03714
485.9306, 73.79436
486.4127, 73.54086
486.8948, 73.22169
487.3769, 72.87384
487.8590, 72.68752
488.3412, 72.82959
488.8233, 73.18763
489.3054, 73.55814
489.7875, 73.93687
490.2696, 74.33328
490.7517, 74.74772
491.2339, 75.18501
491.7160, 75.69221
492.1981, 76.35998
492.6802, 76.82556
493.1623, 76.80495
493.6444, 76.53167
494.1266, 76.28585
494.6087, 76.12216
495.0908, 76.16756
495.5729, 76.60108
496.0550, 77.41304
496.5371, 77.91115
497.0193, 77.89817
497.5014, 77.85249
497.9835, 77.94868
498.4656, 78.09106
498.9477, 78.12582
499.4298, 78.00612
499.9120, 77.82240
500.3941, 77.70958
500.8762, 77.69514
501.3583, 77.63811
501.8404, 77.50159
502.3225, 77.35979
502.8047, 77.31355
503.2868, 77.26880
503.7689, 77.03432
504.2510, 76.49162
504.7331, 75.81651
505.2152, 75.31291
505.6974, 74.98769
506.1795, 74.78951
506.6616, 74.81135
507.1437, 74.86504
507.6258, 74.83930
508.1079, 74.72923
508.5901, 74.53149
509.0722, 74.13289
509.5543, 73.70145
510.0364, 73.53800
510.5185, 73.63893
511.0006, 73.65701
511.4828, 73.38332
511.9649, 72.97142
512.4470, 72.77007
512.9291, 72.85462
513.4112, 72.85289
513.8933, 72.53362
514.3754, 72.16491
514.8575, 72.06282
515.3397, 72.22781
515.8218, 72.42609
516.3039, 72.49294
516.7860, 72.43714
517.2681, 72.32311
517.7502, 72.09848
518.2324, 71.87925
518.7145, 71.67376
519.1966, 71.47760
519.6787, 71.24077
520.1608, 70.98125
520.6429, 70.82030
521.1251, 70.86741
521.6072, 71.12332
522.0893, 71.62852
522.5714, 72.75218
523.0535, 73.52538
523.5356, 73.31872
524.0178, 72.76628
524.4999, 72.65814
524.9820, 73.22919
525.4641, 73.86713
525.9462, 73.96288
526.4283, 73.63332
526.9105, 73.40544
527.3926, 73.36119
527.8747, 73.39766
528.3568, 73.52440
528.8389, 73.67329
529.3210, 73.60155
529.8032, 72.99123
530.2853, 72.49094
530.7674, 72.59873
531.2495, 73.04282
531.7316, 73.26844
532.2137, 73.11244
532.6959, 72.83243
533.1780, 72.74678
533.6601, 72.89491
534.1422, 72.99419
534.6243, 73.05909
535.1064, 73.06872
535.5886, 72.99637
536.0707, 72.86908
536.5528, 72.67602
537.0349, 72.42085
537.5170, 72.24831
537.9991, 72.45255
538.4813, 73.13908
538.9634, 73.65793
539.4455, 73.93076
539.9276, 74.07722
540.4097, 73.99652
540.8918, 73.85229
541.3740, 74.01209
541.8561, 74.76680
542.3382, 75.56641
542.8203, 75.56132
543.3024, 74.86291
543.7845, 74.58551
544.2667, 75.11192
544.7488, 75.92046
545.2309, 76.49808
545.7130, 76.86433
546.1951, 77.12378
546.6772, 77.06622
547.1594, 77.11256
547.6415, 77.65061
548.1236, 78.50981
548.6057, 79.26582
549.0878, 79.74465
549.5699, 80.05887
550.0521, 80.34953
550.5342, 80.44775
551.0163, 81.06734
551.4984, 82.79851
551.9805, 84.36232
552.4626, 85.07079
552.9448, 85.22755
553.4269, 85.43806
553.9090, 85.98210
554.3911, 86.77866
554.8732, 87.74775
555.3553, 88.93771
555.8375, 89.98641
556.3196, 90.77550
556.8017, 91.49062
557.2838, 92.26572
557.7659, 93.07259
558.2480, 93.82225
558.7302, 94.47321
559.2123, 95.06238
559.6944, 95.62349
560.1765, 96.15293
560.6586, 96.59097
561.1407, 96.87853
561.6229, 97.21918
562.1050, 97.94971
562.5871, 99.17156
563.0692, 99.97524
563.5513, 100.1104
564.0334, 100.0642
564.5156, 100.0211
564.9977, 99.98480
565.4798, 99.91836
565.9619, 99.80865
566.4440, 99.70526
566.9261, 99.72368
567.4083, 99.95755
567.8904, 99.92909
568.3725, 99.32513
568.8546, 98.77386
569.3367, 98.45854
569.8188, 98.34643
570.3010, 98.42961
570.7831, 98.75515
571.2652, 99.01205
571.7473, 98.64397
572.2294, 97.77332
572.7115, 97.48613
573.1937, 98.17955
573.6758, 98.91767
574.1579, 98.77272
574.6400, 97.99588
575.1221, 97.57729
575.6042, 97.86581
576.0864, 98.23918
576.5685, 98.42500
577.0506, 98.48421
577.5327, 98.52232
578.0148, 98.56429
578.4969, 98.55554
578.9791, 98.43285
579.4612, 98.19250
579.9433, 97.93650
580.4254, 97.66331
580.9075, 97.37580
581.3896, 97.13345
581.8718, 96.84317
582.3539, 96.33638
582.8360, 95.60371
583.3181, 94.92247
583.8002, 94.70196
584.2823, 94.83649
584.7645, 94.46632
585.2466, 93.36859
585.7287, 92.39336
586.2108, 92.12685
586.6929, 92.15292
587.1750, 91.83232
587.6572, 91.01121
588.1393, 90.32490
588.6214, 90.26302
589.1035, 90.39945
589.5856, 90.11918
590.0677, 89.40359
590.5499, 88.68126
591.0320, 88.23086
591.5141, 87.97742
591.9962, 87.64907
592.4783, 87.12672
592.9604, 86.70160
593.4426, 86.41289
593.9247, 86.19172
594.4068, 86.04870
594.8889, 85.93616
595.3710, 85.69827
595.8531, 85.16798
596.3353, 84.59066
596.8174, 84.67893
597.2995, 85.61250
597.7816, 86.15263
598.2637, 85.74239
598.7458, 85.15128
599.2280, 85.05215
599.7101, 85.36932
600.1922, 85.68845
600.6743, 85.97820
601.1564, 86.13312
601.6385, 85.99263
602.1207, 85.63988
602.6028, 85.38879
603.0849, 85.36539
603.5670, 85.21230
604.0491, 84.41016
604.5313, 82.79799
605.0134, 81.53949
605.4955, 80.90111
605.9776, 80.25624
606.4597, 79.61290
606.9418, 78.75825
607.4240, 77.32375
607.9061, 75.25455
608.3882, 73.07878
608.8703, 71.35301
609.3524, 70.06581
609.8345, 69.08846
610.3167, 68.57513
610.7988, 67.99550
611.2809, 66.99813
611.7630, 65.82119
612.2451, 64.80751
612.7272, 64.03856
613.2094, 63.18610
613.6915, 61.89650
614.1736, 60.55291
614.6557, 59.67554
615.1378, 59.25819
615.6199, 58.99776
616.1021, 58.72924
616.5842, 58.44741
617.0663, 58.14781
617.5484, 57.91179
618.0305, 57.50340
618.5126, 56.70311
618.9948, 55.94970
619.4769, 55.46359
619.9590, 55.23152
620.4411, 55.18254
620.9232, 55.29432
621.4053, 55.51689
621.8875, 55.79423
622.3696, 56.12471
