##NAMES=Greifensteinite
##RRUFFID=R070613
##IDEAL CHEMISTRY=Ca_2_Fe^2+^_5_Be_4_(PO_4_)_6_(OH)_4_&#183;6H_2_O
##LOCALITY=Tip Top mine, Custer County, South Dakota, USA
##OWNER=RRUFF
##SOURCE=Dakota Matrix Minerals
##DESCRIPTION=Darker orange-brown blebs in pale salmon colored montgomeryite, associated with tiptopite (R070609)
##STATUS=The identification of this mineral has been confirmed only by single crystal X-ray diffraction.
##URL=rruff.info/R070613
132.3692, 81.21458
132.8513, 82.53809
133.3334, 83.02037
133.8156, 82.98695
134.2977, 82.96536
134.7798, 83.23641
135.2619, 83.76122
135.7440, 84.59383
136.2261, 85.66023
136.7083, 86.72951
137.1904, 87.84350
137.6725, 88.85976
138.1546, 89.68376
138.6367, 90.34519
139.1188, 90.70561
139.6010, 90.69164
140.0831, 90.30580
140.5652, 89.85094
141.0473, 89.24998
141.5294, 88.67463
142.0115, 88.40996
142.4937, 88.64719
142.9758, 88.72033
143.4579, 88.28242
143.9400, 87.06401
144.4221, 86.68671
144.9042, 87.52958
145.3864, 88.97639
145.8685, 89.96684
146.3506, 90.34594
146.8327, 90.49819
147.3148, 90.51390
147.7969, 90.25796
148.2791, 90.16605
148.7612, 90.22604
149.2433, 90.44626
149.7254, 90.85629
150.2075, 91.54620
150.6896, 92.34472
151.1718, 93.19589
151.6539, 94.26448
152.1360, 95.15254
152.6181, 95.78986
153.1002, 96.23485
153.5823, 96.65718
154.0645, 96.74519
154.5466, 97.04902
155.0287, 97.83604
155.5108, 99.96002
155.9929, 101.5857
156.4750, 102.1835
156.9572, 101.9813
157.4393, 101.8844
157.9214, 101.7967
158.4035, 102.0422
158.8856, 102.8195
159.3677, 104.9140
159.8499, 106.8052
160.3320, 107.8860
160.8141, 108.2949
161.2962, 108.8619
161.7783, 110.0081
162.2604, 111.3716
162.7426, 112.6540
163.2247, 113.6935
163.7068, 114.6994
164.1889, 115.8487
164.6710, 117.1098
165.1531, 118.1665
165.6353, 118.6017
166.1174, 118.8369
166.5995, 119.3259
167.0816, 120.3335
167.5637, 121.5667
168.0458, 122.9431
168.5280, 124.4444
169.0101, 125.8293
169.4922, 126.9085
169.9743, 127.7689
170.4564, 128.5243
170.9385, 129.3533
171.4207, 130.0197
171.9028, 130.2677
172.3849, 130.0755
172.8670, 129.7180
173.3491, 129.2372
173.8312, 128.7443
174.3134, 128.4516
174.7955, 128.8325
175.2776, 129.3042
175.7597, 129.0322
176.2418, 127.8916
176.7239, 126.7006
177.2061, 126.4017
177.6882, 126.6763
178.1703, 126.6642
178.6524, 125.7477
179.1345, 124.3261
179.6166, 123.1075
180.0988, 122.1565
180.5809, 121.2117
181.0630, 119.9348
181.5451, 118.3819
182.0272, 116.8322
182.5093, 115.2847
182.9915, 113.8334
183.4736, 112.8261
183.9557, 112.3660
184.4378, 112.0170
184.9199, 111.1359
185.4020, 109.7973
185.8842, 108.4138
186.3663, 107.1778
186.8484, 106.0770
187.3305, 105.1388
187.8126, 104.3829
188.2947, 103.7169
188.7769, 102.9585
189.2590, 102.1162
189.7411, 101.3663
190.2232, 100.7925
190.7053, 100.3920
191.1874, 100.1533
191.6696, 100.1143
192.1517, 100.1588
192.6338, 100.0602
193.1159, 99.81389
193.5980, 99.55542
194.0801, 99.38023
194.5623, 99.28049
195.0444, 99.12340
195.5265, 98.87751
196.0086, 98.59697
196.4907, 98.39484
196.9728, 98.27457
197.4550, 98.19673
197.9371, 98.09956
198.4192, 97.97954
198.9013, 98.09211
199.3834, 98.58279
199.8655, 99.19067
200.3477, 99.16635
200.8298, 98.36278
201.3119, 97.59234
201.7940, 97.44856
202.2761, 98.01165
202.7582, 98.27574
203.2404, 98.07497
203.7225, 97.58150
204.2046, 97.23325
204.6867, 97.01767
205.1688, 96.99103
205.6509, 97.28056
206.1331, 97.97133
206.6152, 98.42389
207.0973, 98.54800
207.5794, 98.41926
208.0615, 98.25272
208.5436, 98.03736
209.0258, 97.81221
209.5079, 97.57902
209.9900, 97.31013
210.4721, 97.18665
210.9542, 97.30883
211.4363, 97.55595
211.9185, 97.49855
212.4006, 97.04767
212.8827, 96.47844
213.3648, 95.91747
213.8469, 95.28968
214.3290, 94.95021
214.8112, 95.07759
215.2933, 95.47874
215.7754, 95.45222
216.2575, 94.88992
216.7396, 94.09999
217.2217, 93.19976
217.7038, 92.06034
218.1860, 91.24371
218.6681, 90.95475
219.1502, 90.99490
219.6323, 90.59078
220.1144, 89.50793
220.5965, 88.39086
221.0787, 87.63116
221.5608, 87.36923
222.0429, 87.08800
222.5250, 86.74831
223.0071, 86.37099
223.4892, 86.07126
223.9714, 85.96770
224.4535, 85.75415
224.9356, 85.20914
225.4177, 84.09391
225.8998, 83.23823
226.3819, 82.73579
226.8641, 82.51080
227.3462, 82.34695
227.8283, 82.34158
228.3104, 82.24853
228.7925, 81.89324
229.2746, 81.00965
229.7568, 80.46425
230.2389, 80.36919
230.7210, 80.61253
231.2031, 80.87706
231.6852, 81.28708
232.1673, 81.53400
232.6495, 81.41193
233.1316, 80.62680
233.6137, 80.15013
234.0958, 80.16617
234.5779, 80.47559
235.0600, 80.48931
235.5422, 79.96751
236.0243, 79.49832
236.5064, 79.37732
236.9885, 79.86212
237.4706, 80.11297
237.9527, 80.01509
238.4349, 79.71047
238.9170, 79.53941
239.3991, 79.48404
239.8812, 79.58919
240.3633, 79.92104
240.8454, 80.67613
241.3276, 81.15624
241.8097, 81.23342
242.2918, 81.07686
242.7739, 81.04138
243.2560, 81.11700
243.7381, 81.33131
244.2203, 81.74399
244.7024, 82.51932
245.1845, 83.02086
245.6666, 83.15552
246.1487, 83.06062
246.6308, 82.97964
247.1130, 82.84425
247.5951, 82.83532
248.0772, 83.02700
248.5593, 83.46016
249.0414, 83.95866
249.5235, 84.59419
250.0057, 85.24816
250.4878, 85.73917
250.9699, 86.04796
251.4520, 86.22408
251.9341, 86.24577
252.4162, 86.06114
252.8984, 85.96455
253.3805, 85.90075
253.8626, 85.96969
254.3447, 86.37545
254.8268, 87.39091
255.3089, 88.19160
255.7911, 88.44550
256.2732, 88.05299
256.7553, 88.00658
257.2374, 88.50661
257.7195, 89.15652
258.2017, 89.46439
258.6838, 89.32992
259.1659, 89.08008
259.6480, 88.72780
260.1301, 88.26327
260.6122, 88.06561
261.0944, 88.26442
261.5765, 88.57024
262.0586, 88.66887
262.5407, 88.49340
263.0228, 88.29418
263.5049, 88.10451
263.9871, 87.92613
264.4692, 87.84760
264.9513, 87.90802
265.4334, 88.00520
265.9155, 88.06608
266.3976, 88.11443
266.8798, 88.03786
267.3619, 87.79018
267.8440, 87.39017
268.3261, 86.98461
268.8082, 86.52949
269.2903, 86.16145
269.7725, 86.05319
270.2546, 86.29600
270.7367, 86.36692
271.2188, 86.12669
271.7009, 85.67119
272.1830, 85.42845
272.6652, 85.47021
273.1473, 85.53197
273.6294, 85.35522
274.1115, 84.85038
274.5936, 84.71212
275.0757, 85.13701
275.5579, 85.87984
276.0400, 86.23576
276.5221, 86.16722
277.0042, 85.86061
277.4863, 85.28514
277.9684, 84.39317
278.4506, 83.92320
278.9327, 84.01488
279.4148, 84.43922
279.8969, 84.70039
280.3790, 84.76634
280.8611, 84.89771
281.3433, 85.31841
281.8254, 86.02644
282.3075, 86.47417
282.7896, 86.63289
283.2717, 86.56727
283.7538, 86.24870
284.2360, 85.65910
284.7181, 85.29183
285.2002, 85.46885
285.6823, 86.12236
286.1644, 86.63451
286.6465, 86.98067
287.1287, 87.25627
287.6108, 87.51792
288.0929, 87.77379
288.5750, 88.19910
289.0571, 89.01778
289.5392, 90.06474
290.0214, 90.60513
290.5035, 90.59496
290.9856, 90.43538
291.4677, 90.52592
291.9498, 90.83638
292.4319, 91.18364
292.9141, 91.57520
293.3962, 91.93724
293.8783, 92.01665
294.3604, 91.80879
294.8425, 91.64601
295.3246, 91.89534
295.8068, 92.44016
296.2889, 92.87241
296.7710, 93.05339
297.2531, 93.13293
297.7352, 93.40820
298.2173, 93.84886
298.6995, 94.20317
299.1816, 94.23803
299.6637, 94.05547
300.1458, 93.84108
300.6279, 93.58133
301.1100, 93.39618
301.5922, 93.55081
302.0743, 93.95250
302.5564, 94.22918
303.0385, 93.98716
303.5206, 93.54015
304.0027, 93.38185
304.4849, 93.63715
304.9670, 93.92729
305.4491, 93.83755
305.9312, 93.49738
306.4133, 93.21723
306.8954, 93.24100
307.3776, 93.35475
307.8597, 93.31346
308.3418, 93.08653
308.8239, 92.89348
309.3060, 92.88432
309.7881, 93.01937
310.2703, 93.23454
310.7524, 93.80960
311.2345, 94.23566
311.7166, 93.97212
312.1987, 93.04306
312.6808, 92.25256
313.1630, 92.05255
313.6451, 92.22276
314.1272, 92.52741
314.6093, 93.06712
315.0914, 93.54995
315.5735, 93.69988
316.0557, 93.60390
316.5378, 93.72720
317.0199, 94.57680
317.5020, 95.53935
317.9841, 96.15862
318.4662, 96.07414
318.9484, 96.00308
319.4305, 96.31419
319.9126, 96.83073
320.3947, 97.08775
320.8768, 96.56879
321.3589, 96.04623
321.8411, 95.91768
322.3232, 96.35705
322.8053, 96.89050
323.2874, 97.58109
323.7695, 98.28381
324.2516, 98.76898
324.7338, 98.78047
325.2159, 98.77225
325.6980, 98.87923
326.1801, 99.12598
326.6622, 99.40886
327.1443, 99.72179
327.6265, 100.0686
328.1086, 100.4551
328.5907, 100.8823
329.0728, 101.3462
329.5549, 101.9309
330.0370, 102.6421
330.5192, 103.0397
331.0013, 102.7386
331.4834, 102.4532
331.9655, 102.7306
332.4476, 104.2326
332.9297, 105.1362
333.4119, 104.9938
333.8940, 104.1010
334.3761, 103.8152
334.8582, 104.5339
335.3403, 105.2351
335.8224, 105.3142
336.3046, 104.4023
336.7867, 103.9998
337.2688, 104.3096
337.7509, 105.0063
338.2330, 105.4665
338.7151, 105.6765
339.1973, 105.6781
339.6794, 105.4141
340.1615, 104.8679
340.6436, 104.5257
341.1257, 104.4636
341.6078, 104.4527
342.0899, 104.1999
342.5721, 103.7009
343.0542, 103.1005
343.5363, 102.3954
344.0184, 101.6340
344.5005, 101.0480
344.9826, 100.6672
345.4648, 100.2808
345.9469, 99.59084
346.4290, 98.65611
346.9111, 98.05644
347.3932, 98.01248
347.8753, 98.19598
348.3575, 97.99483
348.8396, 97.42850
349.3217, 96.71178
349.8038, 95.79406
350.2859, 94.84415
350.7680, 94.30025
351.2502, 94.24818
351.7323, 94.46789
352.2144, 94.80322
352.6965, 95.22239
353.1786, 95.61967
353.6607, 95.95363
354.1429, 96.23375
354.6250, 96.49610
355.1071, 96.74626
355.5892, 96.88976
356.0713, 96.53886
356.5534, 96.10265
357.0356, 96.19244
357.5177, 97.54267
357.9998, 99.07085
358.4819, 99.90217
358.9640, 100.1583
359.4461, 100.4940
359.9283, 101.3689
360.4104, 102.4068
360.8925, 103.2785
361.3746, 103.7838
361.8567, 104.3307
362.3388, 105.0221
362.8210, 105.8714
363.3031, 106.9248
363.7852, 108.4188
364.2673, 109.9399
364.7494, 111.3290
365.2315, 112.5971
365.7137, 113.6328
366.1958, 113.9835
366.6779, 114.2293
367.1600, 115.0560
367.6421, 117.3076
368.1242, 119.3516
368.6064, 120.7370
369.0885, 121.4224
369.5706, 122.3520
370.0527, 123.8880
370.5348, 125.3951
371.0169, 126.4329
371.4991, 126.4050
371.9812, 126.9177
372.4633, 128.2674
372.9454, 130.2323
373.4275, 132.0287
373.9096, 133.7146
374.3918, 135.1676
374.8739, 136.3135
375.3560, 137.1687
375.8381, 137.6376
376.3202, 137.5065
376.8023, 137.2581
377.2845, 137.7471
377.7666, 139.1318
378.2487, 140.3717
378.7308, 141.1317
379.2129, 141.4508
379.6950, 141.4654
380.1772, 141.1398
380.6593, 140.6899
381.1414, 140.2335
381.6235, 139.7920
382.1056, 139.5830
382.5877, 139.7848
383.0699, 140.0615
383.5520, 139.7330
384.0341, 138.8381
384.5162, 137.8009
384.9983, 136.8036
385.4804, 135.8622
385.9626, 135.0063
386.4447, 134.2430
386.9268, 133.5412
387.4089, 133.0101
387.8910, 132.5177
388.3731, 131.7794
388.8553, 130.4735
389.3374, 128.9830
389.8195, 127.6508
390.3016, 126.4951
390.7837, 125.4336
391.2658, 124.4102
391.7480, 123.4741
392.2301, 122.6777
392.7122, 122.0540
393.1943, 121.5498
393.6764, 121.2376
394.1585, 121.0438
394.6407, 120.7637
395.1228, 120.2971
395.6049, 119.7523
396.0870, 119.1345
396.5691, 118.3701
397.0512, 117.7950
397.5334, 117.6063
398.0155, 117.5971
398.4976, 117.5105
398.9797, 117.1728
399.4618, 116.9119
399.9439, 116.8829
400.4261, 117.0825
400.9082, 116.9752
401.3903, 116.3033
401.8724, 115.5661
402.3545, 115.0934
402.8366, 115.0534
403.3188, 114.9173
403.8009, 114.6313
404.2830, 114.2430
404.7651, 113.9296
405.2472, 113.8225
405.7293, 113.4202
406.2115, 112.3426
406.6936, 110.5654
407.1757, 109.4050
407.6578, 109.0031
408.1399, 108.8297
408.6220, 108.2401
409.1042, 107.2444
409.5863, 106.2712
410.0684, 105.3380
410.5505, 104.5753
411.0326, 104.4168
411.5147, 104.8405
411.9969, 105.1801
412.4790, 104.8187
412.9611, 104.0285
413.4432, 103.4706
413.9253, 103.2501
414.4074, 103.1816
414.8896, 103.1451
415.3717, 103.1092
415.8538, 102.9982
416.3359, 102.6117
416.8180, 102.2400
417.3001, 102.2423
417.7823, 102.6079
418.2644, 102.8683
418.7465, 102.6370
419.2286, 102.2248
419.7107, 101.9303
420.1928, 101.8262
420.6750, 101.8510
421.1571, 101.9797
421.6392, 102.2182
422.1213, 102.5809
422.6034, 103.1723
423.0855, 103.8002
423.5677, 104.3879
424.0498, 104.9064
424.5319, 105.4567
425.0140, 106.1179
425.4961, 106.7881
425.9782, 107.3597
426.4604, 107.6891
426.9425, 108.1275
427.4246, 108.6743
427.9067, 109.3580
428.3888, 110.3986
428.8709, 112.0411
429.3531, 113.6042
429.8352, 114.6735
430.3173, 115.1137
430.7994, 115.6548
431.2815, 116.3014
431.7636, 117.0716
432.2458, 117.9739
432.7279, 119.0051
433.2100, 120.2055
433.6921, 121.6519
434.1742, 123.2729
434.6563, 124.8495
435.1385, 126.4092
435.6206, 127.7239
436.1027, 128.4649
436.5848, 128.8090
437.0669, 129.2553
437.5490, 129.9434
438.0312, 130.6512
438.5133, 131.2086
438.9954, 131.5999
439.4775, 131.7773
439.9596, 131.4357
440.4417, 131.0509
440.9239, 131.1421
441.4060, 131.7403
441.8881, 132.2711
442.3702, 132.4524
442.8523, 132.3819
443.3344, 132.1526
443.8166, 131.7348
444.2987, 131.2233
444.7808, 130.6248
445.2629, 129.9499
445.7450, 129.2259
446.2271, 128.3766
446.7093, 127.5650
447.1914, 126.8418
447.6735, 126.1929
448.1556, 125.6988
448.6377, 125.6478
449.1198, 125.5626
449.6020, 124.9134
450.0841, 123.3948
450.5662, 121.9813
451.0483, 120.8240
451.5304, 119.8791
452.0125, 118.9828
452.4947, 118.1266
452.9768, 117.3219
453.4589, 116.5795
453.9410, 115.8944
454.4231, 115.2108
454.9052, 114.5188
455.3874, 113.8207
455.8695, 113.1357
456.3516, 112.4483
456.8337, 111.6639
457.3158, 110.6588
457.7979, 109.6056
458.2801, 108.8825
458.7622, 108.4442
459.2443, 107.9413
459.7264, 107.0775
460.2085, 106.0362
460.6906, 105.0591
461.1728, 104.1859
461.6549, 103.3696
462.1370, 102.6251
462.6191, 101.9202
463.1012, 101.2236
463.5833, 100.4820
464.0655, 99.78325
464.5476, 99.24721
465.0297, 98.84120
465.5118, 98.26817
465.9939, 97.15871
466.4760, 96.08147
466.9582, 95.38113
467.4403, 95.44189
467.9224, 95.21822
468.4045, 94.51877
468.8866, 93.59991
469.3687, 92.82108
469.8509, 92.30835
470.3330, 91.72111
470.8151, 90.90568
471.2972, 89.91173
471.7793, 89.33150
472.2614, 89.31952
472.7436, 89.28698
473.2257, 88.72038
473.7078, 87.60433
474.1899, 86.81339
474.6720, 86.46286
475.1541, 86.29890
475.6363, 85.92094
476.1184, 85.37181
476.6005, 84.93120
477.0826, 84.76576
477.5647, 84.74326
478.0468, 84.63120
478.5290, 84.44177
479.0111, 84.28598
479.4932, 84.36747
479.9753, 84.47279
480.4574, 84.32130
480.9395, 83.80071
481.4217, 83.22680
481.9038, 82.68839
482.3859, 82.25037
482.8680, 82.01790
483.3501, 82.22447
483.8322, 82.44790
484.3144, 82.52489
484.7965, 82.46072
485.2786, 82.41807
485.7607, 82.31269
486.2428, 82.32012
486.7249, 82.54225
487.2071, 83.11275
487.6892, 83.61151
488.1713, 84.06636
488.6534, 84.43059
489.1355, 84.63161
489.6176, 84.63466
490.0998, 84.56245
490.5819, 84.35651
491.0640, 84.10644
491.5461, 84.30097
492.0282, 84.97749
492.5103, 85.83041
492.9925, 86.75570
493.4746, 87.71316
493.9567, 88.36938
494.4388, 88.66640
494.9209, 88.89816
495.4030, 89.46002
495.8852, 90.22385
496.3673, 90.87637
496.8494, 91.15542
497.3315, 91.40143
497.8136, 92.13979
498.2957, 93.19849
498.7779, 93.84358
499.2600, 93.18027
499.7421, 92.32640
500.2242, 92.17991
500.7063, 93.06962
501.1884, 93.65892
501.6706, 93.21474
502.1527, 92.42127
502.6348, 91.97520
503.1169, 92.24019
503.5990, 92.54135
504.0811, 93.02687
504.5633, 93.52077
505.0454, 93.29237
505.5275, 91.91853
506.0096, 90.55753
506.4917, 89.69910
506.9738, 89.38244
507.4560, 89.00137
507.9381, 88.54379
508.4202, 88.05312
508.9023, 87.57835
509.3844, 87.11680
509.8665, 86.62672
510.3487, 86.10591
510.8308, 85.54357
511.3129, 84.89412
511.7950, 84.17662
512.2772, 83.47868
512.7593, 82.88484
513.2414, 82.31712
513.7235, 81.56882
514.2056, 80.65771
514.6877, 79.99393
515.1699, 80.11267
515.6520, 80.45621
516.1341, 80.48625
516.6162, 79.90408
517.0983, 79.35449
517.5804, 79.17291
518.0626, 79.13092
518.5447, 78.85422
519.0268, 77.95848
519.5089, 77.16849
519.9910, 76.71774
520.4731, 76.57410
520.9553, 76.24205
521.4374, 75.58499
521.9195, 74.95003
522.4016, 74.56993
522.8837, 74.52821
523.3658, 74.29359
523.8480, 73.79654
524.3301, 73.24625
524.8122, 72.98898
525.2943, 73.00166
525.7764, 72.87044
526.2585, 72.44413
526.7407, 71.85806
527.2228, 71.29565
527.7049, 70.76590
528.1870, 70.33571
528.6691, 70.21577
529.1512, 70.12300
529.6334, 69.64806
530.1155, 68.74470
530.5976, 67.90291
531.0797, 67.38271
531.5618, 67.07287
532.0439, 66.88040
532.5261, 66.92758
533.0082, 66.87507
533.4903, 66.61403
533.9724, 66.19665
534.4545, 65.72514
534.9366, 65.00853
535.4188, 64.47923
535.9009, 64.35332
536.3830, 64.61469
536.8651, 64.48215
537.3472, 63.78768
537.8293, 63.03499
538.3115, 62.52277
538.7936, 62.25298
539.2757, 62.26823
539.7578, 62.64907
540.2399, 63.09518
540.7220, 63.21301
541.2042, 63.03428
541.6863, 62.74208
542.1684, 62.33246
542.6505, 61.90449
543.1326, 61.55363
543.6147, 61.29362
544.0969, 61.17358
544.5790, 61.31521
545.0611, 61.55020
545.5432, 61.79017
546.0253, 62.03307
546.5074, 62.12246
546.9896, 61.86403
547.4717, 61.49492
547.9538, 61.20311
548.4359, 60.94357
548.9180, 60.87093
549.4001, 61.07583
549.8823, 61.44749
550.3644, 61.80455
550.8465, 62.14831
551.3286, 62.48135
551.8107, 62.79441
552.2928, 63.09680
552.7750, 63.44130
553.2571, 63.83041
553.7392, 64.25738
554.2213, 64.76137
554.7034, 65.31155
555.1855, 65.76482
555.6677, 66.11656
556.1498, 66.35287
556.6319, 66.29076
557.1140, 66.11671
557.5961, 66.24773
558.0782, 66.96085
558.5604, 67.74883
559.0425, 68.16096
559.5246, 68.33221
560.0067, 68.55968
560.4888, 68.98512
560.9709, 69.47281
561.4531, 70.04562
561.9352, 70.70113
562.4173, 71.08947
562.8994, 70.81947
563.3815, 70.55104
563.8636, 70.63401
564.3458, 71.24049
564.8279, 71.72114
565.3100, 72.00207
565.7921, 72.25755
566.2742, 72.78745
566.7563, 73.65128
567.2385, 74.20893
567.7206, 74.23058
568.2027, 73.98196
568.6848, 74.03585
569.1669, 74.36052
569.6490, 74.71657
570.1312, 74.85826
570.6133, 75.01120
571.0954, 75.66796
571.5775, 76.79689
572.0596, 77.65782
572.5417, 77.47609
573.0239, 77.00266
573.5060, 76.91215
573.9881, 77.45650
574.4702, 78.01561
574.9523, 78.46162
575.4344, 78.80687
575.9166, 79.06011
576.3987, 79.09856
576.8808, 79.21692
577.3629, 79.42675
577.8450, 79.74198
578.3271, 80.26085
578.8093, 81.09344
579.2914, 81.79750
579.7735, 82.18089
580.2556, 82.26399
580.7377, 82.15766
581.2198, 81.83579
581.7020, 81.60499
582.1841, 81.82247
582.6662, 82.31242
583.1483, 82.67944
583.6304, 82.87063
584.1125, 82.90742
584.5947, 82.72655
585.0768, 82.42504
585.5589, 82.14439
586.0410, 81.93993
586.5231, 81.76161
587.0052, 81.62975
587.4873, 81.51387
587.9694, 81.33284
588.4515, 81.06490
588.9337, 80.73463
589.4158, 80.30449
589.8979, 79.77318
590.3800, 79.39725
590.8621, 79.18027
591.3442, 79.11020
591.8264, 79.23935
592.3085, 79.58910
592.7906, 79.75363
593.2727, 79.67952
593.7548, 79.56076
594.2369, 79.72326
594.7191, 80.05573
595.2012, 80.08983
595.6833, 79.58026
596.1654, 78.99086
596.6475, 78.84177
597.1296, 79.01046
597.6118, 79.20891
598.0939, 79.46055
598.5760, 79.57247
599.0581, 79.34174
599.5402, 78.81794
600.0223, 78.41755
600.5045, 78.33897
600.9866, 78.31720
601.4687, 78.21323
601.9508, 77.97675
602.4329, 77.91283
602.9150, 78.18943
603.3972, 78.40543
603.8793, 78.13765
604.3614, 77.32921
604.8435, 76.64396
605.3256, 76.19518
605.8077, 75.81865
606.2899, 75.26437
606.7720, 74.55583
607.2541, 73.82777
607.7362, 73.11086
608.2183, 72.41621
608.7004, 71.76201
609.1826, 71.14594
609.6647, 70.58394
610.1468, 70.25434
610.6289, 69.83263
611.1110, 68.99906
611.5931, 67.70942
612.0753, 66.74391
612.5574, 66.60229
613.0395, 66.55151
613.5216, 66.13211
614.0037, 65.02828
614.4858, 64.39247
614.9680, 64.40135
615.4501, 64.63857
615.9322, 64.60805
616.4143, 64.29630
616.8964, 63.96832
617.3785, 63.65855
617.8607, 63.38380
618.3428, 63.11384
618.8249, 62.88631
619.3070, 62.86003
619.7891, 63.25510
620.2712, 63.78320
620.7534, 64.21986
621.2355, 64.55830
621.7176, 64.74440
622.1997, 64.48081
622.6818, 64.28082
623.1639, 64.50591
623.6461, 65.26886
624.1282, 65.86234
624.6103, 66.01778
625.0924, 66.15560
625.5745, 66.51373
626.0566, 67.07750
626.5388, 67.97417
627.0209, 69.34004
627.5030, 70.79353
