##NAMES=Greifensteinite
##RRUFFID=R060588
##IDEAL CHEMISTRY=Ca_2_Fe^2+^_5_Be_4_(PO_4_)_6_(OH)_4_&#183;6H_2_O
##LOCALITY=João Teodoro mine, Linópolis district, Divino das Laranjeiras, Minas Gerais, Brazil
##OWNER=RRUFF
##SOURCE=Michael Scott
##DESCRIPTION=Light brown elongated prismatic crystals, associated with dark-brown prismatic childrenite (R140428), radiating green gormanite (R080075), and white fine-grained  leucophosphite.
##STATUS=The identification of this mineral has been confirmed only by single crystal X-ray diffraction.
##URL=rruff.info/R060588
92.52344, 125.8713
93.00555, 125.3780
93.48767, 125.4931
93.96979, 128.4632
94.45190, 131.8733
94.93402, 135.5352
95.41614, 137.3039
95.89825, 137.4770
96.38037, 137.0372
96.86249, 136.1376
97.34460, 135.3287
97.82672, 135.2515
98.30884, 134.7821
98.79095, 133.4757
99.27307, 131.4922
99.75519, 129.4353
100.2373, 128.0359
100.7194, 127.3559
101.2015, 126.9734
101.6837, 127.1824
102.1658, 127.3797
102.6479, 126.9757
103.1300, 125.8937
103.6121, 124.9028
104.0942, 124.7453
104.5764, 125.0425
105.0585, 125.2664
105.5406, 125.0936
106.0227, 124.6881
106.5048, 124.6018
106.9869, 125.1074
107.4691, 125.4705
107.9512, 125.2679
108.4333, 124.6442
108.9154, 123.9713
109.3975, 123.5367
109.8796, 123.3553
110.3618, 123.2859
110.8439, 123.4691
111.3260, 123.6398
111.8081, 123.6768
112.2902, 123.5677
112.7723, 123.3783
113.2544, 123.1919
113.7366, 122.9571
114.2187, 122.8383
114.7008, 122.9437
115.1829, 123.0989
115.6650, 123.1692
116.1471, 123.1075
116.6293, 122.9142
117.1114, 122.5456
117.5935, 121.8277
118.0756, 121.2749
118.5577, 121.0459
119.0398, 121.0729
119.5220, 121.2177
120.0041, 121.4810
120.4862, 121.7667
120.9683, 121.8582
121.4504, 121.6244
121.9325, 121.4154
122.4147, 121.6033
122.8968, 122.2310
123.3789, 122.7274
123.8610, 122.6646
124.3431, 122.3593
124.8252, 122.0868
125.3074, 121.9387
125.7895, 121.8592
126.2716, 121.7109
126.7537, 121.3830
127.2358, 121.1984
127.7179, 121.2900
128.2001, 121.5488
128.6822, 121.8379
129.1643, 122.0753
129.6464, 122.2663
130.1285, 122.4638
130.6107, 122.7640
131.0928, 122.9785
131.5749, 123.0113
132.0570, 122.9132
132.5391, 122.7958
133.0212, 122.7519
133.5034, 122.7860
133.9855, 122.8927
134.4676, 123.0480
134.9497, 123.2769
135.4318, 123.5749
135.9139, 123.9479
136.3960, 124.4420
136.8782, 125.1472
137.3603, 126.1287
137.8424, 126.9652
138.3245, 127.6563
138.8066, 128.1797
139.2887, 128.4598
139.7709, 128.4455
140.2530, 128.3139
140.7351, 128.3213
141.2172, 128.4565
141.6993, 128.4670
142.1814, 128.1847
142.6636, 127.6761
143.1457, 127.1828
143.6278, 126.7671
144.1099, 126.3705
144.5920, 125.9212
145.0741, 125.4226
145.5563, 124.9492
146.0384, 124.5805
146.5205, 124.3303
147.0026, 124.0727
147.4847, 123.7377
147.9668, 123.4212
148.4490, 123.1530
148.9311, 122.9471
149.4132, 122.8341
149.8953, 122.8872
150.3774, 123.2355
150.8595, 123.4873
151.3417, 123.5097
151.8238, 123.4957
152.3059, 123.6181
152.7880, 123.9363
153.2701, 124.3636
153.7522, 124.6777
154.2344, 124.8599
154.7165, 124.9217
155.1986, 124.8314
155.6807, 124.6298
156.1628, 124.3250
156.6449, 123.9058
157.1271, 123.4425
157.6092, 123.2435
158.0913, 123.3680
158.5734, 123.6239
159.0555, 124.0430
159.5376, 124.5674
160.0198, 125.0566
160.5019, 125.4509
160.9840, 125.7305
161.4661, 125.8733
161.9482, 125.7256
162.4303, 125.6059
162.9125, 125.7680
163.3946, 126.2001
163.8767, 126.6345
164.3588, 126.8881
164.8409, 127.0479
165.3230, 127.2712
165.8052, 127.6371
166.2873, 128.0269
166.7694, 128.2372
167.2515, 128.1911
167.7336, 128.2355
168.2157, 128.6260
168.6979, 129.1765
169.1800, 129.6743
169.6621, 130.0052
170.1442, 130.2441
170.6263, 130.6182
171.1084, 131.2446
171.5906, 131.8216
172.0727, 132.2802
172.5548, 132.6343
173.0369, 132.9080
173.5190, 133.1177
174.0011, 133.2596
174.4833, 133.2985
174.9654, 132.9284
175.4475, 132.7675
175.9296, 133.0306
176.4117, 133.5987
176.8938, 134.2703
177.3760, 134.9194
177.8581, 135.5517
178.3402, 135.9213
178.8223, 135.8687
179.3044, 135.7451
179.7865, 135.6862
180.2687, 135.6680
180.7508, 135.5814
181.2329, 135.3269
181.7150, 134.8847
182.1971, 134.4673
182.6792, 134.0430
183.1614, 133.6650
183.6435, 133.2184
184.1256, 132.0389
184.6077, 132.9022
185.0898, 133.3338
185.5719, 133.3569
186.0541, 131.7481
186.5362, 132.2467
187.0183, 131.9007
187.5004, 131.5201
187.9825, 132.3152
188.4646, 130.9438
188.9468, 131.7202
189.4289, 131.6393
189.9110, 131.9508
190.3931, 131.0661
190.8752, 131.0371
191.3573, 131.0886
191.8395, 131.2624
192.3216, 131.3769
192.8037, 131.1815
193.2858, 130.8117
193.7679, 129.8122
194.2500, 130.7432
194.7322, 131.2426
195.2143, 131.3335
195.6964, 129.7924
196.1785, 130.3587
196.6606, 130.0804
197.1427, 129.7675
197.6249, 130.6303
198.1070, 129.3266
198.5891, 130.7744
199.0712, 131.1244
199.5533, 130.9590
200.0354, 130.6242
200.5176, 130.1704
200.9997, 129.6544
201.4818, 129.1636
201.9639, 128.7385
202.4460, 128.3736
202.9281, 128.2483
203.4103, 128.7858
203.8924, 129.1875
204.3745, 129.0966
204.8566, 128.6434
205.3387, 128.1970
205.8208, 128.0879
206.3030, 128.3592
206.7851, 128.5733
207.2672, 128.8156
207.7493, 128.9338
208.2314, 128.7217
208.7135, 128.2885
209.1957, 127.9801
209.6778, 128.1482
210.1599, 128.8976
210.6420, 129.2807
211.1241, 129.0970
211.6062, 128.7993
212.0884, 128.6222
212.5705, 128.5623
213.0526, 128.4730
213.5347, 128.2152
214.0168, 127.7630
214.4989, 127.3422
214.9811, 126.9659
215.4632, 126.6062
215.9453, 126.2430
216.4274, 125.8756
216.9095, 125.5244
217.3916, 125.2269
217.8737, 124.9772
218.3559, 124.6320
218.8380, 123.9729
219.3201, 123.3546
219.8022, 123.1669
220.2843, 123.4384
220.7664, 123.7169
221.2486, 123.5767
221.7307, 123.1241
222.2128, 122.8303
222.6949, 122.9043
223.1770, 123.0934
223.6591, 123.1199
224.1413, 122.9643
224.6234, 122.7255
225.1055, 122.3600
225.5876, 121.9670
226.0697, 121.7549
226.5518, 121.9296
227.0340, 122.2364
227.5161, 122.2422
227.9982, 121.8365
228.4803, 121.5132
228.9624, 121.6862
229.4445, 122.0876
229.9267, 122.3802
230.4088, 122.4274
230.8909, 122.3093
231.3730, 122.1399
231.8551, 121.8561
232.3372, 121.6896
232.8194, 121.8975
233.3015, 122.2161
233.7836, 122.2909
234.2657, 121.8923
234.7478, 121.3016
235.2299, 121.2321
235.7121, 122.0825
236.1942, 122.6447
236.6763, 122.4313
237.1584, 121.8518
237.6405, 121.3348
238.1227, 121.0712
238.6048, 120.9351
239.0869, 120.5856
239.5690, 119.8258
240.0511, 119.1963
240.5332, 118.7572
241.0154, 118.4919
241.4975, 118.4437
241.9796, 118.6345
242.4617, 118.9349
242.9438, 118.9950
243.4259, 118.5133
243.9081, 118.2734
244.3902, 118.5938
244.8723, 119.0591
245.3544, 119.2146
245.8365, 118.8926
246.3186, 118.3605
246.8008, 118.2539
247.2829, 119.1505
247.7650, 119.6322
248.2471, 119.3337
248.7292, 118.7777
249.2113, 118.4843
249.6935, 118.6211
250.1756, 118.9247
250.6577, 118.8748
251.1398, 118.1472
251.6219, 117.5061
252.1040, 116.7589
252.5862, 116.1967
253.0683, 116.2059
253.5504, 116.8646
254.0325, 117.7698
254.5146, 118.2705
254.9967, 118.1937
255.4789, 117.9499
255.9610, 117.3426
256.4431, 116.6855
256.9252, 116.2874
257.4073, 116.2106
257.8894, 116.2370
258.3716, 116.0552
258.8537, 115.5000
259.3358, 115.1993
259.8179, 115.3669
260.3000, 115.6602
260.7821, 115.8189
261.2643, 115.7905
261.7464, 115.6037
262.2285, 115.2477
262.7106, 114.6548
263.1927, 114.2529
263.6748, 114.1617
264.1570, 114.1920
264.6391, 114.2031
265.1212, 114.1764
265.6033, 114.1412
266.0854, 114.1233
266.5675, 114.1237
267.0497, 114.1278
267.5318, 114.1283
268.0139, 114.1365
268.4960, 114.1995
268.9781, 114.3109
269.4602, 114.3490
269.9424, 114.2206
270.4245, 113.9234
270.9066, 113.5621
271.3887, 112.9073
271.8708, 112.3640
272.3529, 112.3987
272.8351, 112.9570
273.3172, 113.3634
273.7993, 113.1765
274.2814, 112.5150
274.7635, 111.8818
275.2456, 111.2137
275.7278, 110.6593
276.2099, 110.3294
276.6920, 110.2138
277.1741, 110.2600
277.6562, 110.5714
278.1383, 110.9438
278.6205, 110.9642
279.1026, 110.4836
279.5847, 109.9731
280.0668, 109.8103
280.5489, 109.9254
281.0310, 109.8935
281.5132, 109.4912
281.9953, 108.9439
282.4774, 108.6107
282.9595, 108.5354
283.4416, 108.4119
283.9237, 107.8800
284.4059, 107.0949
284.8880, 106.7634
285.3701, 107.2731
285.8522, 108.0018
286.3343, 108.3005
286.8164, 108.1898
287.2986, 107.9653
287.7807, 107.6555
288.2628, 107.3383
288.7449, 107.3139
289.2270, 107.7567
289.7091, 108.2577
290.1913, 108.4960
290.6734, 108.5157
291.1555, 108.4568
291.6376, 108.2845
292.1197, 108.0878
292.6018, 108.1246
293.0840, 108.5204
293.5661, 108.8780
294.0482, 108.8660
294.5303, 108.6392
295.0124, 108.4695
295.4945, 108.4720
295.9767, 108.5881
296.4588, 108.7034
296.9409, 108.7956
297.4230, 108.9660
297.9051, 109.3615
298.3872, 109.8398
298.8694, 110.2393
299.3515, 110.5137
299.8336, 110.6937
300.3157, 110.8368
300.7978, 110.9584
301.2799, 110.9475
301.7621, 110.5108
302.2442, 110.0529
302.7263, 110.0077
303.2084, 110.5108
303.6905, 111.0811
304.1726, 111.1767
304.6548, 110.7741
305.1369, 110.4510
305.6190, 110.3088
306.1011, 110.3387
306.5832, 110.6278
307.0653, 111.1644
307.5475, 111.6111
308.0296, 111.6264
308.5117, 111.2507
308.9938, 110.9679
309.4759, 110.8547
309.9580, 110.8380
310.4402, 110.8728
310.9223, 110.9530
311.4044, 111.0617
311.8865, 111.2643
312.3686, 111.5042
312.8507, 111.4899
313.3329, 111.0198
313.8150, 110.6397
314.2971, 110.7586
314.7792, 111.1498
315.2613, 111.3883
315.7434, 111.2097
316.2256, 110.8065
316.7077, 110.6032
317.1898, 110.6594
317.6719, 110.7466
318.1540, 110.8181
318.6361, 110.8451
319.1183, 110.7728
319.6004, 110.5600
320.0825, 110.3113
320.5646, 110.2084
321.0467, 110.2938
321.5288, 110.2494
322.0110, 109.7927
322.4931, 109.2752
322.9752, 108.9787
323.4573, 108.9505
323.9394, 109.0264
324.4215, 109.0822
324.9037, 109.1177
325.3858, 109.1218
325.8679, 109.0709
326.3500, 109.0082
326.8321, 108.9875
327.3142, 108.9961
327.7964, 108.9541
328.2785, 108.7469
328.7606, 108.4262
329.2427, 108.2681
329.7248, 108.4067
330.2069, 108.5004
330.6891, 108.3199
331.1712, 107.9503
331.6533, 107.5549
332.1354, 107.1316
332.6175, 106.7668
333.0996, 106.6437
333.5818, 106.7916
334.0639, 107.0889
334.5460, 107.7480
335.0281, 108.4282
335.5102, 108.6681
335.9923, 108.2231
336.4745, 107.6022
336.9566, 107.4093
337.4387, 107.6680
337.9208, 107.9742
338.4029, 108.3388
338.8850, 108.5816
339.3671, 108.4414
339.8492, 107.8659
340.3314, 107.3593
340.8135, 107.4264
341.2956, 107.9541
341.7777, 108.2288
342.2598, 108.0888
342.7419, 107.7007
343.2241, 107.0846
343.7062, 106.3099
344.1883, 105.7634
344.6704, 105.7835
345.1525, 106.1346
345.6346, 106.2960
346.1168, 106.1982
346.5989, 106.0489
347.0810, 105.9945
347.5631, 105.9924
348.0452, 105.9653
348.5273, 105.8401
349.0095, 105.7302
349.4916, 105.8782
349.9737, 106.2954
350.4558, 106.4242
350.9379, 105.8193
351.4200, 104.8705
351.9022, 104.2052
352.3843, 103.8797
352.8664, 103.7655
353.3485, 103.8961
353.8306, 104.1992
354.3127, 104.3557
354.7949, 104.1948
355.2770, 103.9983
355.7591, 104.1452
356.2412, 104.6211
356.7233, 105.1367
357.2054, 105.7401
357.6876, 106.2718
358.1697, 106.3653
358.6518, 105.9088
359.1339, 105.4859
359.6160, 105.6848
360.0981, 106.3914
360.5803, 106.9666
361.0624, 107.2881
361.5445, 107.4854
362.0266, 107.5772
362.5087, 107.5946
362.9908, 107.7614
363.4730, 108.2588
363.9551, 108.9615
364.4372, 109.4611
364.9193, 109.5372
365.4014, 109.7845
365.8835, 110.6928
366.3657, 111.9186
366.8478, 112.6893
367.3299, 112.6801
367.8120, 112.4120
368.2941, 112.7404
368.7762, 113.7975
369.2584, 114.8051
369.7405, 115.7504
370.2226, 116.5434
370.7047, 116.9788
371.1868, 117.0690
371.6689, 117.2117
372.1511, 117.8065
372.6332, 118.8809
373.1153, 119.6897
373.5974, 119.8643
374.0795, 120.1681
374.5616, 121.1855
375.0438, 122.6443
375.5259, 123.8166
376.0080, 124.2714
376.4901, 124.2220
376.9722, 124.4139
377.4543, 124.9902
377.9365, 125.6151
378.4186, 126.4693
378.9007, 127.2589
379.3828, 127.5882
379.8649, 127.3681
380.3470, 126.9152
380.8292, 126.6806
381.3113, 126.8019
381.7934, 126.7200
382.2755, 126.4808
382.7576, 126.0317
383.2397, 125.1177
383.7219, 123.9184
384.2040, 123.0269
384.6861, 122.9948
385.1682, 123.7264
385.6503, 123.6744
386.1324, 122.0628
386.6146, 120.4872
387.0967, 119.0553
387.5788, 117.8748
388.0609, 117.1692
388.5430, 117.0309
389.0251, 117.0763
389.5073, 116.4487
389.9894, 114.5633
390.4715, 113.2375
390.9536, 112.9879
391.4357, 112.9187
391.9178, 112.4462
392.4000, 111.5371
392.8821, 110.5295
393.3642, 109.6970
393.8463, 109.0355
394.3284, 108.6776
394.8105, 109.0650
395.2927, 109.2393
395.7748, 108.7040
396.2569, 107.7772
396.7390, 106.9706
397.2211, 106.5225
397.7032, 106.3772
398.1854, 106.4660
398.6675, 106.8904
399.1496, 107.2436
399.6317, 107.3828
400.1138, 107.4269
400.5959, 107.4315
401.0781, 107.4092
401.5602, 107.4149
402.0423, 107.4963
402.5244, 107.6507
403.0065, 107.8725
403.4886, 108.2543
403.9708, 108.5606
404.4529, 108.6293
404.9350, 108.5033
405.4171, 108.2915
405.8992, 107.9827
406.3813, 107.6443
406.8635, 107.3652
407.3456, 107.1420
407.8277, 107.0159
408.3098, 107.1070
408.7919, 107.2587
409.2740, 107.1845
409.7562, 106.7702
410.2383, 106.3891
410.7204, 106.3634
411.2025, 106.5551
411.6846, 106.4911
412.1667, 105.9579
412.6489, 105.4138
413.1310, 105.5635
413.6131, 106.3856
414.0952, 106.9067
414.5773, 106.7709
415.0594, 106.3915
415.5416, 106.0666
416.0237, 105.8337
416.5058, 105.7693
416.9879, 105.9839
417.4700, 106.3909
417.9521, 106.5165
418.4343, 106.1338
418.9164, 105.7927
419.3985, 105.6513
419.8806, 105.6388
420.3627, 105.6908
420.8448, 105.7841
421.3270, 105.8330
421.8091, 105.6932
422.2912, 105.2495
422.7733, 104.9498
423.2554, 104.7298
423.7375, 104.6938
424.2197, 105.0514
424.7018, 105.6762
425.1839, 106.1869
425.6660, 106.2939
426.1481, 106.0658
426.6302, 105.9680
427.1124, 105.9063
427.5945, 106.1248
428.0766, 106.8629
428.5587, 107.7828
429.0408, 108.5110
429.5229, 108.9485
430.0051, 109.3507
430.4872, 110.1244
430.9693, 111.3926
431.4514, 112.5011
431.9335, 113.4944
432.4156, 114.2619
432.8978, 114.6040
433.3799, 114.6712
433.8620, 114.8376
434.3441, 115.3762
434.8262, 116.1382
435.3083, 116.6732
435.7905, 116.8913
436.2726, 117.1259
436.7547, 117.5815
437.2368, 118.0640
437.7189, 118.4025
438.2010, 118.5637
438.6832, 118.6138
439.1653, 118.6274
439.6474, 118.5860
440.1295, 118.3869
440.6116, 118.0076
441.0938, 117.4764
441.5759, 116.7657
442.0580, 115.9214
442.5401, 115.0660
443.0222, 114.2053
443.5043, 113.3714
443.9865, 112.6180
444.4686, 111.9358
444.9507, 111.2124
445.4328, 110.3896
445.9149, 109.4982
446.3970, 108.6161
446.8792, 107.7636
447.3613, 106.8711
447.8434, 105.8241
448.3255, 104.7710
448.8076, 103.9063
449.2897, 103.2555
449.7719, 102.7004
450.2540, 102.1271
450.7361, 101.5296
451.2182, 101.0413
451.7003, 100.6716
452.1824, 100.3818
452.6646, 100.2698
453.1467, 100.2028
453.6288, 99.93612
454.1109, 99.36076
454.5930, 98.64402
455.0751, 98.12265
455.5573, 97.93883
456.0394, 97.67624
456.5215, 97.27551
457.0036, 96.85966
457.4857, 96.45529
457.9678, 96.09514
458.4500, 95.84074
458.9321, 95.75475
459.4142, 95.80932
459.8963, 95.84486
460.3784, 95.87707
460.8605, 95.85849
461.3427, 95.72459
461.8248, 95.56861
462.3069, 95.50777
462.7890, 95.57091
463.2711, 95.61625
463.7532, 95.41650
464.2354, 95.00227
464.7175, 94.86966
465.1996, 95.28017
465.6817, 95.64936
466.1638, 95.49942
466.6459, 94.99121
467.1281, 94.51360
467.6102, 94.18941
468.0923, 93.95602
468.5744, 93.76900
469.0565, 93.62264
469.5386, 93.46976
470.0208, 93.27072
470.5029, 93.08208
470.9850, 93.00300
471.4671, 93.02747
471.9492, 93.13370
472.4313, 93.45925
472.9135, 93.78115
473.3956, 93.83555
473.8777, 93.61456
474.3598, 93.30404
474.8419, 93.03836
475.3240, 92.81058
475.8062, 92.55382
476.2883, 91.96787
476.7704, 91.72221
477.2525, 92.36760
477.7346, 93.24477
478.2167, 93.49522
478.6989, 92.92095
479.1810, 92.06471
479.6631, 91.61051
480.1452, 91.63790
480.6273, 91.67766
481.1094, 91.65813
481.5916, 91.72499
482.0737, 92.02297
482.5558, 92.42300
483.0379, 92.72208
483.5200, 92.82912
484.0021, 92.75990
484.4843, 92.47966
484.9664, 91.90085
485.4485, 91.51073
485.9306, 91.51125
486.4127, 91.64645
486.8948, 91.79797
487.3770, 91.94546
487.8591, 92.03629
488.3412, 91.98875
488.8233, 91.88055
489.3054, 91.89703
489.7875, 92.05968
490.2697, 92.13290
490.7518, 91.88884
491.2339, 91.54371
491.7160, 91.55360
492.1981, 92.07014
492.6802, 92.49656
493.1624, 92.47904
493.6445, 92.25255
494.1266, 92.16457
494.6087, 92.27343
495.0908, 92.46290
495.5729, 92.65999
496.0551, 92.86039
496.5372, 92.89861
497.0193, 92.53880
497.5014, 92.31521
497.9835, 92.51441
498.4656, 92.90546
498.9478, 93.16454
499.4299, 93.18509
499.9120, 93.08086
500.3941, 93.01993
500.8762, 93.03477
501.3583, 92.95928
501.8405, 92.80542
502.3226, 92.54837
502.8047, 92.00399
503.2868, 91.37596
503.7689, 91.06709
504.2510, 91.31203
504.7331, 91.79701
505.2152, 91.95115
505.6974, 91.73525
506.1795, 91.42915
506.6616, 90.99734
507.1437, 90.57915
507.6258, 90.27039
508.1079, 90.06368
508.5901, 89.91824
509.0722, 89.89169
509.5543, 89.87669
510.0364, 89.66885
510.5185, 89.27194
511.0006, 88.93587
511.4828, 88.76806
511.9649, 88.74385
512.4470, 88.82998
512.9291, 89.06275
513.4113, 89.26036
513.8934, 89.47041
514.3755, 89.56480
514.8576, 89.30099
515.3397, 88.72130
515.8218, 88.20729
516.3040, 88.04208
516.7861, 88.18778
517.2682, 88.37150
517.7503, 88.75584
518.2324, 88.96944
518.7145, 88.85789
519.1967, 88.63417
519.6788, 88.46065
520.1609, 87.90060
520.6430, 88.37502
521.1251, 88.63359
521.6072, 88.68793
522.0894, 87.92629
522.5715, 88.21832
523.0536, 88.08808
523.5357, 87.94053
524.0178, 88.38084
524.4999, 87.73789
524.9821, 88.16888
525.4642, 88.17117
525.9463, 88.36967
526.4284, 88.14330
526.9105, 87.96597
527.3926, 87.70964
527.8748, 87.45307
528.3569, 87.23047
528.8390, 87.05530
529.3211, 86.97436
529.8032, 87.16064
530.2853, 87.25150
530.7675, 86.92583
531.2496, 86.38610
531.7317, 86.04722
532.2138, 86.03046
532.6959, 86.14122
533.1780, 86.14693
533.6602, 86.03195
534.1423, 85.90283
534.6244, 85.72081
535.1065, 85.56729
535.5886, 85.51292
536.0707, 85.49532
536.5529, 85.41546
537.0350, 85.23546
537.5171, 85.00147
537.9992, 84.72837
538.4813, 84.34224
538.9634, 84.31371
539.4456, 85.04351
539.9277, 85.71992
540.4098, 85.93333
540.8919, 85.82742
541.3740, 85.71190
541.8561, 85.72573
542.3383, 85.73916
542.8204, 85.52866
543.3025, 85.13014
543.7846, 84.89466
544.2667, 84.92329
544.7488, 85.10955
545.2310, 85.40530
545.7131, 85.79260
546.1952, 86.08649
546.6773, 86.21792
547.1594, 86.28442
547.6415, 86.35587
548.1237, 86.41304
548.6058, 86.35583
549.0879, 86.13496
549.5700, 85.94131
550.0521, 86.13227
550.5342, 86.96555
551.0164, 87.38319
551.4985, 86.90820
551.9806, 86.56689
552.4627, 86.96304
552.9448, 87.79793
553.4269, 88.46704
553.9091, 88.67979
554.3912, 88.64243
554.8733, 88.71555
555.3554, 88.92650
555.8375, 89.04585
556.3196, 88.89726
556.8018, 88.82558
557.2839, 89.13498
557.7660, 89.69207
558.2481, 90.11069
558.7302, 90.15639
559.2123, 90.12217
559.6945, 90.40884
560.1766, 90.90663
560.6587, 91.08838
561.1408, 90.75392
561.6229, 90.17896
562.1050, 89.62610
562.5872, 89.06963
563.0693, 88.87715
563.5514, 89.55222
564.0335, 90.09097
564.5156, 89.85954
564.9977, 89.15273
565.4799, 88.50996
565.9620, 88.15032
566.4441, 87.97126
566.9262, 87.81783
567.4083, 87.68593
567.8904, 87.59605
568.3726, 87.66429
568.8547, 87.65090
569.3368, 87.36179
569.8189, 86.96403
570.3010, 86.75217
570.7831, 86.85538
571.2653, 87.05190
571.7474, 87.06824
572.2295, 86.93015
572.7116, 86.86079
573.1937, 86.92757
573.6758, 86.98616
574.1580, 86.83849
574.6401, 86.57050
575.1222, 86.52531
575.6043, 87.02647
576.0864, 87.42580
576.5685, 87.26374
577.0507, 86.82809
577.5328, 86.59831
578.0149, 86.69201
578.4970, 86.93565
578.9791, 87.17374
579.4612, 87.41471
579.9434, 87.44189
580.4255, 86.90695
580.9076, 86.56837
581.3897, 86.75685
581.8718, 87.10975
582.3539, 87.21684
582.8361, 86.99386
583.3182, 86.67354
583.8003, 86.44859
584.2824, 86.31831
584.7645, 86.31049
