##NAMES=Griphite
##RRUFFID=R050618
##IDEAL CHEMISTRY=Ca(Mn^2+^,Na,Li)_6_Fe^2+^Al_2_(PO_4_)_6_(F,OH)_2_
##LOCALITY=Pennington County, South Dakota, USA
##OWNER=RRUFF
##SOURCE=University of Arizona Mineral Museum
##DESCRIPTION=Dark brown massive
##STATUS=The identification of this mineral has been confirmed by X-ray diffraction and chemical analysis
##URL=rruff.info/R050618
##MEASURED CHEMISTRY=Ca_1.00_(Mn^2+^_3.76_Na_1.87_Ca_0.24_Li_0.13_)_Σ=6_(Fe^2+^_0.74_Mn^2+^_0.25_Mg_0.01_)_Σ=1_(Al_1.82_Fe^3+^_0.18_)_Σ=2_(P_1.00_O_4_)_6_F_2.00_ ; Li not measured but estimated by difference and charge balance.
169.4662, 8742.771
169.9484, 8792.966
170.4305, 8826.881
170.9126, 8829.533
171.3947, 8825.083
171.8768, 8836.860
172.3589, 8862.655
172.8411, 8886.662
173.3232, 8891.449
173.8053, 8888.099
174.2874, 8894.966
174.7695, 8924.732
175.2516, 8963.814
175.7338, 8995.277
176.2159, 9018.857
176.6980, 9042.205
177.1801, 9079.640
177.6622, 9123.493
178.1443, 9153.098
178.6264, 9151.713
179.1086, 9132.393
179.5907, 9117.853
180.0728, 9108.807
180.5549, 9103.260
181.0370, 9094.785
181.5191, 9086.084
182.0013, 9089.070
182.4834, 9118.132
182.9655, 9163.930
183.4476, 9202.316
183.9297, 9230.850
184.4118, 9251.871
184.8940, 9263.571
185.3761, 9267.154
185.8582, 9276.994
186.3403, 9310.992
186.8224, 9362.173
187.3046, 9397.063
187.7867, 9409.153
188.2688, 9405.300
188.7509, 9393.776
189.2330, 9373.867
189.7151, 9362.460
190.1973, 9377.398
190.6794, 9416.427
191.1615, 9454.030
191.6436, 9486.770
192.1257, 9514.212
192.6078, 9533.915
193.0900, 9545.555
193.5721, 9553.094
194.0542, 9559.711
194.5363, 9565.376
195.0184, 9570.127
195.5005, 9569.896
195.9826, 9567.506
196.4648, 9587.832
196.9469, 9637.165
197.4290, 9689.680
197.9111, 9712.188
198.3932, 9701.366
198.8753, 9687.866
199.3575, 9681.198
199.8396, 9681.321
200.3217, 9683.157
200.8038, 9686.041
201.2859, 9691.752
201.7680, 9703.165
202.2502, 9720.795
202.7323, 9742.319
203.2144, 9769.528
203.6965, 9804.367
204.1786, 9829.308
204.6607, 9841.685
205.1429, 9846.313
205.6250, 9852.342
206.1071, 9859.421
206.5892, 9868.812
207.0713, 9883.138
207.5534, 9904.927
208.0356, 9918.131
208.5177, 9918.470
208.9998, 9911.329
209.4819, 9912.329
209.9640, 9922.253
210.4461, 9938.634
210.9282, 9964.703
211.4104, 10009.25
211.8925, 10030.24
212.3746, 10013.96
212.8567, 9970.370
213.3388, 9950.895
213.8209, 9962.329
214.3031, 9985.336
214.7852, 10007.45
215.2673, 10029.60
215.7494, 10047.17
216.2315, 10057.05
216.7136, 10060.36
217.1958, 10071.79
217.6779, 10094.96
218.1600, 10121.39
218.6421, 10144.18
219.1242, 10162.84
219.6063, 10179.26
220.0885, 10195.04
220.5706, 10210.15
221.0527, 10216.61
221.5348, 10209.71
222.0169, 10199.37
222.4990, 10195.58
222.9812, 10199.03
223.4633, 10208.00
223.9454, 10224.83
224.4275, 10251.76
224.9096, 10266.68
225.3917, 10262.09
225.8739, 10252.24
226.3560, 10254.86
226.8381, 10271.57
227.3202, 10298.54
227.8023, 10343.27
228.2844, 10417.77
228.7665, 10446.72
229.2487, 10405.05
229.7308, 10333.84
230.2129, 10296.67
230.6950, 10308.49
231.1771, 10330.59
231.6592, 10352.86
232.1414, 10377.19
232.6235, 10394.65
233.1056, 10402.59
233.5877, 10404.86
234.0698, 10408.12
234.5519, 10411.28
235.0341, 10417.03
235.5162, 10425.56
235.9983, 10433.86
236.4804, 10454.03
236.9625, 10496.90
237.4446, 10548.28
237.9268, 10574.60
238.4089, 10564.26
238.8910, 10545.65
239.3731, 10528.42
239.8552, 10503.73
240.3373, 10500.27
240.8195, 10526.63
241.3016, 10572.86
241.7837, 10612.39
242.2658, 10649.05
242.7479, 10673.64
243.2300, 10679.47
243.7122, 10653.79
244.1943, 10636.77
244.6764, 10632.95
245.1585, 10638.60
245.6406, 10639.54
246.1227, 10630.67
246.6048, 10624.06
247.0870, 10627.26
247.5691, 10646.78
248.0512, 10662.14
248.5333, 10670.99
249.0154, 10674.59
249.4975, 10677.22
249.9797, 10670.49
250.4618, 10674.31
250.9439, 10706.26
251.4260, 10793.68
251.9081, 10847.79
252.3902, 10851.03
252.8724, 10812.76
253.3545, 10789.01
253.8366, 10782.63
254.3187, 10786.60
254.8008, 10797.95
255.2829, 10821.59
255.7651, 10840.43
256.2472, 10848.09
256.7293, 10848.13
257.2114, 10869.05
257.6935, 10927.75
258.1756, 10982.29
258.6577, 10995.39
259.1399, 10942.43
259.6220, 10914.04
260.1041, 10932.73
260.5862, 10990.33
261.0683, 11012.46
261.5504, 10981.82
262.0326, 10943.39
262.5147, 10932.36
262.9968, 10956.35
263.4789, 10986.78
263.9610, 11024.94
264.4431, 11068.12
264.9253, 11087.43
265.4074, 11074.81
265.8895, 11052.85
266.3716, 11037.50
266.8537, 11027.77
267.3358, 11029.39
267.8180, 11047.08
268.3001, 11078.05
268.7822, 11101.41
269.2643, 11115.76
269.7464, 11124.92
270.2285, 11132.45
270.7107, 11138.75
271.1928, 11141.60
271.6749, 11141.42
272.1570, 11137.62
272.6391, 11120.96
273.1212, 11082.49
273.6034, 11053.01
274.0855, 11070.43
274.5676, 11145.62
275.0497, 11196.60
275.5318, 11199.71
276.0139, 11164.76
276.4961, 11152.96
276.9782, 11170.48
277.4603, 11192.19
277.9424, 11187.15
278.4245, 11151.20
278.9066, 11142.93
279.3888, 11186.68
279.8709, 11266.85
280.3530, 11302.85
280.8351, 11286.65
281.3172, 11259.02
281.7993, 11263.68
282.2815, 11301.16
282.7636, 11319.25
283.2457, 11297.85
283.7278, 11251.21
284.2099, 11232.24
284.6920, 11243.28
285.1741, 11267.50
285.6563, 11296.04
286.1384, 11328.13
286.6205, 11346.58
287.1026, 11341.46
287.5847, 11323.60
288.0668, 11326.43
288.5490, 11351.36
289.0311, 11379.92
289.5132, 11394.16
289.9953, 11396.42
290.4774, 11403.22
290.9595, 11420.95
291.4417, 11443.55
291.9238, 11457.66
292.4059, 11463.11
292.8880, 11463.93
293.3701, 11459.62
293.8522, 11452.53
294.3344, 11451.79
294.8165, 11461.50
295.2986, 11476.60
295.7807, 11487.07
296.2628, 11493.35
296.7449, 11501.65
297.2271, 11521.83
297.7092, 11547.75
298.1913, 11564.01
298.6734, 11563.42
299.1555, 11555.92
299.6376, 11556.16
300.1198, 11562.96
300.6019, 11567.94
301.0840, 11559.18
301.5661, 11545.28
302.0482, 11542.47
302.5303, 11558.82
303.0125, 11580.65
303.4946, 11594.77
303.9767, 11601.71
304.4588, 11604.62
304.9409, 11597.97
305.4230, 11590.90
305.9052, 11598.04
306.3873, 11632.04
306.8694, 11663.37
307.3515, 11654.78
307.8336, 11618.79
308.3157, 11596.73
308.7979, 11628.09
309.2800, 11678.17
309.7621, 11713.12
310.2442, 11724.47
310.7263, 11723.83
311.2084, 11709.56
311.6906, 11687.92
312.1727, 11675.34
312.6548, 11688.80
313.1369, 11709.14
313.6190, 11721.61
314.1011, 11722.07
314.5833, 11719.01
315.0654, 11709.08
315.5475, 11698.49
316.0296, 11700.30
316.5117, 11735.01
316.9938, 11772.53
317.4760, 11794.55
317.9580, 11792.79
318.4402, 11791.93
318.9223, 11806.30
319.4044, 11825.78
319.8865, 11833.33
320.3686, 11795.95
320.8507, 11769.11
321.3329, 11784.13
321.8150, 11862.56
322.2971, 11917.50
322.7792, 11913.99
323.2613, 11882.61
323.7434, 11865.35
324.2256, 11881.26
324.7077, 11900.06
325.1898, 11914.20
325.6719, 11923.03
326.1540, 11927.90
326.6361, 11927.95
327.1183, 11924.41
327.6004, 11918.57
328.0825, 11904.08
328.5646, 11894.16
329.0467, 11890.34
329.5288, 11892.30
330.0110, 11904.44
330.4931, 11942.67
330.9752, 11979.99
331.4573, 11988.21
331.9394, 11941.45
332.4215, 11908.54
332.9037, 11904.15
333.3858, 11927.77
333.8679, 11951.11
334.3500, 11976.93
334.8321, 11999.22
335.3142, 12012.54
335.7964, 12013.90
336.2785, 12013.42
336.7606, 12007.46
337.2427, 12000.13
337.7248, 12022.27
338.2069, 12087.67
338.6891, 12148.83
339.1712, 12166.01
339.6533, 12132.06
340.1354, 12106.58
340.6175, 12098.82
341.0996, 12103.10
341.5818, 12103.66
342.0639, 12100.06
342.5460, 12095.66
343.0281, 12087.29
343.5102, 12076.22
343.9923, 12087.21
344.4745, 12129.94
344.9566, 12183.04
345.4387, 12204.74
345.9208, 12195.88
346.4029, 12179.17
346.8850, 12158.81
347.3672, 12139.81
347.8493, 12145.03
348.3314, 12180.80
348.8135, 12223.11
349.2956, 12239.70
349.7777, 12234.84
350.2599, 12227.04
350.7419, 12217.70
351.2241, 12213.51
351.7062, 12232.02
352.1883, 12276.29
352.6704, 12317.25
353.1525, 12316.11
353.6346, 12291.61
354.1168, 12282.00
354.5989, 12327.90
355.0810, 12381.18
355.5631, 12384.95
356.0452, 12339.01
356.5273, 12304.88
357.0095, 12349.22
357.4916, 12421.29
357.9737, 12458.17
358.4558, 12403.44
358.9379, 12338.61
359.4200, 12302.91
359.9022, 12294.63
360.3843, 12300.91
360.8664, 12339.97
361.3485, 12378.59
361.8306, 12389.36
362.3127, 12337.02
362.7949, 12292.16
363.2770, 12275.86
363.7591, 12283.20
364.2412, 12296.34
364.7233, 12315.58
365.2054, 12336.48
365.6876, 12357.38
366.1697, 12384.94
366.6518, 12401.70
367.1339, 12395.40
367.6160, 12377.34
368.0981, 12372.91
368.5803, 12391.87
369.0624, 12415.41
369.5445, 12437.80
370.0266, 12457.79
370.5087, 12481.44
370.9908, 12520.83
371.4730, 12556.80
371.9551, 12559.58
372.4372, 12505.21
372.9193, 12461.88
373.4014, 12451.52
373.8835, 12475.92
374.3657, 12491.36
374.8478, 12495.62
375.3299, 12494.29
375.8120, 12489.61
376.2941, 12478.32
376.7762, 12481.86
377.2584, 12511.15
377.7405, 12558.78
378.2226, 12586.15
378.7047, 12592.15
379.1868, 12586.44
379.6689, 12572.28
380.1511, 12550.81
380.6332, 12533.26
381.1153, 12518.58
381.5974, 12513.03
382.0795, 12538.53
382.5616, 12592.59
383.0438, 12638.64
383.5259, 12639.61
384.0080, 12616.09
384.4901, 12626.57
384.9722, 12687.17
385.4543, 12746.56
385.9364, 12732.89
386.4185, 12669.48
386.9007, 12624.53
387.3828, 12648.72
387.8649, 12700.15
388.3470, 12734.12
388.8291, 12747.37
389.3112, 12752.64
389.7934, 12753.06
390.2755, 12752.27
390.7576, 12755.23
391.2397, 12774.27
391.7218, 12788.75
392.2039, 12777.63
392.6861, 12744.25
393.1682, 12729.25
393.6503, 12766.51
394.1324, 12819.09
394.6145, 12858.65
395.0966, 12872.29
395.5788, 12879.98
396.0609, 12882.20
396.5430, 12880.88
397.0251, 12883.07
397.5072, 12897.51
397.9893, 12909.49
398.4715, 12911.91
398.9536, 12897.12
399.4357, 12886.50
399.9178, 12875.28
400.3999, 12869.68
400.8820, 12882.34
401.3642, 12928.07
401.8463, 12969.43
402.3284, 12994.25
402.8105, 13000.12
403.2926, 13011.01
403.7747, 13029.96
404.2569, 13049.69
404.7390, 13059.77
405.2211, 13056.55
405.7032, 13061.24
406.1853, 13081.15
406.6674, 13112.39
407.1496, 13137.83
407.6317, 13157.64
408.1138, 13170.90
408.5959, 13170.97
409.0780, 13160.63
409.5602, 13165.55
410.0423, 13194.83
410.5244, 13231.35
411.0065, 13241.79
411.4886, 13230.06
411.9707, 13224.34
412.4529, 13248.09
412.9350, 13287.62
413.4171, 13320.27
413.8992, 13345.75
414.3813, 13357.17
414.8634, 13330.84
415.3456, 13286.91
415.8277, 13265.16
416.3098, 13308.03
416.7919, 13361.07
417.2740, 13381.90
417.7561, 13370.02
418.2382, 13354.51
418.7203, 13345.88
419.2025, 13342.43
419.6846, 13342.81
420.1667, 13346.83
420.6488, 13354.36
421.1309, 13367.36
421.6130, 13384.28
422.0952, 13400.06
422.5773, 13410.07
423.0594, 13421.36
423.5415, 13439.38
424.0236, 13480.52
424.5057, 13496.95
424.9879, 13459.39
425.4700, 13406.47
425.9521, 13401.84
426.4342, 13490.64
426.9163, 13557.24
427.3984, 13562.31
427.8806, 13500.68
428.3627, 13469.27
428.8448, 13477.47
429.3269, 13500.48
429.8090, 13519.04
430.2911, 13535.29
430.7733, 13530.45
431.2554, 13492.52
431.7375, 13436.46
432.2196, 13406.63
432.7017, 13404.25
433.1838, 13416.71
433.6660, 13444.27
434.1481, 13481.44
434.6302, 13504.69
435.1123, 13510.81
435.5944, 13505.38
436.0765, 13486.59
436.5587, 13460.08
437.0408, 13444.79
437.5229, 13457.14
438.0050, 13482.03
438.4871, 13505.30
438.9692, 13526.48
439.4514, 13540.25
439.9335, 13537.46
440.4156, 13527.07
440.8977, 13519.41
441.3798, 13515.41
441.8619, 13517.48
442.3441, 13535.37
442.8262, 13562.86
443.3083, 13575.49
443.7904, 13545.40
444.2725, 13512.88
444.7546, 13499.24
445.2368, 13513.60
445.7189, 13533.46
446.2010, 13568.79
446.6831, 13605.05
447.1652, 13619.32
447.6473, 13590.26
448.1295, 13566.27
448.6116, 13558.95
449.0937, 13568.87
449.5758, 13583.78
450.0579, 13609.55
450.5400, 13631.36
451.0221, 13634.07
451.5042, 13613.15
451.9864, 13595.82
452.4685, 13585.92
452.9506, 13581.84
453.4327, 13577.78
453.9148, 13573.31
454.3969, 13575.51
454.8791, 13590.05
455.3612, 13615.02
455.8433, 13645.54
456.3254, 13683.07
456.8075, 13715.70
457.2896, 13728.87
457.7718, 13725.61
458.2539, 13713.23
458.7360, 13679.57
459.2181, 13648.17
459.7002, 13650.98
460.1823, 13684.11
460.6645, 13715.05
461.1466, 13719.03
461.6287, 13713.70
462.1108, 13716.65
462.5929, 13739.92
463.0750, 13756.28
463.5572, 13747.54
464.0393, 13724.63
464.5214, 13709.72
465.0035, 13709.75
465.4856, 13717.66
465.9677, 13733.65
466.4499, 13760.57
466.9320, 13781.47
467.4141, 13796.84
467.8962, 13805.72
468.3783, 13805.85
468.8604, 13787.25
469.3426, 13779.76
469.8247, 13791.33
470.3068, 13816.36
470.7889, 13830.85
471.2710, 13832.27
471.7531, 13830.85
472.2353, 13831.92
472.7174, 13835.50
473.1995, 13838.66
473.6816, 13840.94
474.1637, 13843.91
474.6458, 13851.29
475.1280, 13862.08
475.6101, 13869.41
476.0922, 13864.53
476.5743, 13858.22
477.0564, 13873.55
477.5385, 13908.75
478.0207, 13942.47
478.5028, 13958.62
478.9849, 13965.14
479.4670, 13971.27
479.9491, 13978.53
480.4312, 13986.72
480.9134, 13994.30
481.3955, 14002.79
481.8776, 14015.09
482.3597, 14043.39
482.8418, 14065.72
483.3239, 14070.56
483.8060, 14055.49
484.2881, 14040.42
484.7703, 14024.12
485.2524, 14011.82
485.7345, 14006.94
486.2166, 14004.23
486.6987, 14018.75
487.1808, 14065.84
487.6630, 14128.79
488.1451, 14149.26
488.6272, 14105.69
489.1093, 14070.83
489.5914, 14084.01
490.0735, 14147.71
490.5557, 14185.08
491.0378, 14191.98
491.5199, 14184.98
492.0020, 14180.75
492.4841, 14179.05
492.9662, 14177.90
493.4484, 14176.58
493.9305, 14175.72
494.4126, 14177.35
494.8947, 14180.95
495.3768, 14183.35
495.8589, 14177.28
496.3411, 14171.27
496.8232, 14180.38
497.3053, 14211.02
497.7874, 14231.38
498.2695, 14201.57
498.7516, 14155.04
499.2338, 14136.00
499.7159, 14191.84
500.1980, 14245.59
500.6801, 14266.48
501.1622, 14257.72
501.6443, 14252.79
502.1265, 14270.81
502.6086, 14281.98
503.0907, 14269.71
503.5728, 14210.27
504.0549, 14178.07
504.5370, 14185.30
505.0192, 14210.77
505.5013, 14221.18
505.9834, 14211.57
506.4655, 14204.83
506.9476, 14210.60
507.4297, 14224.67
507.9119, 14215.91
508.3940, 14180.21
508.8761, 14154.50
509.3582, 14182.33
509.8403, 14246.13
510.3224, 14280.66
510.8046, 14274.34
511.2867, 14247.39
511.7688, 14209.83
512.2509, 14169.09
512.7330, 14142.37
513.2151, 14132.83
513.6973, 14144.00
514.1794, 14192.56
514.6615, 14274.33
515.1436, 14339.32
515.6257, 14363.13
516.1078, 14361.85
516.5900, 14345.13
517.0721, 14299.37
517.5542, 14264.43
518.0363, 14254.58
518.5184, 14258.06
519.0005, 14251.77
519.4827, 14212.49
519.9648, 14195.88
520.4469, 14225.27
520.9290, 14299.11
521.4111, 14342.84
521.8932, 14350.91
522.3754, 14341.01
522.8575, 14320.32
523.3396, 14288.04
523.8217, 14271.83
524.3038, 14278.04
524.7859, 14293.60
525.2681, 14298.40
525.7502, 14293.95
526.2323, 14289.21
526.7144, 14286.96
527.1965, 14287.40
527.6786, 14292.94
528.1608, 14302.98
528.6429, 14310.38
529.1250, 14308.44
529.6071, 14302.32
530.0892, 14295.55
530.5714, 14283.59
531.0535, 14282.53
531.5356, 14315.32
532.0176, 14360.36
532.4998, 14381.49
532.9819, 14340.35
533.4640, 14307.06
533.9461, 14303.22
534.4282, 14328.33
534.9103, 14346.71
535.3925, 14352.19
535.8746, 14359.14
536.3567, 14379.15
536.8388, 14417.71
537.3209, 14442.51
537.8030, 14448.26
538.2852, 14445.98
538.7673, 14454.70
539.2494, 14474.05
539.7315, 14488.06
540.2136, 14486.50
540.6957, 14478.72
541.1779, 14490.31
541.6600, 14518.46
542.1421, 14537.22
542.6242, 14509.88
543.1063, 14470.13
543.5884, 14464.20
544.0706, 14507.39
544.5527, 14549.82
545.0348, 14558.34
545.5169, 14549.91
545.9990, 14547.10
546.4811, 14560.55
546.9633, 14576.08
547.4454, 14587.54
547.9275, 14596.17
548.4096, 14614.29
548.8917, 14653.99
549.3738, 14689.85
549.8560, 14707.57
550.3381, 14698.44
550.8202, 14711.27
551.3023, 14756.15
551.7844, 14806.46
552.2665, 14828.62
552.7487, 14821.79
553.2308, 14815.93
553.7129, 14817.81
554.1950, 14824.60
554.6771, 14830.89
555.1592, 14836.89
555.6414, 14843.93
556.1235, 14851.39
556.6056, 14860.98
557.0877, 14873.15
557.5698, 14887.74
558.0519, 14911.08
558.5341, 14967.35
559.0162, 15025.79
559.4983, 15052.41
559.9804, 15013.60
560.4625, 14977.59
560.9446, 14960.14
561.4268, 14957.68
561.9089, 14961.15
562.3910, 14976.75
562.8731, 14990.07
563.3552, 14997.64
563.8373, 14999.48
564.3195, 14995.01
564.8016, 14979.25
565.2837, 14968.13
565.7658, 14977.50
566.2479, 15007.58
566.7300, 15032.59
567.2122, 15051.24
567.6943, 15060.25
568.1764, 15043.51
568.6585, 15009.78
569.1406, 14994.78
569.6227, 15032.75
570.1049, 15081.52
570.5870, 15083.54
571.0691, 15048.07
571.5512, 15023.69
572.0333, 15049.20
572.5154, 15087.31
572.9976, 15110.39
573.4797, 15110.36
573.9618, 15113.70
574.4439, 15132.59
574.9260, 15155.15
575.4081, 15168.69
575.8903, 15170.97
576.3724, 15166.89
576.8545, 15150.68
577.3366, 15129.94
577.8187, 15131.81
578.3008, 15162.66
578.7830, 15192.22
579.2651, 15208.12
579.7472, 15211.50
580.2293, 15204.43
580.7114, 15185.53
581.1935, 15175.82
581.6757, 15203.96
582.1578, 15254.25
582.6399, 15294.93
583.1220, 15320.88
583.6041, 15332.05
584.0862, 15316.12
584.5684, 15286.70
585.0505, 15267.55
585.5326, 15278.88
586.0147, 15291.34
586.4968, 15288.20
586.9789, 15272.17
587.4611, 15270.12
587.9432, 15296.87
588.4253, 15327.91
588.9074, 15356.78
589.3895, 15388.10
589.8716, 15394.25
590.3538, 15362.60
590.8359, 15325.78
591.3180, 15321.58
591.8001, 15351.12
592.2822, 15382.40
592.7643, 15414.82
593.2465, 15437.20
593.7286, 15416.57
594.2107, 15362.21
594.6928, 15323.08
595.1749, 15333.97
595.6570, 15365.48
596.1392, 15392.17
596.6213, 15412.79
597.1034, 15420.38
597.5854, 15400.22
598.0676, 15372.90
598.5497, 15354.13
599.0318, 15350.15
599.5139, 15345.32
599.9960, 15330.71
600.4781, 15317.00
600.9603, 15317.87
601.4424, 15344.18
601.9245, 15363.24
602.4066, 15367.70
602.8887, 15362.20
603.3708, 15362.76
603.8530, 15370.54
604.3351, 15375.15
604.8172, 15371.08
605.2993, 15359.57
605.7814, 15341.84
606.2635, 15317.93
606.7457, 15299.40
607.2278, 15298.23
607.7099, 15307.82
608.1920, 15320.46
608.6741, 15337.02
609.1563, 15349.76
609.6384, 15351.31
610.1205, 15347.28
610.6026, 15345.54
611.0847, 15361.21
611.5668, 15364.51
612.0490, 15333.44
612.5311, 15281.21
613.0132, 15267.01
613.4953, 15309.44
613.9774, 15357.35
614.4595, 15390.42
614.9417, 15409.09
615.4238, 15422.66
615.9059, 15431.10
616.3880, 15434.48
616.8701, 15431.12
617.3522, 15422.46
617.8344, 15411.01
618.3165, 15393.64
618.7986, 15386.10
619.2807, 15416.90
619.7628, 15467.39
620.2449, 15503.83
620.7271, 15496.24
621.2092, 15487.71
621.6913, 15502.72
622.1734, 15534.99
622.6555, 15557.17
623.1376, 15559.66
623.6198, 15555.13
624.1019, 15546.44
624.5840, 15532.79
625.0661, 15519.14
625.5482, 15495.87
626.0303, 15490.62
626.5125, 15544.35
626.9946, 15657.26
627.4767, 15706.85
627.9588, 15668.46
628.4409, 15606.11
628.9230, 15611.54
629.4052, 15664.30
629.8873, 15704.30
630.3694, 15707.69
630.8515, 15692.39
631.3336, 15668.32
631.8157, 15637.44
632.2979, 15605.72
632.7800, 15563.42
633.2621, 15531.39
633.7442, 15523.04
634.2263, 15540.71
634.7084, 15559.10
635.1906, 15581.27
635.6727, 15599.64
636.1548, 15608.80
636.6369, 15605.80
637.1190, 15605.78
637.6011, 15609.47
638.0833, 15615.06
638.5654, 15625.67
639.0475, 15638.63
639.5296, 15632.19
640.0117, 15589.66
640.4938, 15544.46
640.9760, 15549.52
641.4581, 15588.37
641.9402, 15615.68
642.4223, 15602.02
642.9044, 15576.50
643.3865, 15553.42
643.8687, 15533.60
644.3508, 15516.31
644.8329, 15496.79
645.3150, 15484.22
645.7971, 15483.86
646.2792, 15499.48
646.7614, 15512.85
647.2435, 15525.27
647.7256, 15533.58
648.2077, 15535.51
648.6898, 15531.06
649.1719, 15515.07
649.6541, 15481.76
650.1362, 15449.53
650.6183, 15444.88
651.1004, 15463.31
651.5825, 15492.14
652.0646, 15545.90
652.5468, 15589.47
653.0289, 15579.68
653.5110, 15532.57
653.9931, 15504.51
654.4752, 15538.86
654.9573, 15576.36
655.4395, 15592.48
655.9216, 15584.50
656.4037, 15561.39
656.8858, 15502.87
657.3679, 15455.65
657.8500, 15458.97
658.3322, 15523.94
658.8143, 15551.06
659.2964, 15529.69
659.7785, 15495.20
660.2606, 15491.46
660.7427, 15511.53
