##NAMES=Grossular
##RRUFFID=R060452
##IDEAL CHEMISTRY=Ca_3_Al_2_(SiO_4_)_3_
##LOCALITY=unknown
##OWNER=RRUFF
##SOURCE=Gemological Institute of America
##DESCRIPTION=Yellowish-brown colored fragment
##STATUS=The identification of this mineral has been confirmed by X-ray diffraction and chemical analysis
##URL=rruff.info/R060452
##MEASURED CHEMISTRY=(Ca_2.94_Mn_0.03_Mg_0.03_)_Σ=3_(Al_1.91_Fe^3+^_0.06_Ti_0.03_)_Σ=2_((Si_0.99_Al_0.01_)_Σ=1_O_4_)_3_
119.5731, 25.64698
120.0552, 22.82471
120.5373, 18.97590
121.0194, 18.13358
121.5015, 21.12579
121.9836, 24.89178
122.4658, 29.51549
122.9479, 33.99118
123.4300, 37.16031
123.9121, 38.41827
124.3942, 38.57205
124.8763, 39.69122
125.3585, 42.98515
125.8406, 45.11654
126.3227, 44.11642
126.8048, 42.12963
127.2869, 41.65196
127.7690, 44.05417
128.2512, 48.67738
128.7333, 52.75499
129.2154, 55.49078
129.6975, 58.65589
130.1796, 62.91892
130.6617, 67.71714
131.1439, 72.33323
131.6260, 76.38345
132.1081, 79.83284
132.5902, 82.38965
133.0723, 82.21481
133.5544, 83.01917
134.0366, 85.88423
134.5187, 90.20943
135.0008, 95.10372
135.4829, 100.0990
135.9650, 105.1127
136.4471, 108.0585
136.9293, 106.9742
137.4114, 106.0396
137.8935, 106.2590
138.3756, 107.6201
138.8577, 109.9012
139.3398, 113.0585
139.8220, 117.1124
140.3041, 120.5834
140.7862, 122.5977
141.2683, 124.9839
141.7504, 128.3332
142.2325, 132.6977
142.7147, 138.1158
143.1968, 144.8961
143.6789, 153.0304
144.1610, 159.9531
144.6431, 163.9815
145.1252, 168.3256
145.6074, 175.4527
146.0895, 185.0400
146.5716, 194.3044
147.0537, 200.7322
147.5358, 204.2997
148.0179, 209.7990
148.5001, 218.0242
148.9822, 227.5271
149.4643, 238.1319
149.9464, 249.7207
150.4285, 260.1155
150.9106, 266.8463
151.3928, 270.3333
151.8749, 276.0174
152.3570, 287.2078
152.8391, 298.8940
153.3212, 305.8416
153.8033, 307.5376
154.2855, 308.7426
154.7676, 313.7220
155.2497, 321.5295
155.7318, 327.9912
156.2139, 330.7492
156.6960, 332.6932
157.1782, 337.6220
157.6603, 346.1161
158.1424, 354.7434
158.6245, 359.3553
159.1066, 361.8993
159.5887, 367.3975
160.0709, 379.2711
160.5530, 393.9920
161.0351, 406.0133
161.5172, 414.3610
161.9993, 423.0140
162.4814, 434.9153
162.9636, 449.0706
163.4457, 464.3506
163.9278, 481.9390
164.4099, 499.9088
164.8920, 514.6872
165.3741, 526.0224
165.8563, 534.6750
166.3384, 540.4952
166.8205, 544.1694
167.3026, 546.6075
167.7847, 548.6489
168.2668, 549.5463
168.7490, 547.1981
169.2311, 540.2259
169.7132, 533.0507
170.1953, 527.9336
170.6774, 524.1608
171.1595, 520.7175
171.6417, 517.1880
172.1238, 513.6724
172.6059, 510.0366
173.0880, 505.1223
173.5701, 502.6268
174.0522, 504.2497
174.5344, 508.9435
175.0165, 515.2821
175.4986, 522.3246
175.9807, 530.7277
176.4628, 542.0724
176.9449, 555.3907
177.4271, 574.1011
177.9092, 600.5068
178.3913, 631.8466
178.8734, 665.7482
179.3555, 704.2162
179.8376, 742.0227
180.3197, 764.6749
180.8019, 771.5375
181.2840, 762.0430
181.7661, 732.4052
182.2482, 690.7017
182.7303, 645.9387
183.2124, 601.3719
183.6946, 558.2090
184.1767, 519.6506
184.6588, 485.6014
185.1409, 457.5550
185.6230, 435.6071
186.1051, 418.8724
186.5873, 406.4979
187.0694, 398.3158
187.5515, 393.6898
188.0336, 391.0123
188.5157, 391.2178
188.9978, 391.9669
189.4800, 392.6730
189.9621, 393.5724
190.4442, 395.3732
190.9263, 398.5423
191.4084, 401.7379
191.8905, 401.1811
192.3727, 393.1064
192.8548, 388.0539
193.3369, 390.0887
193.8190, 394.3840
194.3011, 395.8787
194.7832, 392.5201
195.2654, 386.9908
195.7475, 385.1071
196.2296, 388.3608
196.7117, 392.7618
197.1938, 399.2279
197.6759, 405.6327
198.1581, 410.1673
198.6402, 412.2357
199.1223, 412.4014
199.6044, 411.4664
200.0865, 408.4495
200.5686, 406.3050
201.0508, 404.4683
201.5329, 403.8862
202.0150, 406.1553
202.4971, 411.4624
202.9792, 417.4029
203.4613, 419.9430
203.9435, 417.3902
204.4256, 415.1037
204.9077, 413.1369
205.3898, 411.6072
205.8719, 410.1807
206.3540, 408.9746
206.8362, 408.9189
207.3183, 411.2316
207.8004, 415.9608
208.2825, 423.1762
208.7646, 439.1335
209.2467, 452.5524
209.7289, 454.6104
210.2110, 445.5826
210.6931, 433.9180
211.1752, 429.5581
211.6573, 434.5930
212.1395, 439.5044
212.6216, 444.2721
213.1037, 448.9196
213.5858, 453.5095
214.0679, 457.9862
214.5500, 462.1168
215.0322, 465.2891
215.5143, 466.9535
215.9964, 471.3829
216.4785, 480.7340
216.9606, 490.8254
217.4427, 501.3797
217.9249, 511.5357
218.4070, 519.6429
218.8891, 523.8889
219.3712, 524.1196
219.8533, 526.0897
220.3354, 530.0945
220.8176, 535.7153
221.2997, 544.2525
221.7818, 554.3517
222.2639, 563.1905
222.7460, 568.2261
223.2281, 570.2180
223.7103, 576.9444
224.1924, 594.9615
224.6745, 610.8149
225.1566, 619.9103
225.6387, 625.4743
226.1208, 632.5054
226.6030, 643.9425
227.0851, 658.7749
227.5672, 672.5803
228.0493, 682.5042
228.5314, 695.5656
229.0135, 716.6673
229.4957, 739.9207
229.9778, 757.8022
230.4599, 766.7472
230.9420, 770.9290
231.4241, 780.8199
231.9062, 799.3184
232.3884, 818.9810
232.8705, 841.0464
233.3526, 862.4269
233.8347, 878.9014
234.3168, 889.3256
234.7989, 899.3929
235.2811, 920.1718
235.7632, 958.9955
236.2453, 991.2010
236.7274, 1012.926
237.2095, 1029.792
237.6916, 1046.639
238.1738, 1063.869
238.6559, 1077.104
239.1380, 1078.008
239.6201, 1060.286
240.1022, 1053.835
240.5843, 1071.656
241.0665, 1091.154
241.5486, 1100.900
242.0307, 1101.136
242.5128, 1099.554
242.9949, 1100.938
243.4770, 1104.488
243.9592, 1121.337
244.4413, 1165.924
244.9234, 1211.182
245.4055, 1251.726
245.8876, 1285.192
246.3697, 1308.115
246.8519, 1317.849
247.3340, 1314.864
247.8161, 1302.877
248.2982, 1278.441
248.7803, 1248.499
249.2624, 1212.280
249.7446, 1173.208
250.2267, 1136.161
250.7088, 1102.415
251.1909, 1073.500
251.6730, 1053.890
252.1551, 1045.143
252.6373, 1043.135
253.1194, 1049.032
253.6015, 1059.031
254.0836, 1068.752
254.5657, 1076.189
255.0478, 1084.422
255.5300, 1099.382
256.0121, 1123.003
256.4942, 1145.877
256.9763, 1163.232
257.4584, 1180.004
257.9406, 1199.789
258.4227, 1223.328
258.9048, 1249.570
259.3869, 1280.974
259.8690, 1318.235
260.3511, 1345.077
260.8333, 1354.140
261.3154, 1354.940
261.7975, 1351.811
262.2796, 1345.661
262.7617, 1342.490
263.2438, 1352.137
263.7260, 1370.722
264.2081, 1374.029
264.6902, 1352.282
265.1723, 1325.805
265.6544, 1312.356
266.1365, 1307.497
266.6187, 1296.371
267.1008, 1267.514
267.5829, 1228.449
268.0650, 1194.798
268.5471, 1167.662
269.0292, 1143.679
269.5114, 1119.230
269.9935, 1096.622
270.4756, 1080.917
270.9577, 1077.350
271.4398, 1078.015
271.9219, 1071.405
272.4041, 1057.090
272.8862, 1050.793
273.3683, 1063.787
273.8504, 1088.687
274.3325, 1109.933
274.8146, 1124.870
275.2968, 1139.783
275.7789, 1161.040
276.2610, 1186.457
276.7431, 1207.944
277.2252, 1224.128
277.7073, 1232.709
278.1895, 1230.914
278.6716, 1220.049
279.1537, 1198.006
279.6358, 1158.981
280.1179, 1109.336
280.6000, 1058.311
281.0822, 1006.966
281.5643, 959.4687
282.0464, 921.5107
282.5285, 893.8920
283.0106, 868.0756
283.4927, 841.2010
283.9749, 817.0070
284.4570, 798.3414
284.9391, 785.5273
285.4212, 778.5984
285.9033, 779.1574
286.3854, 786.9901
286.8676, 789.5944
287.3497, 781.9488
287.8318, 774.4519
288.3139, 773.0139
288.7960, 775.9077
289.2781, 777.3536
289.7603, 773.4803
290.2424, 766.8353
290.7245, 768.4785
291.2066, 788.8272
291.6887, 804.0256
292.1708, 805.9439
292.6530, 802.3981
293.1351, 803.4916
293.6172, 812.7241
294.0993, 825.9280
294.5814, 835.7089
295.0635, 840.1123
295.5457, 844.5361
296.0278, 845.8943
296.5099, 849.4163
296.9920, 861.0941
297.4741, 880.1659
297.9562, 898.9636
298.4384, 909.0867
298.9205, 908.8147
299.4026, 911.9059
299.8847, 919.6639
300.3668, 929.3477
300.8489, 941.4590
301.3310, 954.8145
301.8131, 967.0626
302.2953, 976.3948
302.7774, 983.6827
303.2595, 993.5939
303.7416, 1008.870
304.2237, 1022.746
304.7058, 1032.968
305.1880, 1041.605
305.6701, 1050.845
306.1522, 1061.501
306.6343, 1072.901
307.1164, 1083.774
307.5985, 1093.616
308.0807, 1104.660
308.5628, 1116.822
309.0449, 1130.702
309.5270, 1148.054
310.0091, 1168.559
310.4912, 1187.822
310.9734, 1199.444
311.4555, 1204.668
311.9376, 1217.622
312.4197, 1242.662
312.9018, 1270.911
313.3839, 1297.615
313.8661, 1322.975
314.3482, 1347.117
314.8303, 1369.079
315.3124, 1390.327
315.7945, 1414.195
316.2766, 1441.355
316.7588, 1467.081
317.2409, 1488.929
317.7230, 1507.309
318.2051, 1522.227
318.6872, 1530.868
319.1693, 1540.823
319.6515, 1556.136
320.1336, 1577.006
320.6157, 1606.432
321.0978, 1648.995
321.5799, 1694.645
322.0620, 1723.018
322.5442, 1728.682
323.0263, 1750.629
323.5084, 1821.027
323.9905, 1904.998
324.4726, 1953.656
324.9547, 1959.112
325.4369, 1951.837
325.9190, 1958.601
326.4011, 1980.959
326.8832, 2011.052
327.3653, 2053.188
327.8474, 2098.880
328.3296, 2143.521
328.8117, 2187.813
329.2938, 2234.978
329.7759, 2287.589
330.2580, 2343.868
330.7401, 2394.045
331.2223, 2432.185
331.7044, 2471.832
332.1865, 2515.731
332.6686, 2561.326
333.1507, 2603.967
333.6328, 2642.741
334.1150, 2683.870
334.5971, 2737.786
335.0792, 2809.754
335.5613, 2879.983
336.0434, 2942.426
336.5255, 3008.454
337.0077, 3084.817
337.4898, 3170.004
337.9719, 3258.876
338.4540, 3348.472
338.9361, 3437.963
339.4182, 3518.397
339.9004, 3574.922
340.3825, 3644.287
340.8646, 3744.164
341.3467, 3859.205
341.8288, 3968.551
342.3109, 4063.557
342.7931, 4156.156
343.2752, 4270.867
343.7573, 4414.103
344.2394, 4533.829
344.7215, 4597.116
345.2036, 4648.640
345.6858, 4726.137
346.1679, 4831.084
346.6500, 4936.852
347.1321, 5034.178
347.6142, 5119.410
348.0963, 5180.355
348.5785, 5211.788
349.0606, 5231.721
349.5427, 5261.160
350.0248, 5291.265
350.5069, 5292.006
350.9890, 5247.905
351.4712, 5180.516
351.9533, 5104.402
352.4354, 5019.490
352.9175, 4925.272
353.3996, 4822.429
353.8817, 4709.097
354.3639, 4576.788
354.8460, 4418.457
355.3281, 4261.896
355.8102, 4114.325
356.2923, 3971.458
356.7744, 3829.803
357.2566, 3688.078
357.7387, 3549.285
358.2208, 3415.028
358.7029, 3282.166
359.1850, 3172.974
359.6671, 3094.412
360.1493, 3028.952
360.6314, 2969.818
361.1135, 2917.589
361.5956, 2874.017
362.0777, 2839.329
362.5598, 2816.074
363.0420, 2814.199
363.5241, 2846.052
364.0062, 2880.855
364.4883, 2905.924
364.9704, 2937.361
365.4525, 2992.787
365.9347, 3074.026
366.4168, 3163.263
366.8989, 3237.731
367.3810, 3296.474
367.8631, 3367.635
368.3452, 3469.862
368.8274, 3563.461
369.3095, 3623.132
369.7916, 3659.765
370.2737, 3699.014
370.7558, 3750.740
371.2379, 3813.746
371.7201, 3891.260
372.2022, 3985.721
372.6843, 4071.215
373.1664, 4145.658
373.6485, 4196.948
374.1306, 4216.515
374.6128, 4208.989
375.0949, 4151.884
375.5770, 4021.189
376.0591, 3834.954
376.5412, 3622.271
377.0233, 3386.364
377.5055, 3144.078
377.9876, 2908.773
378.4697, 2681.758
378.9518, 2471.990
379.4339, 2278.187
379.9160, 2103.666
380.3982, 1954.326
380.8803, 1827.326
381.3624, 1716.840
381.8445, 1619.644
382.3266, 1536.650
382.8087, 1469.441
383.2909, 1431.150
383.7730, 1393.408
384.2551, 1355.069
384.7372, 1317.440
385.2193, 1280.518
385.7014, 1244.920
386.1836, 1212.426
386.6657, 1184.682
387.1478, 1161.790
387.6299, 1143.891
388.1120, 1134.977
388.5941, 1126.604
389.0763, 1115.582
389.5584, 1103.386
390.0405, 1092.053
390.5226, 1081.761
391.0047, 1074.403
391.4868, 1074.117
391.9690, 1081.717
392.4511, 1088.556
392.9332, 1091.482
393.4153, 1093.596
393.8974, 1096.968
394.3795, 1101.706
394.8617, 1109.492
395.3438, 1124.318
395.8259, 1141.622
396.3080, 1153.485
396.7901, 1159.008
397.2722, 1162.355
397.7544, 1164.975
398.2365, 1167.862
398.7186, 1175.265
399.2007, 1188.957
399.6828, 1204.936
400.1649, 1222.507
400.6471, 1241.132
401.1292, 1261.128
401.6113, 1282.728
402.0934, 1302.536
402.5755, 1315.581
403.0576, 1319.828
403.5398, 1322.788
404.0219, 1320.703
404.5040, 1320.995
404.9861, 1330.334
405.4682, 1345.358
405.9503, 1356.697
406.4325, 1357.583
406.9146, 1352.335
407.3967, 1356.669
407.8788, 1374.872
408.3609, 1394.074
408.8430, 1415.773
409.3252, 1434.923
409.8073, 1444.680
410.2894, 1444.914
410.7715, 1447.117
411.2536, 1459.332
411.7357, 1481.482
412.2179, 1515.888
412.7000, 1568.828
413.1821, 1618.979
413.6642, 1646.351
414.1463, 1660.680
414.6284, 1680.781
415.1106, 1721.472
415.5927, 1755.154
416.0748, 1758.308
416.5569, 1737.633
417.0390, 1713.876
417.5211, 1694.427
418.0033, 1673.080
418.4854, 1639.057
418.9675, 1586.377
419.4496, 1541.703
419.9317, 1511.791
420.4138, 1485.651
420.8960, 1454.672
421.3781, 1420.430
421.8602, 1389.924
422.3423, 1367.607
422.8244, 1352.300
423.3065, 1338.791
423.7887, 1325.233
424.2708, 1316.739
424.7529, 1317.260
425.2350, 1320.223
425.7171, 1319.873
426.1992, 1315.654
426.6814, 1311.644
427.1635, 1311.836
427.6456, 1315.941
428.1277, 1320.062
428.6098, 1322.643
429.0919, 1328.310
429.5741, 1340.544
430.0562, 1357.009
430.5383, 1374.847
431.0204, 1394.258
431.5025, 1413.034
431.9846, 1429.626
432.4668, 1444.111
432.9489, 1456.127
433.4310, 1464.892
433.9131, 1473.559
434.3952, 1486.484
434.8773, 1504.221
435.3595, 1519.536
435.8416, 1533.232
436.3237, 1543.270
436.8058, 1548.114
437.2879, 1548.299
437.7701, 1544.544
438.2522, 1536.919
438.7343, 1527.520
439.2164, 1521.843
439.6985, 1522.620
440.1806, 1522.373
440.6628, 1524.887
441.1449, 1523.292
441.6270, 1510.305
442.1091, 1488.286
442.5912, 1466.814
443.0733, 1452.995
443.5555, 1445.467
444.0376, 1439.859
444.5197, 1437.796
445.0018, 1433.063
445.4839, 1420.517
445.9660, 1405.427
446.4482, 1393.301
446.9303, 1385.332
447.4124, 1376.513
447.8945, 1363.071
448.3766, 1346.731
448.8587, 1330.117
449.3409, 1313.252
449.8230, 1300.129
450.3051, 1296.201
450.7872, 1299.641
451.2693, 1292.951
451.7514, 1263.251
452.2336, 1239.192
452.7157, 1238.368
453.1978, 1245.914
453.6799, 1239.041
454.1620, 1211.863
454.6441, 1178.596
455.1263, 1157.358
455.6084, 1149.810
456.0905, 1144.987
456.5726, 1150.450
457.0547, 1150.829
457.5368, 1137.268
458.0190, 1116.477
458.5011, 1099.343
458.9832, 1090.631
459.4653, 1086.174
459.9474, 1080.470
460.4295, 1073.528
460.9117, 1065.774
461.3938, 1055.346
461.8759, 1046.870
462.3580, 1046.465
462.8401, 1052.347
463.3222, 1054.961
463.8044, 1049.831
464.2865, 1041.834
464.7686, 1033.204
465.2507, 1025.021
465.7328, 1021.834
466.2149, 1026.371
466.6971, 1034.244
467.1792, 1036.622
467.6613, 1028.640
468.1434, 1025.463
468.6255, 1033.549
469.1076, 1040.760
469.5898, 1037.693
470.0719, 1026.891
470.5540, 1017.305
471.0361, 1014.759
471.5182, 1016.659
472.0003, 1014.724
472.4825, 1006.334
472.9646, 1001.320
473.4467, 1003.169
473.9288, 1008.220
474.4109, 1015.463
474.8930, 1024.361
475.3752, 1032.458
475.8573, 1037.897
476.3394, 1041.812
476.8215, 1046.229
477.3036, 1051.191
477.7857, 1055.749
478.2679, 1059.492
478.7500, 1062.468
479.2321, 1064.716
479.7142, 1065.976
480.1963, 1067.263
480.6784, 1069.205
481.1606, 1070.965
481.6427, 1071.573
482.1248, 1071.131
482.6069, 1070.430
483.0890, 1069.889
483.5711, 1069.771
484.0533, 1071.317
484.5354, 1072.784
485.0175, 1079.175
485.4996, 1094.708
485.9817, 1112.305
486.4638, 1126.651
486.9460, 1137.102
487.4281, 1145.593
487.9102, 1151.716
488.3923, 1157.138
488.8744, 1167.058
489.3565, 1181.792
489.8387, 1199.631
490.3208, 1222.242
490.8029, 1246.072
491.2850, 1262.700
491.7671, 1267.639
492.2492, 1278.437
492.7314, 1306.906
493.2135, 1340.900
493.6956, 1366.267
494.1777, 1382.011
494.6598, 1395.730
495.1419, 1413.083
495.6241, 1433.398
496.1062, 1452.746
496.5883, 1469.145
497.0704, 1487.296
497.5525, 1509.560
498.0346, 1532.447
498.5168, 1553.201
498.9989, 1571.443
499.4810, 1588.291
499.9631, 1605.883
500.4452, 1622.806
500.9273, 1631.226
501.4095, 1628.009
501.8916, 1629.631
502.3737, 1644.060
502.8558, 1667.441
503.3379, 1693.082
503.8200, 1720.935
504.3022, 1750.417
504.7843, 1785.986
505.2664, 1820.314
505.7485, 1839.138
506.2306, 1844.803
506.7127, 1858.396
507.1949, 1895.152
507.6770, 1949.687
508.1591, 1998.334
508.6412, 2044.066
509.1233, 2078.886
509.6054, 2095.647
510.0876, 2107.160
510.5697, 2122.458
511.0518, 2141.759
511.5339, 2159.547
512.0161, 2169.053
512.4982, 2175.959
512.9803, 2198.580
513.4624, 2239.846
513.9445, 2278.674
514.4266, 2310.294
514.9088, 2333.347
515.3909, 2342.110
515.8730, 2334.437
516.3551, 2340.004
516.8372, 2379.899
517.3193, 2427.986
517.8015, 2457.575
518.2836, 2472.186
518.7657, 2494.130
519.2478, 2536.073
519.7299, 2588.067
520.2120, 2626.059
520.6942, 2641.914
521.1763, 2659.146
521.6584, 2677.647
522.1405, 2697.414
522.6226, 2720.461
523.1047, 2744.832
523.5869, 2765.917
524.0690, 2781.753
524.5511, 2792.424
525.0332, 2798.513
525.5153, 2800.003
525.9974, 2794.394
526.4796, 2780.052
526.9617, 2760.093
527.4438, 2739.349
527.9259, 2717.240
528.4080, 2684.425
528.8901, 2628.809
529.3723, 2572.696
529.8544, 2534.532
530.3365, 2504.304
530.8186, 2461.010
531.3007, 2397.521
531.7828, 2326.342
532.2650, 2264.054
532.7471, 2211.089
533.2292, 2163.123
533.7113, 2126.919
534.1934, 2087.678
534.6755, 2039.796
535.1577, 1986.768
535.6398, 1931.501
536.1219, 1873.911
536.6040, 1820.857
537.0861, 1780.745
537.5682, 1750.435
538.0504, 1720.299
538.5325, 1689.398
539.0146, 1658.224
539.4967, 1625.263
539.9788, 1592.737
540.4609, 1571.801
540.9431, 1564.523
541.4252, 1564.209
541.9073, 1572.618
542.3894, 1585.361
542.8715, 1595.934
543.3536, 1605.524
543.8358, 1623.155
544.3179, 1657.058
544.8000, 1703.801
545.2821, 1748.531
545.7642, 1790.418
546.2463, 1832.558
546.7285, 1882.566
547.2106, 1927.472
547.6926, 1961.730
548.1747, 1983.770
548.6569, 1983.895
549.1390, 1957.704
549.6211, 1907.392
550.1032, 1825.266
550.5853, 1718.418
551.0674, 1616.997
551.5496, 1531.939
552.0317, 1458.198
552.5138, 1387.021
552.9959, 1316.091
553.4780, 1255.329
553.9601, 1206.319
554.4423, 1163.897
554.9244, 1127.059
555.4065, 1095.067
555.8886, 1066.958
556.3707, 1042.227
556.8528, 1022.095
557.3350, 1010.212
557.8171, 1005.317
558.2992, 996.4789
558.7813, 981.3546
559.2634, 966.5063
559.7455, 955.8127
560.2277, 948.8765
560.7098, 943.9703
561.1919, 943.1021
561.6740, 940.6865
562.1561, 933.4266
562.6382, 924.7065
563.1204, 915.9247
563.6025, 908.6888
564.0846, 908.1218
564.5667, 919.0330
565.0488, 937.6385
565.5309, 948.6168
566.0131, 948.3687
566.4952, 949.5988
566.9773, 958.6864
567.4594, 966.4316
567.9415, 964.6296
568.4236, 955.4618
568.9058, 949.8319
569.3879, 954.3309
569.8700, 962.5543
570.3521, 968.5920
570.8342, 972.9430
571.3163, 976.8717
571.7985, 980.6220
572.2806, 985.6112
572.7627, 994.0211
573.2448, 1006.598
573.7269, 1015.745
574.2090, 1015.813
574.6912, 1019.491
575.1733, 1034.563
575.6554, 1052.464
576.1375, 1063.045
576.6196, 1064.379
577.1017, 1063.231
577.5839, 1065.225
578.0660, 1069.658
578.5481, 1074.942
579.0302, 1081.418
579.5123, 1085.182
579.9944, 1083.197
580.4766, 1078.546
580.9587, 1077.531
581.4408, 1081.183
581.9229, 1083.402
582.4050, 1084.325
582.8871, 1082.688
583.3693, 1075.689
583.8514, 1065.713
584.3335, 1057.380
584.8156, 1052.852
585.2977, 1051.243
585.7798, 1052.510
586.2620, 1057.295
586.7441, 1056.932
587.2262, 1048.549
587.7083, 1038.994
588.1904, 1030.859
588.6725, 1024.447
589.1547, 1020.558
589.6368, 1019.619
590.1189, 1020.293
590.6010, 1025.640
591.0831, 1030.229
591.5652, 1026.567
592.0474, 1014.683
592.5295, 998.4609
593.0116, 979.5980
593.4937, 960.8634
593.9758, 951.2087
594.4579, 954.7842
594.9401, 957.6750
595.4222, 958.8770
595.9043, 959.0306
596.3864, 957.4365
596.8685, 955.0468
597.3506, 953.9189
597.8328, 954.2476
598.3149, 957.1905
598.7970, 967.3400
599.2791, 980.6388
599.7612, 985.3867
600.2433, 979.3207
600.7255, 971.0766
601.2076, 967.7868
601.6897, 968.8558
602.1718, 969.3762
602.6539, 965.8450
603.1360, 966.7456
603.6182, 980.0771
604.1003, 992.1978
604.5824, 992.1642
605.0645, 980.9186
605.5466, 966.5821
606.0287, 952.7749
606.5109, 939.7371
606.9930, 928.6478
607.4751, 919.0150
607.9572, 906.9931
608.4393, 891.3461
608.9214, 873.8998
609.4036, 856.2086
609.8857, 838.2457
610.3678, 820.5915
610.8499, 803.3698
611.3320, 786.3488
611.8141, 768.0580
612.2963, 750.7897
612.7784, 736.5995
613.2605, 725.9138
613.7426, 719.2042
614.2247, 719.8203
614.7068, 722.1910
615.1890, 709.4446
