##NAMES=Grossular
##RRUFFID=R050312
##IDEAL CHEMISTRY=Ca_3_Al_2_(SiO_4_)_3_
##LOCALITY=Eden Mills mine, Vermont, USA
##OWNER=RRUFF
##SOURCE=Eugene Schlepp
##DESCRIPTION=Red crystal
##STATUS=The identification of this mineral has been confirmed by X-ray diffraction and chemical analysis
##URL=rruff.info/R050312
##MEASURED CHEMISTRY=Ca_3.00_(Al_1.75_Fe^3+^_0.23_Ti_0.02_)_Σ=2_((Si_0.99_Al_0.01_)_Σ=1_O_4_)_3_
99.58527, 7.341454
100.0674, 8.175186
100.5495, 9.623727
101.0316, 11.10954
101.5137, 11.76634
101.9958, 11.29825
102.4780, 11.05704
102.9601, 11.46776
103.4422, 12.59142
103.9243, 14.01225
104.4064, 15.95776
104.8885, 18.06386
105.3707, 19.72611
105.8528, 20.87991
106.3349, 21.65481
106.8170, 21.98875
107.2991, 21.22176
107.7813, 21.28279
108.2634, 22.65693
108.7455, 24.93353
109.2276, 26.68280
109.7097, 27.41753
110.1918, 27.99110
110.6740, 28.75796
111.1561, 29.78600
111.6382, 30.94118
112.1203, 32.12196
112.6024, 33.38311
113.0845, 34.99666
113.5667, 37.29636
114.0488, 39.79373
114.5309, 42.18633
115.0130, 44.41360
115.4951, 46.49860
115.9772, 48.40992
116.4594, 50.16936
116.9415, 51.92516
117.4236, 53.64547
117.9057, 55.42101
118.3878, 57.34046
118.8699, 59.65193
119.3521, 61.97797
119.8342, 64.04390
120.3163, 65.79505
120.7984, 67.70377
121.2805, 70.34854
121.7626, 73.32778
122.2448, 75.95490
122.7269, 77.95757
123.2090, 79.42864
123.6911, 80.30369
124.1732, 80.44064
124.6553, 80.54829
125.1375, 81.20570
125.6196, 82.35704
126.1017, 83.82558
126.5838, 85.59153
127.0659, 87.59521
127.5480, 89.90191
128.0302, 92.80777
128.5123, 95.44717
128.9944, 96.08278
129.4765, 94.93990
129.9586, 94.12417
130.4407, 95.66555
130.9229, 98.95931
131.4050, 101.4739
131.8871, 102.3926
132.3692, 102.4932
132.8513, 103.5001
133.3334, 105.2947
133.8156, 106.9772
134.2977, 108.2680
134.7798, 109.5382
135.2619, 110.5800
135.7440, 111.2717
136.2261, 111.7057
136.7083, 112.3975
137.1904, 113.4031
137.6725, 114.4979
138.1546, 115.5276
138.6367, 116.5375
139.1188, 117.2963
139.6010, 117.7862
140.0831, 118.0110
140.5652, 117.7514
141.0473, 116.7281
141.5294, 115.6034
142.0115, 115.2390
142.4937, 115.7499
142.9758, 116.7179
143.4579, 118.2409
143.9400, 120.6178
144.4221, 122.0139
144.9042, 122.1045
145.3864, 121.4184
145.8685, 120.7936
146.3506, 119.9022
146.8327, 119.4950
147.3148, 119.9448
147.7969, 121.9799
148.2791, 123.2049
148.7612, 123.0802
149.2433, 122.2054
149.7254, 121.9605
150.2075, 122.8274
150.6896, 123.9027
151.1718, 124.8397
151.6539, 125.2549
152.1360, 126.0924
152.6181, 127.7686
153.1002, 129.9409
153.5823, 131.5751
154.0645, 132.0401
154.5466, 132.3789
155.0287, 133.0778
155.5108, 134.6395
155.9929, 136.0301
156.4750, 137.0361
156.9572, 137.7268
157.4393, 138.3586
157.9214, 138.5197
158.4035, 138.9219
158.8856, 140.0066
159.3677, 142.4140
159.8499, 144.9717
160.3320, 147.6357
160.8141, 150.3029
161.2962, 152.3210
161.7783, 152.6687
162.2604, 152.6221
162.7426, 153.2336
163.2247, 155.5717
163.7068, 157.9684
164.1889, 159.7088
164.6710, 160.8008
165.1531, 161.6687
165.6353, 162.0691
166.1174, 162.4998
166.5995, 163.4968
167.0816, 165.5806
167.5637, 168.0418
168.0458, 170.4908
168.5280, 172.8965
169.0101, 175.3301
169.4922, 177.6081
169.9743, 179.9573
170.4564, 182.6841
170.9385, 185.7855
171.4207, 189.3891
171.9028, 193.6126
172.3849, 198.4428
172.8670, 203.8547
173.3491, 209.6045
173.8312, 215.9548
174.3134, 223.4455
174.7955, 232.5774
175.2776, 242.7862
175.7597, 253.5133
176.2418, 264.8681
176.7239, 276.3234
177.2061, 289.2849
177.6882, 302.5197
178.1703, 312.4510
178.6524, 317.8182
179.1345, 318.8077
179.6166, 315.2740
180.0988, 306.9245
180.5809, 295.4872
181.0630, 281.7164
181.5451, 266.0370
182.0272, 250.7495
182.5093, 236.5108
182.9915, 223.3759
183.4736, 211.6534
183.9557, 201.1964
184.4378, 192.3255
184.9199, 185.4190
185.4020, 180.4977
185.8842, 176.8371
186.3663, 174.7110
186.8484, 173.6766
187.3305, 172.1242
187.8126, 169.7764
188.2947, 167.2539
188.7769, 165.5123
189.2590, 164.5302
189.7411, 163.8780
190.2232, 163.5001
190.7053, 163.3197
191.1874, 162.7814
191.6696, 161.7517
192.1517, 160.5088
192.6338, 159.4837
193.1159, 158.6734
193.5980, 158.1434
194.0801, 158.0860
194.5623, 158.4555
195.0444, 158.5738
195.5265, 158.3235
196.0086, 157.8723
196.4907, 157.5210
196.9728, 157.2591
197.4550, 157.1715
197.9371, 157.4089
198.4192, 157.9792
198.9013, 158.3295
199.3834, 158.3296
199.8655, 158.1672
200.3477, 158.4253
200.8298, 159.2433
201.3119, 159.8419
201.7940, 159.5618
202.2761, 158.2858
202.7582, 157.4810
203.2404, 157.3423
203.7225, 157.7035
204.2046, 158.1881
204.6867, 158.8697
205.1688, 159.4301
205.6509, 159.6574
206.1331, 159.5251
206.6152, 159.1884
207.0973, 158.4618
207.5794, 157.6399
208.0615, 157.7624
208.5436, 159.1315
209.0258, 160.6510
209.5079, 161.4919
209.9900, 161.3670
210.4721, 161.9668
210.9542, 163.7243
211.4363, 166.1939
211.9185, 167.7634
212.4006, 168.0486
212.8827, 168.2681
213.3648, 169.2584
213.8469, 171.3510
214.3290, 172.9890
214.8112, 173.8819
215.2933, 174.2692
215.7754, 174.9538
216.2575, 175.7701
216.7396, 177.1997
217.2217, 179.8410
217.7038, 184.5361
218.1860, 187.7284
218.6681, 188.5605
219.1502, 187.8005
219.6323, 188.2603
220.1144, 190.2862
220.5965, 192.9323
221.0787, 195.6314
221.5608, 198.2023
222.0429, 201.3507
222.5250, 205.3695
223.0071, 209.9710
223.4892, 213.8592
223.9714, 216.6227
224.4535, 219.3819
224.9356, 222.7508
225.4177, 226.7522
225.8998, 231.2746
226.3819, 236.3092
226.8641, 241.8794
227.3462, 247.9017
227.8283, 254.3810
228.3104, 261.2847
228.7925, 268.5785
229.2746, 276.6636
229.7568, 284.4313
230.2389, 291.7695
230.7210, 298.8431
231.2031, 305.8017
231.6852, 311.9374
232.1673, 318.9811
232.6495, 327.8916
233.1316, 339.6902
233.6137, 351.0771
234.0958, 361.8297
234.5779, 372.0317
235.0600, 381.7167
235.5422, 390.8427
236.0243, 399.6754
236.5064, 408.5974
236.9885, 418.8327
237.4706, 426.3481
237.9527, 430.2382
238.4349, 431.5607
238.9170, 432.7154
239.3991, 433.1685
239.8812, 434.2448
240.3633, 436.3983
240.8454, 439.3780
241.3276, 444.0359
241.8097, 450.3160
242.2918, 458.2336
242.7739, 468.0060
243.2560, 480.8216
243.7381, 493.6912
244.2203, 506.2090
244.7024, 520.4335
245.1845, 528.7249
245.6666, 531.9528
246.1487, 528.8252
246.6308, 516.3182
247.1130, 491.2191
247.5951, 461.7836
248.0772, 430.0186
248.5593, 393.7869
249.0414, 362.3921
249.5235, 336.4117
250.0057, 314.9493
250.4878, 296.1348
250.9699, 279.9436
251.4520, 266.4139
251.9341, 255.9549
252.4162, 248.9365
252.8984, 242.8811
253.3805, 237.9055
253.8626, 233.7710
254.3447, 230.2471
254.8268, 227.2683
255.3089, 224.9142
255.7911, 223.2086
256.2732, 222.1282
256.7553, 221.8365
257.2374, 222.5483
257.7195, 223.8432
258.2017, 225.2265
258.6838, 226.7110
259.1659, 228.2912
259.6480, 230.0505
260.1301, 231.9910
260.6122, 233.6267
261.0944, 234.7834
261.5765, 235.8604
262.0586, 237.2224
262.5407, 238.7690
263.0228, 240.8682
263.5049, 243.6136
263.9871, 247.0184
264.4692, 250.8090
264.9513, 255.1734
265.4334, 259.6773
265.9155, 264.0034
266.3976, 268.0136
266.8798, 272.0209
267.3619, 275.9148
267.8440, 279.8048
268.3261, 284.1338
268.8082, 288.5826
269.2903, 294.1067
269.7725, 301.7623
270.2546, 311.9343
270.7367, 321.9022
271.2188, 330.8914
271.7009, 339.3550
272.1830, 349.7036
272.6652, 362.3986
273.1473, 375.5048
273.6294, 387.8217
274.1115, 399.1891
274.5936, 411.0158
275.0757, 424.5163
275.5579, 437.9407
276.0400, 446.0507
276.5221, 448.6519
277.0042, 446.7118
277.4863, 440.2469
277.9684, 429.0786
278.4506, 415.6112
278.9327, 399.5446
279.4148, 381.8498
279.8969, 363.9845
280.3790, 345.7085
280.8611, 328.9729
281.3433, 315.1341
281.8254, 304.1252
282.3075, 293.3838
282.7896, 282.5089
283.2717, 272.4327
283.7538, 264.8130
284.2360, 259.7032
284.7181, 255.6459
285.2002, 252.3460
285.6823, 249.7033
286.1644, 246.7910
286.6465, 243.6034
287.1287, 240.2645
287.6108, 236.8048
288.0929, 233.2458
288.5750, 230.0405
289.0571, 227.6749
289.5392, 225.7941
290.0214, 222.7972
290.5035, 218.5636
290.9856, 214.3223
291.4677, 211.4748
291.9498, 209.8339
292.4319, 208.3339
292.9141, 206.6994
293.3962, 204.9549
293.8783, 203.0293
294.3604, 200.9270
294.8425, 199.0466
295.3246, 197.8477
295.8068, 197.1595
296.2889, 196.3846
296.7710, 195.2096
297.2531, 194.0716
297.7352, 193.8373
298.2173, 194.4251
298.6995, 195.1429
299.1816, 195.4623
299.6637, 195.5491
300.1458, 195.7047
300.6279, 195.9216
301.1100, 196.3560
301.5922, 197.1824
302.0743, 198.3843
302.5564, 199.8957
303.0385, 202.1213
303.5206, 204.4901
304.0027, 206.0837
304.4849, 206.6017
304.9670, 207.0247
305.4491, 208.3534
305.9312, 210.3098
306.4133, 212.2284
306.8954, 213.6891
307.3776, 215.0050
307.8597, 216.5522
308.3418, 218.4074
308.8239, 220.0767
309.3060, 220.7869
309.7881, 221.1499
310.2703, 222.1038
310.7524, 224.5208
311.2345, 227.3174
311.7166, 229.8874
312.1987, 232.2025
312.6808, 234.0143
313.1630, 234.5998
313.6451, 234.8411
314.1272, 235.6987
314.6093, 238.2498
315.0914, 240.7500
315.5735, 242.0744
316.0557, 242.4632
316.5378, 243.1984
317.0199, 245.1092
317.5020, 247.4024
317.9841, 249.4989
318.4662, 250.8660
318.9484, 252.5674
319.4305, 255.1472
319.9126, 258.3448
320.3947, 261.4747
320.8768, 263.7393
321.3589, 266.3410
321.8411, 269.9937
322.3232, 275.1912
322.8053, 280.3481
323.2874, 284.9753
323.7695, 289.4101
324.2516, 294.1867
324.7338, 300.0802
325.2159, 305.6871
325.6980, 310.5790
326.1801, 314.6859
326.6622, 318.3569
327.1443, 322.3909
327.6265, 325.7022
328.1086, 327.1953
328.5907, 326.4289
329.0728, 324.3128
329.5549, 320.5870
330.0370, 315.2164
330.5192, 310.0367
331.0013, 305.0898
331.4834, 300.2623
331.9655, 295.3785
332.4476, 289.9877
332.9297, 285.2786
333.4119, 281.3022
333.8940, 278.0868
334.3761, 275.8637
334.8582, 274.7780
335.3403, 274.5094
335.8224, 275.0281
336.3046, 276.6551
336.7867, 278.0762
337.2688, 279.1172
337.7509, 280.0565
338.2330, 281.4697
338.7151, 283.3690
339.1973, 285.6728
339.6794, 288.3362
340.1615, 291.3250
340.6436, 294.9719
341.1257, 299.3140
341.6078, 304.1586
342.0899, 309.2732
342.5721, 314.5608
343.0542, 320.3193
343.5363, 326.7084
344.0184, 333.5715
344.5005, 340.3686
344.9826, 347.0209
345.4648, 353.7948
345.9469, 361.0632
346.4290, 368.7896
346.9111, 375.8345
347.3932, 381.8375
347.8753, 387.3264
348.3575, 392.9984
348.8396, 398.8401
349.3217, 405.1168
349.8038, 411.4355
350.2859, 418.2850
350.7680, 426.9192
351.2502, 437.5638
351.7323, 449.6672
352.2144, 462.3480
352.6965, 475.9725
353.1786, 491.2841
353.6607, 509.4083
354.1429, 529.1046
354.6250, 548.4404
355.1071, 567.2828
355.5892, 587.7230
356.0713, 611.8579
356.5534, 638.5394
357.0356, 666.0735
357.5177, 693.8224
357.9998, 722.3781
358.4819, 750.6700
358.9640, 779.2536
359.4461, 810.6378
359.9283, 847.1035
360.4104, 886.4128
360.8925, 926.6947
361.3746, 967.2571
361.8567, 1009.196
362.3388, 1052.843
362.8210, 1097.994
363.3031, 1145.195
363.7852, 1195.013
364.2673, 1246.522
364.7494, 1299.866
365.2315, 1355.953
365.7137, 1410.741
366.1958, 1462.681
366.6779, 1512.595
367.1600, 1561.919
367.6421, 1610.053
368.1242, 1658.368
368.6064, 1707.100
369.0885, 1756.444
369.5706, 1806.065
370.0527, 1859.509
370.5348, 1910.799
371.0169, 1957.190
371.4991, 2001.607
371.9812, 2035.907
372.4633, 2062.948
372.9454, 2079.428
373.4275, 2073.521
373.9096, 2043.145
374.3918, 1993.740
374.8739, 1927.388
375.3560, 1841.539
375.8381, 1746.077
376.3202, 1638.616
376.8023, 1526.056
377.2845, 1417.768
377.7666, 1314.194
378.2487, 1216.922
378.7308, 1128.553
379.2129, 1047.730
379.6950, 973.5950
380.1772, 905.3932
380.6593, 844.5137
381.1414, 792.3815
381.6235, 748.9209
382.1056, 709.1982
382.5877, 672.8682
383.0699, 639.4599
383.5520, 608.0734
384.0341, 578.5259
384.5162, 551.8640
384.9983, 528.9899
385.4804, 509.1822
385.9626, 490.6530
386.4447, 473.1848
386.9268, 457.2063
387.4089, 443.5965
387.8910, 431.7594
388.3731, 420.6763
388.8553, 409.9006
389.3374, 399.6145
389.8195, 390.1106
390.3016, 381.4958
390.7837, 373.4506
391.2658, 365.7674
391.7480, 358.6789
392.2301, 352.4525
392.7122, 347.4489
393.1943, 342.9357
393.6764, 338.6441
394.1585, 334.6042
394.6407, 330.9758
395.1228, 327.6938
395.6049, 324.9036
396.0870, 322.7583
396.5691, 321.5191
397.0512, 320.1802
397.5334, 318.2085
398.0155, 316.1367
398.4976, 314.6554
398.9797, 314.1976
399.4618, 313.9245
399.9439, 313.8087
400.4261, 313.8442
400.9082, 313.5309
401.3903, 312.6025
401.8724, 311.5686
402.3545, 310.7091
402.8366, 309.9101
403.3188, 309.5709
403.8009, 309.8626
404.2830, 310.5620
404.7651, 310.9836
405.2472, 310.8262
405.7293, 311.2495
406.2115, 312.9585
406.6936, 315.9879
407.1757, 318.4080
407.6578, 319.9778
408.1399, 321.6164
408.6220, 324.5491
409.1042, 328.7506
409.5863, 333.0534
410.0684, 337.2779
410.5505, 341.3013
411.0326, 345.4216
411.5147, 349.6088
411.9969, 352.5491
412.4790, 353.6790
412.9611, 352.8749
413.4432, 349.8690
413.9253, 344.5972
414.4074, 337.1303
414.8896, 326.5440
415.3717, 313.7679
415.8538, 301.0307
416.3359, 289.2992
416.8180, 278.2342
417.3001, 267.6506
417.7823, 257.4224
418.2644, 248.0483
418.7465, 239.5307
419.2286, 231.8810
419.7107, 225.2342
420.1928, 219.9043
420.6750, 215.0670
421.1571, 210.3824
421.6392, 205.9189
422.1213, 201.9818
422.6034, 198.9890
423.0855, 196.2579
423.5677, 193.4426
424.0498, 190.4154
424.5319, 187.7568
425.0140, 185.5404
425.4961, 183.6840
425.9782, 182.0979
426.4604, 180.8044
426.9425, 179.7712
427.4246, 179.1581
427.9067, 178.8582
428.3888, 178.0431
428.8709, 176.2218
429.3531, 174.7534
429.8352, 174.6372
430.3173, 176.3117
430.7994, 177.0306
431.2815, 176.5081
431.7636, 175.3503
432.2458, 174.3760
432.7279, 173.5656
433.2100, 173.2730
433.6921, 173.9643
434.1742, 175.2160
434.6563, 175.2679
435.1385, 174.0829
435.6206, 172.8359
436.1027, 172.6061
436.5848, 173.1035
437.0669, 173.5625
437.5490, 173.8621
438.0312, 174.0314
438.5133, 173.9426
438.9954, 173.7326
439.4775, 173.7786
439.9596, 174.8836
440.4417, 175.9498
440.9239, 175.7580
441.4060, 174.2393
441.8881, 172.8107
442.3702, 172.1850
442.8523, 172.0998
443.3344, 172.3126
443.8166, 173.2136
444.2987, 173.8667
444.7808, 173.6445
445.2629, 172.9079
445.7450, 172.7171
446.2271, 173.4056
446.7093, 174.5749
447.1914, 176.2166
447.6735, 178.6141
448.1556, 180.5292
448.6377, 181.7723
449.1198, 182.6427
449.6020, 183.3839
450.0841, 183.7617
450.5662, 184.5266
451.0483, 186.1104
451.5304, 188.1595
452.0125, 188.8639
452.4947, 187.7910
452.9768, 186.7273
453.4589, 186.8027
453.9410, 188.0540
454.4231, 188.9163
454.9052, 189.3320
455.3874, 189.4594
455.8695, 189.4484
456.3516, 189.3100
456.8337, 189.1413
457.3158, 189.0134
457.7979, 188.8379
458.2801, 188.2637
458.7622, 187.3834
459.2443, 186.8346
459.7264, 187.5201
460.2085, 188.6269
460.6906, 189.0495
461.1728, 188.5542
461.6549, 187.7463
462.1370, 186.6523
462.6191, 185.6166
463.1012, 185.1733
463.5833, 185.9624
464.0655, 186.9703
464.5476, 187.8463
465.0297, 188.5705
465.5118, 189.1203
465.9939, 189.3616
466.4760, 189.5019
466.9582, 189.6412
467.4403, 189.7310
467.9224, 189.9135
468.4045, 189.9798
468.8866, 190.2221
469.3687, 191.1444
469.8509, 193.2535
470.3330, 195.0730
470.8151, 196.0944
471.2972, 196.4463
471.7793, 197.5459
472.2614, 199.6239
472.7436, 201.8574
473.2257, 203.6815
473.7078, 205.0973
474.1899, 206.5577
474.6720, 208.2032
475.1541, 209.6378
475.6363, 210.1702
476.1184, 209.9005
476.6005, 209.4946
477.0826, 209.5415
477.5647, 209.4178
478.0468, 207.7909
478.5290, 204.8053
479.0111, 201.7727
479.4932, 199.5453
479.9753, 197.8215
480.4574, 196.2882
480.9395, 194.9350
481.4217, 193.6049
481.9038, 191.9066
482.3859, 190.2561
482.8680, 189.2936
483.3501, 189.9236
483.8322, 190.6002
484.3144, 190.6564
484.7965, 190.1338
485.2786, 189.8925
485.7607, 190.0877
486.2428, 190.5745
486.7249, 191.3089
487.2071, 192.4664
487.6892, 193.4486
488.1713, 194.0184
488.6534, 194.5801
489.1355, 195.7737
489.6176, 197.7938
490.0998, 199.9303
490.5819, 202.1034
491.0640, 204.2890
491.5461, 206.2813
492.0282, 208.0820
492.5103, 209.7905
492.9925, 211.4406
493.4746, 213.0562
493.9567, 214.6359
494.4388, 216.2084
494.9209, 217.7063
495.4030, 219.1306
495.8852, 220.4300
496.3673, 221.4980
496.8494, 221.9819
497.3315, 222.4937
497.8136, 223.9701
498.2957, 226.1069
498.7779, 227.6010
499.2600, 226.8116
499.7421, 225.8152
500.2242, 226.1862
500.7063, 228.4174
501.1884, 230.6717
501.6706, 231.9966
502.1527, 233.2445
502.6348, 235.2570
503.1169, 239.7160
503.5990, 243.0411
504.0811, 244.0927
504.5633, 243.6404
505.0454, 244.7391
505.5275, 248.5546
506.0096, 251.8855
506.4917, 253.3882
506.9738, 252.9486
507.4560, 252.2931
507.9381, 251.6022
508.4202, 250.2091
508.9023, 247.1144
509.3844, 242.4176
509.8665, 237.8421
510.3487, 233.7035
510.8308, 229.8354
511.3129, 226.0230
511.7950, 222.2567
512.2772, 218.4867
512.7593, 214.2114
513.2414, 210.1790
513.7235, 207.3322
514.2056, 205.6586
514.6877, 204.4482
515.1699, 203.4508
515.6520, 202.6004
516.1341, 201.8894
516.6162, 201.5612
517.0983, 200.8791
517.5804, 199.1093
518.0626, 196.9215
518.5447, 195.4149
519.0268, 195.2792
519.5089, 195.2924
519.9910, 195.1154
520.4731, 194.7807
520.9553, 194.8802
521.4374, 195.6728
521.9195, 196.5124
522.4016, 196.9983
522.8837, 197.0213
523.3658, 197.2685
523.8480, 197.7897
524.3301, 198.4514
524.8122, 199.0626
525.2943, 199.6302
525.7764, 200.2154
526.2585, 200.5899
526.7407, 201.2784
527.2228, 203.4247
527.7049, 206.8801
528.1870, 210.6813
528.6691, 214.3855
529.1512, 218.0896
529.6334, 221.6784
530.1155, 225.1475
530.5976, 229.3909
531.0797, 235.5587
531.5618, 242.5322
532.0439, 249.1036
532.5261, 254.4978
533.0082, 260.2498
533.4903, 266.7150
533.9724, 273.8431
534.4545, 281.6947
534.9366, 289.8948
535.4188, 299.1790
535.9009, 309.5178
536.3830, 320.9260
536.8651, 334.1465
537.3472, 349.3663
537.8293, 365.9675
538.3115, 383.2992
538.7936, 401.2192
539.2757, 420.9120
539.7578, 442.4124
540.2399, 465.3664
540.7220, 489.9807
541.2042, 515.8427
541.6863, 542.3827
542.1684, 570.1224
542.6505, 597.9897
543.1326, 626.4900
543.6147, 654.3807
544.0969, 677.5745
544.5790, 696.3636
545.0611, 707.0387
545.5432, 705.9138
546.0253, 692.5717
546.5074, 671.1777
546.9896, 641.0903
547.4717, 605.1267
547.9538, 565.4084
548.4359, 516.9512
548.9180, 472.0064
549.4001, 430.8279
549.8823, 393.5792
550.3644, 360.7787
550.8465, 332.5168
551.3286, 307.9625
551.8107, 287.1299
552.2928, 269.7964
552.7750, 255.1695
553.2571, 243.3320
553.7392, 233.3645
554.2213, 225.0555
554.7034, 218.2702
555.1855, 211.6894
555.6677, 205.1745
556.1498, 199.4112
556.6319, 195.3777
557.1140, 192.6488
557.5961, 190.4476
558.0782, 188.7220
558.5604, 187.1561
559.0425, 185.4283
559.5246, 183.6760
560.0067, 182.2190
560.4888, 181.1178
560.9709, 180.4199
561.4531, 180.2434
561.9352, 180.5834
562.4173, 181.0368
562.8994, 181.9541
563.3815, 182.6389
563.8636, 182.6787
564.3458, 181.6941
564.8279, 181.1221
565.3100, 181.1353
565.7921, 181.3379
566.2742, 181.1816
566.7563, 180.6182
567.2385, 180.1902
567.7206, 180.0658
568.2027, 180.0795
568.6848, 179.8885
569.1669, 179.5068
569.6490, 179.0558
570.1312, 178.5247
570.6133, 177.9920
571.0954, 177.6497
571.5775, 177.4766
572.0596, 177.1765
572.5417, 176.4054
573.0239, 175.5067
573.5060, 174.8267
573.9881, 174.5540
574.4702, 174.1297
574.9523, 173.2616
575.4344, 172.1903
575.9166, 171.2367
576.3987, 170.8043
576.8808, 169.9468
577.3629, 168.3095
577.8450, 166.1960
578.3271, 164.5619
578.8093, 163.4392
579.2914, 162.7200
579.7735, 162.5524
580.2556, 162.8197
580.7377, 162.5897
581.2198, 161.8405
581.7020, 160.7979
582.1841, 159.2538
582.6662, 157.5959
583.1483, 156.9774
583.6304, 157.7671
584.1125, 158.4469
584.5947, 157.1159
585.0768, 154.9637
585.5589, 153.7456
586.0410, 154.9703
586.5231, 156.2276
587.0052, 156.7165
587.4873, 156.4886
587.9694, 155.6775
588.4515, 153.5217
588.9337, 151.6054
589.4158, 150.5083
589.8979, 150.2372
590.3800, 149.5735
590.8621, 148.3002
591.3442, 147.0096
591.8264, 146.0931
592.3085, 145.5639
592.7906, 145.0748
593.2727, 144.6004
593.7548, 144.2005
594.2369, 144.0456
594.7191, 144.0392
595.2012, 143.7644
595.6833, 142.9478
596.1654, 142.1607
