##NAMES=Grossular
##RRUFFID=R070551
##IDEAL CHEMISTRY=Ca_3_Al_2_(SiO_4_)_3_
##LOCALITY=Mali
##OWNER=RRUFF
##SOURCE=www.multicolour.com
##DESCRIPTION=Green gem fragments
##STATUS=The identification of this mineral has been confirmed by X-ray diffraction and chemical analysis
##URL=rruff.info/R070551
##MEASURED CHEMISTRY=(Ca_2.95_Mg_0.04_Mn_0.01_)_Σ=3_(Al_1.63_Fe^3+^_0.37_)_Σ=2_(Si_1.00_O_4_)_3_
156.8680, 1704.543
157.3501, 1715.743
157.8322, 1721.012
158.3143, 1728.421
158.7965, 1738.244
159.2786, 1751.286
159.7607, 1774.231
160.2428, 1814.457
160.7249, 1864.105
161.2070, 1915.018
161.6892, 1975.912
162.1713, 2028.960
162.6534, 2056.751
163.1355, 2055.980
163.6176, 2061.101
164.0997, 2102.594
164.5819, 2163.884
165.0640, 2216.166
165.5461, 2244.776
166.0282, 2259.051
166.5103, 2264.072
166.9924, 2254.977
167.4746, 2251.025
167.9567, 2268.872
168.4388, 2305.250
168.9209, 2349.505
169.4030, 2401.191
169.8851, 2455.056
170.3673, 2504.026
170.8494, 2542.422
171.3315, 2579.466
171.8136, 2622.115
172.2957, 2670.911
172.7778, 2729.889
173.2600, 2801.941
173.7421, 2886.358
174.2242, 2981.718
174.7063, 3076.070
175.1884, 3183.066
175.6706, 3315.571
176.1527, 3469.513
176.6348, 3674.690
177.1169, 3922.141
177.5990, 4233.459
178.0811, 4688.036
178.5633, 5516.892
179.0454, 6527.309
179.5275, 7233.265
180.0096, 7626.673
180.4917, 7661.338
180.9738, 7110.871
181.4560, 6024.686
181.9381, 4906.022
182.4202, 4064.369
182.9023, 3474.470
183.3844, 3024.805
183.8665, 2719.721
184.3487, 2526.732
184.8308, 2399.105
185.3129, 2340.407
185.7950, 2306.632
186.2771, 2259.821
186.7592, 2202.546
187.2414, 2160.520
187.7235, 2146.628
188.2056, 2153.595
188.6877, 2151.265
189.1698, 2138.352
189.6519, 2121.575
190.1341, 2109.245
190.6162, 2101.616
191.0983, 2091.896
191.5804, 2072.475
192.0625, 2044.565
192.5446, 2034.762
193.0268, 2047.268
193.5089, 2070.472
193.9910, 2085.202
194.4731, 2090.448
194.9552, 2094.639
195.4373, 2103.211
195.9195, 2116.664
196.4016, 2125.909
196.8837, 2130.226
197.3658, 2130.190
197.8479, 2126.523
198.3300, 2118.460
198.8122, 2109.793
199.2943, 2103.430
199.7764, 2099.864
200.2585, 2095.299
200.7406, 2088.716
201.2227, 2080.646
201.7049, 2073.693
202.1870, 2067.012
202.6691, 2063.134
203.1512, 2065.578
203.6333, 2076.210
204.1154, 2085.174
204.5976, 2089.139
205.0797, 2088.129
205.5618, 2092.563
206.0439, 2106.079
206.5260, 2119.631
207.0081, 2119.005
207.4903, 2097.073
207.9724, 2081.519
208.4545, 2082.977
208.9366, 2104.780
209.4187, 2121.808
209.9008, 2133.015
210.3830, 2140.171
210.8651, 2145.792
211.3472, 2148.337
211.8293, 2152.795
212.3114, 2162.060
212.7935, 2178.636
213.2757, 2192.132
213.7578, 2201.071
214.2399, 2207.365
214.7220, 2216.260
215.2041, 2228.483
215.6862, 2242.273
216.1684, 2256.793
216.6505, 2272.805
217.1326, 2288.182
217.6147, 2302.893
218.0968, 2316.998
218.5789, 2328.377
219.0611, 2331.147
219.5432, 2339.343
220.0253, 2365.190
220.5074, 2417.164
220.9895, 2467.219
221.4716, 2509.386
221.9538, 2543.941
222.4359, 2585.408
222.9180, 2638.622
223.4001, 2693.245
223.8822, 2736.624
224.3643, 2759.076
224.8465, 2789.533
225.3286, 2833.996
225.8107, 2893.036
226.2928, 2961.083
226.7749, 3040.454
227.2570, 3127.088
227.7392, 3212.877
228.2213, 3289.094
228.7034, 3379.844
229.1855, 3493.860
229.6676, 3637.620
230.1497, 3779.587
230.6319, 3917.006
231.1140, 4056.527
231.5961, 4210.755
232.0782, 4380.370
232.5603, 4562.825
233.0424, 4757.189
233.5246, 4955.774
234.0067, 5185.595
234.4888, 5460.795
234.9709, 5764.475
235.4530, 6058.109
235.9352, 6361.633
236.4173, 6624.967
236.8994, 6829.366
237.3815, 6978.302
237.8636, 7053.532
238.3457, 7031.583
238.8279, 6933.987
239.3100, 6844.301
239.7921, 6749.440
240.2742, 6679.893
240.7563, 6643.631
241.2384, 6597.734
241.7206, 6676.368
242.2027, 6905.649
242.6848, 7273.113
243.1669, 7716.329
243.6490, 8296.817
244.1311, 8877.470
244.6133, 9394.037
245.0954, 9981.415
245.5775, 10218.47
246.0596, 9985.691
246.5417, 9301.946
247.0238, 8530.727
247.5060, 7593.794
247.9881, 6657.510
248.4702, 5869.960
248.9523, 5258.386
249.4344, 4755.137
249.9165, 4358.731
250.3987, 4073.727
250.8808, 3837.447
251.3629, 3655.185
251.8450, 3512.915
252.3271, 3399.506
252.8092, 3321.531
253.2914, 3255.817
253.7735, 3197.548
254.2556, 3146.758
254.7377, 3104.707
255.2198, 3071.548
255.7020, 3047.515
256.1841, 3032.816
256.6662, 3026.737
257.1483, 3032.264
257.6304, 3052.572
258.1125, 3090.751
258.5946, 3126.021
259.0768, 3156.455
259.5589, 3186.506
260.0410, 3226.201
260.5231, 3280.696
261.0052, 3330.695
261.4873, 3365.656
261.9695, 3381.006
262.4516, 3407.180
262.9337, 3447.304
263.4158, 3495.429
263.8979, 3538.317
264.3800, 3573.744
264.8622, 3611.492
265.3443, 3656.314
265.8264, 3710.141
266.3085, 3762.682
266.7906, 3810.437
267.2727, 3860.144
267.7549, 3927.955
268.2370, 4018.209
268.7191, 4110.942
269.2012, 4190.662
269.6833, 4251.572
270.1655, 4338.732
270.6476, 4448.741
271.1297, 4590.075
271.6118, 4779.033
272.0939, 5016.150
272.5760, 5298.387
273.0582, 5619.513
273.5403, 5976.395
274.0224, 6419.185
274.5045, 6994.156
274.9866, 7612.023
275.4688, 8074.848
275.9509, 8393.966
276.4330, 8493.374
276.9151, 8259.156
277.3972, 7691.145
277.8793, 7101.180
278.3615, 6499.715
278.8436, 5923.690
279.3257, 5452.785
279.8078, 5090.358
280.2899, 4801.068
280.7720, 4567.621
281.2542, 4388.944
281.7363, 4254.628
282.2184, 4173.563
282.7005, 4126.248
283.1826, 4062.681
283.6647, 3981.751
284.1469, 3905.868
284.6290, 3856.922
285.1111, 3830.909
285.5932, 3805.729
286.0753, 3779.872
286.5574, 3749.952
287.0396, 3707.461
287.5217, 3652.723
288.0038, 3592.818
288.4859, 3531.851
288.9680, 3469.868
289.4501, 3407.881
289.9323, 3343.210
290.4144, 3280.396
290.8965, 3229.692
291.3786, 3190.906
291.8607, 3157.169
292.3428, 3128.131
292.8250, 3100.487
293.3071, 3062.983
293.7892, 3005.300
294.2713, 2944.218
294.7534, 2906.170
295.2355, 2890.078
295.7177, 2878.033
296.1998, 2852.996
296.6819, 2822.439
297.1640, 2801.047
297.6461, 2794.133
298.1282, 2797.415
298.6104, 2809.052
299.0925, 2828.358
299.5746, 2847.791
300.0567, 2859.264
300.5388, 2868.063
301.0209, 2882.680
301.5031, 2909.933
301.9852, 2939.988
302.4673, 2959.274
302.9494, 2970.158
303.4315, 2990.211
303.9136, 3040.212
304.3958, 3102.912
304.8779, 3158.434
305.3600, 3200.886
305.8421, 3233.027
306.3242, 3249.842
306.8063, 3254.012
307.2885, 3265.025
307.7706, 3300.451
308.2527, 3345.309
308.7348, 3384.408
309.2169, 3411.090
309.6990, 3432.817
310.1812, 3449.455
310.6633, 3462.447
311.1454, 3481.053
311.6275, 3515.690
312.1096, 3554.529
312.5917, 3588.026
313.0739, 3613.072
313.5560, 3633.177
314.0381, 3644.941
314.5202, 3650.438
315.0023, 3662.792
315.4844, 3686.096
315.9666, 3717.842
316.4487, 3756.298
316.9308, 3809.237
317.4129, 3860.326
317.8950, 3900.971
318.3771, 3934.253
318.8593, 3979.661
319.3414, 4046.145
319.8235, 4122.254
320.3056, 4201.255
320.7877, 4281.658
321.2698, 4365.609
321.7520, 4448.313
322.2341, 4532.517
322.7162, 4634.017
323.1983, 4753.241
323.6804, 4889.451
324.1625, 5043.003
324.6447, 5240.886
325.1268, 5420.392
325.6089, 5592.979
326.0910, 5748.139
326.5731, 5845.222
327.0552, 5887.756
327.5374, 5867.743
328.0195, 5773.822
328.5016, 5567.966
328.9837, 5366.279
329.4658, 5168.824
329.9479, 4980.524
330.4301, 4810.277
330.9122, 4656.772
331.3943, 4526.510
331.8764, 4421.702
332.3585, 4342.084
332.8406, 4290.825
333.3228, 4275.903
333.8049, 4284.625
334.2870, 4275.539
334.7691, 4235.540
335.2512, 4219.250
335.7333, 4273.587
336.2155, 4407.404
336.6976, 4489.551
337.1797, 4498.451
337.6618, 4470.192
338.1439, 4472.738
338.6260, 4507.397
339.1082, 4560.057
339.5903, 4626.606
340.0724, 4705.885
340.5545, 4796.227
341.0366, 4899.452
341.5187, 5006.750
342.0009, 5105.441
342.4830, 5195.073
342.9651, 5275.197
343.4472, 5354.406
343.9293, 5422.980
344.4114, 5445.313
344.8936, 5412.543
345.3757, 5365.902
345.8578, 5345.223
346.3399, 5349.318
346.8220, 5372.606
347.3041, 5414.265
347.7863, 5472.885
348.2684, 5545.101
348.7505, 5630.433
349.2326, 5732.301
349.7147, 5847.780
350.1968, 5983.093
350.6790, 6145.983
351.1611, 6355.513
351.6432, 6585.688
352.1253, 6811.796
352.6074, 7032.284
353.0895, 7264.879
353.5717, 7515.492
354.0538, 7787.980
354.5359, 8089.884
355.0180, 8410.252
355.5001, 8768.160
355.9822, 9177.233
356.4644, 9637.173
356.9465, 10125.74
357.4286, 10620.95
357.9107, 11146.63
358.3928, 11726.84
358.8749, 12368.31
359.3571, 13056.89
359.8392, 13780.00
360.3213, 14543.81
360.8034, 15375.22
361.2855, 16274.75
361.7676, 17252.68
362.2498, 18315.64
362.7319, 19467.21
363.2140, 20701.40
363.6961, 22088.46
364.1782, 23583.63
364.6603, 24995.96
365.1425, 26375.67
365.6246, 27627.39
366.1067, 28707.93
366.5888, 29595.39
367.0709, 30322.38
367.5530, 30813.08
368.0352, 31158.72
368.5173, 31609.44
368.9994, 32110.32
369.4815, 32818.88
369.9636, 33794.93
370.4457, 35043.37
370.9279, 36595.93
371.4100, 38499.25
371.8921, 40631.14
372.3742, 42796.95
372.8563, 45090.14
373.3384, 47039.74
373.8206, 48518.80
374.3027, 49537.66
374.7848, 49736.36
375.2669, 49084.87
375.7490, 47698.87
376.2311, 45537.73
376.7133, 42650.71
377.1954, 39572.64
377.6775, 36407.19
378.1596, 33221.52
378.6417, 30324.31
379.1238, 27718.96
379.6060, 25374.30
380.0881, 23256.41
380.5702, 21360.49
381.0523, 19650.93
381.5344, 18117.84
382.0165, 16743.89
382.4987, 15557.35
382.9808, 14545.89
383.4629, 13524.54
383.9450, 12151.50
384.4271, 10738.89
384.9092, 9751.843
385.3914, 9559.343
385.8735, 9554.300
386.3556, 9346.632
386.8377, 8971.876
387.3198, 8576.888
387.8019, 8206.959
388.2841, 7861.247
388.7662, 7542.226
389.2483, 7244.559
389.7304, 6983.104
390.2125, 6779.878
390.6946, 6617.218
391.1768, 6453.833
391.6589, 6257.435
392.1410, 6071.561
392.6231, 5915.532
393.1053, 5797.436
393.5874, 5693.725
394.0695, 5606.116
394.5516, 5530.222
395.0337, 5459.591
395.5158, 5388.326
395.9980, 5327.929
396.4801, 5283.946
396.9622, 5260.286
397.4443, 5231.480
397.9264, 5194.706
398.4085, 5155.361
398.8907, 5120.567
399.3728, 5094.619
399.8549, 5062.085
400.3370, 5014.785
400.8191, 4955.657
401.3012, 4915.865
401.7834, 4897.674
402.2655, 4892.523
402.7476, 4896.240
403.2297, 4908.983
403.7118, 4918.838
404.1939, 4920.129
404.6761, 4920.599
405.1582, 4936.730
405.6403, 4968.495
406.1224, 5017.478
406.6045, 5089.048
407.0866, 5178.533
407.5688, 5277.555
408.0509, 5387.483
408.5330, 5500.851
409.0151, 5617.304
409.4972, 5733.289
409.9793, 5833.542
410.4615, 5937.342
410.9436, 6009.207
411.4257, 6009.124
411.9078, 5932.234
412.3899, 5795.358
412.8720, 5581.398
413.3542, 5320.081
413.8363, 5052.462
414.3184, 4776.864
414.8005, 4516.894
415.2826, 4283.617
415.7647, 4075.484
416.2469, 3894.957
416.7290, 3747.703
417.2111, 3624.371
417.6932, 3514.925
418.1753, 3427.338
418.6574, 3343.733
419.1396, 3258.170
419.6217, 3172.877
420.1038, 3104.345
420.5859, 3069.813
421.0680, 3038.391
421.5501, 2994.241
422.0323, 2921.895
422.5144, 2865.397
422.9965, 2829.424
423.4786, 2807.576
423.9607, 2786.229
424.4428, 2765.440
424.9250, 2745.201
425.4071, 2725.149
425.8892, 2705.050
426.3713, 2689.590
426.8534, 2680.573
427.3355, 2672.374
427.8177, 2655.597
428.2998, 2630.212
428.7819, 2609.215
429.2640, 2597.047
429.7461, 2592.191
430.2282, 2588.742
430.7104, 2586.450
431.1925, 2591.729
431.6746, 2616.415
432.1567, 2652.924
432.6388, 2682.318
433.1209, 2697.711
433.6031, 2707.719
434.0852, 2724.902
434.5673, 2746.004
435.0494, 2758.974
435.5315, 2746.828
436.0136, 2728.576
436.4958, 2722.264
436.9779, 2733.050
437.4600, 2748.549
437.9421, 2767.840
438.4242, 2787.050
438.9063, 2799.544
439.3885, 2802.742
439.8706, 2799.554
440.3527, 2786.225
440.8348, 2759.844
441.3169, 2747.175
441.7990, 2755.853
442.2812, 2777.763
442.7633, 2805.863
443.2454, 2839.922
443.7275, 2879.926
444.2096, 2930.425
444.6917, 2988.730
445.1739, 3033.468
445.6560, 3056.824
446.1381, 3079.618
446.6202, 3115.260
447.1023, 3167.561
447.5844, 3214.378
448.0666, 3255.025
448.5487, 3288.771
449.0308, 3310.117
449.5129, 3317.758
449.9950, 3329.807
450.4771, 3359.404
450.9593, 3401.536
451.4414, 3432.046
451.9235, 3450.580
452.4056, 3462.392
452.8877, 3475.922
453.3698, 3487.428
453.8520, 3484.674
454.3341, 3448.431
454.8162, 3409.765
455.2983, 3412.821
455.7804, 3450.384
456.2625, 3478.861
456.7447, 3458.892
457.2268, 3423.310
457.7089, 3405.087
458.1910, 3420.296
458.6731, 3433.425
459.1552, 3423.317
459.6374, 3400.652
460.1195, 3386.708
460.6016, 3388.848
461.0837, 3399.568
461.5658, 3421.752
462.0479, 3462.694
462.5301, 3482.203
463.0122, 3462.224
463.4943, 3429.080
463.9764, 3406.346
464.4585, 3399.658
464.9406, 3393.311
465.4228, 3383.255
465.9049, 3371.104
466.3870, 3368.328
466.8691, 3376.834
467.3512, 3389.598
467.8333, 3403.995
468.3155, 3420.291
468.7976, 3430.771
469.2797, 3432.494
469.7618, 3433.097
470.2439, 3447.147
470.7260, 3473.506
471.2082, 3500.178
471.6903, 3518.112
472.1724, 3533.332
472.6545, 3564.226
473.1366, 3611.654
473.6187, 3651.028
474.1009, 3660.668
474.5830, 3648.534
475.0651, 3626.437
475.5472, 3589.916
476.0293, 3553.956
476.5114, 3532.619
476.9936, 3521.549
477.4757, 3503.892
477.9578, 3467.922
478.4399, 3426.343
478.9220, 3384.885
479.4041, 3341.153
479.8863, 3305.275
480.3684, 3274.942
480.8505, 3254.163
481.3326, 3249.850
481.8147, 3283.624
482.2968, 3306.389
482.7790, 3303.438
483.2611, 3274.973
483.7432, 3260.387
484.2253, 3262.331
484.7074, 3273.750
485.1895, 3290.395
485.6717, 3312.984
486.1538, 3336.054
486.6359, 3356.177
487.1180, 3379.598
487.6001, 3423.262
488.0822, 3487.028
488.5644, 3547.715
489.0465, 3586.957
489.5286, 3613.961
490.0107, 3653.810
490.4928, 3708.026
490.9749, 3765.301
491.4571, 3818.928
491.9392, 3868.015
492.4213, 3912.319
492.9034, 3953.837
493.3855, 3987.766
493.8676, 4007.042
494.3498, 4014.012
494.8319, 4019.960
495.3140, 4036.387
495.7961, 4048.627
496.2782, 4044.730
496.7603, 4011.636
497.2425, 3990.037
497.7246, 4002.885
498.2067, 4027.091
498.6888, 4028.237
499.1709, 3986.548
499.6530, 3946.937
500.1352, 3915.591
500.6173, 3892.458
501.0994, 3885.712
501.5815, 3900.427
502.0636, 3921.992
502.5457, 3943.835
503.0279, 3967.480
503.5100, 3971.424
503.9921, 3947.104
504.4742, 3912.516
504.9563, 3906.049
505.4384, 3924.999
505.9206, 3935.982
506.4027, 3919.137
506.8848, 3883.623
507.3669, 3845.447
507.8490, 3804.891
508.3311, 3762.687
508.8133, 3717.854
509.2954, 3672.267
509.7775, 3628.319
510.2596, 3587.540
510.7417, 3548.379
511.2238, 3509.708
511.7060, 3472.123
512.1881, 3437.254
512.6702, 3410.289
513.1523, 3382.433
513.6345, 3347.912
514.1166, 3302.186
514.5987, 3264.949
515.0808, 3238.736
515.5629, 3220.208
516.0450, 3206.998
516.5272, 3202.693
517.0093, 3195.454
517.4914, 3179.571
517.9735, 3159.700
518.4556, 3156.929
518.9377, 3174.243
519.4199, 3195.090
519.9020, 3207.656
520.3841, 3213.551
520.8662, 3228.769
521.3483, 3257.005
521.8304, 3282.509
522.3126, 3276.193
522.7947, 3250.399
523.2768, 3241.819
523.7589, 3281.048
524.2410, 3330.119
524.7231, 3345.417
525.2053, 3333.163
525.6874, 3330.184
526.1695, 3352.385
526.6516, 3393.768
527.1337, 3451.722
527.6158, 3530.786
528.0980, 3614.392
528.5801, 3691.819
529.0622, 3773.198
529.5443, 3875.941
530.0264, 4011.249
530.5085, 4153.366
530.9907, 4300.108
531.4728, 4450.205
531.9549, 4602.307
532.4370, 4750.076
532.9191, 4909.837
533.4012, 5092.909
533.8834, 5297.977
534.3655, 5510.646
534.8476, 5724.710
535.3297, 5954.638
535.8118, 6222.028
536.2939, 6526.336
536.7761, 6867.709
537.2582, 7255.869
537.7403, 7679.265
538.2224, 8118.260
538.7045, 8574.534
539.1866, 9088.303
539.6688, 9723.064
540.1509, 10405.63
540.6330, 11070.58
541.1151, 11722.67
541.5972, 12311.10
542.0793, 12878.83
542.5615, 13356.89
543.0436, 13632.36
543.5257, 13732.26
544.0078, 13572.39
544.4899, 13092.59
544.9720, 12298.11
545.4542, 11398.34
545.9363, 10321.55
546.4184, 9238.014
546.9005, 8225.463
547.3826, 7275.488
547.8647, 6472.493
548.3469, 5832.786
548.8290, 5319.018
549.3111, 4868.827
549.7932, 4485.069
550.2753, 4158.412
550.7574, 3896.704
551.2396, 3684.448
551.7217, 3493.412
552.2038, 3324.178
552.6859, 3183.617
553.1680, 3089.869
553.6501, 3022.477
554.1323, 2960.827
554.6144, 2899.779
555.0965, 2846.698
555.5786, 2806.768
556.0607, 2776.512
556.5428, 2751.187
557.0250, 2730.676
557.5071, 2713.669
557.9892, 2698.323
558.4713, 2685.208
558.9534, 2681.207
559.4355, 2691.539
559.9177, 2704.141
560.3998, 2713.156
560.8819, 2718.503
561.3640, 2720.681
561.8461, 2719.184
562.3282, 2715.892
562.8104, 2713.414
563.2925, 2711.657
563.7746, 2709.070
564.2567, 2702.993
564.7388, 2697.729
565.2209, 2704.015
565.7031, 2719.555
566.1852, 2731.420
566.6673, 2723.621
567.1494, 2712.190
567.6315, 2715.949
568.1136, 2741.183
568.5958, 2760.077
569.0779, 2750.802
569.5600, 2732.275
570.0421, 2724.901
570.5242, 2758.135
571.0063, 2773.381
571.4885, 2753.141
571.9706, 2707.175
572.4527, 2670.669
572.9348, 2643.584
573.4169, 2626.358
573.8990, 2623.239
574.3812, 2635.475
574.8633, 2633.938
575.3454, 2616.486
575.8275, 2593.107
576.3096, 2572.408
576.7917, 2554.169
577.2739, 2539.171
577.7560, 2531.848
578.2381, 2518.927
578.7202, 2468.047
579.2023, 2395.339
579.6844, 2347.835
580.1666, 2379.500
580.6487, 2421.910
581.1308, 2423.563
581.6129, 2382.461
582.0950, 2344.922
582.5771, 2329.803
583.0593, 2321.972
583.5414, 2311.176
584.0235, 2294.462
584.5056, 2277.539
584.9877, 2260.448
585.4698, 2243.316
585.9520, 2226.168
586.4341, 2208.451
586.9162, 2192.725
587.3983, 2180.614
587.8804, 2170.859
588.3625, 2157.358
588.8447, 2140.033
589.3268, 2123.474
589.8089, 2112.351
590.2910, 2104.209
590.7731, 2094.045
591.2552, 2081.472
591.7374, 2066.057
592.2195, 2039.110
592.7016, 2011.613
593.1837, 1998.464
593.6658, 2019.068
594.1479, 2040.113
594.6301, 2048.146
595.1122, 2046.618
595.5943, 2047.588
596.0764, 2046.897
596.5585, 2055.164
597.0406, 2078.827
597.5228, 2120.272
598.0049, 2151.216
598.4870, 2165.314
598.9691, 2180.439
599.4512, 2217.872
599.9333, 2279.087
600.4155, 2320.338
600.8976, 2332.224
601.3797, 2334.490
601.8618, 2360.620
602.3439, 2403.938
602.8260, 2440.453
603.3082, 2452.149
603.7903, 2456.529
604.2724, 2470.891
604.7545, 2493.954
605.2366, 2516.387
605.7188, 2532.594
606.2009, 2547.625
606.6830, 2565.319
607.1651, 2587.672
607.6472, 2607.561
608.1293, 2619.720
608.6115, 2631.220
609.0936, 2650.354
609.5757, 2684.656
610.0578, 2707.117
610.5399, 2709.511
611.0220, 2701.217
611.5042, 2706.576
611.9863, 2726.095
612.4684, 2753.880
612.9505, 2793.646
613.4326, 2838.540
613.9147, 2869.106
614.3969, 2885.584
614.8790, 2902.941
615.3611, 2936.980
615.8432, 2976.212
616.3253, 3006.377
616.8074, 3020.598
617.2896, 3038.136
617.7717, 3069.872
618.2538, 3109.084
618.7359, 3146.541
619.2180, 3176.646
619.7001, 3209.791
620.1823, 3250.725
620.6644, 3296.323
621.1465, 3330.926
621.6286, 3348.708
622.1107, 3370.904
622.5928, 3413.247
623.0750, 3473.025
623.5571, 3513.835
624.0392, 3535.566
624.5213, 3537.193
625.0034, 3509.275
625.4855, 3461.386
625.9677, 3415.371
626.4498, 3378.268
626.9319, 3336.168
627.4140, 3281.950
627.8961, 3214.449
628.3782, 3132.931
628.8604, 3026.156
629.3425, 2915.801
629.8246, 2803.392
630.3067, 2690.766
630.7888, 2594.523
631.2709, 2528.421
631.7531, 2459.988
632.2352, 2370.703
632.7173, 2257.257
633.1994, 2168.674
633.6815, 2108.912
634.1636, 2061.493
634.6458, 2009.217
635.1279, 1953.612
635.6100, 1908.548
636.0921, 1878.458
636.5742, 1850.967
637.0563, 1810.653
637.5385, 1762.031
638.0206, 1715.933
638.5027, 1676.045
638.9848, 1639.980
639.4669, 1607.349
639.9490, 1577.781
640.4312, 1551.861
640.9133, 1526.164
641.3954, 1507.549
641.8775, 1502.156
642.3596, 1514.986
642.8417, 1508.785
643.3239, 1475.521
643.8060, 1437.930
644.2881, 1418.311
644.7702, 1416.850
645.2523, 1405.883
645.7344, 1379.586
646.2166, 1349.912
646.6987, 1332.118
647.1808, 1324.472
647.6629, 1322.227
648.1450, 1330.099
648.6271, 1336.511
649.1093, 1331.285
649.5914, 1316.555
650.0735, 1300.043
650.5556, 1273.059
651.0377, 1255.238
651.5198, 1261.902
652.0020, 1300.210
652.4841, 1314.580
652.9662, 1289.703
653.4483, 1259.993
