##NAMES=Grossular
##RRUFFID=R100146
##IDEAL CHEMISTRY=Ca_3_Al_2_(SiO_4_)_3_
##LOCALITY=Sri Lanka
##OWNER=RRUFF
##SOURCE=William W. Pinch
##DESCRIPTION=Red cut gemstone
##STATUS=The identification of this mineral has been confirmed only by single crystal X-ray diffraction.
##URL=rruff.info/R100146
91.03516, 26.47665
91.51727, 28.03705
91.99939, 26.70648
92.48151, 23.38630
92.96362, 20.62966
93.44574, 20.09916
93.92786, 21.01095
94.40997, 21.82351
94.89210, 22.50797
95.37421, 22.85626
95.85633, 22.33862
96.33845, 20.99435
96.82056, 19.66825
97.30268, 18.92952
97.78480, 18.73309
98.26691, 18.62551
98.74903, 18.60841
99.23115, 18.60452
99.71326, 18.26799
100.1954, 17.47104
100.6775, 16.84276
101.1596, 17.00179
101.6417, 18.13387
102.1239, 19.16575
102.6060, 19.98525
103.0881, 20.58408
103.5702, 20.67095
104.0523, 20.08637
104.5344, 19.18632
105.0166, 18.26710
105.4987, 17.10416
105.9808, 16.34301
106.4629, 16.20816
106.9450, 16.85307
107.4271, 17.44839
107.9093, 18.30138
108.3914, 19.00012
108.8735, 18.91907
109.3556, 16.89411
109.8377, 15.17267
110.3198, 14.40409
110.8020, 15.12646
111.2841, 15.77051
111.7662, 16.28086
112.2483, 16.68011
112.7304, 17.02319
113.2125, 17.68586
113.6947, 18.03633
114.1768, 17.72758
114.6589, 15.89741
115.1410, 14.48442
115.6231, 14.07492
116.1052, 14.48930
116.5874, 15.04326
117.0695, 16.11523
117.5516, 16.93125
118.0337, 16.88969
118.5158, 14.94274
118.9980, 12.89772
119.4801, 11.29713
119.9622, 10.17906
120.4443, 9.844572
120.9264, 11.36132
121.4085, 13.53129
121.8907, 14.88379
122.3728, 13.87640
122.8549, 12.40597
123.3370, 12.20425
123.8191, 13.36586
124.3012, 14.54671
124.7834, 14.50747
125.2655, 13.67609
125.7476, 12.96695
126.2297, 13.06571
126.7118, 13.47471
127.1939, 13.36049
127.6761, 12.57067
128.1582, 11.76533
128.6403, 11.96967
129.1224, 12.95497
129.6045, 13.61779
130.0867, 12.72021
130.5688, 10.91231
131.0509, 10.61274
131.5330, 12.48017
132.0151, 14.96467
132.4972, 15.00153
132.9794, 12.58578
133.4615, 10.36654
133.9436, 10.65192
134.4257, 13.20560
134.9078, 14.63710
135.3899, 14.13848
135.8721, 12.51851
136.3542, 12.19015
136.8363, 13.38544
137.3184, 14.84645
137.8005, 15.47268
138.2826, 15.12663
138.7648, 15.01793
139.2469, 15.40013
139.7290, 16.21149
140.2111, 16.97512
140.6932, 17.69219
141.1753, 18.37217
141.6575, 19.00139
142.1396, 19.55259
142.6217, 20.15241
143.1038, 20.87373
143.5859, 21.73907
144.0681, 22.31274
144.5502, 22.22723
145.0323, 22.18024
145.5144, 23.07480
145.9965, 25.69291
146.4786, 28.04119
146.9608, 29.56201
147.4429, 30.10293
147.9250, 30.56011
148.4071, 30.83951
148.8892, 31.07112
149.3713, 31.43677
149.8535, 31.87994
150.3356, 32.51915
150.8177, 33.39326
151.2998, 34.54322
151.7819, 35.84029
152.2640, 37.28698
152.7462, 38.88557
153.2283, 40.61327
153.7104, 42.65058
154.1925, 44.67067
154.6746, 46.55809
155.1567, 48.28115
155.6389, 49.86587
156.1210, 51.20684
156.6031, 52.40915
157.0852, 53.74583
157.5673, 55.13317
158.0495, 56.75734
158.5316, 58.73013
159.0137, 61.12437
159.4958, 63.77871
159.9779, 67.12135
160.4600, 70.81398
160.9422, 73.75175
161.4243, 74.46489
161.9064, 74.92893
162.3885, 76.52501
162.8706, 80.88401
163.3527, 84.93262
163.8349, 87.00130
164.3170, 87.50779
164.7991, 88.44952
165.2812, 90.82596
165.7633, 94.03429
166.2454, 97.54916
166.7276, 101.7316
167.2097, 105.6997
167.6918, 108.6815
168.1739, 110.7956
168.6560, 113.2523
169.1381, 116.6977
169.6203, 120.8540
170.1024, 124.6001
170.5845, 128.5470
171.0666, 132.6895
171.5487, 136.3917
172.0309, 139.7051
172.5130, 143.6592
172.9951, 148.9150
173.4772, 155.2537
173.9593, 162.3778
174.4414, 170.2343
174.9236, 178.7261
175.4057, 187.6163
175.8878, 196.9740
176.3699, 206.7422
176.8520, 217.6105
177.3341, 228.9696
177.8163, 239.5224
178.2984, 250.0507
178.7805, 258.9595
179.2626, 264.1857
179.7447, 265.7269
180.2268, 262.9778
180.7090, 253.8454
181.1911, 239.6142
181.6732, 224.1936
182.1553, 208.8568
182.6374, 193.6650
183.1195, 178.9601
183.6017, 164.4462
184.0838, 151.0444
184.5659, 139.1702
185.0480, 128.9254
185.5301, 120.3260
186.0123, 113.7837
186.4944, 108.9378
186.9765, 105.0574
187.4586, 102.1685
187.9407, 99.85516
188.4228, 97.55168
188.9050, 95.28324
189.3871, 93.23575
189.8692, 91.57600
190.3513, 90.25643
190.8334, 89.04462
191.3155, 87.97614
191.7977, 86.91403
192.2798, 85.53513
192.7619, 83.84054
193.2440, 82.33326
193.7261, 81.32876
194.2082, 80.79044
194.6904, 80.31302
195.1725, 79.97958
195.6546, 79.50739
196.1367, 78.05957
196.6188, 75.51344
197.1009, 73.49142
197.5831, 73.20849
198.0652, 74.65054
198.5473, 75.45613
199.0294, 75.41995
199.5115, 74.80001
199.9937, 73.93629
200.4758, 72.74986
200.9579, 71.86533
201.4400, 71.76296
201.9221, 72.50710
202.4042, 73.14118
202.8864, 73.67729
203.3685, 74.01064
203.8506, 73.79847
204.3327, 72.92512
204.8148, 71.98785
205.2969, 71.33829
205.7791, 71.02869
206.2612, 70.54442
206.7433, 69.64108
207.2254, 68.70550
207.7075, 68.91776
208.1896, 70.67460
208.6718, 72.42531
209.1539, 73.27674
209.6360, 73.03137
210.1181, 72.84734
210.6002, 72.74874
211.0823, 72.76887
211.5645, 73.03162
212.0466, 73.61248
212.5287, 74.26502
213.0108, 74.89352
213.4929, 75.54632
213.9750, 75.95985
214.4572, 75.92913
214.9393, 75.72621
215.4214, 76.31008
215.9035, 78.16837
216.3856, 79.82616
216.8678, 80.28185
217.3499, 78.95554
217.8320, 78.38647
218.3141, 78.93273
218.7962, 80.23752
219.2783, 81.13323
219.7605, 81.30525
220.2426, 81.62137
220.7247, 82.56216
221.2068, 84.30173
221.6889, 86.21570
222.1710, 88.55516
222.6532, 90.98361
223.1353, 92.18799
223.6174, 91.32066
224.0995, 90.67002
224.5816, 91.45717
225.0637, 94.27131
225.5459, 97.07244
226.0280, 99.85345
226.5101, 102.5791
226.9922, 104.9676
227.4743, 106.6647
227.9564, 108.6125
228.4386, 111.3837
228.9207, 115.3757
229.4028, 119.1026
229.8849, 122.5242
230.3670, 125.6768
230.8492, 128.7139
231.3313, 131.3670
231.8134, 134.2621
232.2955, 137.7686
232.7776, 142.0920
233.2597, 146.4250
233.7419, 150.7487
234.2240, 155.0987
234.7061, 159.4581
235.1882, 163.8724
235.6703, 168.2175
236.1524, 172.4800
236.6346, 176.6169
237.1167, 180.7722
237.5988, 185.1622
238.0809, 189.5074
238.5630, 193.2394
239.0451, 196.3309
239.5273, 198.8023
240.0094, 200.5891
240.4915, 201.4269
240.9736, 202.2335
241.4557, 202.8665
241.9378, 203.5280
242.4200, 204.5746
242.9021, 205.7680
243.3842, 207.7358
243.8663, 210.8003
244.3484, 215.2873
244.8306, 220.0046
245.3127, 225.4167
245.7948, 230.7758
246.2769, 234.9034
246.7590, 238.6352
247.2411, 239.6934
247.7233, 237.4240
248.2054, 231.9441
248.6875, 222.3758
249.1696, 207.0243
249.6517, 188.8417
250.1338, 172.5152
250.6160, 158.0814
251.0981, 145.3731
251.5802, 134.4377
252.0623, 125.1878
252.5444, 117.8445
253.0265, 112.8613
253.5087, 109.4628
253.9908, 106.7177
254.4729, 104.7309
254.9550, 103.1458
255.4371, 101.9064
255.9192, 101.0514
256.4014, 100.2900
256.8835, 99.51779
257.3656, 98.94346
257.8477, 98.81284
258.3298, 99.20689
258.8120, 99.87339
259.2941, 100.8136
259.7762, 102.0515
260.2583, 103.2110
260.7404, 104.2655
261.2225, 105.2850
261.7047, 106.3952
262.1868, 107.6754
262.6689, 108.8165
263.1510, 109.6216
263.6331, 110.1066
264.1152, 111.2706
264.5974, 113.3583
265.0795, 115.7377
265.5616, 117.6787
266.0437, 118.9766
266.5258, 120.6223
267.0079, 122.8474
267.4901, 125.6121
267.9722, 128.4068
268.4543, 131.3259
268.9364, 134.1528
269.4185, 136.5691
269.9006, 138.3418
270.3828, 140.7380
270.8649, 144.0915
271.3470, 148.2161
271.8291, 152.1744
272.3112, 155.7783
272.7933, 159.8286
273.2755, 165.1028
273.7576, 171.8425
274.2397, 178.0524
274.7218, 183.2063
275.2039, 187.7953
275.6860, 193.6721
276.1682, 201.4135
276.6503, 208.4791
277.1324, 213.4816
277.6145, 216.3723
278.0966, 217.4588
278.5787, 216.8337
279.0609, 214.3809
279.5430, 209.5806
280.0251, 202.3082
280.5072, 193.6068
280.9893, 183.3293
281.4715, 171.5748
281.9536, 161.0862
282.4357, 152.0603
282.9178, 144.1607
283.3999, 136.8127
283.8820, 129.9967
284.3642, 123.9943
284.8463, 119.0357
285.3284, 115.0561
285.8105, 111.5684
286.2926, 108.5462
286.7747, 106.0048
287.2569, 104.0733
287.7390, 102.7354
288.2211, 101.5895
288.7032, 100.5889
289.1853, 99.66747
289.6674, 98.52089
290.1496, 97.13987
290.6317, 95.57632
291.1138, 93.74643
291.5959, 91.70560
292.0780, 89.90224
292.5602, 88.54350
293.0423, 87.48470
293.5244, 86.32734
294.0065, 85.06937
294.4886, 83.90681
294.9707, 83.02813
295.4529, 82.38630
295.9350, 81.82471
296.4171, 81.27628
296.8992, 80.80045
297.3813, 80.53182
297.8634, 80.46046
298.3456, 80.46837
298.8277, 80.49556
299.3098, 80.53513
299.7919, 80.53889
300.2740, 80.41893
300.7561, 80.40069
301.2383, 80.78433
301.7204, 81.53577
302.2025, 82.48027
302.6846, 83.81770
303.1667, 85.19530
303.6488, 86.00391
304.1310, 85.98539
304.6131, 85.88517
305.0952, 86.49529
305.5773, 87.62329
306.0594, 88.74458
306.5415, 89.36744
307.0237, 89.95470
307.5058, 91.15775
307.9879, 93.13306
308.4700, 95.00063
308.9521, 95.82472
309.4343, 96.11185
309.9164, 96.77305
310.3985, 98.71337
310.8806, 100.8360
311.3627, 102.1178
311.8448, 102.5136
312.3270, 103.1686
312.8091, 105.1519
313.2912, 107.6604
313.7733, 109.7456
314.2554, 110.8541
314.7375, 111.6433
315.2197, 112.4554
315.7018, 113.2741
316.1839, 113.8695
316.6660, 114.0475
317.1481, 114.0077
317.6302, 113.9278
318.1124, 114.1538
318.5945, 113.9727
319.0766, 112.6585
319.5587, 110.6277
320.0408, 109.3031
320.5229, 109.7921
321.0051, 110.6450
321.4872, 110.9908
321.9693, 110.1518
322.4514, 109.8219
322.9335, 110.6564
323.4156, 112.2038
323.8978, 113.5937
324.3799, 114.0664
324.8620, 114.8880
325.3441, 116.6504
325.8262, 119.7771
326.3083, 122.5801
326.7905, 124.9068
327.2726, 126.8590
327.7547, 128.5329
328.2368, 129.7705
328.7189, 130.9178
329.2010, 132.1284
329.6832, 133.4402
330.1653, 134.2911
330.6474, 134.6340
331.1295, 134.5494
331.6116, 134.0678
332.0938, 132.8369
332.5759, 131.7880
333.0580, 131.2793
333.5401, 131.1472
334.0222, 130.0727
334.5043, 127.1601
334.9865, 124.5253
335.4686, 123.5342
335.9507, 124.8778
336.4328, 125.9714
336.9149, 126.5469
337.3970, 126.8645
337.8792, 127.5706
338.3613, 128.7032
338.8434, 130.1393
339.3255, 131.9054
339.8076, 134.0641
340.2898, 136.0959
340.7719, 137.9332
341.2540, 139.7928
341.7361, 142.0788
342.2182, 144.7844
342.7003, 147.6029
343.1825, 150.3211
343.6646, 153.0316
344.1467, 156.1244
344.6288, 159.6067
345.1109, 163.5645
345.5930, 168.2454
346.0752, 173.5579
346.5573, 179.1721
347.0394, 185.1090
347.5215, 191.2481
348.0036, 197.4276
348.4857, 203.6273
348.9679, 210.0647
349.4500, 216.9180
349.9321, 224.2065
350.4142, 231.9313
350.8963, 240.1278
351.3784, 248.7443
351.8606, 257.2093
352.3427, 265.7658
352.8248, 275.5461
353.3069, 287.3145
353.7890, 300.5190
354.2711, 314.6572
354.7533, 329.6362
355.2354, 345.4898
355.7175, 361.6943
356.1996, 378.6990
356.6817, 397.2883
357.1638, 417.8475
357.6460, 440.0525
358.1281, 464.3763
358.6102, 490.5711
359.0923, 517.2171
359.5744, 542.7794
360.0565, 568.4575
360.5387, 595.3943
361.0208, 623.8047
361.5029, 653.7807
361.9850, 684.6003
362.4671, 716.7546
362.9492, 751.4082
363.4314, 789.2851
363.9135, 829.5361
364.3956, 871.8087
364.8777, 916.5242
365.3598, 962.5911
365.8419, 1010.990
366.3241, 1060.332
366.8062, 1108.221
367.2883, 1155.208
367.7704, 1199.868
368.2526, 1241.988
368.7347, 1281.796
369.2168, 1318.260
369.6989, 1351.161
370.1810, 1381.075
370.6631, 1408.835
371.1453, 1434.889
371.6274, 1458.220
372.1095, 1479.370
372.5916, 1498.076
373.0737, 1512.764
373.5558, 1526.802
374.0380, 1532.041
374.5201, 1524.667
375.0022, 1505.468
375.4843, 1471.125
375.9664, 1420.038
376.4485, 1355.069
376.9307, 1278.234
377.4128, 1187.903
377.8949, 1095.207
378.3770, 1003.412
378.8591, 913.1498
379.3412, 829.0972
379.8234, 751.7800
380.3055, 681.3051
380.7876, 619.5883
381.2697, 565.9767
381.7518, 518.3741
382.2339, 476.5651
382.7161, 440.1957
383.1982, 408.4258
383.6803, 381.4592
384.1624, 357.3642
384.6445, 335.0171
385.1266, 314.6953
385.6088, 297.4157
386.0909, 283.8114
386.5730, 271.8700
387.0551, 259.5273
387.5372, 247.1677
388.0193, 235.6599
388.5015, 225.4691
388.9836, 216.4862
389.4657, 208.7099
389.9478, 202.1502
390.4299, 196.3912
390.9120, 191.5267
391.3942, 187.1627
391.8763, 182.8853
392.3584, 178.3681
392.8405, 174.0693
393.3226, 170.1775
393.8047, 166.6889
394.2869, 163.5860
394.7690, 161.1055
395.2511, 158.8430
395.7332, 156.4851
396.2154, 153.6502
396.6975, 151.4274
397.1796, 149.8679
397.6617, 149.0753
398.1438, 149.2178
398.6259, 151.3914
399.1081, 153.4473
399.5902, 154.7007
400.0723, 154.9963
400.5544, 155.5420
401.0365, 156.5426
401.5186, 157.6405
402.0008, 158.5412
402.4829, 159.2277
402.9650, 159.7178
403.4471, 159.7697
403.9292, 159.6285
404.4113, 160.4072
404.8935, 162.4359
405.3756, 164.6292
405.8577, 166.2841
406.3398, 167.2086
406.8219, 168.9929
407.3040, 171.8321
407.7862, 175.2046
408.2683, 178.3808
408.7504, 181.3498
409.2325, 184.5326
409.7146, 187.8991
410.1967, 191.6082
410.6789, 196.6898
411.1610, 203.1917
411.6431, 209.9165
412.1252, 215.5784
412.6073, 220.5872
413.0894, 226.2605
413.5716, 233.1181
414.0537, 239.8584
414.5358, 245.3540
415.0179, 249.4290
415.5000, 251.6956
415.9821, 252.4641
416.4643, 250.9900
416.9464, 246.3832
417.4285, 238.5396
417.9106, 228.1350
418.3927, 213.9238
418.8748, 197.9274
419.3570, 182.8073
419.8391, 169.1604
420.3212, 156.6855
420.8033, 144.9530
421.2854, 134.1401
421.7675, 124.7978
422.2497, 117.3269
422.7318, 111.1862
423.2139, 106.3244
423.6960, 103.4069
424.1781, 100.2983
424.6602, 96.39210
425.1424, 92.28519
425.6245, 88.89665
426.1066, 86.68685
426.5887, 84.66138
427.0709, 82.56589
427.5530, 80.39995
428.0351, 78.77811
428.5172, 77.86272
428.9993, 77.24378
429.4814, 76.69441
429.9636, 76.30183
430.4457, 75.58682
430.9278, 74.35613
431.4099, 72.93417
431.8920, 72.09431
432.3741, 71.89855
432.8563, 71.74870
433.3384, 71.42825
433.8205, 70.93278
434.3026, 70.13298
434.7847, 68.97075
435.2668, 67.93399
435.7490, 67.66766
436.2311, 67.97196
436.7132, 68.12749
437.1953, 67.85865
437.6774, 67.47772
438.1595, 67.39817
438.6417, 67.57573
439.1238, 67.82710
439.6059, 68.34823
440.0880, 68.73109
440.5701, 68.32395
441.0522, 66.90321
441.5344, 65.78779
442.0165, 66.09171
442.4986, 67.08368
442.9807, 67.86835
443.4628, 68.09588
443.9449, 68.11425
444.4271, 67.87375
444.9092, 67.46170
445.3913, 67.35452
445.8734, 68.06426
446.3555, 68.80666
446.8376, 69.17113
447.3198, 68.88323
447.8019, 68.69675
448.2840, 68.54366
448.7661, 68.53567
449.2482, 68.89657
449.7303, 70.13382
450.2125, 70.82919
450.6946, 70.34436
451.1767, 68.83170
451.6588, 68.68916
452.1409, 70.35649
452.6230, 72.36845
453.1052, 73.72592
453.5873, 74.41099
454.0694, 74.75111
454.5515, 74.64664
455.0337, 74.46597
455.5158, 74.98168
455.9979, 76.13754
456.4800, 77.03190
456.9621, 77.10911
457.4442, 76.71526
457.9264, 76.74011
458.4085, 77.16528
458.8906, 77.49330
459.3727, 77.10995
459.8548, 76.41279
460.3369, 76.10798
460.8191, 76.52853
461.3012, 76.93183
461.7833, 76.48596
462.2654, 75.58834
462.7475, 75.06593
463.2296, 75.65358
463.7118, 76.40086
464.1939, 76.73804
464.6760, 76.62722
465.1581, 76.60171
465.6402, 76.89957
466.1223, 77.29772
466.6045, 77.63562
467.0866, 77.71072
467.5687, 77.94572
468.0508, 78.48676
468.5329, 79.19054
469.0150, 79.73963
469.4972, 80.00540
469.9793, 80.30600
470.4614, 80.78918
470.9435, 81.47733
471.4256, 81.85844
471.9077, 81.79965
472.3899, 81.70159
472.8720, 81.82876
473.3541, 82.16418
473.8362, 83.04183
474.3183, 84.61118
474.8004, 86.58733
475.2826, 88.61814
475.7647, 90.66995
476.2468, 92.26366
476.7289, 93.12264
477.2110, 93.35746
477.6931, 92.99018
478.1753, 92.02620
478.6574, 91.17879
479.1395, 91.53242
479.6216, 92.23987
480.1037, 92.00359
480.5858, 90.21266
481.0680, 87.92038
481.5501, 85.48400
482.0322, 83.08691
482.5143, 81.13636
482.9964, 80.05945
483.4786, 79.23507
483.9607, 78.29882
484.4428, 77.20390
484.9249, 76.51284
485.4070, 76.67590
485.8892, 77.07422
486.3713, 77.26778
486.8534, 76.94029
487.3355, 76.86889
487.8176, 77.25431
488.2997, 77.84450
488.7819, 78.06736
489.2640, 77.71104
489.7461, 77.45127
490.2282, 77.41237
490.7103, 77.61452
491.1924, 78.49207
491.6746, 80.15025
492.1567, 82.06532
492.6388, 83.89233
493.1209, 85.62785
493.6030, 86.94814
494.0851, 87.70388
494.5673, 88.38832
495.0494, 89.91859
495.5315, 92.04205
496.0136, 93.79092
496.4957, 94.44962
496.9778, 94.66873
497.4600, 95.07399
497.9421, 95.68024
498.4242, 96.56837
498.9063, 98.04137
499.3884, 99.67798
499.8705, 101.0876
500.3527, 102.0024
500.8348, 103.1406
501.3169, 105.0692
501.7990, 107.2655
502.2811, 109.0060
502.7632, 109.1525
503.2454, 109.8939
503.7275, 112.0028
504.2096, 115.3230
504.6917, 118.2667
505.1738, 120.6256
505.6559, 122.8487
506.1381, 125.2134
506.6202, 127.8971
507.1023, 130.0129
507.5844, 131.5326
508.0665, 132.5394
508.5486, 133.2432
509.0308, 133.6563
509.5129, 133.1282
509.9950, 131.4159
510.4771, 128.7440
510.9592, 125.3276
511.4413, 121.2335
511.9235, 117.0039
512.4056, 112.7739
512.8877, 108.7105
513.3698, 104.8947
513.8519, 101.3121
514.3340, 98.32409
514.8162, 96.52116
515.2983, 95.34607
515.7804, 94.11974
516.2625, 92.34668
516.7446, 90.86024
517.2267, 90.10635
517.7089, 89.89817
518.1910, 89.78835
518.6731, 89.58936
519.1552, 89.56281
519.6373, 89.79813
520.1194, 90.29307
520.6016, 91.04834
521.0837, 92.34180
521.5658, 93.57478
522.0479, 94.10960
522.5300, 93.42182
523.0121, 94.10380
523.4943, 96.84167
523.9764, 100.3308
524.4585, 102.1139
524.9406, 102.1263
525.4227, 102.1141
525.9048, 102.8294
526.3870, 103.8820
526.8691, 104.3144
527.3513, 104.1476
527.8334, 103.6934
528.3155, 102.9506
528.7976, 102.1408
529.2797, 101.5268
529.7618, 101.1076
530.2440, 101.0666
530.7261, 101.2258
531.2082, 101.9388
531.6903, 103.6521
532.1724, 107.2980
532.6545, 111.1445
533.1367, 114.5171
533.6188, 117.6294
534.1009, 121.3805
534.5830, 126.3497
535.0651, 131.5192
535.5472, 136.4039
536.0294, 140.9155
536.5115, 146.1290
536.9936, 152.2321
537.4757, 158.7754
537.9578, 165.2556
538.4399, 171.5910
538.9221, 178.6431
539.4042, 186.4230
539.8863, 195.2346
540.3684, 205.8469
540.8505, 218.1796
541.3326, 231.2627
541.8148, 244.4093
542.2969, 258.1750
542.7790, 273.8454
543.2611, 291.2837
543.7432, 309.8533
544.2253, 329.3995
544.7075, 349.7121
545.1896, 370.9225
545.6717, 393.3420
546.1538, 414.9712
546.6359, 437.1608
547.1180, 457.1338
547.6002, 471.6305
548.0823, 481.6561
548.5644, 484.1407
549.0465, 478.0494
549.5286, 463.9617
550.0107, 443.4236
550.4929, 414.2669
550.9750, 381.7386
551.4571, 346.0612
551.9392, 307.0598
552.4213, 272.8050
552.9034, 243.3335
553.3856, 217.8262
553.8677, 196.1049
554.3498, 178.0351
554.8319, 162.0674
555.3140, 148.1032
555.7961, 135.9632
556.2783, 125.7001
556.7604, 117.1796
557.2425, 110.2148
557.7246, 105.2295
558.2067, 101.2350
558.6888, 97.52814
559.1710, 94.08003
559.6531, 90.83575
560.1352, 87.58484
560.6173, 84.70574
561.0994, 82.58949
561.5815, 81.34273
562.0637, 80.03329
562.5458, 78.06271
563.0279, 76.24574
563.5100, 75.16441
563.9921, 75.31129
564.4742, 75.33116
564.9564, 75.16817
565.4385, 74.88430
565.9206, 74.55975
566.4027, 74.17722
566.8848, 73.84755
567.3669, 73.59896
567.8491, 73.42916
568.3312, 73.42713
568.8133, 73.58134
569.2954, 73.57064
569.7775, 72.96245
570.2596, 72.11257
570.7418, 71.74471
571.2239, 71.91068
571.7060, 72.13223
572.1881, 72.02599
572.6702, 71.78613
573.1523, 71.60120
573.6345, 71.40371
574.1166, 71.47997
574.5987, 72.31973
575.0808, 73.42531
575.5629, 73.98083
576.0450, 73.16808
576.5272, 72.54884
577.0093, 72.45113
577.4914, 72.80679
577.9735, 73.24937
578.4556, 73.99480
578.9377, 74.37129
579.4199, 73.85826
579.9020, 72.43816
580.3841, 71.58531
580.8662, 71.36219
581.3483, 71.38059
581.8304, 71.20333
582.3126, 70.94132
582.7947, 70.99656
583.2768, 71.47713
583.7589, 72.18917
584.2410, 73.17920
584.7231, 74.22811
585.2053, 74.90235
585.6874, 74.32549
586.1696, 73.96611
586.6517, 74.92895
587.1338, 76.88628
587.6159, 78.36386
588.0980, 78.62810
588.5801, 78.64149
589.0623, 78.84819
589.5444, 79.33800
590.0265, 79.47405
