##NAMES=Grossular
##RRUFFID=R060499
##IDEAL CHEMISTRY=Ca_3_Al_2_(SiO_4_)_3_
##LOCALITY=Lake Jaco, Chihuahua, Mexico
##OWNER=RRUFF
##SOURCE=Michael Scott
##DESCRIPTION=Tan colored single dodecahedral crystal
##STATUS=The identification of this mineral has been confirmed by X-ray diffraction and chemical analysis
##URL=rruff.info/R060499
##MEASURED CHEMISTRY=(Ca_2.90_Mg_0.10_)_Σ=3_(Al_1.78_Fe^3+^_0.19_Ti_0.03_)_Σ=2_(Si_1.00_O_4_)_3_
92.37695, 71.66735
92.85907, 71.08242
93.34119, 71.31837
93.82330, 71.86473
94.30542, 71.87944
94.78754, 71.02496
95.26965, 69.54534
95.75177, 68.10741
96.23389, 67.02487
96.71600, 66.06440
97.19812, 65.02534
97.68024, 63.85874
98.16235, 62.74904
98.64447, 62.03175
99.12659, 61.97567
99.60870, 61.41459
100.0908, 59.97797
100.5729, 58.26439
101.0551, 56.79185
101.5372, 55.79976
102.0193, 55.21048
102.5014, 54.70632
102.9835, 54.33017
103.4656, 53.98433
103.9478, 53.64050
104.4299, 53.30762
104.9120, 53.02718
105.3941, 52.84932
105.8762, 52.79520
106.3583, 52.51619
106.8405, 51.85503
107.3226, 51.13071
107.8047, 50.44651
108.2868, 49.83513
108.7689, 49.40168
109.2510, 49.39815
109.7332, 49.87531
110.2153, 49.93818
110.6974, 49.17157
111.1795, 47.99785
111.6616, 47.00554
112.1437, 46.29277
112.6259, 45.86677
113.1080, 45.78392
113.5901, 46.01525
114.0722, 46.27777
114.5543, 46.44962
115.0364, 46.52853
115.5185, 46.44345
116.0007, 46.00408
116.4828, 45.51583
116.9649, 45.13406
117.4470, 44.88728
117.9291, 44.75856
118.4112, 44.72591
118.8934, 44.78709
119.3755, 44.96673
119.8576, 45.46561
120.3397, 45.95866
120.8218, 46.14870
121.3039, 45.91945
121.7861, 45.42780
122.2682, 45.12590
122.7503, 45.23457
123.2324, 45.31712
123.7145, 45.31355
124.1966, 45.27004
124.6788, 45.26331
125.1609, 45.34331
125.6430, 45.49412
126.1251, 45.57615
126.6072, 45.56586
127.0893, 45.53008
127.5715, 45.47724
128.0536, 45.41479
128.5357, 45.36547
129.0178, 45.31970
129.4999, 45.30717
129.9821, 45.42852
130.4642, 45.92228
130.9463, 46.42937
131.4284, 46.46083
131.9105, 45.87920
132.3926, 45.39067
132.8748, 45.81227
133.3569, 46.71971
133.8390, 47.33634
134.3211, 47.01953
134.8032, 46.10801
135.2853, 45.82414
135.7674, 46.62156
136.2496, 47.47449
136.7317, 47.85009
137.2138, 47.85793
137.6959, 47.79441
138.1780, 47.88211
138.6601, 48.13377
139.1423, 48.40478
139.6244, 48.71846
140.1065, 49.03350
140.5886, 49.36799
141.0707, 49.70197
141.5528, 49.97797
142.0350, 50.10271
142.5171, 49.93954
142.9992, 49.99424
143.4813, 50.42299
143.9634, 50.91789
144.4455, 51.31594
144.9277, 51.56303
145.4098, 51.66252
145.8919, 51.59951
146.3740, 51.18056
146.8561, 50.96284
147.3382, 51.10646
147.8204, 51.41815
148.3025, 51.61544
148.7846, 51.56809
149.2667, 51.48630
149.7488, 51.89189
150.2309, 52.92202
150.7131, 53.84293
151.1952, 54.37488
151.6773, 54.58171
152.1594, 54.62850
152.6415, 54.48336
153.1236, 54.29598
153.6058, 54.31682
154.0879, 54.61686
154.5700, 54.90716
155.0521, 54.81763
155.5342, 54.31627
156.0163, 54.14446
156.4985, 55.07271
156.9806, 56.21226
157.4627, 56.78136
157.9448, 56.52610
158.4269, 55.96940
158.9090, 55.88671
159.3912, 56.42086
159.8733, 57.10146
160.3554, 58.20011
160.8375, 59.19888
161.3196, 59.53902
161.8017, 58.93919
162.2839, 57.75095
162.7660, 57.03876
163.2481, 57.26270
163.7302, 57.37769
164.2123, 57.01548
164.6944, 56.51868
165.1766, 56.35714
165.6587, 56.81756
166.1408, 57.77445
166.6229, 58.40685
167.1050, 58.28857
167.5871, 58.31121
168.0693, 58.70822
168.5514, 59.38189
169.0335, 60.11013
169.5156, 60.73399
169.9977, 61.28066
170.4798, 62.07008
170.9620, 63.05894
171.4441, 64.26613
171.9262, 65.71923
172.4083, 67.40276
172.8904, 69.23156
173.3725, 71.01146
173.8547, 72.90123
174.3368, 75.66863
174.8189, 79.01807
175.3010, 83.44423
175.7831, 89.05708
176.2652, 95.84701
176.7474, 104.6185
177.2295, 117.2203
177.7116, 132.3600
178.1937, 146.5563
178.6758, 163.2747
179.1579, 177.1973
179.6401, 179.7139
180.1222, 168.7090
180.6043, 152.0581
181.0864, 130.9624
181.5685, 108.2080
182.0506, 88.72099
182.5328, 75.03751
183.0149, 66.21568
183.4970, 59.45500
183.9791, 55.51789
184.4612, 52.74993
184.9433, 50.49060
185.4255, 48.67512
185.9076, 47.19112
186.3897, 45.96697
186.8718, 45.01231
187.3539, 44.46283
187.8360, 44.69054
188.3182, 44.96904
188.8003, 45.16305
189.2824, 45.24527
189.7645, 45.19151
190.2466, 44.95617
190.7287, 44.52545
191.2109, 44.22996
191.6930, 44.17270
192.1751, 44.14776
192.6572, 44.06375
193.1393, 43.95115
193.6214, 43.88524
194.1036, 43.91042
194.5857, 43.99585
195.0678, 44.47464
195.5499, 46.11146
196.0320, 47.37626
196.5141, 47.30889
196.9963, 46.07436
197.4784, 44.59526
197.9605, 43.69221
198.4426, 43.44846
198.9247, 43.42561
199.4068, 43.83273
199.8890, 44.27945
200.3711, 44.49174
200.8532, 44.45594
201.3353, 44.36320
201.8174, 44.40704
202.2995, 44.59415
202.7817, 44.63571
203.2638, 44.31620
203.7459, 43.96464
204.2280, 43.95644
204.7101, 44.34710
205.1922, 44.75042
205.6744, 44.78263
206.1565, 44.51271
206.6386, 44.25353
207.1207, 43.98510
207.6028, 43.79116
208.0849, 43.80574
208.5671, 44.06643
209.0492, 44.43255
209.5313, 44.89845
210.0134, 45.39503
210.4955, 45.74726
210.9776, 45.84754
211.4598, 45.76604
211.9419, 45.60560
212.4240, 45.25019
212.9061, 45.07970
213.3882, 45.50423
213.8703, 46.24628
214.3525, 46.79039
214.8346, 46.78394
215.3167, 46.37651
215.7988, 46.10751
216.2809, 46.01131
216.7630, 46.01653
217.2451, 46.06816
217.7273, 46.18219
218.2094, 46.39627
218.6915, 46.76509
219.1736, 47.25323
219.6557, 47.64574
220.1378, 47.92262
220.6200, 48.10876
221.1021, 48.12222
221.5842, 48.06695
222.0663, 48.11621
222.5484, 48.40517
223.0305, 48.90008
223.5127, 49.27369
223.9948, 49.36672
224.4769, 49.49569
224.9590, 49.68136
225.4411, 49.95404
225.9232, 50.37240
226.4054, 50.99883
226.8875, 51.80040
227.3696, 52.42800
227.8517, 52.59359
228.3338, 52.87883
228.8159, 53.40624
229.2981, 54.14253
229.7802, 55.01763
230.2623, 55.99780
230.7444, 57.07609
231.2265, 58.14938
231.7086, 59.05164
232.1908, 60.12534
232.6729, 61.63937
233.1550, 63.38754
233.6371, 64.91658
234.1192, 65.89750
234.6013, 66.47017
235.0835, 67.71934
235.5656, 70.49969
236.0477, 72.90000
236.5298, 74.28909
237.0119, 74.86691
237.4940, 75.11227
237.9762, 75.27829
238.4583, 75.31982
238.9404, 75.01640
239.4225, 73.86878
239.9046, 72.99133
240.3867, 72.81767
240.8689, 73.20660
241.3510, 73.82101
241.8331, 74.50320
242.3152, 75.30744
242.7973, 76.40617
243.2794, 78.00607
243.7616, 79.51934
244.2437, 81.01514
244.7258, 82.27685
245.2079, 82.61165
245.6900, 81.63235
246.1721, 79.62637
246.6543, 77.21023
247.1364, 74.27278
247.6185, 71.30499
248.1006, 68.33637
248.5827, 65.49236
249.0648, 63.22743
249.5470, 61.83885
250.0291, 60.94850
250.5112, 59.92108
250.9933, 58.70331
251.4754, 57.64045
251.9576, 56.85218
252.4397, 56.35578
252.9218, 56.27075
253.4039, 56.88707
253.8860, 57.60793
254.3681, 57.71515
254.8503, 57.21257
255.3324, 56.74716
255.8145, 56.78391
256.2966, 57.22396
256.7787, 57.57017
257.2608, 57.73960
257.7430, 57.78092
258.2251, 57.64505
258.7072, 57.37941
259.1893, 57.29968
259.6714, 57.71959
260.1535, 58.54135
260.6357, 59.22868
261.1178, 59.71796
261.5999, 60.06851
262.0820, 60.31202
262.5641, 60.46784
263.0462, 60.59370
263.5284, 60.73385
264.0105, 60.87840
264.4926, 60.94756
264.9747, 60.79946
265.4568, 60.79125
265.9389, 61.14131
266.4211, 61.73555
266.9032, 62.33493
267.3853, 62.76343
267.8674, 63.08528
268.3495, 63.59633
268.8316, 64.38966
269.3138, 65.24905
269.7959, 66.23415
270.2780, 67.19664
270.7601, 67.83294
271.2422, 67.82584
271.7243, 67.54299
272.2065, 68.26199
272.6886, 70.48868
273.1707, 72.92654
273.6528, 75.47267
274.1349, 77.91006
274.6170, 80.04796
275.0992, 81.85281
275.5813, 83.14795
276.0634, 83.45345
276.5455, 82.50223
277.0276, 80.96146
277.5097, 78.67861
277.9919, 76.12961
278.4740, 73.72807
278.9561, 71.61264
279.4382, 69.70604
279.9203, 67.75778
280.4024, 65.37972
280.8846, 63.87495
281.3667, 63.69104
281.8488, 64.05891
282.3309, 64.59091
282.8130, 65.12830
283.2951, 65.49952
283.7773, 65.38436
284.2594, 64.48589
284.7415, 63.83798
285.2236, 63.47052
285.7057, 63.31447
286.1878, 63.48759
286.6700, 63.91384
287.1521, 64.25974
287.6342, 64.09085
288.1163, 63.22099
288.5984, 62.56794
289.0805, 62.48285
289.5627, 62.28854
290.0448, 61.45665
290.5269, 60.15943
291.0090, 59.07439
291.4911, 58.89598
291.9732, 59.73386
292.4554, 60.07485
292.9375, 59.47164
293.4196, 58.82673
293.9017, 58.36878
294.3838, 58.09943
294.8659, 57.96272
295.3481, 57.93300
295.8302, 57.99846
296.3123, 57.99983
296.7944, 57.57248
297.2765, 57.48055
297.7586, 58.09472
298.2408, 59.09851
298.7229, 60.02062
299.2050, 60.59562
299.6871, 60.91217
300.1692, 61.30523
300.6513, 61.81004
301.1335, 62.35791
301.6156, 62.93106
302.0977, 63.54427
302.5798, 64.26844
303.0619, 65.12282
303.5440, 65.97708
304.0262, 66.55152
304.5083, 66.53608
304.9904, 66.69169
305.4725, 67.09306
305.9546, 67.61291
306.4367, 68.21346
306.9189, 68.85781
307.4010, 69.43654
307.8831, 69.77425
308.3652, 69.71407
308.8473, 69.82059
309.3294, 70.15929
309.8116, 70.58068
310.2937, 71.03944
310.7758, 71.50493
311.2579, 71.92722
311.7400, 72.26069
312.2221, 72.51369
312.7043, 72.61994
313.1864, 72.35588
313.6685, 72.18467
314.1506, 72.40178
314.6327, 72.87527
315.1148, 73.24389
315.5970, 73.22038
316.0791, 72.84855
316.5612, 72.73295
317.0433, 73.07996
317.5254, 73.45443
318.0075, 73.84628
318.4897, 74.19279
318.9718, 74.37910
319.4539, 74.33826
319.9360, 74.17154
320.4181, 74.19938
320.9002, 74.30586
321.3824, 74.80455
321.8645, 76.02419
322.3466, 77.48080
322.8287, 78.72820
323.3108, 79.60569
323.7929, 80.24376
324.2751, 80.84483
324.7572, 81.36413
325.2393, 81.93803
325.7214, 82.64090
326.2035, 83.33979
326.6856, 84.03854
327.1678, 84.68423
327.6499, 85.10594
328.1320, 85.08882
328.6141, 84.53064
329.0962, 84.02431
329.5783, 83.50312
330.0605, 83.08652
330.5426, 82.82316
331.0247, 82.70812
331.5068, 82.72373
331.9889, 82.86338
332.4710, 83.12182
332.9532, 83.41565
333.4353, 83.74454
333.9174, 84.11562
334.3995, 84.59725
334.8816, 85.10539
335.3637, 85.52401
335.8459, 85.79166
336.3280, 85.94214
336.8101, 86.05165
337.2922, 85.93069
337.7743, 86.07377
338.2564, 86.58704
338.7386, 87.31609
339.2206, 88.23235
339.7028, 89.29121
340.1849, 90.26911
340.6670, 90.77339
341.1491, 90.49746
341.6312, 90.51192
342.1133, 90.78307
342.5955, 91.32470
343.0776, 92.26125
343.5597, 93.51826
344.0418, 94.83484
344.5239, 95.95186
345.0060, 96.85032
345.4882, 97.88480
345.9703, 98.93173
346.4524, 100.2635
346.9345, 102.1447
347.4166, 104.3522
347.8987, 106.4667
348.3809, 108.1857
348.8630, 109.6814
349.3451, 111.6206
349.8272, 114.1736
350.3093, 116.9901
350.7914, 120.0198
351.2736, 123.2321
351.7557, 126.5480
352.2378, 129.9516
352.7199, 133.5422
353.2020, 137.4549
353.6841, 141.6862
354.1663, 146.2635
354.6484, 151.0817
355.1305, 156.3196
355.6126, 162.1133
356.0947, 168.4560
356.5768, 175.2076
357.0590, 182.1414
357.5411, 189.1888
358.0232, 197.1003
358.5053, 206.1406
358.9874, 215.8444
359.4695, 225.4868
359.9517, 235.5858
360.4338, 247.1740
360.9159, 260.9882
361.3980, 276.6175
361.8801, 293.0509
362.3622, 310.2002
362.8444, 328.2349
363.3265, 348.0010
363.8086, 368.2740
364.2907, 388.1352
364.7728, 407.5714
365.2549, 425.5836
365.7371, 441.5057
366.2192, 455.6382
366.7013, 465.3782
367.1834, 468.0470
367.6655, 467.4365
368.1476, 465.1298
368.6298, 461.5334
369.1119, 459.3360
369.5940, 460.3920
370.0761, 464.4708
370.5582, 470.7133
371.0403, 479.6880
371.5225, 489.7544
372.0046, 501.6459
372.4867, 513.7945
372.9688, 522.5020
373.4509, 527.4338
373.9330, 527.4646
374.4152, 520.3845
374.8973, 505.9009
375.3794, 486.8670
375.8615, 462.8624
376.3436, 435.7998
376.8257, 408.2840
377.3079, 379.9315
377.7900, 352.5451
378.2721, 327.2431
378.7542, 303.9398
379.2363, 282.2582
379.7184, 261.8940
380.2006, 243.3433
380.6827, 227.2900
381.1648, 213.6401
381.6469, 201.3474
382.1290, 190.1330
382.6111, 180.0038
383.0933, 171.0710
383.5754, 163.3226
384.0575, 156.5339
384.5396, 150.5856
385.0217, 145.5147
385.5038, 140.8018
385.9860, 136.4436
386.4681, 132.4586
386.9502, 128.8345
387.4323, 125.6004
387.9144, 122.8669
388.3965, 120.7960
388.8787, 119.1106
389.3608, 117.0193
389.8429, 114.0217
390.3250, 111.6840
390.8071, 110.7229
391.2892, 110.4186
391.7714, 109.9166
392.2535, 109.0249
392.7356, 108.0542
393.2177, 107.3657
393.6998, 107.0129
394.1819, 106.7437
394.6641, 106.6038
395.1462, 106.4964
395.6283, 106.2337
396.1104, 105.9377
396.5925, 106.0053
397.0746, 106.7438
397.5568, 107.9884
398.0389, 108.8394
398.5210, 108.5932
399.0031, 108.7935
399.4852, 110.0253
399.9673, 111.6001
400.4495, 112.6900
400.9316, 113.0588
401.4137, 113.2159
401.8958, 113.9472
402.3779, 115.4488
402.8600, 117.0134
403.3422, 118.4705
403.8243, 120.1386
404.3064, 122.2002
404.7885, 124.6254
405.2706, 127.2781
405.7527, 130.0323
406.2349, 132.9186
406.7170, 136.0596
407.1991, 139.4395
407.6812, 143.1101
408.1633, 147.0100
408.6454, 151.1965
409.1276, 155.8304
409.6097, 160.9682
410.0918, 166.2701
410.5739, 171.6301
411.0560, 177.3779
411.5381, 181.3178
412.0203, 182.6581
412.5024, 182.2986
412.9845, 180.2451
413.4666, 176.7732
413.9487, 172.8519
414.4308, 168.9477
414.9130, 165.1175
415.3951, 161.4755
415.8772, 157.8042
416.3593, 154.8704
416.8414, 153.4929
417.3235, 152.9874
417.8057, 152.4843
418.2878, 151.6808
418.7699, 151.0134
419.2520, 150.9693
419.7341, 151.4963
420.2162, 152.0925
420.6984, 152.5902
421.1805, 153.1226
421.6626, 153.9690
422.1447, 155.1488
422.6268, 156.0002
423.1089, 156.2988
423.5911, 156.1281
424.0732, 155.6030
424.5553, 154.7382
425.0374, 153.4664
425.5195, 151.6827
426.0016, 149.4089
426.4838, 147.0238
426.9659, 144.5939
427.4480, 141.9924
427.9301, 139.2023
428.4122, 136.1992
428.8943, 132.9342
429.3765, 129.3704
429.8586, 125.5923
430.3407, 121.7312
430.8228, 117.7049
431.3049, 113.7674
431.7870, 109.8343
432.2692, 106.0741
432.7513, 102.5602
433.2334, 99.33889
433.7155, 96.46537
434.1976, 94.02596
434.6797, 91.99850
435.1619, 90.00491
435.6440, 87.94727
436.1261, 86.03442
436.6082, 84.35800
437.0903, 82.82285
437.5724, 81.31054
438.0546, 79.78437
438.5367, 78.28085
439.0188, 76.83649
439.5009, 75.40834
439.9830, 74.18417
440.4651, 73.24734
440.9473, 72.43831
441.4294, 71.75523
441.9115, 71.14967
442.3936, 70.52148
442.8757, 69.79850
443.3578, 69.01008
443.8400, 68.24944
444.3221, 67.44998
444.8042, 66.84239
445.2863, 66.65088
445.7684, 66.61091
446.2505, 66.52848
446.7327, 66.37217
447.2148, 66.08951
447.6969, 65.51731
448.1790, 64.73605
448.6611, 64.21268
449.1432, 64.09383
449.6254, 64.09923
450.1075, 64.04066
450.5896, 63.91888
451.0717, 63.71168
451.5538, 63.39154
452.0359, 62.99841
452.5181, 62.52635
453.0002, 61.99387
453.4823, 61.54456
453.9644, 61.27188
454.4465, 61.08717
454.9286, 60.76104
455.4108, 60.20313
455.8929, 59.79576
456.3750, 59.67590
456.8571, 59.72285
457.3392, 59.94808
457.8214, 60.29597
458.3035, 60.36206
458.7856, 59.71353
459.2677, 58.33641
459.7498, 57.40608
460.2319, 57.18746
460.7141, 57.03119
461.1962, 56.67860
461.6783, 56.30110
462.1604, 56.21361
462.6425, 56.52510
463.1246, 56.97261
463.6068, 57.09015
464.0889, 56.71740
464.5710, 56.43536
465.0531, 56.27370
465.5352, 56.16917
466.0173, 56.12160
466.4995, 56.10750
466.9816, 56.06222
467.4637, 55.90618
467.9458, 55.73349
468.4279, 55.86171
468.9100, 56.37822
469.3922, 56.97368
469.8743, 57.72930
470.3564, 58.42508
470.8385, 58.80064
471.3206, 58.82558
471.8027, 58.87653
472.2849, 59.32658
472.7670, 60.05544
473.2491, 60.60965
473.7312, 60.94798
474.2133, 61.10902
474.6954, 60.92517
475.1776, 60.59120
475.6597, 60.59616
476.1418, 61.31504
476.6239, 62.02454
477.1060, 62.14648
477.5881, 61.84488
478.0703, 61.59610
478.5524, 61.55280
479.0345, 61.64454
479.5166, 61.80421
479.9987, 62.07417
480.4808, 62.20228
480.9630, 61.94341
481.4451, 61.73195
481.9272, 61.93385
482.4093, 62.46076
482.8914, 62.95643
483.3735, 63.19788
483.8557, 63.28518
484.3378, 63.58016
484.8199, 64.24546
485.3020, 64.89854
485.7841, 65.63869
486.2662, 66.28384
486.7484, 66.57749
487.2305, 66.57360
487.7126, 66.64754
488.1947, 67.15961
488.6768, 68.08485
489.1589, 69.03890
489.6411, 70.22201
490.1232, 71.10069
490.6053, 71.37322
491.0874, 71.36404
491.5695, 71.44716
492.0516, 71.73327
492.5338, 72.02961
493.0159, 72.08016
493.4980, 71.92473
493.9801, 71.94697
494.4622, 72.29971
494.9443, 72.65259
495.4265, 72.71854
495.9086, 72.56921
496.3907, 72.37417
496.8728, 72.08862
497.3549, 71.84775
497.8370, 71.78720
498.3192, 71.87261
498.8013, 71.99508
499.2834, 72.13160
499.7655, 72.23276
500.2476, 72.19985
500.7297, 71.97499
501.2119, 71.82373
501.6940, 71.89451
502.1761, 71.93471
502.6582, 71.62869
503.1403, 71.10979
503.6224, 70.88328
504.1045, 71.31091
504.5866, 72.11758
505.0688, 72.28902
505.5509, 71.22031
506.0330, 70.45486
506.5151, 70.25066
506.9972, 70.22567
507.4793, 70.16573
507.9615, 70.01391
508.4436, 69.75568
508.9257, 69.38605
509.4078, 68.89816
509.8899, 68.24196
510.3720, 67.32326
510.8542, 66.43782
511.3363, 65.66560
511.8184, 64.99497
512.3005, 64.44453
512.7827, 64.02501
513.2648, 63.62957
513.7469, 63.12780
514.2290, 62.58590
514.7111, 62.24885
515.1932, 62.20367
515.6754, 62.07840
516.1575, 61.46867
516.6396, 60.52636
517.1217, 59.96740
517.6038, 60.03898
518.0859, 60.24029
518.5681, 60.46735
519.0502, 60.64387
519.5323, 60.59914
520.0144, 60.28872
520.4965, 59.89269
520.9786, 59.61703
521.4608, 59.46276
521.9429, 59.43400
522.4250, 59.54175
522.9071, 59.74062
523.3892, 60.18100
523.8713, 60.65369
524.3535, 60.79566
524.8356, 60.46256
525.3177, 59.95623
525.7998, 59.76636
526.2819, 59.93155
526.7640, 60.22264
527.2462, 60.72449
527.7283, 61.25099
528.2104, 61.71698
528.6925, 62.13719
529.1746, 62.52914
529.6567, 62.81268
530.1389, 63.21107
530.6210, 64.14288
531.1031, 65.56996
531.5852, 66.78069
532.0673, 67.44471
532.5494, 68.01153
533.0316, 68.95850
533.5137, 70.24882
533.9958, 72.01213
534.4779, 74.62685
534.9600, 77.42807
535.4421, 79.78502
535.9243, 81.86301
536.4064, 84.26899
536.8885, 87.25003
537.3706, 90.85820
537.8527, 95.18890
538.3348, 100.6929
538.8170, 106.1457
539.2991, 110.8920
539.7812, 116.1479
540.2633, 122.9569
540.7454, 130.9241
541.2275, 139.1019
541.7097, 147.0264
542.1918, 154.4295
542.6739, 160.7737
543.1560, 166.3994
543.6381, 169.9717
544.1202, 171.5500
544.6024, 170.5401
545.0845, 165.9740
545.5666, 158.1826
546.0487, 149.0494
546.5308, 138.8209
547.0129, 128.1777
547.4951, 118.0288
547.9772, 108.3649
548.4593, 99.66732
548.9414, 92.20081
549.4235, 85.78449
549.9056, 80.21553
550.3878, 75.40157
550.8699, 71.51282
551.3520, 68.98329
551.8341, 67.12672
552.3162, 65.46049
552.7983, 63.95358
553.2805, 62.73409
553.7626, 61.88536
554.2447, 61.31253
554.7268, 60.73907
555.2089, 60.15540
555.6910, 59.58989
556.1732, 58.81834
556.6553, 58.25116
557.1374, 58.28951
557.6195, 58.77451
558.1016, 59.16515
558.5837, 59.07737
559.0659, 58.74377
559.5480, 58.74353
560.0301, 59.13945
560.5122, 59.48327
560.9943, 59.52821
561.4764, 59.59426
561.9586, 60.06706
562.4407, 60.91245
562.9228, 61.61116
563.4049, 61.90490
563.8870, 62.00597
564.3691, 62.09227
564.8513, 62.17799
565.3334, 62.27930
565.8155, 62.39233
566.2976, 62.55832
566.7797, 62.86342
567.2618, 63.37545
567.7440, 63.88084
568.2261, 64.47383
568.7082, 64.97063
569.1903, 65.12247
569.6724, 65.09907
570.1545, 65.34158
570.6367, 66.10303
571.1188, 67.07898
571.6009, 67.56445
572.0830, 67.38706
572.5651, 67.39359
573.0472, 67.78854
573.5294, 68.28014
574.0115, 68.74796
574.4936, 69.18550
574.9757, 69.59401
575.4578, 69.98776
575.9399, 70.33447
576.4221, 70.55360
576.9042, 70.67464
577.3863, 70.86522
577.8684, 71.16884
578.3505, 71.56988
578.8326, 72.08435
579.3148, 72.72551
579.7969, 73.25558
580.2790, 73.58492
580.7611, 73.88778
581.2432, 74.21719
581.7253, 74.58650
582.2075, 74.97184
582.6896, 75.37281
583.1717, 75.93117
583.6538, 76.90894
584.1359, 78.41448
584.6180, 79.54638
585.1002, 79.79243
585.5823, 80.28936
586.0643, 81.70454
586.5464, 83.44479
587.0286, 84.73576
587.5107, 85.35514
587.9928, 85.59782
