##NAMES=Grossular
##RRUFFID=R050081
##IDEAL CHEMISTRY=Ca_3_Al_2_(SiO_4_)_3_
##LOCALITY=Kayes Region, Mali
##OWNER=RRUFF
##SOURCE=Rock Currier
##DESCRIPTION=Dark brown dodecahedron
##STATUS=The identification of this mineral has been confirmed by X-ray diffraction and chemical analysis
##URL=rruff.info/R050081
##MEASURED CHEMISTRY=(Ca_2.92_Mg_0.07_Mn_0.01_)_Σ=3_(Al_1.04_Fe^3+^_0.89_Ti_0.07_)_Σ=2_((Si_0.98_Al_0.02_)_Σ=1_O_4_)_3_; trace amounts of Y
140.5016, 263.1452
140.9837, 263.8708
141.4658, 265.1737
141.9480, 267.1790
142.4301, 270.3760
142.9122, 276.4937
143.3943, 279.9507
143.8764, 278.6526
144.3585, 272.7779
144.8407, 270.9949
145.3228, 275.6443
145.8049, 282.6278
146.2870, 288.1443
146.7691, 291.2364
147.2512, 294.0295
147.7334, 296.8106
148.2155, 299.6032
148.6976, 302.3954
149.1797, 304.9831
149.6618, 307.6377
150.1439, 310.6889
150.6261, 312.0019
151.1082, 315.5934
151.5903, 323.1238
152.0724, 337.3292
152.5545, 349.3201
153.0366, 357.9146
153.5188, 363.8322
154.0009, 368.4684
154.4830, 371.4862
154.9651, 373.7044
155.4472, 375.4431
155.9293, 376.1286
156.4115, 377.2437
156.8936, 379.2419
157.3757, 381.9434
157.8578, 384.7451
158.3399, 386.7396
158.8221, 389.1973
159.3042, 392.9684
159.7863, 399.4783
160.2684, 406.1322
160.7505, 411.0278
161.2326, 414.6886
161.7148, 420.8448
162.1969, 434.5287
162.6790, 450.1931
163.1611, 462.3201
163.6432, 465.7620
164.1253, 467.9980
164.6075, 472.4551
165.0896, 479.2373
165.5717, 487.8745
166.0538, 500.4022
166.5359, 514.2308
167.0180, 525.6967
167.5002, 528.7545
167.9823, 531.8022
168.4644, 542.3214
168.9465, 561.7900
169.4286, 582.2495
169.9107, 596.2114
170.3929, 606.7311
170.8750, 620.6215
171.3571, 644.0629
171.8392, 671.3022
172.3213, 696.1280
172.8034, 717.1125
173.2856, 736.9906
173.7677, 758.3657
174.2498, 780.8306
174.7319, 802.5876
175.2140, 827.6311
175.6961, 850.2076
176.1783, 861.1505
176.6604, 857.8651
177.1425, 843.9468
177.6246, 820.6154
178.1067, 788.9855
178.5888, 754.6498
179.0710, 720.1872
179.5531, 686.4698
180.0352, 656.0130
180.5173, 629.7967
180.9994, 607.0668
181.4815, 587.0832
181.9637, 569.6939
182.4458, 555.6275
182.9279, 546.2177
183.4100, 540.7558
183.8921, 536.4422
184.3742, 532.8453
184.8564, 529.7106
185.3385, 526.5398
185.8206, 523.2921
186.3027, 520.1710
186.7848, 517.2556
187.2669, 514.5767
187.7491, 512.2203
188.2312, 509.6863
188.7133, 507.4770
189.1954, 508.2120
189.6775, 512.4899
190.1596, 517.0097
190.6418, 516.3977
191.1239, 510.8401
191.6060, 507.6831
192.0881, 512.0631
192.5702, 522.7101
193.0524, 527.9549
193.5345, 526.8744
194.0166, 522.7900
194.4987, 520.5825
194.9808, 520.3652
195.4629, 520.3159
195.9451, 519.6761
196.4272, 518.4451
196.9093, 516.7991
197.3914, 514.4964
197.8735, 512.1671
198.3556, 510.4268
198.8378, 508.9784
199.3199, 509.9572
199.8020, 516.6777
200.2841, 529.8654
200.7662, 536.2991
201.2483, 533.1301
201.7305, 524.7064
202.2126, 522.1343
202.6947, 526.6924
203.1768, 532.3302
203.6589, 535.0188
204.1410, 534.0795
204.6232, 535.3347
205.1053, 540.8427
205.5874, 548.2009
206.0695, 547.6588
206.5516, 535.6774
207.0337, 525.0901
207.5159, 526.6768
207.9980, 543.9957
208.4801, 556.2089
208.9622, 559.7213
209.4443, 556.2062
209.9264, 553.4470
210.4086, 551.0856
210.8907, 550.2034
211.3728, 551.7889
211.8549, 556.2933
212.3370, 561.8817
212.8191, 568.8304
213.3013, 576.8089
213.7834, 583.4894
214.2655, 588.5540
214.7476, 592.8495
215.2297, 597.0730
215.7118, 601.4450
216.1940, 605.0914
216.6761, 606.9951
217.1582, 607.3868
217.6403, 611.4488
218.1224, 619.4687
218.6045, 630.6895
219.0867, 645.1015
219.5688, 664.4718
220.0509, 682.5094
220.5330, 696.7159
221.0151, 707.1269
221.4972, 721.3822
221.9794, 742.5617
222.4615, 764.2847
222.9436, 778.6061
223.4257, 778.9562
223.9078, 785.8069
224.3899, 805.1281
224.8721, 838.3007
225.3542, 869.1402
225.8363, 897.4965
226.3184, 923.9205
226.8005, 948.9532
227.2827, 970.0456
227.7648, 994.4384
228.2469, 1025.052
228.7290, 1062.960
229.2111, 1097.644
229.6932, 1127.202
230.1754, 1154.666
230.6575, 1185.072
231.1396, 1222.202
231.6217, 1255.026
232.1038, 1278.608
232.5859, 1289.832
233.0681, 1309.437
233.5502, 1343.278
234.0323, 1381.188
234.5144, 1408.007
234.9965, 1416.488
235.4786, 1425.783
235.9608, 1442.057
236.4429, 1466.774
236.9250, 1490.325
237.4071, 1510.604
237.8892, 1530.872
238.3713, 1557.367
238.8535, 1596.487
239.3356, 1631.313
239.8177, 1658.585
240.2998, 1681.413
240.7819, 1685.043
241.2640, 1670.594
241.7462, 1636.387
242.2283, 1577.154
242.7104, 1480.133
243.1925, 1378.886
243.6746, 1282.126
244.1567, 1186.567
244.6389, 1106.049
245.1210, 1043.448
245.6031, 994.2315
246.0852, 951.7539
246.5673, 918.2979
247.0494, 887.6631
247.5316, 856.9960
248.0137, 824.0909
248.4958, 799.0295
248.9779, 785.0420
249.4600, 777.2264
249.9421, 766.1003
250.4243, 747.2361
250.9064, 732.8813
251.3885, 728.9984
251.8706, 740.3995
252.3527, 745.7448
252.8348, 741.9562
253.3170, 734.0300
253.7991, 731.9067
254.2812, 738.6375
254.7633, 745.3435
255.2454, 748.1824
255.7275, 745.2679
256.2097, 745.3604
256.6918, 748.7084
257.1739, 754.8833
257.6560, 763.6345
258.1381, 776.3651
258.6202, 788.8614
259.1024, 800.4908
259.5845, 812.3487
260.0666, 817.3376
260.5487, 811.1606
261.0308, 801.3754
261.5129, 802.5377
261.9951, 818.4230
262.4772, 836.2403
262.9593, 851.0204
263.4414, 862.2821
263.9235, 873.0342
264.4056, 882.3848
264.8878, 892.1990
265.3699, 905.8394
265.8520, 923.6549
266.3341, 944.6707
266.8162, 969.8489
267.2983, 1000.040
267.7805, 1027.381
268.2626, 1050.969
268.7447, 1072.452
269.2268, 1095.574
269.7089, 1121.903
270.1910, 1144.233
270.6732, 1161.417
271.1553, 1173.977
271.6374, 1173.755
272.1195, 1158.167
272.6016, 1133.553
273.0837, 1109.785
273.5659, 1086.707
274.0480, 1064.695
274.5301, 1043.235
275.0122, 1022.351
275.4943, 1004.145
275.9764, 988.1390
276.4586, 975.7133
276.9407, 971.0016
277.4228, 975.2263
277.9049, 977.0942
278.3870, 971.5643
278.8691, 958.9573
279.3513, 946.0762
279.8334, 932.4020
280.3155, 919.7898
280.7976, 910.5745
281.2798, 904.8630
281.7619, 902.0407
282.2440, 905.3939
282.7261, 912.9327
283.2082, 906.9464
283.6903, 884.7040
284.1725, 858.9860
284.6546, 846.3399
285.1367, 846.4133
285.6188, 847.0974
286.1009, 843.3192
286.5830, 836.6236
287.0652, 834.0416
287.5473, 835.9950
288.0294, 839.6740
288.5115, 842.3450
288.9936, 844.0938
289.4757, 845.5851
289.9579, 847.5078
290.4400, 849.2319
290.9221, 848.2383
291.4042, 844.2748
291.8863, 840.7411
292.3684, 841.7344
292.8506, 846.3373
293.3327, 850.4448
293.8148, 851.7313
294.2969, 852.3412
294.7790, 856.9770
295.2611, 865.6741
295.7433, 875.3801
296.2254, 884.2327
296.7075, 892.2076
297.1896, 899.0444
297.6717, 905.4567
298.1538, 910.2169
298.6360, 908.5406
299.1181, 901.2237
299.6002, 897.8360
300.0823, 910.1223
300.5644, 931.0435
301.0465, 947.2375
301.5287, 953.8339
302.0108, 956.0148
302.4929, 956.6135
302.9750, 956.5287
303.4571, 960.8644
303.9392, 977.9481
304.4214, 1000.073
304.9035, 1016.674
305.3856, 1022.170
305.8677, 1025.859
306.3498, 1035.794
306.8319, 1050.633
307.3141, 1065.910
307.7962, 1077.189
308.2783, 1088.262
308.7604, 1103.547
309.2425, 1125.250
309.7246, 1147.682
310.2068, 1165.844
310.6889, 1181.794
311.1710, 1201.056
311.6531, 1227.773
312.1352, 1257.951
312.6173, 1288.972
313.0995, 1320.702
313.5816, 1351.383
314.0637, 1378.736
314.5458, 1404.695
315.0279, 1433.108
315.5100, 1467.801
315.9922, 1503.564
316.4743, 1539.192
316.9564, 1576.258
317.4385, 1606.032
317.9206, 1620.995
318.4027, 1627.991
318.8849, 1636.589
319.3670, 1656.396
319.8491, 1672.046
320.3312, 1677.838
320.8133, 1672.692
321.2954, 1661.563
321.7776, 1647.470
322.2597, 1627.090
322.7418, 1596.882
323.2239, 1541.586
323.7060, 1491.135
324.1881, 1454.445
324.6703, 1432.996
325.1524, 1409.501
325.6345, 1377.198
326.1166, 1345.655
326.5987, 1322.287
327.0808, 1311.320
327.5630, 1303.605
328.0451, 1297.934
328.5272, 1294.394
329.0093, 1295.471
329.4914, 1308.698
329.9735, 1319.706
330.4557, 1317.468
330.9378, 1285.212
331.4199, 1269.531
331.9020, 1280.035
332.3841, 1310.825
332.8662, 1333.760
333.3484, 1348.539
333.8305, 1355.578
334.3126, 1352.989
334.7947, 1335.288
335.2768, 1325.622
335.7589, 1328.292
336.2411, 1337.892
336.7232, 1340.890
337.2053, 1336.095
337.6874, 1328.073
338.1695, 1316.498
338.6516, 1300.049
339.1338, 1293.266
339.6159, 1298.445
340.0980, 1310.200
340.5801, 1319.819
341.0622, 1327.216
341.5443, 1334.208
342.0265, 1338.842
342.5086, 1342.324
342.9907, 1358.294
343.4728, 1388.426
343.9549, 1423.978
344.4370, 1453.339
344.9192, 1477.200
345.4013, 1503.711
345.8834, 1535.073
346.3655, 1570.951
346.8476, 1607.468
347.3297, 1644.193
347.8119, 1688.538
348.2940, 1752.471
348.7761, 1830.226
349.2582, 1901.986
349.7403, 1957.550
350.2225, 2011.119
350.7046, 2084.848
351.1867, 2177.478
351.6688, 2274.187
352.1509, 2360.505
352.6331, 2445.260
353.1152, 2542.465
353.5973, 2658.254
354.0794, 2781.516
354.5615, 2904.501
355.0436, 3027.266
355.5258, 3149.984
356.0079, 3265.859
356.4900, 3385.549
356.9721, 3522.090
357.4542, 3684.039
357.9363, 3840.602
358.4185, 3975.217
358.9006, 4092.688
359.3827, 4201.326
359.8648, 4311.083
360.3469, 4407.515
360.8290, 4478.501
361.3112, 4519.773
361.7933, 4561.593
362.2754, 4612.539
362.7575, 4669.768
363.2396, 4730.447
363.7217, 4783.723
364.2039, 4849.790
364.6860, 4935.117
365.1681, 5040.337
365.6502, 5154.336
366.1323, 5278.440
366.6144, 5410.099
367.0966, 5548.137
367.5787, 5692.902
368.0608, 5842.131
368.5429, 6006.731
369.0250, 6179.788
369.5071, 6323.813
369.9893, 6447.165
370.4714, 6531.689
370.9535, 6569.905
371.4356, 6566.585
371.9177, 6504.018
372.3998, 6372.666
372.8820, 6185.824
373.3641, 5971.955
373.8462, 5727.694
374.3283, 5466.673
374.8104, 5194.375
375.2925, 4907.392
375.7747, 4618.950
376.2568, 4322.395
376.7389, 4032.703
377.2210, 3771.816
377.7031, 3540.193
378.1852, 3332.354
378.6674, 3149.247
379.1495, 2988.005
379.6316, 2825.337
380.1137, 2661.010
380.5958, 2509.723
381.0779, 2392.447
381.5601, 2302.750
382.0422, 2217.266
382.5243, 2127.780
383.0064, 2040.919
383.4885, 1968.066
383.9706, 1907.706
384.4528, 1853.714
384.9349, 1801.692
385.4170, 1752.881
385.8991, 1708.350
386.3812, 1668.169
386.8633, 1631.184
387.3455, 1596.891
387.8276, 1565.008
388.3097, 1534.304
388.7918, 1503.807
389.2739, 1474.842
389.7560, 1449.191
390.2382, 1427.274
390.7203, 1405.198
391.2024, 1378.432
391.6845, 1351.267
392.1666, 1328.319
392.6487, 1314.821
393.1309, 1302.569
393.6130, 1286.950
394.0951, 1268.531
394.5772, 1255.213
395.0593, 1256.371
395.5414, 1258.585
396.0236, 1253.435
396.5057, 1229.973
396.9878, 1210.673
397.4699, 1201.756
397.9520, 1199.102
398.4341, 1189.717
398.9163, 1165.254
399.3984, 1142.749
399.8805, 1129.406
400.3626, 1130.389
400.8447, 1125.269
401.3268, 1113.292
401.8090, 1095.764
402.2911, 1073.174
402.7732, 1043.128
403.2553, 1014.947
403.7374, 991.8580
404.2195, 973.4825
404.7017, 952.3901
405.1838, 927.3942
405.6659, 902.6506
406.1480, 881.5405
406.6301, 863.9658
407.1122, 850.0389
407.5944, 841.2930
408.0765, 834.5953
408.5586, 822.1306
409.0407, 803.9496
409.5228, 784.8164
410.0049, 766.1936
410.4871, 749.1879
410.9692, 737.7428
411.4513, 733.2915
411.9334, 730.1279
412.4155, 718.6527
412.8976, 702.5311
413.3798, 692.6509
413.8619, 701.5217
414.3440, 714.5350
414.8261, 714.4063
415.3082, 700.8311
415.7903, 688.3679
416.2725, 689.7346
416.7546, 696.2217
417.2367, 697.8156
417.7188, 684.7676
418.2009, 673.4629
418.6830, 672.9500
419.1652, 680.8094
419.6473, 688.1937
420.1294, 693.6257
420.6115, 696.7568
421.0937, 697.3643
421.5758, 694.9364
422.0579, 690.9508
422.5400, 682.2418
423.0221, 672.7672
423.5042, 668.9409
423.9864, 676.8370
424.4685, 683.7974
424.9506, 686.6096
425.4327, 684.8084
425.9148, 684.3362
426.3969, 685.3468
426.8791, 687.5064
427.3612, 690.6135
427.8433, 694.8373
428.3254, 699.7144
428.8075, 706.1685
429.2896, 712.8289
429.7718, 714.0660
430.2539, 708.9012
430.7360, 703.5699
431.2181, 701.6802
431.7002, 703.0693
432.1823, 705.5909
432.6645, 709.3451
433.1466, 713.5620
433.6287, 716.9071
434.1108, 719.6270
434.5929, 722.9982
435.0750, 727.4995
435.5572, 732.9731
436.0393, 739.9111
436.5214, 748.1977
437.0035, 755.4011
437.4856, 758.6885
437.9677, 759.9233
438.4499, 761.9380
438.9320, 766.8056
439.4141, 770.3078
439.8962, 766.0457
440.3783, 757.7557
440.8604, 754.9483
441.3426, 770.7192
441.8247, 786.4623
442.3068, 789.8574
442.7889, 776.4232
443.2710, 765.8527
443.7531, 765.4642
444.2353, 769.8156
444.7174, 772.8836
445.1995, 773.2184
445.6816, 772.8598
446.1637, 772.5359
446.6458, 772.0897
447.1280, 769.2534
447.6101, 760.2515
448.0922, 753.0164
448.5743, 752.7706
449.0564, 763.7504
449.5385, 770.1856
450.0207, 770.2733
450.5028, 766.9141
450.9849, 765.4737
451.4670, 766.2842
451.9491, 767.4130
452.4312, 768.3710
452.9134, 769.0856
453.3955, 768.9662
453.8776, 767.9658
454.3597, 766.4911
454.8418, 764.7413
455.3239, 762.8016
455.8061, 761.2472
456.2882, 760.6238
456.7703, 759.7560
457.2524, 755.4632
457.7345, 748.9341
458.2166, 744.9639
458.6988, 748.7078
459.1809, 755.3978
459.6630, 760.5876
460.1451, 764.0906
460.6272, 764.3986
461.1093, 758.2388
461.5915, 749.0533
462.0736, 741.2324
462.5557, 736.0143
463.0378, 732.6026
463.5199, 732.2227
464.0020, 734.2192
464.4842, 733.8427
464.9663, 724.3214
465.4484, 716.4714
465.9305, 716.5804
466.4126, 733.4778
466.8947, 743.0071
467.3769, 740.9631
467.8590, 733.3939
468.3411, 730.6855
468.8232, 736.9612
469.3053, 739.6641
469.7874, 733.7472
470.2696, 719.9586
470.7517, 712.6533
471.2338, 713.0758
471.7159, 716.1625
472.1980, 718.1464
472.6801, 719.0366
473.1623, 718.5673
473.6444, 715.6791
474.1265, 713.4132
474.6086, 717.7938
475.0907, 728.0498
475.5728, 739.1932
476.0550, 749.2941
476.5371, 758.3943
477.0192, 765.5963
477.5013, 770.8618
477.9834, 777.3683
478.4655, 787.4495
478.9477, 800.3334
479.4298, 815.0490
479.9119, 833.7878
480.3940, 851.3896
480.8761, 864.3519
481.3582, 873.8747
481.8404, 883.2239
482.3225, 893.3170
482.8046, 903.5894
483.2867, 915.0186
483.7688, 929.9360
484.2509, 938.1393
484.7331, 929.1487
485.2152, 918.0260
485.6973, 919.3883
486.1794, 942.8970
486.6615, 962.3938
487.1436, 973.5777
487.6258, 978.0205
488.1079, 983.2159
488.5900, 989.6946
489.0721, 995.3647
489.5542, 999.0953
490.0363, 1000.903
490.5185, 1001.117
491.0006, 999.3184
491.4827, 997.3365
491.9648, 997.8621
492.4470, 1000.475
492.9291, 1002.899
493.4112, 1004.229
493.8933, 1005.017
494.3754, 1006.821
494.8575, 1009.245
495.3397, 1009.694
495.8218, 1005.565
496.3039, 998.9825
496.7860, 991.7673
497.2681, 983.4747
497.7502, 977.0033
498.2324, 975.9476
498.7145, 977.0157
499.1966, 975.7094
499.6787, 971.2755
500.1608, 963.6962
500.6429, 951.1950
501.1251, 934.2401
501.6072, 919.9607
502.0893, 910.0282
502.5714, 901.6413
503.0535, 893.7775
503.5356, 887.5858
504.0178, 878.8082
504.4999, 865.3136
504.9820, 851.2618
505.4641, 843.3832
505.9462, 842.8471
506.4283, 842.8129
506.9105, 842.8428
507.3926, 841.5519
507.8747, 829.9376
508.3568, 807.1669
508.8389, 788.9304
509.3210, 791.4568
509.8032, 807.2968
510.2853, 814.8555
510.7674, 809.9561
511.2495, 803.1117
511.7316, 806.5735
512.2137, 815.9969
512.6959, 822.4882
513.1780, 819.1658
513.6601, 814.3754
514.1422, 811.2012
514.6243, 810.3526
515.1064, 816.0156
515.5886, 835.6931
516.0707, 858.3470
516.5528, 877.0069
517.0349, 889.0071
517.5170, 901.0748
517.9991, 908.5978
518.4813, 918.4848
518.9634, 940.3633
519.4455, 982.1871
519.9276, 1022.127
520.4097, 1054.191
520.8918, 1079.989
521.3740, 1114.863
521.8561, 1160.825
522.3382, 1209.196
522.8203, 1253.019
523.3024, 1292.576
523.7845, 1341.202
524.2667, 1402.151
524.7488, 1463.664
525.2309, 1508.331
525.7130, 1542.073
526.1951, 1584.656
526.6772, 1647.266
527.1594, 1718.661
527.6415, 1786.406
528.1236, 1850.938
528.6057, 1915.943
529.0878, 1985.661
529.5699, 2054.562
530.0521, 2119.005
530.5342, 2180.547
531.0163, 2231.150
531.4984, 2271.016
531.9805, 2297.997
532.4626, 2310.097
532.9448, 2307.156
533.4269, 2288.979
533.9090, 2260.444
534.3911, 2217.210
534.8732, 2140.967
535.3553, 2015.941
535.8375, 1885.300
536.3196, 1769.867
536.8017, 1669.150
537.2838, 1559.668
537.7659, 1435.971
538.2480, 1318.120
538.7302, 1229.569
539.2123, 1166.719
539.6944, 1110.403
540.1765, 1056.581
540.6586, 1007.161
541.1407, 963.5496
541.6229, 925.5278
542.1050, 891.5550
542.5871, 858.4185
543.0692, 830.4623
543.5513, 813.8891
544.0334, 809.0513
544.5156, 805.5724
544.9977, 801.1454
545.4798, 794.6209
545.9619, 784.7336
546.4440, 765.0348
546.9261, 751.2170
547.4083, 746.7366
547.8904, 749.2953
548.3725, 755.1058
548.8546, 767.2212
549.3367, 777.6545
549.8188, 784.4417
550.3010, 787.7665
550.7831, 789.4921
551.2652, 789.2958
551.7473, 788.5732
552.2294, 787.5048
552.7115, 786.3530
553.1937, 788.2626
553.6758, 793.8728
554.1579, 800.9245
554.6400, 807.5079
555.1221, 813.3759
555.6042, 817.6226
556.0864, 818.6806
556.5685, 819.3185
557.0506, 824.0483
557.5327, 831.1444
558.0148, 834.0641
558.4969, 822.9551
558.9791, 811.6971
559.4612, 810.6384
559.9433, 823.7377
560.4254, 831.8215
560.9075, 830.6855
561.3896, 823.3161
561.8718, 812.0095
562.3539, 790.0745
562.8360, 776.1456
563.3181, 775.6653
563.8002, 782.1915
564.2823, 779.3419
564.7645, 765.1061
565.2466, 750.6337
565.7287, 740.6749
566.2108, 734.1711
566.6929, 727.0242
567.1750, 719.3956
567.6572, 708.7430
568.1393, 689.5972
568.6214, 666.5980
569.1035, 650.3250
569.5856, 643.3942
570.0677, 638.6544
570.5499, 631.0135
571.0320, 621.3693
571.5141, 611.1075
571.9962, 598.6652
572.4783, 587.7585
572.9604, 580.7071
573.4426, 576.8749
573.9247, 572.7197
574.4068, 569.2332
574.8889, 563.8417
575.3710, 554.1777
575.8531, 538.1433
576.3353, 530.1907
576.8174, 534.2469
577.2995, 540.6744
577.7816, 539.8635
578.2637, 531.0868
578.7458, 522.6511
579.2280, 515.6223
579.7101, 509.6871
580.1922, 503.8712
580.6743, 498.4509
581.1564, 494.9858
581.6385, 494.1977
582.1207, 495.7655
582.6028, 500.9010
583.0849, 508.9293
583.5670, 514.9387
584.0491, 515.3452
584.5313, 512.9963
585.0134, 509.1767
585.4955, 502.4554
585.9776, 499.6730
586.4597, 505.3553
586.9418, 514.7607
587.4240, 522.5073
587.9061, 527.9596
588.3882, 532.3492
588.8703, 534.5040
589.3524, 536.0326
589.8345, 542.5123
590.3167, 555.5008
590.7988, 567.4830
591.2809, 574.3286
591.7630, 577.2632
592.2451, 583.0982
592.7272, 592.0162
593.2094, 599.3685
593.6915, 598.4141
594.1736, 593.7241
594.6557, 594.3015
595.1378, 602.1823
595.6199, 612.8040
596.1021, 625.4783
596.5842, 638.0118
597.0663, 647.3118
597.5485, 649.2692
598.0306, 650.9463
598.5127, 654.4947
598.9948, 659.5847
599.4769, 664.7532
599.9590, 671.0432
600.4412, 676.0909
600.9233, 678.7007
601.4054, 678.6683
601.8875, 679.4512
602.3696, 680.7952
602.8517, 683.5858
603.3339, 690.0750
603.8160, 699.7646
604.2981, 704.2947
604.7802, 701.5934
605.2623, 697.4911
605.7444, 701.9880
606.2266, 711.3167
606.7087, 714.9394
607.1908, 702.8054
607.6729, 690.0131
608.1550, 690.6035
608.6371, 700.8191
609.1193, 708.4651
609.6014, 706.7920
610.0835, 702.9556
610.5656, 699.2103
611.0477, 695.2244
611.5298, 695.6939
612.0120, 704.3837
612.4941, 713.8735
612.9762, 719.4238
613.4583, 720.6458
613.9404, 718.6817
614.4225, 712.1257
614.9047, 704.9420
615.3868, 705.0842
615.8689, 711.6245
616.3510, 711.4542
616.8331, 697.1259
617.3152, 678.9092
617.7974, 675.1816
618.2795, 682.1450
618.7616, 684.8380
619.2437, 670.7308
619.7258, 652.4534
620.2079, 638.7960
620.6901, 630.3315
621.1722, 623.5465
621.6543, 620.0760
622.1364, 615.8627
622.6185, 608.0762
623.1006, 594.5650
623.5828, 581.7621
624.0649, 569.1744
624.5470, 557.7480
625.0291, 548.8079
625.5112, 542.6826
625.9933, 537.4373
626.4755, 533.1768
626.9576, 529.0886
627.4397, 524.3489
627.9218, 518.6949
628.4039, 510.1225
628.8860, 494.5909
629.3682, 477.1205
629.8503, 463.6597
630.3324, 454.2280
630.8145, 449.2101
631.2966, 454.0843
631.7787, 459.8571
632.2609, 459.2780
632.7430, 449.2242
633.2251, 441.5363
633.7072, 439.8166
634.1893, 440.6618
634.6714, 441.2620
635.1536, 441.1049
635.6357, 442.1612
