##NAMES=Grossular
##RRUFFID=R060444
##IDEAL CHEMISTRY=Ca_3_Al_2_(SiO_4_)_3_
##LOCALITY=Pakistan (?)
##OWNER=RRUFF
##SOURCE=Gemological Institute of America
##DESCRIPTION=Tan colored crystals coating a surface
##STATUS=The identification of this mineral has been confirmed by X-ray diffraction and chemical analysis
##URL=rruff.info/R060444
##MEASURED CHEMISTRY=(Ca_2.98_Mn_0.02_)_Σ=3_(Al_1.84_Fe^3+^_0.13_Ti_0.03_)_Σ=2_((Si_0.99_Al_0.01_)_Σ=1_O_4_)_3_
91.40820, 7.323413
91.89032, 6.931070
92.37244, 7.133417
92.85455, 7.835344
93.33667, 8.468214
93.81879, 8.558541
94.30090, 8.246704
94.78302, 7.961148
95.26514, 7.812826
95.74725, 7.731514
96.22937, 7.520189
96.71149, 7.164514
97.19360, 6.862435
97.67572, 6.873198
98.15784, 7.190309
98.63995, 7.411291
99.12207, 7.386577
99.60419, 7.150956
100.0863, 6.995891
100.5684, 6.909392
101.0505, 6.928145
101.5327, 7.147292
102.0148, 7.644880
102.4969, 8.075068
102.9790, 8.315461
103.4611, 8.329973
103.9432, 8.330647
104.4253, 8.275462
104.9075, 8.229510
105.3896, 8.316304
105.8717, 8.525907
106.3538, 8.884522
106.8359, 9.458559
107.3180, 10.66779
107.8002, 11.34171
108.2823, 11.13935
108.7644, 10.33781
109.2465, 9.948781
109.7286, 10.26677
110.2107, 10.79353
110.6929, 11.32061
111.1750, 11.52736
111.6571, 12.08006
112.1392, 13.18146
112.6213, 14.76041
113.1034, 16.29014
113.5856, 17.72786
114.0677, 19.08739
114.5498, 20.36740
115.0319, 21.43203
115.5140, 22.55959
115.9961, 23.80873
116.4783, 25.18171
116.9604, 26.67080
117.4425, 28.43328
117.9246, 30.28081
118.4067, 31.99010
118.8888, 33.47744
119.3710, 34.82744
119.8531, 36.09295
120.3352, 37.27641
120.8173, 38.34055
121.2994, 38.95266
121.7815, 39.43540
122.2637, 40.35453
122.7458, 42.24361
123.2279, 44.56003
123.7100, 46.81686
124.1921, 48.97716
124.6742, 51.01776
125.1564, 52.79536
125.6385, 54.40206
126.1206, 56.13719
126.6027, 58.21205
127.0848, 60.51362
127.5669, 62.82922
128.0491, 65.11642
128.5312, 67.43085
129.0133, 69.95261
129.4954, 72.62794
129.9775, 75.17138
130.4596, 77.39268
130.9418, 79.29978
131.4239, 81.05412
131.9060, 82.80680
132.3881, 84.31287
132.8702, 84.65858
133.3523, 83.75108
133.8345, 82.94011
134.3166, 83.59982
134.7987, 85.72481
135.2808, 87.58036
135.7629, 88.76202
136.2450, 89.40261
136.7272, 89.97031
137.2093, 90.31538
137.6914, 91.04893
138.1735, 93.09615
138.6556, 96.78227
139.1377, 100.0079
139.6199, 102.1489
140.1020, 103.1936
140.5841, 104.5109
141.0662, 106.1799
141.5483, 107.9939
142.0304, 109.6687
142.5126, 111.0781
142.9947, 112.5571
143.4768, 113.8385
143.9589, 114.6784
144.4410, 115.6024
144.9231, 116.6719
145.4053, 117.7910
145.8874, 118.8652
146.3695, 120.0993
146.8516, 121.0102
147.3337, 121.3831
147.8158, 120.9443
148.2980, 120.7152
148.7801, 120.7359
149.2622, 120.9519
149.7443, 121.2577
150.2264, 121.9723
150.7085, 122.4995
151.1907, 122.6221
151.6728, 122.0861
152.1549, 121.5965
152.6370, 121.0037
153.1191, 120.4462
153.6012, 120.2928
154.0834, 120.9079
154.5655, 121.6587
155.0476, 122.3010
155.5297, 122.9622
156.0118, 123.2871
156.4939, 122.7748
156.9761, 121.7809
157.4582, 121.5202
157.9403, 122.9920
158.4224, 124.7927
158.9045, 126.0929
159.3866, 125.9312
159.8688, 126.1584
160.3509, 127.2998
160.8330, 129.2551
161.3151, 131.5769
161.7972, 134.8219
162.2793, 138.0039
162.7615, 140.3665
163.2436, 141.0269
163.7257, 141.4787
164.2078, 142.3121
164.6899, 143.4893
165.1720, 144.7551
165.6541, 146.1708
166.1363, 147.5411
166.6184, 148.6734
167.1005, 149.0825
167.5826, 149.5603
168.0647, 150.6186
168.5468, 152.2299
169.0290, 154.0522
169.5111, 156.1782
169.9932, 158.3182
170.4753, 160.0967
170.9574, 160.5860
171.4395, 161.1342
171.9217, 163.0160
172.4038, 166.2312
172.8859, 169.7918
173.3680, 172.7160
173.8501, 175.4718
174.3322, 178.9404
174.8144, 183.6976
175.2965, 189.3010
175.7786, 195.0564
176.2607, 200.9880
176.7428, 207.3537
177.2249, 214.9116
177.7071, 223.1055
178.1892, 230.7599
178.6713, 238.8610
179.1534, 245.6608
179.6355, 248.2716
180.1176, 246.5473
180.5998, 241.5959
181.0819, 233.3807
181.5640, 222.6049
182.0461, 211.4530
182.5282, 200.3525
183.0103, 189.7361
183.4925, 180.8096
183.9746, 173.7680
184.4567, 167.8902
184.9388, 162.1898
185.4209, 156.7533
185.9030, 152.4547
186.3852, 150.0535
186.8673, 149.1542
187.3494, 148.4100
187.8315, 147.8343
188.3136, 147.1945
188.7957, 145.7258
189.2779, 143.5515
189.7600, 142.2134
190.2421, 143.5237
190.7242, 146.7608
191.2063, 147.4624
191.6884, 144.9347
192.1706, 141.0859
192.6527, 138.6974
193.1348, 137.7966
193.6169, 137.3733
194.0990, 137.0344
194.5811, 136.7724
195.0633, 136.4385
195.5454, 135.9658
196.0275, 135.5302
196.5096, 135.5140
196.9917, 135.9446
197.4738, 136.4649
197.9560, 137.0166
198.4381, 137.6025
198.9202, 137.6955
199.4023, 137.1081
199.8844, 136.2578
200.3665, 136.0786
200.8487, 136.6947
201.3308, 137.2416
201.8129, 137.1950
202.2950, 136.4971
202.7771, 135.9774
203.2592, 135.6532
203.7414, 135.5285
204.2235, 135.6798
204.7056, 136.1875
205.1877, 136.6466
205.6698, 136.7441
206.1519, 136.3592
206.6341, 136.4627
207.1162, 137.2892
207.5983, 138.4345
208.0804, 138.9057
208.5625, 138.4842
209.0446, 138.0455
209.5268, 138.0153
210.0089, 138.4599
210.4910, 138.9890
210.9731, 139.5538
211.4552, 140.2303
211.9373, 141.2680
212.4195, 142.8485
212.9016, 144.3247
213.3837, 145.2392
213.8658, 145.2507
214.3479, 146.0787
214.8300, 148.1995
215.3121, 150.9075
215.7943, 152.3361
216.2764, 151.8769
216.7585, 151.3897
217.2406, 151.7332
217.7227, 153.1497
218.2048, 154.6005
218.6870, 156.0910
219.1691, 157.5984
219.6512, 159.0862
220.1333, 160.4901
220.6154, 162.0015
221.0975, 163.7832
221.5797, 165.9895
222.0618, 167.9575
222.5439, 169.6261
223.0260, 171.0853
223.5081, 172.5302
223.9902, 173.7860
224.4724, 175.3282
224.9545, 177.3105
225.4366, 179.7935
225.9187, 182.6489
226.4008, 186.0254
226.8829, 189.7332
227.3651, 193.3875
227.8472, 197.0010
228.3293, 200.6055
228.8114, 204.1453
229.2935, 207.3980
229.7757, 211.2771
230.2578, 216.0939
230.7399, 221.3391
231.2220, 226.0762
231.7041, 230.0365
232.1862, 233.8512
232.6684, 237.6883
233.1505, 241.4554
233.6326, 245.5384
234.1147, 249.9680
234.5968, 254.7020
235.0789, 259.6020
235.5611, 264.7743
236.0432, 269.9274
236.5253, 275.1582
237.0074, 280.6468
237.4895, 285.2573
237.9716, 288.8142
238.4538, 291.6049
238.9359, 294.1329
239.4180, 296.7928
239.9001, 298.5736
240.3822, 298.8935
240.8643, 297.2423
241.3465, 296.4629
241.8286, 296.5265
242.3107, 297.4780
242.7928, 299.4344
243.2749, 302.6824
243.7570, 306.4315
244.2392, 310.4388
244.7213, 314.6584
245.2034, 319.7556
245.6855, 327.1419
246.1676, 334.2843
246.6497, 338.2734
247.1319, 339.7333
247.6140, 336.8798
248.0961, 328.7658
248.5782, 314.9240
249.0603, 299.4395
249.5424, 280.6634
250.0246, 261.6869
250.5067, 245.5755
250.9888, 232.6424
251.4709, 221.9849
251.9530, 213.7001
252.4351, 207.8139
252.9173, 202.7408
253.3994, 198.4133
253.8815, 194.8573
254.3636, 192.0806
254.8457, 190.0741
255.3278, 188.9446
255.8100, 188.9333
256.2921, 190.0078
256.7742, 190.8172
257.2563, 191.1259
257.7384, 191.4835
258.2205, 192.3161
258.7026, 193.6300
259.1848, 195.4759
259.6669, 198.1389
260.1490, 201.4653
260.6311, 203.8282
261.1132, 204.8405
261.5953, 205.5282
262.0775, 206.5604
262.5596, 207.9090
263.0417, 209.7537
263.5238, 212.3181
264.0059, 215.3954
264.4880, 218.0796
264.9702, 220.2046
265.4523, 222.2160
265.9344, 224.2912
266.4165, 226.3154
266.8986, 228.9285
267.3807, 232.4107
267.8629, 236.4529
268.3450, 240.0828
268.8271, 243.2685
269.3092, 246.2229
269.7913, 248.9179
270.2734, 251.0893
270.7556, 254.3236
271.2377, 258.9830
271.7198, 264.5612
272.2019, 269.8640
272.6840, 274.7281
273.1661, 279.9062
273.6483, 285.9311
274.1304, 292.9356
274.6125, 299.5610
275.0946, 305.7856
275.5767, 311.5587
276.0588, 316.9867
276.5410, 322.2139
277.0231, 326.2653
277.5052, 329.0415
277.9873, 330.5839
278.4694, 328.8737
278.9515, 323.5277
279.4337, 315.7123
279.9158, 306.6659
280.3979, 296.3370
280.8800, 285.6452
281.3621, 274.8856
281.8442, 264.0908
282.3264, 253.8305
282.8085, 243.9848
283.2906, 235.1124
283.7727, 227.9464
284.2548, 222.4966
284.7369, 218.0379
285.2191, 214.5504
285.7012, 211.8891
286.1833, 209.3167
286.6654, 206.8099
287.1475, 204.5419
287.6296, 202.8489
288.1118, 201.6601
288.5939, 200.3166
289.0760, 198.5798
289.5581, 196.6566
290.0402, 194.9890
290.5223, 193.5712
291.0045, 192.3733
291.4866, 191.3823
291.9687, 190.5848
292.4508, 189.9739
292.9329, 189.6604
293.4150, 189.3566
293.8972, 188.3478
294.3793, 186.7083
294.8614, 185.2804
295.3435, 184.8217
295.8256, 185.0265
296.3077, 185.0164
296.7899, 184.6188
297.2720, 184.1868
297.7541, 184.3369
298.2362, 184.9327
298.7183, 185.3636
299.2004, 184.9334
299.6826, 184.1817
300.1647, 184.2097
300.6468, 185.1815
301.1289, 186.3891
301.6110, 187.0349
302.0931, 187.3273
302.5753, 187.8410
303.0574, 189.1769
303.5395, 190.7332
304.0216, 191.6342
304.5037, 191.8582
304.9858, 191.9406
305.4680, 192.1029
305.9501, 192.4622
306.4322, 193.2237
306.9143, 194.8694
307.3964, 196.6579
307.8785, 197.7807
308.3607, 198.3152
308.8428, 199.0335
309.3249, 200.7420
309.8070, 202.8167
310.2891, 204.5068
310.7712, 205.4510
311.2534, 206.1725
311.7355, 206.9392
312.2176, 207.7640
312.6997, 208.6791
313.1818, 209.6406
313.6639, 210.7160
314.1461, 212.0041
314.6282, 213.6280
315.1103, 215.2164
315.5924, 216.6505
316.0745, 217.9098
316.5566, 218.9737
317.0388, 219.8638
317.5209, 220.5202
318.0030, 220.9430
318.4851, 221.1609
318.9672, 221.0317
319.4493, 220.0338
319.9315, 218.7890
320.4136, 218.1108
320.8957, 218.4353
321.3778, 219.1884
321.8599, 220.2748
322.3420, 221.7156
322.8242, 223.1087
323.3063, 224.0467
323.7884, 225.0547
324.2705, 226.5910
324.7526, 229.3875
325.2347, 232.0365
325.7169, 234.0581
326.1990, 235.5354
326.6811, 237.3251
327.1632, 239.8211
327.6453, 242.4171
328.1274, 244.7786
328.6096, 247.3588
329.0917, 249.1364
329.5738, 249.7218
330.0559, 249.4420
330.5380, 249.3782
331.0201, 250.1155
331.5023, 250.4330
331.9844, 249.7558
332.4665, 247.5624
332.9486, 245.6548
333.4307, 244.0678
333.9128, 242.7570
334.3950, 241.6171
334.8771, 240.3513
335.3592, 239.8103
335.8413, 240.4543
336.3234, 242.4443
336.8055, 243.9878
337.2877, 244.9679
337.7698, 245.6403
338.2519, 246.1669
338.7340, 246.3775
339.2161, 247.0983
339.6982, 248.5580
340.1803, 250.6856
340.6624, 252.9964
341.1446, 255.5611
341.6267, 258.1658
342.1088, 260.6003
342.5909, 262.8228
343.0730, 265.5146
343.5551, 268.7983
344.0373, 272.5312
344.5194, 276.2586
345.0015, 279.9983
345.4836, 284.0236
345.9657, 288.4519
346.4478, 293.2945
346.9300, 298.6504
347.4121, 304.6242
347.8942, 310.9196
348.3763, 317.3600
348.8584, 323.8983
349.3405, 330.4041
349.8227, 336.7300
350.3048, 343.0095
350.7869, 349.3140
351.2690, 355.6024
351.7511, 362.5811
352.2332, 370.6999
352.7154, 379.9370
353.1975, 390.2628
353.6796, 401.8212
354.1617, 414.3064
354.6438, 427.0563
355.1259, 440.2626
355.6081, 454.9043
356.0902, 472.1119
356.5723, 491.0370
357.0544, 510.9444
357.5365, 531.6312
358.0186, 552.8436
358.5008, 574.3891
358.9829, 596.2760
359.4650, 618.5334
359.9471, 640.7295
360.4292, 663.6097
360.9113, 687.7608
361.3935, 713.0668
361.8756, 739.2667
362.3577, 765.5996
362.8398, 792.9709
363.3219, 822.4119
363.8040, 855.6331
364.2862, 889.5957
364.7683, 923.2548
365.2504, 956.7908
365.7325, 990.9938
366.2146, 1027.299
366.6967, 1063.803
367.1789, 1099.328
367.6610, 1133.424
368.1431, 1166.965
368.6252, 1201.346
369.1073, 1235.645
369.5894, 1266.390
370.0716, 1291.467
370.5537, 1315.417
371.0358, 1340.237
371.5179, 1367.034
372.0000, 1391.731
372.4821, 1416.311
372.9643, 1437.197
373.4464, 1450.026
373.9285, 1456.109
374.4106, 1451.153
374.8927, 1434.639
375.3748, 1406.322
375.8570, 1363.650
376.3391, 1303.964
376.8212, 1234.740
377.3033, 1158.992
377.7854, 1075.835
378.2675, 995.2151
378.7497, 916.4586
379.2318, 842.2041
379.7139, 777.3790
380.1960, 722.8232
380.6781, 674.2068
381.1602, 629.8135
381.6424, 589.7388
382.1245, 555.0099
382.6066, 525.6284
383.0887, 500.4965
383.5708, 478.2930
384.0529, 459.0269
384.5351, 441.7086
385.0172, 426.3846
385.4993, 412.8344
385.9814, 400.0811
386.4635, 388.2534
386.9456, 377.7753
387.4278, 369.7484
387.9099, 363.2933
388.3920, 356.9028
388.8741, 350.1922
389.3562, 343.5319
389.8383, 336.9268
390.3205, 330.4917
390.8026, 324.7421
391.2847, 320.0333
391.7668, 316.0604
392.2489, 312.6629
392.7310, 309.9307
393.2132, 307.2850
393.6953, 304.1052
394.1774, 300.9943
394.6595, 298.6650
395.1416, 297.9980
395.6237, 297.5460
396.1059, 296.8942
396.5880, 296.0317
397.0701, 295.0170
397.5522, 293.1079
398.0343, 291.5699
398.5164, 291.1728
398.9986, 293.5074
399.4807, 295.0003
399.9628, 294.9974
400.4449, 294.1284
400.9270, 293.8398
401.4091, 294.3661
401.8913, 295.1754
402.3734, 296.1428
402.8555, 297.2987
403.3376, 298.4323
403.8197, 299.4999
404.3018, 300.5926
404.7840, 301.9079
405.2661, 303.6518
405.7482, 304.8350
406.2303, 305.0098
406.7124, 304.5362
407.1945, 304.9391
407.6767, 306.2680
408.1588, 308.2085
408.6409, 310.6869
409.1230, 313.6651
409.6051, 316.8015
410.0872, 320.1640
410.5694, 323.4686
411.0515, 325.8780
411.5336, 327.6212
412.0157, 330.0767
412.4978, 334.5734
412.9799, 339.9954
413.4621, 344.1661
413.9442, 347.1376
414.4263, 349.4218
414.9084, 352.2144
415.3905, 354.4633
415.8727, 354.4968
416.3548, 351.6865
416.8369, 346.8342
417.3190, 340.0069
417.8011, 331.6362
418.2832, 322.7187
418.7654, 313.2590
419.2475, 303.8393
419.7296, 294.7915
420.2117, 285.9499
420.6938, 278.2007
421.1759, 272.1473
421.6581, 267.2660
422.1402, 262.9342
422.6223, 259.3669
423.1044, 256.0095
423.5865, 252.5932
424.0686, 249.2144
424.5508, 246.5080
425.0329, 245.0326
425.5150, 243.8712
425.9971, 242.5874
426.4792, 240.8587
426.9613, 239.7261
427.4435, 239.6366
427.9256, 239.9077
428.4077, 239.3553
428.8898, 237.4241
429.3719, 235.8934
429.8540, 235.2607
430.3362, 235.4778
430.8183, 235.9919
431.3004, 236.9832
431.7825, 237.7441
432.2646, 237.4786
432.7467, 236.1846
433.2289, 235.2916
433.7110, 235.0828
434.1931, 235.2224
434.6752, 235.0326
435.1573, 234.5589
435.6394, 234.3145
436.1216, 234.8391
436.6037, 235.7346
437.0858, 236.0083
437.5679, 235.6284
438.0500, 235.2222
438.5321, 235.3743
439.0142, 235.8696
439.4963, 236.3398
439.9785, 236.6257
440.4606, 236.9268
440.9427, 237.5647
441.4248, 238.3800
441.9069, 238.8849
442.3890, 238.2109
442.8712, 237.6072
443.3533, 238.1872
443.8354, 240.4629
444.3175, 241.9270
444.7996, 240.7293
445.2817, 238.7124
445.7639, 237.7920
446.2460, 239.6323
446.7281, 241.1340
447.2102, 241.3721
447.6923, 240.5876
448.1744, 240.5648
448.6566, 242.0025
449.1387, 243.4639
449.6208, 244.2629
450.1029, 244.0807
450.5850, 244.2031
451.0671, 244.6911
451.5493, 245.4165
452.0314, 246.2010
452.5135, 247.0228
452.9956, 248.0183
453.4777, 249.4019
453.9598, 250.9504
454.4420, 251.5705
454.9241, 251.1768
455.4062, 250.6111
455.8883, 250.4305
456.3704, 250.5937
456.8525, 250.9331
457.3347, 251.4318
457.8168, 252.0813
458.2989, 253.0571
458.7810, 254.2034
459.2631, 255.0286
459.7452, 255.1690
460.2274, 254.9808
460.7095, 254.6552
461.1916, 254.2487
461.6737, 254.2360
462.1558, 255.4539
462.6379, 256.9038
463.1201, 257.5421
463.6022, 256.6670
464.0843, 256.1718
464.5664, 257.2635
465.0485, 259.1377
465.5306, 260.5123
466.0128, 260.6476
466.4949, 260.6768
466.9770, 260.8149
467.4591, 261.0677
467.9412, 261.6959
468.4233, 263.1182
468.9055, 264.5620
469.3876, 265.5842
469.8697, 265.9656
470.3518, 266.4020
470.8339, 266.8922
471.3160, 267.4712
471.7982, 268.0962
472.2803, 268.6194
472.7624, 269.8478
473.2445, 272.3816
473.7266, 275.8901
474.2087, 278.2092
474.6909, 279.2221
475.1730, 279.9686
475.6551, 281.3892
476.1372, 283.2937
476.6193, 284.9139
477.1014, 286.1158
477.5836, 287.0067
478.0657, 287.6966
478.5478, 288.1750
479.0299, 288.4076
479.5120, 288.8421
479.9941, 288.7197
480.4763, 286.9130
480.9584, 283.5919
481.4405, 280.5102
481.9226, 278.7965
482.4047, 277.6281
482.8868, 276.2554
483.3690, 274.1026
483.8511, 272.6727
484.3332, 272.9841
484.8153, 274.1708
485.2974, 274.8260
485.7795, 274.0989
486.2617, 273.5077
486.7438, 273.3966
487.2259, 273.7599
487.7080, 274.1636
488.1901, 274.4992
488.6722, 275.0215
489.1544, 275.9152
489.6365, 277.2467
490.1186, 278.6906
490.6007, 280.3072
491.0828, 281.9345
491.5649, 283.3037
492.0471, 284.3890
492.5292, 285.5198
493.0113, 286.7119
493.4934, 288.0498
493.9755, 290.0502
494.4576, 292.6504
494.9398, 294.9100
495.4219, 295.4782
495.9040, 295.3644
496.3861, 296.5902
496.8682, 299.6310
497.3503, 302.7486
497.8325, 304.5884
498.3146, 305.5582
498.7967, 306.3272
499.2788, 306.6455
499.7609, 307.2960
500.2430, 308.8913
500.7252, 311.2241
501.2073, 313.4007
501.6894, 314.6774
502.1715, 316.1074
502.6536, 318.1921
503.1357, 321.0378
503.6179, 324.3797
504.1000, 328.7405
504.5821, 333.2310
505.0642, 336.8667
505.5463, 338.9541
506.0284, 341.7664
506.5106, 345.9966
506.9927, 351.0198
507.4748, 354.7991
507.9569, 357.2304
508.4390, 358.8950
508.9211, 360.4980
509.4033, 361.7930
509.8854, 360.4979
510.3675, 356.4688
510.8496, 351.0541
511.3317, 344.9969
511.8138, 338.5684
512.2960, 332.5724
512.7781, 326.9722
513.2602, 322.0836
513.7423, 318.4128
514.2244, 315.7044
514.7065, 313.3338
515.1887, 311.0225
515.6708, 308.9258
516.1529, 307.0966
516.6350, 305.5376
517.1171, 304.4628
517.5992, 304.2939
518.0814, 304.4160
518.5635, 304.4244
519.0456, 304.0703
519.5277, 303.9371
520.0098, 304.1259
520.4919, 304.5141
520.9741, 304.8651
521.4562, 304.8351
521.9383, 305.4891
522.4204, 307.3427
522.9025, 310.1221
523.3846, 311.9901
523.8668, 312.7393
524.3489, 313.3861
524.8310, 314.7430
525.3131, 316.6764
525.7952, 317.9419
526.2773, 318.4471
526.7595, 318.5624
527.2416, 318.5423
527.7237, 318.4594
528.2058, 318.4825
528.6879, 318.5853
529.1700, 318.9297
529.6522, 319.7188
530.1343, 320.8871
530.6164, 322.2643
531.0985, 323.3452
531.5806, 324.9337
532.0627, 327.5022
532.5449, 331.0860
533.0270, 335.4301
533.5091, 340.8951
533.9912, 346.8032
534.4733, 352.5988
534.9554, 358.1992
535.4376, 363.8701
535.9197, 369.6277
536.4018, 375.4069
536.8839, 380.7960
537.3660, 385.4361
537.8481, 390.7373
538.3303, 397.0631
538.8124, 404.3850
539.2945, 412.8331
539.7766, 422.4828
540.2587, 432.6086
540.7408, 442.5074
541.2230, 452.4948
541.7051, 463.3232
542.1872, 475.0321
542.6693, 487.6754
543.1514, 501.4157
543.6335, 516.1898
544.1157, 532.3614
544.5978, 550.9159
545.0799, 569.6031
545.5620, 586.9397
546.0441, 603.0663
546.5262, 618.3229
547.0084, 634.8643
547.4905, 648.6647
547.9726, 659.3190
548.4547, 666.9501
548.9368, 667.2468
549.4189, 658.6901
549.9011, 643.6390
550.3832, 622.7996
550.8653, 593.5054
551.3474, 564.2331
551.8295, 534.6664
552.3116, 506.0258
552.7938, 479.9453
553.2759, 456.3358
553.7580, 436.3054
554.2401, 420.6615
554.7222, 408.3529
555.2043, 396.8651
555.6865, 386.3315
556.1686, 377.1219
556.6507, 369.2714
557.1328, 363.0218
557.6149, 359.1465
558.0970, 357.7043
558.5792, 356.4269
559.0613, 353.5670
559.5434, 350.1629
560.0255, 347.2609
560.5076, 345.2767
560.9897, 343.5729
561.4719, 341.6795
561.9540, 339.9851
562.4361, 339.1583
562.9182, 340.1193
563.4003, 341.0081
563.8824, 341.6072
564.3646, 341.8884
564.8467, 341.5968
565.3288, 340.3882
565.8109, 339.2999
566.2930, 338.8301
566.7751, 338.9895
567.2573, 339.6622
567.7394, 340.9960
568.2215, 342.1746
568.7036, 342.2027
569.1857, 341.3378
569.6678, 340.5123
570.1500, 339.8929
570.6321, 339.4607
571.1142, 339.1834
571.5963, 339.0865
572.0784, 339.2249
572.5605, 340.1975
573.0427, 340.9181
573.5248, 340.3351
574.0069, 338.7172
574.4890, 337.8130
574.9711, 339.0576
575.4532, 340.4437
575.9354, 340.8889
576.4175, 339.9615
576.8996, 339.4695
577.3817, 339.7421
577.8638, 340.1325
578.3459, 339.9823
578.8281, 339.0736
579.3102, 338.5570
579.7923, 338.6785
580.2744, 339.0584
580.7565, 338.8179
581.2386, 338.0091
581.7208, 337.6146
582.2029, 338.3064
582.6850, 339.4310
583.1671, 339.6652
583.6492, 339.1676
584.1313, 338.8802
584.6135, 339.5998
585.0956, 340.6890
585.5776, 341.4119
586.0598, 341.6227
586.5419, 342.3471
