##NAMES=Grossular
##RRUFFID=R070551
##IDEAL CHEMISTRY=Ca_3_Al_2_(SiO_4_)_3_
##LOCALITY=Mali
##OWNER=RRUFF
##SOURCE=www.multicolour.com
##DESCRIPTION=Green gem fragments
##STATUS=The identification of this mineral has been confirmed by X-ray diffraction and chemical analysis
##URL=rruff.info/R070551
##MEASURED CHEMISTRY=(Ca_2.95_Mg_0.04_Mn_0.01_)_Σ=3_(Al_1.63_Fe^3+^_0.37_)_Σ=2_(Si_1.00_O_4_)_3_
123.7152, 556.9567
124.1973, 468.2400
124.6794, 457.5185
125.1615, 541.6506
125.6437, 615.0661
126.1258, 685.4109
126.6079, 738.4626
127.0900, 746.8068
127.5721, 703.4246
128.0542, 658.0996
128.5363, 677.4096
129.0185, 762.6899
129.5006, 831.4222
129.9827, 882.5588
130.4648, 903.8134
130.9469, 859.8680
131.4290, 726.4929
131.9112, 584.5833
132.3933, 541.8516
132.8754, 588.9312
133.3575, 643.3993
133.8396, 675.6238
134.3217, 693.7718
134.8039, 720.6649
135.2860, 769.9393
135.7681, 812.6760
136.2502, 805.1858
136.7323, 748.5763
137.2144, 713.3306
137.6966, 758.2227
138.1787, 864.2325
138.6608, 939.0068
139.1429, 951.5245
139.6250, 938.9193
140.1071, 940.9006
140.5893, 958.0467
141.0714, 969.3704
141.5535, 958.5694
142.0356, 926.3846
142.5177, 885.1415
142.9998, 805.7722
143.4819, 747.5273
143.9641, 766.9931
144.4462, 868.6877
144.9283, 982.1467
145.4104, 1037.878
145.8925, 1030.637
146.3746, 1030.375
146.8568, 1059.757
147.3389, 1094.928
147.8210, 1127.201
148.3031, 1154.668
148.7852, 1166.964
149.2673, 1133.769
149.7495, 1032.580
150.2316, 994.3175
150.7137, 1107.064
151.1958, 1249.817
151.6779, 1357.649
152.1600, 1408.884
152.6422, 1413.950
153.1243, 1375.929
153.6064, 1263.001
154.0885, 1211.613
154.5706, 1296.561
155.0527, 1405.063
155.5349, 1459.989
156.0170, 1441.469
156.4991, 1388.412
156.9812, 1359.082
157.4633, 1357.860
157.9454, 1370.954
158.4276, 1419.743
158.9097, 1465.748
159.3918, 1475.569
159.8739, 1439.939
160.3560, 1381.822
160.8382, 1342.218
161.3203, 1328.497
161.8024, 1320.300
162.2845, 1311.428
162.7666, 1308.296
163.2487, 1318.335
163.7309, 1343.556
164.2130, 1376.543
164.6951, 1404.366
165.1772, 1435.425
165.6593, 1445.727
166.1414, 1405.004
166.6235, 1361.310
167.1057, 1364.615
167.5878, 1430.763
168.0699, 1526.207
168.5520, 1579.575
169.0341, 1579.742
169.5162, 1550.386
169.9984, 1441.456
170.4805, 1331.238
170.9626, 1304.450
171.4447, 1390.504
171.9268, 1537.463
172.4089, 1631.481
172.8911, 1640.028
173.3732, 1634.938
173.8553, 1589.427
174.3374, 1545.208
174.8195, 1547.002
175.3016, 1611.026
175.7838, 1714.199
176.2659, 1805.383
176.7480, 1879.862
177.2301, 1946.734
177.7122, 1971.576
178.1943, 2003.529
178.6765, 2099.637
179.1586, 2280.730
179.6407, 2514.213
180.1228, 2729.816
180.6049, 3019.162
181.0870, 3166.242
181.5692, 3125.798
182.0513, 2964.198
182.5334, 2726.870
183.0155, 2431.837
183.4976, 2114.601
183.9797, 1849.413
184.4619, 1631.164
184.9440, 1481.148
185.4261, 1453.924
185.9082, 1472.108
186.3903, 1445.171
186.8724, 1342.641
187.3545, 1212.073
187.8367, 1150.690
188.3188, 1228.461
188.8009, 1279.262
189.2830, 1283.123
189.7651, 1266.130
190.2472, 1253.415
190.7294, 1253.276
191.2115, 1261.138
191.6936, 1269.979
192.1757, 1297.143
192.6578, 1295.203
193.1399, 1223.849
193.6221, 1141.095
194.1042, 1116.456
194.5863, 1168.980
195.0684, 1248.847
195.5505, 1271.478
196.0326, 1185.245
196.5148, 1133.012
196.9969, 1144.728
197.4790, 1176.956
197.9611, 1183.517
198.4432, 1153.048
198.9253, 1114.456
199.4075, 1111.444
199.8896, 1174.281
200.3717, 1211.735
200.8538, 1199.034
201.3359, 1174.207
201.8180, 1174.240
202.3002, 1206.567
202.7823, 1248.650
203.2644, 1270.885
203.7465, 1262.332
204.2286, 1258.911
204.7107, 1268.532
205.1928, 1278.325
205.6750, 1278.972
206.1571, 1268.484
206.6392, 1248.073
207.1213, 1217.166
207.6034, 1169.272
208.0855, 1134.505
208.5677, 1107.246
209.0498, 1095.837
209.5319, 1113.974
210.0140, 1159.910
210.4961, 1212.031
210.9782, 1248.415
211.4604, 1266.531
211.9425, 1276.453
212.4246, 1280.864
212.9067, 1276.002
213.3888, 1251.646
213.8709, 1211.507
214.3531, 1175.259
214.8352, 1160.111
215.3173, 1167.644
215.7994, 1193.505
216.2815, 1261.882
216.7636, 1325.069
217.2458, 1356.646
217.7279, 1358.142
218.2100, 1344.151
218.6921, 1323.745
219.1742, 1296.359
219.6563, 1282.824
220.1385, 1289.339
220.6206, 1300.787
221.1027, 1306.938
221.5848, 1311.826
222.0669, 1328.197
222.5490, 1366.265
223.0312, 1424.708
223.5133, 1480.700
223.9954, 1545.041
224.4775, 1596.482
224.9596, 1621.465
225.4417, 1628.662
225.9238, 1635.193
226.4060, 1650.910
226.8881, 1674.966
227.3702, 1701.804
227.8523, 1704.979
228.3344, 1740.616
228.8165, 1856.521
229.2987, 2005.865
229.7808, 2111.189
230.2629, 2131.496
230.7450, 2094.657
231.2271, 2099.675
231.7092, 2180.505
232.1914, 2265.684
232.6735, 2353.494
233.1556, 2441.437
233.6377, 2523.211
234.1198, 2596.356
234.6019, 2672.147
235.0841, 2778.329
235.5662, 2956.354
236.0483, 3110.307
236.5304, 3232.750
237.0125, 3334.100
237.4946, 3428.310
237.9768, 3517.803
238.4589, 3587.485
238.9410, 3605.994
239.4231, 3525.246
239.9052, 3481.148
240.3873, 3470.510
240.8695, 3492.348
241.3516, 3553.893
241.8337, 3652.377
242.3158, 3769.009
242.7979, 3875.600
243.2800, 3950.849
243.7622, 4085.278
244.2443, 4334.488
244.7264, 4586.954
245.2085, 4817.141
245.6906, 5002.777
246.1727, 5106.913
246.6548, 5091.369
247.1370, 4950.360
247.6191, 4730.612
248.1012, 4357.727
248.5833, 3976.756
249.0654, 3615.583
249.5475, 3285.985
250.0297, 3001.435
250.5118, 2773.412
250.9939, 2599.881
251.4760, 2460.700
251.9581, 2379.858
252.4402, 2309.422
252.9224, 2232.903
253.4045, 2158.471
253.8866, 2102.157
254.3687, 2075.866
254.8508, 2071.136
255.3329, 2055.106
255.8151, 2017.766
256.2972, 1985.003
256.7793, 1952.502
257.2614, 1931.218
257.7435, 1937.990
258.2256, 1982.747
258.7078, 2045.841
259.1899, 2091.495
259.6720, 2119.462
260.1541, 2129.144
260.6362, 2086.350
261.1183, 2045.201
261.6005, 2056.614
262.0826, 2134.648
262.5647, 2236.005
263.0468, 2311.902
263.5289, 2360.744
264.0110, 2394.407
264.4932, 2408.659
264.9753, 2412.045
265.4574, 2412.744
265.9395, 2410.836
266.4216, 2394.705
266.9037, 2335.679
267.3859, 2241.139
267.8680, 2196.025
268.3501, 2236.386
268.8322, 2299.279
269.3143, 2331.373
269.7964, 2339.340
270.2786, 2361.022
270.7607, 2422.794
271.2428, 2513.598
271.7249, 2600.996
272.2070, 2675.514
272.6891, 2764.231
273.1713, 2883.009
273.6534, 3029.360
274.1355, 3207.065
274.6176, 3455.809
275.0997, 3717.387
275.5818, 3926.088
276.0640, 4084.221
276.5461, 4175.397
277.0282, 4189.434
277.5103, 4122.825
277.9924, 3976.419
278.4745, 3693.216
278.9566, 3390.015
279.4388, 3153.494
279.9209, 2974.397
280.4030, 2799.035
280.8851, 2595.406
281.3672, 2387.378
281.8493, 2233.644
282.3315, 2143.420
282.8136, 2078.477
283.2957, 2037.922
283.7778, 2010.981
284.2599, 1972.595
284.7420, 1911.347
285.2242, 1849.465
285.7063, 1827.360
286.1884, 1858.924
286.6705, 1883.382
287.1526, 1900.174
287.6347, 1902.639
288.1169, 1873.207
288.5990, 1811.395
289.0811, 1751.468
289.5632, 1732.689
290.0453, 1767.304
290.5274, 1787.975
291.0096, 1799.259
291.4917, 1794.230
291.9738, 1755.277
292.4559, 1692.444
292.9380, 1641.466
293.4201, 1633.473
293.9023, 1666.189
294.3844, 1664.830
294.8665, 1584.361
295.3486, 1521.167
295.8307, 1511.420
296.3128, 1533.170
296.7950, 1546.511
297.2771, 1529.497
297.7592, 1497.971
298.2413, 1504.196
298.7234, 1588.902
299.2055, 1651.824
299.6877, 1680.207
300.1698, 1686.786
300.6519, 1675.788
301.1340, 1650.446
301.6161, 1625.072
302.0982, 1618.828
302.5804, 1630.986
303.0625, 1665.374
303.5446, 1759.346
304.0267, 1845.455
304.5088, 1878.272
304.9909, 1863.075
305.4731, 1845.201
305.9552, 1873.957
306.4373, 1946.609
306.9194, 1982.156
307.4015, 1947.995
307.8836, 1920.230
308.3658, 1944.378
308.8479, 2001.052
309.3300, 2049.435
309.8121, 2070.842
310.2942, 2070.444
310.7763, 2049.363
311.2585, 1996.516
311.7406, 1965.587
312.2227, 1999.132
312.7048, 2065.073
313.1869, 2126.214
313.6690, 2175.092
314.1512, 2219.051
314.6333, 2260.893
315.1154, 2301.688
315.5975, 2352.839
316.0796, 2428.875
316.5617, 2504.645
317.0439, 2537.885
317.5260, 2519.775
318.0081, 2512.486
318.4902, 2556.263
318.9723, 2622.003
319.4544, 2647.456
319.9365, 2614.843
320.4186, 2594.014
320.9008, 2671.119
321.3829, 2861.674
321.8650, 3015.727
322.3471, 3101.979
322.8292, 3168.937
323.3113, 3251.880
323.7935, 3348.891
324.2756, 3436.688
324.7577, 3495.407
325.2398, 3529.377
325.7219, 3587.644
326.2040, 3696.796
326.6862, 3796.167
327.1683, 3877.193
327.6504, 3936.987
328.1325, 3971.768
328.6146, 3979.721
329.0967, 3964.567
329.5789, 3932.419
330.0610, 3868.450
330.5431, 3812.292
331.0252, 3769.187
331.5073, 3730.497
331.9894, 3681.406
332.4716, 3624.370
332.9537, 3583.887
333.4358, 3589.592
333.9179, 3646.555
334.4000, 3708.429
334.8821, 3780.568
335.3643, 3852.944
335.8464, 3914.990
336.3285, 3974.086
336.8106, 4048.504
337.2927, 4158.694
337.7748, 4285.662
338.2570, 4364.454
338.7391, 4364.028
339.2212, 4399.469
339.7033, 4553.860
340.1854, 4754.552
340.6675, 4928.549
341.1497, 5058.105
341.6318, 5163.067
342.1139, 5252.478
342.5960, 5328.797
343.0781, 5419.532
343.5602, 5534.412
344.0424, 5662.869
344.5245, 5796.831
345.0066, 5937.992
345.4887, 6062.308
345.9708, 6163.357
346.4529, 6241.226
346.9351, 6293.223
347.4172, 6318.629
347.8993, 6327.644
348.3814, 6320.725
348.8635, 6299.349
349.3456, 6310.392
349.8278, 6399.593
350.3099, 6476.014
350.7920, 6485.666
351.2741, 6444.986
351.7562, 6397.240
352.2383, 6364.147
352.7205, 6340.172
353.2026, 6308.503
353.6847, 6278.264
354.1668, 6226.922
354.6489, 6135.243
355.1310, 6033.093
355.6132, 5934.848
356.0953, 5849.600
356.5774, 5797.759
357.0595, 5813.189
357.5416, 5913.590
358.0237, 5994.393
358.5059, 6012.991
358.9880, 6052.037
359.4701, 6139.586
359.9522, 6272.746
360.4343, 6437.047
360.9164, 6619.998
361.3985, 6830.553
361.8806, 7096.603
362.3628, 7427.469
362.8449, 7790.970
363.3270, 8182.507
363.8091, 8597.303
364.2912, 9040.438
364.7733, 9520.329
365.2555, 9995.928
365.7376, 10445.70
366.2197, 10866.29
366.7018, 11233.68
367.1839, 11534.80
367.6660, 11793.54
368.1482, 12020.34
368.6303, 12218.42
369.1124, 12439.83
369.5945, 12659.76
370.0766, 12932.11
370.5587, 13308.34
371.0409, 13792.56
371.5230, 14386.99
372.0051, 15125.85
372.4872, 15982.18
372.9693, 16740.75
373.4514, 17480.81
373.9336, 18051.04
374.4157, 18436.12
374.8978, 18617.02
375.3799, 18571.38
375.8620, 18290.87
376.3441, 17786.01
376.8263, 17067.12
377.3084, 16035.31
377.7905, 14976.18
378.2726, 13817.89
378.7547, 12694.70
379.2368, 11668.19
379.7190, 10743.62
380.2011, 9902.384
380.6832, 9142.371
381.1653, 8456.128
381.6474, 7781.890
382.1295, 7065.678
382.6117, 6454.550
383.0938, 6035.243
383.5759, 5720.854
384.0580, 5405.413
384.5401, 5048.694
385.0222, 4594.642
385.5044, 4579.494
385.9865, 4504.705
386.4686, 4373.463
386.9507, 4016.637
387.4328, 3951.103
387.9149, 3768.835
388.3971, 3581.742
388.8792, 3557.193
389.3613, 3233.184
389.8434, 3206.057
390.3255, 3060.425
390.8076, 2969.034
391.2898, 2824.009
391.7719, 2777.940
392.2540, 2751.250
392.7361, 2725.896
393.2182, 2711.521
393.7003, 2687.245
394.1825, 2635.394
394.6646, 2573.968
395.1467, 2526.977
395.6288, 2502.874
396.1109, 2495.496
396.5930, 2498.782
397.0752, 2527.507
397.5573, 2526.369
398.0394, 2439.619
398.5215, 2377.027
399.0036, 2425.625
399.4857, 2549.505
399.9679, 2637.839
400.4500, 2601.238
400.9321, 2480.422
401.4142, 2435.875
401.8963, 2506.050
402.3784, 2560.285
402.8605, 2525.967
403.3427, 2467.767
403.8248, 2449.776
404.3069, 2487.777
404.7890, 2540.718
405.2711, 2582.455
405.7532, 2612.823
406.2354, 2624.419
406.7175, 2605.517
407.1996, 2596.839
407.6817, 2651.046
408.1638, 2761.525
408.6459, 2851.612
409.1281, 2892.387
409.6102, 2925.679
410.0923, 2995.671
410.5744, 3086.708
411.0565, 3144.370
411.5386, 3139.133
412.0208, 3085.586
412.5029, 3025.420
412.9850, 2963.235
413.4671, 2886.953
413.9492, 2785.829
414.4313, 2677.493
414.9135, 2567.111
415.3956, 2460.709
415.8777, 2377.621
416.3598, 2345.972
416.8419, 2364.724
417.3240, 2339.502
417.8062, 2219.207
418.2883, 2125.565
418.7704, 2117.977
419.2525, 2153.127
419.7346, 2172.200
420.2167, 2153.956
420.6989, 2116.596
421.1810, 2072.790
421.6631, 2023.753
422.1452, 1995.116
422.6273, 2002.380
423.1094, 2018.721
423.5916, 2012.463
424.0737, 1985.164
424.5558, 1960.274
425.0379, 1937.873
425.5200, 1924.782
426.0021, 1933.633
426.4843, 1960.930
426.9664, 1987.358
427.4485, 2002.482
427.9306, 2006.003
428.4127, 1996.104
428.8948, 1949.363
429.3770, 1919.590
429.8591, 1938.346
430.3412, 1960.766
430.8233, 1932.024
431.3054, 1849.161
431.7875, 1766.267
432.2697, 1743.588
432.7518, 1784.331
433.2339, 1822.529
433.7160, 1863.114
434.1981, 1893.942
434.6802, 1898.094
435.1624, 1893.859
435.6445, 1914.832
436.1266, 1983.794
436.6087, 2051.634
437.0908, 2052.255
437.5729, 1990.602
438.0551, 1931.779
438.5372, 1887.875
439.0193, 1858.952
439.5014, 1852.587
439.9835, 1867.675
440.4656, 1872.513
440.9478, 1848.756
441.4299, 1820.453
441.9120, 1812.939
442.3941, 1821.844
442.8762, 1820.867
443.3583, 1792.031
443.8404, 1747.344
444.3225, 1728.725
444.8047, 1748.162
445.2868, 1780.496
445.7689, 1862.259
446.2510, 1931.261
446.7331, 1917.706
447.2152, 1826.649
447.6974, 1738.590
448.1795, 1734.413
448.6616, 1806.011
449.1437, 1848.974
449.6258, 1856.831
450.1079, 1846.791
450.5901, 1809.121
451.0722, 1765.025
451.5543, 1744.839
452.0364, 1761.930
452.5185, 1781.466
453.0006, 1768.690
453.4828, 1734.357
453.9649, 1721.413
454.4470, 1745.579
454.9291, 1762.097
455.4112, 1711.857
455.8933, 1588.794
456.3755, 1528.845
456.8576, 1583.682
457.3397, 1652.964
457.8218, 1691.762
458.3039, 1705.610
458.7860, 1709.103
459.2682, 1708.666
459.7503, 1704.304
460.2324, 1692.714
460.7145, 1658.558
461.1966, 1654.260
461.6787, 1720.420
462.1609, 1779.624
462.6430, 1784.214
463.1251, 1746.736
463.6072, 1712.305
464.0893, 1710.023
464.5714, 1725.969
465.0536, 1734.118
465.5357, 1734.990
466.0178, 1722.793
466.4999, 1688.632
466.9820, 1645.423
467.4641, 1604.198
467.9463, 1559.226
468.4284, 1549.137
468.9105, 1623.806
469.3926, 1719.332
469.8747, 1757.958
470.3568, 1738.367
470.8390, 1713.178
471.3211, 1720.831
471.8032, 1753.583
472.2853, 1764.269
472.7674, 1704.273
473.2495, 1682.718
473.7317, 1749.997
474.2138, 1833.450
474.6959, 1858.689
475.1780, 1818.465
475.6601, 1770.595
476.1422, 1781.881
476.6244, 1843.818
477.1065, 1856.106
477.5886, 1795.837
478.0707, 1733.818
478.5528, 1703.487
479.0349, 1693.392
479.5171, 1692.818
479.9992, 1705.387
480.4813, 1712.965
480.9634, 1696.082
481.4455, 1667.244
481.9276, 1652.684
482.4098, 1657.963
482.8918, 1673.001
483.3740, 1689.495
483.8561, 1707.544
484.3382, 1723.037
484.8203, 1733.341
485.3024, 1744.521
485.7845, 1762.466
486.2667, 1780.870
486.7488, 1785.676
487.2309, 1773.439
487.7130, 1765.984
488.1951, 1803.774
488.6772, 1894.717
489.1594, 1944.313
489.6415, 1915.524
490.1236, 1890.328
490.6057, 1920.455
491.0878, 1984.276
491.5699, 2037.425
492.0521, 2064.220
492.5342, 2080.900
493.0163, 2101.665
493.4984, 2124.282
493.9805, 2139.204
494.4626, 2142.021
494.9448, 2145.793
495.4269, 2168.009
495.9090, 2213.620
496.3911, 2249.563
496.8732, 2263.626
497.3553, 2281.606
497.8375, 2333.377
498.3196, 2393.065
498.8017, 2405.775
499.2838, 2347.628
499.7659, 2270.897
500.2480, 2271.188
500.7302, 2364.656
501.2123, 2438.840
501.6944, 2474.549
502.1765, 2499.665
502.6586, 2537.561
503.1407, 2579.021
503.6229, 2595.965
504.1050, 2545.260
504.5871, 2503.048
505.0692, 2566.493
505.5513, 2705.752
506.0334, 2805.464
506.5156, 2826.528
506.9977, 2808.181
507.4798, 2801.933
507.9619, 2812.237
508.4440, 2817.212
508.9261, 2798.572
509.4083, 2793.393
509.8904, 2829.375
510.3725, 2889.106
510.8546, 2943.792
511.3367, 2980.980
511.8188, 2998.779
512.3010, 2985.795
512.7831, 2935.494
513.2652, 2905.932
513.7473, 2908.762
514.2294, 2927.893
514.7115, 2957.536
515.1937, 2993.978
515.6758, 3025.193
516.1579, 3043.789
516.6400, 3059.555
517.1221, 3078.034
517.6042, 3099.794
518.0864, 3128.818
518.5685, 3166.941
519.0506, 3205.791
519.5327, 3233.829
520.0148, 3248.530
520.4969, 3263.685
520.9791, 3300.514
521.4612, 3315.125
521.9433, 3261.246
522.4254, 3182.729
522.9075, 3157.241
523.3896, 3218.788
523.8718, 3297.687
524.3539, 3289.382
524.8360, 3196.485
525.3181, 3129.493
525.8002, 3107.737
526.2823, 3101.721
526.7645, 3101.693
527.2466, 3100.743
527.7287, 3075.011
528.2108, 2981.739
528.6929, 2906.147
529.1750, 2912.452
529.6572, 2960.681
530.1393, 2978.154
530.6214, 2947.314
531.1035, 2907.837
531.5856, 2905.352
532.0677, 2942.628
532.5499, 2981.661
533.0320, 3032.294
533.5141, 3072.662
533.9962, 3094.545
534.4783, 3104.873
534.9604, 3100.978
535.4426, 3080.847
535.9247, 3089.064
536.4068, 3179.475
536.8889, 3330.535
537.3710, 3475.272
537.8531, 3605.495
538.3353, 3735.781
538.8174, 3868.301
539.2995, 4008.883
539.7816, 4181.191
540.2637, 4409.839
540.7458, 4634.225
541.2280, 4835.570
541.7101, 5030.809
542.1922, 5256.174
542.6743, 5501.296
543.1564, 5703.500
543.6385, 5816.989
544.1207, 5841.076
544.6027, 5773.816
545.0848, 5612.651
545.5670, 5366.074
546.0491, 4969.885
546.5312, 4527.902
547.0133, 4128.572
547.4954, 3777.118
547.9775, 3450.317
548.4597, 3131.663
548.9418, 2835.943
549.4239, 2583.098
549.9060, 2370.724
550.3881, 2185.277
550.8702, 2017.704
551.3524, 1877.234
551.8345, 1788.702
552.3166, 1784.581
552.7987, 1768.308
553.2808, 1730.967
553.7629, 1691.750
554.2451, 1657.631
554.7272, 1629.841
555.2093, 1610.131
555.6914, 1602.412
556.1735, 1595.568
556.6556, 1572.071
557.1378, 1533.479
557.6199, 1491.729
558.1020, 1442.394
558.5841, 1409.845
559.0662, 1427.473
559.5483, 1496.032
560.0305, 1537.953
560.5126, 1552.744
560.9947, 1540.315
561.4768, 1469.568
561.9589, 1384.154
562.4410, 1347.996
562.9232, 1375.576
563.4053, 1423.468
563.8874, 1442.842
564.3695, 1434.842
564.8516, 1439.995
565.3337, 1468.514
565.8159, 1488.811
566.2980, 1478.115
566.7801, 1455.329
567.2622, 1441.923
567.7443, 1440.264
568.2264, 1446.653
568.7086, 1461.326
569.1907, 1482.072
569.6728, 1512.262
570.1549, 1548.228
570.6370, 1568.822
571.1191, 1557.807
571.6013, 1530.642
572.0834, 1541.683
572.5655, 1641.005
573.0476, 1676.016
573.5297, 1568.786
574.0118, 1459.780
574.4940, 1432.178
574.9761, 1471.093
575.4582, 1516.958
575.9403, 1550.730
576.4224, 1567.192
576.9045, 1543.010
577.3867, 1491.360
577.8688, 1477.928
578.3509, 1524.800
578.8330, 1586.908
579.3151, 1617.689
579.7972, 1615.348
580.2794, 1600.746
580.7615, 1548.645
581.2436, 1516.082
581.7257, 1534.732
582.2078, 1572.715
582.6899, 1595.935
583.1721, 1595.484
583.6542, 1579.406
584.1363, 1551.913
584.6184, 1514.653
585.1005, 1470.992
585.5826, 1417.585
586.0648, 1379.218
586.5469, 1368.073
587.0290, 1378.452
587.5111, 1402.793
587.9932, 1448.980
588.4753, 1481.518
588.9575, 1493.580
589.4396, 1491.335
589.9217, 1468.431
590.4038, 1435.280
590.8859, 1418.226
591.3680, 1432.199
591.8502, 1454.717
592.3323, 1442.072
592.8144, 1390.439
593.2965, 1342.678
593.7786, 1297.651
594.2607, 1265.759
594.7429, 1265.254
595.2250, 1282.886
595.7071, 1284.875
596.1892, 1245.459
596.6713, 1221.309
597.1534, 1256.176
597.6356, 1313.091
598.1177, 1340.469
598.5998, 1332.756
599.0819, 1319.213
599.5640, 1324.740
600.0461, 1343.857
600.5283, 1344.934
601.0104, 1314.272
601.4925, 1298.942
601.9746, 1315.533
602.4567, 1346.239
602.9388, 1387.732
603.4210, 1435.892
603.9031, 1464.787
604.3852, 1454.872
604.8673, 1430.621
605.3494, 1402.486
605.8315, 1377.427
606.3137, 1380.633
606.7958, 1419.700
607.2779, 1455.782
607.7600, 1435.852
608.2421, 1354.121
608.7242, 1292.416
609.2064, 1238.778
609.6885, 1223.733
610.1706, 1294.026
610.6527, 1382.803
611.1348, 1412.727
611.6169, 1370.469
612.0991, 1319.334
612.5812, 1291.143
613.0633, 1280.111
613.5454, 1282.448
614.0275, 1295.943
614.5096, 1312.019
614.9918, 1327.769
615.4739, 1339.357
615.9560, 1338.396
616.4381, 1318.742
616.9202, 1304.348
617.4023, 1295.031
617.8845, 1291.031
618.3666, 1288.419
618.8487, 1292.463
619.3308, 1314.985
619.8129, 1362.907
620.2950, 1410.024
