##NAMES=Grossular
##RRUFFID=R050036
##IDEAL CHEMISTRY=Ca_3_Al_2_(SiO_4_)_3_
##LOCALITY=Wah Wah Mountains, Utah, USA
##OWNER=RRUFF
##SOURCE=Eugene Schlepp
##DESCRIPTION=Colorless single crystal in rhyolite matrix
##STATUS=The identification of this mineral has been confirmed by X-ray diffraction and chemical analysis
##URL=rruff.info/R050036
##MEASURED CHEMISTRY=(Ca_2.95_Mg_0.05_)_Σ=3_(Al_1.70_Fe^3+^_0.30_)_Σ=2_(Si_1.00_O_4_)_3_; trace amounts of P
138.3756, 264.5284
138.8577, 267.0536
139.3398, 270.1121
139.8220, 273.7150
140.3041, 278.1277
140.7862, 283.6475
141.2683, 289.4808
141.7504, 294.2373
142.2325, 298.6541
142.7147, 305.2218
143.1968, 316.0401
143.6789, 331.2859
144.1610, 347.3979
144.6431, 367.6288
145.1252, 385.8774
145.6074, 396.3897
146.0895, 400.2631
146.5716, 405.4767
147.0537, 418.9266
147.5358, 440.8869
148.0179, 459.8282
148.5001, 472.0712
148.9822, 484.0351
149.4643, 500.4707
149.9464, 521.6698
150.4285, 544.9825
150.9106, 569.8945
151.3928, 595.6568
151.8749, 617.0308
152.3570, 632.4589
152.8391, 644.1018
153.3212, 652.3441
153.8033, 657.0200
154.2855, 663.1713
154.7676, 675.9970
155.2497, 694.0951
155.7318, 711.1800
156.2139, 728.9211
156.6960, 743.8863
157.1782, 749.5923
157.6603, 744.1883
158.1424, 739.9480
158.6245, 747.6418
159.1066, 763.9382
159.5887, 781.8262
160.0709, 797.4775
160.5530, 814.4878
161.0351, 839.0164
161.5172, 872.6330
161.9993, 907.9745
162.4814, 942.7368
162.9636, 975.3964
163.4457, 1002.572
163.9278, 1018.428
164.4099, 1029.166
164.8920, 1048.026
165.3741, 1079.606
165.8563, 1106.108
166.3384, 1112.364
166.8205, 1106.617
167.3026, 1102.204
167.7847, 1107.062
168.2668, 1115.849
168.7490, 1115.783
169.2311, 1102.776
169.7132, 1090.092
170.1953, 1084.131
170.6774, 1083.069
171.1595, 1084.300
171.6417, 1085.430
172.1238, 1088.589
172.6059, 1100.349
173.0880, 1125.254
173.5701, 1149.841
174.0522, 1160.871
174.5344, 1169.111
175.0165, 1190.014
175.4986, 1230.935
175.9807, 1289.481
176.4628, 1360.481
176.9449, 1446.674
177.4271, 1541.720
177.9092, 1640.922
178.3913, 1746.131
178.8734, 1866.392
179.3555, 2021.807
179.8376, 2182.214
180.3197, 2260.506
180.8019, 2241.143
181.2840, 2157.004
181.7661, 1999.231
182.2482, 1801.433
182.7303, 1601.294
183.2124, 1412.270
183.6946, 1239.760
184.1767, 1099.231
184.6588, 995.5583
185.1409, 921.3024
185.6230, 881.2088
186.1051, 861.4796
186.5873, 846.5886
187.0694, 829.4393
187.5515, 812.8655
188.0336, 804.9889
188.5157, 812.3508
188.9978, 817.4925
189.4800, 815.6206
189.9621, 810.3955
190.4442, 805.1951
190.9263, 801.4313
191.4084, 799.0801
191.8905, 798.6439
192.3727, 803.2990
192.8548, 803.9225
193.3369, 793.6671
193.8190, 781.7904
194.3011, 778.0397
194.7832, 786.3742
195.2654, 801.4668
195.7475, 811.8395
196.2296, 815.3011
196.7117, 817.9442
197.1938, 821.4819
197.6759, 824.2732
198.1581, 824.1107
198.6402, 820.3677
199.1223, 815.5529
199.6044, 814.5060
200.0865, 819.2604
200.5686, 823.9420
201.0508, 828.8256
201.5329, 832.9855
202.0150, 834.9716
202.4971, 834.6089
202.9792, 833.8932
203.4613, 836.3919
203.9435, 844.3763
204.4256, 850.4473
204.9077, 851.9148
205.3898, 853.2751
205.8719, 858.0784
206.3540, 866.7932
206.8362, 876.7685
207.3183, 884.0510
207.8004, 886.4113
208.2825, 891.7300
208.7646, 901.8050
209.2467, 913.0950
209.7289, 925.0540
210.2110, 936.7555
210.6931, 945.8395
211.1752, 947.9205
211.6573, 938.6445
212.1395, 938.6442
212.6216, 954.2879
213.1037, 972.9999
213.5858, 990.8250
214.0679, 1006.407
214.5500, 1018.564
215.0322, 1024.503
215.5143, 1021.887
215.9964, 1028.830
216.4785, 1056.974
216.9606, 1083.786
217.4427, 1100.464
217.9249, 1108.222
218.4070, 1112.633
218.8891, 1117.048
219.3712, 1121.232
219.8533, 1134.177
220.3354, 1165.235
220.8176, 1196.479
221.2997, 1225.138
221.7818, 1250.254
222.2639, 1270.111
222.7460, 1281.948
223.2281, 1287.455
223.7103, 1303.817
224.1924, 1341.709
224.6745, 1379.821
225.1566, 1414.863
225.6387, 1447.194
226.1208, 1477.082
226.6030, 1504.017
227.0851, 1529.838
227.5672, 1562.547
228.0493, 1608.969
228.5314, 1653.663
229.0135, 1689.686
229.4957, 1724.088
229.9778, 1765.688
230.4599, 1818.625
230.9420, 1878.445
231.4241, 1934.876
231.9062, 1987.069
232.3884, 2036.512
232.8705, 2076.409
233.3526, 2117.604
233.8347, 2172.514
234.3168, 2244.590
234.7989, 2323.586
235.2811, 2390.358
235.7632, 2437.463
236.2453, 2490.458
236.7274, 2567.473
237.2095, 2639.967
237.6916, 2688.880
238.1738, 2710.666
238.6559, 2715.499
239.1380, 2712.695
239.6201, 2698.230
240.1022, 2691.204
240.5843, 2686.693
241.0665, 2694.291
241.5486, 2720.616
242.0307, 2765.025
242.5128, 2821.281
242.9949, 2884.438
243.4770, 2954.752
243.9592, 3030.746
244.4413, 3131.086
244.9234, 3219.527
245.4055, 3294.115
245.8876, 3346.997
246.3697, 3362.222
246.8519, 3325.688
247.3340, 3240.215
247.8161, 3132.340
248.2982, 2983.394
248.7803, 2835.306
249.2624, 2688.984
249.7446, 2554.563
250.2267, 2449.375
250.7088, 2384.919
251.1909, 2352.205
251.6730, 2326.052
252.1551, 2307.468
252.6373, 2293.744
253.1194, 2282.270
253.6015, 2275.169
254.0836, 2275.839
254.5657, 2286.291
255.0478, 2301.878
255.5300, 2313.255
256.0121, 2316.584
256.4942, 2330.403
256.9763, 2367.093
257.4584, 2412.470
257.9406, 2459.450
258.4227, 2506.740
258.9048, 2550.393
259.3869, 2586.943
259.8690, 2616.397
260.3511, 2639.494
260.8333, 2655.375
261.3154, 2665.237
261.7975, 2669.882
262.2796, 2669.462
262.7617, 2665.460
263.2438, 2663.009
263.7260, 2659.497
264.2081, 2637.874
264.6902, 2587.549
265.1723, 2532.005
265.6544, 2486.943
266.1365, 2450.594
266.6187, 2418.394
267.1008, 2387.813
267.5829, 2359.961
268.0650, 2337.223
268.5471, 2319.887
269.0292, 2306.968
269.5114, 2299.073
269.9935, 2295.157
270.4756, 2293.713
270.9577, 2287.804
271.4398, 2289.588
271.9219, 2314.003
272.4041, 2361.492
272.8862, 2420.194
273.3683, 2487.164
273.8504, 2561.213
274.3325, 2639.556
274.8146, 2726.561
275.2968, 2809.950
275.7789, 2895.832
276.2610, 2975.482
276.7431, 3013.181
277.2252, 2994.967
277.7073, 2928.615
278.1895, 2821.998
278.6716, 2670.028
279.1537, 2514.577
279.6358, 2364.142
280.1179, 2221.630
280.6000, 2090.212
281.0822, 1968.833
281.5643, 1866.929
282.0464, 1800.499
282.5285, 1772.389
283.0106, 1747.591
283.4927, 1720.387
283.9749, 1696.163
284.4570, 1681.815
284.9391, 1677.117
285.4212, 1673.129
285.9033, 1662.289
286.3854, 1644.746
286.8676, 1630.751
287.3497, 1615.627
287.8318, 1608.088
288.3139, 1617.220
288.7960, 1637.863
289.2781, 1656.815
289.7603, 1666.970
290.2424, 1669.604
290.7245, 1669.573
291.2066, 1663.928
291.6887, 1659.455
292.1708, 1656.866
292.6530, 1656.105
293.1351, 1656.396
293.6172, 1657.537
294.0993, 1661.469
294.5814, 1672.057
295.0635, 1695.677
295.5457, 1713.986
296.0278, 1719.973
296.5099, 1725.976
296.9920, 1741.859
297.4741, 1767.900
297.9562, 1796.583
298.4384, 1820.232
298.9205, 1838.009
299.4026, 1856.806
299.8847, 1873.812
300.3668, 1894.555
300.8489, 1922.072
301.3311, 1954.986
301.8131, 1990.023
302.2953, 2025.038
302.7774, 2060.491
303.2595, 2099.766
303.7416, 2153.158
304.2237, 2194.272
304.7058, 2207.245
305.1880, 2211.113
305.6701, 2227.587
306.1522, 2264.993
306.6343, 2311.335
307.1164, 2345.092
307.5985, 2360.350
308.0807, 2384.647
308.5628, 2434.184
309.0449, 2486.381
309.5270, 2526.698
310.0091, 2554.395
310.4912, 2579.456
310.9734, 2608.033
311.4555, 2640.482
311.9376, 2681.263
312.4197, 2735.041
312.9018, 2791.018
313.3839, 2842.883
313.8661, 2891.628
314.3482, 2938.982
314.8303, 2980.618
315.3124, 3023.612
315.7945, 3087.520
316.2766, 3178.295
316.7588, 3253.979
317.2409, 3276.524
317.7230, 3273.771
318.2051, 3291.483
318.6872, 3338.560
319.1693, 3400.234
319.6515, 3470.101
320.1336, 3546.381
320.6157, 3622.610
321.0978, 3696.375
321.5799, 3768.670
322.0620, 3841.054
322.5442, 3912.086
323.0263, 3988.147
323.5084, 4075.440
323.9905, 4167.217
324.4726, 4254.024
324.9547, 4334.657
325.4369, 4415.150
325.9190, 4502.172
326.4011, 4596.552
326.8832, 4685.882
327.3653, 4769.213
327.8474, 4849.037
328.3296, 4931.057
328.8117, 5011.565
329.2938, 5077.799
329.7759, 5121.011
330.2580, 5147.197
330.7401, 5182.154
331.2223, 5225.265
331.7044, 5278.340
332.1865, 5340.666
332.6686, 5413.654
333.1507, 5500.086
333.6328, 5600.280
334.1150, 5710.464
334.5971, 5825.707
335.0792, 5944.237
335.5613, 6072.118
336.0434, 6213.335
336.5255, 6358.857
337.0077, 6500.088
337.4898, 6640.003
337.9719, 6790.327
338.4540, 6960.853
338.9361, 7149.628
339.4182, 7338.526
339.9004, 7517.552
340.3825, 7710.877
340.8646, 7933.153
341.3467, 8169.967
341.8288, 8401.414
342.3109, 8619.762
342.7931, 8835.725
343.2752, 9071.700
343.7573, 9333.969
344.2394, 9573.573
344.7215, 9768.566
345.2036, 9944.420
345.6858, 10126.25
346.1679, 10314.88
346.6500, 10486.33
347.1321, 10628.32
347.6142, 10741.59
348.0963, 10828.64
348.5785, 10889.41
349.0606, 10924.71
349.5427, 10924.42
350.0248, 10897.59
350.5069, 10868.98
350.9890, 10870.92
351.4712, 10850.19
351.9533, 10756.19
352.4354, 10597.43
352.9175, 10417.97
353.3996, 10236.39
353.8817, 10049.34
354.3639, 9844.496
354.8460, 9614.072
355.3281, 9388.233
355.8102, 9167.822
356.2923, 8958.414
356.7744, 8765.435
357.2566, 8590.191
357.7387, 8442.315
358.2208, 8331.883
358.7029, 8259.950
359.1850, 8225.651
359.6671, 8231.031
360.1493, 8265.392
360.6314, 8317.112
361.1135, 8394.305
361.5956, 8515.539
362.0777, 8693.557
362.5598, 8920.119
363.0420, 9165.929
363.5241, 9425.676
364.0062, 9716.732
364.4883, 10061.02
364.9704, 10420.77
365.4525, 10775.68
365.9347, 11115.91
366.4168, 11427.57
366.8989, 11694.79
367.3810, 11919.67
367.8631, 12096.79
368.3452, 12212.22
368.8274, 12292.55
369.3095, 12324.19
369.7916, 12334.35
370.2737, 12385.73
370.7558, 12511.96
371.2379, 12692.59
371.7201, 12903.32
372.2022, 13147.49
372.6843, 13390.40
373.1664, 13654.07
373.6485, 13880.00
374.1306, 14003.08
374.6128, 14029.00
375.0949, 13923.92
375.5770, 13654.46
376.0591, 13244.40
376.5412, 12727.99
377.0233, 12106.82
377.5055, 11417.51
377.9876, 10676.42
378.4697, 9878.300
378.9518, 9135.956
379.4339, 8462.513
379.9160, 7837.002
380.3982, 7254.138
380.8803, 6713.031
381.3624, 6220.503
381.8445, 5779.963
382.3266, 5390.255
382.8087, 5041.249
383.2909, 4753.263
383.7730, 4487.706
384.2551, 4240.821
384.7372, 4017.915
385.2193, 3826.228
385.7014, 3665.066
386.1836, 3522.054
386.6657, 3384.002
387.1478, 3250.911
387.6299, 3132.788
388.1120, 3027.405
388.5941, 2940.981
389.0763, 2884.154
389.5584, 2844.841
390.0405, 2804.074
390.5226, 2751.509
391.0047, 2699.304
391.4868, 2669.118
391.9690, 2663.629
392.4511, 2655.313
392.9332, 2632.193
393.4153, 2608.168
393.8974, 2595.726
394.3795, 2594.977
394.8617, 2600.375
395.3438, 2611.826
395.8259, 2626.771
396.3080, 2639.817
396.7901, 2650.157
397.2722, 2664.630
397.7544, 2689.056
398.2365, 2721.906
398.7186, 2753.547
399.2007, 2781.907
399.6828, 2811.057
400.1649, 2842.411
400.6471, 2875.559
401.1292, 2911.544
401.6113, 2950.942
402.0934, 2988.528
402.5755, 3015.892
403.0576, 3026.106
403.5398, 3047.272
404.0219, 3085.881
404.5040, 3127.989
404.9861, 3166.728
405.4682, 3203.012
405.9503, 3239.335
406.4325, 3276.253
406.9146, 3316.693
407.3967, 3371.375
407.8788, 3446.135
408.3609, 3523.419
408.8430, 3604.260
409.3252, 3683.595
409.8073, 3756.722
410.2894, 3823.197
410.7715, 3887.883
411.2536, 3965.640
411.7357, 4048.557
412.2179, 4091.230
412.7000, 4084.176
413.1821, 4052.303
413.6642, 4011.301
414.1463, 3957.489
414.6284, 3879.719
415.1106, 3761.135
415.5927, 3635.561
416.0748, 3522.954
416.5569, 3422.823
417.0390, 3334.839
417.5211, 3259.630
418.0033, 3195.000
418.4854, 3138.294
418.9675, 3090.834
419.4496, 3048.554
419.9317, 3016.024
420.4138, 2985.181
420.8960, 2948.821
421.3781, 2908.816
421.8602, 2871.693
422.3423, 2841.091
422.8244, 2817.443
423.3065, 2802.899
423.7887, 2803.426
424.2708, 2804.164
424.7529, 2801.062
425.2350, 2799.145
425.7171, 2804.577
426.1992, 2817.140
426.6814, 2828.755
427.1635, 2827.286
427.6456, 2814.906
428.1277, 2819.211
428.6098, 2847.226
429.0919, 2878.589
429.5741, 2906.624
430.0562, 2930.372
430.5383, 2947.072
431.0204, 2954.027
431.5025, 2958.281
431.9846, 2968.724
432.4668, 2981.839
432.9489, 2983.197
433.4310, 2966.947
433.9131, 2945.425
434.3952, 2933.440
434.8773, 2932.270
435.3595, 2928.090
435.8416, 2922.668
436.3237, 2911.823
436.8058, 2891.348
437.2879, 2863.310
437.7701, 2831.659
438.2522, 2798.034
438.7343, 2764.676
439.2164, 2738.095
439.6985, 2726.074
440.1806, 2706.925
440.6628, 2668.641
441.1449, 2633.240
441.6270, 2617.692
442.1091, 2619.377
442.5912, 2623.135
443.0733, 2619.489
443.5555, 2608.334
444.0376, 2587.518
444.5197, 2552.972
445.0018, 2520.125
445.4839, 2496.215
445.9660, 2476.011
446.4482, 2455.022
446.9303, 2432.883
447.4124, 2409.240
447.8945, 2381.473
448.3766, 2352.493
448.8587, 2328.781
449.3409, 2311.240
449.8230, 2297.223
450.3051, 2286.280
450.7872, 2277.448
451.2693, 2262.433
451.7514, 2235.926
452.2336, 2209.948
452.7157, 2186.258
453.1978, 2166.298
453.6799, 2154.374
454.1620, 2151.008
454.6441, 2148.541
455.1263, 2136.677
455.6084, 2113.592
456.0905, 2091.566
456.5726, 2066.811
457.0547, 2047.455
457.5368, 2041.551
458.0190, 2041.433
458.5011, 2034.033
458.9832, 2012.847
459.4653, 1987.279
459.9474, 1969.984
460.4295, 1961.094
460.9117, 1956.285
461.3938, 1956.777
461.8759, 1958.451
462.3580, 1955.902
462.8401, 1950.490
463.3222, 1950.031
463.8044, 1963.882
464.2865, 1977.895
464.7686, 1976.051
465.2507, 1962.423
465.7328, 1954.598
466.2149, 1961.036
466.6971, 1974.270
467.1792, 1979.594
467.6613, 1971.705
468.1434, 1966.760
468.6255, 1966.227
469.1076, 1967.286
469.5898, 1966.885
470.0719, 1966.448
470.5540, 1970.729
471.0361, 1983.416
471.5182, 2001.022
472.0003, 2013.923
472.4825, 2021.720
472.9646, 2025.625
473.4467, 2024.378
473.9288, 2020.174
474.4109, 2010.795
474.8930, 1997.750
475.3752, 1991.531
475.8573, 2006.689
476.3394, 2029.116
476.8215, 2032.747
477.3036, 2016.844
477.7857, 1998.575
478.2679, 1984.700
478.7500, 1975.348
479.2321, 1970.985
479.7142, 1971.314
480.1963, 1976.117
480.6784, 1989.059
481.1606, 2003.978
481.6427, 2013.963
482.1248, 2019.650
482.6069, 2027.574
483.0890, 2042.974
483.5711, 2064.406
484.0533, 2084.238
484.5354, 2101.861
485.0175, 2118.828
485.4996, 2130.288
485.9817, 2144.757
486.4638, 2169.749
486.9460, 2205.629
487.4281, 2246.003
487.9102, 2287.896
488.3923, 2330.388
488.8744, 2369.530
489.3565, 2404.142
489.8387, 2441.986
490.3208, 2488.957
490.8029, 2540.546
491.2850, 2585.800
491.7671, 2620.327
492.2492, 2661.386
492.7314, 2720.379
493.2135, 2785.434
493.6956, 2842.913
494.1777, 2891.625
494.6598, 2939.132
495.1419, 2991.873
495.6241, 3047.730
496.1062, 3094.121
496.5883, 3121.929
497.0704, 3152.439
497.5525, 3190.374
498.0346, 3230.058
498.5168, 3266.752
498.9989, 3299.938
499.4810, 3331.838
499.9631, 3362.289
500.4452, 3393.046
500.9273, 3431.197
501.4095, 3478.352
501.8916, 3526.435
502.3737, 3572.466
502.8558, 3617.358
503.3379, 3662.872
503.8200, 3709.735
504.3022, 3753.510
504.7843, 3787.790
505.2664, 3820.699
505.7485, 3859.509
506.2306, 3905.573
506.7127, 3959.887
507.1949, 4024.103
507.6770, 4096.313
508.1591, 4167.758
508.6412, 4245.853
509.1233, 4312.048
509.6054, 4360.598
510.0876, 4401.272
510.5697, 4434.351
511.0518, 4464.570
511.5339, 4505.796
512.0161, 4571.512
512.4982, 4653.010
512.9803, 4726.808
513.4624, 4790.957
513.9445, 4856.912
514.4266, 4932.390
514.9088, 5008.101
515.3909, 5073.443
515.8730, 5128.519
516.3551, 5174.766
516.8372, 5205.821
517.3193, 5233.404
517.8015, 5268.033
518.2836, 5309.429
518.7657, 5356.571
519.2478, 5410.207
519.7299, 5462.510
520.2120, 5493.415
520.6942, 5485.920
521.1763, 5489.487
521.6584, 5518.476
522.1405, 5543.832
522.6226, 5550.789
523.1047, 5541.107
523.5869, 5523.378
524.0690, 5503.289
524.5511, 5474.809
525.0332, 5424.095
525.5153, 5351.301
525.9974, 5282.426
526.4796, 5229.386
526.9617, 5172.548
527.4438, 5086.173
527.9259, 4973.929
528.4080, 4866.939
528.8901, 4770.549
529.3723, 4679.350
529.8544, 4590.979
530.3365, 4505.085
530.8186, 4420.494
531.3007, 4336.632
531.7828, 4259.316
532.2650, 4197.383
532.7471, 4152.936
533.2292, 4109.334
533.7113, 4062.650
534.1934, 4021.416
534.6755, 3987.633
535.1577, 3960.980
535.6398, 3938.531
536.1219, 3918.424
536.6040, 3911.670
537.0861, 3932.129
537.5682, 3974.250
538.0504, 4018.902
538.5325, 4062.546
539.0146, 4116.559
539.4967, 4187.120
539.9788, 4274.811
540.4609, 4379.500
540.9431, 4518.441
541.4252, 4650.069
541.9073, 4765.195
542.3894, 4869.732
542.8715, 4981.199
543.3536, 5093.005
543.8358, 5172.991
544.3179, 5199.314
544.8000, 5169.859
545.2821, 5071.735
545.7642, 4894.018
546.2463, 4677.707
546.7285, 4407.041
547.2106, 4120.279
547.6927, 3838.264
548.1748, 3564.114
548.6569, 3306.541
549.1390, 3064.920
549.6211, 2847.277
550.1032, 2668.805
550.5853, 2524.475
551.0674, 2396.985
551.5496, 2278.758
552.0317, 2170.608
552.5138, 2072.531
552.9959, 1981.498
553.4780, 1910.997
553.9601, 1872.110
554.4423, 1838.425
554.9244, 1798.830
555.4065, 1757.558
555.8886, 1721.871
556.3707, 1694.256
556.8528, 1673.575
557.3350, 1659.934
557.8171, 1652.650
558.2992, 1646.874
558.7813, 1643.260
559.2634, 1637.349
559.7455, 1622.140
560.2277, 1603.034
560.7098, 1597.194
561.1919, 1614.677
561.6740, 1627.970
562.1561, 1622.798
562.6382, 1612.657
563.1204, 1612.343
563.6025, 1622.512
564.0846, 1635.321
564.5667, 1645.763
565.0488, 1653.309
565.5309, 1655.136
566.0131, 1647.521
566.4952, 1643.600
566.9773, 1648.427
567.4594, 1655.474
567.9415, 1658.906
568.4236, 1660.350
568.9058, 1667.932
569.3879, 1690.482
569.8700, 1715.855
570.3521, 1729.612
570.8342, 1735.623
571.3163, 1748.058
571.7985, 1771.719
572.2806, 1798.267
572.7627, 1817.802
573.2448, 1829.868
573.7269, 1839.690
574.2090, 1839.091
574.6912, 1846.243
575.1733, 1874.877
575.6554, 1908.798
576.1375, 1928.905
576.6196, 1931.582
577.1017, 1929.648
577.5839, 1933.883
578.0660, 1942.834
578.5481, 1952.087
579.0302, 1961.705
579.5123, 1970.076
579.9944, 1975.146
580.4766, 1979.666
580.9587, 1990.432
581.4408, 2010.392
581.9229, 2023.611
582.4050, 2025.555
582.8871, 2022.131
583.3693, 2014.928
583.8514, 2005.778
584.3335, 1996.834
584.8156, 1989.114
585.2977, 1983.829
585.7798, 1986.526
586.2620, 1999.181
586.7441, 1994.676
587.2262, 1961.657
587.7083, 1927.825
588.1904, 1905.291
588.6725, 1893.207
589.1547, 1894.138
589.6368, 1916.872
590.1189, 1930.045
590.6010, 1911.104
591.0831, 1878.141
591.5652, 1851.769
592.0474, 1834.581
592.5295, 1823.883
593.0116, 1818.544
593.4937, 1816.831
593.9758, 1812.996
594.4579, 1804.858
594.9401, 1799.840
595.4222, 1796.394
595.9043, 1798.397
596.3864, 1812.481
596.8685, 1833.571
597.3506, 1848.890
597.8328, 1852.009
598.3149, 1851.164
598.7970, 1850.554
599.2791, 1852.069
599.7612, 1863.255
600.2433, 1885.649
600.7255, 1906.476
601.2076, 1914.919
601.6897, 1912.167
602.1718, 1907.799
602.6539, 1893.479
603.1360, 1889.368
603.6182, 1911.020
604.1003, 1932.189
604.5824, 1932.710
605.0645, 1913.684
605.5466, 1888.335
606.0287, 1862.401
606.5109, 1836.639
606.9930, 1810.570
607.4751, 1784.797
607.9572, 1766.754
608.4393, 1760.808
608.9214, 1752.439
609.4036, 1724.922
609.8857, 1678.110
610.3678, 1641.457
610.8499, 1619.770
611.3320, 1601.222
611.8141, 1585.056
612.2963, 1569.453
612.7784, 1553.164
613.2605, 1535.859
613.7426, 1517.630
614.2247, 1498.428
614.7068, 1478.447
615.1890, 1456.499
615.6711, 1432.219
616.1532, 1414.773
616.6353, 1408.513
617.1174, 1407.125
617.5995, 1404.370
618.0817, 1400.204
618.5638, 1395.188
619.0459, 1387.490
619.5280, 1381.093
620.0101, 1379.354
620.4922, 1378.883
620.9744, 1373.653
621.4565, 1363.649
621.9386, 1356.557
622.4207, 1360.197
622.9028, 1371.890
623.3849, 1381.848
623.8671, 1390.342
624.3492, 1395.558
624.8313, 1397.132
625.3134, 1394.964
625.7955, 1390.901
626.2776, 1384.986
626.7598, 1367.071
627.2419, 1322.124
627.7240, 1279.655
628.2061, 1260.104
628.6882, 1250.435
629.1703, 1230.623
629.6525, 1196.633
630.1346, 1159.134
630.6167, 1128.148
631.0988, 1102.740
631.5809, 1077.866
632.0630, 1053.985
632.5452, 1028.191
633.0273, 996.8437
633.5094, 965.7352
