##NAMES=Grossular
##RRUFFID=R060443
##IDEAL CHEMISTRY=Ca_3_Al_2_(SiO_4_)_3_
##LOCALITY=unknown
##OWNER=RRUFF
##SOURCE=Gemological Institute of America
##DESCRIPTION=Yellowish tan colored single crystal
##STATUS=The identification of this mineral has been confirmed by X-ray diffraction and chemical analysis
##URL=rruff.info/R060443
##MEASURED CHEMISTRY=(Ca_2.92_Mn_0.03_Mg_0.03_Fe^2+^_0.02_)_Σ=3_(Al_1.86_Fe^3+^_0.14_)_Σ=2_(Si_1.00_O_4_)_3_; trace amounts of Ti
92.37695, 194.4522
92.85907, 192.9468
93.34119, 193.6531
93.82330, 195.2722
94.30542, 195.1451
94.78754, 192.4156
95.26965, 187.6939
95.75177, 182.1995
96.23389, 175.7889
96.71600, 169.3695
97.19812, 163.8067
97.68024, 159.2228
98.16235, 155.4385
98.64447, 152.4116
99.12659, 150.5342
99.60870, 147.9418
100.0908, 144.4081
100.5729, 140.5333
101.0551, 136.7410
101.5372, 133.1600
102.0193, 129.8147
102.5014, 127.0469
102.9835, 125.0156
103.4656, 123.3874
103.9478, 122.4391
104.4299, 121.8453
104.9120, 121.0636
105.3941, 119.6582
105.8762, 117.5479
106.3583, 115.3745
106.8405, 113.2165
107.3226, 110.9141
107.8047, 108.2934
108.2868, 105.3678
108.7689, 102.3913
109.2510, 99.73946
109.7332, 97.44763
110.2153, 94.79278
110.6974, 91.27501
111.1795, 87.44089
111.6616, 83.95595
112.1437, 80.81178
112.6259, 78.48329
113.1080, 77.68627
113.5901, 78.29349
114.0722, 78.98833
114.5543, 79.00972
115.0364, 78.38000
115.5185, 77.53591
116.0007, 76.12990
116.4828, 74.86336
116.9649, 74.19449
117.4470, 74.19041
117.9291, 74.53569
118.4112, 74.81478
118.8934, 74.93008
119.3755, 75.22767
119.8576, 75.88208
120.3397, 76.62968
120.8218, 77.34133
121.3039, 77.95784
121.7861, 78.39577
122.2682, 78.41061
122.7503, 76.85449
123.2324, 76.13718
123.7145, 77.23215
124.1966, 79.14559
124.6788, 80.38338
125.1609, 80.02032
125.6430, 78.28735
126.1251, 77.22041
126.6072, 77.23731
127.0893, 77.32203
127.5715, 76.96601
128.0536, 76.25388
128.5357, 75.67846
129.0178, 75.61063
129.4999, 76.02429
129.9821, 76.47935
130.4642, 77.27483
130.9463, 77.94298
131.4284, 77.77414
131.9105, 76.52856
132.3926, 75.46037
132.8748, 75.86812
133.3569, 77.13783
133.8390, 78.21331
134.3211, 78.43472
134.8032, 78.08121
135.2853, 78.14819
135.7674, 78.90385
136.2496, 79.75475
136.7317, 80.39999
137.2138, 80.88805
137.6959, 81.35494
138.1780, 81.96798
138.6601, 82.76809
139.1423, 83.28046
139.6244, 83.14469
140.1065, 83.01067
140.5886, 83.08641
141.0707, 83.39999
141.5528, 83.89596
142.0350, 84.55080
142.5171, 85.54973
142.9992, 86.19817
143.4813, 86.12701
143.9634, 86.02023
144.4455, 86.37647
144.9277, 87.30151
145.4098, 88.50107
145.8919, 89.51058
146.3740, 90.27974
146.8561, 90.91299
147.3382, 91.19249
147.8204, 91.40816
148.3025, 91.89368
148.7846, 92.76126
149.2667, 93.96950
149.7488, 95.62312
150.2309, 97.98078
150.7131, 99.92561
151.1952, 100.7437
151.6773, 100.7577
152.1594, 100.9965
152.6415, 101.9545
153.1236, 103.2302
153.6058, 104.1497
154.0879, 104.6122
154.5700, 105.0165
155.0521, 105.7694
155.5342, 106.8939
156.0163, 107.7952
156.4985, 107.9515
156.9806, 107.9218
157.4627, 108.1510
157.9448, 108.7596
158.4269, 109.5733
158.9090, 110.4472
159.3912, 111.6060
159.8733, 112.1984
160.3554, 111.7921
160.8375, 110.9205
161.3196, 110.0213
161.8017, 109.2879
162.2839, 108.6258
162.7660, 107.7558
163.2481, 106.5076
163.7302, 105.2548
164.2123, 104.0110
164.6944, 102.8046
165.1766, 101.7199
165.6587, 100.8152
166.1408, 100.0229
166.6229, 98.85242
167.1050, 96.56228
167.5871, 94.69673
168.0693, 93.91055
168.5514, 93.78286
169.0335, 93.41226
169.5156, 92.14256
169.9977, 90.06877
170.4798, 88.83627
170.9620, 89.08257
171.4441, 89.37288
171.9262, 88.77059
172.4083, 87.50256
172.8904, 86.69482
173.3725, 87.25631
173.8547, 89.13577
174.3368, 90.88159
174.8189, 92.25344
175.3010, 93.66762
175.7831, 95.27131
176.2652, 97.05922
176.7474, 99.51494
177.2295, 103.3756
177.7116, 108.2142
178.1937, 112.9038
178.6758, 118.3548
179.1579, 123.1326
179.6401, 125.2035
180.1222, 124.4116
180.6043, 121.1792
181.0864, 114.4999
181.5685, 105.8382
182.0506, 97.45763
182.5328, 90.05286
183.0149, 83.71597
183.4970, 78.78664
183.9791, 75.84585
184.4612, 73.59842
184.9433, 71.49017
185.4255, 69.55332
185.9076, 67.81423
186.3897, 66.20847
186.8718, 64.78456
187.3539, 64.12773
187.8360, 65.17204
188.3182, 66.04603
188.8003, 66.19266
189.2824, 65.74973
189.7645, 65.05786
190.2466, 64.36055
190.7287, 63.65332
191.2109, 62.98399
191.6930, 62.20936
192.1751, 61.60254
192.6572, 61.31920
193.1393, 61.29788
193.6214, 61.37660
194.1036, 61.42757
194.5857, 61.45919
195.0678, 61.38207
195.5499, 61.13806
196.0320, 60.86572
196.5141, 60.60239
196.9963, 60.36378
197.4784, 60.16879
197.9605, 60.03412
198.4426, 59.96558
198.9247, 59.96853
199.4068, 60.19651
199.8890, 60.37416
200.3711, 60.23912
200.8532, 59.79839
201.3353, 59.38630
201.8174, 59.38334
202.2995, 59.81218
202.7817, 59.86587
203.2638, 59.08472
203.7459, 58.16367
204.2280, 57.85703
204.7101, 58.27041
205.1922, 58.72237
205.6744, 58.47688
206.1565, 57.69311
206.6386, 57.13745
207.1207, 56.98527
207.6028, 57.13353
208.0849, 57.51216
208.5671, 58.18206
209.0492, 58.84626
209.5313, 59.28431
210.0134, 59.54530
210.4955, 59.68868
210.9776, 59.63225
211.4598, 59.48555
211.9419, 59.47730
212.4240, 59.59765
212.9061, 59.89954
213.3882, 60.54659
213.8703, 61.37217
214.3525, 62.06076
214.8346, 62.33896
215.3167, 62.35583
215.7988, 62.64478
216.2809, 63.24959
216.7630, 64.10007
217.2451, 65.25013
217.7273, 66.57284
218.2094, 67.84761
218.6915, 68.90852
219.1736, 69.80964
219.6557, 70.89194
220.1378, 72.48028
220.6200, 73.83085
221.1021, 74.44502
221.5842, 74.71202
222.0663, 75.29697
222.5484, 76.69810
223.0305, 78.80449
223.5127, 80.53789
223.9948, 81.15812
224.4769, 82.17051
224.9590, 83.87675
225.4411, 86.20091
225.9232, 89.03101
226.4054, 92.37148
226.8875, 96.13145
227.3696, 99.47498
227.8517, 102.2485
228.3338, 104.7217
228.8159, 106.6002
229.2981, 108.2326
229.7802, 110.1487
230.2623, 112.6974
230.7444, 115.8555
231.2265, 119.3139
231.7086, 122.7767
232.1908, 126.8176
232.6729, 131.7166
233.1550, 137.3130
233.6371, 143.3178
234.1192, 149.5647
234.6013, 156.0621
235.0835, 162.8984
235.5656, 170.6308
236.0477, 178.0789
236.5298, 185.4390
237.0119, 192.2582
237.4940, 197.7206
237.9762, 201.3817
238.4583, 203.2776
238.9404, 203.5560
239.4225, 200.8929
239.9046, 198.4236
240.3867, 196.9485
240.8689, 196.4471
241.3510, 196.7585
241.8331, 197.6134
242.3152, 199.5344
242.7973, 203.8992
243.2794, 210.8249
243.7616, 219.3957
244.2437, 231.9301
244.7258, 246.2649
245.2079, 256.1762
245.6900, 259.5989
246.1721, 256.0659
246.6543, 245.1794
247.1364, 225.5669
247.6185, 203.6611
248.1006, 180.6072
248.5827, 157.4412
249.0648, 137.5955
249.5470, 122.3748
250.0291, 111.0257
250.5112, 101.9635
250.9933, 95.19301
251.4754, 89.92461
251.9576, 85.85435
252.4397, 82.94420
252.9218, 81.00655
253.4039, 80.39681
253.8860, 80.31892
254.3681, 79.80418
254.8503, 78.85194
255.3324, 78.06126
255.8145, 77.76214
256.2966, 77.92691
256.7787, 78.46558
257.2608, 79.57827
257.7430, 80.79708
258.2251, 81.67300
258.7072, 82.26012
259.1893, 82.91829
259.6714, 84.03433
260.1535, 85.47890
260.6357, 86.51171
261.1178, 86.86752
261.5999, 87.03641
262.0820, 87.22584
262.5641, 87.48373
263.0462, 87.94949
263.5284, 88.78126
264.0105, 89.92284
264.4926, 91.00087
264.9747, 91.63517
265.4568, 92.79870
265.9389, 95.19422
266.4211, 98.38116
266.9032, 101.4320
267.3853, 103.6508
267.8674, 105.3018
268.3495, 107.5950
268.8316, 110.8592
269.3138, 114.3278
269.7959, 117.5283
270.2780, 120.7428
270.7601, 124.3215
271.2422, 128.3291
271.7243, 132.9486
272.2065, 138.7522
272.6886, 145.8733
273.1707, 154.0670
273.6528, 163.6837
274.1349, 173.9947
274.6170, 184.3268
275.0992, 194.5536
275.5813, 204.1212
276.0634, 211.9769
276.5455, 219.8678
277.0276, 222.2232
277.5097, 217.6886
277.9919, 208.5466
278.4740, 196.1019
278.9561, 180.8127
279.4382, 164.2172
279.9203, 148.7211
280.4024, 133.5980
280.8846, 121.5723
281.3667, 113.6568
281.8488, 107.8615
282.3309, 103.0110
282.8130, 98.72884
283.2951, 95.08291
283.7773, 92.21331
284.2594, 90.28379
284.7415, 88.78798
285.2236, 87.92367
285.7057, 87.25709
286.1878, 86.60001
286.6700, 85.89713
287.1521, 85.12592
287.6342, 84.20517
288.1163, 83.01611
288.5984, 82.18499
289.0805, 82.26163
289.5627, 82.18288
290.0448, 81.25210
290.5269, 79.64290
291.0090, 78.10766
291.4911, 77.37495
291.9732, 77.52993
292.4554, 77.41270
292.9375, 76.63970
293.4196, 75.97951
293.9017, 75.79005
294.3838, 75.91609
294.8659, 75.95983
295.3481, 75.60464
295.8302, 74.90591
296.3123, 74.63505
296.7944, 75.31215
297.2765, 75.88039
297.7586, 76.03139
298.2408, 75.96573
298.7229, 76.00535
299.2050, 76.33202
299.6871, 76.86594
300.1692, 77.28938
300.6513, 77.06862
301.1335, 77.41845
301.6156, 78.83413
302.0977, 80.70013
302.5798, 82.43826
303.0619, 83.80466
303.5440, 84.81691
304.0262, 85.48733
304.5083, 85.27184
304.9904, 85.54314
305.4725, 86.50639
305.9546, 87.80041
306.4367, 89.30608
306.9189, 90.92155
307.4010, 92.35867
307.8831, 93.12553
308.3652, 92.64994
308.8473, 93.03638
309.3294, 94.66798
309.8116, 96.69454
310.2937, 98.84244
310.7758, 100.9482
311.2579, 102.7118
311.7400, 103.7524
312.2221, 103.9104
312.7043, 104.5532
313.1864, 106.3067
313.6685, 107.8650
314.1506, 108.6055
314.6327, 108.7114
315.1148, 108.7020
315.5970, 108.9354
316.0791, 109.4050
316.5612, 110.0252
317.0433, 110.7081
317.5254, 111.6465
318.0075, 113.1237
318.4897, 114.8337
318.9718, 116.3005
319.4539, 117.2711
319.9360, 117.9118
320.4181, 118.7540
320.9002, 119.3855
321.3824, 120.8146
321.8645, 123.5440
322.3466, 126.8508
322.8287, 130.1230
323.3108, 133.1157
323.7929, 135.9091
324.2751, 138.5335
324.7572, 140.3978
325.2393, 143.3377
325.7214, 148.2337
326.2035, 153.4177
326.6856, 158.0200
327.1678, 161.7998
327.6499, 164.7927
328.1320, 167.0267
328.6141, 168.4508
329.0962, 169.3103
329.5783, 169.7748
330.0605, 169.6120
330.5426, 168.4630
331.0247, 166.5657
331.5068, 164.4168
331.9889, 162.3006
332.4710, 160.2673
332.9532, 159.1580
333.4353, 159.4823
333.9174, 160.2412
334.3995, 161.4116
334.8816, 162.8677
335.3637, 164.5820
335.8459, 166.5483
336.3280, 168.5384
336.8101, 169.8172
337.2922, 170.1324
337.7743, 170.0254
338.2564, 169.2466
338.7386, 168.2730
339.2206, 167.6019
339.7028, 167.3376
340.1849, 167.1152
340.6670, 166.3259
341.1491, 164.6243
341.6312, 163.2222
342.1133, 161.9691
342.5955, 161.0951
343.0776, 160.8699
343.5597, 161.2032
344.0418, 161.7148
344.5239, 162.0544
345.0060, 162.2083
345.4882, 162.4314
345.9703, 163.0847
346.4524, 163.4425
346.9345, 163.2771
347.4166, 162.6722
347.8987, 161.6761
348.3809, 160.2049
348.8630, 158.5642
349.3451, 158.0676
349.8272, 159.3228
350.3093, 160.8717
350.7914, 162.0748
351.2736, 163.5504
351.7557, 165.8684
352.2378, 169.2334
352.7199, 173.5346
353.2020, 178.5822
353.6841, 184.3800
354.1663, 190.9475
354.6484, 198.7950
355.1305, 207.0065
355.6126, 214.9642
356.0947, 222.6680
356.5768, 230.6025
357.0590, 239.2922
357.5411, 248.7082
358.0232, 258.3089
358.5053, 268.1442
358.9874, 278.1109
359.4695, 287.6037
359.9517, 297.1695
360.4338, 307.8807
360.9159, 320.5048
361.3980, 334.6120
361.8801, 348.9785
362.3622, 363.0927
362.8444, 378.5177
363.3265, 395.4611
363.8086, 414.0223
364.2907, 434.6444
364.7728, 457.7026
365.2549, 482.0191
365.7371, 506.4984
366.2192, 531.3664
366.7013, 555.1624
367.1834, 576.5623
367.6655, 597.5458
368.1476, 619.0870
368.6298, 641.4180
369.1119, 665.1027
369.5940, 689.9971
370.0761, 716.4063
370.5582, 745.8759
371.0403, 779.5043
371.5225, 814.5391
372.0046, 851.8716
372.4867, 889.2051
372.9688, 921.5117
373.4509, 951.0203
373.9330, 971.7625
374.4152, 974.5593
374.8973, 958.9055
375.3794, 929.1329
375.8615, 882.2037
376.3436, 823.9420
376.8257, 762.4023
377.3079, 696.1596
377.7900, 631.6943
378.2721, 572.0808
378.7542, 517.7001
379.2363, 470.6114
379.7184, 431.9801
380.2006, 399.7136
380.6827, 371.4404
381.1648, 346.9917
381.6469, 325.3024
382.1290, 306.2342
382.6111, 289.5506
383.0933, 275.2114
383.5754, 263.1913
384.0575, 252.7644
384.5396, 243.4779
385.0217, 235.3913
385.5038, 227.8065
385.9860, 220.5343
386.4681, 213.9591
386.9502, 208.2558
387.4323, 203.4540
387.9144, 199.6143
388.3965, 196.8739
388.8787, 194.9846
389.3608, 193.3901
389.8429, 192.1456
390.3250, 190.9865
390.8071, 189.5731
391.2892, 188.3392
391.7714, 187.8052
392.2535, 188.0864
392.7356, 189.0129
393.2177, 190.5037
393.6998, 192.7874
394.1819, 194.4373
394.6641, 194.8300
395.1462, 195.2137
395.6283, 196.1665
396.1104, 197.7011
396.5925, 199.7070
397.0746, 202.1817
397.5568, 204.9854
398.0389, 207.4214
398.5210, 208.8427
399.0031, 210.6540
399.4852, 213.5049
399.9673, 216.6019
400.4495, 218.8087
400.9316, 219.8528
401.4137, 220.8531
401.8958, 223.7043
402.3779, 229.5580
402.8600, 234.1112
403.3422, 236.2462
403.8243, 238.2901
404.3064, 241.4610
404.7885, 245.6183
405.2706, 249.8823
405.7527, 253.4204
406.2349, 256.4833
406.7170, 261.0388
407.1991, 268.5200
407.6812, 275.4339
408.1633, 280.1034
408.6454, 284.1864
409.1276, 289.6630
409.6097, 297.2524
410.0918, 305.8014
410.5739, 313.5857
411.0560, 320.3351
411.5381, 327.6204
412.0203, 336.2377
412.5024, 344.9735
412.9845, 353.4445
413.4666, 361.4591
413.9487, 368.5586
414.4308, 374.2502
414.9130, 378.7238
415.3951, 382.6440
415.8772, 385.9419
416.3593, 388.8447
416.8414, 391.0406
417.3235, 393.0433
417.8057, 395.5882
418.2878, 398.9635
418.7699, 402.7064
419.2520, 406.7005
419.7341, 410.8536
420.2162, 414.2944
420.6984, 416.7729
421.1805, 418.3488
421.6626, 419.0179
422.1447, 418.8097
422.6268, 418.3097
423.1089, 418.5030
423.5911, 418.1938
424.0732, 415.4982
424.5553, 410.2162
425.0374, 403.9062
425.5195, 397.7963
426.0016, 391.6455
426.4838, 384.2194
426.9659, 375.1329
427.4480, 365.2442
427.9301, 354.8383
428.4122, 343.9308
428.8943, 332.5658
429.3765, 320.7015
429.8586, 308.5260
430.3407, 296.3418
430.8228, 284.0302
431.3049, 271.9641
431.7870, 260.2462
432.2692, 248.7580
432.7513, 237.1330
433.2334, 225.5939
433.7155, 214.8525
434.1976, 205.5949
434.6797, 197.7471
435.1619, 190.0162
435.6440, 181.5038
436.1261, 174.1593
436.6082, 168.8309
437.0903, 164.6290
437.5724, 160.6016
438.0546, 156.4056
438.5367, 152.1102
439.0188, 147.7071
439.5009, 142.9230
439.9830, 138.9349
440.4651, 136.5650
440.9473, 134.2623
441.4294, 131.1680
441.9115, 127.5222
442.3936, 124.1406
442.8757, 121.6051
443.3578, 119.7177
443.8400, 117.9303
444.3221, 116.2909
444.8042, 114.6131
445.2863, 112.5979
445.7684, 110.6303
446.2505, 109.2045
446.7327, 108.4573
447.2148, 107.7230
447.6969, 106.2819
448.1790, 104.2963
448.6611, 102.6355
449.1432, 101.4182
449.6254, 100.5872
450.1075, 100.4716
450.5896, 100.7710
451.0717, 100.4770
451.5538, 98.59995
452.0359, 96.53462
452.5181, 95.67361
453.0002, 95.90172
453.4823, 96.49773
453.9644, 97.35525
454.4465, 98.12385
454.9286, 97.83455
455.4108, 96.08012
455.8929, 94.72240
456.3750, 94.38893
456.8571, 94.55107
457.3392, 94.68123
457.8214, 94.68913
458.3035, 94.68064
458.7856, 94.74882
459.2677, 94.89482
459.7498, 95.04044
460.2319, 95.20959
460.7141, 95.35178
461.1962, 95.33602
461.6783, 95.32177
462.1604, 95.61933
462.6425, 96.33123
463.1246, 97.11996
463.6068, 97.32715
464.0889, 96.50743
464.5710, 96.29507
465.0531, 97.05954
465.5352, 98.04544
466.0173, 98.97322
466.4995, 99.82621
466.9816, 100.6671
467.4637, 101.5308
467.9458, 102.4206
468.4279, 103.2654
468.9100, 103.8387
469.3922, 104.9748
469.8743, 107.3503
470.3564, 110.1361
470.8385, 112.7862
471.3206, 115.2079
471.8027, 117.3352
472.2849, 118.8078
472.7670, 119.9004
473.2491, 121.7612
473.7312, 124.7458
474.2133, 127.7682
474.6954, 130.1273
475.1776, 131.9353
475.6597, 133.3574
476.1418, 134.3585
476.6239, 135.0427
477.1060, 135.6642
477.5881, 136.0429
478.0703, 135.5415
478.5524, 133.8559
479.0345, 131.5674
479.5166, 129.4412
479.9987, 127.4499
480.4808, 125.7749
480.9630, 124.5292
481.4451, 123.5254
481.9272, 122.7616
482.4093, 122.1490
482.8914, 121.4428
483.3735, 120.4704
483.8557, 119.3590
484.3378, 118.5620
484.8199, 118.3467
485.3020, 118.0827
485.7841, 117.6358
486.2662, 117.2071
486.7484, 116.9086
487.2305, 116.7789
487.7126, 116.8523
488.1947, 117.1849
488.6768, 117.7640
489.1589, 118.3952
489.6411, 119.2142
490.1232, 119.8625
490.6053, 120.0972
491.0874, 120.1885
491.5695, 120.4662
492.0516, 121.0322
492.5338, 121.6485
493.0159, 122.1250
493.4980, 122.4557
493.9801, 122.5181
494.4622, 122.1581
494.9443, 121.7868
495.4265, 121.7739
495.9086, 122.0211
496.3907, 122.2795
496.8728, 122.4579
497.3549, 122.6541
497.8370, 122.7919
498.3192, 122.9778
498.8013, 123.6886
499.2834, 125.1847
499.7655, 127.0582
500.2476, 128.6535
500.7297, 129.8541
501.2119, 131.1991
501.6940, 132.8173
502.1761, 134.5096
502.6582, 135.8658
503.1403, 137.1302
503.6224, 139.1887
504.1045, 142.6832
504.5866, 147.1099
505.0688, 150.6451
505.5509, 152.5402
506.0330, 154.7120
506.5151, 157.7898
506.9972, 160.7887
507.4793, 163.2993
507.9615, 165.0909
508.4436, 165.7303
508.9257, 164.6296
509.4078, 162.0504
509.8899, 159.5932
510.3720, 157.1944
510.8542, 155.0478
511.3363, 153.4256
511.8184, 151.9800
512.3005, 150.2735
512.7827, 148.1796
513.2648, 146.3467
513.7469, 145.3741
514.2290, 145.0381
514.7111, 144.7423
515.1932, 144.4585
515.6754, 143.9765
516.1575, 142.9707
516.6396, 141.6103
517.1217, 140.6873
517.6038, 140.3027
518.0859, 140.2770
518.5681, 140.9427
519.0502, 141.8100
519.5323, 141.9827
520.0144, 141.2156
520.4965, 140.0073
520.9786, 138.9163
521.4608, 137.9187
521.9429, 137.1993
522.4250, 136.7157
522.9071, 136.4977
523.3892, 136.7660
523.8713, 137.2469
524.3535, 137.6063
524.8356, 137.7016
525.3177, 137.4724
525.7998, 136.7041
526.2819, 135.2329
526.7640, 134.0436
527.2462, 133.2575
527.7283, 132.7269
528.2104, 132.2520
528.6925, 131.9749
529.1746, 132.2989
529.6567, 133.7139
530.1389, 135.2955
530.6210, 135.4549
531.1031, 134.3128
531.5852, 134.0906
532.0673, 135.7415
532.5494, 138.0551
533.0316, 139.4703
533.5137, 140.0472
533.9958, 140.9901
534.4779, 142.7463
534.9600, 144.7815
535.4421, 146.5840
535.9243, 148.2893
536.4064, 150.3813
536.8885, 153.0509
537.3706, 156.3727
537.8527, 160.4873
538.3348, 165.8035
538.8170, 171.2390
539.2991, 176.2968
539.7812, 181.8786
540.2633, 188.4189
540.7454, 195.9664
541.2275, 204.5105
541.7097, 214.0498
542.1918, 224.5636
542.6739, 236.0673
543.1560, 248.8078
543.6381, 261.9585
544.1202, 276.7979
544.6024, 290.7341
545.0845, 302.8658
545.5666, 312.8484
546.0487, 319.2876
546.5308, 322.3485
547.0129, 321.0301
547.4951, 312.9545
547.9772, 298.2238
548.4593, 280.4999
548.9414, 260.3163
549.4235, 239.2118
549.9056, 219.8957
550.3878, 202.2077
550.8699, 186.4279
551.3520, 172.7493
551.8341, 161.0461
552.3162, 151.5393
552.7983, 143.9717
553.2805, 137.6221
553.7626, 132.0641
554.2447, 127.3290
554.7268, 123.4823
555.2089, 120.6543
555.6910, 118.5702
556.1732, 117.5452
556.6553, 116.8663
557.1374, 116.2111
557.6195, 115.5085
558.1016, 114.7036
558.5837, 113.6661
559.0659, 112.6351
559.5480, 112.2272
560.0301, 112.5292
560.5122, 112.9159
560.9943, 112.8951
561.4764, 113.2306
561.9586, 114.9919
562.4407, 118.0448
562.9228, 120.4017
563.4049, 120.6965
563.8870, 120.3788
564.3691, 120.9149
564.8513, 122.2494
565.3334, 123.8510
565.8155, 125.5121
566.2976, 127.2181
566.7797, 128.9646
567.2618, 130.8141
567.7440, 132.5387
568.2261, 134.1333
568.7082, 135.5969
569.1903, 136.7517
569.6724, 137.7861
570.1545, 139.1815
570.6367, 141.2104
571.1188, 143.5195
571.6009, 145.2874
572.0830, 146.3464
572.5651, 147.5709
573.0472, 149.4533
573.5294, 151.1091
574.0115, 152.0738
574.4936, 152.4375
574.9757, 152.4389
575.4578, 151.9099
575.9399, 151.4257
576.4221, 151.8211
576.9042, 152.9269
577.3863, 153.7325
577.8684, 153.8697
578.3505, 153.8705
578.8326, 154.4343
579.3148, 155.6226
579.7969, 156.3393
580.2790, 156.0761
580.7611, 155.8360
581.2432, 156.0817
581.7253, 156.6846
582.2075, 157.3756
582.6896, 158.0643
583.1717, 158.9275
583.6538, 160.2479
584.1359, 162.1052
584.6180, 163.8340
585.1002, 165.0544
585.5823, 166.6387
586.0643, 169.1063
586.5464, 171.9834
587.0286, 174.6423
587.5107, 176.9075
