##NAMES=Grossular
##RRUFFID=R060453
##IDEAL CHEMISTRY=Ca_3_Al_2_(SiO_4_)_3_
##LOCALITY=unknown
##OWNER=RRUFF
##SOURCE=Gemological Institute of America
##DESCRIPTION=Green colored fragment
##STATUS=The identification of this mineral has been confirmed by X-ray diffraction and chemical analysis
##URL=rruff.info/R060453
##MEASURED CHEMISTRY=(Ca_2.91_Mg_0.05_Mn_0.04_)_Σ=3_(Al_1.96_Ti_0.02_[box]_0.02_)_Σ=2_(Si_1.00_O_4_)_3_; trace amounts of Fe and Cr
83.89642, 17.11395
84.37854, 39.36590
84.86066, 31.72994
85.34277, 9.469810
85.82489, -6.358177
86.30701, -15.96454
86.78912, -18.03959
87.27124, -7.931149
87.75336, 8.340855
88.23547, 24.10508
88.71759, 37.79568
89.19971, 48.06272
89.68182, 48.32220
90.16394, 27.56507
90.64606, 11.00728
91.12817, 9.394878
91.61029, 17.61744
92.09241, 26.19121
92.57452, 27.34422
93.05664, 20.93527
93.53876, 20.70568
94.02087, 36.29063
94.50299, 49.68890
94.98511, 56.11937
95.46722, 55.51212
95.94934, 49.51208
96.43146, 38.35842
96.91357, 18.86728
97.39569, 9.525917
97.87781, 16.13991
98.35992, 25.92350
98.84204, 33.56113
99.32416, 37.77559
99.80627, 39.07997
100.2884, 37.76661
100.7705, 31.87836
101.2526, 28.31916
101.7347, 29.78252
102.2169, 31.88690
102.6990, 29.31668
103.1811, 21.02085
103.6632, 12.89909
104.1453, 16.12741
104.6274, 39.71172
105.1096, 51.48396
105.5917, 39.55663
106.0738, 16.32624
106.5559, -2.765175
107.0380, -13.34416
107.5201, -16.10482
108.0023, -8.607141
108.4844, 13.27004
108.9665, 28.58850
109.4486, 23.91748
109.9307, 6.537341
110.4128, -3.884883
110.8950, 1.019778
111.3771, 14.73068
111.8592, 26.47075
112.3413, 37.32971
112.8234, 43.42311
113.3055, 38.38660
113.7877, 23.76628
114.2698, 14.28097
114.7519, 18.87566
115.2340, 29.40004
115.7161, 35.59474
116.1982, 35.55402
116.6804, 33.86153
117.1625, 33.57919
117.6446, 34.28211
118.1267, 39.89563
118.6088, 60.70805
119.0909, 83.28472
119.5731, 95.27132
120.0552, 91.48322
120.5373, 81.32063
121.0194, 80.65877
121.5015, 95.20583
121.9836, 102.7731
122.4658, 91.56641
122.9479, 72.90357
123.4300, 55.80338
123.9121, 42.94967
124.3942, 35.91043
124.8763, 40.28179
125.3585, 66.83192
125.8406, 86.32411
126.3227, 84.53197
126.8048, 75.64122
127.2869, 77.49358
127.7690, 100.6262
128.2512, 137.8627
128.7333, 158.6376
129.2154, 144.3244
129.6975, 135.6055
130.1796, 143.1342
130.6617, 159.9786
131.1439, 175.8359
131.6260, 184.1115
132.1081, 186.3714
132.5902, 194.9367
133.0723, 220.1237
133.5544, 241.2955
134.0366, 255.3234
134.5187, 262.4751
135.0008, 263.5201
135.4829, 258.6320
135.9650, 248.0654
136.4471, 236.6498
136.9293, 214.4099
137.4114, 201.4039
137.8935, 207.4516
138.3756, 228.0859
138.8577, 252.6864
139.3398, 273.8521
139.8220, 291.5611
140.3041, 309.2859
140.7862, 329.3985
141.2683, 347.3613
141.7504, 360.7588
142.2325, 369.9972
142.7147, 376.8036
143.1968, 382.2036
143.6789, 386.1243
144.1610, 390.5362
144.6431, 386.4740
145.1252, 390.1327
145.6074, 416.8327
146.0895, 463.6407
146.5716, 509.3869
147.0537, 536.1654
147.5358, 543.4072
148.0179, 558.6315
148.5001, 593.1996
148.9822, 627.2534
149.4643, 642.9813
149.9464, 640.4189
150.4285, 638.2034
150.9106, 653.2029
151.3928, 683.8090
151.8749, 707.7191
152.3570, 720.3351
152.8391, 727.7600
153.3212, 734.9379
153.8033, 742.1675
154.2855, 749.2488
154.7676, 755.6169
155.2497, 761.6548
155.7318, 768.9192
156.2139, 776.0338
156.6960, 785.3019
157.1782, 801.9802
157.6603, 827.7996
158.1424, 850.7159
158.6245, 855.2875
159.1066, 849.1138
159.5887, 850.9608
160.0709, 869.2791
160.5530, 896.8497
161.0351, 925.0222
161.5172, 954.6127
161.9993, 980.4918
162.4814, 993.7358
162.9636, 1000.579
163.4457, 1013.040
163.9278, 1041.111
164.4099, 1075.640
164.8920, 1100.036
165.3741, 1112.989
165.8563, 1119.047
166.3384, 1117.670
166.8205, 1111.943
167.3026, 1106.646
167.7847, 1101.391
168.2668, 1098.500
168.7490, 1105.913
169.2311, 1131.179
169.7132, 1149.278
170.1953, 1144.033
170.6774, 1124.182
171.1595, 1102.375
171.6417, 1084.084
172.1238, 1067.656
172.6059, 1047.199
173.0880, 1016.748
173.5701, 994.8978
174.0522, 998.2123
174.5344, 1012.641
175.0165, 1016.785
175.4986, 995.2081
175.9807, 959.7198
176.4628, 943.8069
176.9449, 956.5880
177.4271, 973.2094
177.9092, 981.3171
178.3913, 987.3179
178.8734, 1000.864
179.3555, 1029.207
179.8376, 1065.996
180.3197, 1094.343
180.8019, 1118.518
181.2840, 1124.465
181.7661, 1100.998
182.2482, 1062.342
182.7303, 1024.648
183.2124, 994.3248
183.6946, 972.1099
184.1767, 961.3185
184.6588, 968.5703
185.1409, 976.3953
185.6230, 982.2431
186.1051, 985.2385
186.5873, 984.4661
187.0694, 979.4672
187.5515, 970.5119
188.0336, 955.7969
188.5157, 922.5955
188.9978, 907.4018
189.4800, 929.3931
189.9621, 965.4786
190.4442, 991.0250
190.9263, 994.3704
191.4084, 985.5551
191.8905, 990.7204
192.3727, 1025.694
192.8548, 1045.872
193.3369, 1035.186
193.8190, 1012.844
194.3011, 996.6557
194.7832, 993.6801
195.2654, 999.4578
195.7475, 1004.549
196.2296, 1007.817
196.7117, 1012.719
197.1938, 1021.424
197.6759, 1030.748
198.1581, 1038.536
198.6402, 1044.004
199.1223, 1046.585
199.6044, 1044.221
200.0865, 1031.559
200.5686, 1024.906
201.0508, 1026.297
201.5329, 1032.557
202.0150, 1044.686
202.4971, 1061.971
202.9792, 1077.027
203.4613, 1074.809
203.9435, 1038.909
204.4256, 1023.478
204.9077, 1049.769
205.3898, 1081.031
205.8719, 1088.926
206.3540, 1069.501
206.8362, 1042.914
207.3183, 1038.131
207.8004, 1066.656
208.2825, 1088.148
208.7646, 1099.659
209.2467, 1107.177
209.7289, 1114.020
210.2110, 1120.510
210.6931, 1124.864
211.1752, 1125.034
211.6573, 1120.760
212.1395, 1112.959
212.6216, 1089.878
213.1037, 1073.388
213.5858, 1078.791
214.0679, 1103.151
214.5500, 1130.476
215.0322, 1143.787
215.5143, 1139.572
215.9964, 1144.640
216.4785, 1171.461
216.9606, 1195.917
217.4427, 1207.858
217.9249, 1209.152
218.4070, 1207.510
218.8891, 1208.884
219.3712, 1213.306
219.8533, 1219.666
220.3354, 1228.648
220.8176, 1239.078
221.2997, 1248.446
221.7818, 1259.088
222.2639, 1277.377
222.7460, 1310.244
223.2281, 1354.804
223.7103, 1376.663
224.1924, 1337.734
224.6745, 1317.358
225.1566, 1347.808
225.6387, 1403.998
226.1208, 1445.924
226.6030, 1448.466
227.0851, 1424.021
227.5672, 1425.853
228.0493, 1482.355
228.5314, 1527.870
229.0135, 1548.857
229.4957, 1554.486
229.9778, 1553.109
230.4599, 1548.092
230.9420, 1543.073
231.4241, 1547.271
231.9062, 1564.327
232.3884, 1585.329
232.8705, 1614.661
233.3526, 1643.748
233.8347, 1664.190
234.3168, 1673.359
234.7989, 1677.383
235.2811, 1685.925
235.7632, 1698.388
236.2453, 1717.461
236.7274, 1759.896
237.2095, 1797.087
237.6916, 1804.791
238.1738, 1780.683
238.6559, 1747.234
239.1380, 1732.324
239.6201, 1740.788
240.1022, 1750.167
240.5843, 1760.508
241.0665, 1770.936
241.5486, 1780.338
242.0307, 1789.152
242.5128, 1799.333
242.9949, 1813.895
243.4770, 1833.560
243.9592, 1849.143
244.4413, 1858.979
244.9234, 1865.969
245.4055, 1868.191
245.8876, 1868.110
246.3697, 1871.424
246.8519, 1883.318
247.3340, 1902.709
247.8161, 1919.084
248.2982, 1930.823
248.7803, 1941.529
249.2624, 1953.871
249.7446, 1965.994
250.2267, 1974.120
250.7088, 1974.753
251.1909, 1971.777
251.6730, 1977.534
252.1551, 1997.872
252.6373, 2015.097
253.1194, 2017.208
253.6015, 2016.102
254.0836, 2024.223
254.5657, 2046.042
255.0478, 2078.629
255.5300, 2121.875
256.0121, 2181.444
256.4942, 2229.533
256.9763, 2245.120
257.4584, 2253.458
257.9406, 2272.831
258.4227, 2307.185
258.9048, 2347.812
259.3869, 2390.479
259.8690, 2435.909
260.3511, 2466.896
260.8333, 2470.451
261.3154, 2466.571
261.7975, 2470.572
262.2796, 2482.518
262.7617, 2492.639
263.2438, 2494.922
263.7260, 2489.698
264.2081, 2478.461
264.6902, 2459.422
265.1723, 2437.006
265.6544, 2418.403
266.1365, 2400.490
266.6187, 2372.186
267.1008, 2321.639
267.5829, 2258.342
268.0650, 2201.612
268.5471, 2152.309
269.0292, 2108.469
269.5114, 2074.265
269.9935, 2044.490
270.4756, 2009.254
270.9577, 1958.964
271.4398, 1907.977
271.9219, 1875.496
272.4041, 1862.057
272.8862, 1846.362
273.3683, 1813.485
273.8504, 1773.953
274.3325, 1748.251
274.8146, 1742.511
275.2968, 1741.156
275.7789, 1732.601
276.2610, 1719.269
276.7431, 1712.371
277.2252, 1719.026
277.7073, 1729.529
278.1895, 1727.001
278.6716, 1709.707
279.1537, 1691.388
279.6358, 1675.910
280.1179, 1662.851
280.6000, 1653.410
281.0822, 1648.755
281.5643, 1641.749
282.0464, 1619.912
282.5285, 1581.171
283.0106, 1555.693
283.4927, 1555.026
283.9749, 1563.918
284.4570, 1569.295
284.9391, 1570.024
285.4212, 1570.954
285.9033, 1576.574
286.3854, 1586.685
286.8676, 1592.661
287.3497, 1582.758
287.8318, 1580.378
288.3139, 1607.704
288.7960, 1652.926
289.2781, 1683.630
289.7603, 1680.822
290.2424, 1651.779
290.7245, 1626.598
291.2066, 1593.869
291.6887, 1578.456
292.1708, 1594.577
292.6530, 1626.401
293.1351, 1657.274
293.6172, 1681.063
294.0993, 1696.093
294.5814, 1697.630
295.0635, 1666.597
295.5457, 1659.450
296.0278, 1698.967
296.5099, 1744.104
296.9920, 1760.444
297.4741, 1747.915
297.9562, 1734.686
298.4384, 1751.521
298.9205, 1804.193
299.4026, 1847.347
299.8847, 1879.657
300.3668, 1904.146
300.8489, 1917.816
301.3310, 1924.489
301.8131, 1930.671
302.2953, 1940.115
302.7774, 1953.116
303.2595, 1972.061
303.7416, 2005.823
304.2237, 2032.093
304.7058, 2041.968
305.1880, 2044.762
305.6701, 2050.330
306.1522, 2062.346
306.6343, 2077.610
307.1164, 2089.061
307.5985, 2092.890
308.0807, 2107.040
308.5628, 2143.960
309.0449, 2185.964
309.5270, 2224.471
310.0091, 2258.174
310.4912, 2287.166
310.9734, 2307.147
311.4555, 2319.771
311.9376, 2344.299
312.4197, 2389.290
312.9018, 2435.996
313.3839, 2473.486
313.8661, 2503.617
314.3482, 2530.368
314.8303, 2550.067
315.3124, 2569.897
315.7945, 2606.030
316.2766, 2661.763
316.7588, 2714.007
317.2409, 2745.400
317.7230, 2766.585
318.2051, 2794.974
318.6872, 2833.693
319.1693, 2877.614
319.6515, 2924.326
320.1336, 2973.201
320.6157, 3024.190
321.0978, 3080.800
321.5799, 3133.301
322.0620, 3160.544
322.5442, 3156.596
323.0263, 3167.453
323.5084, 3216.331
323.9905, 3282.977
324.4726, 3337.756
324.9547, 3376.033
325.4369, 3420.846
325.9190, 3498.855
326.4011, 3614.414
326.8832, 3705.746
327.3653, 3753.519
327.8474, 3796.254
328.3296, 3855.831
328.8117, 3928.932
329.2938, 3999.982
329.7759, 4058.802
330.2580, 4111.084
330.7401, 4180.838
331.2223, 4289.542
331.7044, 4389.627
332.1865, 4468.496
332.6686, 4540.181
333.1507, 4621.346
333.6328, 4716.397
334.1150, 4815.549
334.5971, 4901.750
335.0792, 4958.768
335.5613, 5047.366
336.0434, 5185.884
336.5255, 5335.424
337.0077, 5481.628
337.4898, 5621.066
337.9719, 5753.214
338.4540, 5874.950
338.9361, 5988.073
339.4182, 6109.349
339.9004, 6243.022
340.3825, 6377.842
340.8646, 6510.188
341.3467, 6642.247
341.8288, 6777.795
342.3109, 6919.811
342.7931, 7060.771
343.2752, 7188.322
343.7573, 7301.027
344.2394, 7411.495
344.7215, 7517.296
345.2036, 7627.019
345.6858, 7752.050
346.1679, 7892.431
346.6500, 8027.652
347.1321, 8153.002
347.6142, 8263.224
348.0963, 8342.399
348.5785, 8385.532
349.0606, 8408.454
349.5427, 8426.363
350.0248, 8434.235
350.5069, 8412.662
350.9890, 8356.443
351.4712, 8270.708
351.9533, 8147.700
352.4354, 7993.821
352.9175, 7847.450
353.3996, 7737.264
353.8817, 7633.527
354.3639, 7448.187
354.8460, 7150.628
355.3281, 6858.321
355.8102, 6603.912
356.2923, 6365.633
356.7744, 6120.702
357.2566, 5863.361
357.7387, 5605.793
358.2208, 5360.094
358.7029, 5124.870
359.1850, 4909.591
359.6671, 4712.780
360.1493, 4534.607
360.6314, 4382.701
361.1135, 4249.234
361.5956, 4117.846
362.0777, 3977.468
362.5598, 3834.399
363.0420, 3710.267
363.5241, 3606.433
364.0062, 3521.996
364.4883, 3459.908
364.9704, 3412.545
365.4525, 3377.696
365.9347, 3353.398
366.4168, 3330.523
366.8989, 3296.536
367.3810, 3249.916
367.8631, 3214.104
368.3452, 3199.175
368.8274, 3184.244
369.3095, 3156.234
369.7916, 3119.892
370.2737, 3086.742
370.7558, 3060.651
371.2379, 3042.016
371.7201, 3037.191
372.2022, 3048.815
372.6843, 3048.466
373.1664, 3017.711
373.6485, 2971.469
374.1306, 2934.933
374.6128, 2913.189
375.0949, 2885.504
375.5770, 2843.855
376.0591, 2788.470
376.5412, 2713.207
377.0233, 2613.831
377.5055, 2518.684
377.9876, 2464.145
378.4697, 2456.204
378.9518, 2411.313
379.4339, 2286.031
379.9160, 2161.916
380.3982, 2089.893
380.8803, 2060.229
381.3624, 2042.531
381.8445, 2021.737
382.3266, 1996.619
382.8087, 1962.612
383.2909, 1903.706
383.7730, 1857.457
384.2551, 1824.934
384.7372, 1805.008
385.2193, 1800.214
385.7014, 1808.905
386.1836, 1822.460
386.6657, 1832.807
387.1478, 1839.946
387.6299, 1842.909
388.1120, 1836.208
388.5941, 1831.665
389.0763, 1830.163
389.5584, 1833.911
390.0405, 1847.694
390.5226, 1875.874
391.0047, 1908.382
391.4868, 1929.400
391.9690, 1937.943
392.4511, 1943.297
392.9332, 1944.855
393.4153, 1946.749
393.8974, 1951.135
394.3795, 1958.186
394.8617, 1971.853
395.3438, 2001.193
395.8259, 2035.932
396.3080, 2056.988
396.7901, 2061.977
397.2722, 2065.846
397.7544, 2078.148
398.2365, 2098.234
398.7186, 2120.358
399.2007, 2150.375
399.6828, 2175.661
400.1649, 2184.535
400.6471, 2186.988
401.1292, 2201.792
401.6113, 2235.298
402.0934, 2275.257
402.5755, 2303.930
403.0576, 2317.413
403.5398, 2330.375
404.0219, 2338.091
404.5040, 2349.809
404.9861, 2376.847
405.4682, 2412.119
405.9503, 2436.915
406.4325, 2437.824
406.9146, 2423.177
407.3967, 2423.027
407.8788, 2444.384
408.3609, 2466.137
408.8430, 2487.373
409.3252, 2505.426
409.8073, 2516.809
410.2894, 2521.423
410.7715, 2524.810
411.2536, 2531.766
411.7357, 2541.619
412.2179, 2548.942
412.7000, 2549.294
413.1821, 2556.938
413.6642, 2591.463
414.1463, 2639.796
414.6284, 2675.052
415.1106, 2688.707
415.5927, 2692.590
416.0748, 2691.910
416.5569, 2688.140
417.0390, 2688.473
417.5211, 2697.649
418.0033, 2702.928
418.4854, 2681.850
418.9675, 2621.150
419.4496, 2580.001
419.9317, 2581.256
420.4138, 2585.760
420.8960, 2556.312
421.3781, 2504.451
421.8602, 2474.597
422.3423, 2498.159
422.8244, 2559.916
423.3065, 2593.472
423.7887, 2578.955
424.2708, 2566.068
424.7529, 2559.066
425.2350, 2556.230
425.7171, 2554.854
426.1992, 2555.204
426.6814, 2561.621
427.1635, 2582.960
427.6456, 2617.296
428.1277, 2638.613
428.6098, 2641.853
429.0919, 2641.591
429.5741, 2640.275
430.0562, 2641.679
430.5383, 2652.272
431.0204, 2674.733
431.5025, 2704.151
431.9846, 2745.030
432.4668, 2790.968
432.9489, 2814.344
433.4310, 2802.696
433.9131, 2785.558
434.3952, 2802.525
434.8773, 2858.628
435.3595, 2892.595
435.8416, 2882.166
436.3237, 2865.746
436.8058, 2865.129
437.2879, 2877.986
437.7701, 2897.604
438.2522, 2921.663
438.7343, 2942.894
439.2164, 2941.651
439.6985, 2901.686
440.1806, 2867.577
440.6628, 2835.057
441.1449, 2811.812
441.6270, 2811.152
442.1091, 2826.477
442.5912, 2833.141
443.0733, 2807.981
443.5555, 2761.520
444.0376, 2736.922
444.5197, 2742.920
445.0018, 2746.336
445.4839, 2736.089
445.9660, 2715.873
446.4482, 2685.465
446.9303, 2643.243
447.4124, 2604.465
447.8945, 2581.368
448.3766, 2567.759
448.8587, 2550.919
449.3409, 2528.933
449.8230, 2506.143
450.3051, 2485.780
450.7872, 2467.585
451.2693, 2448.821
451.7514, 2428.042
452.2336, 2408.426
452.7157, 2393.589
453.1978, 2379.666
453.6799, 2361.118
454.1620, 2336.445
454.6441, 2308.466
455.1263, 2280.136
455.6084, 2250.666
456.0905, 2225.519
456.5726, 2202.866
457.0547, 2187.094
457.5368, 2189.221
458.0190, 2196.915
458.5011, 2188.560
458.9832, 2152.755
459.4653, 2108.873
459.9474, 2082.573
460.4295, 2074.055
460.9117, 2077.962
461.3938, 2102.880
461.8759, 2126.906
462.3580, 2129.564
462.8401, 2114.034
463.3222, 2095.335
463.8044, 2074.590
464.2865, 2054.595
464.7686, 2037.833
465.2507, 2024.058
465.7328, 2012.214
466.2149, 2001.955
466.6971, 1992.993
467.1792, 1984.714
467.6613, 1975.307
468.1434, 1970.938
468.6255, 1977.245
469.1076, 1983.602
469.5898, 1984.634
470.0719, 1979.906
470.5540, 1967.755
471.0361, 1944.516
471.5182, 1920.108
472.0003, 1928.975
472.4825, 1990.345
472.9646, 2032.300
473.4467, 2026.522
473.9288, 2005.087
474.4109, 1981.308
474.8930, 1958.354
475.3752, 1945.554
475.8573, 1953.243
476.3394, 1972.490
476.8215, 1989.944
477.3036, 2005.254
477.7857, 2016.153
478.2679, 2020.265
478.7500, 2020.234
479.2321, 2022.193
479.7142, 2025.551
480.1963, 2031.724
480.6784, 2041.391
481.1606, 2053.715
481.6427, 2068.198
482.1248, 2084.676
482.6069, 2103.787
483.0890, 2127.273
483.5711, 2152.569
484.0533, 2164.240
484.5354, 2143.555
485.0175, 2140.656
485.4996, 2176.029
485.9817, 2220.261
486.4638, 2247.406
486.9460, 2256.352
487.4281, 2267.491
487.9102, 2304.089
488.3923, 2354.828
488.8744, 2379.428
489.3565, 2371.297
489.8387, 2374.232
490.3208, 2417.751
490.8029, 2482.660
491.2850, 2527.064
491.7671, 2543.842
492.2492, 2561.401
492.7314, 2587.819
493.2135, 2620.583
493.6956, 2662.996
494.1777, 2711.843
494.6598, 2749.063
495.1419, 2758.772
495.6241, 2746.355
496.1062, 2747.038
496.5883, 2767.452
497.0704, 2792.644
497.5525, 2825.193
498.0346, 2858.964
498.5168, 2886.428
498.9989, 2908.306
499.4810, 2934.794
499.9631, 2983.022
500.4452, 3042.337
500.9273, 3063.315
501.4095, 3033.002
501.8916, 3020.462
502.3737, 3071.020
502.8558, 3148.167
503.3379, 3191.003
503.8200, 3189.265
504.3022, 3191.699
504.7843, 3221.687
505.2664, 3262.395
505.7485, 3291.481
506.2306, 3309.443
506.7127, 3333.765
507.1949, 3376.899
507.6770, 3434.969
508.1591, 3490.695
508.6412, 3546.415
509.1233, 3596.266
509.6054, 3629.232
510.0876, 3664.707
510.5697, 3722.979
511.0518, 3799.688
511.5339, 3869.442
512.0161, 3911.397
512.4982, 3934.906
512.9803, 3965.690
513.4624, 4004.666
513.9445, 4044.043
514.4266, 4079.271
514.9088, 4115.332
515.3909, 4157.999
515.8730, 4207.380
516.3551, 4261.648
516.8372, 4328.989
517.3193, 4394.645
517.8015, 4446.794
518.2836, 4485.102
518.7657, 4512.772
519.2478, 4530.809
519.7299, 4541.564
520.2120, 4548.603
520.6942, 4534.575
521.1763, 4551.337
521.6584, 4628.115
522.1405, 4704.496
522.6226, 4751.434
523.1047, 4771.047
523.5869, 4774.677
524.0690, 4766.164
524.5511, 4749.787
525.0332, 4734.901
525.5153, 4721.412
525.9974, 4691.482
526.4796, 4631.774
526.9617, 4569.148
527.4438, 4541.264
527.9259, 4542.536
528.4080, 4521.021
528.8901, 4451.642
529.3723, 4375.093
529.8544, 4319.624
530.3365, 4273.464
530.8186, 4211.226
531.3007, 4124.261
531.7828, 4028.451
532.2650, 3947.212
532.7471, 3884.915
533.2292, 3807.871
533.7113, 3702.517
534.1934, 3596.902
534.6755, 3497.383
535.1577, 3403.607
535.6398, 3312.833
536.1219, 3223.369
536.6040, 3142.154
537.0861, 3078.333
537.5682, 3028.144
538.0504, 2983.674
538.5325, 2946.335
539.0146, 2898.134
539.4967, 2821.748
539.9788, 2724.478
540.4609, 2644.375
540.9431, 2576.080
541.4252, 2528.861
541.9073, 2522.666
542.3894, 2526.714
542.8715, 2510.157
543.3536, 2471.610
543.8358, 2429.504
544.3179, 2397.589
544.8000, 2374.806
545.2821, 2356.682
545.7642, 2343.317
546.2463, 2334.458
546.7285, 2335.190
547.2106, 2336.699
547.6926, 2333.686
548.1747, 2325.651
548.6569, 2311.192
549.1390, 2292.682
549.6211, 2265.386
550.1032, 2219.806
550.5853, 2159.590
551.0674, 2098.323
551.5496, 2039.084
552.0317, 1990.897
552.5138, 1971.016
552.9959, 1994.463
553.4780, 1994.860
553.9601, 1953.235
554.4423, 1912.311
554.9244, 1892.443
555.4065, 1883.583
555.8886, 1865.850
556.3707, 1831.449
556.8528, 1798.969
557.3350, 1793.856
557.8171, 1812.760
558.2992, 1829.699
558.7813, 1843.969
559.2634, 1850.690
559.7455, 1842.073
560.2277, 1823.798
560.7098, 1814.643
561.1919, 1819.599
561.6740, 1825.114
562.1561, 1824.117
562.6382, 1823.323
563.1204, 1836.011
563.6025, 1858.772
564.0846, 1868.450
564.5667, 1845.175
565.0488, 1801.035
565.5309, 1785.862
566.0131, 1814.047
566.4952, 1834.778
566.9773, 1827.512
567.4594, 1819.864
567.9415, 1835.073
568.4236, 1867.479
568.9058, 1887.993
569.3879, 1872.660
569.8700, 1850.699
570.3521, 1853.095
570.8342, 1874.040
571.3163, 1895.774
571.7985, 1913.425
572.2806, 1924.306
572.7627, 1922.417
573.2448, 1904.430
573.7269, 1905.612
574.2090, 1951.226
574.6912, 1984.899
575.1733, 1979.716
575.6554, 1962.023
576.1375, 1964.091
576.6196, 1991.870
577.1017, 2022.208
577.5839, 2031.488
578.0660, 2026.569
578.5481, 2031.832
579.0302, 2048.902
