##NAMES=Grossular
##RRUFFID=R060382
##IDEAL CHEMISTRY=Ca_3_Al_2_(SiO_4_)_3_
##LOCALITY=Lalatema, near Mount Kilimanjaro, Tanzania
##OWNER=RRUFF
##SOURCE=Herb Obodda
##DESCRIPTION=Pale tan colored fragment
##STATUS=The identification of this mineral has been confirmed by X-ray diffraction and chemical analysis
##URL=rruff.info/R060382
##MEASURED CHEMISTRY=(Ca_2.95_Mg_0.03_Mn_0.02_)_Σ=3_Al_2.00_((Si_0.99_Ti_0.01_)_Σ=1_O_4_)_3_; trace amounts of Fe
90.672, 82.628
91.154, 79.662
91.636, 77.259
92.118, 74.999
92.600, 73.074
93.082, 72.241
93.565, 73.712
94.047, 77.940
94.529, 81.114
95.011, 82.196
95.493, 82.660
95.975, 83.201
96.457, 83.898
96.939, 84.288
97.422, 83.645
97.904, 81.457
98.386, 79.374
98.868, 77.146
99.350, 75.225
99.832, 73.932
100.314, 73.364
100.796, 73.440
101.278, 74.062
101.761, 76.381
102.243, 77.632
102.725, 76.523
103.207, 74.774
103.689, 74.417
104.171, 76.431
104.653, 79.963
105.135, 81.807
105.618, 80.578
106.100, 79.260
106.582, 78.089
107.064, 77.124
107.546, 76.316
108.028, 75.556
108.510, 74.988
108.992, 75.782
109.474, 78.796
109.956, 81.950
110.439, 84.665
110.921, 86.908
111.403, 88.667
111.885, 89.955
112.367, 90.707
112.849, 90.959
113.331, 90.043
113.813, 89.178
114.296, 89.153
114.778, 89.986
115.260, 91.288
115.742, 92.696
116.224, 94.346
116.706, 96.839
117.188, 102.063
117.670, 107.271
118.152, 108.660
118.635, 105.351
119.117, 101.843
119.599, 102.393
120.081, 105.804
120.563, 109.441
121.045, 113.644
121.527, 117.351
122.009, 117.658
122.492, 112.466
122.974, 108.065
123.456, 108.305
123.938, 112.748
124.420, 121.002
124.902, 134.772
125.384, 152.719
125.866, 169.220
126.349, 183.974
126.831, 196.852
127.313, 207.477
127.795, 216.246
128.277, 225.055
128.759, 234.803
129.241, 245.541
129.723, 257.838
130.205, 273.277
130.688, 288.904
131.170, 303.431
131.652, 316.797
132.134, 329.685
132.616, 344.028
133.098, 360.933
133.580, 371.851
134.062, 371.082
134.544, 367.907
135.027, 366.402
135.509, 366.980
135.991, 367.545
136.473, 365.210
136.955, 358.523
137.437, 353.358
137.919, 349.962
138.401, 347.953
138.884, 347.522
139.366, 348.554
139.848, 350.351
140.330, 351.125
140.812, 346.837
141.294, 350.601
141.776, 366.958
142.258, 387.042
142.740, 403.972
143.223, 416.069
143.705, 426.948
144.187, 443.072
144.669, 468.518
145.151, 493.406
145.633, 516.161
146.115, 539.089
146.597, 564.729
147.079, 593.802
147.562, 624.359
148.044, 652.447
148.526, 674.562
149.008, 698.537
149.490, 726.452
149.972, 755.328
150.454, 782.242
150.936, 806.130
151.419, 827.570
151.901, 848.138
152.383, 869.533
152.865, 887.753
153.347, 899.690
153.829, 909.063
154.311, 920.438
154.793, 935.671
155.275, 953.732
155.758, 972.110
156.240, 987.617
156.722, 1007.741
157.204, 1036.118
157.686, 1069.379
158.168, 1101.659
158.650, 1130.115
159.133, 1157.699
159.615, 1193.691
160.097, 1240.289
160.579, 1290.073
161.061, 1342.114
161.543, 1396.083
162.025, 1451.958
162.507, 1509.934
162.989, 1568.773
163.471, 1625.169
163.954, 1683.308
164.436, 1733.665
164.918, 1768.404
165.400, 1792.607
165.882, 1819.800
166.364, 1858.857
166.846, 1900.008
167.328, 1918.142
167.811, 1912.618
168.293, 1891.057
168.775, 1851.002
169.257, 1796.509
169.739, 1737.969
170.221, 1678.346
170.703, 1619.223
171.185, 1563.307
171.667, 1509.218
172.150, 1460.205
172.632, 1422.694
173.114, 1393.197
173.596, 1357.884
174.078, 1307.202
174.560, 1251.509
175.042, 1209.390
175.524, 1181.921
176.007, 1164.303
176.489, 1155.966
176.971, 1155.923
177.453, 1158.765
177.935, 1159.855
178.417, 1165.886
178.899, 1188.586
179.381, 1235.228
179.863, 1280.053
180.346, 1311.940
180.828, 1330.083
181.310, 1329.437
181.792, 1303.900
182.274, 1260.222
182.756, 1209.758
183.238, 1148.038
183.720, 1092.831
184.202, 1057.972
184.685, 1041.373
185.167, 1028.668
185.649, 1015.165
186.131, 1003.793
186.613, 998.225
187.095, 999.688
187.577, 1002.523
188.059, 1002.286
188.542, 999.573
189.024, 999.163
189.506, 1003.567
189.988, 1010.100
190.470, 1015.318
190.952, 1019.047
191.434, 1022.263
191.916, 1025.520
192.398, 1028.813
192.881, 1031.861
193.363, 1033.442
193.845, 1036.073
194.327, 1043.449
194.809, 1056.340
195.291, 1067.245
195.773, 1067.961
196.255, 1060.462
196.738, 1059.666
197.220, 1074.562
197.702, 1091.433
198.184, 1095.697
198.666, 1086.813
199.148, 1077.094
199.630, 1074.598
200.112, 1078.420
200.594, 1082.923
201.077, 1086.427
201.559, 1091.207
202.041, 1100.970
202.523, 1115.458
203.005, 1126.516
203.487, 1124.602
203.969, 1113.323
204.451, 1111.589
204.934, 1127.510
205.416, 1147.051
205.898, 1156.868
206.380, 1158.222
206.862, 1161.323
207.344, 1174.521
207.826, 1194.941
208.308, 1210.574
208.790, 1218.520
209.273, 1223.701
209.755, 1227.408
210.237, 1230.789
210.719, 1239.860
211.201, 1262.780
211.683, 1294.263
212.165, 1316.749
212.647, 1325.294
213.130, 1331.555
213.612, 1344.543
214.094, 1362.344
214.576, 1379.398
215.058, 1391.293
215.540, 1400.786
216.022, 1415.056
216.504, 1435.970
216.986, 1457.983
217.469, 1475.812
217.951, 1491.822
218.433, 1511.098
218.915, 1535.513
219.397, 1564.543
219.879, 1598.875
220.361, 1640.691
220.843, 1680.803
221.326, 1711.226
221.808, 1735.920
222.290, 1760.568
222.772, 1784.654
223.254, 1810.999
223.736, 1846.145
224.218, 1892.505
224.700, 1935.525
225.182, 1960.938
225.665, 1979.078
226.147, 2005.902
226.629, 2047.867
227.111, 2096.507
227.593, 2142.781
228.075, 2186.547
228.557, 2229.551
229.039, 2272.854
229.521, 2316.120
230.004, 2359.209
230.486, 2402.590
230.968, 2444.915
231.450, 2484.283
231.932, 2520.973
232.414, 2558.195
232.896, 2598.619
233.378, 2639.227
233.861, 2676.192
234.343, 2709.676
234.825, 2738.717
235.307, 2759.451
235.789, 2773.696
236.271, 2792.969
236.753, 2824.689
237.235, 2858.928
237.717, 2881.404
238.200, 2890.493
238.682, 2896.884
239.164, 2905.351
239.646, 2915.213
240.128, 2925.471
240.610, 2937.199
241.092, 2946.531
241.574, 2946.794
242.057, 2937.903
242.539, 2930.532
243.021, 2924.780
243.503, 2923.801
243.985, 2934.858
244.467, 2960.775
244.949, 2992.667
245.431, 3021.226
245.913, 3046.732
246.396, 3074.659
246.878, 3110.946
247.360, 3148.090
247.842, 3176.657
248.324, 3195.369
248.806, 3209.412
249.288, 3220.958
249.770, 3230.587
250.253, 3247.009
250.735, 3267.928
251.217, 3297.829
251.699, 3344.335
252.181, 3406.277
252.663, 3469.529
253.145, 3523.125
253.627, 3569.233
254.109, 3627.910
254.592, 3706.037
255.074, 3789.238
255.556, 3868.986
256.038, 3947.137
256.520, 4032.228
257.002, 4130.507
257.484, 4238.260
257.966, 4339.040
258.448, 4427.808
258.931, 4516.771
259.413, 4613.653
259.895, 4712.526
260.377, 4805.669
260.859, 4890.742
261.341, 4964.266
261.823, 5016.578
262.306, 5043.842
262.788, 5056.800
263.270, 5064.537
263.752, 5055.308
264.234, 5013.643
264.716, 4935.110
265.198, 4830.579
265.680, 4715.798
266.162, 4588.425
266.645, 4454.005
267.127, 4307.240
267.609, 4157.858
268.091, 4009.811
268.573, 3865.254
269.055, 3729.143
269.537, 3606.778
270.019, 3501.286
270.501, 3397.152
270.984, 3288.132
271.466, 3186.448
271.948, 3096.915
272.430, 3019.883
272.912, 2952.537
273.394, 2893.396
273.876, 2842.213
274.358, 2798.323
274.841, 2762.357
275.323, 2732.822
275.805, 2713.964
276.287, 2700.590
276.769, 2685.073
277.251, 2663.098
277.733, 2636.111
278.215, 2609.985
278.697, 2590.239
279.180, 2562.626
279.662, 2519.698
280.144, 2471.173
280.626, 2425.812
281.108, 2387.025
281.590, 2354.134
282.072, 2326.514
282.554, 2304.830
283.036, 2286.534
283.519, 2271.436
284.001, 2259.352
284.483, 2251.500
284.965, 2247.584
285.447, 2244.346
285.929, 2233.802
286.411, 2213.960
286.893, 2214.369
287.375, 2259.242
287.858, 2303.021
288.340, 2317.624
288.822, 2308.789
289.304, 2300.885
289.786, 2310.027
290.268, 2333.506
290.750, 2359.715
291.233, 2388.960
291.715, 2420.458
292.197, 2454.521
292.679, 2490.235
293.161, 2526.460
293.643, 2562.815
294.125, 2599.065
294.607, 2633.899
295.089, 2666.878
295.572, 2702.354
296.054, 2745.236
296.536, 2791.131
297.018, 2832.557
297.500, 2865.922
297.982, 2900.995
298.464, 2947.192
298.946, 3002.644
299.428, 3056.889
299.911, 3107.523
300.393, 3154.376
300.875, 3197.022
301.357, 3235.235
301.839, 3272.451
302.321, 3310.574
302.803, 3348.344
303.285, 3381.553
303.767, 3408.533
304.250, 3437.535
304.732, 3479.015
305.214, 3534.757
305.696, 3585.541
306.178, 3624.617
306.660, 3662.393
307.142, 3708.482
307.624, 3762.112
308.107, 3813.482
308.589, 3853.950
309.071, 3884.533
309.553, 3924.045
310.035, 3968.548
310.517, 4024.242
310.999, 4102.188
311.481, 4191.846
311.964, 4272.699
312.446, 4334.651
312.928, 4385.059
313.410, 4444.169
313.892, 4510.698
314.374, 4589.156
314.856, 4689.868
315.338, 4796.874
315.820, 4895.625
316.302, 4982.838
316.785, 5065.444
317.267, 5153.818
317.749, 5250.342
318.231, 5343.178
318.713, 5432.114
319.195, 5518.087
319.677, 5596.302
320.159, 5671.067
320.642, 5753.875
321.124, 5856.939
321.606, 5977.221
322.088, 6087.827
322.570, 6178.871
323.052, 6274.127
323.534, 6381.417
324.016, 6496.532
324.499, 6613.135
324.981, 6727.360
325.463, 6844.832
325.945, 6977.136
326.427, 7126.696
326.909, 7279.244
327.391, 7433.863
327.873, 7587.469
328.355, 7733.933
328.838, 7871.605
329.320, 8013.291
329.802, 8168.218
330.284, 8334.843
330.766, 8506.551
331.248, 8680.997
331.730, 8861.810
332.212, 9053.736
332.694, 9254.702
333.177, 9465.844
333.659, 9686.536
334.141, 9916.781
334.623, 10152.470
335.105, 10393.070
335.587, 10649.710
336.069, 10932.310
336.551, 11238.950
337.034, 11550.740
337.516, 11861.980
337.998, 12185.080
338.480, 12525.640
338.962, 12883.490
339.444, 13259.030
339.926, 13653.150
340.408, 14064.930
340.891, 14495.910
341.373, 14953.390
341.855, 15424.620
342.337, 15919.210
342.819, 16421.020
343.301, 16915.869
343.783, 17402.820
344.265, 17895.609
344.747, 18413.619
345.230, 18962.461
345.712, 19484.570
346.194, 19998.270
346.676, 20465.789
347.158, 20871.580
347.640, 21219.740
348.122, 21527.240
348.604, 21808.520
349.086, 22046.350
349.569, 22185.330
350.051, 22208.760
350.533, 22153.980
351.015, 22063.650
351.497, 21891.770
351.979, 21586.500
352.461, 21136.000
352.943, 20590.920
353.426, 20003.100
353.908, 19372.711
354.390, 18679.029
354.872, 17896.990
355.354, 17071.170
355.836, 16221.340
356.318, 15356.640
356.800, 14529.990
357.283, 13769.580
357.765, 13062.500
358.247, 12379.620
358.729, 11720.810
359.211, 11093.810
359.693, 10494.940
360.175, 9933.882
360.657, 9430.379
361.139, 8996.960
361.621, 8607.069
362.104, 8251.253
362.586, 7927.234
363.068, 7626.330
363.550, 7344.505
364.032, 7088.597
364.514, 6871.532
364.996, 6696.428
365.478, 6553.366
365.961, 6461.917
366.443, 6387.615
366.925, 6302.993
367.407, 6206.922
367.889, 6116.871
368.371, 6050.813
368.853, 6008.909
369.335, 5940.496
369.818, 5805.167
370.300, 5687.862
370.782, 5614.423
371.264, 5568.863
371.746, 5528.427
372.228, 5483.066
372.710, 5438.729
373.192, 5413.000
373.674, 5423.558
374.157, 5398.728
374.639, 5313.740
375.121, 5201.253
375.603, 5074.986
376.085, 4937.557
376.567, 4786.968
377.049, 4615.673
377.531, 4428.507
378.013, 4247.010
378.496, 4068.299
378.978, 3900.094
379.460, 3744.734
379.942, 3603.556
380.424, 3484.795
380.906, 3395.367
381.388, 3320.601
381.870, 3245.472
382.353, 3172.731
382.835, 3119.584
383.317, 3096.594
383.799, 3088.135
384.281, 3065.285
384.763, 3023.830
385.245, 2987.612
385.727, 2961.305
386.210, 2941.629
386.692, 2924.494
387.174, 2909.940
387.656, 2902.784
388.138, 2908.496
388.620, 2927.126
389.102, 2937.652
389.584, 2929.636
390.066, 2925.954
390.548, 2929.015
391.031, 2940.772
391.513, 2965.245
391.995, 3003.887
392.477, 3050.256
392.959, 3091.650
393.441, 3124.534
393.923, 3163.520
394.405, 3212.179
394.888, 3265.202
395.370, 3323.138
395.852, 3383.922
396.334, 3441.800
396.816, 3487.962
397.298, 3528.195
397.780, 3584.656
398.262, 3663.812
398.745, 3738.183
399.227, 3785.879
399.709, 3822.413
400.191, 3872.359
400.673, 3945.962
401.155, 4018.427
401.637, 4068.911
402.119, 4104.786
402.601, 4150.092
403.084, 4213.903
403.566, 4276.713
404.048, 4310.957
404.530, 4310.307
405.012, 4318.496
405.494, 4343.125
405.976, 4372.544
406.458, 4397.997
406.940, 4421.308
407.423, 4451.079
407.905, 4493.675
408.387, 4544.611
408.869, 4584.854
409.351, 4598.277
409.833, 4623.682
410.315, 4671.165
410.797, 4726.670
411.280, 4776.566
411.762, 4819.136
412.244, 4865.038
412.726, 4930.211
413.208, 5015.520
413.690, 5084.622
414.172, 5125.345
414.654, 5166.867
415.137, 5229.133
415.619, 5300.476
416.101, 5362.201
416.583, 5410.665
417.065, 5441.374
417.547, 5445.830
418.029, 5425.142
418.511, 5393.167
418.993, 5351.350
419.475, 5304.016
419.958, 5255.579
420.440, 5205.675
420.922, 5158.944
421.404, 5111.347
421.886, 5070.864
422.368, 5050.806
422.850, 5048.562
423.332, 5041.416
423.815, 5010.300
424.297, 4962.075
424.779, 4942.808
425.261, 4981.747
425.743, 5013.461
426.225, 5014.817
426.707, 5012.943
427.189, 5037.196
427.672, 5094.099
428.154, 5167.261
428.636, 5240.682
429.118, 5315.125
429.600, 5380.995
430.082, 5430.928
430.564, 5480.720
431.046, 5533.502
431.528, 5591.226
432.011, 5658.351
432.493, 5739.848
432.975, 5825.641
433.457, 5904.529
433.939, 5976.131
434.421, 6038.579
434.903, 6092.397
435.385, 6135.022
435.867, 6161.593
436.350, 6172.393
436.832, 6177.194
437.314, 6177.905
437.796, 6174.085
438.278, 6167.586
438.760, 6157.130
439.242, 6135.391
439.724, 6096.513
440.207, 6043.778
440.689, 5993.604
441.171, 5951.167
441.653, 5904.409
442.135, 5853.675
442.617, 5797.263
443.099, 5729.837
443.581, 5652.370
444.064, 5576.338
444.546, 5514.138
445.028, 5465.692
445.510, 5418.020
445.992, 5374.908
446.474, 5326.817
446.956, 5265.464
447.438, 5198.819
447.920, 5139.638
448.402, 5093.660
448.885, 5048.951
449.367, 4994.050
449.849, 4930.401
450.331, 4863.105
450.813, 4792.434
451.295, 4721.789
451.777, 4655.544
452.259, 4593.663
452.742, 4535.030
453.224, 4480.204
453.706, 4427.802
454.188, 4379.944
454.670, 4334.063
455.152, 4283.097
455.634, 4223.310
456.116, 4159.201
456.599, 4100.054
457.081, 4045.710
457.563, 3998.056
458.045, 3955.956
458.527, 3920.387
459.009, 3893.987
459.491, 3874.963
459.973, 3858.326
460.455, 3841.954
460.938, 3824.529
461.420, 3800.084
461.902, 3764.346
462.384, 3737.027
462.866, 3731.625
463.348, 3734.107
463.830, 3728.883
464.312, 3714.126
464.794, 3699.288
465.277, 3689.738
465.759, 3682.756
466.241, 3674.555
466.723, 3664.742
467.205, 3653.410
467.687, 3639.774
468.169, 3624.756
468.651, 3615.784
469.134, 3614.518
469.616, 3616.348
470.098, 3627.207
470.580, 3637.226
471.062, 3633.252
471.544, 3613.991
472.026, 3591.930
472.508, 3581.096
472.991, 3581.844
473.473, 3580.103
473.955, 3574.745
474.437, 3568.287
474.919, 3555.958
475.401, 3545.180
475.883, 3547.067
476.365, 3566.532
476.847, 3591.794
477.329, 3615.390
477.812, 3636.342
478.294, 3649.568
478.776, 3653.182
479.258, 3652.322
479.740, 3649.155
480.222, 3644.244
480.704, 3648.388
481.186, 3670.329
481.669, 3692.496
482.151, 3700.345
482.633, 3704.293
483.115, 3724.530
483.597, 3767.938
484.079, 3821.205
484.561, 3862.528
485.043, 3885.908
485.526, 3920.712
486.008, 3982.465
486.490, 4040.508
486.972, 4080.013
487.454, 4108.837
487.936, 4141.931
488.418, 4185.726
488.900, 4236.439
489.382, 4288.356
489.865, 4341.669
490.347, 4402.345
490.829, 4472.446
491.311, 4548.751
491.793, 4631.234
492.275, 4718.722
492.757, 4800.391
493.239, 4867.870
493.721, 4934.715
494.204, 5013.619
494.686, 5099.392
495.168, 5177.728
495.650, 5242.661
496.132, 5299.849
496.614, 5358.914
497.096, 5419.889
497.578, 5483.408
498.060, 5550.379
498.543, 5619.184
499.025, 5689.910
499.507, 5762.131
499.989, 5836.357
500.471, 5915.278
500.953, 5991.754
501.435, 6054.599
501.918, 6103.776
502.400, 6142.766
502.882, 6164.288
503.364, 6187.243
503.846, 6233.466
504.328, 6301.063
504.810, 6376.470
505.292, 6463.174
505.774, 6551.805
506.257, 6629.317
506.739, 6703.097
507.221, 6795.229
507.703, 6915.389
508.185, 7051.830
508.667, 7182.796
509.149, 7304.738
509.631, 7429.240
510.113, 7557.690
510.596, 7687.832
511.078, 7819.212
511.560, 7951.986
512.042, 8086.902
512.524, 8224.029
513.006, 8364.156
513.488, 8506.825
513.970, 8653.011
514.453, 8808.818
514.935, 8980.420
515.417, 9154.612
515.899, 9320.702
516.381, 9478.226
516.863, 9624.733
517.345, 9745.765
517.827, 9868.301
518.309, 10013.770
518.792, 10172.400
519.274, 10321.260
519.756, 10451.390
520.238, 10573.400
520.720, 10706.240
521.202, 10861.570
521.684, 10984.510
522.166, 11041.080
522.648, 11098.370
523.131, 11194.460
523.613, 11303.510
524.095, 11378.230
524.577, 11397.480
525.059, 11389.040
525.541, 11389.320
526.023, 11390.560
526.505, 11349.800
526.987, 11254.990
527.470, 11133.060
527.952, 11011.710
528.434, 10888.520
528.916, 10721.770
529.398, 10484.500
529.880, 10236.300
530.362, 9998.908
530.844, 9765.729
531.327, 9523.932
531.809, 9271.575
532.291, 9013.588
532.773, 8754.946
533.255, 8495.664
533.737, 8237.159
534.219, 7973.072
534.701, 7716.240
535.183, 7471.959
535.666, 7236.238
536.148, 6999.483
536.630, 6755.965
537.112, 6530.766
537.594, 6347.569
538.076, 6192.064
538.558, 6036.475
539.041, 5877.653
539.523, 5722.943
540.005, 5576.928
540.487, 5439.572
540.969, 5307.896
541.451, 5176.285
541.933, 5058.596
542.415, 4968.750
542.897, 4884.930
543.380, 4781.376
543.862, 4663.349
544.344, 4563.632
544.826, 4512.099
545.308, 4493.051
545.790, 4457.958
546.272, 4402.632
546.754, 4355.924
547.237, 4335.380
547.719, 4319.327
548.201, 4281.637
548.683, 4222.316
549.165, 4157.764
549.647, 4095.176
550.129, 4027.319
550.611, 3943.783
551.093, 3849.925
551.576, 3758.668
552.058, 3675.630
552.540, 3601.473
553.022, 3537.940
553.504, 3485.771
553.986, 3442.136
554.468, 3415.726
554.950, 3389.468
555.432, 3355.151
555.915, 3316.911
556.397, 3283.416
556.879, 3258.868
557.361, 3235.663
557.843, 3202.801
558.325, 3164.547
558.807, 3136.640
559.289, 3122.516
559.771, 3114.101
560.254, 3104.446
560.736, 3094.071
561.218, 3090.955
561.700, 3097.714
562.182, 3107.303
562.664, 3122.501
563.146, 3137.264
563.628, 3146.385
564.110, 3148.675
564.593, 3144.048
565.075, 3128.770
565.557, 3107.457
566.039, 3101.434
566.521, 3113.647
567.003, 3128.982
567.485, 3142.019
567.968, 3156.058
568.450, 3178.521
568.932, 3210.957
569.414, 3231.529
569.896, 3219.963
570.378, 3205.798
570.860, 3215.096
571.342, 3243.175
571.824, 3273.506
572.307, 3298.463
572.789, 3321.606
573.271, 3350.759
573.753, 3390.967
574.235, 3418.493
574.717, 3416.616
575.199, 3420.699
575.681, 3451.810
576.164, 3496.597
576.646, 3530.288
577.128, 3542.229
577.610, 3554.224
578.092, 3590.322
578.574, 3638.448
579.056, 3669.431
579.538, 3678.953
580.020, 3683.657
580.503, 3696.217
580.985, 3714.836
581.467, 3728.284
581.949, 3728.778
582.431, 3734.310
582.913, 3758.379
583.395, 3778.195
583.877, 3774.133
584.359, 3748.278
584.842, 3716.864
585.324, 3688.398
585.806, 3662.774
586.288, 3641.480
586.770, 3624.266
587.252, 3602.452
587.734, 3571.618
588.216, 3539.150
588.698, 3513.109
589.181, 3494.040
589.663, 3476.651
590.145, 3460.164
590.627, 3445.990
591.109, 3436.879
591.591, 3429.564
592.073, 3416.982
592.555, 3398.439
593.038, 3384.451
593.520, 3389.607
594.002, 3411.277
594.484, 3421.157
594.966, 3412.772
595.448, 3413.097
595.930, 3441.441
596.412, 3479.762
596.894, 3498.511
597.377, 3492.000
597.859, 3498.050
598.341, 3540.790
598.823, 3589.863
599.305, 3617.424
599.787, 3629.088
600.269, 3645.863
600.752, 3677.769
601.234, 3715.444
601.716, 3744.193
602.198, 3764.892
602.680, 3771.868
603.162, 3761.072
603.644, 3741.476
604.126, 3714.842
604.608, 3683.673
605.091, 3653.287
605.573, 3627.053
606.055, 3593.357
606.537, 3542.081
607.019, 3481.054
607.501, 3420.869
607.983, 3362.585
608.465, 3304.677
608.947, 3247.058
609.430, 3187.415
609.912, 3118.277
610.394, 3032.961
610.876, 2953.334
611.358, 2887.331
611.840, 2821.578
612.322, 2746.904
612.804, 2667.405
613.286, 2593.613
613.769, 2528.160
614.251, 2471.855
614.733, 2433.400
615.215, 2403.597
615.697, 2357.268
616.179, 2290.382
616.661, 2222.927
617.143, 2172.283
