##NAMES=Grossular
##RRUFFID=R060278
##IDEAL CHEMISTRY=Ca_3_Al_2_(SiO_4_)_3_
##LOCALITY=Diakon, Kayes Region, Mali
##OWNER=RRUFF
##SOURCE=Herb Obodda
##DESCRIPTION=Dark brown dodecahedral single crystal
##STATUS=The identification of this mineral has been confirmed by X-ray diffraction and chemical analysis
##URL=rruff.info/R060278
##MEASURED CHEMISTRY=(Ca_2.93_Mg_0.05_Mn_0.02_)_Σ=3_(Al_1.19_Fe^3+^_0.78_Ti_0.03_)_Σ=2_((Si_0.99_Al_0.01_)_Σ=1_O_4_)_3_
90.92609, 0.0000000E+00
91.40820, 3.381535
91.89032, 3.211531
92.37244, 3.304598
92.85455, 3.617157
93.33667, 3.888711
93.81879, 3.900526
94.30090, 3.718564
94.78302, 3.538400
95.26514, 3.396999
95.74725, 3.287885
96.22937, 3.210632
96.71149, 3.169038
97.19360, 3.124172
97.67572, 3.021170
98.15784, 2.863224
98.63995, 2.741930
99.12207, 2.689247
99.60419, 2.698908
100.0863, 2.698381
100.5684, 2.665416
101.0505, 2.667313
101.5327, 2.835564
102.0148, 3.248218
102.4969, 3.557162
102.9790, 3.600807
103.4611, 3.298387
103.9432, 3.178757
104.4253, 3.287125
104.9075, 3.555290
105.3896, 3.846699
105.8717, 4.161085
106.3538, 4.503554
106.8359, 4.905244
107.3180, 5.554336
107.8002, 5.924235
108.2823, 5.872833
108.7644, 5.515985
109.2465, 5.276442
109.7286, 5.032928
110.2107, 4.999476
110.6929, 5.265474
111.1750, 6.074030
111.6571, 6.912696
112.1392, 7.788567
112.6213, 8.684916
113.1034, 9.505322
113.5856, 10.19484
114.0677, 10.83507
114.5498, 11.47869
115.0319, 12.01229
115.5140, 12.67426
115.9961, 13.64728
116.4783, 14.92499
116.9604, 16.01828
117.4425, 16.64834
117.9246, 17.04118
118.4067, 17.44411
118.8888, 17.92909
119.3710, 18.46495
119.8531, 19.02568
120.3352, 19.60309
120.8173, 20.24794
121.2994, 20.89404
121.7815, 21.62945
122.2637, 22.61189
122.7458, 24.16000
123.2279, 25.86280
123.7100, 27.33039
124.1921, 28.51495
124.6742, 29.49246
125.1564, 30.19838
125.6385, 30.71858
126.1206, 31.32785
126.6027, 32.16227
127.0848, 33.19276
127.5669, 34.39003
128.0491, 35.79009
128.5312, 37.27200
129.0133, 38.74397
129.4954, 40.17964
129.9775, 41.45881
130.4596, 42.40768
130.9418, 43.09646
131.4239, 43.86000
131.9060, 44.82977
132.3881, 45.84735
132.8702, 46.45335
133.3523, 46.62294
133.8345, 46.75383
134.3166, 47.19670
134.7987, 47.95458
135.2808, 48.73333
135.7629, 49.46173
136.2450, 50.17246
136.7272, 50.99773
137.2093, 51.94216
137.6914, 52.99901
138.1735, 54.21937
138.6556, 55.64718
139.1377, 56.97441
139.6199, 58.15224
140.1020, 59.17087
140.5841, 59.97925
141.0662, 60.46152
141.5483, 60.87645
142.0304, 61.57566
142.5126, 62.68108
142.9947, 63.75391
143.4768, 64.46564
143.9589, 64.65377
144.4410, 64.78065
144.9231, 64.73454
145.4053, 64.69945
145.8874, 64.98787
146.3695, 65.86023
146.8516, 66.68241
147.3337, 67.24857
147.8158, 67.49627
148.2980, 67.69667
148.7801, 67.90224
149.2622, 68.05717
149.7443, 68.03903
150.2264, 67.49635
150.7085, 67.09570
151.1907, 67.07665
151.6728, 67.70942
152.1549, 68.24917
152.6370, 68.65260
153.1191, 68.95499
153.6012, 69.23158
154.0834, 69.23016
154.5655, 69.39413
155.0476, 69.93997
155.5297, 71.39828
156.0118, 72.53091
156.4939, 72.79977
156.9761, 72.53037
157.4582, 72.80389
157.9403, 74.41615
158.4224, 76.27449
158.9045, 77.73886
159.3866, 78.16042
159.8688, 78.76127
160.3509, 80.04343
160.8330, 81.84903
161.3151, 83.44147
161.7972, 84.52676
162.2793, 85.32071
162.7615, 85.98466
163.2436, 86.24796
163.7257, 86.69053
164.2078, 87.69875
164.6899, 89.18996
165.1720, 90.58348
165.6541, 91.54527
166.1363, 92.29153
166.6184, 93.03539
167.1005, 93.64220
167.5826, 94.42571
168.0647, 95.64168
168.5468, 97.26628
169.0290, 99.00304
169.5111, 100.6768
169.9932, 102.3502
170.4753, 104.1142
170.9574, 105.9222
171.4395, 107.8634
171.9217, 109.9648
172.4038, 112.2274
172.8859, 114.8248
173.3680, 118.0666
173.8501, 121.7093
174.3322, 125.3851
174.8144, 129.0439
175.2965, 132.6362
175.7786, 136.3923
176.2607, 140.4063
176.7428, 143.3621
177.2249, 144.1382
177.7071, 142.9444
178.1892, 140.3103
178.6713, 135.9534
179.1534, 130.4387
179.6355, 124.3880
180.1176, 117.6694
180.5998, 111.2381
181.0819, 105.8793
181.5640, 101.5694
182.0461, 98.03293
182.5282, 95.42581
183.0103, 93.50249
183.4925, 91.72488
183.9746, 90.06403
184.4567, 88.65300
184.9388, 87.73349
185.4209, 87.24696
185.9030, 86.89438
186.3852, 86.63483
186.8673, 86.40783
187.3494, 85.92294
187.8315, 85.10550
188.3136, 84.26070
188.7957, 83.80338
189.2779, 83.71764
189.7600, 83.72877
190.2421, 83.71052
190.7242, 83.67435
191.2063, 83.69091
191.6884, 83.77055
192.1706, 83.88282
192.6527, 84.01709
193.1348, 84.17333
193.6169, 84.24504
194.0990, 84.14204
194.5811, 83.87613
195.0633, 83.62861
195.5454, 83.39530
196.0275, 83.20164
196.5096, 83.15892
196.9917, 83.28931
197.4738, 83.32365
197.9560, 82.95442
198.4381, 82.18031
198.9202, 82.03822
199.4023, 82.78272
199.8844, 83.88534
200.3665, 84.23454
200.8487, 83.73092
201.3308, 83.10867
201.8129, 82.69256
202.2950, 82.48417
202.7771, 82.47780
203.2592, 82.71416
203.7414, 83.10694
204.2235, 83.46226
204.7056, 83.74900
205.1877, 84.10026
205.6698, 84.66444
206.1519, 85.52192
206.6341, 86.01820
207.1162, 86.00545
207.5983, 85.72564
208.0804, 85.75904
208.5625, 86.21413
209.0446, 86.64542
209.5268, 86.75114
210.0089, 86.38332
210.4910, 86.43642
210.9731, 87.08728
211.4552, 88.06847
211.9373, 88.67066
212.4195, 88.69427
212.9016, 88.84117
213.3837, 89.52551
213.8658, 90.97204
214.3479, 92.11063
214.8300, 92.77599
215.3121, 93.21268
215.7943, 94.02562
216.2764, 95.28848
216.7585, 96.75510
217.2406, 98.40511
217.7227, 100.3814
218.2048, 101.9891
218.6870, 103.0527
219.1691, 103.8251
219.6512, 104.9217
220.1333, 106.4216
220.6154, 108.1084
221.0975, 109.8725
221.5797, 111.5370
222.0618, 113.7920
222.5439, 116.9453
223.0260, 120.5395
223.5081, 123.5608
223.9902, 125.5639
224.4724, 127.7470
224.9545, 130.6353
225.4366, 134.6669
225.9187, 138.2668
226.4008, 141.3983
226.8829, 144.1493
227.3651, 146.6409
227.8472, 148.5420
228.3293, 150.7852
228.8114, 153.8382
229.2935, 158.0723
229.7757, 161.9192
230.2578, 165.1677
230.7399, 168.0892
231.2220, 171.3373
231.7041, 175.3167
232.1862, 178.9254
232.6684, 181.6849
233.1505, 183.2682
233.6326, 185.0537
234.1147, 187.1205
234.5968, 189.3484
235.0789, 191.4804
235.5611, 193.4755
236.0432, 195.4329
236.5253, 197.3985
237.0074, 199.3235
237.4895, 201.3102
237.9716, 203.2293
238.4538, 205.2903
238.9359, 207.8928
239.4180, 211.5425
239.9001, 214.9801
240.3822, 218.0350
240.8643, 220.9310
241.3465, 222.3727
241.8286, 222.7105
242.3107, 221.3519
242.7928, 217.3572
243.2749, 210.0493
243.7570, 201.2282
244.2392, 190.9319
244.7213, 178.6693
245.2034, 167.6838
245.6855, 158.0147
246.1676, 149.4932
246.6497, 141.8744
247.1319, 134.9470
247.6140, 129.3278
248.0961, 125.3801
248.5782, 123.2609
249.0603, 121.2664
249.5424, 119.3443
250.0246, 117.5810
250.5067, 115.9869
250.9888, 114.3173
251.4709, 113.3221
251.9530, 113.3733
252.4351, 114.5437
252.9173, 115.2104
253.3994, 115.1015
253.8815, 114.8097
254.3636, 114.9506
254.8457, 115.7940
255.3278, 116.4502
255.8100, 116.6502
256.2921, 116.4142
256.7742, 116.5257
257.2563, 116.9767
257.7384, 117.7821
258.2205, 119.0742
258.7026, 121.2723
259.1848, 122.9007
259.6669, 123.5323
260.1490, 123.3189
260.6311, 123.5298
261.1132, 124.3135
261.5953, 125.2810
262.0775, 126.0948
262.5596, 126.6098
263.0417, 127.4303
263.5238, 128.6889
264.0059, 130.3045
264.4880, 131.9380
264.9702, 133.5184
265.4523, 135.2308
265.9344, 137.1526
266.4165, 139.2619
266.8986, 141.7318
267.3807, 144.6748
267.8629, 147.9707
268.3450, 151.3806
268.8271, 155.1830
269.3092, 158.5069
269.7913, 160.7952
270.2734, 161.7773
270.7556, 163.0852
271.2377, 165.0953
271.7198, 167.2504
272.2019, 168.3062
272.6840, 168.2046
273.1661, 167.2241
273.6483, 165.3072
274.1304, 162.3417
274.6125, 159.3773
275.0946, 156.3458
275.5767, 153.4488
276.0588, 151.0132
276.5410, 149.0427
277.0231, 147.5188
277.5052, 146.5278
277.9873, 146.0667
278.4694, 145.8547
278.9515, 146.0216
279.4337, 146.1505
279.9158, 145.5884
280.3979, 144.2820
280.8800, 142.8589
281.3621, 141.5334
281.8442, 140.2951
282.3264, 139.0859
282.8085, 137.8988
283.2906, 136.7765
283.7727, 135.8773
284.2548, 135.2083
284.7369, 134.2492
285.2191, 132.6957
285.7012, 130.7597
286.1833, 129.2508
286.6654, 128.1956
287.1475, 127.3862
287.6296, 126.7008
288.1118, 126.1238
288.5939, 125.5176
289.0760, 124.7944
289.5581, 124.0623
290.0402, 123.5338
290.5223, 123.2051
291.0045, 123.1395
291.4866, 123.6002
291.9687, 124.4366
292.4508, 124.8881
292.9329, 124.7120
293.4150, 124.2641
293.8972, 124.0382
294.3793, 124.0442
294.8614, 124.3939
295.3435, 125.4967
295.8256, 127.0157
296.3077, 127.9618
296.7899, 128.1345
297.2720, 127.9279
297.7541, 127.5964
298.2362, 127.2416
298.7183, 127.3215
299.2004, 128.2585
299.6826, 129.7647
300.1647, 131.4035
300.6468, 133.1643
301.1289, 134.8627
301.6110, 136.3322
302.0931, 137.5932
302.5753, 138.7463
303.0574, 139.7464
303.5395, 140.6931
304.0216, 141.6921
304.5037, 142.7551
304.9858, 143.8541
305.4680, 145.0095
305.9501, 146.1838
306.4322, 147.3049
306.9143, 148.2387
307.3964, 149.1996
307.8785, 150.4289
308.3607, 151.9049
308.8428, 153.4511
309.3249, 154.8280
309.8070, 156.2537
310.2891, 157.9829
310.7712, 160.1889
311.2534, 162.6141
311.7355, 165.2349
312.2176, 167.9869
312.6997, 170.5512
313.1818, 172.2052
313.6639, 173.8741
314.1461, 176.4028
314.6282, 180.2878
315.1103, 184.2985
315.5924, 187.9437
316.0745, 191.2564
316.5566, 194.3643
317.0388, 196.8069
317.5209, 199.3976
318.0030, 202.8400
318.4851, 207.5525
318.9672, 211.7155
319.4493, 214.7632
319.9315, 216.8810
320.4136, 218.3475
320.8957, 219.4866
321.3778, 219.7354
321.8599, 218.7953
322.3420, 216.6006
322.8242, 213.8563
323.3063, 209.8831
323.7884, 205.8178
324.2705, 202.6524
324.7526, 202.1718
325.2347, 200.8567
325.7169, 197.3716
326.1990, 191.9397
326.6811, 187.7495
327.1632, 185.5341
327.6453, 184.2677
328.1274, 183.3854
328.6096, 182.7049
329.0917, 182.6260
329.5738, 183.5197
330.0559, 185.0571
330.5380, 186.1834
331.0201, 186.5191
331.5023, 186.8566
331.9844, 187.5131
332.4665, 188.5804
332.9486, 189.7241
333.4307, 190.8940
333.9128, 192.1611
334.3950, 193.6980
334.8771, 195.8863
335.3592, 197.6364
335.8413, 198.4280
336.3234, 198.1150
336.8055, 198.4024
337.2877, 199.4759
337.7698, 200.8858
338.2519, 202.1007
338.7340, 202.9702
339.2161, 204.1912
339.6982, 205.9160
340.1803, 208.1193
340.6624, 210.5096
341.1446, 213.0789
341.6267, 215.9594
342.1088, 219.2633
342.5909, 222.9547
343.0730, 227.3051
343.5551, 232.3739
344.0373, 238.0439
344.5194, 243.9243
345.0015, 250.0616
345.4836, 256.4813
345.9657, 263.1281
346.4478, 270.0514
346.9300, 277.5344
347.4121, 285.7016
347.8942, 294.2700
348.3763, 302.8621
348.8584, 311.5538
349.3405, 320.9770
349.8227, 331.1761
350.3048, 342.3568
350.7869, 355.0874
351.2690, 369.3264
351.7511, 384.5948
352.2332, 399.9482
352.7154, 415.8802
353.1975, 433.4634
353.6796, 453.2303
354.1617, 474.5980
354.6438, 496.9806
355.1259, 520.3964
355.6081, 544.8503
356.0902, 570.9296
356.5723, 598.0459
357.0544, 625.9595
357.5365, 654.7874
358.0186, 683.2097
358.5008, 710.1559
358.9829, 735.9466
359.4650, 761.2870
359.9471, 787.4881
360.4292, 812.6141
360.9113, 835.6146
361.3935, 856.1576
361.8756, 874.6800
362.3577, 889.3538
362.8398, 902.7852
363.3219, 917.9362
363.8040, 935.4694
364.2862, 955.0195
364.7683, 976.5846
365.2504, 1000.248
365.7325, 1025.495
366.2146, 1051.561
366.6967, 1079.801
367.1789, 1111.059
367.6610, 1147.626
368.1431, 1184.640
368.6252, 1224.114
369.1073, 1264.390
369.5894, 1299.713
370.0716, 1331.135
370.5537, 1356.855
371.0358, 1377.108
371.5179, 1393.668
372.0000, 1399.404
372.4821, 1394.306
372.9643, 1378.381
373.4464, 1350.992
373.9285, 1310.380
374.4106, 1262.204
374.8927, 1206.233
375.3748, 1142.431
375.8570, 1077.428
376.3391, 1009.679
376.8212, 942.8071
377.3033, 878.1024
377.7854, 815.5250
378.2675, 758.2134
378.7497, 706.2754
379.2318, 659.6331
379.7139, 616.9348
380.1960, 578.6146
380.6781, 543.3778
381.1602, 510.9009
381.6424, 481.2094
382.1245, 454.6645
382.6066, 431.1490
383.0887, 410.3690
383.5708, 392.1437
384.0529, 376.3199
384.5351, 361.2711
385.0172, 346.1324
385.4993, 331.7119
385.9814, 319.0079
386.4635, 308.0934
386.9456, 298.2146
387.4278, 289.3111
387.9099, 281.0786
388.3920, 272.8440
388.8741, 264.2377
389.3562, 256.0425
389.8383, 248.9207
390.3205, 242.6530
390.8026, 236.8274
391.2847, 231.2513
391.7668, 226.0198
392.2489, 221.1999
392.7310, 216.8784
393.2132, 212.6884
393.6953, 208.5340
394.1774, 204.4388
394.6595, 200.3980
395.1416, 196.2137
395.6237, 192.3212
396.1059, 188.9934
396.5880, 186.1978
397.0701, 183.3475
397.5522, 180.0667
398.0343, 176.8998
398.5164, 174.1827
398.9986, 172.5163
399.4807, 170.5591
399.9628, 168.1426
400.4449, 165.4197
400.9270, 162.7069
401.4091, 159.8635
401.8913, 157.2643
402.3734, 155.2057
402.8555, 153.9340
403.3376, 151.7574
403.8197, 148.3710
404.3018, 144.4334
404.7840, 140.5192
405.2661, 136.4535
405.7482, 133.0183
406.2303, 130.4915
406.7124, 128.6637
407.1945, 126.5401
407.6767, 124.0673
408.1588, 121.5561
408.6409, 119.1084
409.1230, 116.7534
409.6051, 114.8408
410.0872, 113.4731
410.5694, 112.2941
411.0515, 110.7323
411.5336, 108.8541
412.0157, 107.1088
412.4978, 105.7109
412.9799, 104.5762
413.4621, 103.5297
413.9442, 102.5644
414.4263, 101.7309
414.9084, 101.2404
415.3905, 100.8648
415.8727, 100.1584
416.3548, 98.71666
416.8369, 97.39731
417.3190, 97.10225
417.8011, 97.52560
418.2832, 97.85152
418.7654, 97.67311
419.2475, 97.25328
419.7296, 96.69089
420.2117, 95.94200
420.6938, 95.37724
421.1759, 95.29198
421.6581, 95.40398
422.1402, 95.41360
422.6223, 95.00092
423.1044, 94.74072
423.5865, 94.75936
424.0686, 95.04897
424.5508, 95.53841
425.0329, 96.65956
425.5150, 97.62168
425.9971, 98.02983
426.4792, 97.47404
426.9613, 97.21749
427.4435, 97.35742
427.9256, 97.74693
428.4077, 98.17838
428.8898, 98.72153
429.3719, 99.15408
429.8540, 99.35398
430.3362, 99.35093
430.8183, 99.62731
431.3004, 100.2432
431.7825, 100.9641
432.2646, 101.6019
432.7467, 102.1538
433.2289, 102.7258
433.7110, 103.3242
434.1931, 103.9413
434.6752, 104.5153
435.1573, 105.0595
435.6394, 105.7284
436.1216, 106.7533
436.6036, 107.9365
437.0858, 108.7515
437.5679, 109.1830
438.0500, 109.6211
438.5321, 110.4347
439.0142, 111.4835
439.4963, 112.5560
439.9785, 113.7304
440.4606, 114.7168
440.9427, 115.1492
441.4248, 115.1772
441.9069, 115.2330
442.3890, 115.5496
442.8712, 115.9489
443.3533, 116.3500
443.8354, 116.7673
444.3175, 117.0634
444.7996, 117.0720
445.2817, 116.9830
445.7639, 116.9944
446.2460, 117.2029
446.7281, 117.4439
447.2102, 117.6385
447.6923, 117.8135
448.1744, 118.1731
448.6566, 119.0082
449.1387, 119.7178
449.6208, 119.9885
450.1029, 119.5977
450.5850, 119.4512
451.0671, 119.6423
451.5493, 119.9825
452.0314, 120.2418
452.5135, 120.4412
452.9956, 120.4518
453.4777, 120.1865
453.9598, 119.7170
454.4420, 119.3131
454.9241, 118.9727
455.4062, 118.7533
455.8883, 118.7983
456.3704, 119.0303
456.8525, 119.1063
457.3347, 118.9935
457.8168, 118.7033
458.2989, 118.1644
458.7810, 117.4445
459.2631, 116.7601
459.7452, 116.1991
460.2274, 115.7160
460.7095, 115.2115
461.1916, 114.7038
461.6737, 114.3909
462.1558, 114.8258
462.6379, 115.2746
463.1201, 114.9447
463.6022, 113.2222
464.0843, 111.8020
464.5664, 111.6759
465.0485, 112.2298
465.5306, 112.4842
466.0128, 112.1503
466.4949, 111.5449
466.9770, 110.5444
467.4591, 109.1283
467.9412, 108.2899
468.4233, 108.5434
468.9055, 108.9394
469.3876, 108.9005
469.8697, 108.0640
470.3518, 107.6074
470.8339, 107.6789
471.3160, 108.0548
471.7982, 108.3083
472.2803, 108.3929
472.7624, 108.5502
473.2445, 108.8943
473.7266, 109.3827
474.2087, 109.6754
474.6909, 109.7274
475.1730, 109.9430
475.6551, 110.6766
476.1372, 111.8657
476.6193, 113.3572
477.1014, 115.2307
477.5836, 117.0256
478.0657, 117.8934
478.5478, 118.1736
479.0299, 118.8218
479.5120, 120.6107
479.9941, 122.7685
480.4763, 124.5199
480.9584, 125.9079
481.4405, 127.3910
481.9226, 129.2407
482.4047, 131.2797
482.8868, 133.4191
483.3690, 135.7965
483.8511, 137.9004
484.3332, 139.4352
484.8153, 140.6288
485.2974, 141.8860
485.7795, 143.3629
486.2617, 144.7846
486.7438, 146.1287
487.2259, 147.3974
487.7080, 148.4597
488.1901, 149.2647
488.6722, 149.9429
489.1544, 150.6121
489.6365, 151.3413
490.1186, 151.7377
490.6007, 151.6897
491.0828, 151.4525
491.5649, 151.5014
492.0471, 151.8594
492.5292, 151.9545
493.0113, 151.4927
493.4934, 150.6921
493.9755, 150.1641
494.4576, 149.8979
494.9398, 149.5882
495.4219, 149.0383
495.9040, 148.2824
496.3861, 147.3806
496.8682, 146.3090
497.3503, 145.1989
497.8325, 144.2220
498.3146, 143.2589
498.7967, 142.1039
499.2788, 140.4930
499.7609, 138.8595
500.2430, 137.3989
500.7252, 136.1016
501.2073, 134.8756
501.6894, 133.9337
502.1715, 132.8851
502.6536, 131.4929
503.1357, 129.5824
503.6179, 127.7899
504.1000, 125.9735
504.5821, 124.3852
505.0642, 123.2891
505.5463, 122.8084
506.0284, 122.5733
506.5106, 122.6621
506.9927, 122.9158
507.4748, 122.7091
507.9569, 121.9075
508.4390, 121.2871
508.9211, 121.2673
509.4033, 121.7930
509.8854, 122.4312
510.3675, 123.1831
510.8496, 124.0347
511.3317, 124.8281
511.8138, 125.7112
512.2960, 127.0925
512.7781, 129.1937
513.2602, 131.5982
513.7423, 133.7525
514.2244, 135.8658
514.7065, 138.4475
515.1887, 141.7605
515.6708, 145.6261
516.1529, 150.0417
516.6350, 154.9990
517.1171, 159.9830
517.5992, 164.2178
518.0814, 168.7618
518.5635, 174.3212
519.0456, 181.5141
519.5277, 188.8902
520.0098, 196.4458
520.4919, 204.0642
520.9741, 211.5579
521.4562, 218.7957
521.9383, 225.9726
522.4204, 232.8887
522.9025, 239.7318
523.3846, 247.8986
523.8668, 257.5854
524.3489, 267.5548
524.8310, 277.1307
525.3131, 286.3978
525.7952, 295.4406
526.2773, 304.1515
526.7595, 313.5927
527.2416, 325.5399
527.7237, 339.0680
528.2058, 352.0418
528.6879, 363.6188
529.1700, 374.4351
529.6522, 384.8645
530.1343, 394.9254
530.6164, 404.9993
531.0985, 416.5240
531.5806, 427.0367
532.0627, 435.1696
532.5449, 440.8078
533.0270, 443.8885
533.5091, 444.8807
533.9912, 442.9512
534.4733, 437.4922
534.9554, 428.7356
535.4376, 415.7517
535.9197, 397.7057
536.4018, 375.9269
536.8839, 352.9005
537.3660, 327.7294
537.8481, 303.1031
538.3303, 279.0314
538.8124, 255.9483
539.2945, 235.6602
539.7766, 218.2408
540.2587, 203.0007
540.7408, 189.8694
541.2230, 178.5171
541.7051, 168.1801
542.1872, 158.7908
542.6693, 150.5495
543.1514, 143.6306
543.6335, 137.9624
544.1157, 133.2734
544.5978, 129.9246
545.0799, 126.9145
545.5620, 123.3953
546.0441, 119.7000
546.5262, 116.6526
547.0084, 114.6286
547.4905, 113.2640
547.9726, 112.5598
548.4547, 112.5735
548.9368, 112.4167
549.4189, 112.1348
549.9011, 111.5541
550.3832, 110.4494
550.8653, 108.1233
551.3474, 107.0064
551.8295, 107.6094
552.3116, 108.8703
552.7938, 109.1797
553.2759, 108.4364
553.7580, 107.7146
554.2401, 107.2944
554.7222, 107.0791
555.2043, 106.8760
555.6865, 106.6801
556.1686, 106.4122
556.6507, 106.0165
557.1328, 105.5239
557.6149, 104.9324
558.0970, 104.2422
558.5792, 103.6060
559.0613, 103.2117
559.5434, 102.8955
560.0255, 102.4863
560.5076, 101.8931
560.9897, 101.3065
561.4719, 100.8088
561.9540, 100.3510
562.4361, 99.85901
562.9182, 99.47593
563.4003, 98.87043
563.8824, 97.91775
564.3646, 96.66943
564.8467, 95.43226
565.3288, 94.20860
565.8109, 92.98098
566.2930, 91.69121
566.7751, 90.33663
567.2573, 89.19016
567.7394, 88.29094
568.2215, 87.37373
568.7036, 86.07929
569.1857, 84.51495
569.6678, 83.02567
570.1500, 81.69613
570.6321, 80.46983
571.1142, 79.29858
571.5963, 78.19716
572.0784, 77.20223
572.5605, 76.31960
573.0427, 75.54870
573.5248, 74.93534
574.0069, 74.45631
574.4890, 73.92258
574.9711, 73.26146
575.4532, 72.55605
575.9354, 71.86030
576.4175, 71.20280
576.8996, 70.44445
577.3817, 69.36002
577.8638, 68.40361
578.3459, 68.05711
578.8281, 68.52837
579.3102, 68.76728
579.7923, 68.61231
580.2744, 68.24497
580.7565, 67.92343
581.2386, 67.65775
581.7208, 67.65324
582.2029, 68.17618
582.6850, 68.87621
583.1671, 69.01510
583.6492, 68.69413
584.1313, 68.51603
584.6134, 68.95138
585.0955, 69.65359
585.5776, 70.34063
586.0598, 70.99204
