##NAMES=Grossular
##RRUFFID=R050036
##IDEAL CHEMISTRY=Ca_3_Al_2_(SiO_4_)_3_
##LOCALITY=Wah Wah Mountains, Utah, USA
##OWNER=RRUFF
##SOURCE=Eugene Schlepp
##DESCRIPTION=Colorless single crystal in rhyolite matrix
##STATUS=The identification of this mineral has been confirmed by X-ray diffraction and chemical analysis
##URL=rruff.info/R050036
##MEASURED CHEMISTRY=(Ca_2.95_Mg_0.05_)_Σ=3_(Al_1.70_Fe^3+^_0.30_)_Σ=2_(Si_1.00_O_4_)_3_; trace amounts of P
140.5016, 540.5565
140.9837, 540.1591
141.4658, 538.1331
141.9480, 537.4351
142.4301, 540.5673
142.9122, 550.0935
143.3943, 557.8553
143.8764, 561.8303
144.3585, 562.1229
144.8407, 566.1158
145.3228, 576.9015
145.8049, 589.0121
146.2870, 596.9887
146.7691, 595.2822
147.2512, 596.6306
147.7334, 605.0149
148.2155, 623.4452
148.6976, 635.6246
149.1797, 634.3367
149.6618, 628.8856
150.1439, 631.5322
150.6261, 650.2156
151.1082, 669.8416
151.5903, 686.9834
152.0724, 701.9174
152.5545, 713.3946
153.0366, 718.3892
153.5188, 719.8897
154.0009, 723.7540
154.4830, 733.2682
154.9651, 743.5294
155.4472, 752.5657
155.9293, 760.4372
156.4115, 766.5600
156.8936, 769.8088
157.3757, 770.9717
157.8578, 772.8389
158.3399, 773.2634
158.8221, 776.3457
159.3042, 784.7756
159.7863, 804.6000
160.2684, 824.5761
160.7505, 842.0526
161.2326, 857.0784
161.7148, 868.7210
162.1969, 869.5209
162.6790, 869.5154
163.1611, 878.3349
163.6432, 909.2847
164.1253, 941.8491
164.6075, 964.1210
165.0896, 975.6376
165.5717, 987.0837
166.0538, 1005.279
166.5359, 1027.023
167.0180, 1047.754
167.5002, 1064.048
167.9823, 1079.753
168.4644, 1095.996
168.9465, 1112.011
169.4286, 1134.468
169.9107, 1173.040
170.3929, 1221.724
170.8750, 1268.905
171.3571, 1304.102
171.8392, 1336.210
172.3213, 1374.607
172.8034, 1420.460
173.2856, 1471.297
173.7677, 1521.247
174.2498, 1573.330
174.7319, 1636.785
175.2140, 1722.796
175.6961, 1822.385
176.1783, 1919.351
176.6604, 2003.737
177.1425, 2095.266
177.6246, 2213.125
178.1067, 2356.643
178.5888, 2529.984
179.0710, 2797.216
179.5531, 3094.197
180.0352, 3274.965
180.5173, 3303.162
180.9994, 3197.886
181.4815, 2942.101
181.9637, 2538.024
182.4458, 2126.388
182.9279, 1803.708
183.4100, 1565.506
183.8921, 1390.739
184.3742, 1290.635
184.8564, 1242.113
185.3385, 1196.311
185.8206, 1152.272
186.3027, 1117.819
186.7848, 1105.774
187.2669, 1113.339
187.7491, 1118.565
188.2312, 1111.437
188.7133, 1095.950
189.1954, 1087.890
189.6775, 1088.606
190.1596, 1090.950
190.6418, 1084.033
191.1239, 1068.205
191.6060, 1056.301
192.0881, 1055.632
192.5702, 1064.731
193.0524, 1070.959
193.5345, 1074.166
194.0166, 1074.883
194.4987, 1071.547
194.9808, 1063.587
195.4629, 1060.233
195.9451, 1069.747
196.4272, 1091.839
196.9093, 1103.604
197.3914, 1102.620
197.8735, 1093.989
198.3556, 1085.870
198.8378, 1077.943
199.3199, 1072.647
199.8020, 1072.150
200.2841, 1076.790
200.7662, 1081.842
201.2483, 1088.401
201.7305, 1093.979
202.2126, 1089.493
202.6947, 1071.133
203.1768, 1056.932
203.6589, 1061.692
204.1410, 1089.411
204.6232, 1106.601
205.1053, 1107.395
205.5874, 1097.047
206.0695, 1093.417
206.5516, 1098.521
207.0337, 1105.049
207.5159, 1107.836
207.9980, 1105.944
208.4801, 1104.343
208.9622, 1102.948
209.4443, 1102.318
209.9264, 1105.782
210.4086, 1114.847
210.8907, 1125.019
211.3728, 1132.701
211.8549, 1137.323
212.3370, 1141.227
212.8191, 1142.938
213.3013, 1143.549
213.7834, 1154.788
214.2655, 1183.645
214.7476, 1211.956
215.2297, 1221.818
215.7118, 1205.337
216.1940, 1192.294
216.6761, 1186.948
217.1582, 1189.235
217.6403, 1200.605
218.1224, 1225.682
218.6045, 1253.475
219.0867, 1273.321
219.5688, 1282.620
220.0509, 1289.429
220.5330, 1293.358
221.0151, 1294.241
221.4972, 1302.537
221.9794, 1319.570
222.4615, 1342.589
222.9436, 1369.844
223.4257, 1404.552
223.9078, 1437.063
224.3899, 1463.246
224.8721, 1482.468
225.3542, 1508.013
225.8363, 1540.479
226.3184, 1578.875
226.8005, 1623.135
227.2827, 1674.720
227.7648, 1728.681
228.2469, 1781.916
228.7290, 1832.349
229.2111, 1897.005
229.6932, 1980.799
230.1754, 2074.036
230.6575, 2164.662
231.1396, 2246.818
231.6217, 2335.769
232.1038, 2436.497
232.5859, 2550.845
233.0681, 2667.259
233.5502, 2786.079
234.0323, 2906.207
234.5144, 3027.748
234.9965, 3149.591
235.4786, 3273.635
235.9608, 3404.448
236.4429, 3546.086
236.9250, 3669.450
237.4071, 3778.408
237.8892, 3865.635
238.3713, 3917.340
238.8535, 3920.278
239.3356, 3909.400
239.8177, 3890.569
240.2998, 3855.559
240.7819, 3843.652
241.2640, 3853.439
241.7462, 3886.918
242.2283, 3946.505
242.7104, 4028.350
243.1925, 4143.309
243.6746, 4305.371
244.1567, 4541.511
244.6389, 4741.581
245.1210, 4935.650
245.6031, 5076.198
246.0852, 5074.536
246.5673, 4903.170
247.0494, 4634.964
247.5316, 4272.463
248.0137, 3765.297
248.4958, 3332.543
248.9779, 2987.749
249.4600, 2712.252
249.9421, 2481.777
250.4243, 2302.142
250.9064, 2154.007
251.3885, 2031.456
251.8706, 1935.278
252.3527, 1862.843
252.8348, 1821.974
253.3170, 1800.019
253.7991, 1772.770
254.2812, 1734.889
254.7633, 1702.471
255.2454, 1681.946
255.7275, 1675.713
256.2097, 1673.689
256.6918, 1677.850
257.1739, 1684.884
257.6560, 1687.606
258.1381, 1681.764
258.6202, 1680.421
259.1024, 1688.865
259.5845, 1708.536
260.0666, 1731.924
260.5487, 1760.185
261.0308, 1791.247
261.5129, 1823.360
261.9951, 1857.833
262.4772, 1889.549
262.9593, 1915.394
263.4414, 1934.072
263.9235, 1953.356
264.4056, 1971.453
264.8878, 1992.103
265.3699, 2022.941
265.8520, 2066.482
266.3341, 2113.762
266.8162, 2161.133
267.2983, 2207.031
267.7805, 2260.013
268.2626, 2319.065
268.7447, 2385.948
269.2268, 2464.084
269.7089, 2554.342
270.1910, 2652.329
270.6732, 2757.883
271.1553, 2870.778
271.6374, 2986.955
272.1195, 3101.615
272.6016, 3226.910
273.0837, 3377.563
273.5659, 3554.882
274.0480, 3753.933
274.5301, 3992.190
275.0122, 4271.822
275.4943, 4503.916
275.9764, 4702.152
276.4586, 4827.061
276.9407, 4811.183
277.4228, 4648.227
277.9049, 4405.809
278.3870, 4080.262
278.8691, 3677.273
279.3513, 3323.710
279.8334, 3018.227
280.3155, 2765.674
280.7976, 2583.015
281.2798, 2473.854
281.7619, 2386.353
282.2440, 2302.621
282.7261, 2224.187
283.2082, 2165.089
283.6903, 2127.802
284.1725, 2100.741
284.6546, 2068.055
285.1367, 2030.526
285.6188, 2001.900
286.1009, 1993.014
286.5830, 1997.581
287.0652, 1986.660
287.5473, 1958.571
288.0294, 1925.635
288.5115, 1903.225
288.9936, 1889.573
289.4757, 1870.941
289.9579, 1839.722
290.4400, 1800.889
290.9221, 1765.576
291.4042, 1733.567
291.8863, 1707.790
292.3684, 1695.386
292.8506, 1693.201
293.3327, 1687.287
293.8148, 1671.790
294.2969, 1650.677
294.7790, 1628.664
295.2611, 1605.676
295.7433, 1588.461
296.2254, 1588.098
296.7075, 1598.589
297.1896, 1602.639
297.6717, 1591.290
298.1538, 1574.484
298.6360, 1566.791
299.1181, 1567.747
299.6002, 1572.699
300.0823, 1575.571
300.5644, 1580.206
301.0465, 1595.042
301.5287, 1628.225
302.0108, 1665.003
302.4929, 1688.188
302.9750, 1699.476
303.4571, 1707.260
303.9392, 1716.042
304.4214, 1725.207
304.9035, 1733.636
305.3856, 1739.003
305.8677, 1746.609
306.3498, 1762.101
306.8319, 1783.923
307.3141, 1807.013
307.7962, 1829.554
308.2783, 1851.054
308.7604, 1870.927
309.2425, 1887.513
309.7246, 1904.933
310.2068, 1927.692
310.6889, 1953.644
311.1710, 1977.466
311.6531, 1994.665
312.1352, 2009.967
312.6173, 2027.401
313.0995, 2049.134
313.5816, 2067.975
314.0637, 2078.392
314.5458, 2083.775
315.0279, 2090.611
315.5100, 2101.084
315.9922, 2113.890
316.4743, 2126.476
316.9564, 2136.056
317.4385, 2155.807
317.9206, 2196.114
318.4027, 2247.824
318.8849, 2298.146
319.3670, 2340.078
319.8491, 2383.182
320.3312, 2431.624
320.8133, 2486.841
321.2954, 2541.564
321.7776, 2594.047
322.2597, 2645.864
322.7418, 2698.694
323.2239, 2761.179
323.7060, 2816.313
324.1881, 2853.361
324.6703, 2869.303
325.1524, 2903.433
325.6345, 2977.929
326.1166, 3060.934
326.5987, 3127.740
327.0808, 3187.563
327.5630, 3220.276
328.0451, 3225.555
328.5272, 3203.113
329.0093, 3144.311
329.4914, 3025.847
329.9735, 2893.763
330.4557, 2776.700
330.9378, 2671.285
331.4199, 2587.336
331.9020, 2531.227
332.3841, 2497.731
332.8662, 2459.659
333.3484, 2407.719
333.8305, 2365.864
334.3126, 2349.035
334.7947, 2365.622
335.2768, 2381.962
335.7589, 2396.323
336.2411, 2409.551
336.7232, 2423.759
337.2053, 2438.331
337.6874, 2455.409
338.1695, 2475.884
338.6516, 2499.463
339.1338, 2527.999
339.6159, 2562.293
340.0980, 2599.959
340.5801, 2636.157
341.0622, 2671.123
341.5443, 2706.586
342.0265, 2744.648
342.5086, 2784.583
342.9907, 2823.268
343.4728, 2860.593
343.9549, 2895.813
344.4370, 2933.116
344.9192, 2970.490
345.4013, 2988.494
345.8834, 2968.896
346.3655, 2927.883
346.8476, 2906.859
347.3297, 2905.996
347.8119, 2919.893
348.2940, 2944.167
348.7761, 2979.456
349.2582, 3027.021
349.7403, 3090.138
350.2225, 3163.824
350.7046, 3237.501
351.1867, 3313.472
351.6688, 3404.477
352.1509, 3523.306
352.6331, 3662.279
353.1152, 3810.588
353.5973, 3967.293
354.0794, 4130.028
354.5615, 4291.549
355.0436, 4456.262
355.5258, 4637.566
356.0079, 4836.332
356.4900, 5058.518
356.9721, 5310.811
357.4542, 5596.976
357.9363, 5903.979
358.4185, 6215.600
358.9006, 6544.051
359.3827, 6910.459
359.8648, 7343.365
360.3469, 7800.265
360.8290, 8254.248
361.3112, 8700.274
361.7933, 9176.876
362.2754, 9700.382
362.7575, 10262.79
363.2396, 10857.92
363.7217, 11477.61
364.2039, 12128.66
364.6860, 12840.97
365.1681, 13618.06
365.6502, 14327.02
366.1323, 14969.03
366.6144, 15534.53
367.0966, 16018.29
367.5787, 16435.90
368.0608, 16745.18
368.5429, 16896.56
369.0250, 16922.82
369.5071, 16984.30
369.9893, 17061.35
370.4714, 17195.28
370.9535, 17408.91
371.4356, 17715.58
371.9177, 18073.96
372.3998, 18521.94
372.8820, 19003.49
373.3641, 19418.54
373.8462, 19820.74
374.3283, 20017.14
374.8104, 19925.85
375.2925, 19537.74
375.7747, 18940.14
376.2568, 18106.56
376.7389, 17106.50
377.2210, 15997.41
377.7031, 14768.56
378.1852, 13588.13
378.6674, 12486.92
379.1495, 11474.21
379.6316, 10544.69
380.1137, 9707.011
380.5958, 8944.817
381.0779, 8261.022
381.5601, 7645.237
382.0422, 7097.805
382.5243, 6612.123
383.0064, 6185.123
383.4885, 5821.179
383.9706, 5512.947
384.4528, 5231.625
384.9349, 4947.304
385.4170, 4677.146
385.8991, 4444.900
386.3812, 4255.476
386.8633, 4092.509
387.3455, 3949.302
387.8276, 3821.218
388.3097, 3695.194
388.7918, 3553.427
389.2739, 3419.825
389.7560, 3317.969
390.2382, 3251.840
390.7203, 3190.959
391.2024, 3116.192
391.6845, 3038.819
392.1666, 2970.908
392.6487, 2921.566
393.1309, 2878.243
393.6130, 2836.547
394.0951, 2796.469
394.5772, 2761.452
395.0593, 2732.796
395.5414, 2709.143
396.0236, 2689.950
396.5057, 2677.541
396.9878, 2666.672
397.4699, 2655.790
397.9520, 2646.042
398.4341, 2641.046
398.9163, 2642.096
399.3984, 2646.576
399.8805, 2653.737
400.3626, 2663.908
400.8447, 2675.984
401.3268, 2691.254
401.8090, 2707.462
402.2911, 2720.108
402.7732, 2724.344
403.2553, 2737.601
403.7374, 2766.594
404.2195, 2810.379
404.7017, 2852.357
405.1838, 2892.975
405.6659, 2930.984
406.1480, 2962.344
406.6301, 2986.958
407.1122, 3019.424
407.5944, 3062.597
408.0765, 3115.106
408.5586, 3175.356
409.0407, 3243.441
409.5228, 3311.682
410.0049, 3373.440
410.4871, 3430.724
410.9692, 3497.820
411.4513, 3583.541
411.9334, 3649.516
412.4155, 3658.819
412.8976, 3614.063
413.3798, 3524.787
413.8619, 3369.705
414.3440, 3186.483
414.8261, 3007.338
415.3082, 2832.563
415.7903, 2666.111
416.2725, 2503.154
416.7546, 2351.240
417.2367, 2215.271
417.7188, 2094.390
418.2009, 1996.394
418.6830, 1938.292
419.1652, 1910.105
419.6473, 1877.518
420.1294, 1819.122
420.6115, 1760.233
421.0937, 1714.478
421.5758, 1690.629
422.0579, 1666.867
422.5400, 1636.715
423.0221, 1605.663
423.5042, 1582.183
423.9864, 1572.444
424.4685, 1563.862
424.9506, 1553.179
425.4327, 1540.158
425.9148, 1530.176
426.3969, 1524.980
426.8791, 1520.834
427.3612, 1514.236
427.8433, 1503.861
428.3254, 1495.250
428.8075, 1489.288
429.2896, 1485.605
429.7718, 1483.244
430.2539, 1482.315
430.7360, 1482.043
431.2181, 1481.400
431.7002, 1480.584
432.1823, 1482.938
432.6645, 1489.135
433.1466, 1496.844
433.6287, 1502.355
434.1108, 1506.260
434.5929, 1511.671
435.0750, 1521.649
435.5572, 1533.111
436.0393, 1541.343
436.5214, 1546.326
437.0035, 1547.724
437.4856, 1542.136
437.9677, 1533.710
438.4499, 1528.373
438.9320, 1528.661
439.4141, 1530.630
439.8962, 1534.336
440.3783, 1537.800
440.8604, 1536.030
441.3426, 1515.144
441.8247, 1497.260
442.3068, 1497.564
442.7889, 1522.033
443.2710, 1543.728
443.7531, 1551.474
444.2353, 1554.317
444.7174, 1562.395
445.1995, 1583.398
445.6816, 1602.726
446.1637, 1616.413
446.6458, 1625.143
447.1280, 1637.928
447.6101, 1657.764
448.0922, 1678.425
448.5743, 1696.380
449.0564, 1711.175
449.5385, 1724.918
450.0207, 1737.669
450.5028, 1749.352
450.9849, 1759.477
451.4670, 1767.664
451.9491, 1775.979
452.4312, 1787.793
452.9134, 1801.344
453.3955, 1801.142
453.8776, 1785.744
454.3597, 1767.052
454.8418, 1756.396
455.3239, 1752.348
455.8061, 1749.681
456.2882, 1747.790
456.7703, 1745.777
457.2524, 1741.728
457.7345, 1736.219
458.2166, 1731.513
458.6988, 1731.678
459.1809, 1732.023
459.6630, 1726.222
460.1451, 1712.618
460.6272, 1700.036
461.1093, 1693.627
461.5915, 1691.651
462.0736, 1692.123
462.5557, 1695.771
463.0378, 1700.376
463.5199, 1705.567
464.0020, 1711.177
464.4842, 1716.332
464.9663, 1721.186
465.4484, 1725.231
465.9305, 1727.668
466.4126, 1722.589
466.8947, 1726.570
467.3769, 1744.666
467.8590, 1769.540
468.3411, 1789.517
468.8232, 1802.651
469.3053, 1814.463
469.7874, 1826.101
470.2696, 1837.613
470.7517, 1849.225
471.2338, 1859.989
471.7159, 1873.622
472.1980, 1897.447
472.6801, 1931.036
473.1623, 1951.158
473.6444, 1951.784
474.1265, 1943.359
474.6086, 1944.749
475.0907, 1954.169
475.5728, 1960.081
476.0550, 1957.232
476.5371, 1946.643
477.0192, 1927.217
477.5013, 1898.715
477.9834, 1871.662
478.4655, 1857.502
478.9477, 1848.565
479.4298, 1834.568
479.9119, 1805.430
480.3940, 1779.163
480.8761, 1767.272
481.3582, 1766.037
481.8404, 1764.991
482.3225, 1758.246
482.8046, 1752.972
483.2867, 1753.582
483.7688, 1763.379
484.2509, 1768.850
484.7331, 1761.960
485.2152, 1753.818
485.6973, 1755.015
486.1794, 1770.964
486.6615, 1787.199
487.1436, 1802.422
487.6258, 1816.497
488.1079, 1827.333
488.5900, 1831.981
489.0721, 1841.459
489.5542, 1864.929
490.0363, 1902.660
490.5185, 1931.862
491.0006, 1950.253
491.4827, 1964.985
491.9648, 1985.907
492.4470, 2011.630
492.9291, 2034.179
493.4112, 2049.798
493.8933, 2061.187
494.3754, 2070.383
494.8575, 2077.985
495.3397, 2087.208
495.8218, 2105.287
496.3039, 2123.789
496.7860, 2132.118
497.2681, 2126.466
497.7502, 2120.231
498.2324, 2123.770
498.7145, 2130.120
499.1966, 2129.879
499.6787, 2103.231
500.1608, 2086.763
500.6429, 2097.708
501.1251, 2134.116
501.6072, 2161.718
502.0893, 2172.083
502.5714, 2178.855
503.0535, 2188.214
503.5356, 2201.073
504.0178, 2214.227
504.4999, 2227.377
504.9820, 2240.998
505.4641, 2258.123
505.9462, 2281.014
506.4283, 2295.401
506.9105, 2296.318
507.3926, 2285.672
507.8747, 2271.514
508.3568, 2253.944
508.8389, 2229.282
509.3210, 2187.976
509.8032, 2137.120
510.2853, 2097.352
510.7674, 2073.184
511.2495, 2051.816
511.7316, 2018.310
512.2137, 1977.862
512.6959, 1941.596
513.1780, 1909.905
513.6601, 1887.039
514.1422, 1879.955
514.6243, 1886.417
515.1064, 1891.297
515.5886, 1889.558
516.0707, 1883.773
516.5528, 1875.387
517.0349, 1864.067
517.5170, 1851.088
517.9991, 1831.080
518.4813, 1811.699
518.9634, 1803.253
519.4455, 1811.345
519.9276, 1821.064
520.4097, 1831.272
520.8918, 1840.970
521.3740, 1843.518
521.8561, 1837.032
522.3382, 1829.626
522.8203, 1826.102
523.3024, 1826.375
523.7845, 1829.485
524.2667, 1836.340
524.7488, 1842.411
525.2309, 1838.976
525.7130, 1829.512
526.1951, 1826.396
526.6772, 1837.491
527.1594, 1853.585
527.6415, 1860.102
528.1236, 1860.564
528.6057, 1870.814
529.0878, 1901.817
529.5699, 1944.775
530.0521, 1992.046
530.5342, 2041.713
531.0163, 2101.770
531.4984, 2180.269
531.9805, 2268.689
532.4626, 2358.260
532.9448, 2438.262
533.4269, 2531.106
533.9090, 2641.656
534.3911, 2767.099
534.8732, 2891.871
535.3553, 3015.326
535.8375, 3142.177
536.3196, 3270.353
536.8017, 3400.739
537.2838, 3549.597
537.7659, 3721.456
538.2480, 3901.585
538.7302, 4069.500
539.2123, 4230.292
539.6944, 4409.402
540.1765, 4615.357
540.6586, 4836.653
541.1407, 5071.415
541.6229, 5314.500
542.1050, 5550.941
542.5871, 5801.695
543.0692, 6023.629
543.5513, 6192.450
544.0334, 6304.554
544.5156, 6314.465
544.9977, 6187.159
545.4798, 5956.474
545.9619, 5645.909
546.4440, 5206.789
546.9261, 4766.957
547.4083, 4321.357
547.8904, 3888.693
548.3725, 3508.835
548.8546, 3185.331
549.3367, 2904.467
549.8188, 2664.682
550.3010, 2465.430
550.7831, 2304.906
551.2652, 2189.411
551.7473, 2091.226
552.2294, 1988.884
552.7115, 1884.453
553.1937, 1805.247
553.6758, 1755.363
554.1579, 1722.682
554.6400, 1696.619
555.1221, 1675.960
555.6042, 1657.619
556.0864, 1639.359
556.5685, 1623.759
557.0506, 1614.329
557.5327, 1610.015
558.0148, 1607.104
558.4969, 1602.374
558.9791, 1599.553
559.4612, 1601.354
559.9433, 1608.727
560.4254, 1617.083
560.9075, 1623.421
561.3896, 1631.682
561.8718, 1646.346
562.3539, 1681.423
562.8360, 1698.260
563.3181, 1687.990
563.8002, 1660.554
564.2823, 1637.413
564.7645, 1617.742
565.2466, 1607.025
565.7287, 1608.565
566.2108, 1620.972
566.6929, 1642.118
567.1750, 1672.496
567.6572, 1696.573
568.1393, 1695.018
568.6214, 1678.488
569.1035, 1668.422
569.5856, 1669.000
570.0677, 1672.499
570.5499, 1674.505
571.0320, 1674.776
571.5141, 1672.962
571.9962, 1666.531
572.4783, 1660.385
572.9604, 1657.612
573.4426, 1657.291
573.9247, 1654.478
574.4068, 1643.319
574.8889, 1634.280
575.3710, 1632.818
575.8531, 1641.706
576.3353, 1643.195
576.8174, 1634.304
577.2995, 1622.410
577.7816, 1615.535
578.2637, 1614.641
578.7458, 1608.133
579.2280, 1593.104
579.7101, 1574.012
580.1922, 1556.388
580.6743, 1540.877
581.1564, 1531.114
581.6385, 1535.833
582.1207, 1543.472
582.6028, 1535.860
583.0849, 1515.117
583.5670, 1497.316
584.0491, 1495.205
584.5313, 1497.763
585.0134, 1496.708
585.4955, 1490.328
585.9776, 1481.850
586.4597, 1473.134
586.9418, 1462.253
587.4240, 1446.828
587.9061, 1421.100
588.3882, 1399.760
588.8703, 1385.451
589.3524, 1376.240
589.8345, 1366.309
590.3167, 1355.072
590.7988, 1345.449
591.2809, 1340.756
591.7630, 1339.098
592.2451, 1327.933
592.7272, 1306.732
593.2094, 1288.971
593.6915, 1288.909
594.1736, 1299.647
594.6557, 1309.623
595.1378, 1318.045
595.6199, 1320.189
596.1021, 1303.166
596.5842, 1280.029
597.0663, 1269.357
597.5485, 1284.565
598.0306, 1305.760
598.5127, 1330.821
598.9948, 1357.792
599.4769, 1378.944
599.9590, 1392.354
600.4412, 1402.056
600.9233, 1407.568
601.4054, 1408.256
601.8875, 1416.068
602.3696, 1433.246
602.8517, 1451.942
603.3339, 1463.365
603.8160, 1468.517
604.2981, 1480.928
604.7802, 1503.620
605.2623, 1528.051
605.7444, 1542.748
606.2266, 1550.187
606.7087, 1556.265
607.1908, 1562.091
607.6729, 1568.744
608.1550, 1577.854
608.6371, 1588.648
609.1193, 1598.926
609.6014, 1602.566
610.0835, 1609.954
610.5656, 1629.323
611.0477, 1664.029
611.5298, 1687.213
612.0120, 1691.316
612.4941, 1690.295
612.9762, 1691.382
613.4583, 1691.724
613.9404, 1705.852
614.4225, 1738.153
614.9047, 1777.643
615.3868, 1810.103
615.8689, 1836.037
616.3510, 1857.749
616.8331, 1873.195
617.3152, 1888.301
617.7974, 1916.790
618.2795, 1954.224
618.7616, 1984.866
619.2437, 1987.976
619.7258, 1989.828
620.2079, 2014.036
620.6901, 2061.471
621.1722, 2104.065
621.6543, 2129.093
622.1364, 2148.316
622.6185, 2168.863
623.1006, 2192.178
623.5828, 2215.999
624.0649, 2247.191
624.5470, 2272.587
625.0291, 2273.010
625.5112, 2243.026
625.9933, 2219.072
626.4755, 2213.176
626.9576, 2209.758
627.4397, 2173.945
627.9218, 2108.742
628.4039, 2037.075
628.8860, 1966.453
629.3682, 1897.567
629.8503, 1833.094
630.3324, 1772.333
630.8145, 1711.842
631.2966, 1651.619
631.7787, 1590.298
632.2609, 1524.055
632.7430, 1447.403
633.2251, 1385.651
633.7072, 1352.366
634.1893, 1331.547
634.6714, 1310.135
635.1536, 1287.530
635.6357, 1266.220
