##NAMES=Grossular
##RRUFFID=R040066
##IDEAL CHEMISTRY=Ca_3_Al_2_(SiO_4_)_3_
##LOCALITY=Redding, Connecticut, USA
##OWNER=RRUFF
##SOURCE=University of Arizona Mineral Museum
##DESCRIPTION=Reddish orange coarsely crystalline
##STATUS=The identification of this mineral has been confirmed by X-ray diffraction and chemical analysis
##URL=rruff.info/R040066
##MEASURED CHEMISTRY=(Ca_2.90_Fe^2+^_0.08_Mn_0.02_)_Σ=3_(Al_1.87_Fe^3+^_0.13_)_Σ=2_(Si_1.00_O_4_)_3_
108.0289, 72.26490
108.5110, 75.11429
108.9931, 76.56930
109.4752, 77.50047
109.9573, 77.69091
110.4395, 77.65880
110.9216, 77.41030
111.4037, 76.88507
111.8858, 77.42149
112.3679, 79.29276
112.8500, 82.91329
113.3322, 89.36916
113.8143, 101.2220
114.2964, 114.1733
114.7785, 121.4982
115.2606, 121.7558
115.7427, 120.8801
116.2249, 123.7755
116.7070, 127.3319
117.1891, 126.6809
117.6712, 117.5388
118.1533, 103.2742
118.6354, 93.18893
119.1175, 87.97442
119.5997, 86.37870
120.0818, 88.37134
120.5639, 92.88789
121.0460, 97.94487
121.5281, 102.2707
122.0102, 105.9932
122.4924, 110.4449
122.9745, 116.2197
123.4566, 122.0896
123.9387, 127.1651
124.4208, 131.8630
124.9029, 137.1742
125.3851, 143.3036
125.8672, 149.9983
126.3493, 160.7260
126.8314, 180.2638
127.3135, 200.0559
127.7956, 216.3440
128.2778, 229.6476
128.7599, 243.7648
129.2420, 264.1589
129.7241, 294.9860
130.2062, 315.6783
130.6884, 322.9393
131.1705, 324.0266
131.6526, 320.8344
132.1347, 314.4658
132.6168, 306.5521
133.0989, 299.7746
133.5811, 297.4169
134.0632, 287.9916
134.5453, 267.6943
135.0274, 244.2658
135.5095, 220.9453
135.9916, 199.2605
136.4738, 181.0875
136.9559, 169.7152
137.4380, 168.4166
137.9201, 169.7876
138.4022, 175.3237
138.8843, 182.5225
139.3665, 189.5060
139.8486, 195.5910
140.3307, 200.9003
140.8128, 205.5626
141.2949, 207.4097
141.7770, 211.6236
142.2592, 218.6001
142.7413, 227.8528
143.2234, 238.9027
143.7055, 251.5306
144.1876, 265.8422
144.6697, 282.5200
145.1519, 306.2368
145.6340, 325.7582
146.1161, 339.4589
146.5982, 348.1246
147.0803, 352.7118
147.5624, 353.5539
148.0446, 350.8742
148.5267, 344.6860
149.0088, 331.3462
149.4909, 320.1779
149.9730, 315.5775
150.4551, 314.7631
150.9372, 311.5132
151.4194, 302.2006
151.9015, 289.4492
152.3836, 281.8935
152.8657, 282.9227
153.3478, 283.7239
153.8299, 280.3442
154.3121, 273.9690
154.7942, 267.8200
155.2763, 263.2823
155.7584, 260.3587
156.2405, 258.7583
156.7226, 259.7322
157.2048, 260.4225
157.6869, 258.3204
158.1690, 254.2416
158.6511, 252.1941
159.1332, 255.3316
159.6153, 261.5914
160.0975, 264.2922
160.5796, 260.2181
161.0617, 256.1623
161.5438, 257.0266
162.0259, 262.3287
162.5080, 267.9718
162.9902, 271.8262
163.4723, 274.4383
163.9544, 277.5632
164.4365, 282.3517
164.9186, 286.5610
165.4007, 287.0237
165.8829, 283.9303
166.3650, 283.2375
166.8471, 289.7532
167.3292, 300.6249
167.8113, 309.3630
168.2934, 313.5549
168.7756, 317.1803
169.2577, 322.6902
169.7398, 329.9862
170.2219, 341.8975
170.7040, 363.5181
171.1861, 389.9820
171.6683, 412.4307
172.1504, 425.9851
172.6325, 438.3307
173.1146, 457.5580
173.5967, 484.1063
174.0788, 513.7209
174.5610, 544.6866
175.0431, 577.6419
175.5252, 613.8745
176.0073, 656.2402
176.4894, 699.6962
176.9715, 740.8096
177.4537, 780.6185
177.9358, 811.6043
178.4179, 833.4680
178.9000, 842.2089
179.3821, 829.1648
179.8642, 784.9290
180.3464, 724.9772
180.8285, 666.6375
181.3106, 609.2117
181.7927, 557.0632
182.2748, 513.7734
182.7569, 476.7473
183.2391, 444.1534
183.7212, 415.6023
184.2033, 391.3512
184.6854, 372.5540
185.1675, 359.9698
185.6496, 349.5411
186.1318, 338.7859
186.6139, 329.2968
187.0960, 323.7079
187.5781, 324.7394
188.0602, 327.5290
188.5423, 324.4583
189.0245, 314.0331
189.5066, 304.0529
189.9887, 298.7505
190.4708, 295.7522
190.9529, 292.6912
191.4350, 288.7146
191.9172, 284.7043
192.3993, 281.6965
192.8814, 279.6147
193.3635, 278.9243
193.8456, 281.7113
194.3277, 285.3537
194.8099, 286.8756
195.2920, 284.6181
195.7741, 281.3771
196.2562, 281.5721
196.7383, 286.1907
197.2204, 289.8831
197.7026, 290.0607
198.1847, 288.3094
198.6668, 285.7557
199.1489, 282.4515
199.6310, 278.9416
200.1131, 275.7882
200.5953, 272.9521
201.0774, 270.7272
201.5595, 270.5839
202.0416, 270.5377
202.5237, 267.9597
203.0058, 261.0394
203.4880, 254.7465
203.9701, 257.4302
204.4522, 271.2449
204.9343, 280.4630
205.4164, 272.4025
205.8985, 260.4990
206.3807, 257.2396
206.8628, 266.7089
207.3449, 279.1981
207.8270, 283.0377
208.3091, 277.1694
208.7912, 272.1300
209.2734, 272.1529
209.7555, 273.9500
210.2376, 274.8472
210.7197, 274.3475
211.2018, 273.3390
211.6839, 271.9780
212.1661, 270.1226
212.6482, 270.7561
213.1303, 277.4406
213.6124, 285.1449
214.0945, 289.6793
214.5766, 290.4646
215.0588, 289.1929
215.5409, 286.5644
216.0230, 282.6178
216.5051, 279.6222
216.9872, 278.4877
217.4693, 278.3035
217.9515, 277.6431
218.4336, 276.3321
218.9157, 276.9174
219.3978, 283.0856
219.8799, 294.1184
220.3620, 302.0432
220.8442, 303.7422
221.3263, 303.2867
221.8084, 304.5059
222.2905, 307.4426
222.7726, 310.0598
223.2547, 310.2048
223.7369, 308.5489
224.2190, 309.0451
224.7011, 313.4959
225.1832, 318.7282
225.6653, 321.2328
226.1474, 321.3982
226.6296, 323.1068
227.1117, 328.5186
227.5938, 337.1232
228.0759, 347.9742
228.5580, 362.3329
229.0401, 376.3018
229.5223, 384.6610
230.0044, 388.9706
230.4865, 396.5789
230.9686, 412.8116
231.4507, 434.2231
231.9328, 453.3755
232.4150, 468.8141
232.8971, 484.1563
233.3792, 502.9421
233.8613, 524.1183
234.3434, 545.1456
234.8255, 564.3738
235.3077, 583.1802
235.7898, 605.1537
236.2719, 631.6359
236.7540, 655.2307
237.2361, 668.6418
237.7182, 674.8490
238.2004, 681.6225
238.6825, 691.3228
239.1646, 701.7989
239.6467, 710.4915
240.1288, 717.3379
240.6109, 723.9551
241.0931, 730.0567
241.5752, 737.0240
242.0573, 748.2926
242.5394, 762.7460
243.0215, 782.8436
243.5036, 814.9692
243.9858, 857.4445
244.4679, 896.3809
244.9500, 929.3282
245.4321, 949.9629
245.9142, 946.4632
246.3963, 912.5164
246.8785, 863.6293
247.3606, 800.6376
247.8427, 728.0336
248.3248, 658.7598
248.8069, 597.5070
249.2890, 544.9011
249.7712, 501.4522
250.2533, 467.7903
250.7354, 440.1434
251.2175, 417.9145
251.6996, 400.9905
252.1817, 390.2799
252.6639, 387.1351
253.1460, 387.2400
253.6281, 381.6568
254.1102, 366.7363
254.5923, 356.6623
255.0744, 356.7834
255.5566, 362.0896
256.0387, 367.0290
256.5208, 370.1881
257.0029, 371.3595
257.4850, 369.6624
257.9671, 362.9083
258.4492, 359.9896
258.9314, 364.7899
259.4135, 371.3066
259.8956, 374.3508
260.3777, 373.2889
260.8598, 370.7054
261.3419, 368.8044
261.8241, 367.2198
262.3062, 369.3721
262.7883, 378.1429
263.2704, 387.7275
263.7525, 395.2619
264.2346, 400.6253
264.7168, 404.8326
265.1989, 408.4535
265.6810, 411.4523
266.1631, 416.2216
266.6452, 422.6547
267.1273, 430.6941
267.6095, 440.4911
268.0916, 451.8930
268.5737, 464.6014
269.0558, 478.3941
269.5379, 493.4218
270.0201, 509.9613
270.5022, 528.2226
270.9843, 548.0988
271.4664, 571.4277
271.9485, 595.7919
272.4306, 617.3374
272.9128, 634.1696
273.3949, 649.6906
273.8770, 672.5893
274.3591, 710.4286
274.8412, 742.9504
275.3233, 769.8988
275.8055, 790.7745
276.2876, 807.1252
276.7697, 818.8290
277.2518, 821.0030
277.7339, 804.6068
278.2160, 763.6097
278.6982, 722.7954
279.1803, 682.3986
279.6624, 643.5020
280.1445, 605.4004
280.6266, 568.7793
281.1087, 536.1340
281.5909, 510.4459
282.0730, 491.9237
282.5551, 475.5636
283.0372, 462.2963
283.5193, 450.1820
284.0014, 437.3089
284.4836, 424.6836
284.9657, 415.2105
285.4478, 413.1113
285.9299, 415.5957
286.4120, 411.1393
286.8941, 395.8428
287.3763, 381.4807
287.8584, 374.7215
288.3405, 372.3701
288.8226, 369.8735
289.3047, 365.4932
289.7868, 360.2923
290.2690, 355.4721
290.7511, 350.9202
291.2332, 347.7336
291.7153, 348.1050
292.1974, 349.3478
292.6795, 347.5342
293.1617, 340.9568
293.6438, 334.3873
294.1259, 331.9258
294.6080, 332.9962
295.0901, 334.3391
295.5722, 335.5566
296.0544, 335.7737
296.5365, 333.0726
297.0186, 326.6808
297.5007, 322.1185
297.9828, 324.2541
298.4649, 329.0483
298.9471, 327.7180
299.4292, 317.3619
299.9113, 307.1706
300.3934, 309.2643
300.8755, 324.8612
301.3576, 335.5805
301.8398, 334.6584
302.3219, 331.3168
302.8040, 334.0892
303.2861, 343.1075
303.7682, 352.5410
304.2503, 357.6945
304.7325, 358.6047
305.2146, 361.5260
305.6967, 369.5570
306.1788, 376.1347
306.6609, 376.3647
307.1430, 373.1504
307.6252, 373.6387
308.1073, 382.1570
308.5894, 395.7220
309.0715, 403.2068
309.5536, 396.0731
310.0357, 393.0246
310.5179, 398.6801
311.0000, 407.5558
311.4821, 413.7867
311.9642, 415.5667
312.4463, 415.1413
312.9284, 416.2629
313.4106, 420.2663
313.8927, 422.8584
314.3748, 423.2103
314.8569, 423.0606
315.3390, 423.0802
315.8211, 423.5127
316.3033, 424.6663
316.7854, 427.5087
317.2675, 432.1719
317.7496, 433.3817
318.2317, 425.6660
318.7138, 420.6316
319.1960, 423.7766
319.6781, 432.4185
320.1602, 441.2080
320.6423, 446.8702
321.1244, 451.0891
321.6065, 458.4759
322.0887, 470.1025
322.5708, 481.8358
323.0529, 492.9723
323.5350, 503.0008
324.0171, 510.5886
324.4992, 514.6164
324.9814, 518.9695
325.4635, 527.3520
325.9456, 539.7076
326.4277, 554.7851
326.9098, 575.8324
327.3919, 595.3144
327.8741, 605.2265
328.3562, 605.5143
328.8383, 600.5224
329.3204, 590.7601
329.8025, 577.3229
330.2846, 560.5038
330.7668, 539.6819
331.2489, 521.0756
331.7310, 512.1653
332.2131, 512.6976
332.6952, 509.8790
333.1773, 498.1587
333.6595, 486.6352
334.1416, 481.8541
334.6237, 483.3012
335.1058, 487.9279
335.5879, 494.7360
336.0700, 502.6926
336.5522, 505.9541
337.0343, 497.3413
337.5164, 493.3466
337.9985, 499.7250
338.4806, 511.7639
338.9627, 524.0985
339.4449, 534.7131
339.9270, 543.6509
340.4091, 550.7198
340.8912, 553.8937
341.3733, 559.3908
341.8554, 566.5852
342.3376, 576.1819
342.8197, 590.3629
343.3018, 607.9755
343.7839, 624.7127
344.2660, 636.2808
344.7481, 642.6807
345.2303, 650.4413
345.7124, 661.8057
346.1945, 671.7277
346.6766, 678.6296
347.1587, 683.1810
347.6408, 686.0336
348.1230, 686.6649
348.6051, 687.5218
349.0872, 694.0411
349.5693, 707.6496
350.0514, 720.9626
350.5335, 727.4055
351.0157, 735.2338
351.4978, 753.3550
351.9799, 783.8288
352.4620, 815.4467
352.9441, 837.2688
353.4262, 852.8060
353.9084, 875.5325
354.3905, 907.9539
354.8726, 947.7394
355.3547, 994.4044
355.8368, 1047.046
356.3189, 1101.085
356.8011, 1149.600
357.2832, 1203.094
357.7653, 1272.572
358.2474, 1357.786
358.7295, 1451.509
359.2116, 1549.829
359.6938, 1653.028
360.1759, 1765.435
360.6580, 1886.163
361.1401, 2014.775
361.6222, 2147.737
362.1043, 2289.125
362.5865, 2444.806
363.0686, 2617.551
363.5507, 2804.776
364.0328, 3001.758
364.5149, 3211.693
364.9970, 3426.167
365.4792, 3663.335
365.9613, 3891.000
366.4434, 4092.405
366.9255, 4266.062
367.4076, 4413.443
367.8897, 4533.770
368.3719, 4628.700
368.8540, 4719.235
369.3361, 4793.230
369.8182, 4880.073
370.3003, 4994.248
370.7824, 5122.324
371.2646, 5251.200
371.7467, 5378.652
372.2288, 5491.936
372.7109, 5583.730
373.1930, 5657.310
373.6751, 5667.380
374.1573, 5602.147
374.6394, 5461.857
375.1215, 5245.739
375.6036, 4954.822
376.0857, 4635.565
376.5678, 4299.246
377.0500, 3953.784
377.5321, 3609.108
378.0142, 3262.625
378.4963, 2941.128
378.9784, 2666.060
379.4605, 2437.920
379.9427, 2233.130
380.4248, 2054.362
380.9069, 1895.396
381.3890, 1754.258
381.8711, 1629.453
382.3532, 1516.789
382.8354, 1414.043
383.3175, 1321.786
383.7996, 1241.126
384.2817, 1178.106
384.7638, 1117.821
385.2459, 1059.090
385.7281, 1003.883
386.2102, 953.3434
386.6923, 907.6091
387.1744, 867.2334
387.6565, 833.3325
388.1386, 805.9152
388.6208, 777.7574
389.1029, 743.8096
389.5850, 715.8556
390.0671, 701.4005
390.5492, 693.5021
391.0313, 682.0414
391.5135, 662.5392
391.9956, 639.9147
392.4777, 620.9324
392.9598, 605.6022
393.4419, 593.8749
393.9240, 588.1503
394.4062, 583.9500
394.8883, 576.3149
395.3704, 565.3340
395.8525, 556.9044
396.3346, 556.0384
396.8167, 558.8572
397.2989, 558.5192
397.7810, 554.2830
398.2631, 549.7598
398.7452, 547.4083
399.2273, 547.0159
399.7094, 546.5966
400.1916, 544.6140
400.6737, 544.2612
401.1558, 548.0184
401.6379, 554.0573
402.1200, 558.7489
402.6021, 560.7965
403.0843, 562.3570
403.5664, 566.9461
404.0485, 575.0487
404.5306, 585.4706
405.0127, 598.6192
405.4948, 613.4521
405.9770, 628.3467
406.4591, 644.2195
406.9412, 664.1730
407.4233, 691.2167
407.9054, 723.6284
408.3875, 751.0782
408.8697, 768.6255
409.3518, 790.7997
409.8339, 826.2133
410.3160, 865.4786
410.7981, 899.7018
411.2802, 926.9278
411.7624, 949.5630
412.2445, 973.1840
412.7266, 995.3264
413.2087, 1002.676
413.6908, 992.1985
414.1729, 968.3457
414.6551, 930.3388
415.1372, 881.0588
415.6193, 829.5577
416.1014, 776.8538
416.5835, 723.5024
417.0656, 666.0978
417.5478, 607.6404
418.0299, 559.8553
418.5120, 528.7513
418.9941, 509.8658
419.4762, 491.7866
419.9583, 475.4863
420.4405, 458.5154
420.9226, 438.0274
421.4047, 418.6518
421.8868, 404.9246
422.3689, 396.6845
422.8510, 389.9987
423.3332, 381.5156
423.8153, 371.2392
424.2974, 360.3611
424.7795, 346.2883
425.2616, 335.4510
425.7437, 331.2535
426.2259, 330.2769
426.7080, 328.2589
427.1901, 323.6761
427.6722, 318.8095
428.1543, 316.2307
428.6364, 315.8669
429.1186, 316.4854
429.6007, 318.6993
430.0828, 320.5807
430.5649, 320.0689
431.0470, 317.5485
431.5291, 314.9163
432.0113, 312.3702
432.4934, 310.1570
432.9755, 308.9592
433.4576, 308.4797
433.9397, 306.9984
434.4218, 303.2869
434.9040, 298.5768
435.3861, 296.3099
435.8682, 297.0965
436.3503, 299.4368
436.8324, 305.8528
437.3145, 312.0734
437.7967, 314.5830
438.2788, 313.0524
438.7609, 308.9920
439.2430, 303.2923
439.7251, 296.1089
440.2072, 289.9123
440.6894, 282.3506
441.1715, 279.5344
441.6536, 286.9632
442.1357, 297.7786
442.6178, 303.7596
443.0999, 302.2951
443.5821, 298.1357
444.0642, 295.4347
444.5463, 294.1281
445.0284, 294.0573
445.5105, 295.7186
445.9926, 297.5242
446.4748, 297.0328
446.9569, 295.0178
447.4390, 295.6500
447.9211, 301.7997
448.4032, 308.9165
448.8853, 314.5234
449.3675, 318.5145
449.8496, 320.6216
450.3317, 320.5167
450.8138, 319.4296
451.2959, 319.8798
451.7780, 323.1991
452.2602, 325.5149
452.7423, 326.9828
453.2244, 327.3777
453.7065, 326.1078
454.1886, 323.5745
454.6707, 320.8570
455.1529, 318.6631
455.6350, 316.9286
456.1171, 315.3456
456.5992, 313.6713
457.0813, 312.7614
457.5634, 312.5044
458.0455, 313.3680
458.5276, 317.2480
459.0098, 324.5034
459.4919, 328.6831
459.9740, 322.3905
460.4561, 310.7541
460.9382, 305.4120
461.4203, 307.8877
461.9025, 311.6610
462.3846, 312.5262
462.8667, 310.7450
463.3488, 308.4773
463.8309, 303.9218
464.3130, 301.0641
464.7952, 302.5854
465.2773, 305.8699
465.7594, 307.3204
466.2415, 306.1129
466.7236, 304.2376
467.2057, 304.0891
467.6879, 305.8898
468.1700, 307.6079
468.6521, 308.1748
469.1342, 309.8734
469.6163, 314.4836
470.0984, 320.3039
470.5806, 324.9071
471.0627, 327.2978
471.5448, 328.3237
472.0269, 328.1909
472.5090, 327.0843
472.9911, 328.1075
473.4733, 332.4098
473.9554, 338.0744
474.4375, 344.4704
474.9196, 351.2174
475.4017, 354.8848
475.8839, 353.9988
476.3660, 350.6148
476.8481, 345.1219
477.3302, 338.2765
477.8123, 332.0003
478.2944, 327.1486
478.7766, 323.0672
479.2587, 318.5945
479.7408, 313.6055
480.2229, 308.4598
480.7050, 300.6993
481.1871, 295.0323
481.6693, 295.3623
482.1514, 299.9586
482.6335, 304.2415
483.1156, 305.4154
483.5977, 304.7580
484.0798, 304.8954
484.5620, 305.8426
485.0441, 307.7131
485.5262, 312.4241
486.0083, 316.2638
486.4904, 314.1458
486.9725, 306.1277
487.4547, 301.0384
487.9368, 303.5540
488.4189, 309.7099
488.9010, 316.9184
489.3831, 324.3077
489.8652, 327.6976
490.3474, 323.8040
490.8295, 316.2582
491.3116, 315.2510
491.7937, 327.3861
492.2758, 337.0808
492.7579, 344.4078
493.2401, 349.2587
493.7222, 350.5062
494.2043, 348.9966
494.6864, 347.4394
495.1685, 347.6293
495.6506, 349.4369
496.1328, 353.1882
496.6149, 360.4881
497.0970, 364.4085
497.5791, 357.6026
498.0612, 349.9394
498.5433, 352.7545
499.0255, 367.2978
499.5076, 379.6974
499.9897, 382.2190
500.4718, 379.5395
500.9539, 375.7849
501.4360, 371.9067
501.9182, 372.6385
502.4003, 381.6732
502.8824, 396.6151
503.3645, 408.8071
503.8466, 418.1171
504.3287, 424.5796
504.8109, 425.2441
505.2930, 425.1613
505.7751, 429.6170
506.2572, 437.7694
506.7393, 443.7856
507.2214, 442.1367
507.7036, 435.1920
508.1857, 433.5719
508.6678, 440.3959
509.1499, 442.4543
509.6320, 433.2000
510.1141, 418.1204
510.5963, 401.3696
511.0784, 382.8340
511.5605, 367.7030
512.0426, 359.8787
512.5247, 355.8039
513.0068, 351.2174
513.4890, 345.8747
513.9711, 340.9001
514.4532, 336.9285
514.9353, 333.8756
515.4174, 331.5321
515.8995, 329.8922
516.3817, 329.0450
516.8638, 328.9845
517.3459, 329.7074
517.8280, 330.6731
518.3101, 332.3031
518.7922, 336.3498
519.2744, 345.4154
519.7565, 356.5678
520.2386, 360.8032
520.7207, 356.7110
521.2028, 353.0164
521.6849, 352.3921
522.1671, 353.5536
522.6492, 354.7692
523.1313, 355.9843
523.6134, 358.1009
524.0955, 364.3694
524.5776, 369.5175
525.0598, 367.2141
525.5419, 358.7711
526.0240, 350.3561
526.5061, 345.0176
526.9882, 342.2637
527.4703, 341.1612
527.9525, 343.6443
528.4346, 344.0231
528.9167, 340.0968
529.3988, 336.2971
529.8809, 334.4890
530.3630, 334.8421
530.8452, 337.0075
531.3273, 340.6317
531.8094, 346.2551
532.2915, 355.3020
532.7736, 367.7319
533.2557, 380.1956
533.7379, 390.5435
534.2200, 402.8239
534.7021, 422.1526
535.1842, 448.4800
535.6663, 477.3272
536.1484, 507.2105
536.6306, 540.5637
537.1127, 578.8549
537.5948, 621.5466
538.0769, 666.8705
538.5590, 714.2804
539.0411, 764.8252
539.5233, 821.1916
540.0054, 884.2012
540.4875, 946.7352
540.9696, 1001.378
541.4517, 1064.475
541.9338, 1146.368
542.4160, 1238.972
542.8981, 1331.658
543.3802, 1422.902
543.8623, 1506.952
544.3444, 1586.455
544.8265, 1654.561
545.3087, 1695.418
545.7908, 1706.701
546.2729, 1684.050
546.7550, 1619.422
547.2371, 1515.167
547.7192, 1408.607
548.2014, 1297.939
548.6835, 1186.438
549.1656, 1068.856
549.6477, 954.6249
550.1298, 851.8246
550.6119, 762.4069
551.0941, 685.3953
551.5762, 621.7148
552.0583, 569.8136
552.5404, 523.8832
553.0225, 484.0741
553.5046, 450.0295
553.9868, 422.1251
554.4689, 400.4585
554.9510, 385.1982
555.4331, 377.5938
555.9152, 369.3522
556.3973, 356.4811
556.8795, 342.9599
557.3616, 331.7540
557.8437, 323.2161
558.3258, 317.7377
558.8079, 315.7065
559.2900, 315.6291
559.7722, 313.9441
560.2543, 310.0149
560.7364, 306.1083
561.2185, 301.5686
561.7006, 297.7782
562.1827, 295.7689
562.6649, 295.0208
563.1470, 294.3751
563.6291, 293.6991
564.1112, 292.3466
564.5933, 289.0297
565.0754, 284.3754
565.5576, 280.4266
566.0397, 277.5349
566.5218, 276.5579
567.0039, 279.4015
567.4860, 286.3010
567.9681, 287.0874
568.4503, 272.7634
568.9324, 264.1648
569.4145, 272.1821
569.8966, 285.2439
570.3787, 289.8970
570.8608, 284.1982
571.3430, 277.2205
571.8251, 277.7881
572.3072, 284.1915
572.7893, 289.1320
573.2714, 292.4788
573.7535, 295.0025
574.2357, 297.5413
574.7178, 298.9657
575.1999, 296.6692
575.6820, 289.4412
576.1641, 284.8251
576.6462, 287.2161
577.1284, 290.6607
577.6105, 290.5314
578.0926, 287.3943
578.5747, 283.6170
579.0568, 280.3217
579.5389, 277.5157
580.0211, 275.1998
580.5032, 273.3736
580.9853, 272.0507
581.4674, 271.3884
581.9495, 271.0554
582.4316, 270.8250
582.9138, 270.7631
583.3959, 270.8595
583.8780, 270.5142
584.3601, 271.5379
584.8422, 276.2034
585.3243, 282.7476
585.8065, 288.1497
586.2886, 291.8998
586.7707, 294.7799
587.2528, 297.4880
587.7349, 299.8634
588.2170, 300.6654
588.6992, 299.6841
589.1813, 297.3524
589.6634, 293.7495
590.1455, 288.9472
590.6276, 281.9780
591.1097, 273.5390
591.5919, 266.6544
592.0740, 264.6154
592.5561, 263.8617
593.0382, 258.4813
593.5203, 249.3340
594.0024, 241.6926
594.4846, 237.1627
594.9667, 234.8846
595.4488, 233.9935
595.9309, 234.7336
596.4130, 235.2065
596.8951, 235.7296
597.3773, 235.6556
597.8594, 233.9731
598.3415, 231.9699
598.8236, 231.4818
599.3057, 232.8438
599.7878, 234.2664
600.2700, 233.4148
600.7521, 231.2112
601.2342, 231.0862
601.7163, 233.2206
602.1984, 236.5071
602.6805, 241.0057
603.1627, 245.8238
