##NAMES=Grossular
##RRUFFID=R100146
##IDEAL CHEMISTRY=Ca_3_Al_2_(SiO_4_)_3_
##LOCALITY=Sri Lanka
##OWNER=RRUFF
##SOURCE=William W. Pinch
##DESCRIPTION=Red cut gemstone
##STATUS=The identification of this mineral has been confirmed only by single crystal X-ray diffraction.
##URL=rruff.info/R100146
90.60547, 105.6610
91.08759, 110.6960
91.56970, 114.2543
92.05182, 113.3015
92.53394, 109.7969
93.01605, 105.8612
93.49817, 102.3969
93.98029, 99.51931
94.46240, 97.26138
94.94452, 96.36815
95.42664, 95.28368
95.90874, 92.95953
96.39086, 89.50564
96.87298, 85.97431
97.35509, 83.53063
97.83721, 82.42004
98.31933, 81.16576
98.80145, 79.62280
99.28356, 77.94280
99.76568, 76.11628
100.2478, 74.15346
100.7299, 72.23567
101.2120, 70.84267
101.6941, 70.53576
102.1763, 70.13769
102.6584, 69.58482
103.1405, 68.90234
103.6226, 68.16371
104.1047, 67.42374
104.5868, 66.63238
105.0690, 65.47835
105.5511, 63.31251
106.0332, 61.45398
106.5153, 60.69448
106.9974, 60.93575
107.4795, 61.29729
107.9617, 61.20565
108.4438, 60.70721
108.9259, 60.04470
109.4080, 58.98238
109.8901, 57.85822
110.3722, 57.19875
110.8544, 57.16664
111.3365, 57.23381
111.8186, 57.12763
112.3007, 56.86444
112.7828, 56.44733
113.2649, 55.71687
113.7471, 54.71879
114.2292, 54.11868
114.7113, 54.24557
115.1934, 54.50008
115.6755, 54.75478
116.1576, 54.95137
116.6397, 55.00243
117.1219, 54.77602
117.6040, 54.13173
118.0861, 53.63494
118.5682, 53.26496
119.0503, 53.02056
119.5324, 52.88605
120.0146, 52.86456
120.4967, 52.99797
120.9788, 53.37786
121.4609, 54.57458
121.9430, 55.10804
122.4251, 54.35038
122.9073, 53.13345
123.3894, 52.51131
123.8715, 52.94721
124.3536, 53.95996
124.8357, 54.27589
125.3178, 53.66349
125.8000, 53.06732
126.2821, 52.83901
126.7642, 52.91738
127.2463, 53.08203
127.7284, 53.24836
128.2105, 53.44540
128.6927, 53.74201
129.1748, 54.24168
129.6569, 54.67330
130.1390, 54.72926
130.6211, 54.35264
131.1032, 53.94155
131.5854, 53.76234
132.0675, 53.60707
132.5496, 53.19350
133.0317, 52.27369
133.5138, 51.23211
133.9959, 51.07937
134.4781, 52.57874
134.9602, 53.76664
135.4423, 53.96267
135.9244, 53.59105
136.4065, 53.21574
136.8886, 53.19588
137.3708, 53.49413
137.8529, 53.59201
138.3350, 53.30843
138.8171, 52.99095
139.2992, 52.63664
139.7813, 52.30397
140.2635, 52.09072
140.7456, 52.08693
141.2277, 52.31612
141.7098, 52.58577
142.1919, 53.14594
142.6740, 53.53943
143.1561, 53.41793
143.6383, 52.80047
144.1204, 52.05724
144.6025, 51.51377
145.0846, 51.19311
145.5667, 51.18370
146.0488, 51.60398
146.5310, 52.28801
147.0131, 53.18320
147.4952, 54.34888
147.9773, 55.38111
148.4594, 55.73481
148.9415, 55.52663
149.4237, 55.12196
149.9058, 54.41886
150.3879, 53.59807
150.8700, 53.22258
151.3521, 53.60872
151.8342, 54.16423
152.3164, 54.35687
152.7985, 54.22688
153.2806, 54.08765
153.7627, 54.20270
154.2448, 54.57830
154.7269, 54.88433
155.2091, 54.97731
155.6912, 55.06275
156.1733, 55.16163
156.6554, 55.30878
157.1375, 55.63931
157.6196, 56.44885
158.1018, 58.09674
158.5839, 59.14317
159.0660, 59.09898
159.5481, 58.79748
160.0302, 58.73774
160.5123, 59.04628
160.9945, 59.52303
161.4766, 59.80462
161.9587, 59.63899
162.4408, 59.65831
162.9229, 59.98290
163.4050, 60.42272
163.8871, 60.80971
164.3693, 61.08174
164.8514, 61.27681
165.3335, 61.47929
165.8156, 61.50885
166.2977, 61.79730
166.7798, 62.62487
167.2620, 63.70127
167.7441, 64.50864
168.2262, 64.75246
168.7083, 64.75777
169.1904, 65.44273
169.6725, 66.84293
170.1547, 68.62151
170.6368, 70.58379
171.1189, 72.79787
171.6010, 75.43900
172.0831, 78.40220
172.5652, 82.10072
173.0474, 86.97281
173.5295, 92.94649
174.0116, 100.1680
174.4937, 108.6506
174.9758, 118.4060
175.4579, 129.6398
175.9401, 143.5517
176.4222, 158.5708
176.9043, 173.5063
177.3864, 188.9621
177.8685, 202.4851
178.3506, 211.4454
178.8328, 215.9697
179.3149, 215.1193
179.7970, 205.9325
180.2791, 192.7423
180.7612, 178.5674
181.2433, 164.2139
181.7255, 150.1713
182.2076, 137.4104
182.6897, 126.0935
183.1718, 115.9776
183.6539, 106.6344
184.1360, 98.31884
184.6181, 91.45781
185.1003, 86.28063
185.5824, 82.48161
186.0645, 79.02593
186.5466, 75.80001
187.0287, 73.12952
187.5108, 71.27284
187.9930, 69.93459
188.4751, 68.77280
188.9572, 67.60543
189.4393, 66.45385
189.9214, 65.45647
190.4035, 64.80803
190.8857, 64.10075
191.3678, 63.15665
191.8499, 62.11404
192.3320, 61.25389
192.8141, 60.78265
193.2962, 60.60894
193.7784, 59.98850
194.2605, 58.34276
194.7426, 56.96973
195.2247, 56.54167
195.7068, 56.78698
196.1889, 56.88043
196.6711, 56.26255
197.1532, 55.10700
197.6353, 54.35728
198.1174, 54.17360
198.5995, 54.19385
199.0816, 54.42000
199.5638, 54.78157
200.0459, 54.75678
200.5280, 53.72681
201.0101, 52.18452
201.4922, 51.56150
201.9743, 52.48321
202.4565, 53.75274
202.9386, 54.43747
203.4207, 54.53247
203.9028, 54.30816
204.3849, 53.64487
204.8670, 52.83115
205.3492, 52.30696
205.8313, 52.26921
206.3134, 52.39534
206.7955, 52.17852
207.2776, 51.47209
207.7597, 51.11106
208.2419, 51.93282
208.7240, 53.12844
209.2061, 53.90305
209.6882, 53.93504
210.1703, 53.58098
210.6524, 53.44498
211.1346, 53.60138
211.6167, 53.79210
212.0988, 53.98639
212.5809, 54.14953
213.0630, 54.19615
213.5451, 54.06201
214.0273, 53.91529
214.5094, 54.17822
214.9915, 55.14883
215.4736, 56.00323
215.9557, 56.75434
216.4378, 57.26262
216.9200, 57.29557
217.4021, 56.73233
217.8842, 55.84760
218.3663, 55.41671
218.8484, 55.70551
219.3305, 56.11970
219.8127, 56.64600
220.2948, 57.22556
220.7769, 57.77362
221.2590, 58.25133
221.7411, 58.73421
222.2232, 59.45439
222.7054, 60.94798
223.1875, 62.02336
223.6696, 62.34227
224.1517, 62.30700
224.6338, 62.31703
225.1159, 62.54813
225.5980, 63.01230
226.0802, 63.75629
226.5623, 64.81174
227.0444, 66.12737
227.5265, 67.91052
228.0086, 69.89528
228.4907, 71.67184
228.9729, 73.05398
229.4550, 74.26365
229.9371, 75.87743
230.4192, 78.18849
230.9013, 80.41734
231.3834, 82.21970
231.8656, 83.91376
232.3477, 85.93510
232.8298, 88.43723
233.3119, 91.38323
233.7940, 94.85788
234.2761, 99.10454
234.7583, 103.1445
235.2404, 106.6522
235.7225, 109.8008
236.2046, 112.9361
236.6867, 116.2151
237.1688, 119.4495
237.6510, 122.4104
238.1331, 125.1833
238.6152, 127.4732
239.0973, 129.1161
239.5794, 130.2101
240.0615, 130.7552
240.5437, 130.4402
241.0258, 130.2476
241.5079, 131.3953
241.9900, 133.7681
242.4721, 137.0654
242.9542, 141.3394
243.4364, 146.4437
243.9185, 152.2468
244.4006, 159.2418
244.8827, 165.9323
245.3648, 171.7389
245.8469, 176.5700
246.3290, 178.2564
246.8112, 175.2894
247.2933, 168.3405
247.7754, 158.9353
248.2575, 146.1207
248.7396, 132.7218
249.2217, 120.4369
249.7039, 109.2680
250.1860, 99.51575
250.6681, 91.41090
251.1502, 84.88258
251.6323, 79.63741
252.1144, 76.07609
252.5966, 73.27927
253.0787, 70.53624
253.5608, 68.01771
254.0429, 66.11154
254.5250, 65.27950
255.0071, 65.25343
255.4893, 64.96626
255.9714, 64.21746
256.4535, 63.52927
256.9356, 63.10760
257.4177, 62.89403
257.8998, 62.78499
258.3820, 62.69984
258.8641, 62.69143
259.3462, 63.00512
259.8283, 63.98249
260.3104, 64.70731
260.7925, 64.69052
261.2747, 64.34377
261.7568, 64.23028
262.2389, 64.66800
262.7210, 65.43978
263.2031, 65.86515
263.6852, 65.53075
264.1674, 65.57738
264.6495, 66.41761
265.1316, 67.64749
265.6137, 68.80533
266.0958, 69.67969
266.5779, 70.48260
267.0601, 71.72341
267.5422, 73.55845
268.0243, 75.59109
268.5064, 77.77110
268.9885, 80.07655
269.4706, 82.42103
269.9528, 84.78436
270.4349, 87.31764
270.9170, 90.30390
271.3991, 93.73389
271.8812, 97.67041
272.3633, 102.0788
272.8455, 106.9027
273.3276, 112.1438
273.8097, 117.7877
274.2918, 123.6933
274.7739, 129.7459
275.2560, 136.4051
275.7382, 142.1724
276.2202, 147.9871
276.7024, 152.4639
277.1845, 154.8081
277.6666, 154.8881
278.1487, 153.0092
278.6308, 149.4724
279.1129, 144.1027
279.5951, 137.5467
280.0772, 128.7731
280.5593, 119.9057
281.0414, 111.7822
281.5235, 104.5745
282.0056, 98.22124
282.4878, 92.71071
282.9699, 88.07463
283.4520, 83.90872
283.9341, 79.91348
284.4162, 76.56303
284.8983, 74.30417
285.3805, 72.89572
285.8626, 71.71604
286.3447, 70.27943
286.8268, 68.60040
287.3089, 67.23750
287.7910, 66.50954
288.2732, 65.73170
288.7553, 64.67243
289.2374, 63.42701
289.7195, 62.18149
290.2016, 61.03452
290.6837, 60.00531
291.1659, 59.18911
291.6480, 58.87911
292.1301, 58.44280
292.6122, 57.59702
293.0943, 56.60802
293.5764, 55.87353
294.0586, 55.57775
294.5407, 55.57177
295.0228, 55.45152
295.5049, 55.25159
295.9870, 54.87877
296.4691, 54.13734
296.9513, 53.30400
297.4334, 52.65369
297.9155, 52.28045
298.3976, 52.12452
298.8797, 52.08683
299.3618, 52.14150
299.8440, 52.41018
300.3261, 53.02915
300.8082, 53.76874
301.2903, 54.48616
301.7724, 55.13778
302.2545, 55.71246
302.7367, 56.19317
303.2188, 56.54918
303.7009, 56.91000
304.1830, 57.14673
304.6651, 57.48997
305.1472, 58.17247
305.6294, 59.14353
306.1115, 60.08928
306.5936, 60.70319
307.0757, 60.95437
307.5578, 61.59678
308.0399, 62.83768
308.5221, 64.18613
309.0042, 65.38068
309.4863, 66.50105
309.9684, 67.82221
310.4505, 69.56564
310.9326, 71.62062
311.4148, 73.13631
311.8969, 73.51156
312.3790, 74.13615
312.8611, 75.64874
313.3432, 77.57033
313.8253, 79.12886
314.3075, 79.96122
314.7896, 80.27763
315.2717, 80.61171
315.7538, 81.24308
316.2359, 81.48335
316.7180, 81.14417
317.2001, 80.44565
317.6823, 79.58633
318.1644, 78.62626
318.6465, 77.58395
319.1286, 76.44572
319.6107, 74.99984
320.0928, 74.05554
320.5750, 73.74911
321.0571, 73.82587
321.5392, 74.15574
322.0213, 74.69226
322.5034, 75.37957
322.9855, 76.16824
323.4677, 77.07972
323.9498, 77.99240
324.4319, 78.60986
324.9140, 79.49672
325.3961, 81.04912
325.8782, 83.13818
326.3604, 85.39880
326.8425, 87.62702
327.3246, 89.78819
327.8067, 91.50789
328.2888, 92.87711
328.7709, 93.78444
329.2531, 94.11496
329.7352, 93.97332
330.2173, 93.46244
330.6994, 92.61636
331.1815, 91.55650
331.6636, 90.60181
332.1458, 89.75230
332.6279, 89.02373
333.1100, 88.60862
333.5921, 88.22430
334.0742, 87.38230
334.5563, 86.01347
335.0385, 84.77543
335.5206, 84.69506
336.0027, 86.44250
336.4848, 87.67082
336.9669, 87.98083
337.4490, 88.15472
337.9312, 88.72622
338.4133, 89.69884
338.8954, 90.71695
339.3775, 91.43242
339.8596, 91.80461
340.3417, 92.40581
340.8239, 92.90793
341.3060, 93.92783
341.7881, 96.08715
342.2702, 98.92293
342.7523, 101.4439
343.2344, 102.9893
343.7166, 103.8378
344.1987, 105.3340
344.6808, 107.6609
345.1629, 110.5272
345.6450, 114.3110
346.1271, 118.4465
346.6093, 122.3207
347.0914, 125.6851
347.5735, 128.7748
348.0556, 131.9929
348.5377, 135.6894
349.0198, 138.8735
349.5020, 140.9172
349.9841, 142.9869
350.4662, 145.6898
350.9483, 149.1760
351.4304, 153.4461
351.9125, 158.5754
352.3947, 164.6969
352.8768, 170.7362
353.3589, 176.0385
353.8410, 181.8891
354.3231, 188.7085
354.8052, 196.4273
355.2874, 204.8808
355.7695, 213.9639
356.2516, 223.6211
356.7337, 233.7293
357.2158, 243.9355
357.6979, 255.1987
358.1800, 267.3575
358.6621, 280.7203
359.1443, 295.4244
359.6264, 311.6014
360.1085, 329.3916
360.5906, 349.1768
361.0727, 370.9806
361.5548, 394.9183
362.0370, 420.1559
362.5191, 447.9031
363.0012, 478.8181
363.4833, 513.2337
363.9654, 550.7493
364.4475, 591.6020
364.9297, 635.9590
365.4118, 680.9487
365.8939, 727.7581
366.3760, 773.8453
366.8581, 818.7180
367.3402, 861.9539
367.8224, 903.0635
368.3045, 941.8603
368.7866, 977.9200
369.2687, 1009.452
369.7508, 1034.350
370.2329, 1059.154
370.7151, 1087.622
371.1972, 1116.431
371.6793, 1143.676
372.1614, 1168.986
372.6435, 1189.576
373.1256, 1204.303
373.6078, 1213.859
374.0899, 1207.924
374.5720, 1181.780
375.0541, 1139.773
375.5362, 1083.319
376.0183, 1013.359
376.5005, 937.7824
376.9826, 857.3360
377.4647, 774.5773
377.9468, 698.0118
378.4289, 627.7991
378.9110, 564.8199
379.3932, 510.5210
379.8753, 463.3695
380.3574, 421.5944
380.8395, 385.3095
381.3216, 353.4966
381.8037, 325.5140
382.2859, 301.3236
382.7680, 279.8749
383.2501, 261.1638
383.7322, 244.9460
384.2143, 230.1482
384.6964, 216.8038
385.1786, 204.9888
385.6607, 195.4613
386.1428, 187.6290
386.6249, 179.7695
387.1070, 171.3856
387.5891, 163.2819
388.0713, 156.4315
388.5534, 150.7221
389.0355, 145.6124
389.5176, 141.1598
389.9997, 137.1555
390.4818, 133.3883
390.9640, 129.8378
391.4461, 126.6707
391.9282, 124.0774
392.4103, 121.9675
392.8924, 119.7586
393.3745, 116.9742
393.8567, 114.6103
394.3388, 113.4110
394.8209, 112.8707
395.3030, 111.9287
395.7851, 110.1279
396.2672, 108.0800
396.7494, 106.8512
397.2315, 106.7040
397.7136, 106.8341
398.1957, 107.4940
398.6778, 108.2286
399.1599, 108.6415
399.6420, 108.7132
400.1241, 108.6875
400.6063, 108.7804
401.0884, 108.9981
401.5705, 109.1427
402.0526, 109.0723
402.5347, 109.0967
403.0168, 109.0432
403.4990, 109.2028
403.9811, 110.1143
404.4632, 112.0409
404.9453, 114.5993
405.4274, 116.8564
405.9095, 118.5480
406.3917, 120.3550
406.8738, 121.8377
407.3559, 123.7463
407.8380, 126.5975
408.3201, 130.4585
408.8022, 135.0903
409.2844, 140.2731
409.7665, 145.9626
410.2486, 152.6422
410.7307, 160.3324
411.2128, 169.1104
411.6949, 179.5444
412.1771, 190.9500
412.6592, 202.5030
413.1413, 213.9481
413.6234, 224.8057
414.1055, 234.5167
414.5876, 244.0412
415.0698, 249.5312
415.5519, 249.2838
416.0340, 245.1293
416.5161, 237.4626
416.9982, 226.4632
417.4803, 213.5508
417.9625, 198.8253
418.4446, 182.7773
418.9267, 168.3739
419.4088, 156.0995
419.8909, 145.1670
420.3730, 135.2098
420.8552, 126.1612
421.3373, 118.0865
421.8194, 110.9396
422.3015, 104.8420
422.7836, 100.3337
423.2657, 97.40328
423.7479, 94.35282
424.2300, 90.23689
424.7121, 85.91964
425.1942, 82.77434
425.6763, 81.01456
426.1584, 79.30840
426.6406, 76.96191
427.1227, 74.33078
427.6048, 72.04395
428.0869, 70.20045
428.5690, 68.56009
429.0511, 66.96738
429.5333, 65.41068
430.0154, 63.73598
430.4975, 61.58197
430.9796, 59.64641
431.4617, 58.38611
431.9438, 57.66749
432.4260, 57.17332
432.9081, 56.79272
433.3902, 56.41616
433.8723, 55.77307
434.3544, 54.59179
434.8365, 53.59197
435.3187, 52.85238
435.8008, 52.26481
436.2829, 51.80956
436.7650, 51.44501
437.2471, 51.02710
437.7292, 50.38285
438.2114, 49.49474
438.6935, 48.99160
439.1756, 49.44840
439.6577, 49.65270
440.1398, 49.10233
440.6219, 48.20929
441.1040, 47.56234
441.5862, 47.41070
442.0683, 47.49475
442.5504, 47.33324
443.0325, 46.82495
443.5146, 46.38105
443.9967, 46.01726
444.4789, 45.74422
444.9610, 45.60108
445.4431, 45.56642
445.9252, 45.57247
446.4073, 45.62086
446.8894, 45.66524
447.3716, 45.46162
447.8537, 44.83098
448.3358, 44.40183
448.8179, 44.65684
449.3000, 45.16850
449.7821, 45.42229
450.2643, 45.23281
450.7464, 45.16492
451.2285, 45.93035
451.7106, 47.31859
452.1927, 48.20586
452.6748, 48.24104
453.1570, 47.98861
453.6391, 47.98738
454.1212, 48.18402
454.6033, 48.35639
455.0854, 48.40606
455.5675, 48.44453
456.0497, 48.63019
456.5318, 48.92524
457.0139, 49.08146
457.4960, 48.93505
457.9781, 48.61493
458.4602, 48.48970
458.9424, 48.70870
459.4245, 48.77984
459.9066, 48.49332
460.3887, 48.08754
460.8708, 47.78424
461.3529, 47.62453
461.8351, 47.56501
462.3172, 47.57769
462.7993, 47.66627
463.2814, 47.70712
463.7635, 47.56334
464.2456, 47.53121
464.7278, 47.79790
465.2099, 48.18407
465.6920, 48.43131
466.1741, 48.44269
466.6562, 48.33901
467.1383, 48.31774
467.6205, 48.39582
468.1026, 48.50429
468.5847, 48.50276
469.0668, 48.65939
469.5489, 49.34039
470.0310, 50.30539
470.5132, 50.85958
470.9953, 50.33923
471.4774, 49.35222
471.9595, 49.56925
472.4416, 51.29054
472.9237, 53.09617
473.4059, 54.50795
473.8880, 55.76392
474.3701, 57.18330
474.8522, 58.81149
475.3343, 60.07745
475.8164, 60.43024
476.2986, 60.15475
476.7807, 59.91315
477.2628, 59.76247
477.7449, 59.75337
478.2270, 60.15765
478.7091, 60.74469
479.1913, 60.61489
479.6734, 59.49356
480.1555, 57.90409
480.6376, 55.67680
481.1197, 53.22063
481.6018, 51.45377
482.0839, 50.69632
482.5660, 50.43212
483.0482, 49.93003
483.5303, 49.03518
484.0124, 48.51190
484.4945, 48.70965
484.9766, 48.92765
485.4587, 48.75422
485.9409, 48.29193
486.4230, 47.84510
486.9051, 47.58055
487.3872, 47.45913
487.8693, 47.37372
488.3514, 47.33715
488.8336, 47.31357
489.3157, 47.26620
489.7978, 47.25526
490.2799, 47.25056
490.7620, 47.29970
491.2441, 47.57137
491.7263, 48.28887
492.2084, 49.33540
492.6905, 50.12603
493.1726, 50.56033
493.6547, 50.97668
494.1368, 51.57771
494.6190, 52.19580
495.1011, 52.65612
495.5832, 52.92121
496.0653, 53.08369
496.5474, 53.03366
497.0295, 52.92725
497.5117, 53.33815
497.9938, 54.46332
498.4759, 55.62463
498.9580, 56.15512
499.4401, 56.21885
499.9222, 56.70425
500.4044, 58.04474
500.8865, 59.42584
501.3686, 60.25020
501.8507, 60.83867
502.3328, 61.85499
502.8149, 63.52226
503.2971, 65.67271
503.7792, 68.09286
504.2613, 70.88637
504.7434, 73.67248
505.2255, 76.49156
505.7076, 79.26357
506.1898, 82.17310
506.6719, 84.98701
507.1540, 87.33440
507.6361, 89.04298
508.1182, 89.98298
508.6003, 89.80569
509.0825, 88.32127
509.5646, 86.21769
510.0467, 83.19851
510.5288, 79.89146
511.0109, 76.39556
511.4930, 72.85816
511.9752, 69.62296
512.4573, 66.87861
512.9394, 64.59361
513.4215, 62.74577
513.9036, 61.37374
514.3857, 60.14048
514.8679, 58.81240
515.3500, 57.65056
515.8321, 57.01237
516.3142, 56.95331
516.7963, 56.96960
517.2784, 56.61205
517.7606, 56.31000
518.2427, 56.85440
518.7248, 58.26167
519.2069, 59.55391
519.6890, 60.00083
520.1711, 59.83680
520.6533, 60.22439
521.1354, 61.07021
521.6175, 62.48584
522.0996, 65.03824
522.5817, 67.85109
523.0638, 69.99313
523.5460, 71.34023
524.0281, 72.43948
524.5102, 73.85401
524.9923, 75.55485
525.4744, 76.61755
525.9565, 76.94737
526.4387, 76.67551
526.9208, 75.67979
527.4029, 74.21229
527.8850, 72.44579
528.3671, 70.44495
528.8492, 68.39706
529.3314, 66.23013
529.8135, 64.04789
530.2956, 62.97900
530.7777, 63.50530
531.2598, 64.28656
531.7419, 64.33080
532.2241, 64.11147
532.7062, 64.43625
533.1883, 65.59805
533.6704, 67.02444
534.1525, 68.38703
534.6346, 69.71824
535.1168, 71.04710
535.5989, 72.35925
536.0810, 73.87853
536.5631, 75.77512
537.0452, 78.07525
537.5273, 80.94217
538.0095, 83.97092
538.4916, 87.96363
538.9737, 93.62698
539.4558, 100.3214
539.9379, 106.8293
540.4200, 112.8276
540.9022, 119.5426
541.3843, 128.5657
541.8664, 139.9732
542.3485, 153.2921
542.8306, 168.9302
543.3127, 186.1288
543.7948, 204.7663
544.2769, 224.7436
544.7590, 246.3240
545.2411, 269.9072
545.7233, 293.2756
546.2054, 314.7516
546.6875, 334.1383
547.1696, 347.5614
547.6517, 354.9999
548.1339, 355.3168
548.6160, 345.6483
549.0981, 327.9507
549.5802, 306.0034
550.0623, 277.5260
550.5444, 248.2549
551.0266, 220.5385
551.5087, 194.8372
551.9908, 172.1215
552.4729, 152.6964
552.9550, 136.1145
553.4371, 121.9661
553.9193, 110.3897
554.4014, 100.3956
554.8835, 91.94009
555.3656, 84.85799
555.8477, 79.45216
556.3298, 75.21022
556.8120, 71.56299
557.2941, 68.26431
557.7762, 65.34872
558.2583, 62.88873
558.7404, 60.93749
559.2225, 59.09414
559.7047, 57.29366
560.1868, 55.71154
560.6689, 54.38934
561.1510, 53.31787
561.6331, 52.48647
562.1152, 51.92991
562.5974, 51.51657
563.0795, 51.20093
563.5616, 50.93791
564.0437, 50.53884
564.5258, 49.93890
565.0079, 49.31036
565.4901, 48.74974
565.9722, 48.28459
566.4543, 48.11458
566.9364, 48.35845
567.4185, 48.75744
567.9006, 49.46950
568.3828, 50.17944
568.8649, 50.40316
569.3470, 50.03830
569.8291, 49.39846
570.3112, 48.78256
570.7933, 48.16430
571.2755, 48.01883
571.7576, 48.70133
572.2397, 49.43345
572.7218, 50.24863
573.2039, 50.90663
573.6860, 51.03978
574.1682, 50.57394
574.6503, 50.05542
575.1324, 50.09980
575.6145, 50.55014
576.0966, 50.70436
576.5787, 50.49171
577.0609, 50.08366
577.5430, 49.47248
578.0251, 48.77072
578.5072, 48.23098
578.9893, 47.83686
579.4714, 47.65330
579.9536, 47.79174
580.4357, 48.10942
580.9178, 48.51992
581.3999, 48.96679
581.8820, 49.23689
582.3641, 49.13145
582.8463, 48.74146
583.3284, 48.58655
583.8105, 48.55344
584.2926, 48.95766
584.7747, 50.12673
585.2568, 51.48768
585.7390, 52.56569
586.2211, 53.38291
586.7032, 54.32056
587.1853, 55.74104
587.6674, 57.41134
588.1495, 58.62546
588.6317, 59.30188
589.1138, 60.07281
589.5959, 61.41763
