##NAMES=Grossular
##RRUFFID=R060278
##IDEAL CHEMISTRY=Ca_3_Al_2_(SiO_4_)_3_
##LOCALITY=Diakon, Kayes Region, Mali
##OWNER=RRUFF
##SOURCE=Herb Obodda
##DESCRIPTION=Dark brown dodecahedral single crystal
##STATUS=The identification of this mineral has been confirmed by X-ray diffraction and chemical analysis
##URL=rruff.info/R060278
##MEASURED CHEMISTRY=(Ca_2.93_Mg_0.05_Mn_0.02_)_Σ=3_(Al_1.19_Fe^3+^_0.78_Ti_0.03_)_Σ=2_((Si_0.99_Al_0.01_)_Σ=1_O_4_)_3_
92.37695, 128.2507
92.85907, 127.8544
93.34119, 128.1234
93.82330, 128.0362
94.30542, 127.1131
94.78754, 125.2861
95.26965, 122.8887
95.75177, 120.5241
96.23389, 118.3151
96.71600, 116.3920
97.19812, 115.0187
97.68024, 114.3333
98.16235, 113.8738
98.64447, 113.0216
99.12659, 111.6652
99.60870, 109.9955
100.0908, 108.5241
100.5729, 107.0614
101.0551, 105.2974
101.5372, 102.9984
102.0193, 100.3375
102.5014, 98.34510
102.9835, 97.15292
103.4656, 96.51879
103.9478, 96.80309
104.4299, 97.61829
104.9120, 98.31356
105.3941, 98.37930
105.8762, 97.75990
106.3583, 96.90443
106.8405, 95.55579
107.3226, 94.19646
107.8047, 93.18720
108.2868, 92.53562
108.7689, 91.85295
109.2510, 90.59970
109.7332, 88.71008
110.2153, 87.21873
110.6974, 86.72946
111.1795, 86.60046
111.6616, 85.68460
112.1437, 83.40325
112.6259, 81.05586
113.1080, 80.11474
113.5901, 80.46498
114.0722, 81.06755
114.5543, 81.38132
115.0364, 81.41433
115.5185, 81.29710
116.0007, 80.88424
116.4828, 80.44714
116.9649, 80.06751
117.4470, 79.77171
117.9291, 79.68946
118.4112, 80.03606
118.8934, 80.97934
119.3755, 81.96713
119.8576, 83.09075
120.3397, 84.14375
120.8218, 84.99453
121.3039, 85.58708
121.7861, 85.91138
122.2682, 85.93918
122.7503, 85.41628
123.2324, 84.82471
123.7145, 84.03914
124.1966, 83.22710
124.6788, 82.65977
125.1609, 82.51721
125.6430, 82.72842
126.1251, 82.66824
126.6072, 82.15561
127.0893, 81.62360
127.5715, 81.29538
128.0536, 81.13046
128.5357, 80.87234
129.0178, 80.19138
129.4999, 79.24654
129.9821, 78.88042
130.4642, 79.61623
130.9463, 80.68359
131.4284, 81.27937
131.9105, 81.31251
132.3926, 81.17177
132.8748, 81.17812
133.3569, 81.23138
133.8390, 81.12310
134.3211, 80.63560
134.8032, 79.89896
135.2853, 79.34586
135.7674, 78.98544
136.2496, 78.83826
136.7317, 78.95127
137.2138, 79.26350
137.6959, 79.63054
138.1780, 79.99174
138.6601, 80.36689
139.1423, 80.52628
139.6244, 80.18060
140.1065, 79.85228
140.5886, 79.72794
141.0707, 79.81958
141.5528, 80.04142
142.0350, 80.31505
142.5171, 80.72121
142.9992, 80.95174
143.4813, 81.00231
143.9634, 80.92001
144.4455, 80.65482
144.9277, 80.22093
145.4098, 79.78416
145.8919, 79.62835
146.3740, 79.99184
146.8561, 80.20737
147.3382, 80.11799
147.8204, 79.90921
148.3025, 79.77253
148.7846, 79.75772
149.2667, 79.90689
149.7488, 80.44937
150.2309, 81.61161
150.7131, 82.40372
151.1952, 82.13216
151.6773, 81.12971
152.1594, 80.46548
152.6415, 80.61435
153.1236, 81.25856
153.6058, 81.85534
154.0879, 82.43286
154.5700, 82.87003
155.0521, 82.92161
155.5342, 82.55798
156.0163, 82.45815
156.4985, 83.22855
156.9806, 84.20541
157.4627, 84.82301
157.9448, 84.90554
158.4269, 84.78911
158.9090, 84.97884
159.3912, 85.57861
159.8733, 86.23782
160.3554, 86.92529
160.8375, 87.59668
161.3196, 88.18165
161.8017, 88.63623
162.2839, 89.05196
162.7660, 89.71463
163.2481, 90.94848
163.7302, 92.00178
164.2123, 92.53210
164.6944, 92.89390
165.1766, 93.55589
165.6587, 94.80746
166.1408, 96.52719
166.6229, 97.94321
167.1050, 98.61099
167.5871, 99.46119
168.0693, 100.5586
168.5514, 101.9822
169.0335, 103.9171
169.5156, 106.5456
169.9977, 109.8202
170.4798, 112.6333
170.9620, 114.3811
171.4441, 116.3348
171.9262, 118.8632
172.4083, 122.0258
172.8904, 126.0527
173.3725, 131.3859
173.8547, 137.8419
174.3368, 143.5556
174.8189, 148.7572
175.3010, 153.1100
175.7831, 156.8080
176.2652, 159.9141
176.7474, 160.8472
177.2295, 157.2865
177.7116, 150.5427
178.1937, 143.8133
178.6758, 137.4159
179.1579, 131.5065
179.6401, 126.2883
180.1222, 121.8491
180.6043, 117.9414
181.0864, 114.4796
181.5685, 111.3978
182.0506, 108.6953
182.5328, 106.4275
183.0149, 104.5335
183.4970, 102.8269
183.9791, 101.3983
184.4612, 100.0454
184.9433, 98.61929
185.4255, 97.19883
185.9076, 95.88940
186.3897, 94.69175
186.8718, 93.64066
187.3539, 93.15678
187.8360, 93.92662
188.3182, 94.57552
188.8003, 94.75453
189.2824, 94.50700
189.7645, 93.94314
190.2466, 93.06892
190.7287, 91.84695
191.2109, 91.16393
191.6930, 91.57438
192.1751, 91.98085
192.6572, 92.02440
193.1393, 91.75516
193.6214, 91.39290
194.1036, 91.11166
194.5857, 90.89705
195.0678, 90.90071
195.5499, 91.32448
196.0320, 91.73186
196.5141, 91.92961
196.9963, 91.91516
197.4784, 91.75924
197.9605, 91.47673
198.4426, 91.02321
198.9247, 90.97276
199.4068, 91.78098
199.8890, 92.60709
200.3711, 92.82060
200.8532, 92.40160
201.3353, 91.85947
201.8174, 91.65069
202.2995, 91.80580
202.7817, 91.95134
203.2638, 91.99100
203.7459, 92.06459
204.2280, 92.41376
204.7101, 93.08557
205.1922, 93.61513
205.6744, 93.33922
206.1565, 92.47002
206.6386, 92.05748
207.1207, 92.63245
207.6028, 93.65424
208.0849, 94.40904
208.5671, 94.82800
209.0492, 95.07105
209.5313, 95.14566
210.0134, 95.13424
210.4955, 95.22371
210.9776, 95.61300
211.4598, 96.13515
211.9419, 96.34226
212.4240, 95.99918
212.9061, 95.83695
213.3882, 96.40553
213.8703, 97.43287
214.3525, 98.43883
214.8346, 99.13136
215.3167, 99.61317
215.7988, 100.2419
216.2809, 101.0420
216.7630, 101.9756
217.2451, 103.0782
217.7273, 104.2738
218.2094, 105.4199
218.6915, 106.3712
219.1736, 107.1996
219.6557, 108.3466
220.1378, 110.0575
220.6200, 111.8083
221.1021, 113.3849
221.5842, 114.8893
222.0663, 116.5091
222.5484, 118.3683
223.0305, 120.4466
223.5127, 122.5546
223.9948, 124.8172
224.4769, 126.9540
224.9590, 128.7698
225.4411, 130.4394
225.9232, 132.2201
226.4054, 134.2811
226.8875, 136.6115
227.3696, 139.2711
227.8517, 142.3229
228.3338, 145.6384
228.8159, 149.5033
229.2981, 153.5959
229.7802, 157.2959
230.2623, 160.1766
230.7444, 162.3468
231.2265, 164.9771
231.7086, 168.4454
232.1908, 171.9162
232.6729, 175.4615
233.1550, 178.8588
233.6371, 181.6387
234.1192, 183.4283
234.6013, 184.4314
235.0835, 186.1993
235.5656, 188.6855
236.0477, 191.8092
236.5298, 195.7254
237.0119, 200.2638
237.4940, 205.0958
237.9762, 210.0195
238.4583, 215.1134
238.9404, 220.7881
239.4225, 228.6422
239.9046, 235.2217
240.3867, 240.1710
240.8689, 243.0300
241.3510, 242.5189
241.8331, 237.8027
242.3152, 229.3316
242.7973, 218.5509
243.2794, 204.1415
243.7616, 189.9772
244.2437, 177.4686
244.7258, 166.5388
245.2079, 156.9865
245.6900, 148.7895
246.1721, 141.9863
246.6543, 136.4523
247.1364, 132.3875
247.6185, 128.8648
248.1006, 125.2921
248.5827, 121.8569
249.0648, 119.2600
249.5470, 117.9830
250.0291, 117.3874
250.5112, 116.4055
250.9933, 114.9330
251.4754, 113.6933
251.9576, 113.1396
252.4397, 113.1721
252.9218, 113.3881
253.4039, 113.8736
253.8860, 114.2616
254.3681, 114.0603
254.8503, 113.2711
255.3324, 112.6159
255.8145, 112.6079
256.2966, 113.1406
256.7787, 113.6851
257.2608, 114.1769
257.7430, 114.6262
258.2251, 115.0297
258.7072, 115.3957
259.1893, 115.7766
259.6714, 116.0890
260.1535, 116.3980
260.6357, 117.1186
261.1178, 118.5393
261.5999, 120.0599
262.0820, 121.3263
262.5641, 122.3791
263.0462, 123.3486
263.5284, 124.1152
264.0105, 124.7873
264.4926, 126.0153
264.9747, 127.7499
265.4568, 130.2032
265.9389, 133.6224
266.4211, 137.7193
266.9032, 141.8832
267.3853, 145.6667
267.8674, 149.2285
268.3495, 153.4314
268.8316, 159.1172
269.3138, 164.1323
269.7959, 168.1359
270.2780, 170.9968
270.7601, 172.4981
271.2422, 172.4572
271.7243, 171.0530
272.2065, 168.7528
272.6886, 164.9947
273.1707, 161.2715
273.6528, 158.0683
274.1349, 155.0879
274.6170, 151.9593
275.0992, 148.4604
275.5813, 144.8872
276.0634, 142.0182
276.5455, 140.0924
277.0276, 138.4704
277.5097, 136.8931
277.9919, 135.5615
278.4740, 134.7682
278.9561, 134.6084
279.4382, 134.7230
279.9203, 134.4077
280.4024, 133.3983
280.8846, 132.5133
281.3667, 131.9035
281.8488, 131.3859
282.3309, 130.9576
282.8130, 130.5699
283.2951, 129.9688
283.7773, 128.6407
284.2594, 126.0037
284.7415, 124.1120
285.2236, 123.5686
285.7057, 123.2487
286.1878, 122.3921
286.6700, 120.9759
287.1521, 119.5732
287.6342, 118.8950
288.1163, 119.1966
288.5984, 119.2439
289.0805, 118.8736
289.5627, 118.4188
290.0448, 117.8746
290.5269, 117.3461
291.0090, 117.0922
291.4911, 117.4146
291.9732, 118.3867
292.4554, 118.9842
292.9375, 118.6623
293.4196, 118.5149
293.9017, 119.0645
294.3838, 120.0779
294.8659, 120.9726
295.3481, 121.2913
295.8302, 121.1098
296.3123, 121.4399
296.7944, 122.8255
297.2765, 124.1698
297.7586, 125.2997
298.2408, 126.2482
298.7229, 127.0725
299.2050, 127.7987
299.6871, 128.4380
300.1692, 129.0243
300.6513, 129.4123
301.1335, 129.9263
301.6156, 130.6082
302.0977, 131.4174
302.5798, 132.3866
303.0619, 133.5166
303.5440, 134.6397
304.0262, 135.3941
304.5083, 135.3452
304.9904, 135.5653
305.4725, 136.0325
305.9546, 136.7668
306.4367, 137.9280
306.9189, 139.4909
307.4010, 141.0989
307.8831, 142.1891
308.3652, 142.3007
308.8473, 143.1306
309.3294, 144.9015
309.8116, 147.0784
310.2937, 149.4001
310.7758, 151.8148
311.2579, 154.3633
311.7400, 157.0947
312.2221, 160.0867
312.7043, 162.8485
313.1864, 165.2921
313.6685, 167.6426
314.1506, 169.6475
314.6327, 171.6131
315.1148, 174.2182
315.5970, 177.9851
316.0791, 182.8401
316.5612, 187.7744
317.0433, 193.1976
317.5254, 198.2811
318.0075, 203.0562
318.4897, 207.3227
318.9718, 210.8500
319.4539, 213.5246
319.9360, 215.3318
320.4181, 216.2345
320.9002, 216.0854
321.3824, 215.0399
321.8645, 213.0530
322.3466, 210.2315
322.8287, 206.4791
323.3108, 201.8374
323.7929, 196.6795
324.2751, 191.6051
324.7572, 186.0545
325.2393, 181.7675
325.7214, 179.2156
326.2035, 177.3540
326.6856, 175.4932
327.1678, 173.5375
327.6499, 171.7536
328.1320, 170.3916
328.6141, 169.4097
329.0962, 169.1165
329.5783, 169.7065
330.0605, 170.6905
330.5426, 172.0469
331.0247, 173.6452
331.5068, 175.2434
331.9889, 176.6611
332.4710, 177.9089
332.9532, 179.1565
333.4353, 180.2423
333.9174, 181.5218
334.3995, 183.4411
334.8816, 185.5023
335.3637, 187.0435
335.8459, 187.7254
336.3280, 187.6617
336.8101, 187.1136
337.2922, 185.3650
337.7743, 184.2151
338.2564, 183.8019
338.7386, 183.9804
339.2206, 184.7042
339.7028, 185.9314
340.1849, 187.4991
340.6670, 189.1493
341.1491, 190.7630
341.6312, 192.7720
342.1133, 194.9003
342.5955, 197.5717
343.0776, 201.2984
343.5597, 205.9030
344.0418, 210.6158
344.5239, 214.6146
345.0060, 217.8137
345.4882, 221.8109
345.9703, 227.0908
346.4524, 232.7820
346.9345, 238.6262
347.4166, 244.7313
347.8987, 251.2702
348.3809, 258.2603
348.8630, 265.8517
349.3451, 274.5207
349.8272, 284.6624
350.3093, 295.5453
350.7914, 306.5768
351.2736, 318.3786
351.7557, 331.6974
352.2378, 346.8156
352.7199, 362.9165
353.2020, 378.4347
353.6841, 392.8333
354.1663, 408.3057
354.6484, 424.7416
355.1305, 442.5596
355.6126, 462.5795
356.0947, 484.5463
356.5768, 506.8729
357.0590, 527.9363
357.5411, 547.5429
358.0232, 567.8900
358.5053, 590.4297
358.9874, 611.9941
359.4695, 631.1918
359.9517, 648.4288
360.4338, 664.5736
360.9159, 680.2285
361.3980, 695.0751
361.8801, 707.8892
362.3622, 717.0258
362.8444, 727.6733
363.3265, 740.8830
363.8086, 756.7259
364.2907, 775.3121
364.7728, 796.6882
365.2549, 821.2176
365.7371, 849.3715
366.2192, 881.3018
366.7013, 916.6392
367.1834, 957.8207
367.6655, 1000.570
368.1476, 1042.544
368.6298, 1083.571
369.1119, 1122.348
369.5940, 1159.992
370.0761, 1195.186
370.5582, 1221.658
371.0403, 1240.092
371.5225, 1246.822
372.0046, 1239.894
372.4867, 1220.673
372.9688, 1190.418
373.4509, 1147.034
373.9330, 1094.593
374.4152, 1037.515
374.8973, 975.4942
375.3794, 913.0977
375.8615, 851.3882
376.3436, 791.7335
376.8257, 735.5237
377.3079, 682.4813
377.7900, 633.7429
378.2721, 590.5126
378.7542, 552.3568
379.2363, 517.6041
379.7184, 485.9672
380.2006, 457.1113
380.6827, 430.3432
381.1648, 405.5666
381.6469, 383.4139
382.1290, 364.7617
382.6111, 348.4777
383.0933, 333.0330
383.5754, 318.1701
384.0575, 304.6042
384.5396, 292.9997
385.0217, 283.3287
385.5038, 273.8867
385.9860, 264.1993
386.4681, 255.1732
386.9502, 247.4871
387.4323, 240.9832
387.9144, 235.0318
388.3965, 229.4349
388.8787, 224.1080
389.3608, 218.8432
389.8429, 213.4789
390.3250, 208.4162
390.8071, 203.6337
391.2892, 199.2381
391.7714, 195.4350
392.2535, 192.2622
392.7356, 189.4249
393.2177, 186.6104
393.6998, 183.7957
394.1819, 181.1457
394.6641, 178.4100
395.1462, 176.0301
395.6283, 174.4284
396.1104, 173.4346
396.5925, 172.5906
397.0746, 171.6199
397.5568, 170.5138
398.0389, 169.1695
398.5210, 166.9877
399.0031, 165.3100
399.4852, 164.9823
399.9673, 164.9140
400.4495, 163.8595
400.9316, 161.4494
401.4137, 158.2896
401.8958, 155.2818
402.3779, 152.5157
402.8600, 149.6639
403.3422, 147.0156
403.8243, 144.0247
404.3064, 140.1521
404.7885, 135.6399
405.2706, 131.1811
405.7527, 127.2881
406.2349, 123.9275
406.7170, 121.0772
407.1991, 119.3092
407.6812, 117.2564
408.1633, 114.1432
408.6454, 110.8011
409.1276, 108.1696
409.6097, 106.5997
410.0918, 105.6638
410.5739, 104.8396
411.0560, 104.1968
411.5381, 103.3075
412.0203, 101.9285
412.5024, 100.4248
412.9845, 98.89124
413.4666, 97.39262
413.9487, 96.11040
414.4308, 95.26540
414.9130, 94.75400
415.3951, 94.18387
415.8772, 93.52761
416.3593, 92.87975
416.8414, 92.31895
417.3235, 91.79007
417.8057, 91.20650
418.2878, 90.50961
418.7699, 89.82803
419.2520, 89.27272
419.7341, 88.83974
420.2162, 88.50729
420.6984, 88.32205
421.1805, 88.16875
421.6626, 87.84631
422.1447, 87.34560
422.6268, 87.01151
423.1089, 87.11622
423.5911, 87.39343
424.0732, 87.48678
424.5553, 87.35741
425.0374, 87.11156
425.5195, 86.76477
426.0016, 86.36260
426.4838, 86.17017
426.9659, 86.18237
427.4480, 86.39906
427.9301, 87.06262
428.4122, 87.91371
428.8943, 88.30077
429.3765, 87.93352
429.8586, 87.33458
430.3407, 87.44669
430.8228, 88.79070
431.3049, 89.73170
431.7870, 90.09378
432.2692, 90.17059
432.7513, 89.98666
433.2334, 89.66786
433.7155, 89.58401
434.1976, 90.07153
434.6797, 91.07786
435.1619, 91.84917
435.6440, 92.23697
436.1261, 92.55099
436.6082, 92.53901
437.0903, 92.60265
437.5724, 93.42159
438.0546, 95.17725
438.5367, 97.05738
439.0188, 97.57785
439.5009, 96.01656
439.9830, 95.43261
440.4651, 96.92239
440.9473, 98.49467
441.4294, 99.26563
441.9115, 99.34058
442.3936, 99.21870
442.8757, 99.15896
443.3578, 99.19117
443.8400, 99.53385
444.3221, 100.5152
444.8042, 100.9804
445.2863, 99.75449
445.7684, 98.22849
446.2505, 97.86438
446.7327, 99.02425
447.2148, 100.3117
447.6969, 100.4503
448.1790, 99.62190
448.6611, 98.77387
449.1432, 97.92429
449.6254, 97.32706
450.1075, 97.39053
450.5896, 97.91204
451.0717, 98.28310
451.5538, 98.18959
452.0359, 97.98653
452.5181, 97.99448
453.0002, 98.19987
453.4823, 98.53433
453.9644, 99.04677
454.4465, 99.57394
454.9286, 99.69215
455.4108, 99.27058
455.8929, 98.92918
456.3750, 98.87975
456.8571, 98.94154
457.3392, 98.94318
457.8214, 98.85154
458.3035, 98.67238
458.7856, 98.39959
459.2677, 98.03133
459.7498, 97.68069
460.2319, 97.40714
460.7141, 97.08048
461.1962, 96.50999
461.6783, 95.91225
462.1604, 95.70890
462.6425, 96.03977
463.1246, 96.46099
463.6068, 96.15199
464.0889, 94.71495
464.5710, 93.60598
465.0531, 92.78695
465.5352, 92.30733
466.0173, 92.52091
466.4995, 93.11427
466.9816, 93.29927
467.4637, 92.44299
467.9458, 90.95370
468.4279, 90.14893
468.9100, 90.21640
469.3922, 90.48174
469.8743, 91.01198
470.3564, 91.49794
470.8385, 91.60612
471.3206, 91.29539
471.8027, 90.98812
472.2849, 90.99682
472.7670, 91.27544
473.2491, 91.69980
473.7312, 92.33543
474.2133, 92.89005
474.6954, 92.96697
475.1776, 92.81313
475.6597, 93.01977
476.1418, 93.82674
476.6239, 94.83446
477.1060, 95.90319
477.5881, 96.95821
478.0703, 97.68934
478.5524, 97.89060
479.0345, 98.10264
479.5166, 99.16363
479.9987, 101.2962
480.4808, 103.2973
480.9630, 105.0333
481.4451, 106.6760
481.9272, 108.2412
482.4093, 109.7972
482.8914, 111.4422
483.3735, 113.2080
483.8557, 115.2167
484.3378, 117.9612
484.8199, 122.8668
485.3020, 126.4204
485.7841, 127.2294
486.2662, 127.5986
486.7484, 129.5479
487.2305, 133.1155
487.7126, 136.7291
488.1947, 138.8842
488.6768, 139.7027
489.1589, 141.1987
489.6411, 143.8875
490.1232, 146.4553
490.6053, 148.4341
491.0874, 150.1193
491.5695, 151.9004
492.0516, 153.9065
492.5338, 155.7286
493.0159, 157.1646
493.4980, 158.1484
493.9801, 157.9892
494.4622, 156.4581
494.9443, 154.0098
495.4265, 150.5063
495.9086, 146.3392
496.3907, 142.6656
496.8728, 140.2910
497.3549, 138.0358
497.8370, 134.6064
498.3192, 130.3979
498.8013, 127.0077
499.2834, 125.2026
499.7655, 124.0492
500.2476, 121.9372
500.7297, 118.4289
501.2119, 115.5397
501.6940, 113.6870
502.1761, 112.2483
502.6582, 110.8344
503.1403, 109.4373
503.6224, 108.1751
504.1045, 107.1261
504.5866, 106.2522
505.0688, 105.4165
505.5509, 104.6848
506.0330, 103.8802
506.5151, 102.6508
506.9972, 101.5999
507.4793, 101.2965
507.9615, 101.6811
508.4436, 102.1613
508.9257, 102.1654
509.4078, 101.8357
509.8899, 102.0957
510.3720, 103.2276
510.8542, 104.3378
511.3363, 105.0904
511.8184, 105.6583
512.3005, 106.1344
512.7827, 106.5146
513.2648, 107.0485
513.7469, 107.8182
514.2290, 108.8875
514.7111, 110.5418
515.1932, 112.9053
515.6754, 115.4460
516.1575, 117.7295
516.6396, 119.8576
517.1217, 122.2591
517.6038, 124.8277
518.0859, 127.8027
518.5681, 131.7280
519.0502, 136.0219
519.5323, 139.5033
520.0144, 141.8719
520.4965, 144.0968
520.9786, 147.3487
521.4608, 151.7489
521.9429, 156.5262
522.4250, 161.8034
522.9071, 167.3171
523.3892, 172.6741
523.8713, 178.2770
524.3535, 184.7521
524.8356, 192.3091
525.3177, 200.6964
525.7998, 209.4250
526.2819, 218.4818
526.7640, 227.8581
527.2462, 237.2460
527.7283, 247.2729
528.2104, 258.3415
528.6925, 270.2383
529.1746, 282.5997
529.6567, 295.5457
530.1389, 308.4312
530.6210, 320.4923
531.1031, 331.7155
531.5852, 342.0568
532.0673, 352.0988
532.5494, 360.3081
533.0316, 365.0598
533.5137, 366.6119
533.9958, 364.2266
534.4779, 357.6057
534.9600, 347.1347
535.4421, 331.8601
535.9243, 312.7935
536.4064, 292.3771
536.8885, 271.6973
537.3706, 251.2205
537.8527, 232.1837
538.3348, 214.6810
538.8170, 198.2806
539.2991, 182.3779
539.7812, 168.0817
540.2633, 155.9373
540.7454, 145.8799
541.2275, 137.5609
541.7097, 130.8724
542.1918, 125.4481
542.6739, 120.2837
543.1560, 115.1273
543.6381, 110.9729
544.1202, 108.8955
544.6024, 107.2204
545.0845, 104.7783
545.5666, 101.6978
546.0487, 99.02822
546.5308, 97.34560
547.0129, 96.37663
547.4951, 95.95146
547.9772, 96.04710
548.4593, 95.69760
548.9414, 94.22691
549.4235, 92.42766
549.9056, 91.92669
550.3878, 92.95579
550.8699, 93.57809
551.3520, 93.08163
551.8341, 92.31143
552.3162, 91.89670
552.7983, 91.84709
553.2805, 91.98458
553.7626, 92.22604
554.2447, 92.50166
554.7268, 92.59138
555.2089, 92.25151
555.6910, 92.16525
556.1732, 92.55114
556.6553, 92.98884
557.1374, 93.28551
557.6195, 93.40736
558.1016, 93.37651
558.5837, 93.24268
559.0659, 92.61302
559.5480, 92.10696
560.0301, 90.74023
560.5122, 89.33931
560.9943, 87.74377
561.4764, 86.49174
561.9586, 86.32349
562.4407, 87.14764
562.9228, 87.56828
563.4049, 86.82746
563.8870, 85.60222
564.3691, 84.53175
564.8513, 83.62186
565.3334, 82.79581
565.8155, 82.05091
566.2976, 81.27715
566.7797, 80.23641
567.2618, 78.72049
567.7440, 77.42909
568.2261, 76.61533
568.7082, 75.80129
569.1903, 74.60136
569.6724, 73.17945
570.1545, 71.94730
570.6367, 71.13781
571.1188, 70.57588
571.6009, 69.92481
572.0830, 69.18224
572.5651, 68.32744
573.0472, 67.12989
573.5294, 66.05108
574.0115, 65.42747
574.4936, 65.12134
574.9757, 64.74251
575.4578, 64.09561
575.9399, 63.35535
576.4221, 62.71043
576.9042, 62.15023
577.3863, 61.58484
577.8684, 60.96215
578.3505, 60.41913
578.8326, 60.19124
579.3148, 60.31309
579.7969, 60.13683
580.2790, 59.34201
580.7611, 58.56401
581.2432, 58.06143
581.7253, 57.79585
582.2075, 57.70146
582.6896, 57.75014
583.1717, 57.88167
583.6538, 58.01496
584.1359, 58.14546
584.6180, 58.31047
585.1002, 58.54557
585.5823, 58.77570
586.0643, 58.97833
586.5464, 59.16184
587.0286, 59.27269
587.5107, 59.27604
