##NAMES=Grossular
##RRUFFID=R100160
##IDEAL CHEMISTRY=Ca_3_Al_2_(SiO_4_)_3_
##LOCALITY=Kataragama, Sri Lanka
##OWNER=RRUFF
##SOURCE=William W. Pinch
##DESCRIPTION=Orange-red cut gemstone
##STATUS=The identification of this mineral has been confirmed only by single crystal X-ray diffraction.
##URL=rruff.info/R100160
131.5330, 4.208261
132.0151, 4.264158
132.4972, 4.442916
132.9794, 4.744874
133.4615, 4.985920
133.9436, 4.998911
134.4257, 4.802169
134.9078, 4.633079
135.3899, 4.497957
135.8721, 4.428185
136.3542, 4.543948
136.8363, 4.878222
137.3184, 5.252973
137.8005, 5.544451
138.2826, 5.757451
138.7648, 5.850375
139.2469, 5.742851
139.7290, 5.490139
140.2111, 5.541969
140.6932, 5.997022
141.1753, 6.573900
141.6575, 6.979140
142.1396, 7.118430
142.6217, 7.357022
143.1038, 7.790736
143.5859, 8.434380
144.0681, 9.061563
144.5502, 9.739306
145.0323, 10.34630
145.5144, 10.74678
145.9965, 10.86606
146.4786, 10.88123
146.9608, 10.75459
147.4429, 10.36001
147.9250, 10.37258
148.4071, 11.06064
148.8892, 12.05707
149.3713, 12.80647
149.8535, 13.20660
150.3356, 13.46811
150.8177, 13.58601
151.2998, 13.31141
151.7819, 13.43454
152.2640, 14.23152
152.7462, 15.40051
153.2283, 16.38762
153.7104, 16.99914
154.1925, 17.55632
154.6746, 18.17838
155.1567, 18.96621
155.6389, 19.64392
156.1210, 20.00239
156.6031, 20.21680
157.0852, 20.72075
157.5673, 21.97420
158.0495, 23.27213
158.5316, 24.27606
159.0137, 24.80029
159.4958, 25.19437
159.9779, 25.40692
160.4600, 25.52979
160.9422, 25.86285
161.4243, 26.74984
161.9064, 27.74142
162.3885, 28.52406
162.8706, 28.82701
163.3527, 29.15079
163.8349, 29.72951
164.3170, 30.52155
164.7991, 31.32794
165.2812, 32.01570
165.7633, 32.69272
166.2454, 33.45638
166.7276, 34.35826
167.2097, 35.33506
167.6918, 36.40322
168.1739, 37.54116
168.6560, 38.64996
169.1381, 39.45617
169.6203, 40.24457
170.1024, 41.09554
170.5845, 42.54562
171.0666, 44.19760
171.5487, 45.61736
172.0309, 46.81714
172.5130, 47.99015
172.9951, 49.15355
173.4772, 50.39131
173.9593, 51.84276
174.4414, 53.62388
174.9236, 55.59827
175.4057, 57.54994
175.8878, 59.49113
176.3699, 61.58981
176.8520, 64.18273
177.3341, 67.06161
177.8163, 69.78328
178.2984, 72.38570
178.7805, 74.62996
179.2626, 76.38882
179.7447, 77.70592
180.2268, 77.84410
180.7090, 75.55425
181.1911, 71.36573
181.6732, 66.88743
182.1553, 62.73052
182.6374, 58.81561
183.1195, 54.99426
183.6017, 51.15385
184.0838, 47.73542
184.5659, 45.29499
185.0480, 43.71395
185.5301, 42.28684
186.0123, 40.57425
186.4944, 38.74305
186.9765, 37.37188
187.4586, 36.47276
187.9407, 35.99013
188.4228, 36.14029
188.9050, 36.83842
189.3871, 37.17062
189.8692, 36.36345
190.3513, 34.69257
190.8334, 33.55990
191.3155, 33.10762
191.7977, 33.01708
192.2798, 32.86465
192.7619, 32.65136
193.2440, 32.33854
193.7261, 31.75154
194.2082, 30.94586
194.6904, 30.61380
195.1725, 30.89794
195.6546, 31.45464
196.1367, 31.65955
196.6188, 31.50146
197.1009, 31.19315
197.5831, 30.73150
198.0652, 30.11363
198.5473, 29.87756
199.0294, 30.17942
199.5115, 30.69479
199.9937, 30.68708
200.4758, 30.07438
200.9579, 29.46830
201.4400, 29.22367
201.9221, 29.36389
202.4042, 29.53160
202.8864, 29.72312
203.3685, 29.91449
203.8506, 30.04501
204.3327, 30.10427
204.8148, 30.14038
205.2969, 30.18662
205.7791, 30.25135
206.2612, 30.26013
206.7433, 30.19177
207.2254, 30.07811
207.7075, 29.98288
208.1896, 29.88447
208.6718, 29.86638
209.1539, 30.03082
209.6360, 30.45169
210.1181, 30.65984
210.6002, 30.57253
211.0823, 30.29107
211.5645, 30.06764
212.0466, 29.86088
212.5287, 29.81008
213.0108, 30.05243
213.4929, 30.71388
213.9750, 31.15645
214.4572, 31.23820
214.9393, 31.12252
215.4214, 31.32825
215.9035, 31.99139
216.3856, 32.70198
216.8678, 33.24374
217.3499, 33.61641
217.8320, 33.81702
218.3141, 33.71650
218.7962, 33.47795
219.2783, 33.65384
219.7605, 34.41555
220.2426, 35.27421
220.7247, 35.95347
221.2068, 36.35431
221.6889, 36.86337
222.1710, 37.55563
222.6532, 38.35152
223.1353, 38.96548
223.6174, 39.31905
224.0995, 39.63438
224.5816, 40.01348
225.0637, 40.45726
225.5459, 40.96791
226.0280, 41.51380
226.5101, 42.13520
226.9922, 42.94877
227.4743, 44.04321
227.9564, 45.20000
228.4386, 46.31302
228.9207, 47.26387
229.4028, 48.42455
229.8849, 49.92765
230.3670, 51.61394
230.8492, 53.06187
231.3313, 54.09767
231.8134, 55.13617
232.2955, 56.39009
232.7776, 57.93177
233.2597, 59.48847
233.7419, 61.12431
234.2240, 62.76221
234.7061, 64.09551
235.1882, 64.77854
235.6703, 65.67906
236.1524, 67.26919
236.6346, 70.09034
237.1167, 72.33295
237.5988, 73.81937
238.0809, 74.80334
238.5630, 75.92503
239.0451, 77.41960
239.5273, 78.68384
240.0094, 79.43681
240.4915, 79.46956
240.9736, 79.51139
241.4557, 79.46616
241.9378, 79.46892
242.4200, 79.79813
242.9021, 80.49924
243.3842, 81.46058
243.8663, 82.63893
244.3484, 84.01806
244.8306, 85.72804
245.3127, 88.11771
245.7948, 90.64014
246.2769, 92.33543
246.7590, 93.31443
247.2411, 93.26630
247.7233, 92.11027
248.2054, 89.88363
248.6875, 86.31927
249.1696, 80.95330
249.6517, 74.60625
250.1338, 68.52126
250.6160, 62.41647
251.0981, 57.05720
251.5802, 52.75956
252.0623, 49.58717
252.5444, 47.03588
253.0265, 45.32188
253.5087, 44.06912
253.9908, 42.73780
254.4729, 41.07935
254.9550, 39.83178
255.4371, 39.29146
255.9192, 39.56301
256.4014, 39.71349
256.8835, 39.66803
257.3656, 39.57568
257.8477, 39.62645
258.3298, 39.88221
258.8120, 40.13814
259.2941, 40.30825
259.7762, 40.37667
260.2583, 40.66855
260.7404, 41.27544
261.2225, 41.99432
261.7047, 42.65004
262.1868, 43.28098
262.6689, 43.73122
263.1510, 43.86551
263.6331, 43.69997
264.1152, 43.95450
264.5974, 44.79385
265.0795, 45.79738
265.5616, 46.49983
266.0437, 46.76677
266.5258, 47.22339
267.0079, 48.03463
267.4901, 49.15962
267.9722, 50.14674
268.4543, 50.94585
268.9364, 51.73142
269.4185, 52.62742
269.9006, 53.62335
270.3828, 54.78687
270.8649, 56.19533
271.3470, 57.78023
271.8291, 59.16656
272.3112, 60.22371
272.7933, 61.46626
273.2755, 63.34242
273.7576, 65.95589
274.2397, 68.46358
274.7218, 70.71358
275.2039, 72.80456
275.6860, 75.13567
276.1682, 77.86768
276.6503, 80.31709
277.1324, 82.13148
277.6145, 83.30139
278.0966, 83.82307
278.5787, 83.72768
279.0609, 82.96306
279.5430, 81.34481
280.0251, 78.84251
280.5072, 75.72449
280.9893, 71.89906
281.4715, 67.40325
281.9536, 63.08356
282.4357, 58.86702
282.9178, 55.04132
283.3999, 52.23112
283.8820, 50.47608
284.3642, 48.98676
284.8463, 47.37352
285.3284, 45.66221
285.8105, 44.23019
286.2926, 43.06375
286.7747, 42.19293
287.2569, 41.85197
287.7390, 42.01277
288.2211, 41.93420
288.7032, 41.13377
289.1853, 39.82021
289.6674, 38.96527
290.1496, 38.61501
290.6317, 38.39117
291.1138, 37.81556
291.5959, 36.94771
292.0780, 36.22361
292.5602, 35.83234
293.0423, 35.65886
293.5244, 35.39507
294.0065, 35.03699
294.4886, 34.71849
294.9707, 34.65484
295.4529, 34.75190
295.9350, 34.66407
296.4171, 34.25061
296.8992, 33.65004
297.3813, 32.99757
297.8634, 32.31660
298.3456, 31.85227
298.8277, 31.89553
299.3098, 32.29212
299.7919, 32.73846
300.2740, 33.22731
300.7561, 33.63659
301.2383, 33.71975
301.7204, 33.54066
302.2025, 33.38310
302.6846, 33.44069
303.1667, 33.62825
303.6488, 33.82061
304.1310, 33.99407
304.6131, 34.18036
305.0952, 34.42889
305.5773, 34.71662
306.0594, 34.98023
306.5415, 35.16096
307.0237, 35.31468
307.5058, 35.48257
307.9879, 35.65794
308.4700, 35.91573
308.9521, 36.39885
309.4343, 36.99611
309.9164, 37.52216
310.3985, 37.78840
310.8806, 38.03174
311.3627, 38.46431
311.8448, 39.10126
312.3270, 39.72191
312.8091, 40.22340
313.2912, 40.62630
313.7733, 40.95495
314.2554, 41.10719
314.7375, 41.28312
315.2197, 41.65828
315.7018, 42.20055
316.1839, 42.60894
316.6660, 42.64203
317.1481, 42.53983
317.6302, 42.49821
318.1124, 42.60862
318.5945, 42.73057
319.0766, 42.85038
319.5587, 42.95209
320.0408, 42.98339
320.5229, 42.75272
321.0051, 42.56968
321.4872, 42.63131
321.9693, 43.14005
322.4514, 43.56778
322.9335, 43.66615
323.4156, 43.62304
323.8978, 43.80066
324.3799, 44.39994
324.8620, 45.10919
325.3441, 45.81832
325.8262, 46.48457
326.3083, 47.23993
326.7905, 48.15025
327.2726, 49.14056
327.7547, 50.10592
328.2368, 51.47380
328.7189, 52.37441
329.2010, 52.47058
329.6832, 51.66437
330.1653, 51.14929
330.6474, 51.18361
331.1295, 51.32354
331.6116, 51.20222
332.0938, 50.64013
332.5759, 50.10112
333.0580, 49.66709
333.5401, 49.31297
334.0222, 48.86421
334.5043, 48.19873
334.9865, 47.60104
335.4686, 47.23535
335.9507, 47.13960
336.4328, 47.18209
336.9149, 47.39290
337.3970, 47.72140
337.8792, 48.00233
338.3613, 48.18654
338.8434, 48.47207
339.3255, 48.99010
339.8076, 49.78541
340.2898, 50.47221
340.7719, 51.01669
341.2540, 51.52251
341.7361, 52.18476
342.2182, 53.01305
342.7003, 53.78751
343.1825, 54.29791
343.6646, 54.65013
344.1467, 55.59882
344.6288, 57.23164
345.1109, 59.05723
345.5930, 60.57984
346.0752, 61.81930
346.5573, 63.18612
347.0394, 64.84495
347.5215, 66.64318
348.0036, 68.25394
348.4857, 69.67513
348.9679, 71.11657
349.4500, 72.70162
349.9321, 74.44365
350.4142, 76.36905
350.8963, 78.49437
351.3784, 80.78809
351.8606, 83.18475
352.3427, 85.67740
352.8248, 88.30136
353.3069, 90.76670
353.7890, 93.46328
354.2711, 97.04570
354.7533, 101.5955
355.2354, 106.5822
355.7175, 111.4775
356.1996, 116.4626
356.6817, 121.8539
357.1638, 128.0096
357.6460, 134.4513
358.1281, 140.7892
358.6102, 147.0280
359.0923, 153.6854
359.5744, 161.0348
360.0565, 168.8872
360.5387, 177.0587
361.0208, 185.4612
361.5029, 194.2569
361.9850, 203.2723
362.4671, 212.6565
362.9492, 222.7660
363.4314, 233.9238
363.9135, 245.6951
364.3956, 257.8182
364.8777, 270.1895
365.3598, 283.2105
365.8419, 297.4747
366.3241, 312.3246
366.8062, 326.6845
367.2883, 340.3442
367.7704, 353.5600
368.2526, 366.3335
368.7347, 378.6566
369.2168, 390.8091
369.6989, 402.9132
370.1810, 414.8343
370.6631, 426.6323
371.1453, 438.8633
371.6274, 450.2121
372.1095, 461.0252
372.5916, 471.0786
373.0737, 478.7239
373.5558, 484.4593
374.0380, 487.1566
374.5201, 486.5569
375.0022, 483.3606
375.4843, 474.4898
375.9664, 459.2273
376.4485, 438.7848
376.9307, 414.3193
377.4128, 385.2427
377.8949, 355.4659
378.3770, 326.2209
378.8591, 297.6908
379.3412, 270.9637
379.8234, 246.1600
380.3055, 223.5262
380.7876, 203.8908
381.2697, 187.0428
381.7518, 172.2953
382.2339, 159.7214
382.7161, 148.9490
383.1982, 138.9341
383.6803, 129.7684
384.1624, 121.6459
384.6445, 115.0943
385.1266, 109.7706
385.6088, 104.8790
386.0909, 100.3638
386.5730, 96.09419
387.0551, 91.96227
387.5372, 88.01961
388.0193, 84.33675
388.5015, 80.88290
388.9836, 77.78677
389.4657, 75.25907
389.9478, 73.32000
390.4299, 71.61800
390.9120, 70.04246
391.3942, 68.51888
391.8763, 66.97737
392.3584, 65.27941
392.8405, 63.66445
393.3226, 62.20068
393.8047, 60.90502
394.2869, 59.85486
394.7690, 59.21046
395.2511, 58.73233
395.7332, 58.28113
396.2154, 57.84180
396.6975, 57.41659
397.1796, 56.92813
397.6617, 56.46230
398.1438, 56.16784
398.6259, 56.27165
399.1081, 56.34255
399.5902, 56.21903
400.0723, 55.84969
400.5544, 55.63763
401.0365, 55.71264
401.5186, 55.84697
402.0008, 55.83078
402.4829, 55.45695
402.9650, 55.32444
403.4471, 55.53190
403.9292, 56.03096
404.4113, 56.64890
404.8935, 57.47730
405.3756, 58.22304
405.8577, 58.74313
406.3398, 59.02511
406.8219, 59.09339
407.3040, 58.84991
407.7862, 58.58274
408.2683, 58.66764
408.7504, 59.10578
409.2325, 59.88286
409.7146, 61.18328
410.1967, 62.77166
410.6789, 63.83619
411.1610, 64.35678
411.6431, 64.90616
412.1252, 65.97371
412.6073, 67.45757
413.0894, 69.12683
413.5716, 71.00370
414.0537, 72.82172
414.5358, 74.46140
415.0179, 75.79578
415.5000, 76.46534
415.9821, 76.25132
416.4643, 75.27255
416.9464, 73.54531
417.4285, 71.05364
417.9106, 68.15122
418.3927, 64.85295
418.8748, 61.33625
419.3570, 57.87274
419.8391, 54.13722
420.3212, 50.83625
420.8033, 48.34909
421.2854, 46.57313
421.7675, 44.96006
422.2497, 43.39341
422.7318, 41.90669
423.2139, 40.52278
423.6960, 39.21528
424.1781, 38.07999
424.6602, 37.15592
425.1424, 36.40965
425.6245, 35.81193
426.1066, 35.57810
426.5887, 35.22019
427.0709, 34.54405
427.5530, 33.54981
428.0351, 32.90707
428.5172, 32.76588
428.9993, 32.76085
429.4814, 32.62840
429.9636, 32.32763
430.4457, 32.04780
430.9278, 31.78484
431.4099, 31.56992
431.8920, 31.45862
432.3741, 31.44593
432.8563, 31.57456
433.3384, 32.02684
433.8205, 32.69911
434.3026, 32.78498
434.7847, 32.22943
435.2668, 31.53963
435.7490, 31.22476
436.2311, 31.20546
436.7132, 31.20451
437.1953, 31.11942
437.6774, 31.06129
438.1595, 31.27355
438.6417, 31.67837
439.1238, 31.95323
439.6059, 31.82826
440.0880, 31.51336
440.5701, 31.19731
441.0522, 30.88809
441.5344, 30.66406
442.0165, 30.60758
442.4986, 30.65272
442.9807, 30.71951
443.4628, 30.75027
443.9449, 30.82828
444.4271, 31.00449
444.9092, 31.26450
445.3913, 31.52732
445.8734, 31.84451
446.3555, 32.09885
446.8376, 32.20114
447.3198, 31.94410
447.8019, 31.94450
448.2840, 32.47902
448.7661, 33.16428
449.2482, 33.44012
449.7303, 32.98766
450.2125, 32.66497
450.6946, 32.68004
451.1767, 33.00996
451.6588, 33.30149
452.1409, 33.53620
452.6230, 33.78093
453.1052, 34.13726
453.5873, 34.63413
454.0694, 34.86003
454.5515, 34.72074
455.0337, 34.42887
455.5158, 34.32264
455.9979, 34.39359
456.4800, 34.53450
456.9621, 34.75828
457.4442, 35.00396
457.9264, 35.15842
458.4085, 35.22024
458.8906, 35.14016
459.3727, 34.68689
459.8548, 34.11142
460.3369, 33.87985
460.8191, 34.24368
461.3012, 34.60286
461.7833, 34.30452
462.2654, 33.64973
462.7475, 33.26513
463.2296, 33.64281
463.7118, 34.18066
464.1939, 34.55904
464.6760, 34.75934
465.1581, 34.93293
465.6402, 35.20531
466.1223, 35.41900
466.6045, 35.45827
467.0866, 35.01917
467.5687, 34.76094
468.0508, 34.70267
468.5329, 34.84813
469.0150, 35.24944
469.4972, 36.22347
469.9793, 36.95776
470.4614, 37.08977
470.9435, 36.57228
471.4256, 36.43381
471.9077, 36.77695
472.3899, 37.29517
472.8720, 37.72145
473.3541, 38.05068
473.8362, 38.41222
474.3183, 38.82019
474.8004, 39.28016
475.2826, 39.82044
475.7647, 40.43625
476.2468, 41.06094
476.7289, 41.84017
477.2110, 42.57073
477.6931, 42.69501
478.1753, 42.21312
478.6574, 41.61625
479.1395, 41.33989
479.6216, 41.19848
480.1037, 40.91433
480.5858, 40.37918
481.0680, 39.75239
481.5501, 39.11151
482.0322, 38.46030
482.5143, 37.81182
482.9964, 37.03316
483.4786, 36.37806
483.9607, 36.00395
484.4428, 35.94085
484.9249, 35.89534
485.4070, 35.82882
485.8892, 35.75139
486.3713, 35.66846
486.8534, 35.54302
487.3355, 35.46781
487.8176, 35.44986
488.2997, 35.48166
488.7819, 35.56410
489.2640, 35.75202
489.7461, 35.85500
490.2282, 35.73350
490.7103, 35.41741
491.1924, 35.45900
491.6746, 35.89436
492.1567, 36.53538
492.6388, 37.31652
493.1209, 38.21207
493.6030, 38.88340
494.0851, 39.25629
494.5673, 39.50249
495.0494, 39.83471
495.5315, 40.24297
496.0136, 40.67866
496.4957, 41.14000
496.9778, 41.60746
497.4600, 42.06358
497.9421, 42.51052
498.4242, 42.98397
498.9063, 43.55200
499.3884, 44.13297
499.8705, 44.67269
500.3527, 45.17118
500.8348, 45.58941
501.3169, 45.82463
501.7990, 45.98687
502.2811, 46.23359
502.7632, 46.45535
503.2454, 46.90920
503.7275, 47.79928
504.2096, 49.06325
504.6917, 50.04645
505.1738, 50.51701
505.6559, 51.00732
506.1381, 51.83973
506.6202, 53.16528
507.1023, 54.22526
507.5844, 54.99871
508.0665, 55.54561
508.5486, 56.00654
509.0308, 56.38969
509.5129, 56.29882
509.9950, 55.58176
510.4771, 54.38355
510.9592, 52.81021
511.4413, 50.91826
511.9235, 49.19263
512.4056, 48.12753
512.8877, 47.35452
513.3698, 46.24779
513.8519, 44.73726
514.3340, 43.26949
514.8162, 42.11747
515.2983, 41.21540
515.7804, 40.48914
516.2625, 39.98071
516.7446, 39.56145
517.2267, 39.15469
517.7089, 38.80095
518.1910, 38.60525
518.6731, 38.79843
519.1552, 38.95844
519.6373, 38.86802
520.1194, 38.47738
520.6016, 38.34938
521.0837, 38.55265
521.5658, 38.94124
522.0479, 39.45737
522.5300, 40.17586
523.0121, 40.70924
523.4943, 40.96958
523.9764, 41.11647
524.4585, 41.53627
524.9406, 42.23478
525.4227, 42.62194
525.9048, 42.32793
526.3870, 41.65319
526.8691, 41.38714
527.3513, 41.50278
527.8334, 41.60481
528.3155, 41.19697
528.7976, 40.67436
529.2797, 40.66083
529.7618, 41.28888
530.2440, 42.06712
530.7261, 42.75888
531.2082, 43.35708
531.6903, 43.84004
532.1724, 43.65826
532.6545, 43.93935
533.1367, 45.36489
533.6188, 47.60410
534.1009, 49.52383
534.5830, 50.39762
535.0651, 51.45709
535.5472, 53.17378
536.0294, 55.69519
536.5115, 57.89096
536.9936, 59.55509
537.4757, 61.18208
537.9578, 63.11565
538.4399, 65.35281
538.9221, 68.05328
539.4042, 71.33066
539.8863, 74.96423
540.3684, 78.54830
540.8505, 82.10828
541.3326, 85.94845
541.8148, 90.18485
542.2969, 94.76266
542.7790, 99.60894
543.2611, 104.7278
543.7432, 110.2924
544.2253, 116.3668
544.7075, 122.9744
545.1896, 130.3525
545.6717, 138.7203
546.1538, 146.7796
546.6359, 154.7138
547.1180, 161.6866
547.6002, 166.6978
548.0823, 170.3393
548.5644, 171.0605
549.0465, 168.0371
549.5286, 161.8535
550.0107, 154.1633
550.4929, 144.5090
550.9750, 133.9910
551.4571, 122.6005
551.9392, 110.2830
552.4213, 99.01345
552.9034, 88.62233
553.3856, 79.58903
553.8677, 72.55728
554.3498, 67.41447
554.8319, 62.84967
555.3140, 58.76635
555.7961, 55.10126
556.2783, 51.79762
556.7604, 48.87232
557.2425, 46.42645
557.7246, 44.58724
558.2067, 43.14314
558.6888, 42.02256
559.1710, 41.16142
559.6531, 40.35674
560.1352, 39.47646
560.6173, 38.65766
561.0994, 37.98524
561.5815, 37.46447
562.0637, 37.06835
562.5458, 36.87122
563.0279, 36.74743
563.5100, 36.59626
563.9921, 36.32973
564.4742, 36.20561
564.9564, 36.33017
565.4385, 36.52008
565.9206, 36.46154
566.4027, 36.12778
566.8848, 35.66053
567.3669, 35.02473
567.8491, 34.32506
568.3312, 33.90829
568.8133, 33.77128
569.2954, 33.81964
569.7775, 34.17209
570.2596, 34.61976
570.7418, 34.73207
571.2239, 34.47706
571.7060, 34.16116
572.1881, 33.92912
572.6702, 33.80235
573.1523, 33.81595
573.6345, 34.05457
574.1166, 34.29702
574.5987, 34.56514
575.0808, 34.76192
575.5629, 34.72759
576.0450, 33.95183
576.5272, 33.49909
577.0093, 33.74921
577.4914, 34.55528
577.9735, 34.93317
578.4556, 34.73442
578.9377, 34.40821
579.4199, 34.16873
579.9020, 34.02200
580.3841, 33.75134
580.8662, 33.31820
581.3483, 32.97150
581.8304, 33.08366
582.3126, 33.51025
582.7947, 33.71146
583.2768, 33.52126
583.7589, 33.28481
584.2410, 33.48533
584.7231, 33.89996
585.2053, 34.08773
585.6874, 33.56736
586.1696, 33.04306
586.6517, 32.84083
587.1338, 32.94250
587.6159, 33.24901
588.0980, 34.00460
588.5801, 34.71845
589.0623, 35.19907
589.5444, 35.44419
590.0265, 35.47248
590.5086, 35.21366
590.9907, 34.82873
591.4728, 34.39828
591.9550, 33.89460
592.4371, 33.58208
592.9192, 33.53717
593.4013, 33.56197
593.8834, 33.35149
594.3655, 32.93967
594.8477, 32.54445
595.3298, 32.28719
595.8119, 32.02275
596.2940, 31.44812
596.7761, 30.67868
597.2582, 30.08376
597.7404, 29.97155
598.2225, 30.01716
598.7046, 29.95338
599.1867, 29.76956
599.6688, 29.78424
600.1509, 30.34376
600.6331, 30.94913
601.1152, 31.27225
601.5973, 31.16569
602.0794, 31.10852
602.5615, 31.11625
603.0436, 31.15902
603.5258, 31.22156
604.0079, 31.32296
604.4900, 31.32740
604.9721, 31.17505
605.4542, 30.97219
605.9363, 30.90345
606.4185, 30.97001
606.9006, 31.18274
607.3827, 31.65291
607.8648, 32.20290
608.3469, 32.54235
608.8290, 32.70573
609.3112, 32.86792
609.7933, 33.20851
610.2754, 33.53709
610.7575, 33.64867
611.2396, 33.47016
611.7217, 33.47654
612.2039, 33.98278
612.6860, 34.60671
613.1681, 35.06079
613.6502, 35.23621
614.1323, 35.40512
614.6144, 35.54330
615.0966, 35.69598
615.5787, 35.95034
616.0608, 36.32478
616.5429, 36.67769
617.0250, 36.97499
617.5071, 37.23360
617.9893, 37.47406
618.4714, 37.70061
618.9535, 37.93300
619.4356, 38.15671
619.9177, 38.41159
620.3998, 38.75535
620.8820, 39.18415
621.3641, 39.65411
621.8462, 40.17059
622.3283, 40.70592
622.8104, 41.21044
623.2925, 41.63786
623.7747, 42.20906
624.2568, 43.08785
624.7389, 44.04874
625.2210, 44.94257
625.7031, 45.92743
626.1852, 46.45034
626.6674, 46.29859
627.1495, 45.87725
627.6316, 45.88568
628.1137, 46.34282
628.5958, 46.80054
629.0779, 47.25509
629.5601, 47.49346
630.0422, 46.97395
