##NAMES=Grossular
##RRUFFID=R100161
##IDEAL CHEMISTRY=Ca_3_Al_2_(SiO_4_)_3_
##LOCALITY=Kenya
##OWNER=RRUFF
##SOURCE=William W. Pinch
##DESCRIPTION=Green gemmy fragments
##STATUS=The identification of this mineral has been confirmed only by single crystal X-ray diffraction.
##URL=rruff.info/R100161
136.4065, 791.9188
136.8886, 793.0948
137.3708, 795.3814
137.8529, 797.9080
138.3350, 801.2119
138.8171, 804.2432
139.2992, 806.6229
139.7813, 808.5144
140.2635, 810.3278
140.7456, 812.4065
141.2277, 814.8085
141.7098, 817.0127
142.1919, 817.9991
142.6740, 819.6358
143.1561, 823.5847
143.6383, 829.6814
144.1204, 835.7902
144.6025, 839.6671
145.0846, 840.8714
145.5667, 842.1363
146.0488, 843.2715
146.5310, 844.6371
147.0131, 846.5424
147.4952, 849.0178
147.9773, 852.1764
148.4594, 856.5061
148.9415, 861.7930
149.4237, 867.3184
149.9058, 873.0807
150.3879, 878.9078
150.8700, 884.2040
151.3521, 888.7919
151.8342, 892.9535
152.3164, 897.1774
152.7985, 901.3868
153.2806, 905.1403
153.7627, 907.9562
154.2448, 909.8235
154.7269, 911.6033
155.2091, 913.9637
155.6912, 915.7639
156.1733, 916.2227
156.6554, 915.3517
157.1375, 913.8934
157.6196, 912.8248
158.1018, 912.5417
158.5839, 911.4319
159.0660, 909.2032
159.5481, 906.3873
160.0302, 903.0886
160.5123, 899.4124
160.9945, 895.6578
161.4766, 892.4838
161.9587, 891.3191
162.4408, 888.4076
162.9229, 882.6217
163.4050, 875.7715
163.8871, 869.5111
164.3693, 864.4421
164.8514, 860.1210
165.3335, 855.4833
165.8156, 850.2637
166.2977, 845.1312
166.7798, 840.1705
167.2620, 835.3163
167.7441, 830.4685
168.2262, 825.5670
168.7083, 820.6930
169.1904, 816.1301
169.6725, 811.8649
170.1547, 807.8308
170.6368, 803.9662
171.1189, 800.3118
171.6010, 796.9182
172.0831, 793.5067
172.5652, 790.7411
173.0474, 789.4271
173.5295, 789.5666
174.0116, 791.1137
174.4937, 794.2538
174.9758, 798.9880
175.4579, 804.3885
175.9401, 808.6693
176.4222, 814.3265
176.9043, 824.1512
177.3864, 839.1213
177.8685, 857.3777
178.3506, 877.6125
178.8328, 900.9182
179.3149, 922.3449
179.7970, 944.0250
180.2791, 961.5809
180.7612, 970.2853
181.2433, 968.2243
181.7255, 957.5706
182.2076, 942.1555
182.6897, 918.8458
183.1718, 896.3089
183.6539, 875.3972
184.1360, 856.3586
184.6181, 839.6748
185.1003, 825.5894
185.5824, 813.7681
186.0645, 803.1623
186.5466, 793.8250
187.0287, 785.8423
187.5108, 779.4033
187.9930, 774.2722
188.4751, 770.4330
188.9572, 767.9714
189.4393, 766.5184
189.9214, 764.0109
190.4035, 758.6783
190.8857, 754.2724
191.3678, 751.7133
191.8499, 750.5594
192.3320, 750.1675
192.8141, 750.2965
193.2962, 750.7566
193.7784, 749.9669
194.2605, 746.6158
194.7426, 743.7161
195.2247, 742.5175
195.7068, 742.6391
196.1889, 742.9290
196.6711, 742.7091
197.1532, 742.0839
197.6353, 741.6613
198.1174, 741.5696
198.5995, 741.5299
199.0816, 741.4698
199.5638, 741.3649
200.0459, 741.0521
200.5280, 740.3383
201.0101, 739.3599
201.4922, 738.5745
201.9743, 738.1581
202.4565, 737.7765
202.9386, 737.1953
203.4207, 736.4167
203.9028, 735.4019
204.3849, 733.7305
204.8670, 731.9619
205.3492, 730.9960
205.8313, 731.3790
206.3134, 732.1263
206.7955, 731.7913
207.2776, 730.0267
207.7597, 728.8057
208.2419, 730.0546
208.7240, 731.9279
209.2061, 732.5553
209.6882, 731.1492
210.1703, 728.6370
210.6524, 726.4067
211.1346, 724.2339
211.6167, 723.0203
212.0988, 723.6702
212.5809, 725.0335
213.0630, 726.0153
213.5451, 726.1447
214.0273, 725.8016
214.5094, 725.9101
214.9915, 727.0045
215.4736, 727.5527
215.9557, 726.9414
216.4378, 725.8813
216.9200, 725.1663
217.4021, 725.1716
217.8842, 725.4782
218.3663, 724.7722
218.8484, 721.1495
219.3305, 719.3804
219.8127, 721.3243
220.2948, 724.7030
220.7769, 727.0131
221.2590, 727.1140
221.7411, 725.8765
222.2232, 725.8836
222.7054, 728.6898
223.1875, 730.9639
223.6696, 732.3045
224.1517, 733.0941
224.6338, 733.6172
225.1159, 733.9958
225.5980, 734.4622
226.0802, 735.7131
226.5623, 738.1412
227.0444, 740.9260
227.5265, 743.7994
228.0086, 747.0631
228.4907, 751.3158
228.9729, 756.8654
229.4550, 763.0186
229.9371, 767.8430
230.4192, 770.2654
230.9013, 773.1310
231.3834, 776.4305
231.8656, 780.5197
232.3477, 786.1764
232.8298, 793.8445
233.3119, 802.6042
233.7940, 810.5236
234.2761, 817.3476
234.7583, 824.1579
235.2404, 830.9570
235.7225, 837.9399
236.2046, 845.7742
236.6867, 855.0273
237.1688, 864.4259
237.6510, 871.9179
238.1331, 877.6703
238.6152, 881.9495
239.0973, 884.4335
239.5794, 885.5244
240.0615, 885.9346
240.5437, 885.6674
241.0258, 885.1518
241.5079, 884.7218
241.9900, 884.3093
242.4721, 884.6939
242.9542, 886.3032
243.4364, 888.9601
243.9185, 892.4001
244.4006, 896.9792
244.8827, 901.5803
245.3648, 906.3995
245.8469, 911.1583
246.3290, 912.1033
246.8112, 906.8895
247.2933, 896.4364
247.7754, 882.7543
248.2575, 864.3699
248.7396, 845.6389
249.2217, 829.6877
249.7039, 816.1037
250.1860, 803.8445
250.6681, 792.2209
251.1502, 781.4772
251.6323, 772.3648
252.1144, 765.1732
252.5966, 759.4548
253.0787, 755.3433
253.5608, 752.3083
254.0429, 749.0732
254.5250, 744.3895
255.0071, 738.9357
255.4893, 735.4345
255.9714, 734.7708
256.4535, 734.8112
256.9356, 734.8076
257.4177, 734.7033
257.8998, 734.3465
258.3820, 733.4738
258.8641, 732.3730
259.3462, 732.1611
259.8283, 733.5214
260.3104, 734.6607
260.7925, 734.9092
261.2747, 734.6517
261.7568, 734.3415
262.2389, 734.1531
262.7210, 734.1396
263.2031, 734.4662
263.6852, 735.2252
264.1674, 736.2094
264.6495, 737.6549
265.1316, 739.1454
265.6137, 740.0572
266.0958, 740.0725
266.5779, 739.8179
267.0601, 740.8206
267.5422, 743.6498
268.0243, 746.8261
268.5064, 750.1824
268.9885, 753.6891
269.4706, 757.2398
269.9528, 760.8090
270.4349, 764.5739
270.9170, 768.7419
271.3991, 772.6160
271.8812, 778.4101
272.3633, 786.5878
272.8455, 796.1396
273.3276, 806.6552
273.8097, 817.8993
274.2918, 829.2726
274.7739, 839.9550
275.2560, 850.1630
275.7382, 859.0726
276.2202, 868.6135
276.7024, 875.8035
277.1845, 878.9233
277.6666, 877.6826
278.1487, 872.6823
278.6308, 864.2771
279.1129, 851.3160
279.5951, 838.8839
280.0772, 826.1462
280.5593, 814.4708
281.0414, 804.7246
281.5235, 796.8008
282.0056, 789.9413
282.4878, 783.4191
282.9699, 777.0960
283.4520, 771.9749
283.9341, 767.5804
284.4162, 764.5927
284.8983, 764.3079
285.3805, 765.8220
285.8626, 766.8178
286.3447, 765.3538
286.8268, 761.5034
287.3089, 759.3582
287.7910, 759.8510
288.2732, 760.8867
288.7553, 762.3201
289.2374, 763.8509
289.7195, 764.9724
290.2016, 765.3387
290.6837, 765.1310
291.1659, 765.3877
291.6480, 766.2248
292.1301, 767.3734
292.6122, 768.6777
293.0943, 770.2956
293.5764, 772.7253
294.0586, 776.2507
294.5407, 780.1407
295.0228, 782.4242
295.5049, 780.8713
295.9870, 780.3900
296.4691, 781.2546
296.9513, 783.2324
297.4334, 786.3270
297.9155, 790.4879
298.3976, 795.1808
298.8797, 799.4973
299.3618, 803.0984
299.8440, 806.9572
300.3261, 811.5372
300.8082, 816.0524
301.2903, 819.8545
301.7724, 822.8251
302.2545, 825.3522
302.7367, 827.8111
303.2188, 829.9957
303.7009, 833.0556
304.1830, 837.7762
304.6651, 842.6532
305.1472, 846.7232
305.6294, 849.9954
306.1115, 853.1081
306.5936, 856.6682
307.0757, 860.7453
307.5578, 863.8666
308.0399, 865.4664
308.5221, 866.8658
309.0042, 868.3198
309.4863, 870.0134
309.9684, 872.4479
310.4505, 876.1199
310.9326, 880.6683
311.4148, 883.3600
311.8969, 881.8419
312.3790, 881.4932
312.8611, 884.9687
313.3432, 890.2072
313.8253, 893.6775
314.3075, 893.6748
314.7896, 891.6000
315.2717, 891.0295
315.7538, 893.0485
316.2359, 895.0307
316.7180, 896.7086
317.2001, 898.2855
317.6823, 900.0254
318.1644, 902.0046
318.6465, 904.0047
319.1286, 905.6813
319.6107, 906.7578
320.0928, 908.1508
320.5750, 909.4648
321.0571, 911.3436
321.5392, 914.5580
322.0213, 919.0363
322.5034, 923.8252
322.9855, 927.8950
323.4677, 931.0970
323.9498, 934.9006
324.4319, 939.0570
324.9140, 943.9274
325.3961, 950.3079
325.8782, 957.6715
326.3604, 964.5483
326.8425, 969.8292
327.3246, 973.6931
327.8067, 978.2664
328.2888, 984.2853
328.7709, 990.0959
329.2531, 995.1592
329.7352, 999.7542
330.2173, 1004.414
330.6994, 1009.408
331.1815, 1014.481
331.6636, 1018.960
332.1458, 1022.008
332.6279, 1025.487
333.1100, 1029.716
333.5921, 1034.250
334.0742, 1038.967
334.5563, 1043.713
335.0385, 1047.927
335.5206, 1050.766
336.0027, 1051.991
336.4848, 1052.175
336.9669, 1050.960
337.4490, 1049.108
337.9312, 1047.336
338.4133, 1045.521
338.8954, 1042.832
339.3775, 1038.425
339.8596, 1032.152
340.3417, 1025.823
340.8239, 1019.313
341.3060, 1012.894
341.7881, 1006.760
342.2702, 1000.774
342.7523, 994.4346
343.2344, 987.3112
343.7166, 979.9709
344.1987, 975.2747
344.6808, 977.1581
345.1629, 977.2907
345.6450, 973.3113
346.1271, 967.8754
346.6093, 964.1586
347.0914, 963.3036
347.5735, 963.7772
348.0556, 962.5989
348.5377, 958.0110
349.0198, 954.9772
349.5020, 953.5402
349.9841, 953.3751
350.4662, 954.5066
350.9483, 956.7980
351.4304, 959.8429
351.9125, 963.1507
352.3947, 966.6018
352.8768, 971.1074
353.3589, 976.3282
353.8410, 982.9000
354.3231, 991.1214
354.8052, 1000.877
355.2874, 1012.041
355.7695, 1024.597
356.2516, 1038.343
356.7337, 1052.378
357.2158, 1065.822
357.6979, 1080.916
358.1800, 1097.981
358.6621, 1116.813
359.1443, 1136.858
359.6264, 1158.015
360.1085, 1180.893
360.5906, 1206.749
361.0727, 1235.709
361.5548, 1267.595
362.0370, 1301.771
362.5191, 1338.984
363.0012, 1380.094
363.4833, 1425.255
363.9654, 1472.920
364.4475, 1522.326
364.9297, 1573.626
365.4118, 1624.098
365.8939, 1673.372
366.3760, 1722.099
366.8581, 1771.764
367.3402, 1820.873
367.8224, 1866.211
368.3045, 1904.559
368.7866, 1938.566
369.2687, 1976.400
369.7508, 2019.595
370.2329, 2063.169
370.7151, 2103.936
371.1972, 2144.987
371.6793, 2192.465
372.1614, 2248.939
372.6435, 2303.045
373.1256, 2343.188
373.6078, 2369.636
374.0899, 2378.347
374.5720, 2368.753
375.0541, 2338.254
375.5362, 2283.441
376.0183, 2205.443
376.5005, 2115.681
376.9826, 2015.245
377.4647, 1907.892
377.9468, 1805.861
378.4289, 1708.371
378.9110, 1619.849
379.3932, 1544.375
379.8753, 1479.324
380.3574, 1421.247
380.8395, 1369.495
381.3216, 1323.779
381.8037, 1284.479
382.2859, 1251.541
382.7680, 1223.328
383.2501, 1200.182
383.7322, 1181.152
384.2143, 1163.868
384.6964, 1148.458
385.1786, 1134.555
385.6607, 1121.759
386.1428, 1110.444
386.6249, 1101.661
387.1070, 1095.902
387.5891, 1092.159
388.0713, 1090.098
388.5534, 1089.542
389.0355, 1088.170
389.5176, 1083.686
389.9997, 1079.314
390.4818, 1078.716
390.9640, 1081.912
391.4461, 1085.785
391.9282, 1087.992
392.4103, 1089.192
392.8924, 1092.749
393.3745, 1100.391
393.8567, 1108.267
394.3388, 1114.823
394.8209, 1120.543
395.3030, 1125.999
395.7851, 1131.342
396.2672, 1137.240
396.7494, 1145.158
397.2315, 1156.379
397.7136, 1166.475
398.1957, 1174.399
398.6778, 1181.780
399.1599, 1189.740
399.6420, 1198.505
400.1241, 1208.079
400.6063, 1218.518
401.0884, 1229.889
401.5705, 1241.281
402.0526, 1251.688
402.5347, 1263.229
403.0168, 1277.097
403.4990, 1292.457
403.9811, 1307.669
404.4632, 1321.871
404.9453, 1336.012
405.4274, 1352.454
405.9095, 1372.792
406.3917, 1392.712
406.8738, 1410.458
407.3559, 1428.856
407.8380, 1449.858
408.3201, 1473.738
408.8022, 1499.788
409.2844, 1527.761
409.7665, 1557.603
410.2486, 1588.410
410.7307, 1620.182
411.2128, 1652.954
411.6949, 1686.835
412.1771, 1721.648
412.6592, 1757.822
413.1413, 1796.065
413.6234, 1834.078
414.1055, 1867.144
414.5876, 1895.333
415.0698, 1918.693
415.5519, 1935.800
416.0340, 1948.882
416.5161, 1958.077
416.9982, 1963.786
417.4803, 1968.738
417.9625, 1974.454
418.4446, 1981.135
418.9267, 1990.799
419.4088, 2005.245
419.8909, 2019.604
420.3730, 2030.739
420.8552, 2039.489
421.3373, 2047.277
421.8194, 2054.813
422.3015, 2061.352
422.7836, 2066.485
423.2657, 2070.176
423.7479, 2071.067
424.2300, 2069.525
424.7121, 2063.713
425.1942, 2051.917
425.6763, 2034.239
426.1584, 2011.010
426.6406, 1981.336
427.1227, 1946.443
427.6048, 1908.118
428.0869, 1866.284
428.5690, 1822.529
429.0511, 1778.484
429.5333, 1733.880
430.0154, 1687.572
430.4975, 1636.890
430.9796, 1586.916
431.4617, 1540.724
431.9438, 1497.737
432.4260, 1455.696
432.9081, 1413.669
433.3902, 1372.505
433.8723, 1334.392
434.3544, 1300.064
434.8365, 1268.008
435.3187, 1238.264
435.8008, 1210.692
436.2829, 1185.736
436.7650, 1163.187
437.2471, 1141.984
437.7292, 1121.104
438.2114, 1100.425
438.6935, 1081.828
439.1756, 1066.039
439.6577, 1051.546
440.1398, 1038.111
440.6219, 1025.805
441.1040, 1015.294
441.5862, 1006.887
442.0683, 999.1886
442.5504, 989.3646
443.0325, 976.0292
443.5146, 964.7731
443.9967, 957.5907
444.4789, 951.3705
444.9610, 944.6487
445.4431, 937.4996
445.9252, 930.6133
446.4073, 924.1917
446.8894, 918.5264
447.3716, 915.1584
447.8537, 915.2066
448.3358, 914.7490
448.8179, 911.8069
449.3000, 907.5399
449.7821, 902.8445
450.2643, 897.7157
450.7464, 893.0363
451.2285, 889.6693
451.7106, 887.4426
452.1927, 885.7727
452.6748, 884.8698
453.1570, 883.8406
453.6391, 881.1888
454.1212, 877.3723
454.6033, 874.7354
455.0854, 875.1962
455.5675, 876.0585
456.0497, 874.4146
456.5318, 870.6768
457.0139, 867.6752
457.4960, 867.0228
457.9781, 867.8184
458.4602, 867.5530
458.9424, 865.5411
459.4245, 864.0926
459.9066, 863.7365
460.3887, 864.0712
460.8708, 864.9103
461.3529, 866.1213
461.8351, 867.1885
462.3172, 867.4902
462.7993, 866.9584
463.2814, 867.7891
463.7635, 870.6328
464.2456, 873.9797
464.7278, 878.3686
465.2099, 882.7561
465.6920, 885.3000
466.1741, 885.3765
466.6562, 884.8967
467.1383, 887.3142
467.6205, 893.8378
468.1026, 899.5687
468.5847, 903.6129
469.0668, 907.4993
469.5489, 911.4874
470.0310, 915.8624
470.5132, 921.1988
470.9953, 928.2076
471.4774, 936.0828
471.9595, 942.5261
472.4416, 947.0062
472.9237, 952.0291
473.4059, 959.3121
473.8880, 967.0143
474.3701, 973.2170
474.8522, 977.6175
475.3343, 982.2650
475.8164, 989.5038
476.2986, 997.8382
476.7807, 1003.295
477.2628, 1005.030
477.7449, 1005.928
478.2270, 1007.935
478.7091, 1010.881
479.1913, 1013.884
479.6734, 1017.160
480.1555, 1020.183
480.6376, 1022.917
481.1197, 1025.170
481.6018, 1026.136
482.0839, 1025.440
482.5660, 1024.753
483.0482, 1026.567
483.5303, 1031.874
484.0124, 1036.167
484.4945, 1039.032
484.9766, 1041.331
485.4587, 1043.135
485.9409, 1044.766
486.4230, 1046.963
486.9051, 1050.214
487.3872, 1053.911
487.8693, 1056.092
488.3514, 1055.117
488.8336, 1055.782
489.3157, 1059.870
489.7978, 1064.311
490.2799, 1067.061
490.7620, 1068.098
491.2441, 1068.558
491.7263, 1069.124
492.2084, 1069.877
492.6905, 1071.310
493.1726, 1073.764
493.6547, 1076.079
494.1368, 1077.831
494.6190, 1079.167
495.1011, 1080.121
495.5832, 1080.657
496.0653, 1081.141
496.5474, 1081.707
497.0295, 1082.427
497.5117, 1083.460
497.9938, 1084.761
498.4759, 1086.660
498.9580, 1089.726
499.4401, 1093.733
499.9222, 1097.372
500.4044, 1099.972
500.8865, 1102.798
501.3686, 1105.970
501.8507, 1109.920
502.3328, 1116.013
502.8149, 1124.772
503.2971, 1134.331
503.7792, 1141.897
504.2613, 1146.567
504.7434, 1152.768
505.2255, 1161.676
505.7076, 1170.785
506.1898, 1179.310
506.6719, 1187.092
507.1540, 1194.099
507.6361, 1200.350
508.1182, 1205.575
508.6003, 1209.126
509.0825, 1210.974
509.5646, 1211.216
510.0467, 1209.411
510.5288, 1206.383
511.0109, 1202.624
511.4930, 1198.023
511.9752, 1191.993
512.4573, 1183.495
512.9394, 1173.736
513.4215, 1165.290
513.9036, 1158.124
514.3857, 1152.400
514.8679, 1149.301
515.3500, 1146.839
515.8321, 1142.486
516.3142, 1136.049
516.7963, 1129.043
517.2784, 1121.173
517.7606, 1113.525
518.2427, 1107.785
518.7248, 1104.041
519.2069, 1100.983
519.6890, 1097.811
520.1711, 1094.589
520.6533, 1091.778
521.1354, 1090.080
521.6175, 1087.777
522.0996, 1083.882
522.5817, 1079.665
523.0638, 1076.333
523.5460, 1074.128
524.0281, 1072.830
524.5102, 1072.577
524.9923, 1073.284
525.4744, 1071.348
525.9565, 1064.571
526.4387, 1057.919
526.9208, 1052.386
527.4029, 1047.452
527.8850, 1042.659
528.3671, 1037.867
528.8492, 1033.011
529.3314, 1027.768
529.8135, 1022.263
530.2956, 1017.637
530.7777, 1014.067
531.2598, 1011.184
531.7419, 1008.599
532.2241, 1006.591
532.7062, 1005.802
533.1883, 1006.768
533.6704, 1008.125
534.1525, 1008.855
534.6346, 1009.286
535.1168, 1010.033
535.5989, 1011.182
536.0810, 1013.216
536.5631, 1016.654
537.0452, 1021.582
537.5273, 1027.171
538.0095, 1033.857
538.4916, 1040.662
538.9737, 1046.007
539.4558, 1051.676
539.9379, 1060.294
540.4200, 1072.678
540.9022, 1087.796
541.3843, 1104.006
541.8664, 1120.935
542.3485, 1141.154
542.8306, 1166.690
543.3127, 1193.412
543.7948, 1219.910
544.2769, 1246.744
544.7590, 1275.689
545.2411, 1308.003
545.7233, 1338.728
546.2054, 1362.643
546.6875, 1379.721
547.1696, 1388.292
547.6517, 1388.069
548.1339, 1379.396
548.6160, 1359.461
549.0981, 1331.027
549.5802, 1300.314
550.0623, 1266.421
550.5444, 1232.889
551.0266, 1200.479
551.5087, 1170.172
551.9908, 1144.415
552.4729, 1124.017
552.9550, 1106.928
553.4371, 1090.473
553.9193, 1074.032
554.4014, 1062.154
554.8835, 1057.107
555.3656, 1053.410
555.8477, 1049.035
556.3298, 1044.722
556.8120, 1041.937
557.2941, 1041.167
557.7762, 1041.474
558.2583, 1041.507
558.7404, 1041.161
559.2225, 1041.403
559.7047, 1042.415
560.1868, 1043.838
560.6689, 1045.343
561.1510, 1047.118
561.6331, 1049.576
562.1152, 1052.996
562.5974, 1056.654
563.0795, 1059.955
563.5616, 1062.944
564.0437, 1065.636
564.5258, 1067.913
565.0079, 1070.496
565.4901, 1073.930
565.9722, 1078.301
566.4543, 1083.651
566.9364, 1091.552
567.4185, 1098.641
567.9006, 1103.096
568.3828, 1106.169
568.8649, 1109.709
569.3470, 1114.158
569.8291, 1118.732
570.3112, 1122.360
570.7933, 1124.953
571.2755, 1128.488
571.7576, 1133.757
572.2397, 1139.028
572.7218, 1144.181
573.2039, 1148.985
573.6860, 1152.919
574.1682, 1155.910
574.6503, 1159.134
575.1324, 1164.415
575.6145, 1171.017
576.0966, 1175.277
576.5787, 1176.339
577.0609, 1177.525
577.5430, 1180.875
578.0251, 1185.750
578.5072, 1190.339
578.9893, 1194.002
579.4714, 1198.744
579.9536, 1206.399
580.4357, 1214.995
580.9178, 1222.232
581.3999, 1227.819
581.8820, 1232.466
582.3641, 1236.442
582.8463, 1240.167
583.3284, 1246.154
583.8105, 1256.310
584.2926, 1266.106
584.7747, 1274.730
585.2568, 1283.289
585.7390, 1292.659
586.2211, 1302.847
586.7032, 1313.375
587.1853, 1324.087
587.6674, 1334.771
588.1495, 1344.731
588.6317, 1353.955
589.1138, 1362.611
589.5959, 1370.699
590.0780, 1378.317
590.5601, 1385.519
591.0422, 1392.320
591.5244, 1398.861
592.0065, 1405.469
592.4886, 1411.580
592.9707, 1416.613
593.4528, 1420.623
593.9349, 1423.793
594.4171, 1426.127
594.8992, 1428.089
595.3813, 1430.605
595.8634, 1434.314
596.3455, 1436.622
596.8276, 1437.767
597.3098, 1437.483
597.7919, 1435.038
598.2740, 1431.241
598.7561, 1427.487
599.2382, 1424.364
599.7203, 1420.963
600.2025, 1415.950
600.6846, 1409.345
601.1667, 1402.586
601.6488, 1396.383
602.1309, 1388.967
602.6130, 1378.398
603.0952, 1365.837
603.5773, 1353.802
604.0594, 1343.051
604.5415, 1331.948
605.0236, 1319.785
605.5057, 1306.621
605.9879, 1292.016
606.4700, 1276.156
606.9521, 1260.944
607.4342, 1248.137
607.9163, 1237.413
608.3984, 1226.132
608.8806, 1213.848
609.3627, 1201.620
609.8448, 1189.249
610.3269, 1177.172
610.8090, 1165.844
611.2911, 1155.181
611.7733, 1144.573
612.2554, 1133.190
612.7375, 1121.943
613.2196, 1113.247
613.7017, 1107.322
614.1838, 1101.163
614.6660, 1093.790
615.1481, 1085.879
615.6302, 1077.713
616.1123, 1069.336
616.5944, 1062.386
617.0765, 1058.017
617.5587, 1054.413
618.0408, 1050.433
618.5229, 1046.276
619.0050, 1042.548
619.4871, 1039.453
619.9692, 1036.435
620.4514, 1032.505
620.9335, 1027.225
621.4156, 1024.271
621.8977, 1025.593
622.3798, 1027.028
622.8619, 1027.942
623.3441, 1028.200
623.8262, 1027.105
624.3083, 1024.587
624.7904, 1023.025
625.2725, 1025.308
625.7546, 1030.010
626.2367, 1033.186
626.7188, 1034.573
627.2009, 1035.343
627.6830, 1036.146
628.1652, 1036.691
628.6473, 1036.314
629.1294, 1035.155
629.6115, 1032.938
630.0936, 1028.770
630.5757, 1024.252
631.0579, 1020.415
631.5400, 1017.212
632.0221, 1014.205
632.5042, 1011.187
632.9863, 1008.263
633.4684, 1005.845
633.9506, 1004.238
634.4327, 1001.494
634.9148, 996.6151
635.3969, 991.7317
