##NAMES=Grossular
##RRUFFID=R060446
##IDEAL CHEMISTRY=Ca_3_Al_2_(SiO_4_)_3_
##LOCALITY=Africa
##OWNER=RRUFF
##SOURCE=Gemological Institute of America
##DESCRIPTION=Orange fragment. Variety hibschite.
##STATUS=The identification of this mineral has been confirmed by X-ray diffraction and chemical analysis
##URL=rruff.info/R060446
##MEASURED CHEMISTRY=(Ca_2.97_Mn_0.03_)_Σ=3_(Al_1.96_Fe^3+^_0.04_)_Σ=2_(Si_1.00_O_4_)_2.71_(OH)_1.16_ (x=0.29); OH estimated by charge balance
92.37695, 248.9426
92.85907, 251.1366
93.34119, 251.4298
93.82330, 247.8949
94.30542, 241.5156
94.78754, 232.1805
95.26965, 220.8757
95.75177, 211.1497
96.23389, 205.3736
96.71600, 200.9014
97.19812, 195.3071
97.68024, 188.0816
98.16235, 180.6313
98.64447, 175.0045
99.12659, 172.0041
99.60870, 168.0941
100.0908, 162.3983
100.5729, 156.1493
101.0551, 150.3191
101.5372, 145.2739
102.0193, 141.0010
102.5014, 137.7458
102.9835, 136.1835
103.4656, 134.9668
103.9478, 134.2650
104.4299, 133.7400
104.9120, 132.8486
105.3941, 131.1353
105.8762, 128.4861
106.3583, 125.9067
106.8405, 123.9114
107.3226, 121.5371
107.8047, 117.8809
108.2868, 112.9747
108.7689, 107.9933
109.2510, 104.3367
109.7332, 102.0914
110.2153, 99.91125
110.6974, 97.50199
111.1795, 95.09287
111.6616, 92.96548
112.1437, 91.13439
112.6259, 89.76692
113.1080, 89.15006
113.5901, 89.22290
114.0722, 89.33041
114.5543, 89.07290
115.0364, 88.46432
115.5185, 87.81189
116.0007, 87.00138
116.4828, 86.30385
116.9649, 85.87077
117.4470, 85.72962
117.9291, 85.81688
118.4112, 86.06291
118.8934, 86.48795
119.3755, 87.04072
119.8576, 87.86572
120.3397, 88.71263
120.8218, 89.39988
121.3039, 89.85268
121.7861, 90.10265
122.2682, 90.24550
122.7503, 90.63847
123.2324, 90.46946
123.7145, 89.19076
124.1966, 87.38675
124.6788, 85.90194
125.1609, 85.23209
125.6430, 85.28419
126.1251, 85.24207
126.6072, 85.15061
127.0893, 84.95244
127.5715, 84.60017
128.0536, 84.10745
128.5357, 83.55717
129.0178, 83.03682
129.4999, 82.49718
129.9821, 81.74603
130.4642, 80.61998
130.9463, 79.35537
131.4284, 78.11594
131.9105, 76.86457
132.3926, 75.84409
132.8748, 75.39110
133.3569, 75.29264
133.8390, 75.21760
134.3211, 74.95501
134.8032, 74.59602
135.2853, 74.49405
135.7674, 74.92183
136.2496, 75.23470
136.7317, 75.06398
137.2138, 74.52732
137.6959, 73.93321
138.1780, 73.55367
138.6601, 73.42574
139.1423, 73.12096
139.6244, 72.32291
140.1065, 71.60569
140.5886, 71.20837
141.0707, 71.12649
141.5528, 71.20164
142.0350, 71.27776
142.5171, 71.44617
142.9992, 71.34090
143.4813, 70.79252
143.9634, 70.14316
144.4455, 69.60685
144.9277, 69.24065
145.4098, 68.95834
145.8919, 68.61553
146.3740, 68.10665
146.8561, 67.74260
147.3382, 67.59732
147.8204, 67.58236
148.3025, 67.62885
148.7846, 67.73493
149.2667, 67.81026
149.7488, 67.59187
150.2309, 66.95332
150.7131, 66.48920
151.1952, 66.56004
151.6773, 67.01012
152.1594, 67.34932
152.6415, 67.39382
153.1236, 67.22230
153.6058, 66.99119
154.0879, 66.67912
154.5700, 66.37652
155.0521, 66.16589
155.5342, 66.05145
156.0163, 65.94394
156.4985, 65.73164
156.9806, 65.55819
157.4627, 65.57681
157.9448, 65.84885
158.4269, 66.21008
158.9090, 66.42191
159.3912, 66.44791
159.8733, 66.40092
160.3554, 66.21712
160.8375, 66.02518
161.3196, 65.94620
161.8017, 66.03699
162.2839, 66.24938
162.7660, 66.45017
163.2481, 66.73899
163.7302, 66.86404
164.2123, 66.59901
164.6944, 66.21184
165.1766, 66.07204
165.6587, 66.40820
166.1408, 67.11036
166.6229, 67.45118
167.1050, 66.84093
167.5871, 66.51066
168.0693, 66.95085
168.5514, 67.85945
169.0335, 68.63608
169.5156, 68.88137
169.9977, 68.62359
170.4798, 68.37252
170.9620, 67.96890
171.4441, 67.71510
171.9262, 67.80911
172.4083, 68.20219
172.8904, 68.68246
173.3725, 69.16213
173.8547, 69.58896
174.3368, 69.74772
174.8189, 69.30978
175.3010, 68.83263
175.7831, 68.86176
176.2652, 69.43246
176.7474, 69.97691
177.2295, 70.02951
177.7116, 69.73103
178.1937, 69.41115
178.6758, 69.12286
179.1579, 68.85558
179.6401, 68.62187
180.1222, 68.46732
180.6043, 68.20882
181.0864, 67.64780
181.5685, 66.91947
182.0506, 66.23950
182.5328, 65.71238
183.0149, 65.30460
183.4970, 64.90365
183.9791, 64.47990
184.4612, 64.11947
184.9433, 63.83903
185.4255, 63.63683
185.9076, 63.51258
186.3897, 63.48467
186.8718, 63.54313
187.3539, 63.58184
187.8360, 63.66578
188.3182, 63.65055
188.8003, 63.42399
189.2824, 63.06554
189.7645, 62.72545
190.2466, 62.51851
190.7287, 62.44651
191.2109, 62.45152
191.6930, 62.73911
192.1751, 62.90717
192.6572, 62.71100
193.1393, 62.25972
193.6214, 61.85750
194.1036, 61.79290
194.5857, 62.13205
195.0678, 62.26388
195.5499, 62.09768
196.0320, 61.86059
196.5141, 61.57716
196.9963, 61.29517
197.4784, 61.13856
197.9605, 61.24662
198.4426, 61.66955
198.9247, 61.98298
199.4068, 62.10813
199.8890, 62.19485
200.3711, 62.37873
200.8532, 62.65762
201.3353, 62.87334
201.8174, 62.86112
202.2995, 62.60081
202.7817, 62.37194
203.2638, 62.12390
203.7459, 61.94571
204.2280, 61.93410
204.7101, 62.10293
205.1922, 62.36850
205.6744, 62.75816
206.1565, 63.21754
206.6386, 63.45042
207.1207, 63.21373
207.6028, 62.78857
208.0849, 62.56893
208.5671, 62.61706
209.0492, 62.73464
209.5313, 62.74038
210.0134, 62.69208
210.4955, 62.72366
210.9776, 62.94403
211.4598, 63.27090
211.9419, 63.53275
212.4240, 63.73440
212.9061, 63.84575
213.3882, 63.81982
213.8703, 63.70345
214.3525, 63.56875
214.8346, 63.36276
215.3167, 63.16720
215.7988, 63.34857
216.2809, 64.27729
216.7630, 65.00305
217.2451, 64.99935
217.7273, 64.55692
218.2094, 64.18377
218.6915, 64.20858
219.1736, 64.55855
219.6557, 64.80015
220.1378, 64.89076
220.6200, 64.90735
221.1021, 64.81646
221.5842, 64.68010
222.0663, 64.59237
222.5484, 64.61886
223.0305, 64.74972
223.5127, 64.89201
223.9948, 65.12455
224.4769, 65.27946
224.9590, 65.22677
225.4411, 65.08110
225.9232, 65.04197
226.4054, 65.25451
226.8875, 65.69041
227.3696, 66.03167
227.8517, 66.22989
228.3338, 66.37757
228.8159, 66.43539
229.2981, 66.45914
229.7802, 66.55656
230.2623, 66.81151
230.7444, 67.19626
231.2265, 67.38293
231.7086, 67.09904
232.1908, 66.92973
232.6729, 67.14323
233.1550, 67.57561
233.6371, 67.88118
234.1192, 67.83043
234.6013, 67.49033
235.0835, 67.36809
235.5656, 67.59361
236.0477, 67.84586
236.5298, 68.06059
237.0119, 68.23131
237.4940, 68.35949
237.9762, 68.44887
238.4583, 68.49125
238.9404, 68.44698
239.4225, 68.12516
239.9046, 67.93932
240.3867, 68.17336
240.8689, 68.66405
241.3510, 68.97047
241.8331, 68.80782
242.3152, 68.39383
242.7973, 68.40108
243.2794, 69.10096
243.7616, 69.71688
244.2437, 69.84464
244.7258, 69.61064
245.2079, 69.43472
245.6900, 69.58548
246.1721, 69.76358
246.6543, 69.36208
247.1364, 68.24397
247.6185, 67.01182
248.1006, 65.85975
248.5827, 64.81744
249.0648, 63.98723
249.5470, 63.44158
250.0291, 63.09007
250.5112, 62.79366
250.9933, 62.56067
251.4754, 62.31994
251.9576, 62.00248
252.4397, 61.63392
252.9218, 61.31087
253.4039, 61.03518
253.8860, 60.85443
254.3681, 60.80598
254.8503, 60.88744
255.3324, 61.03887
255.8145, 61.31181
256.2966, 61.65588
256.7787, 61.78271
257.2608, 61.48793
257.7430, 61.16499
258.2251, 61.21824
258.7072, 61.58389
259.1893, 61.83695
259.6714, 61.55266
260.1535, 60.86366
260.6357, 60.53083
261.1178, 60.79503
261.5999, 61.21925
262.0820, 61.61622
262.5641, 61.94740
263.0462, 62.10054
263.5284, 61.80245
264.0105, 61.18494
264.4926, 61.08238
264.9747, 61.87377
265.4568, 62.65658
265.9389, 62.94292
266.4211, 62.90003
266.9032, 62.87288
267.3853, 63.08643
267.8674, 63.47674
268.3495, 63.75055
268.8316, 63.77301
269.3138, 63.88865
269.7959, 64.31716
270.2780, 64.88827
270.7601, 65.35323
271.2422, 65.58046
271.7243, 65.61179
272.2065, 65.54887
272.6886, 65.22832
273.1707, 65.10561
273.6528, 65.49234
274.1349, 66.04353
274.6170, 66.34744
275.0992, 66.20839
275.5813, 65.78101
276.0634, 65.44576
276.5455, 65.25245
277.0276, 65.06113
277.5097, 64.79716
277.9919, 64.54577
278.4740, 64.45576
278.9561, 64.57607
279.4382, 64.68976
279.9203, 64.34402
280.4024, 63.25539
280.8846, 62.30230
281.3667, 61.50605
281.8488, 60.89566
282.3309, 60.52393
282.8130, 60.39375
283.2951, 60.43202
283.7773, 60.57258
284.2594, 60.93954
284.7415, 61.08834
285.2236, 60.87447
285.7057, 60.57516
286.1878, 60.34961
286.6700, 60.21725
287.1521, 60.09605
287.6342, 59.87172
288.1163, 59.48382
288.5984, 59.24127
289.0805, 59.25727
289.5627, 59.30458
290.0448, 59.31364
290.5269, 59.26493
291.0090, 59.13787
291.4911, 58.88076
291.9732, 58.46363
292.4554, 58.30743
292.9375, 58.73658
293.4196, 59.09911
293.9017, 59.15100
294.3838, 58.96609
294.8659, 58.72801
295.3481, 58.55641
295.8302, 58.45281
296.3123, 58.44775
296.7944, 58.76089
297.2765, 58.93834
297.7586, 58.80355
298.2408, 58.49376
298.7229, 58.20670
299.2050, 58.05085
299.6871, 58.00647
300.1692, 57.99991
300.6513, 58.04276
301.1335, 58.11611
301.6156, 58.18383
302.0977, 58.29427
302.5798, 58.54918
303.0619, 58.98191
303.5440, 59.45646
304.0262, 59.68190
304.5083, 59.44029
304.9904, 59.25677
305.4725, 59.18812
305.9546, 59.14546
306.4367, 59.02036
306.9189, 58.80340
307.4010, 58.61729
307.8831, 58.65788
308.3652, 59.09524
308.8473, 59.30742
309.3294, 59.10032
309.8116, 58.86365
310.2937, 58.84894
310.7758, 59.05590
311.2579, 59.31749
311.7400, 59.46197
312.2221, 59.46319
312.7043, 59.54313
313.1864, 59.86270
313.6685, 60.09410
314.1506, 60.01647
314.6327, 59.73444
315.1148, 59.52313
315.5970, 59.59563
316.0791, 59.92471
316.5612, 60.13320
317.0433, 60.06049
317.5254, 60.04763
318.0075, 60.19713
318.4897, 60.44515
318.9718, 60.71109
319.4539, 60.95721
319.9360, 61.15848
320.4181, 61.23306
320.9002, 61.04519
321.3824, 60.89064
321.8645, 60.76309
322.3466, 60.68515
322.8287, 60.68578
323.3108, 60.77238
323.7929, 60.91608
324.2751, 61.06120
324.7572, 61.15217
325.2393, 61.36407
325.7214, 61.83515
326.2035, 62.30996
326.6856, 62.60592
327.1678, 62.70891
327.6499, 62.73513
328.1320, 62.80846
328.6141, 62.93989
329.0962, 63.06630
329.5783, 63.23486
330.0605, 63.35569
330.5426, 63.29867
331.0247, 63.15075
331.5068, 63.15961
331.9889, 63.55544
332.4710, 64.29159
332.9532, 64.60329
333.4353, 63.87890
333.9174, 63.37804
334.3995, 63.42686
334.8816, 63.82771
335.3637, 64.31303
335.8459, 64.74905
336.3280, 65.13599
336.8101, 65.45431
337.2922, 65.59791
337.7743, 65.83685
338.2564, 66.22395
338.7386, 66.68926
339.2206, 67.20640
339.7028, 67.75662
340.1849, 68.26989
340.6670, 68.61710
341.1491, 68.67532
341.6312, 68.87524
342.1133, 69.19292
342.5955, 69.64759
343.0776, 70.36073
343.5597, 71.26044
344.0418, 72.08479
344.5239, 72.54317
345.0060, 72.60074
345.4882, 72.90648
345.9703, 73.68223
346.4524, 74.51076
346.9345, 75.31209
347.4166, 76.08505
347.8987, 76.86591
348.3809, 77.68832
348.8630, 78.50807
349.3451, 79.10285
349.8272, 79.22035
350.3093, 79.51600
350.7914, 80.18583
351.2736, 81.03616
351.7557, 81.87979
352.2378, 82.65298
352.7199, 83.39453
353.2020, 84.15755
353.6841, 84.93395
354.1663, 85.75700
354.6484, 86.68947
355.1305, 87.62392
355.6126, 88.45184
356.0947, 89.18941
356.5768, 89.98025
357.0590, 91.02815
357.5411, 92.34483
358.0232, 93.46036
358.5053, 94.14146
358.9874, 94.87360
359.4695, 95.98774
359.9517, 97.29666
360.4338, 98.37505
360.9159, 98.86504
361.3980, 99.02384
361.8801, 99.71574
362.3622, 101.2292
362.8444, 102.6346
363.3265, 103.6615
363.8086, 104.3996
364.2907, 104.9030
364.7728, 105.1773
365.2549, 105.2955
365.7371, 105.3326
366.2192, 105.2836
366.7013, 105.2004
367.1834, 105.0989
367.6655, 104.9591
368.1476, 104.8093
368.6298, 104.6383
369.1119, 104.3231
369.5940, 103.8246
370.0761, 103.1221
370.5582, 102.0834
371.0403, 100.5869
371.5225, 98.94457
372.0046, 97.40150
372.4867, 95.89049
372.9688, 94.21923
373.4509, 92.25614
373.9330, 90.13876
374.4152, 88.02099
374.8973, 85.89433
375.3794, 83.90501
375.8615, 82.15063
376.3436, 80.59258
376.8257, 79.16570
377.3079, 77.88661
377.7900, 76.67796
378.2721, 75.41126
378.7542, 74.14399
379.2363, 73.16066
379.7184, 72.61633
380.2006, 72.25359
380.6827, 71.73817
381.1648, 71.07674
381.6469, 70.44024
382.1290, 69.88349
382.6111, 69.38023
383.0933, 68.91351
383.5754, 68.48233
384.0575, 68.02312
384.5396, 67.41116
385.0217, 66.70578
385.5038, 66.27247
385.9860, 66.36999
386.4681, 66.52052
386.9502, 66.39597
387.4323, 66.07088
387.9144, 65.84022
388.3965, 65.88499
388.8787, 66.04561
389.3608, 65.85153
389.8429, 65.02897
390.3250, 64.48278
390.8071, 64.60104
391.2892, 65.00514
391.7714, 65.28805
392.2535, 65.35012
392.7356, 65.22095
393.2177, 64.90427
393.6998, 64.33581
394.1819, 63.89737
394.6641, 63.53592
395.1462, 63.33552
395.6283, 63.42555
396.1104, 63.73170
396.5925, 64.05987
397.0746, 64.29653
397.5568, 64.43607
398.0389, 64.44792
398.5210, 64.26073
399.0031, 64.02624
399.4852, 63.72409
399.9673, 63.39865
400.4495, 63.08367
400.9316, 62.79391
401.4137, 62.53729
401.8958, 62.29930
402.3779, 61.96846
402.8600, 61.98093
403.3422, 62.75468
403.8243, 63.45162
404.3064, 63.57244
404.7885, 63.21902
405.2706, 62.82164
405.7527, 62.72277
406.2349, 62.86880
406.7170, 62.82470
407.1991, 62.39246
407.6812, 62.05161
408.1633, 62.02562
408.6454, 62.09415
409.1276, 61.98584
409.6097, 61.59964
410.0918, 61.12040
410.5739, 60.83793
411.0560, 60.80020
411.5381, 60.70977
412.0203, 60.51770
412.5024, 60.26117
412.9845, 59.95328
413.4666, 59.59878
413.9487, 59.20595
414.4308, 58.77372
414.9130, 58.30814
415.3951, 57.85127
415.8772, 57.44892
416.3593, 56.94075
416.8414, 56.03531
417.3235, 55.02644
417.8057, 54.35557
418.2878, 54.24513
418.7699, 54.26287
419.2520, 53.97959
419.7341, 53.42454
420.2162, 52.85305
420.6984, 52.25731
421.1805, 51.79638
421.6626, 51.78212
422.1447, 52.22053
422.6268, 52.44011
423.1089, 51.96938
423.5911, 51.24172
424.0732, 50.91595
424.5553, 51.06712
425.0374, 51.17926
425.5195, 50.79221
426.0016, 50.00886
426.4838, 49.57815
426.9659, 49.75674
427.4480, 50.00416
427.9301, 50.13425
428.4122, 50.15162
428.8943, 50.04686
429.3765, 49.80734
429.8586, 49.51018
430.3407, 49.28722
430.8228, 49.16362
431.3049, 49.07257
431.7870, 49.00008
432.2692, 48.97107
432.7513, 49.04678
433.2334, 49.19923
433.7155, 49.31379
434.1976, 49.29680
434.6797, 49.15514
435.1619, 48.98407
435.6440, 48.69576
436.1261, 48.47948
436.6082, 48.48730
437.0903, 48.53273
437.5724, 48.34261
438.0546, 47.83585
438.5367, 47.25780
439.0188, 47.00212
439.5009, 47.15113
439.9830, 47.35961
440.4651, 47.75813
440.9473, 48.09159
441.4294, 48.19837
441.9115, 48.13305
442.3936, 48.07427
442.8757, 48.17297
443.3578, 48.34540
443.8400, 48.27576
444.3221, 47.85340
444.8042, 47.46474
445.2863, 47.29173
445.7684, 47.19263
446.2505, 47.01917
446.7327, 46.73278
447.2148, 46.50171
447.6969, 46.53105
448.1790, 46.76723
448.6611, 46.90778
449.1432, 46.88802
449.6254, 46.80190
450.1075, 46.71191
450.5896, 46.61969
451.0717, 46.52964
451.5538, 46.36257
452.0359, 46.25636
452.5181, 46.45831
453.0002, 46.90509
453.4823, 47.11876
453.9644, 46.79660
454.4465, 46.21507
454.9286, 46.03910
455.4108, 46.41271
455.8929, 46.66912
456.3750, 46.58962
456.8571, 46.35445
457.3392, 46.12343
457.8214, 45.93253
458.3035, 45.80434
458.7856, 45.76439
459.2677, 45.81370
459.7498, 45.87017
460.2319, 45.99009
460.7141, 46.05237
461.1962, 45.94369
461.6783, 45.78164
462.1604, 45.76344
462.6425, 45.95838
463.1246, 46.21527
463.6068, 46.25643
464.0889, 45.95138
464.5710, 45.77684
465.0531, 45.77282
465.5352, 45.85278
466.0173, 46.05170
466.4995, 46.30488
466.9816, 46.46518
467.4637, 46.41616
467.9458, 46.23043
468.4279, 46.14855
468.9100, 46.21920
469.3922, 46.26684
469.8743, 46.21217
470.3564, 46.13036
470.8385, 46.12285
471.3206, 46.19996
471.8027, 46.17120
472.2849, 45.73100
472.7670, 45.03876
473.2491, 44.76599
473.7312, 45.09286
474.2133, 45.48996
474.6954, 45.55651
475.1776, 45.40907
475.6597, 45.30418
476.1418, 45.27201
476.6239, 45.30463
477.1060, 45.46398
477.5881, 45.69011
478.0703, 45.79828
478.5524, 45.71665
479.0345, 45.53054
479.5166, 45.34459
479.9987, 45.14483
480.4808, 45.01936
480.9630, 45.03480
481.4451, 45.07542
481.9272, 45.06660
482.4093, 45.01291
482.8914, 44.93280
483.3735, 44.82563
483.8557, 44.73411
484.3378, 44.82038
484.8199, 45.41136
485.3020, 45.70354
485.7841, 45.46158
486.2662, 45.06897
486.7484, 44.77342
487.2305, 44.63012
487.7126, 44.61370
488.1947, 44.71553
488.6768, 44.92987
489.1589, 45.17836
489.6411, 45.58562
490.1232, 45.81975
490.6053, 45.68834
491.0874, 45.39637
491.5695, 45.16702
492.0516, 45.06247
492.5338, 45.02230
493.0159, 44.98394
493.4980, 44.95240
493.9801, 44.97921
494.4622, 45.09143
494.9443, 45.22661
495.4265, 45.28978
495.9086, 45.32790
496.3907, 45.49151
496.8728, 46.00628
497.3549, 46.49250
497.8370, 46.55268
498.3192, 46.29549
498.8013, 46.11680
499.2834, 46.16074
499.7655, 46.36895
500.2476, 46.67353
500.7297, 47.12061
501.2119, 47.49632
501.6940, 47.74806
502.1761, 47.95654
502.6582, 48.20781
503.1403, 48.47240
503.6224, 48.63935
504.1045, 48.63165
504.5866, 48.49875
505.0688, 48.41182
505.5509, 48.30246
506.0330, 48.36092
506.5151, 48.60001
506.9972, 48.99140
507.4793, 49.70334
507.9615, 50.61538
508.4436, 51.23458
508.9257, 51.04519
509.4078, 50.20267
509.8899, 49.66534
510.3720, 49.50472
510.8542, 49.49454
511.3363, 49.69059
511.8184, 49.91932
512.3005, 49.98341
512.7827, 49.83418
513.2648, 49.67412
513.7469, 49.67419
514.2290, 49.78222
514.7111, 49.84361
515.1932, 49.83337
515.6754, 49.79722
516.1575, 49.70509
516.6396, 49.61511
517.1217, 49.75977
517.6038, 50.39826
518.0859, 50.98098
518.5681, 51.21516
519.0502, 51.24075
519.5323, 51.25956
520.0144, 51.33163
520.4965, 51.49832
520.9786, 51.83623
521.4608, 52.40404
521.9429, 52.78197
522.4250, 52.83769
522.9071, 52.88385
523.3892, 53.04490
523.8713, 53.26435
524.3535, 53.41845
524.8356, 53.45753
525.3177, 53.50482
525.7998, 53.82148
526.2819, 54.50940
526.7640, 54.94864
527.2462, 54.89899
527.7283, 54.79644
528.2104, 54.83079
528.6925, 54.97586
529.1746, 55.15075
529.6567, 55.31123
530.1389, 55.50139
530.6210, 55.82239
531.1031, 56.26225
531.5852, 56.60386
532.0673, 56.76567
532.5494, 56.83580
533.0316, 56.91372
533.5137, 56.99849
533.9958, 57.06246
534.4779, 57.02541
534.9600, 57.02686
535.4421, 57.19579
535.9243, 57.50222
536.4064, 57.86665
536.8885, 58.26611
537.3706, 58.61769
537.8527, 58.73075
538.3348, 58.42028
538.8170, 58.23761
539.2991, 58.18296
539.7812, 58.24480
540.2633, 58.50592
540.7454, 58.87997
541.2275, 59.17481
541.7097, 59.27502
542.1918, 59.21701
542.6739, 59.10416
543.1560, 58.96456
543.6381, 58.67706
544.1202, 58.16050
544.6024, 57.52834
545.0845, 56.82691
545.5666, 56.06375
546.0487, 55.27316
546.5308, 54.44877
547.0129, 53.61454
547.4951, 52.82875
547.9772, 52.08793
548.4593, 51.29139
548.9414, 50.34495
549.4235, 49.38776
549.9056, 48.71437
550.3878, 48.36288
550.8699, 47.98832
551.3520, 47.53059
551.8341, 47.02695
552.3162, 46.42598
552.7983, 45.79228
553.2805, 45.35505
553.7626, 45.26604
554.2447, 45.37938
554.7268, 45.25663
555.2089, 44.65850
555.6910, 44.25087
556.1732, 44.24458
556.6553, 44.24155
557.1374, 43.95252
557.6195, 43.43816
558.1016, 42.95240
558.5837, 42.64193
559.0659, 42.47654
559.5480, 42.41996
560.0301, 42.50090
560.5122, 42.51147
560.9943, 42.29885
561.4764, 42.08612
561.9586, 42.11408
562.4407, 42.36773
562.9228, 42.60286
563.4049, 42.78267
563.8870, 42.86391
564.3691, 42.72584
564.8513, 42.41779
565.3334, 42.21233
565.8155, 42.25301
566.2976, 42.39896
566.7797, 42.36807
567.2618, 41.99278
567.7440, 41.84098
568.2261, 42.16378
568.7082, 42.47833
569.1903, 42.46292
569.6724, 42.21156
570.1545, 41.98480
570.6367, 41.92104
571.1188, 41.96972
571.6009, 42.03558
572.0830, 42.12854
572.5651, 42.20383
573.0472, 42.30145
573.5294, 42.33099
574.0115, 42.15528
574.4936, 41.86956
574.9757, 41.74368
575.4578, 41.97200
575.9399, 42.29253
576.4221, 42.37235
576.9042, 42.25933
577.3863, 42.26449
577.8684, 42.52888
578.3505, 42.77430
578.8326, 42.61572
579.3148, 42.01199
579.7969, 41.66212
580.2790, 41.84895
580.7611, 42.01794
581.2432, 41.81755
581.7253, 41.44124
582.2075, 41.23277
582.6896, 41.30880
583.1717, 41.51049
583.6538, 41.61884
584.1359, 41.61464
584.6180, 41.65562
585.1002, 41.79974
585.5823, 41.92071
586.0643, 41.98973
586.5464, 42.00907
587.0286, 41.99063
