##NAMES=Grossular
##RRUFFID=R050081
##IDEAL CHEMISTRY=Ca_3_Al_2_(SiO_4_)_3_
##LOCALITY=Kayes Region, Mali
##OWNER=RRUFF
##SOURCE=Rock Currier
##DESCRIPTION=Dark brown dodecahedron
##STATUS=The identification of this mineral has been confirmed by X-ray diffraction and chemical analysis
##URL=rruff.info/R050081
##MEASURED CHEMISTRY=(Ca_2.92_Mg_0.07_Mn_0.01_)_Σ=3_(Al_1.04_Fe^3+^_0.89_Ti_0.07_)_Σ=2_((Si_0.98_Al_0.02_)_Σ=1_O_4_)_3_; trace amounts of Y
146.0895, 373.0880
146.5716, 383.7536
147.0537, 395.7465
147.5358, 409.2079
148.0179, 423.3810
148.5001, 439.6515
148.9822, 455.5926
149.4643, 469.3544
149.9464, 480.9638
150.4285, 491.7706
150.9106, 503.2774
151.3928, 515.1031
151.8749, 524.6401
152.3570, 528.7997
152.8391, 532.3770
153.3212, 541.3333
153.8033, 556.2829
154.2855, 569.6907
154.7676, 575.0592
155.2497, 573.5995
155.7318, 570.5562
156.2139, 564.4730
156.6960, 558.2849
157.1782, 554.8838
157.6603, 554.3080
158.1424, 557.1187
158.6245, 565.1019
159.1066, 576.9816
159.5887, 590.2557
160.0709, 608.3643
160.5530, 625.9958
161.0351, 632.7921
161.5172, 625.2255
161.9993, 619.1418
162.4814, 627.6179
162.9636, 645.5374
163.4457, 665.0402
163.9278, 685.8853
164.4099, 705.9254
164.8920, 719.2859
165.3741, 722.6054
165.8563, 728.6966
166.3384, 748.7784
166.8205, 776.6631
167.3026, 802.2248
167.7847, 820.5318
168.2668, 834.2860
168.7490, 848.8250
169.2311, 863.4354
169.7132, 880.8270
170.1953, 903.2288
170.6774, 928.9520
171.1595, 955.4861
171.6417, 980.8438
172.1238, 1006.627
172.6059, 1037.356
173.0880, 1075.170
173.5701, 1113.895
174.0522, 1149.810
174.5344, 1185.183
175.0165, 1224.459
175.4986, 1275.962
175.9807, 1329.290
176.4628, 1355.202
176.9449, 1345.090
177.4271, 1321.069
177.9092, 1290.411
178.3913, 1253.896
178.8734, 1212.062
179.3555, 1163.712
179.8376, 1110.968
180.3197, 1058.354
180.8019, 1001.132
181.2840, 953.4200
181.7661, 919.5840
182.2482, 895.8004
182.7303, 878.6083
183.2124, 867.3871
183.6946, 859.9331
184.1767, 849.3058
184.6588, 831.3229
185.1409, 817.8909
185.6230, 813.7097
186.1051, 814.4619
186.5873, 815.6761
187.0694, 815.5709
187.5515, 813.9290
188.0336, 809.5332
188.5157, 798.9493
188.9978, 791.8062
189.4800, 791.0356
189.9621, 793.7878
190.4442, 797.6764
190.9263, 801.8123
191.4084, 805.5007
191.8905, 806.9369
192.3727, 805.0437
192.8548, 802.6370
193.3369, 799.3542
193.8190, 796.2659
194.3011, 794.0135
194.7832, 792.8254
195.2654, 793.3541
195.7475, 797.6764
196.2296, 809.9877
196.7117, 818.1105
197.1938, 818.8531
197.6759, 816.4217
198.1581, 813.3547
198.6402, 810.6563
199.1223, 809.7365
199.6044, 814.3253
200.0865, 830.6510
200.5686, 839.6977
201.0508, 833.9622
201.5329, 825.3209
202.0150, 823.4191
202.4971, 830.7276
202.9792, 842.0542
203.4613, 848.9932
203.9435, 849.2579
204.4256, 850.0974
204.9077, 853.8699
205.3898, 856.9069
205.8719, 855.4091
206.3540, 849.2156
206.8362, 842.5989
207.3183, 842.5810
207.8004, 854.6105
208.2825, 859.0623
208.7646, 847.0706
209.2467, 835.1495
209.7289, 834.8561
210.2110, 846.3111
210.6931, 859.8585
211.1752, 863.1555
211.6573, 851.4939
212.1395, 846.9494
212.6216, 854.8524
213.1037, 864.7668
213.5858, 871.4637
214.0679, 875.0930
214.5500, 879.1976
215.0322, 887.7493
215.5143, 901.7798
215.9964, 913.2188
216.4785, 919.2737
216.9606, 925.4165
217.4427, 934.7690
217.9249, 946.2446
218.4070, 956.4283
218.8891, 962.2763
219.3712, 963.6628
219.8533, 965.2500
220.3354, 960.4579
220.8176, 962.5505
221.2997, 977.5444
221.7818, 1002.348
222.2639, 1031.216
222.7460, 1060.797
223.2281, 1090.812
223.7103, 1115.646
224.1924, 1131.535
224.6745, 1145.894
225.1566, 1155.659
225.6387, 1165.779
226.1208, 1184.925
226.6030, 1219.321
227.0851, 1263.480
227.5672, 1293.571
228.0493, 1294.166
228.5314, 1301.196
229.0135, 1319.718
229.4957, 1347.752
229.9778, 1385.269
230.4599, 1432.682
230.9420, 1483.943
231.4241, 1524.115
231.9062, 1547.201
232.3884, 1568.352
232.8705, 1589.183
233.3526, 1609.407
233.8347, 1628.134
234.3168, 1645.144
234.7989, 1662.733
235.2811, 1685.628
235.7632, 1718.153
236.2453, 1745.735
236.7274, 1759.065
237.2095, 1773.410
237.6916, 1800.174
238.1738, 1840.986
238.6559, 1888.198
239.1380, 1934.593
239.6201, 1982.476
240.1022, 2020.876
240.5843, 2058.857
241.0665, 2079.564
241.5486, 2071.660
242.0307, 2036.368
242.5128, 1984.478
242.9949, 1924.918
243.4770, 1857.505
243.9592, 1782.945
244.4413, 1690.462
244.9234, 1600.047
245.4055, 1516.645
245.8876, 1441.057
246.3697, 1374.077
246.8519, 1316.292
247.3340, 1267.176
247.8161, 1224.838
248.2982, 1187.799
248.7803, 1160.666
249.2624, 1148.894
249.7446, 1146.166
250.2267, 1142.416
250.7088, 1131.718
251.1909, 1117.025
251.6730, 1106.671
252.1551, 1101.262
252.6373, 1099.251
253.1194, 1101.088
253.6015, 1105.203
254.0836, 1110.073
254.5657, 1115.190
255.0478, 1120.714
255.5300, 1127.829
256.0121, 1137.840
256.4942, 1144.343
256.9763, 1138.755
257.4584, 1132.826
257.9406, 1137.665
258.4227, 1155.982
258.9048, 1174.622
259.3869, 1177.374
259.8690, 1163.331
260.3511, 1154.493
260.8333, 1155.825
261.3154, 1163.404
261.7975, 1175.387
262.2796, 1191.354
262.7617, 1208.375
263.2438, 1224.211
263.7260, 1239.280
264.2081, 1255.731
264.6902, 1273.553
265.1723, 1293.307
265.6544, 1316.420
266.1365, 1341.912
266.6187, 1366.187
267.1008, 1382.556
267.5829, 1397.474
268.0650, 1427.599
268.5471, 1478.202
269.0292, 1527.860
269.5114, 1562.605
269.9935, 1586.042
270.4756, 1602.274
270.9577, 1609.234
271.4398, 1611.944
271.9219, 1618.409
272.4041, 1628.974
272.8862, 1631.010
273.3683, 1617.211
273.8504, 1590.435
274.3325, 1557.017
274.8146, 1511.606
275.2968, 1469.675
275.7789, 1441.261
276.2610, 1424.975
276.7431, 1416.351
277.2252, 1417.042
277.7073, 1420.427
278.1895, 1414.784
278.6716, 1398.690
279.1537, 1382.772
279.6358, 1369.288
280.1179, 1358.824
280.6000, 1353.393
281.0822, 1353.921
281.5643, 1356.407
282.0464, 1356.536
282.5285, 1354.256
283.0106, 1350.297
283.4927, 1344.281
283.9749, 1336.894
284.4570, 1327.154
284.9391, 1315.500
285.4212, 1307.089
285.9033, 1308.484
286.3854, 1318.971
286.8676, 1315.216
287.3497, 1279.222
287.8318, 1247.734
288.3139, 1241.842
288.7960, 1255.244
289.2781, 1270.172
289.7603, 1277.061
290.2424, 1277.582
290.7245, 1278.474
291.2066, 1280.346
291.6887, 1281.811
292.1708, 1281.859
292.6530, 1281.669
293.1351, 1282.175
293.6172, 1283.758
294.0993, 1287.406
294.5814, 1295.148
295.0635, 1311.061
295.5457, 1323.386
296.0278, 1329.745
296.5099, 1334.454
296.9920, 1339.843
297.4741, 1346.551
297.9562, 1354.628
298.4384, 1364.383
298.9205, 1376.192
299.4026, 1387.194
299.8847, 1400.181
300.3668, 1409.630
300.8489, 1410.530
301.3311, 1406.407
301.8131, 1404.432
302.2953, 1409.343
302.7774, 1420.184
303.2595, 1432.396
303.7416, 1448.590
304.2237, 1462.139
304.7058, 1469.908
305.1880, 1475.415
305.6701, 1482.767
306.1522, 1493.548
306.6343, 1505.264
307.1164, 1513.170
307.5985, 1515.576
308.0807, 1520.369
308.5628, 1528.636
309.0449, 1540.047
309.5270, 1554.995
310.0091, 1573.401
310.4912, 1593.958
310.9734, 1617.019
311.4555, 1642.150
311.9376, 1663.231
312.4197, 1675.306
312.9018, 1689.916
313.3839, 1713.022
313.8661, 1743.776
314.3482, 1780.215
314.8303, 1825.330
315.3124, 1873.918
315.7945, 1917.466
316.2766, 1955.881
316.7588, 1989.198
317.2409, 2011.057
317.7230, 2029.633
318.2051, 2059.939
318.6872, 2111.536
319.1693, 2161.017
319.6515, 2190.772
320.1336, 2203.152
320.6157, 2209.304
321.0978, 2213.108
321.5799, 2211.795
322.0620, 2199.813
322.5442, 2176.922
323.0263, 2150.315
323.5084, 2123.997
323.9905, 2094.148
324.4726, 2050.899
324.9547, 1992.567
325.4369, 1938.535
325.9190, 1909.010
326.4011, 1907.052
326.8832, 1898.621
327.3653, 1874.241
327.8474, 1852.252
328.3296, 1844.948
328.8117, 1849.035
329.2938, 1853.031
329.7759, 1849.810
330.2580, 1841.988
330.7401, 1841.551
331.2223, 1852.706
331.7044, 1866.140
332.1865, 1885.550
332.6686, 1904.705
333.1507, 1914.823
333.6328, 1913.901
334.1150, 1910.504
334.5971, 1919.023
335.0792, 1948.818
335.5613, 1964.628
336.0434, 1954.861
336.5255, 1943.095
337.0077, 1941.563
337.4898, 1949.157
337.9719, 1958.126
338.4540, 1962.724
338.9361, 1963.252
339.4182, 1960.944
339.9004, 1944.025
340.3825, 1942.908
340.8646, 1976.145
341.3467, 2024.760
341.8288, 2063.398
342.3109, 2081.214
342.7931, 2093.026
343.2752, 2120.484
343.7573, 2164.996
344.2394, 2215.796
344.7215, 2271.986
345.2036, 2333.083
345.6858, 2400.194
346.1679, 2473.270
346.6500, 2546.656
347.1321, 2612.783
347.6142, 2676.456
348.0963, 2752.247
348.5785, 2843.335
349.0606, 2941.512
349.5427, 3038.011
350.0248, 3136.332
350.5069, 3248.296
350.9890, 3383.620
351.4712, 3527.888
351.9533, 3669.164
352.4354, 3809.140
352.9175, 3955.218
353.3996, 4107.791
353.8817, 4272.109
354.3639, 4465.339
354.8460, 4687.796
355.3281, 4927.805
355.8102, 5195.315
356.2923, 5473.165
356.7744, 5735.807
357.2566, 5979.590
357.7387, 6218.145
358.2208, 6468.431
358.7029, 6736.436
359.1850, 6984.258
359.6671, 7232.792
360.1493, 7443.600
360.6314, 7597.306
361.1135, 7699.827
361.5956, 7762.110
362.0777, 7788.655
362.5598, 7787.607
363.0420, 7786.813
363.5241, 7770.085
364.0062, 7781.952
364.4883, 7832.869
364.9704, 7907.330
365.4525, 7985.125
365.9347, 8064.679
366.4168, 8173.825
366.8989, 8351.252
367.3810, 8602.491
367.8631, 8853.977
368.3452, 9109.082
368.8274, 9357.679
369.3095, 9610.145
369.7916, 9854.374
370.2737, 10062.14
370.7558, 10227.81
371.2379, 10343.78
371.7201, 10404.38
372.2022, 10413.21
372.6843, 10331.35
373.1664, 10121.29
373.6485, 9816.004
374.1306, 9477.946
374.6128, 9111.931
375.0949, 8702.797
375.5770, 8215.915
376.0591, 7687.600
376.5412, 7190.604
377.0233, 6740.144
377.5055, 6316.957
377.9876, 5896.916
378.4697, 5480.855
378.9518, 5113.012
379.4339, 4812.964
379.9160, 4545.473
380.3982, 4297.245
380.8803, 4066.486
381.3624, 3855.874
381.8445, 3666.979
382.3266, 3498.290
382.8087, 3342.144
383.2909, 3197.697
383.7730, 3070.750
384.2551, 2972.986
384.7372, 2885.179
385.2193, 2787.360
385.7014, 2679.020
386.1836, 2577.897
386.6657, 2503.863
387.1478, 2458.510
387.6299, 2415.323
388.1120, 2378.438
388.5941, 2338.440
389.0763, 2285.727
389.5584, 2229.590
390.0405, 2186.632
390.5226, 2165.969
391.0047, 2154.001
391.4868, 2126.085
391.9690, 2079.732
392.4511, 2042.463
392.9332, 2025.820
393.4153, 2017.790
393.8974, 2006.306
394.3795, 1991.206
394.8617, 1979.199
395.3438, 1974.883
395.8259, 1975.295
396.3080, 1975.743
396.7901, 1975.821
397.2722, 1976.207
397.7544, 1977.152
398.2365, 1978.859
398.7186, 1981.924
399.2007, 1995.970
399.6828, 2000.690
400.1649, 1981.674
400.6471, 1949.677
401.1292, 1924.603
401.6113, 1912.917
402.0934, 1902.146
402.5755, 1873.038
403.0576, 1818.700
403.5398, 1766.368
404.0219, 1715.554
404.5040, 1666.384
404.9861, 1619.457
405.4682, 1574.061
405.9503, 1528.406
406.4325, 1480.731
406.9146, 1433.308
407.3967, 1396.019
407.8788, 1375.372
408.3609, 1351.615
408.8430, 1314.646
409.3252, 1277.285
409.8073, 1250.629
410.2894, 1235.988
410.7715, 1224.523
411.2536, 1209.198
411.7357, 1190.654
412.2179, 1172.576
412.7000, 1155.356
413.1821, 1138.369
413.6642, 1119.440
414.1463, 1100.562
414.6284, 1086.944
415.1106, 1083.334
415.5927, 1080.493
416.0748, 1069.237
416.5569, 1052.913
417.0390, 1043.150
417.5211, 1045.032
418.0033, 1050.735
418.4854, 1048.025
418.9675, 1033.043
419.4496, 1022.782
419.9317, 1021.723
420.4138, 1022.397
420.8960, 1019.577
421.3781, 1013.870
421.8602, 1008.404
422.3423, 1004.983
422.8244, 1003.797
423.3065, 1005.815
423.7887, 1014.014
424.2708, 1020.849
424.7529, 1026.915
425.2350, 1030.554
425.7171, 1028.567
426.1992, 1021.474
426.6814, 1015.259
427.1635, 1018.766
427.6456, 1030.456
428.1277, 1029.673
428.6098, 1008.198
429.0919, 990.0845
429.5741, 990.4194
430.0562, 1001.122
430.5383, 1010.893
431.0204, 1016.833
431.5025, 1021.880
431.9846, 1029.518
432.4668, 1038.465
432.9489, 1043.574
433.4310, 1042.853
433.9131, 1040.264
434.3952, 1040.350
434.8773, 1043.393
435.3595, 1046.528
435.8416, 1049.347
436.3237, 1052.451
436.8058, 1056.538
437.2879, 1061.224
437.7701, 1065.061
438.2522, 1067.112
438.7343, 1069.154
439.2164, 1076.298
439.6985, 1095.976
440.1806, 1107.185
440.6628, 1102.630
441.1449, 1096.323
441.6270, 1097.752
442.1091, 1106.278
442.5912, 1115.436
443.0733, 1120.860
443.5555, 1122.910
444.0376, 1122.450
444.5197, 1118.384
445.0018, 1114.894
445.4839, 1115.155
445.9660, 1115.925
446.4482, 1112.974
446.9303, 1105.069
447.4124, 1099.295
447.8945, 1102.882
448.3766, 1111.117
448.8587, 1113.703
449.3409, 1109.033
449.8230, 1102.306
450.3051, 1096.954
450.7872, 1093.041
451.2693, 1090.470
451.7514, 1090.099
452.2336, 1089.958
452.7157, 1087.693
453.1978, 1085.891
453.6799, 1089.989
454.1620, 1100.981
454.6441, 1111.859
455.1263, 1112.954
455.6084, 1102.118
456.0905, 1093.688
456.5726, 1088.016
457.0547, 1084.659
457.5368, 1086.170
458.0190, 1089.316
458.5011, 1088.622
458.9832, 1081.290
459.4653, 1071.716
459.9474, 1066.348
460.4295, 1065.274
460.9117, 1063.479
461.3938, 1058.705
461.8759, 1054.799
462.3580, 1057.829
462.8401, 1065.829
463.3222, 1067.722
463.8044, 1054.974
464.2865, 1039.209
464.7686, 1030.333
465.2507, 1027.463
465.7328, 1026.656
466.2149, 1026.529
466.6971, 1026.448
467.1792, 1025.261
467.6613, 1023.089
468.1434, 1019.287
468.6255, 1012.305
469.1076, 1005.067
469.5898, 998.5402
470.0719, 993.3482
470.5540, 990.7511
471.0361, 991.7955
471.5182, 995.2195
472.0003, 997.1766
472.4825, 996.7156
472.9646, 997.3555
473.4467, 1001.285
473.9288, 1005.521
474.4109, 1007.068
474.8930, 1006.348
475.3752, 1008.025
475.8573, 1017.030
476.3394, 1029.222
476.8215, 1036.763
477.3036, 1039.417
477.7857, 1043.484
478.2679, 1052.525
478.7500, 1064.606
479.2321, 1075.154
479.7142, 1083.526
480.1963, 1092.070
480.6784, 1100.968
481.1606, 1110.399
481.6427, 1119.409
482.1248, 1128.740
482.6069, 1142.139
483.0890, 1163.535
483.5711, 1190.224
484.0533, 1206.964
484.5354, 1204.880
485.0175, 1207.365
485.4996, 1222.405
485.9817, 1239.500
486.4638, 1249.798
486.9460, 1252.725
487.4281, 1254.254
487.9102, 1259.100
488.3923, 1266.140
488.8744, 1271.989
489.3565, 1276.505
489.8387, 1280.673
490.3208, 1286.571
490.8029, 1291.397
491.2850, 1288.551
491.7671, 1273.282
492.2492, 1264.093
492.7314, 1275.063
493.2135, 1291.035
493.6956, 1293.236
494.1777, 1281.045
494.6598, 1267.179
495.1419, 1261.231
495.6241, 1261.981
496.1062, 1261.424
496.5883, 1259.787
497.0704, 1256.348
497.5525, 1249.998
498.0346, 1242.622
498.5168, 1236.646
498.9989, 1231.793
499.4810, 1224.553
499.9631, 1208.290
500.4452, 1187.437
500.9273, 1182.448
501.4095, 1198.656
501.8916, 1207.716
502.3737, 1191.634
502.8558, 1164.410
503.3379, 1148.341
503.8200, 1145.657
504.3022, 1146.592
504.7843, 1149.845
505.2664, 1153.489
505.7485, 1156.242
506.2306, 1157.521
506.7127, 1154.611
507.1949, 1144.761
507.6770, 1130.571
508.1591, 1123.589
508.6412, 1130.328
509.1233, 1134.968
509.6054, 1135.823
510.0876, 1135.037
510.5697, 1133.768
511.0518, 1132.323
511.5339, 1130.232
512.0161, 1123.823
512.4982, 1118.632
512.9803, 1135.860
513.4624, 1181.446
513.9445, 1211.684
514.4266, 1202.076
514.9088, 1177.444
515.3909, 1169.083
515.8730, 1177.482
516.3551, 1193.601
516.8372, 1217.418
517.3193, 1245.727
517.8015, 1277.365
518.2836, 1311.209
518.7657, 1344.023
519.2478, 1373.529
519.7299, 1402.925
520.2120, 1439.859
520.6942, 1487.100
521.1763, 1537.243
521.6584, 1595.017
522.1405, 1650.823
522.6226, 1694.962
523.1047, 1733.069
523.5869, 1778.406
524.0690, 1838.280
524.5511, 1908.637
525.0332, 1984.510
525.5153, 2065.873
525.9974, 2147.274
526.4796, 2223.837
526.9617, 2306.081
527.4438, 2409.090
527.9259, 2530.364
528.4080, 2647.517
528.8901, 2751.535
529.3723, 2856.679
529.8544, 2975.979
530.3365, 3101.916
530.8186, 3220.210
531.3007, 3326.324
531.7828, 3420.634
532.2650, 3507.032
532.7471, 3591.081
533.2292, 3634.382
533.7113, 3628.361
534.1934, 3587.997
534.6755, 3518.603
535.1577, 3418.143
535.6398, 3277.792
536.1219, 3091.868
536.6040, 2890.557
537.0861, 2694.948
537.5682, 2506.606
538.0504, 2331.736
538.5325, 2172.216
539.0146, 2023.941
539.4967, 1884.187
539.9788, 1754.803
540.4609, 1646.476
540.9431, 1567.536
541.4252, 1494.214
541.9073, 1417.812
542.3894, 1347.450
542.8715, 1291.885
543.3536, 1251.505
543.8358, 1221.941
544.3179, 1200.966
544.8000, 1186.625
545.2821, 1169.897
545.7642, 1148.787
546.2463, 1130.807
546.7285, 1119.073
547.2106, 1110.505
547.6927, 1103.969
548.1748, 1099.030
548.6569, 1092.477
549.1390, 1081.013
549.6211, 1068.632
550.1032, 1060.228
550.5853, 1055.010
551.0674, 1047.721
551.5496, 1035.130
552.0317, 1025.298
552.5138, 1032.632
552.9959, 1065.566
553.4780, 1087.165
553.9601, 1094.286
554.4423, 1095.303
554.9244, 1090.474
555.4065, 1082.728
555.8886, 1075.773
556.3707, 1070.928
556.8528, 1067.435
557.3350, 1062.769
557.8171, 1057.818
558.2992, 1062.031
558.7813, 1080.193
559.2634, 1095.133
559.7455, 1095.349
560.2277, 1083.281
560.7098, 1068.171
561.1919, 1044.244
561.6740, 1027.454
562.1561, 1031.627
562.6382, 1040.026
563.1204, 1031.538
563.6025, 1007.090
564.0846, 985.5357
564.5667, 981.4157
565.0488, 989.1545
565.5309, 985.6892
566.0131, 965.0052
566.4952, 948.3433
566.9773, 942.7139
567.4594, 939.5178
567.9415, 935.9748
568.4236, 930.7387
568.9058, 919.3975
569.3879, 893.9330
569.8700, 867.0135
570.3521, 851.4445
570.8342, 845.1475
571.3163, 842.3970
571.7985, 841.8720
572.2806, 840.0615
572.7627, 832.2277
573.2448, 817.3893
573.7269, 805.5663
574.2090, 798.9457
574.6912, 792.4138
575.1733, 784.3544
575.6554, 775.9113
576.1375, 768.8452
576.6196, 763.3470
577.1017, 757.2366
577.5839, 745.2928
578.0660, 731.1731
578.5481, 730.8487
579.0302, 746.8856
579.5123, 754.9791
579.9944, 739.8548
580.4766, 714.0257
580.9587, 702.2943
581.4408, 707.1802
581.9229, 711.9348
582.4050, 714.8781
582.8871, 716.4980
583.3693, 715.7027
583.8514, 714.0085
584.3335, 714.8224
584.8156, 719.7268
585.2977, 726.1354
585.7798, 729.7743
586.2620, 730.3345
586.7441, 731.1864
587.2262, 730.3454
587.7083, 733.4249
588.1904, 747.2514
588.6725, 766.1277
589.1547, 780.7242
589.6368, 788.8254
590.1189, 795.3804
590.6010, 802.6990
591.0831, 809.8704
591.5652, 814.6511
592.0474, 817.5967
592.5295, 822.6641
593.0116, 832.6839
593.4937, 846.0175
593.9758, 858.0391
594.4579, 869.3680
594.9401, 877.7692
595.4222, 879.5760
595.9043, 881.4929
596.3864, 888.2750
596.8685, 897.7863
597.3506, 903.8868
597.8328, 902.2020
598.3149, 900.5090
598.7970, 907.5216
599.2791, 919.8808
599.7612, 928.6936
600.2433, 932.2714
600.7255, 934.3705
601.2076, 938.0556
601.6897, 943.1173
602.1718, 947.8462
602.6539, 951.8969
603.1360, 956.0760
603.6182, 963.5502
604.1003, 968.7370
604.5824, 963.7411
605.0645, 951.6757
605.5466, 945.8300
606.0287, 956.5976
606.5109, 973.8940
606.9930, 983.7923
607.4751, 986.6378
607.9572, 983.8265
608.4393, 974.2235
608.9214, 964.7711
609.4036, 962.6145
609.8857, 967.8081
610.3678, 972.9261
610.8499, 981.1541
611.3320, 985.3009
611.8141, 979.5256
612.2963, 971.4969
612.7784, 969.9849
613.2605, 975.0621
613.7426, 979.4622
614.2247, 977.6210
614.7068, 971.2841
615.1890, 963.4611
615.6711, 953.9302
616.1532, 948.0336
616.6353, 947.7051
617.1174, 950.9866
617.5995, 958.0394
618.0817, 968.9669
618.5638, 971.5733
619.0459, 960.6378
619.5280, 946.8235
620.0101, 931.4102
620.4922, 916.8186
620.9744, 907.7192
621.4565, 903.7741
621.9386, 897.2918
622.4207, 879.6243
622.9028, 854.6115
623.3849, 838.3901
623.8671, 832.5027
624.3492, 826.5246
624.8313, 817.7112
625.3134, 807.0408
625.7955, 794.7417
626.2776, 780.9205
626.7598, 769.5859
627.2419, 764.4612
627.7240, 758.5660
628.2061, 748.3098
628.6882, 735.1497
629.1703, 720.5777
629.6525, 705.4059
630.1346, 691.1891
630.6167, 678.9927
631.0988, 669.1700
631.5809, 664.5921
632.0630, 667.1560
632.5452, 667.3715
633.0273, 660.9901
633.5094, 652.3446
633.9915, 646.2728
634.4736, 642.6381
634.9557, 638.7262
635.4379, 630.4214
635.9200, 625.5258
636.4021, 632.9767
636.8842, 645.0334
637.3663, 647.9014
637.8484, 639.2749
638.3306, 630.1594
638.8127, 632.1464
639.2948, 643.0805
639.7769, 649.5876
640.2590, 650.6341
640.7411, 650.9581
641.2233, 651.7131
