##NAMES=Grossular
##RRUFFID=R060446
##IDEAL CHEMISTRY=Ca_3_Al_2_(SiO_4_)_3_
##LOCALITY=Africa
##OWNER=RRUFF
##SOURCE=Gemological Institute of America
##DESCRIPTION=Orange fragment. Variety hibschite.
##STATUS=The identification of this mineral has been confirmed by X-ray diffraction and chemical analysis
##URL=rruff.info/R060446
##MEASURED CHEMISTRY=(Ca_2.97_Mn_0.03_)_Σ=3_(Al_1.96_Fe^3+^_0.04_)_Σ=2_(Si_1.00_O_4_)_2.71_(OH)_1.16_ (x=0.29); OH estimated by charge balance
90.92609, 0.0000000E+00
91.40820, 9.637594
91.89032, 9.857360
92.37244, 9.731387
92.85455, 9.318811
93.33667, 8.973055
93.81879, 9.039598
94.30090, 9.387725
94.78302, 9.616776
95.26514, 9.604472
95.74725, 9.450685
96.22937, 9.372239
96.71149, 9.375093
97.19360, 9.393563
97.67572, 9.366441
98.15784, 9.294824
98.63995, 9.211969
99.12207, 9.105122
99.60419, 8.986273
100.0863, 8.963065
100.5684, 9.054005
101.0505, 9.204130
101.5327, 9.352218
102.0148, 9.499782
102.4969, 9.636639
102.9790, 9.760054
103.4611, 9.867573
103.9432, 9.952575
104.4253, 9.941789
104.9075, 9.948330
105.3896, 10.22162
105.8717, 10.97708
106.3538, 11.71040
106.8359, 12.22030
107.3180, 12.23009
107.8002, 12.48986
108.2823, 13.07681
108.7644, 13.92629
109.2465, 14.82828
109.7286, 15.75033
110.2107, 16.73619
110.6929, 17.82200
111.1750, 18.90302
111.6571, 20.18736
112.1392, 21.75871
112.6213, 23.58571
113.1034, 25.46282
113.5856, 27.26819
114.0677, 29.18653
114.5498, 31.33166
115.0319, 33.93147
115.5140, 36.58688
115.9961, 39.19830
116.4783, 41.76156
116.9604, 44.23010
117.4425, 46.68258
117.9246, 49.03200
118.4067, 51.16421
118.8888, 52.93091
119.3710, 54.57395
119.8531, 56.17159
120.3352, 57.70626
120.8173, 59.36972
121.2994, 61.19662
121.7815, 63.22491
122.2637, 65.53081
122.7458, 68.31441
123.2279, 71.28953
123.7100, 74.14884
124.1921, 76.82867
124.6742, 79.52401
125.1564, 82.40005
125.6385, 85.43717
126.1206, 88.58681
126.6027, 91.73449
127.0848, 94.96459
127.5669, 98.45370
128.0491, 102.3179
128.5312, 106.2625
129.0133, 110.0390
129.4954, 113.5896
129.9775, 116.6943
130.4596, 118.9087
130.9418, 120.4482
131.4239, 122.3305
131.9060, 125.0010
132.3881, 127.8899
132.8702, 129.3246
133.3523, 129.2034
133.8345, 129.0772
134.3166, 130.5145
134.7987, 133.5141
135.2808, 136.0889
135.7629, 137.6851
136.2450, 138.5562
136.7272, 139.8826
137.2093, 141.6943
137.6914, 143.8837
138.1735, 146.4578
138.6556, 149.4954
139.1377, 152.4474
139.6199, 155.3180
140.1020, 158.0811
140.5841, 160.0840
141.0662, 160.9916
141.5483, 161.5583
142.0304, 162.7200
142.5126, 164.5919
142.9947, 166.7100
143.4768, 168.4492
143.9589, 169.4504
144.4410, 170.4794
144.9231, 171.5446
145.4053, 172.6404
145.8874, 173.8137
146.3695, 175.3055
146.8516, 176.5448
147.3337, 177.3634
147.8158, 177.7992
148.2980, 177.7883
148.7801, 176.9369
149.2622, 175.7171
149.7443, 175.0997
150.2264, 175.6408
150.7085, 176.2637
151.1907, 176.6055
151.6728, 176.5098
152.1549, 176.4207
152.6370, 176.1768
153.1191, 175.9266
153.6012, 176.0535
154.0834, 177.0461
154.5655, 178.0538
155.0476, 178.7428
155.5297, 179.1748
156.0118, 179.1355
156.4939, 178.1172
156.9761, 176.4903
157.4582, 175.5326
157.9403, 176.0567
158.4224, 176.9771
158.9045, 177.6597
159.3866, 177.6366
159.8688, 177.7525
160.3509, 178.3642
160.8330, 179.3592
161.3151, 180.2094
161.7972, 180.5177
162.2793, 180.7209
162.7615, 181.1575
163.2436, 182.4588
163.7257, 183.5024
164.2078, 183.7227
164.6899, 183.2074
165.1720, 182.5646
165.6541, 181.7398
166.1363, 181.0623
166.6184, 180.8574
167.1005, 181.4280
167.5826, 182.3423
168.0647, 183.5576
168.5468, 185.0305
169.0290, 186.2060
169.5111, 186.5151
169.9932, 186.3768
170.4753, 186.3443
170.9574, 186.8987
171.4395, 187.4762
171.9217, 187.4130
172.4038, 186.7127
172.8859, 186.2533
173.3680, 187.0631
173.8501, 188.5469
174.3322, 189.6690
174.8144, 189.7274
175.2965, 189.3257
175.7786, 189.1172
176.2607, 189.1073
176.7428, 189.2983
177.2249, 189.8085
177.7071, 190.5294
178.1892, 191.2098
178.6713, 191.8558
179.1534, 192.3547
179.6355, 192.4292
180.1176, 192.0294
180.5998, 191.5727
181.0819, 191.6266
181.5640, 192.0310
182.0461, 192.2175
182.5282, 191.7979
183.0103, 190.9790
183.4925, 190.2081
183.9746, 189.5033
184.4567, 188.8517
184.9388, 188.1088
185.4209, 187.3326
185.9030, 186.9168
186.3852, 187.4339
186.8673, 188.5167
187.3494, 188.7585
187.8315, 187.9483
188.3136, 186.8383
188.7957, 186.5038
189.2779, 186.8945
189.7600, 187.2631
190.2421, 187.1845
190.7242, 186.7384
191.2063, 186.3472
191.6884, 186.0121
192.1706, 185.7770
192.6527, 185.7245
193.1348, 185.8546
193.6169, 186.0508
194.0990, 186.2473
194.5811, 186.4460
195.0633, 186.7451
195.5454, 187.1808
196.0275, 187.6510
196.5096, 187.9494
196.9917, 188.0683
197.4738, 188.1285
197.9560, 188.1325
198.4381, 188.0805
198.9202, 188.2496
199.4023, 188.7191
199.8844, 189.3277
200.3665, 189.7251
200.8487, 189.8807
201.3308, 190.0440
201.8129, 190.3925
202.2950, 190.9549
202.7771, 191.3144
203.2592, 191.3811
203.7414, 191.3240
204.2235, 191.5222
204.7056, 192.0156
205.1877, 192.5893
205.6698, 193.1972
206.1519, 193.8817
206.6341, 194.2663
207.1162, 194.2280
207.5983, 193.9727
208.0804, 193.9520
208.5625, 194.1876
209.0446, 194.5833
209.5268, 195.1469
210.0089, 195.9461
210.4910, 196.6062
210.9731, 197.1363
211.4552, 197.5151
211.9373, 197.6092
212.4195, 197.2571
212.9016, 197.0347
213.3837, 197.2743
213.8658, 198.1428
214.3479, 198.8687
214.8300, 199.4084
215.3121, 199.8191
215.7943, 200.2678
216.2764, 200.8349
216.7585, 201.2566
217.2406, 201.3090
217.7227, 200.7037
218.2048, 200.7089
218.6870, 201.6617
219.1691, 203.0583
219.6512, 203.6562
220.1333, 202.9949
220.6154, 202.3820
221.0975, 202.4379
221.5797, 203.4941
222.0618, 204.2521
222.5439, 204.6639
223.0260, 204.8046
223.5081, 204.7826
223.9902, 204.3643
224.4724, 204.2056
224.9545, 204.6607
225.4366, 206.0724
225.9187, 207.1343
226.4008, 207.7743
226.8829, 208.1118
227.3651, 208.3808
227.8472, 208.5094
228.3293, 208.6933
228.8114, 209.0305
229.2935, 209.6011
229.7757, 210.0508
230.2578, 210.2697
230.7399, 210.4109
231.2220, 210.8167
231.7041, 211.7021
232.1862, 212.4914
232.6684, 212.9166
233.1505, 212.7588
233.6326, 212.9720
234.1147, 213.8173
234.5968, 214.8920
235.0789, 215.3960
235.5611, 214.9043
236.0432, 214.5353
236.5253, 214.7068
237.0074, 215.6143
237.4895, 216.3501
237.9716, 216.8886
238.4538, 217.2738
238.9359, 217.5584
239.4180, 217.6662
239.9001, 217.8061
240.3822, 218.0627
240.8643, 218.4774
241.3465, 218.7858
241.8286, 218.8474
242.3107, 218.9006
242.7928, 219.3481
243.2749, 220.5935
243.7570, 221.5236
244.2392, 221.7105
244.7213, 220.9600
245.2034, 220.6943
245.6855, 221.2674
246.1676, 222.0304
246.6497, 222.1221
247.1319, 221.1326
247.6140, 220.2262
248.0961, 219.7090
248.5782, 219.6282
249.0603, 219.5246
249.5424, 219.4689
250.0246, 219.3276
250.5067, 218.8786
250.9888, 217.7686
251.4709, 217.0623
251.9530, 217.1270
252.4351, 218.0165
252.9173, 218.5124
253.3994, 218.4075
253.8815, 218.1478
254.3636, 218.1871
254.8457, 218.6946
255.3278, 219.1057
255.8100, 219.2610
256.2921, 219.1702
256.7742, 219.2710
257.2563, 219.6126
257.7384, 220.0773
258.2205, 220.5854
258.7026, 221.1986
259.1848, 221.7122
259.6669, 222.0622
260.1490, 222.2764
260.6311, 222.5515
261.1132, 222.9020
261.5953, 223.2972
262.0775, 223.7185
262.5596, 224.1898
263.0417, 224.6331
263.5238, 225.0450
264.0059, 225.4209
264.4880, 225.7429
264.9702, 225.9520
265.4523, 226.2087
265.9344, 226.6222
266.4165, 227.2310
266.8986, 227.8678
267.3807, 228.5534
267.8629, 229.2496
268.3450, 229.8541
268.8271, 230.3918
269.3092, 230.7984
269.7913, 230.9600
270.2734, 230.7588
270.7556, 230.9508
271.2377, 231.7098
271.7198, 232.7817
272.2019, 233.5688
272.6840, 234.0152
273.1661, 234.3899
273.6483, 234.7998
274.1304, 235.2399
274.6125, 235.7532
275.0946, 236.3587
275.5767, 237.0005
276.0588, 237.6173
276.5410, 238.2274
277.0231, 238.6754
277.5052, 238.8399
277.9873, 238.7118
278.4694, 238.5662
278.9515, 238.3585
279.4337, 238.2114
279.9158, 238.4483
280.3979, 239.1381
280.8800, 239.4473
281.3621, 238.8330
281.8442, 237.4496
282.3264, 236.8856
282.8085, 237.3073
283.2906, 237.9933
283.7727, 238.0593
284.2548, 237.5019
284.7369, 237.0511
285.2191, 236.9741
285.7012, 237.1653
286.1833, 237.1009
286.6654, 236.7262
287.1475, 236.4665
287.6296, 236.9555
288.1118, 238.0891
288.5939, 238.7314
289.0760, 238.4294
289.5581, 237.6109
290.0402, 237.3406
290.5223, 237.6283
291.0045, 238.1175
291.4866, 238.6910
291.9687, 239.2810
292.4508, 239.5185
292.9329, 239.2293
293.4150, 238.7333
293.8972, 238.5928
294.3793, 238.7852
294.8614, 239.0277
295.3435, 239.1425
295.8256, 239.1640
296.3077, 239.1950
296.7899, 239.2662
297.2720, 239.3008
297.7541, 239.0531
298.2362, 238.6196
298.7183, 238.4301
299.2004, 238.8274
299.6826, 239.6062
300.1647, 240.4209
300.6468, 241.2459
301.1289, 242.0671
301.6110, 243.0340
302.0931, 244.0046
302.5753, 244.6367
303.0574, 244.4941
303.5395, 244.0349
304.0216, 243.8076
304.5037, 243.8238
304.9858, 244.0547
305.4680, 244.5555
305.9501, 245.2464
306.4322, 245.9919
306.9143, 246.8814
307.3964, 247.7123
307.8785, 248.2590
308.3607, 248.5463
308.8428, 248.8189
309.3249, 249.2114
309.8070, 249.6897
310.2891, 250.2276
310.7712, 250.9450
311.2534, 251.5602
311.7355, 251.7544
312.2176, 251.6410
312.6997, 251.6424
313.1818, 252.0276
313.6639, 252.5898
314.1461, 253.2170
314.6282, 254.0119
315.1103, 254.5785
315.5924, 254.4049
316.0745, 253.8599
316.5566, 253.7127
317.0388, 254.5412
317.5209, 255.6663
318.0030, 256.8367
318.4851, 258.1457
318.9672, 258.9844
319.4493, 258.7886
319.9315, 258.0992
320.4136, 257.6290
320.8957, 257.5468
321.3778, 257.7507
321.8599, 258.3112
322.3420, 259.2675
322.8242, 260.0960
323.3063, 260.5544
323.7884, 260.9008
324.2705, 261.3601
324.7526, 262.0641
325.2347, 262.7857
325.7169, 263.4377
326.1990, 264.0368
326.6811, 264.7393
327.1632, 265.6754
327.6453, 266.6361
328.1274, 267.5058
328.6096, 268.3025
329.0917, 268.9844
329.5738, 269.4396
330.0559, 269.7630
330.5380, 270.2796
331.0201, 271.2006
331.5023, 272.0870
331.9844, 272.7679
332.4665, 273.1873
332.9486, 273.4962
333.4307, 273.4951
333.9128, 273.4857
334.3950, 274.0248
334.8771, 275.4173
335.3592, 276.7924
335.8413, 277.8433
336.3234, 278.5294
336.8055, 279.4030
337.2877, 280.6388
337.7698, 281.8054
338.2519, 282.2383
338.7340, 281.5676
339.2161, 281.6461
339.6982, 283.1375
340.1803, 285.7483
340.6624, 287.5131
341.1446, 288.2880
341.6267, 288.7591
342.1088, 289.3814
342.5909, 290.1455
343.0730, 291.2335
343.5551, 292.7860
344.0373, 294.5250
344.5194, 295.6248
345.0015, 296.0557
345.4836, 296.6664
345.9657, 298.2078
346.4478, 300.4559
346.9300, 302.1103
347.4121, 303.0136
347.8942, 303.6703
348.3763, 304.6564
348.8584, 305.9735
349.3405, 307.6342
349.8227, 310.0763
350.3048, 312.7841
350.7869, 314.4841
351.2690, 315.1519
351.7511, 315.7448
352.2332, 317.2010
352.7154, 319.2281
353.1975, 321.1754
353.6796, 322.6543
354.1617, 324.1504
354.6438, 326.3782
355.1259, 329.1963
355.6081, 331.8555
356.0902, 333.7192
356.5723, 335.2358
357.0544, 336.9134
357.5365, 338.8102
358.0186, 340.9200
358.5008, 343.5554
358.9829, 346.3974
359.4650, 348.7655
359.9471, 349.6695
360.4292, 350.4919
360.9113, 352.2519
361.3935, 355.1724
361.8756, 358.0034
362.3577, 360.3911
362.8398, 362.3715
363.3219, 363.9847
363.8040, 364.9762
364.2862, 365.8759
364.7683, 366.8096
365.2504, 367.7930
365.7325, 368.8675
366.2146, 370.1992
366.6967, 371.5354
367.1789, 372.7195
367.6610, 373.7605
368.1431, 374.6207
368.6252, 375.4228
369.1073, 376.0622
369.5894, 376.2248
370.0716, 375.9599
370.5537, 375.1647
371.0358, 373.7020
371.5179, 371.2711
372.0000, 369.0904
372.4821, 367.4052
372.9643, 365.8172
373.4464, 363.7984
373.9285, 361.2812
374.4106, 358.4734
374.8927, 355.2486
375.3748, 351.6234
375.8570, 348.6263
376.3391, 346.4783
376.8212, 344.4325
377.3033, 341.6859
377.7854, 338.0934
378.2675, 335.0010
378.7497, 332.6205
379.2318, 330.7899
379.7139, 329.0885
380.1960, 327.5392
380.6781, 326.0455
381.1602, 324.5177
381.6424, 322.9937
382.1245, 321.6923
382.6066, 320.6114
383.0887, 319.7733
383.5708, 319.2305
384.0529, 318.9613
384.5351, 318.8335
385.0172, 318.8531
385.4993, 318.9564
385.9814, 319.1659
386.4635, 319.4604
386.9456, 319.4424
387.4278, 318.3135
387.9099, 316.7599
388.3920, 315.9302
388.8741, 316.3722
389.3562, 317.1773
389.8383, 317.3877
390.3205, 317.2879
390.8026, 317.6786
391.2847, 319.8714
391.7668, 322.1395
392.2489, 323.0794
392.7310, 322.3335
393.2132, 321.2174
393.6953, 319.9475
394.1774, 318.8148
394.6595, 318.1678
395.1416, 318.5508
395.6237, 319.0307
396.1059, 319.3431
396.5880, 319.4808
397.0701, 319.4761
397.5522, 319.0247
398.0343, 318.6454
398.5164, 318.6522
398.9986, 319.6651
399.4807, 320.2950
399.9628, 320.1985
400.4449, 319.7177
400.9270, 319.6444
401.4091, 320.1844
401.8913, 320.8730
402.3734, 321.6294
402.8555, 322.5184
403.3376, 323.0902
403.8197, 323.2344
404.3018, 323.1869
404.7840, 323.2198
405.2661, 323.4014
405.7482, 323.3935
406.2303, 323.0486
406.7124, 322.4783
407.1945, 322.1141
407.6767, 321.9424
408.1588, 322.0233
408.6409, 322.6332
409.1230, 323.6978
409.6051, 324.1101
410.0872, 323.6924
410.5694, 322.8765
411.0515, 322.1202
411.5336, 321.4659
412.0157, 321.2083
412.4978, 321.9270
412.9799, 323.0065
413.4621, 323.1161
413.9442, 322.2771
414.4263, 321.2263
414.9084, 320.5244
415.3905, 320.0199
415.8727, 319.4471
416.3548, 318.6978
416.8369, 317.9299
417.3190, 317.2818
417.8011, 316.7226
418.2832, 316.1573
418.7654, 315.4295
419.2475, 314.7555
419.7296, 314.2611
420.2117, 313.9403
420.6938, 313.8725
421.1759, 314.4117
421.6581, 315.0833
422.1402, 315.3902
422.6223, 314.7329
423.1044, 314.1980
423.5865, 314.1197
424.0686, 314.4403
424.5508, 314.6859
425.0329, 314.9682
425.5150, 315.0397
425.9971, 314.7383
426.4792, 313.6672
426.9613, 313.0696
427.4435, 313.1708
427.9256, 313.6314
428.4077, 313.8985
428.8898, 313.8471
429.3719, 313.8906
429.8540, 314.1332
430.3362, 314.5674
430.8183, 315.2018
431.3004, 316.1502
431.7825, 316.9601
432.2646, 317.1436
432.7467, 316.6978
433.2289, 316.4089
433.7110, 316.3808
434.1931, 316.5614
434.6752, 317.0072
435.1573, 317.6747
435.6394, 318.1076
436.1216, 317.6935
436.6036, 316.9392
437.0858, 317.1328
437.5679, 318.3184
438.0500, 319.5910
438.5321, 320.1920
439.0142, 320.3330
439.4963, 320.3640
439.9785, 320.3640
440.4606, 320.3260
440.9427, 320.1331
441.4248, 319.8824
441.9069, 319.8603
442.3890, 320.5398
442.8712, 321.2622
443.3533, 321.5106
443.8354, 321.0953
444.3175, 320.8949
444.7996, 321.2833
445.2817, 321.9975
445.7639, 322.7654
446.2460, 323.7099
446.7281, 324.5140
447.2102, 325.0443
447.6923, 325.3386
448.1744, 325.6834
448.6566, 326.2522
449.1387, 326.6750
449.6208, 326.7200
450.1029, 326.1236
450.5850, 325.9311
451.0671, 326.1918
451.5493, 326.8048
452.0314, 327.7986
452.5135, 329.3770
452.9956, 330.4002
453.4777, 330.4279
453.9598, 329.6893
454.4420, 329.0609
454.9241, 328.5283
455.4062, 328.2989
455.8883, 328.7406
456.3704, 329.6786
456.8525, 330.2599
457.3347, 330.3216
457.8168, 330.2618
458.2989, 330.6137
458.7810, 331.2556
459.2631, 331.8152
459.7452, 332.0614
460.2274, 332.1932
460.7095, 332.4138
461.1916, 332.7198
461.6737, 333.0589
462.1558, 333.4807
462.6379, 333.8809
463.1201, 334.1174
463.6022, 334.0122
464.0843, 334.1035
464.5664, 334.7534
465.0485, 335.7072
465.5306, 336.5595
466.0128, 337.2254
466.4949, 337.7630
466.9770, 338.2103
467.4591, 338.5700
467.9412, 338.6924
468.4233, 338.3760
468.9055, 338.0024
469.3876, 337.7797
469.8697, 337.7250
470.3518, 337.7694
470.8339, 337.7936
471.3160, 338.0135
471.7982, 338.9916
472.2803, 340.9992
472.7624, 342.6756
473.2445, 343.4376
473.7266, 343.4599
474.2087, 343.7694
474.6909, 344.3889
475.1730, 345.0567
475.6551, 345.5622
476.1372, 345.9205
476.6193, 346.1605
477.1014, 346.2227
477.5836, 346.3441
478.0657, 346.9813
478.5478, 347.9414
479.0299, 348.6635
479.5120, 348.6709
479.9941, 348.4725
480.4763, 348.5193
480.9584, 348.8059
481.4405, 349.1917
481.9226, 349.6963
482.4047, 350.2166
482.8868, 350.6753
483.3690, 351.0581
483.8511, 351.3712
484.3332, 351.4682
484.8153, 351.5267
485.2974, 351.8370
485.7795, 352.6490
486.2617, 353.4991
486.7438, 354.4818
487.2259, 355.5833
487.7080, 355.8472
488.1901, 354.5622
488.6722, 353.3688
489.1544, 353.3383
489.6365, 354.8262
490.1186, 356.1596
490.6007, 357.4070
491.0828, 358.3141
491.5649, 358.1874
492.0471, 356.9561
492.5292, 356.3231
493.0113, 357.0654
493.4934, 358.6751
493.9755, 359.9117
494.4576, 360.7655
494.9398, 361.3314
495.4219, 361.3174
495.9040, 361.1347
496.3861, 361.6411
496.8682, 363.0514
497.3503, 364.5228
497.8325, 365.3561
498.3146, 365.8011
498.7967, 366.2621
499.2788, 366.9668
499.7609, 367.6623
500.2430, 368.2569
500.7252, 368.7520
501.2073, 369.1529
501.6894, 369.2891
502.1715, 369.4769
502.6536, 369.8790
503.1357, 370.5704
503.6179, 371.3169
504.1000, 372.1827
504.5821, 373.0519
505.0642, 373.8000
505.5463, 374.3608
506.0284, 374.9292
506.5106, 375.5213
506.9927, 376.1297
507.4748, 376.6768
507.9569, 377.0937
508.4390, 377.7545
508.9211, 379.0335
509.4033, 380.8121
509.8854, 382.0714
510.3675, 382.7721
510.8496, 383.2715
511.3317, 383.9470
511.8138, 384.7056
512.2960, 385.2589
512.7781, 385.4834
513.2602, 385.6372
513.7423, 385.9773
514.2244, 386.4621
514.7065, 386.9874
515.1887, 387.5844
515.6708, 388.1469
516.1529, 388.4774
516.6350, 388.5928
517.1171, 389.0306
517.5992, 390.4580
518.0814, 391.9475
518.5635, 392.8544
519.0456, 392.4651
519.5277, 392.5501
520.0098, 393.4013
520.4919, 394.6729
520.9741, 395.8962
521.4562, 397.1533
521.9383, 398.1503
522.4204, 398.7093
522.9025, 398.9300
523.3846, 399.4617
523.8668, 400.3279
524.3489, 401.3780
524.8310, 402.6277
525.3131, 404.0375
525.7952, 405.2690
526.2773, 406.3312
526.7595, 407.1170
527.2416, 407.1919
527.7237, 406.8791
528.2058, 407.0457
528.6879, 408.1680
529.1700, 409.5618
529.6522, 410.6725
530.1343, 411.5219
530.6164, 412.2004
531.0985, 412.3810
531.5806, 412.6940
532.0627, 413.7035
532.5449, 415.5000
533.0270, 416.9389
533.5091, 417.3981
533.9912, 417.5670
534.4733, 417.9205
534.9554, 418.5338
535.4376, 419.2808
535.9197, 420.1465
536.4018, 421.1389
536.8839, 422.3363
537.3660, 423.9930
537.8481, 425.1338
538.3303, 425.2565
538.8124, 424.6551
539.2945, 424.8622
539.7766, 425.8905
540.2587, 427.6172
540.7408, 430.9913
541.2230, 435.1448
541.7051, 436.3305
542.1872, 434.0495
542.6693, 430.8541
543.1514, 428.7856
543.6335, 427.6809
544.1157, 427.2520
544.5978, 427.9800
545.0799, 428.5533
545.5620, 427.7952
546.0441, 426.1635
546.5262, 424.7880
547.0084, 424.5022
547.4905, 424.1906
547.9726, 423.1931
548.4547, 421.3927
548.9368, 420.1281
549.4189, 419.9884
549.9011, 420.0185
550.3832, 419.6517
550.8653, 418.5928
551.3474, 417.8176
551.8295, 417.4096
552.3116, 417.2033
552.7938, 416.9789
553.2759, 416.7330
553.7580, 416.5010
554.2401, 416.3403
554.7222, 416.1602
555.2043, 415.5597
555.6865, 414.6049
556.1686, 413.9554
556.6507, 414.2798
557.1328, 415.0684
557.6149, 415.4321
558.0970, 415.3218
558.5792, 415.5171
559.0613, 417.1093
559.5434, 419.0285
560.0255, 420.1746
560.5076, 420.0311
560.9897, 419.5467
561.4719, 418.6704
561.9540, 417.7134
562.4361, 417.2037
562.9182, 417.4329
563.4003, 417.8637
563.8824, 418.5187
564.3646, 419.3304
564.8467, 419.8156
565.3288, 419.7365
565.8109, 419.8069
566.2930, 420.4712
566.7751, 421.7499
567.2573, 422.9217
567.7394, 424.0241
568.2215, 424.8741
568.7036, 425.1050
569.1857, 424.8960
569.6678, 424.9703
570.1500, 425.5729
570.6321, 426.2719
571.1142, 426.7310
571.5963, 426.9057
572.0784, 426.6935
572.5605, 425.2018
573.0427, 424.0568
573.5248, 424.6227
574.0069, 426.6191
574.4890, 428.1353
574.9711, 427.9626
575.4532, 427.6497
575.9354, 428.0377
576.4175, 429.4902
576.8996, 430.4785
577.3817, 430.6620
577.8638, 430.7043
578.3459, 431.3181
578.8281, 432.7755
579.3102, 433.5978
579.7923, 433.4879
580.2744, 432.8667
580.7565, 432.4371
581.2386, 432.1971
581.7208, 432.1548
582.2029, 432.2796
582.6850, 432.6251
583.1671, 433.4806
583.6492, 434.7439
584.1313, 435.8003
584.6134, 436.0274
585.0955, 436.0255
585.5776, 436.4319
