##NAMES=Grossular
##RRUFFID=R060446
##IDEAL CHEMISTRY=Ca_3_Al_2_(SiO_4_)_3_
##LOCALITY=Africa
##OWNER=RRUFF
##SOURCE=Gemological Institute of America
##DESCRIPTION=Orange fragment. Variety hibschite.
##STATUS=The identification of this mineral has been confirmed by X-ray diffraction and chemical analysis
##URL=rruff.info/R060446
##MEASURED CHEMISTRY=(Ca_2.97_Mn_0.03_)_Σ=3_(Al_1.96_Fe^3+^_0.04_)_Σ=2_(Si_1.00_O_4_)_2.71_(OH)_1.16_ (x=0.29); OH estimated by charge balance
99.832, 77.897
100.314, 72.296
100.796, 68.198
101.279, 65.882
101.761, 64.428
102.243, 63.740
102.725, 63.543
103.207, 63.494
103.689, 63.318
104.171, 63.300
104.653, 64.607
105.135, 69.110
105.618, 72.275
106.100, 72.056
106.582, 69.947
107.064, 68.018
107.546, 67.363
108.028, 68.042
108.510, 71.188
108.992, 81.291
109.474, 89.822
109.957, 94.077
110.439, 94.902
110.921, 94.579
111.403, 94.885
111.885, 95.775
112.367, 97.744
112.849, 102.455
113.331, 106.653
113.813, 108.609
114.296, 108.503
114.778, 107.552
115.260, 106.483
115.742, 103.434
116.224, 108.021
116.706, 129.869
117.188, 151.540
117.670, 159.701
118.152, 152.750
118.635, 140.087
119.117, 134.128
119.599, 139.870
120.081, 141.504
120.563, 133.311
121.045, 123.698
121.527, 121.115
122.009, 127.940
122.492, 140.319
122.974, 152.383
123.456, 163.610
123.938, 175.838
124.420, 189.050
124.902, 203.480
125.384, 219.140
125.866, 235.794
126.349, 254.628
126.831, 279.665
127.313, 313.015
127.795, 344.325
128.277, 369.244
128.759, 389.379
129.241, 408.229
129.723, 426.048
130.206, 444.564
130.688, 467.611
131.170, 497.792
131.652, 526.008
132.134, 545.662
132.616, 558.076
133.098, 571.616
133.580, 592.648
134.062, 614.156
134.544, 625.507
135.027, 624.341
135.509, 617.009
135.991, 607.192
136.473, 594.859
136.955, 582.356
137.437, 569.612
137.919, 557.792
138.402, 547.551
138.884, 537.207
139.366, 531.591
139.848, 538.841
140.330, 561.450
140.812, 582.947
141.294, 594.366
141.776, 601.315
142.258, 607.373
142.740, 610.992
143.223, 618.120
143.705, 640.412
144.187, 683.149
144.669, 725.983
145.151, 760.600
145.633, 791.291
146.115, 822.732
146.598, 857.189
147.080, 892.976
147.562, 926.547
148.044, 958.573
148.526, 987.022
149.008, 1009.720
149.490, 1029.663
149.972, 1051.085
150.454, 1077.009
150.936, 1104.924
151.419, 1125.455
151.901, 1135.764
152.383, 1142.341
152.865, 1147.890
153.347, 1151.469
153.829, 1151.614
154.311, 1147.157
154.793, 1138.765
155.276, 1129.418
155.758, 1115.811
156.240, 1105.569
156.722, 1103.171
157.204, 1104.915
157.686, 1105.016
158.168, 1099.605
158.650, 1089.261
159.133, 1079.358
159.615, 1063.855
160.097, 1055.794
160.579, 1061.300
161.061, 1076.229
161.543, 1093.741
162.025, 1109.948
162.507, 1124.653
162.989, 1133.424
163.472, 1126.908
163.954, 1123.279
164.436, 1123.840
164.918, 1130.543
165.400, 1147.477
165.882, 1179.642
166.364, 1226.946
166.846, 1259.574
167.329, 1265.727
167.811, 1268.758
168.293, 1270.710
168.775, 1274.442
169.257, 1284.903
169.739, 1307.290
170.221, 1342.100
170.703, 1366.426
171.185, 1371.651
171.667, 1375.854
172.150, 1385.949
172.632, 1400.066
173.114, 1412.208
173.596, 1417.560
174.078, 1415.844
174.560, 1414.801
175.042, 1415.987
175.525, 1416.298
176.007, 1414.356
176.489, 1410.539
176.971, 1405.745
177.453, 1400.340
177.935, 1394.096
178.417, 1391.976
178.899, 1397.459
179.381, 1402.892
179.863, 1407.741
180.346, 1410.420
180.828, 1407.347
181.310, 1395.034
181.792, 1372.968
182.274, 1353.440
182.756, 1338.094
183.238, 1323.050
183.721, 1304.612
184.203, 1284.662
184.685, 1269.176
185.167, 1263.505
185.649, 1268.100
186.131, 1267.602
186.613, 1259.890
187.095, 1250.384
187.577, 1237.860
188.059, 1224.783
188.542, 1218.188
189.024, 1224.555
189.506, 1243.927
189.988, 1253.670
190.470, 1253.064
190.952, 1245.972
191.434, 1229.370
191.917, 1206.739
192.399, 1186.621
192.881, 1174.653
193.363, 1170.863
193.845, 1172.827
194.327, 1184.705
194.809, 1196.878
195.291, 1205.834
195.773, 1211.945
196.255, 1216.652
196.738, 1220.625
197.220, 1224.026
197.702, 1229.505
198.184, 1241.918
198.666, 1251.064
199.148, 1250.341
199.630, 1242.997
200.112, 1237.446
200.595, 1239.192
201.077, 1247.327
201.559, 1253.304
202.041, 1257.815
202.523, 1260.118
203.005, 1257.748
203.487, 1252.873
203.969, 1250.094
204.452, 1252.001
204.934, 1258.164
205.416, 1266.391
205.898, 1281.530
206.380, 1292.997
206.862, 1294.964
207.344, 1291.211
207.826, 1289.081
208.308, 1292.474
208.791, 1300.273
209.273, 1307.713
209.755, 1321.088
210.237, 1327.089
210.719, 1316.156
211.201, 1296.765
211.683, 1283.164
212.165, 1282.311
212.648, 1290.558
213.130, 1296.667
213.612, 1298.909
214.094, 1301.250
214.576, 1305.255
215.058, 1309.467
215.540, 1310.927
216.022, 1308.170
216.504, 1304.011
216.986, 1305.632
217.469, 1322.979
217.951, 1332.243
218.433, 1323.686
218.915, 1308.676
219.397, 1301.067
219.879, 1305.774
220.361, 1318.027
220.844, 1329.009
221.326, 1341.583
221.808, 1347.989
222.290, 1340.878
222.772, 1330.831
223.254, 1330.554
223.736, 1343.172
224.218, 1358.970
224.700, 1361.856
225.182, 1338.235
225.665, 1328.213
226.147, 1345.041
226.629, 1367.133
227.111, 1374.417
227.593, 1363.710
228.075, 1348.938
228.557, 1348.474
229.040, 1370.512
229.522, 1385.029
230.004, 1387.939
230.486, 1387.110
230.968, 1385.972
231.450, 1385.797
231.932, 1388.431
232.414, 1396.615
232.896, 1412.917
233.378, 1422.785
233.861, 1418.990
234.343, 1416.173
234.825, 1425.320
235.307, 1443.962
235.789, 1460.018
236.271, 1461.729
236.753, 1447.137
237.236, 1440.635
237.718, 1451.557
238.200, 1460.281
238.682, 1455.492
239.164, 1442.000
239.646, 1432.985
240.128, 1439.090
240.610, 1459.331
241.092, 1471.006
241.574, 1463.859
242.057, 1459.106
242.539, 1463.654
243.021, 1473.763
243.503, 1483.221
243.985, 1488.609
244.467, 1489.889
244.949, 1486.681
245.432, 1473.244
245.914, 1461.834
246.396, 1456.415
246.878, 1453.104
247.360, 1447.726
247.842, 1438.467
248.324, 1425.071
248.806, 1405.797
249.288, 1369.006
249.770, 1345.835
250.253, 1347.529
250.735, 1358.221
251.217, 1364.407
251.699, 1361.463
252.181, 1353.091
252.663, 1345.447
253.145, 1339.609
253.627, 1331.817
254.110, 1319.187
254.592, 1306.476
255.074, 1296.087
255.556, 1288.735
256.038, 1284.731
256.520, 1285.378
257.002, 1291.993
257.484, 1297.181
257.966, 1299.619
258.449, 1301.235
258.931, 1302.959
259.413, 1304.739
259.895, 1305.875
260.377, 1306.125
260.859, 1305.513
261.341, 1302.214
261.823, 1290.799
262.306, 1282.954
262.788, 1287.363
263.270, 1299.726
263.752, 1308.588
264.234, 1303.197
264.716, 1288.353
265.198, 1285.847
265.680, 1301.906
266.163, 1319.419
266.645, 1329.901
267.127, 1336.501
267.609, 1343.918
268.091, 1354.046
268.573, 1366.224
269.055, 1380.835
269.537, 1400.062
270.019, 1413.855
270.501, 1411.411
270.984, 1402.986
271.466, 1398.907
271.948, 1401.583
272.430, 1408.900
272.912, 1420.885
273.394, 1437.618
273.876, 1450.633
274.358, 1455.901
274.841, 1456.496
275.323, 1456.425
275.805, 1455.609
276.287, 1455.029
276.769, 1458.910
277.251, 1464.417
277.733, 1458.449
278.215, 1432.200
278.698, 1402.328
279.180, 1392.698
279.662, 1403.603
280.144, 1410.320
280.626, 1399.324
281.108, 1379.972
281.590, 1368.426
282.072, 1368.228
282.555, 1369.760
283.037, 1362.984
283.519, 1348.014
284.001, 1333.657
284.483, 1318.564
284.965, 1305.985
285.447, 1299.971
285.929, 1300.205
286.411, 1301.633
286.893, 1301.381
287.376, 1299.068
287.858, 1292.529
288.340, 1276.392
288.822, 1261.795
289.304, 1252.765
289.786, 1249.240
290.268, 1251.757
290.750, 1261.715
291.233, 1275.884
291.715, 1281.449
292.197, 1266.419
292.679, 1258.242
293.161, 1269.054
293.643, 1285.958
294.125, 1291.143
294.607, 1278.596
295.090, 1258.066
295.572, 1247.190
296.054, 1252.903
296.536, 1256.635
297.018, 1256.255
297.500, 1255.503
297.982, 1258.149
298.464, 1264.037
298.946, 1269.075
299.429, 1268.337
299.911, 1260.297
300.393, 1254.492
300.875, 1249.872
301.357, 1248.365
301.839, 1251.102
302.321, 1257.651
302.803, 1267.571
303.285, 1282.074
303.768, 1299.419
304.250, 1306.550
304.732, 1294.195
305.214, 1284.289
305.696, 1284.379
306.178, 1289.597
306.660, 1293.875
307.142, 1294.599
307.625, 1293.220
308.107, 1291.830
308.589, 1289.775
309.071, 1290.082
309.553, 1294.082
310.035, 1300.596
310.517, 1310.888
310.999, 1325.421
311.482, 1336.978
311.964, 1336.594
312.446, 1325.342
312.928, 1317.452
313.410, 1316.137
313.892, 1317.959
314.374, 1321.862
314.856, 1327.167
315.338, 1327.935
315.820, 1315.153
316.303, 1297.571
316.785, 1293.984
317.267, 1308.276
317.749, 1323.461
318.231, 1325.996
318.713, 1318.637
319.195, 1311.846
319.677, 1306.927
320.160, 1302.958
320.642, 1299.277
321.124, 1295.931
321.606, 1292.755
322.088, 1288.898
322.570, 1285.829
323.052, 1288.655
323.534, 1301.209
324.017, 1312.754
324.499, 1318.743
324.981, 1322.255
325.463, 1327.808
325.945, 1336.856
326.427, 1348.041
326.909, 1359.769
327.391, 1374.497
327.874, 1383.211
328.356, 1380.322
328.838, 1375.889
329.320, 1377.854
329.802, 1385.950
330.284, 1394.109
330.766, 1396.904
331.248, 1394.128
331.730, 1390.984
332.212, 1383.031
332.695, 1379.476
333.177, 1385.876
333.659, 1397.854
334.141, 1408.599
334.623, 1414.613
335.105, 1416.701
335.587, 1416.038
336.069, 1408.626
336.552, 1407.006
337.034, 1415.100
337.516, 1428.128
337.998, 1443.778
338.480, 1461.248
338.962, 1477.693
339.444, 1489.962
339.926, 1498.019
340.409, 1503.396
340.891, 1503.399
341.373, 1504.014
341.855, 1508.729
342.337, 1517.289
342.819, 1528.330
343.301, 1542.880
343.783, 1559.015
344.265, 1571.652
344.748, 1579.689
345.230, 1589.796
345.712, 1607.951
346.194, 1630.991
346.676, 1651.692
347.158, 1667.422
347.640, 1682.622
348.122, 1699.142
348.604, 1717.422
349.087, 1739.052
349.569, 1765.202
350.051, 1794.230
350.533, 1823.345
351.015, 1853.106
351.497, 1881.519
351.979, 1909.144
352.461, 1934.905
352.944, 1954.127
353.426, 1967.341
353.908, 1986.432
354.390, 2025.992
354.872, 2091.354
355.354, 2136.093
355.836, 2140.380
356.318, 2148.428
356.801, 2178.778
357.283, 2226.399
357.765, 2279.118
358.247, 2330.623
358.729, 2380.942
359.211, 2429.918
359.693, 2473.526
360.175, 2523.285
360.657, 2586.151
361.140, 2651.443
361.622, 2709.167
362.104, 2757.461
362.586, 2803.522
363.068, 2857.692
363.550, 2920.753
364.032, 2975.511
364.514, 3015.208
364.996, 3052.415
365.479, 3096.987
365.961, 3145.627
366.443, 3188.623
366.925, 3218.560
367.407, 3240.899
367.889, 3268.933
368.371, 3304.931
368.853, 3328.684
369.336, 3325.488
369.818, 3303.923
370.300, 3284.096
370.782, 3272.855
371.264, 3251.731
371.746, 3205.725
372.228, 3142.542
372.710, 3080.993
373.193, 3027.488
373.675, 2971.743
374.157, 2899.862
374.639, 2808.027
375.121, 2711.882
375.603, 2604.111
376.085, 2498.232
376.567, 2403.232
377.049, 2319.739
377.531, 2244.654
378.014, 2176.302
378.496, 2114.522
378.978, 2054.497
379.460, 1994.404
379.942, 1938.693
380.424, 1884.552
380.906, 1836.491
381.388, 1801.515
381.871, 1781.424
382.353, 1766.986
382.835, 1742.993
383.317, 1705.476
383.799, 1675.984
384.281, 1661.043
384.763, 1650.664
385.245, 1642.670
385.728, 1635.609
386.210, 1625.939
386.692, 1609.814
387.174, 1590.031
387.656, 1573.824
388.138, 1561.862
388.620, 1550.557
389.102, 1536.403
389.584, 1522.414
390.067, 1513.509
390.549, 1511.054
391.031, 1511.705
391.513, 1514.779
391.995, 1519.377
392.477, 1522.565
392.959, 1523.098
393.441, 1524.375
393.923, 1532.049
394.406, 1548.758
394.888, 1557.505
395.370, 1552.039
395.852, 1542.939
396.334, 1535.616
396.816, 1530.782
397.298, 1528.290
397.780, 1527.981
398.263, 1530.005
398.745, 1535.345
399.227, 1552.540
399.709, 1561.577
400.191, 1555.257
400.673, 1543.197
401.155, 1532.750
401.637, 1526.191
402.120, 1523.709
402.602, 1527.624
403.084, 1538.976
403.566, 1543.595
404.048, 1532.195
404.530, 1525.151
405.012, 1538.584
405.494, 1563.144
405.976, 1577.614
406.459, 1568.096
406.941, 1549.012
407.423, 1541.031
407.905, 1544.225
408.387, 1546.902
408.869, 1542.780
409.351, 1537.692
409.833, 1542.548
410.315, 1560.611
410.798, 1573.724
411.280, 1575.327
411.762, 1568.722
412.244, 1556.570
412.726, 1539.662
413.208, 1521.148
413.690, 1503.958
414.172, 1488.063
414.655, 1470.536
415.137, 1450.547
415.619, 1430.155
416.101, 1408.961
416.583, 1388.189
417.065, 1370.409
417.547, 1356.585
418.029, 1343.014
418.512, 1322.288
418.994, 1290.879
419.476, 1263.412
419.958, 1239.776
420.440, 1221.170
420.922, 1210.373
421.404, 1205.729
421.886, 1202.120
422.368, 1196.086
422.850, 1189.188
423.333, 1186.461
423.815, 1189.504
424.297, 1188.205
424.779, 1175.206
425.261, 1156.897
425.743, 1142.755
426.225, 1133.783
426.707, 1126.868
427.190, 1119.691
427.672, 1113.751
428.154, 1113.393
428.636, 1119.541
429.118, 1124.201
429.600, 1119.044
430.082, 1103.330
430.564, 1092.154
431.047, 1088.721
431.529, 1085.708
432.011, 1077.587
432.493, 1068.680
432.975, 1067.932
433.457, 1078.994
433.939, 1093.959
434.421, 1097.099
434.903, 1082.892
435.386, 1072.256
435.868, 1067.791
436.350, 1065.516
436.832, 1063.928
437.314, 1062.935
437.796, 1063.064
438.278, 1065.981
438.760, 1069.380
439.242, 1066.857
439.725, 1057.118
440.207, 1049.514
440.689, 1049.698
441.171, 1052.975
441.653, 1051.648
442.135, 1043.986
442.617, 1038.073
443.099, 1037.883
443.582, 1041.360
444.064, 1046.689
444.546, 1053.412
445.028, 1058.689
445.510, 1060.019
445.992, 1057.454
446.474, 1054.209
446.956, 1050.110
447.439, 1045.581
447.921, 1039.084
448.403, 1032.878
448.885, 1030.340
449.367, 1032.388
449.849, 1036.207
450.331, 1038.466
450.813, 1039.574
451.295, 1036.726
451.778, 1024.240
452.260, 1014.039
452.742, 1013.821
453.224, 1019.594
453.706, 1022.083
454.188, 1015.128
454.670, 1006.394
455.152, 1006.930
455.634, 1016.221
456.117, 1025.934
456.599, 1035.226
457.081, 1041.306
457.563, 1036.918
458.045, 1020.603
458.527, 1011.909
459.009, 1022.525
459.491, 1036.349
459.974, 1036.940
460.456, 1026.990
460.938, 1018.887
461.420, 1018.305
461.902, 1006.586
462.384, 1017.154
462.866, 1022.311
463.348, 1022.350
463.831, 1001.936
464.313, 1007.932
464.795, 1003.345
465.277, 998.323
465.759, 1008.036
466.241, 990.597
466.723, 1000.077
467.205, 996.843
467.687, 1013.527
468.169, 1027.964
468.652, 1026.476
469.134, 1018.280
469.616, 1015.042
470.098, 1019.071
470.580, 1024.862
471.062, 1029.898
471.544, 1034.396
472.026, 1039.862
472.509, 1046.584
472.991, 1049.717
473.473, 1043.645
473.955, 1028.306
474.437, 1019.718
474.919, 1022.031
475.401, 1024.949
475.883, 1024.746
476.366, 1023.899
476.848, 1026.656
477.330, 1034.012
477.812, 1041.714
478.294, 1043.052
478.776, 1036.710
479.258, 1035.535
479.740, 1046.973
480.222, 1053.781
480.705, 1044.256
481.187, 1025.782
481.669, 1011.951
482.151, 1008.021
482.633, 1008.320
483.115, 1007.525
483.597, 1006.249
484.079, 1002.783
484.561, 992.142
485.044, 997.105
485.526, 990.148
486.008, 1005.851
486.490, 1016.053
486.972, 1021.050
487.454, 1005.252
487.936, 1016.307
488.418, 1019.082
488.901, 1019.836
489.383, 1020.272
489.865, 1019.415
490.347, 1014.279
490.829, 1001.646
491.311, 995.584
491.793, 1005.107
492.275, 1013.598
492.758, 1012.432
493.240, 1004.237
493.722, 996.148
494.204, 991.374
494.686, 988.328
495.168, 982.885
495.650, 975.922
496.132, 977.667
496.614, 993.823
497.097, 1015.170
497.579, 1030.459
498.061, 1039.775
498.543, 1043.066
499.025, 1030.898
499.507, 1021.069
499.989, 1029.107
500.471, 1048.593
500.953, 1062.247
501.436, 1061.332
501.918, 1053.271
502.400, 1054.586
502.882, 1069.610
503.364, 1082.237
503.846, 1092.663
504.328, 1099.532
504.810, 1100.584
505.293, 1097.300
505.775, 1093.121
506.257, 1086.216
506.739, 1083.277
507.221, 1099.042
507.703, 1131.531
508.185, 1154.429
508.667, 1157.997
509.150, 1151.204
509.632, 1145.096
510.114, 1139.678
510.596, 1134.924
511.078, 1129.432
511.560, 1125.879
512.042, 1127.536
512.524, 1132.388
513.006, 1135.957
513.489, 1136.081
513.971, 1133.747
514.453, 1129.846
514.935, 1121.978
515.417, 1120.492
515.899, 1132.781
516.381, 1145.336
516.863, 1152.263
517.346, 1154.292
517.828, 1153.800
518.310, 1149.359
518.792, 1146.077
519.274, 1152.573
519.756, 1166.675
520.238, 1174.549
520.720, 1170.514
521.202, 1164.173
521.685, 1167.262
522.167, 1181.666
522.649, 1197.163
523.131, 1219.767
523.613, 1237.279
524.095, 1238.700
524.577, 1232.258
525.059, 1233.691
525.541, 1249.182
526.024, 1268.332
526.506, 1273.241
526.988, 1261.018
527.470, 1256.325
527.952, 1262.084
528.434, 1273.432
528.916, 1289.600
529.398, 1308.649
529.880, 1327.240
530.363, 1344.948
530.845, 1360.886
531.327, 1373.400
531.809, 1383.633
532.291, 1394.639
532.773, 1407.193
533.255, 1419.015
533.737, 1427.017
534.219, 1430.860
534.702, 1441.193
535.184, 1465.989
535.666, 1487.139
536.148, 1495.639
536.630, 1500.677
537.112, 1514.190
537.594, 1538.383
538.076, 1563.636
538.559, 1577.897
539.041, 1583.250
539.523, 1596.209
540.005, 1619.829
540.487, 1642.570
540.969, 1662.129
541.451, 1674.987
541.933, 1673.748
542.416, 1651.492
542.898, 1633.290
543.380, 1632.572
543.862, 1638.284
544.344, 1640.679
544.826, 1637.448
545.308, 1625.858
545.790, 1603.468
546.273, 1572.044
546.755, 1539.166
547.237, 1505.921
547.719, 1469.141
548.201, 1428.297
548.683, 1384.382
549.165, 1333.209
549.647, 1277.871
550.130, 1231.570
550.612, 1206.208
551.094, 1191.309
551.576, 1169.169
552.058, 1141.093
552.540, 1121.439
553.022, 1117.768
553.504, 1119.125
553.986, 1108.676
554.469, 1081.384
554.951, 1060.888
555.433, 1049.552
555.915, 1042.500
556.397, 1040.816
556.879, 1040.898
557.361, 1035.923
557.843, 1023.138
558.325, 1009.065
558.808, 1003.614
559.290, 1007.064
559.772, 1011.237
560.254, 1017.805
560.736, 1021.168
561.218, 1014.790
561.700, 1003.117
562.182, 994.316
562.664, 989.490
563.147, 987.617
563.629, 992.052
564.111, 997.488
564.593, 995.707
565.075, 985.868
565.557, 972.654
566.039, 959.242
566.521, 946.210
567.003, 937.743
567.486, 935.987
567.968, 935.305
568.450, 933.755
568.932, 933.618
569.414, 939.070
569.896, 948.855
570.378, 954.292
570.860, 944.741
571.343, 930.732
571.825, 928.894
572.307, 938.031
572.789, 948.354
573.271, 956.854
573.753, 963.259
574.235, 966.874
574.717, 966.490
575.200, 967.813
575.682, 974.822
576.164, 979.244
576.646, 975.601
577.128, 967.595
577.610, 959.779
578.092, 953.815
578.574, 952.884
579.057, 950.971
579.539, 960.577
580.021, 967.387
580.503, 971.551
580.985, 965.143
581.467, 972.385
581.949, 974.159
582.431, 978.639
582.913, 987.430
583.396, 995.129
583.878, 999.156
584.360, 1000.746
584.842, 1000.067
585.324, 997.884
585.806, 996.290
586.288, 996.714
586.770, 998.577
587.252, 1000.808
587.735, 1004.459
588.217, 1004.165
588.699, 994.284
589.181, 985.117
589.663, 976.987
590.145, 974.146
590.627, 966.647
591.109, 973.429
591.591, 976.745
592.074, 976.780
592.556, 963.711
593.038, 967.564
593.520, 964.635
594.002, 961.428
594.484, 967.662
594.966, 962.793
595.448, 956.232
595.930, 940.152
596.413, 928.451
596.895, 925.940
597.377, 927.499
597.859, 928.916
598.341, 929.610
598.823, 930.652
599.305, 933.152
599.787, 936.093
600.270, 938.357
600.752, 939.834
601.234, 939.714
601.716, 937.353
602.198, 934.719
602.680, 935.716
603.162, 943.502
603.644, 942.939
604.127, 923.664
604.609, 908.284
605.091, 908.588
605.573, 916.101
606.055, 918.091
606.537, 910.642
607.019, 901.947
607.501, 899.295
607.984, 901.370
608.466, 904.619
608.948, 908.819
609.430, 914.784
609.912, 924.349
610.394, 934.514
610.876, 937.313
611.358, 926.337
611.840, 920.236
612.323, 923.849
612.805, 928.328
613.287, 926.247
613.769, 921.116
614.251, 922.776
614.733, 936.747
615.215, 951.737
615.697, 949.123
616.179, 931.943
616.662, 923.362
617.144, 926.985
617.626, 936.962
618.108, 952.924
618.590, 971.635
619.072, 979.411
619.554, 967.047
620.036, 958.779
620.518, 961.073
621.001, 966.771
621.483, 969.470
621.965, 969.989
622.447, 974.099
622.929, 986.355
623.411, 1000.551
623.893, 1002.974
624.375, 993.506
624.857, 989.783
625.340, 996.650
625.822, 1005.650
626.304, 1009.613
626.786, 1009.456
627.268, 1011.747
627.750, 1023.513
628.232, 1028.944
628.714, 1015.472
629.197, 999.031
