##NAMES=Grossular
##RRUFFID=R060444
##IDEAL CHEMISTRY=Ca_3_Al_2_(SiO_4_)_3_
##LOCALITY=Pakistan (?)
##OWNER=RRUFF
##SOURCE=Gemological Institute of America
##DESCRIPTION=Tan colored crystals coating a surface
##STATUS=The identification of this mineral has been confirmed by X-ray diffraction and chemical analysis
##URL=rruff.info/R060444
##MEASURED CHEMISTRY=(Ca_2.98_Mn_0.02_)_Σ=3_(Al_1.84_Fe^3+^_0.13_Ti_0.03_)_Σ=2_((Si_0.99_Al_0.01_)_Σ=1_O_4_)_3_
92.37695, 59.32124
92.85907, 59.14094
93.34119, 59.27324
93.82330, 59.25515
94.30542, 58.81902
94.78754, 58.08195
95.26965, 57.13058
95.75177, 55.71980
96.23389, 53.41554
96.71600, 50.94529
97.19812, 48.98137
97.68024, 47.63002
98.16235, 46.67953
98.64447, 45.88175
99.12659, 45.24197
99.60870, 44.62383
100.0908, 44.17265
100.5729, 43.80847
101.0551, 43.43495
101.5372, 42.99067
102.0193, 42.49499
102.5014, 42.08627
102.9835, 41.67727
103.4656, 41.44247
103.9478, 41.57586
104.4299, 41.90608
104.9120, 42.11677
105.3941, 41.94350
105.8762, 41.33588
106.3583, 40.82561
106.8405, 40.38844
107.3226, 40.02770
107.8047, 39.77777
108.2868, 39.63163
108.7689, 39.50847
109.2510, 39.33949
109.7332, 39.12560
110.2153, 38.79965
110.6974, 38.20454
111.1795, 37.52722
111.6616, 37.04667
112.1437, 36.84196
112.6259, 36.81894
113.1080, 36.93273
113.5901, 37.17060
114.0722, 37.33081
114.5543, 37.19926
115.0364, 36.79605
115.5185, 36.56995
116.0007, 36.95036
116.4828, 37.27978
116.9649, 37.04500
117.4470, 36.18774
117.9291, 35.19553
118.4112, 34.73377
118.8934, 35.02731
119.3755, 35.33900
119.8576, 35.60258
120.3397, 35.83017
120.8218, 36.04971
121.3039, 36.27068
121.7861, 36.45452
122.2682, 36.48993
122.7503, 36.21209
123.2324, 35.94468
123.7145, 35.64633
124.1966, 35.38103
124.6788, 35.25637
125.1609, 35.34832
125.6430, 35.62214
126.1251, 35.77233
126.6072, 35.74302
127.0893, 35.68068
127.5715, 35.72306
128.0536, 35.82362
128.5357, 35.72256
129.0178, 35.09221
129.4999, 34.06866
129.9821, 33.48828
130.4642, 33.79187
130.9463, 34.33231
131.4284, 34.35743
131.9105, 33.72793
132.3926, 33.11808
132.8748, 33.21883
133.3569, 33.71098
133.8390, 34.02548
134.3211, 33.64249
134.8032, 32.85125
135.2853, 32.73689
135.7674, 33.91845
136.2496, 34.95247
136.7317, 35.00594
137.2138, 34.33207
137.6959, 33.59090
138.1780, 33.32423
138.6601, 33.58751
139.1423, 33.74001
139.6244, 33.63189
140.1065, 33.53379
140.5886, 33.54973
141.0707, 33.68166
141.5528, 33.87386
142.0350, 34.08099
142.5171, 34.38235
142.9992, 34.46526
143.4813, 34.15483
143.9634, 33.78855
144.4455, 33.61993
144.9277, 33.70115
145.4098, 33.86156
145.8919, 33.82119
146.3740, 33.44820
146.8561, 33.09829
147.3382, 32.67095
147.8204, 32.30744
148.3025, 32.18969
148.7846, 32.39140
149.2667, 32.83009
149.7488, 33.44468
150.2309, 34.39222
150.7131, 35.04124
151.1952, 35.00633
151.6773, 34.45507
152.1594, 33.87469
152.6415, 33.30835
153.1236, 32.96448
153.6058, 33.14985
154.0879, 34.04202
154.5700, 34.91599
155.0521, 35.05934
155.5342, 34.43224
156.0163, 33.97031
156.4985, 34.19316
156.9806, 34.66047
157.4627, 35.05739
157.9448, 35.31605
158.4269, 35.46625
158.9090, 35.54364
159.3912, 35.53181
159.8733, 35.48085
160.3554, 35.28688
160.8375, 35.11595
161.3196, 35.15110
161.8017, 35.48471
162.2839, 35.99616
162.7660, 36.32882
163.2481, 36.43195
163.7302, 36.39198
164.2123, 36.00970
164.6944, 35.55866
165.1766, 35.39890
165.6587, 35.74911
166.1408, 36.51558
166.6229, 37.08935
167.1050, 37.45617
167.5871, 37.65084
168.0693, 37.49120
168.5514, 37.16185
169.0335, 37.00124
169.5156, 37.23429
169.9977, 37.84953
170.4798, 38.54763
170.9620, 39.36176
171.4441, 40.20679
171.9262, 40.92673
172.4083, 41.59127
172.8904, 42.52079
173.3725, 43.98153
173.8547, 45.96566
174.3368, 47.98820
174.8189, 49.88388
175.3010, 51.94129
175.7831, 54.53719
176.2652, 57.70858
176.7474, 60.81878
177.2295, 63.58065
177.7116, 65.90827
178.1937, 67.45213
178.6758, 68.27402
179.1579, 68.22520
179.6401, 66.91430
180.1222, 64.06236
180.6043, 60.74630
181.0864, 57.38671
181.5685, 54.07042
182.0506, 50.99334
182.5328, 48.23075
183.0149, 45.77515
183.4970, 43.58083
183.9791, 41.65715
184.4612, 40.04497
184.9433, 38.75037
185.4255, 37.72191
185.9076, 36.85722
186.3897, 36.06854
186.8718, 35.37629
187.3539, 35.02670
187.8360, 35.37074
188.3182, 35.71584
188.8003, 35.95432
189.2824, 36.04090
189.7645, 35.90784
190.2466, 35.45949
190.7287, 34.67248
191.2109, 34.10078
191.6930, 33.87584
192.1751, 33.73254
192.6572, 33.62901
193.1393, 33.54319
193.6214, 33.43889
194.1036, 33.26546
194.5857, 32.98349
195.0678, 32.97416
195.5499, 33.62795
196.0320, 34.14289
196.5141, 33.96254
196.9963, 33.20562
197.4784, 32.49620
197.9605, 32.44699
198.4426, 33.18243
198.9247, 33.66350
199.4068, 33.80182
199.8890, 33.78227
200.3711, 33.67395
200.8532, 33.49813
201.3353, 33.32970
201.8174, 33.24113
202.2995, 33.23941
202.7817, 33.22879
203.2638, 33.18374
203.7459, 33.14133
204.2280, 33.17603
204.7101, 33.30286
205.1922, 33.35986
205.6744, 33.08080
206.1565, 32.56154
206.6386, 32.28621
207.1207, 32.51733
207.6028, 32.98127
208.0849, 33.28835
208.5671, 33.37211
209.0492, 33.45641
209.5313, 33.82164
210.0134, 34.33248
210.4955, 34.68203
210.9776, 34.65234
211.4598, 34.39819
211.9419, 34.24765
212.4240, 34.19832
212.9061, 34.27900
213.3882, 34.57869
213.8703, 35.00235
214.3525, 35.37178
214.8346, 35.52071
215.3167, 35.54536
215.7988, 35.82508
216.2809, 36.56364
216.7630, 37.24789
217.2451, 37.60226
217.7273, 37.76383
218.2094, 37.97731
218.6915, 38.41134
219.1736, 39.02073
219.6557, 39.52136
220.1378, 39.77293
220.6200, 40.08461
221.1021, 40.60845
221.5842, 41.24459
222.0663, 41.82223
222.5484, 42.20792
223.0305, 42.43276
223.5127, 42.79595
223.9948, 43.28820
224.4769, 43.95249
224.9590, 44.82446
225.4411, 45.87524
225.9232, 47.08463
226.4054, 48.47289
226.8875, 50.00045
227.3696, 51.29197
227.8517, 52.20293
228.3338, 53.00941
228.8159, 53.55014
229.2981, 54.03901
229.7802, 54.82050
230.2623, 56.13057
230.7444, 57.93522
231.2265, 59.82501
231.7086, 61.97324
232.1908, 64.01119
232.6729, 65.81141
233.1550, 67.43879
233.6371, 69.00014
234.1192, 70.53561
234.6013, 72.08118
235.0835, 73.92990
235.5656, 76.46265
236.0477, 78.83589
236.5298, 80.83883
237.0119, 82.49204
237.4940, 83.86885
237.9762, 84.99072
238.4583, 85.87713
238.9404, 86.62254
239.4225, 87.40775
239.9046, 87.89556
240.3867, 87.42411
240.8689, 86.51186
241.3510, 86.44576
241.8331, 87.89616
242.3152, 90.62247
242.7973, 93.86540
243.2794, 97.91633
243.7616, 101.9162
244.2437, 105.8454
244.7258, 109.4770
245.2079, 112.2751
245.6900, 114.3288
246.1721, 114.9160
246.6543, 112.8286
247.1364, 107.7864
247.6185, 101.3692
248.1006, 93.60534
248.5827, 84.94374
249.0648, 76.80397
249.5470, 69.42110
250.0291, 63.10225
250.5112, 58.12946
250.9933, 54.53153
251.4754, 51.69080
251.9576, 49.28846
252.4397, 47.35343
252.9218, 46.00215
253.4039, 45.51097
253.8860, 45.35134
254.3681, 44.89536
254.8503, 44.14326
255.3324, 43.45528
255.8145, 43.03594
256.2966, 42.86517
256.7787, 42.85583
257.2608, 43.05355
257.7430, 43.34473
258.2251, 43.64898
258.7072, 43.96041
259.1893, 44.23931
259.6714, 44.38865
260.1535, 44.45516
260.6357, 44.71883
261.1178, 45.30329
261.5999, 45.96935
262.0820, 46.61910
262.5641, 47.22985
263.0462, 47.73494
263.5284, 47.93468
264.0105, 47.92883
264.4926, 48.34393
264.9747, 49.37125
265.4568, 50.57841
265.9389, 51.81714
266.4211, 53.05317
266.9032, 54.19405
267.3853, 55.06330
267.8674, 55.79919
268.3495, 57.06949
268.8316, 59.25667
269.3138, 61.42595
269.7959, 63.12260
270.2780, 64.59847
270.7601, 66.19726
271.2422, 68.04948
271.7243, 70.20116
272.2065, 72.80231
272.6886, 75.96878
273.1707, 79.41611
273.6528, 83.29381
274.1349, 87.28310
274.6170, 91.07699
275.0992, 94.60390
275.5813, 97.67086
276.0634, 99.83189
276.5455, 101.2728
277.0276, 101.2971
277.5097, 99.97648
277.9919, 97.40493
278.4740, 93.38731
278.9561, 87.85197
279.4382, 81.57162
279.9203, 75.88918
280.4024, 70.92220
280.8846, 66.42199
281.3667, 62.23141
281.8488, 58.48439
282.3309, 55.35754
282.8130, 52.87171
283.2951, 50.84676
283.7773, 49.04631
284.2594, 47.51361
284.7415, 46.11754
285.2236, 44.79091
285.7057, 43.62170
286.1878, 42.76606
286.6700, 42.18556
287.1521, 41.61099
287.6342, 40.66271
288.1163, 39.13572
288.5984, 38.08219
289.0805, 38.02546
289.5627, 37.93946
290.0448, 37.14749
290.5269, 35.82356
291.0090, 34.73358
291.4911, 34.67258
291.9732, 35.77293
292.4554, 36.20408
292.9375, 35.27177
293.4196, 34.37392
293.9017, 34.00514
294.3838, 34.03265
294.8659, 34.08710
295.3481, 33.90643
295.8302, 33.50910
296.3123, 33.15399
296.7944, 32.80525
297.2765, 32.54184
297.7586, 32.36943
298.2408, 32.29570
298.7229, 32.37849
299.2050, 32.66276
299.6871, 33.04866
300.1692, 33.14148
300.6513, 32.47117
301.1335, 32.07056
301.6156, 32.15257
302.0977, 32.49456
302.5798, 32.88514
303.0619, 33.23588
303.5440, 33.54372
304.0262, 33.80835
304.5083, 34.04850
304.9904, 34.20129
305.4725, 34.12315
305.9546, 34.05098
306.4367, 34.26765
306.9189, 34.79899
307.4010, 35.32801
307.8831, 35.34719
308.3652, 34.41010
308.8473, 34.16331
309.3294, 34.99639
309.8116, 36.07903
310.2937, 37.04891
310.7758, 37.80325
311.2579, 38.27588
311.7400, 38.34631
312.2221, 37.91096
312.7043, 37.82970
313.1864, 38.34966
313.6685, 38.92419
314.1506, 39.43468
314.6327, 39.82780
315.1148, 40.02439
315.5970, 39.94233
316.0791, 39.61080
316.5612, 39.43220
317.0433, 39.49622
317.5254, 39.61321
318.0075, 39.80484
318.4897, 40.01331
318.9718, 40.14913
319.4539, 40.16356
319.9360, 40.10044
320.4181, 40.09598
320.9002, 39.98773
321.3824, 40.17309
321.8645, 40.80249
322.3466, 41.66291
322.8287, 42.60466
323.3108, 43.55748
323.7929, 44.46598
324.2751, 45.18883
324.7572, 45.39079
325.2393, 46.09055
325.7214, 47.72393
326.2035, 49.46647
326.6856, 50.85471
327.1678, 51.78374
327.6499, 52.32829
328.1320, 52.53204
328.6141, 52.30738
329.0962, 52.16933
329.5783, 52.40511
330.0605, 52.44695
330.5426, 51.97791
331.0247, 51.09675
331.5068, 50.09686
331.9889, 49.18841
332.4710, 48.36695
332.9532, 47.56320
333.4353, 46.53109
333.9174, 45.78775
334.3995, 45.56066
334.8816, 45.65737
335.3637, 45.81728
335.8459, 45.90896
336.3280, 45.97047
336.8101, 46.11654
337.2922, 46.43930
337.7743, 46.71261
338.2564, 46.76356
338.7386, 46.84849
339.2206, 47.21465
339.7028, 47.92261
340.1849, 48.82012
340.6670, 49.68269
341.1491, 50.47083
341.6312, 51.31974
342.1133, 52.13812
342.5955, 53.07649
343.0776, 54.25285
343.5597, 55.64579
344.0418, 57.11720
344.5239, 58.48730
345.0060, 59.72396
345.4882, 61.42447
345.9703, 64.18200
346.4524, 66.85412
346.9345, 69.30554
347.4166, 71.43391
347.8987, 73.06062
348.3809, 74.00401
348.8630, 74.47176
349.3451, 75.28405
349.8272, 76.53976
350.3093, 78.04530
350.7914, 79.68177
351.2736, 81.54839
351.7557, 83.68899
352.2378, 86.12690
352.7199, 88.95663
353.2020, 92.35207
353.6841, 96.41023
354.1663, 100.7538
354.6484, 105.6215
355.1305, 110.5456
355.6126, 115.1283
356.0947, 119.4035
356.5768, 123.8048
357.0590, 128.8536
357.5411, 134.5526
358.0232, 140.0354
358.5053, 144.6725
358.9874, 149.8207
359.4695, 155.9515
359.9517, 162.9701
360.4338, 170.6051
360.9159, 178.6857
361.3980, 187.2761
361.8801, 196.7755
362.3622, 207.4079
362.8444, 218.3876
363.3265, 229.1227
363.8086, 240.1704
364.2907, 252.1775
364.7728, 265.4283
365.2549, 279.4865
365.7371, 293.9193
366.2192, 308.8171
366.7013, 323.7859
367.1834, 338.6913
367.6655, 353.6952
368.1476, 368.7624
368.6298, 383.9811
369.1119, 399.6349
369.5940, 416.2246
370.0761, 433.5004
370.5582, 450.2369
371.0403, 466.6687
371.5225, 481.8706
372.0046, 497.1279
372.4867, 510.9243
372.9688, 519.4420
373.4509, 521.7933
373.9330, 517.6890
374.4152, 506.1784
374.8973, 487.0581
375.3794, 462.4005
375.8615, 430.3475
376.3436, 394.5247
376.8257, 360.0665
377.3079, 327.0503
377.7900, 296.2281
378.2721, 267.8110
378.7542, 241.9228
379.2363, 219.3239
379.7184, 200.5724
380.2006, 184.5252
380.6827, 169.6931
381.1648, 156.0168
381.6469, 143.8657
382.1290, 133.4523
382.6111, 124.5406
383.0933, 117.0217
383.5754, 110.8829
384.0575, 105.5368
384.5396, 100.6046
385.0217, 96.10314
385.5038, 91.70849
385.9860, 87.12590
386.4681, 82.93201
386.9502, 79.59677
387.4323, 76.98521
387.9144, 74.58681
388.3965, 72.19082
388.8787, 69.83474
389.3608, 67.61672
389.8429, 65.42773
390.3250, 63.52538
390.8071, 62.05477
391.2892, 60.85806
391.7714, 59.76979
392.2535, 58.75038
392.7356, 57.80731
393.2177, 56.98296
393.6998, 56.33369
394.1819, 55.48455
394.6641, 54.07452
395.1462, 52.80064
395.6283, 52.12042
396.1104, 51.93196
396.5925, 51.88427
397.0746, 51.76258
397.5568, 51.57193
398.0389, 51.33151
398.5210, 50.91518
399.0031, 50.60491
399.4852, 50.67482
399.9673, 50.75605
400.4495, 50.29190
400.9316, 49.15740
401.4137, 47.92671
401.8958, 47.52188
402.3779, 48.31862
402.8600, 48.93843
403.3422, 49.36249
403.8243, 49.65758
404.3064, 49.76933
404.7885, 49.76857
405.2706, 49.82717
405.7527, 50.08266
406.2349, 50.51209
406.7170, 50.92601
407.1991, 51.32512
407.6812, 51.70153
408.1633, 51.79557
408.6454, 51.97558
409.1276, 52.75013
409.6097, 54.31351
410.0918, 56.15273
410.5739, 57.43383
411.0560, 57.98611
411.5381, 58.87522
412.0203, 60.64803
412.5024, 62.48147
412.9845, 64.00447
413.4666, 65.17442
413.9487, 66.00462
414.4308, 66.64526
414.9130, 66.96615
415.3951, 66.43684
415.8772, 64.94024
416.3593, 62.86762
416.8414, 60.21731
417.3235, 57.18842
417.8057, 53.93383
418.2878, 50.29612
418.7699, 46.83302
419.2520, 44.10186
419.7341, 42.05596
420.2162, 40.25210
420.6984, 38.58981
421.1805, 37.10085
421.6626, 35.82964
422.1447, 34.75648
422.6268, 33.83871
423.1089, 33.22047
423.5911, 32.67867
424.0732, 31.81127
424.5553, 30.57528
425.0374, 29.44683
425.5195, 28.81868
426.0016, 28.64051
426.4838, 28.40220
426.9659, 28.01090
427.4480, 27.65913
427.9301, 27.50142
428.4122, 27.44228
428.8943, 27.25035
429.3765, 26.82369
429.8586, 26.32840
430.3407, 26.06208
430.8228, 26.17536
431.3049, 26.20112
431.7870, 26.15933
432.2692, 26.01232
432.7513, 25.65706
433.2334, 25.14355
433.7155, 24.65515
434.1976, 24.32569
434.6797, 24.15894
435.1619, 24.21904
435.6440, 24.85252
436.1261, 25.31620
436.6082, 25.39262
437.0903, 25.27602
437.5724, 25.24362
438.0546, 25.38074
438.5367, 25.47097
439.0188, 25.04721
439.5009, 23.74011
439.9830, 23.12108
440.4651, 24.01310
440.9473, 24.89998
441.4294, 25.03069
441.9115, 24.55391
442.3936, 24.03159
442.8757, 23.81851
443.3578, 23.84670
443.8400, 23.91735
444.3221, 24.07457
444.8042, 24.16353
445.2863, 23.94766
445.7684, 23.73399
446.2505, 23.92202
446.7327, 24.62726
447.2148, 25.22569
447.6969, 25.02072
448.1790, 24.17238
448.6611, 23.55813
449.1432, 23.31026
449.6254, 23.32284
450.1075, 23.67468
450.5896, 24.23921
451.0717, 24.61185
451.5538, 24.54866
452.0359, 24.34480
452.5181, 24.23283
453.0002, 24.21767
453.4823, 24.36054
453.9644, 24.77170
454.4465, 25.25880
454.9286, 25.31265
455.4108, 24.73183
455.8929, 24.40250
456.3750, 24.69561
456.8571, 25.24832
457.3392, 25.74085
457.8214, 26.10042
458.3035, 26.26682
458.7856, 26.15139
459.2677, 25.74898
459.7498, 25.51108
460.2319, 25.58017
460.7141, 25.62155
461.1962, 25.47980
461.6783, 25.27236
462.1604, 25.19287
462.6425, 25.31080
463.1246, 25.49932
463.6068, 25.52607
464.0889, 25.28337
464.5710, 25.16548
465.0531, 25.32420
465.5352, 25.45928
466.0173, 25.41144
466.4995, 25.21736
466.9816, 24.98287
467.4637, 24.73709
467.9458, 24.54647
468.4279, 24.62576
468.9100, 25.01463
469.3922, 25.57631
469.8743, 26.49951
470.3564, 27.44306
470.8385, 28.13810
471.3206, 28.54362
471.8027, 28.76315
472.2849, 28.72535
472.7670, 28.54460
473.2491, 28.68432
473.7312, 29.24898
474.2133, 29.95152
474.6954, 30.61433
475.1776, 31.26267
475.6597, 31.96241
476.1418, 32.87628
476.6239, 33.65170
477.1060, 34.15557
477.5881, 34.33241
478.0703, 33.94265
478.5524, 32.83947
479.0345, 31.39570
479.5166, 30.09661
479.9987, 28.91567
480.4808, 28.03688
480.9630, 27.62731
481.4451, 27.39684
481.9272, 27.23365
482.4093, 27.08672
482.8914, 26.85688
483.3735, 26.47339
483.8557, 25.99196
484.3378, 25.60883
484.8199, 25.36350
485.3020, 25.17109
485.7841, 24.97843
486.2662, 24.86754
486.7484, 24.90820
487.2305, 25.10267
487.7126, 25.40519
488.1947, 25.80126
488.6768, 26.28135
489.1589, 26.69617
489.6411, 27.05213
490.1232, 27.32682
490.6053, 27.43121
491.0874, 27.50118
491.5695, 27.72994
492.0516, 28.18443
492.5338, 28.62566
493.0159, 28.72340
493.4980, 28.53228
493.9801, 28.57066
494.4622, 29.01987
494.9443, 29.50574
495.4265, 29.66167
495.9086, 29.60193
496.3907, 29.63924
496.8728, 29.88134
497.3549, 30.21949
497.8370, 30.56145
498.3192, 30.92042
498.8013, 31.33936
499.2834, 31.82485
499.7655, 32.40277
500.2476, 33.12439
500.7297, 34.00432
501.2119, 34.98839
501.6940, 36.18005
502.1761, 37.38750
502.6582, 38.32909
503.1403, 39.14328
503.6224, 40.33849
504.1045, 42.27320
504.5866, 44.69775
505.0688, 46.70600
505.5509, 47.88966
506.0330, 49.30406
506.5151, 51.40587
506.9972, 53.45367
507.4793, 55.14066
507.9615, 56.29234
508.4436, 56.60186
508.9257, 55.75642
509.4078, 53.84058
509.8899, 51.29229
510.3720, 47.69392
510.8542, 44.36206
511.3363, 41.88142
511.8184, 39.85286
512.3005, 37.89473
512.7827, 35.92230
513.2648, 34.17747
513.7469, 32.85769
514.2290, 31.90243
514.7111, 31.14924
515.1932, 30.60107
515.6754, 30.14546
516.1575, 29.72590
516.6396, 29.33167
517.1217, 28.91239
517.6038, 28.27561
518.0859, 27.83711
518.5681, 27.97232
519.0502, 28.38288
519.5323, 28.54665
520.0144, 28.31901
520.4965, 27.92253
520.9786, 27.59378
521.4608, 27.29751
521.9429, 27.30448
522.4250, 27.79218
522.9071, 28.33885
523.3892, 28.79902
523.8713, 29.21819
524.3535, 29.71563
524.8356, 30.33445
525.3177, 30.93919
525.7998, 31.28341
526.2819, 31.32285
526.7640, 31.31894
527.2462, 31.23405
527.7283, 31.16279
528.2104, 31.04461
528.6925, 30.97902
529.1746, 31.19911
529.6567, 31.88416
530.1389, 32.76974
530.6210, 33.41608
531.1031, 33.85384
531.5852, 34.69096
532.0673, 36.30663
532.5494, 38.06678
533.0316, 39.05322
533.5137, 39.31892
533.9958, 39.90900
534.4779, 41.28150
534.9600, 42.84630
535.4421, 44.12228
535.9243, 45.18558
536.4064, 46.34504
536.8885, 47.71895
537.3706, 49.37841
537.8527, 51.46050
538.3348, 54.14644
538.8170, 56.97448
539.2991, 59.77999
539.7812, 62.84763
540.2633, 66.26338
540.7454, 70.09999
541.2275, 74.44022
541.7097, 79.29195
542.1918, 84.81660
542.6739, 91.52718
543.1560, 99.73361
543.6381, 108.2520
544.1202, 117.1377
544.6024, 126.0097
545.0845, 134.9873
545.5666, 143.8880
546.0487, 151.6655
546.5308, 158.6797
547.0129, 163.8350
547.4951, 165.2798
547.9772, 163.0558
548.4593, 158.1817
548.9414, 150.7567
549.4235, 141.3095
549.9056, 130.3232
550.3878, 117.5361
550.8699, 105.3455
551.3520, 93.83204
551.8341, 83.45874
552.3162, 74.70390
552.7983, 67.46407
553.2805, 61.32298
553.7626, 56.02771
554.2447, 51.57807
554.7268, 47.96574
555.2089, 45.47521
555.6910, 43.38156
556.1732, 41.91232
556.6553, 40.55419
557.1374, 38.87622
557.6195, 36.99955
558.1016, 35.40046
558.5837, 34.40849
559.0659, 33.82537
559.5480, 33.20400
560.0301, 32.53765
560.5122, 31.87123
560.9943, 31.07543
561.4764, 30.43595
561.9586, 30.33901
562.4407, 30.73886
562.9228, 30.93500
563.4049, 30.53328
563.8870, 29.89666
564.3691, 29.34461
564.8513, 28.89478
565.3334, 28.56681
565.8155, 28.37544
566.2976, 28.29779
566.7797, 28.31886
567.2618, 28.62023
567.7440, 28.56341
568.2261, 27.78652
568.7082, 26.98832
569.1903, 26.51722
569.6724, 26.36123
570.1545, 26.44230
570.6367, 26.73699
571.1188, 27.08100
571.6009, 27.12615
572.0830, 26.83524
572.5651, 26.37174
573.0472, 25.39044
573.5294, 24.60747
574.0115, 24.55661
574.4936, 25.01609
574.9757, 25.36780
575.4578, 25.38603
575.9399, 25.15053
576.4221, 24.59546
576.9042, 23.80842
577.3863, 23.30688
577.8684, 23.27558
578.3505, 23.47086
578.8326, 23.67000
579.3148, 23.87801
579.7969, 23.90802
580.2790, 23.55997
580.7611, 23.23587
581.2432, 23.20714
581.7253, 23.31243
582.2075, 23.21352
582.6896, 22.80997
583.1717, 22.40097
583.6538, 22.45796
584.1359, 23.09208
584.6180, 23.38708
585.1002, 22.95612
585.5823, 22.64383
586.0643, 22.79539
586.5464, 23.18322
587.0286, 23.51019
587.5107, 23.69207
