##NAMES=Groutite
##RRUFFID=R080004
##IDEAL CHEMISTRY=Mn^3+^O(OH)
##LOCALITY=Roberts mine, Crosby, Minnesota, USA
##OWNER=RRUFF
##SOURCE=Michael Scott
##DESCRIPTION=Black crystalline and in some cases striated.
##STATUS=The identification of this mineral has been confirmed by single-crystal X-ray diffraction.
##URL=rruff.info/R080004
133.4219, 23.53266
133.9040, 23.95319
134.3862, 24.45137
134.8683, 24.92390
135.3504, 25.37346
135.8325, 25.84936
136.3146, 26.33944
136.7967, 26.85353
137.2789, 27.55093
137.7610, 28.48692
138.2431, 29.48630
138.7252, 30.29949
139.2073, 30.88333
139.6894, 31.50874
140.1716, 32.31979
140.6537, 33.37018
141.1358, 34.22057
141.6179, 34.79419
142.1000, 35.26380
142.5821, 36.01657
143.0643, 37.30941
143.5464, 38.35846
144.0285, 38.82287
144.5106, 38.49279
144.9927, 38.13116
145.4748, 37.80957
145.9570, 37.44788
146.4391, 36.82947
146.9212, 35.91687
147.4033, 34.79277
147.8854, 33.45399
148.3675, 31.60432
148.8497, 30.01650
149.3318, 28.81970
149.8139, 27.94492
150.2960, 27.05392
150.7781, 26.13697
151.2602, 25.21517
151.7424, 24.30917
152.2245, 23.20847
152.7066, 22.35733
153.1887, 21.89495
153.6708, 21.79053
154.1529, 21.61255
154.6351, 21.29130
155.1172, 20.91162
155.5993, 20.53140
156.0814, 20.10912
156.5635, 19.73054
157.0456, 19.42176
157.5278, 19.18565
158.0099, 18.96181
158.4920, 18.74294
158.9741, 18.52761
159.4562, 18.31371
159.9383, 17.99018
160.4205, 17.76796
160.9026, 17.79185
161.3847, 18.08667
161.8668, 18.27281
162.3489, 18.15563
162.8310, 17.87900
163.3132, 17.61032
163.7953, 17.38418
164.2774, 17.19673
164.7595, 17.03958
165.2416, 16.90761
165.7237, 16.83349
166.2059, 16.88299
166.6880, 16.99182
167.1701, 17.06231
167.6522, 17.02805
168.1343, 16.95609
168.6164, 16.88193
169.0986, 16.80140
169.5807, 16.75539
170.0628, 16.85240
170.5449, 17.00407
171.0270, 17.03573
171.5091, 16.69109
171.9913, 16.26853
172.4734, 16.08654
172.9555, 16.24360
173.4376, 16.45396
173.9197, 16.50321
174.4018, 16.41631
174.8840, 16.25758
175.3661, 15.94736
175.8482, 15.62603
176.3303, 15.51239
176.8124, 15.70673
177.2945, 15.95057
177.7767, 15.93618
178.2588, 15.71625
178.7409, 15.50946
179.2230, 15.48759
179.7051, 15.56762
180.1872, 15.58583
180.6694, 15.48747
181.1515, 15.36708
181.6336, 15.36642
182.1157, 15.47242
182.5978, 15.59215
183.0799, 15.67556
183.5621, 15.72495
184.0442, 15.73790
184.5263, 15.69525
185.0084, 15.64179
185.4905, 15.67938
185.9726, 15.80340
186.4547, 15.90051
186.9369, 15.85958
187.4190, 15.71039
187.9011, 15.57478
188.3832, 15.46771
188.8653, 15.39657
189.3474, 15.41185
189.8296, 15.51841
190.3117, 15.58770
190.7938, 15.45513
191.2759, 15.15460
191.7580, 14.95927
192.2401, 14.95646
192.7223, 15.08252
193.2044, 15.13962
193.6865, 15.11775
194.1686, 15.10896
194.6507, 15.23786
195.1328, 15.49470
195.6150, 15.65796
196.0971, 15.64605
196.5792, 15.50706
197.0613, 15.41466
197.5434, 15.36531
198.0255, 15.37801
198.5077, 15.49159
198.9898, 15.71017
199.4719, 15.93021
199.9540, 16.13545
200.4361, 16.32218
200.9182, 16.48663
201.4004, 16.64043
201.8825, 16.73326
202.3646, 16.67877
202.8467, 16.45409
203.3288, 16.28001
203.8109, 16.21441
204.2931, 16.24787
204.7752, 16.30955
205.2573, 16.41046
205.7394, 16.51344
206.2215, 16.56925
206.7036, 16.56304
207.1858, 16.58807
207.6679, 16.68357
208.1500, 16.84167
208.6321, 16.92891
209.1142, 16.91625
209.5963, 16.88713
210.0785, 16.93584
210.5606, 17.08036
211.0427, 17.23137
211.5248, 17.35102
212.0069, 17.44217
212.4890, 17.65131
212.9712, 18.02913
213.4533, 18.44847
213.9354, 18.74232
214.4175, 18.84714
214.8996, 19.02963
215.3817, 19.37596
215.8639, 19.88347
216.3460, 20.37873
216.8281, 20.93107
217.3102, 21.38025
217.7923, 21.52933
218.2744, 21.30929
218.7566, 20.96529
219.2387, 20.53699
219.7208, 20.01901
220.2029, 19.50057
220.6850, 18.98224
221.1671, 18.46796
221.6493, 17.95818
222.1314, 17.41025
222.6135, 16.95321
223.0956, 16.62463
223.5777, 16.42148
224.0598, 16.31353
224.5420, 16.32586
225.0241, 16.40426
225.5062, 16.50500
225.9883, 16.66570
226.4704, 16.76544
226.9525, 16.75992
227.4347, 16.64360
227.9168, 16.54911
228.3989, 16.44167
228.8810, 16.39263
229.3631, 16.49305
229.8452, 16.83403
230.3274, 17.14886
230.8095, 17.39684
231.2916, 17.57890
231.7737, 17.65587
232.2558, 17.54511
232.7379, 17.41483
233.2201, 17.44649
233.7022, 17.73217
234.1843, 17.99675
234.6664, 18.16843
235.1485, 18.24366
235.6306, 18.39012
236.1128, 18.63350
236.5949, 18.92381
237.0770, 19.21741
237.5591, 19.51452
238.0412, 19.81426
238.5233, 20.12380
239.0055, 20.44430
239.4876, 20.71504
239.9697, 20.89810
240.4518, 21.07509
240.9339, 21.33151
241.4160, 21.75065
241.8982, 22.07882
242.3803, 22.22222
242.8624, 22.19071
243.3445, 22.31054
243.8266, 22.61997
244.3087, 23.03724
244.7909, 23.52875
245.2730, 24.23935
245.7551, 24.71400
246.2372, 24.74099
246.7193, 24.38007
247.2014, 24.49922
247.6836, 25.37499
248.1657, 26.39515
248.6478, 27.07285
249.1299, 27.23856
249.6120, 27.44221
250.0941, 27.76917
250.5762, 28.19888
251.0584, 28.55236
251.5405, 28.74599
252.0226, 28.97173
252.5047, 29.38377
252.9868, 30.11334
253.4689, 30.73007
253.9511, 31.19257
254.4332, 31.51004
254.9153, 31.71875
255.3974, 31.80331
255.8795, 31.80523
256.3617, 31.73960
256.8438, 31.57833
257.3259, 31.42088
257.8080, 31.26334
258.2901, 31.11637
258.7722, 31.03911
259.2544, 31.11651
259.7365, 31.11848
260.2186, 30.87911
260.7007, 30.27600
261.1828, 29.81417
261.6649, 29.57446
262.1471, 29.47583
262.6292, 29.25970
263.1113, 28.87775
263.5934, 28.47727
264.0755, 28.13861
264.5576, 27.88309
265.0398, 27.59342
265.5219, 27.23121
266.0040, 26.85484
266.4861, 26.61983
266.9682, 26.60668
267.4503, 26.53892
267.9325, 26.24072
268.4146, 25.60799
268.8967, 25.23481
269.3788, 25.20912
269.8609, 25.35495
270.3430, 25.33676
270.8252, 25.11207
271.3073, 24.86534
271.7894, 24.66819
272.2715, 24.52202
272.7536, 24.39382
273.2357, 24.26649
273.7179, 24.18333
274.2000, 24.25873
274.6821, 24.55208
275.1642, 24.72832
275.6463, 24.59456
276.1284, 24.14949
276.6106, 23.97944
277.0927, 24.14698
277.5748, 24.45339
278.0569, 24.64365
278.5390, 24.70009
279.0211, 24.78650
279.5032, 24.98306
279.9854, 25.26599
280.4675, 25.43449
280.9496, 25.48205
281.4317, 25.43850
281.9138, 25.32125
282.3959, 25.12883
282.8781, 24.90846
283.3602, 24.67447
283.8423, 24.42052
284.3244, 24.13293
284.8065, 23.81361
285.2886, 23.44164
285.7708, 22.92899
286.2529, 22.29051
286.7350, 21.82630
287.2171, 21.64866
287.6992, 21.64966
288.1813, 21.53517
288.6635, 21.30006
289.1456, 21.03762
289.6277, 20.78130
290.1098, 20.54349
290.5919, 20.43512
291.0740, 20.51730
291.5562, 20.66883
292.0383, 20.62443
292.5204, 20.39331
293.0025, 20.17847
293.4846, 20.15620
293.9667, 20.26433
294.4489, 20.27847
294.9310, 20.15862
295.4131, 19.97482
295.8952, 19.78652
296.3773, 19.60598
296.8594, 19.50408
297.3416, 19.55767
297.8237, 19.71477
298.3058, 19.86927
298.7879, 20.02121
299.2700, 20.13865
299.7521, 20.17494
300.2343, 20.14245
300.7164, 20.07837
301.1985, 19.47846
301.6806, 20.05475
302.1627, 20.39097
302.6448, 20.50002
303.1270, 19.70150
303.6091, 20.07492
304.0912, 19.97867
304.5733, 19.86317
305.0554, 20.40153
305.5375, 19.73501
306.0197, 20.26301
306.5018, 20.31418
306.9839, 20.58358
307.4660, 20.38041
307.9481, 20.32321
308.4302, 20.73872
308.9124, 20.89249
309.3945, 20.63493
309.8766, 20.38258
310.3587, 20.49788
310.8408, 20.62833
311.3229, 20.74319
311.8051, 20.81976
312.2872, 20.82068
312.7693, 20.68023
313.2514, 20.56060
313.7335, 20.55172
314.2156, 20.63863
314.6978, 20.77612
315.1799, 21.01958
315.6620, 21.25912
316.1441, 21.39995
316.6262, 21.39147
317.1083, 21.38405
317.5905, 21.44150
318.0726, 21.54227
318.5547, 21.65018
319.0368, 21.75738
319.5189, 21.86423
320.0010, 21.96709
320.4832, 22.06346
320.9653, 22.17035
321.4474, 22.31036
321.9295, 22.45770
322.4116, 22.58220
322.8937, 22.70798
323.3759, 22.78109
323.8580, 22.73483
324.3401, 22.55796
324.8222, 22.50556
325.3043, 22.75181
325.7864, 23.06268
326.2686, 23.25775
326.7507, 23.11569
327.2328, 23.08293
327.7149, 23.26181
328.1970, 23.63128
328.6791, 23.97260
329.1613, 24.32509
329.6434, 24.61276
330.1255, 24.78901
330.6076, 24.65451
331.0897, 24.70357
331.5718, 25.09839
332.0540, 25.67787
332.5361, 25.96191
333.0182, 25.67473
333.5003, 25.45868
333.9824, 25.60152
334.4645, 26.26940
334.9467, 26.78561
335.4288, 27.09007
335.9109, 27.28241
336.3930, 27.50516
336.8751, 27.74302
337.3572, 28.05191
337.8394, 28.45672
338.3215, 28.95584
338.8036, 29.52033
339.2857, 30.19192
339.7678, 30.85810
340.2499, 31.40546
340.7321, 31.81179
341.2142, 32.16589
341.6963, 32.44309
342.1784, 32.68468
342.6605, 33.10306
343.1426, 33.71921
343.6248, 34.39610
344.1069, 35.03402
344.5890, 35.62584
345.0711, 36.17937
345.5532, 36.65381
346.0353, 37.14052
346.5175, 37.86559
346.9996, 38.83111
347.4817, 39.77867
347.9638, 40.46781
348.4459, 40.99903
348.9280, 41.80480
349.4102, 42.97513
349.8923, 44.16205
350.3744, 44.78227
350.8565, 44.97911
351.3386, 45.32597
351.8207, 46.25863
352.3029, 47.45083
352.7850, 48.38485
353.2671, 49.06036
353.7492, 49.61336
354.2313, 50.19348
354.7134, 50.72988
355.1956, 51.10885
355.6777, 51.32276
356.1598, 51.32735
356.6419, 51.04313
357.1240, 50.49611
357.6061, 49.82374
358.0883, 49.13483
358.5704, 48.34877
359.0525, 47.37301
359.5346, 46.10859
360.0167, 44.80591
360.4988, 43.57592
360.9810, 42.42016
361.4631, 41.35534
361.9452, 40.39406
362.4273, 39.52015
362.9094, 38.72517
363.3915, 38.00782
363.8737, 37.36610
364.3558, 36.75965
364.8379, 36.24632
365.3200, 35.89797
365.8021, 35.77401
366.2842, 35.77398
366.7664, 35.92074
367.2485, 36.21480
367.7306, 36.45514
368.2127, 36.49597
368.6948, 36.55258
369.1769, 36.76849
369.6591, 37.26400
370.1412, 37.78009
370.6233, 38.32185
371.1054, 38.88058
371.5875, 39.41599
372.0696, 39.82876
372.5518, 40.33251
373.0339, 41.05022
373.5160, 42.11734
373.9981, 42.99417
374.4802, 43.55042
374.9623, 44.03054
375.4445, 44.85905
375.9266, 46.19728
376.4087, 47.45133
376.8908, 48.38607
377.3729, 49.02222
377.8550, 49.87715
378.3372, 50.94624
378.8193, 52.22747
379.3014, 53.70759
379.7835, 55.40091
380.2656, 57.27823
380.7477, 59.37441
381.2299, 61.60641
381.7120, 63.88128
382.1941, 66.18408
382.6762, 68.31853
383.1583, 70.15133
383.6404, 71.69958
384.1226, 73.02661
384.6047, 74.20054
385.0868, 74.92739
385.5689, 74.80636
386.0510, 73.91108
386.5331, 72.53414
387.0153, 70.74413
387.4974, 68.57161
387.9795, 65.98892
388.4616, 62.99898
388.9437, 59.81669
389.4258, 56.46703
389.9080, 53.05681
390.3901, 49.78328
390.8722, 46.64828
391.3543, 43.73452
391.8364, 41.15898
392.3185, 38.90565
392.8007, 36.82441
393.2828, 34.77765
393.7649, 32.91936
394.2470, 31.42044
394.7291, 30.41969
395.2112, 29.45748
395.6934, 28.26618
396.1755, 27.03467
396.6576, 26.04583
397.1397, 25.59079
397.6218, 25.17667
398.1039, 24.62447
398.5861, 23.90766
399.0682, 23.28007
399.5503, 22.77555
400.0324, 22.36313
400.5145, 22.02385
400.9966, 21.78524
401.4788, 21.58032
401.9609, 21.44189
402.4430, 21.33808
402.9251, 21.13236
403.4072, 20.74073
403.8893, 20.37388
404.3714, 20.13781
404.8535, 20.06614
405.3357, 19.98318
405.8178, 19.89799
406.2999, 19.79072
406.7820, 19.61141
407.2641, 19.33817
407.7462, 19.12250
408.2284, 19.03171
408.7105, 19.03635
409.1926, 18.97667
409.6747, 18.84726
410.1568, 18.69432
410.6389, 18.54350
411.1211, 18.39962
411.6032, 18.28763
412.0853, 18.22161
412.5674, 18.16884
413.0495, 18.04932
413.5316, 17.88321
414.0138, 17.77529
414.4959, 17.85382
414.9780, 17.99993
415.4601, 18.01223
415.9422, 17.87222
416.4243, 17.72681
416.9065, 17.73226
417.3886, 17.80089
417.8707, 17.80013
418.3528, 17.57713
418.8349, 17.37234
419.3170, 17.38809
419.7992, 17.57343
420.2813, 17.68884
420.7634, 17.53585
421.2455, 17.34115
421.7276, 17.26913
422.2097, 17.41466
422.6919, 17.51398
423.1740, 17.47916
423.6561, 17.36370
424.1382, 17.24847
424.6203, 17.06222
425.1024, 16.96462
425.5846, 17.04567
426.0667, 17.32034
426.5488, 17.48048
427.0309, 17.46400
427.5130, 17.38918
427.9951, 17.33570
428.4773, 17.31425
428.9594, 17.28919
429.4415, 17.24850
429.9236, 17.20733
430.4057, 17.21788
430.8878, 17.30811
431.3700, 17.36287
431.8521, 17.30617
432.3342, 17.13817
432.8163, 17.07424
433.2984, 17.14087
433.7805, 17.22002
434.2627, 17.12186
434.7448, 16.87480
435.2269, 16.78411
435.7090, 16.99841
436.1911, 17.33994
436.6732, 17.42393
437.1554, 17.27924
437.6375, 17.13528
438.1196, 17.15622
438.6017, 17.27387
439.0838, 17.39947
439.5659, 17.53575
440.0481, 17.60730
440.5302, 17.46732
441.0123, 17.23231
441.4944, 17.09784
441.9765, 17.24865
442.4586, 17.43761
442.9408, 17.49787
443.4229, 17.44461
443.9050, 17.42509
444.3871, 17.53281
444.8692, 17.67295
445.3513, 17.78719
445.8335, 17.87634
446.3156, 17.92075
446.7977, 17.89171
447.2798, 17.81942
447.7619, 17.75593
448.2440, 17.64420
448.7262, 17.60984
449.2083, 17.71388
449.6904, 17.96759
450.1725, 18.14201
450.6546, 18.24237
451.1367, 18.25530
451.6189, 18.12953
452.1010, 17.77137
452.5831, 17.60774
453.0652, 17.72582
453.5473, 18.00727
454.0294, 18.20346
454.5116, 18.31219
454.9937, 18.35501
455.4758, 18.29471
455.9579, 18.16441
456.4400, 18.16919
456.9221, 18.31997
457.4043, 18.50217
457.8864, 18.61588
458.3685, 18.67194
458.8506, 18.70059
459.3327, 18.69493
459.8148, 18.68810
460.2970, 18.71827
460.7791, 18.78031
461.2612, 18.85651
461.7433, 18.94574
462.2254, 19.03964
462.7076, 19.13724
463.1897, 19.24180
463.6718, 19.32105
464.1539, 19.30493
464.6360, 19.27808
465.1181, 19.32523
465.6003, 19.57831
466.0824, 19.78907
466.5645, 19.90166
467.0466, 19.92319
467.5287, 19.88223
468.0108, 19.65179
468.4930, 19.47794
468.9751, 19.44893
469.4572, 19.58657
469.9393, 19.79469
470.4214, 20.13269
470.9035, 20.48473
471.3857, 20.71025
471.8678, 20.75633
472.3499, 20.84771
472.8320, 21.04316
473.3141, 21.30433
473.7962, 21.47301
474.2784, 21.52774
474.7605, 21.64565
475.2426, 22.01147
475.7247, 22.56351
476.2068, 22.89556
476.6889, 22.97582
477.1711, 22.96307
477.6532, 23.03304
478.1353, 23.15161
478.6174, 23.21061
479.0995, 23.07556
479.5816, 22.97904
480.0638, 23.22994
480.5459, 23.75842
481.0280, 24.30304
481.5101, 24.74456
481.9922, 25.12605
482.4743, 25.46688
482.9565, 25.76482
483.4386, 26.06291
483.9207, 26.34962
484.4028, 26.65430
484.8849, 27.00826
485.3670, 27.51956
485.8492, 27.96278
486.3313, 28.22705
486.8134, 28.36479
487.2955, 28.64647
487.7776, 29.13306
488.2597, 29.68484
488.7419, 30.29570
489.2240, 31.02972
489.7061, 31.46047
490.1882, 31.47495
490.6703, 31.35365
491.1524, 31.43179
491.6346, 31.74609
492.1167, 31.97119
492.5988, 32.01886
493.0809, 31.96718
493.5630, 32.02728
494.0451, 32.19527
494.5273, 32.34563
495.0094, 32.37327
495.4915, 32.33469
495.9736, 32.34509
496.4557, 32.40804
496.9378, 32.54535
497.4200, 32.76515
497.9021, 33.07459
498.3842, 33.49417
498.8663, 34.14021
499.3484, 34.74759
499.8305, 35.02080
500.3127, 35.11732
500.7948, 35.43526
501.2769, 36.26947
501.7590, 37.23500
502.2411, 38.16669
502.7232, 39.05574
503.2054, 39.94846
503.6875, 40.85009
504.1696, 41.75107
504.6517, 42.62743
505.1338, 43.42555
505.6159, 44.28810
506.0981, 45.21792
506.5802, 46.21255
507.0623, 47.26136
507.5444, 48.37514
508.0265, 49.55141
508.5086, 50.80906
508.9908, 52.14058
509.4729, 53.48509
509.9550, 54.83481
510.4371, 56.21801
510.9192, 57.60714
511.4013, 59.03634
511.8835, 60.63029
512.3655, 62.45839
512.8477, 64.32487
513.3298, 66.05235
513.8119, 67.64352
514.2940, 69.10326
514.7761, 70.22495
515.2582, 71.37746
515.7404, 72.87512
516.2225, 74.69096
516.7046, 76.59495
517.1867, 78.56360
517.6688, 80.53203
518.1509, 82.47308
518.6331, 84.42645
519.1152, 86.25019
519.5973, 87.74921
520.0794, 89.16112
520.5615, 90.76699
521.0436, 92.78582
521.5258, 94.66917
522.0079, 96.32154
522.4900, 97.76891
522.9721, 99.14375
523.4542, 100.4118
523.9363, 101.6289
524.4185, 102.8484
524.9006, 104.0740
525.3827, 105.1054
525.8648, 105.9375
526.3469, 106.6399
526.8290, 107.3361
527.3112, 107.9783
527.7933, 108.3935
528.2754, 108.5469
528.7575, 108.4589
529.2396, 108.0672
529.7217, 107.4410
530.2039, 106.7916
530.6860, 106.1885
531.1681, 105.6254
531.6502, 105.0487
532.1323, 104.4573
532.6144, 104.0068
533.0966, 104.0932
533.5787, 104.1211
534.0608, 103.6249
534.5429, 101.8833
535.0250, 100.6809
535.5071, 100.5096
535.9893, 100.8315
536.4714, 100.8800
536.9535, 100.4757
537.4356, 100.1371
537.9177, 99.93385
538.3998, 99.88487
538.8820, 100.1474
539.3641, 100.7557
539.8462, 101.4982
540.3283, 102.1474
540.8104, 102.7636
541.2925, 103.9044
541.7747, 105.6468
542.2568, 107.5224
542.7389, 109.0098
543.2210, 110.2446
543.7031, 111.5444
544.1852, 112.9999
544.6674, 114.5455
545.1495, 116.1050
545.6316, 117.6942
546.1137, 119.3524
546.5958, 121.1132
547.0779, 122.9354
547.5601, 124.8327
548.0422, 126.8077
548.5243, 128.7135
549.0064, 130.5190
549.4885, 132.2434
549.9706, 133.8957
550.4528, 135.4312
550.9349, 136.9797
551.4170, 138.6038
551.8991, 140.2162
552.3812, 141.7466
552.8633, 143.2561
553.3455, 144.4500
553.8276, 145.3249
554.3097, 145.7993
554.7918, 145.4876
555.2739, 144.3972
555.7560, 143.0666
556.2382, 141.8822
556.7203, 140.6844
557.2024, 139.1262
557.6845, 137.1916
558.1666, 134.9536
558.6487, 132.3880
559.1309, 129.5988
559.6130, 126.7764
560.0951, 124.0107
560.5772, 121.0906
561.0593, 117.8408
561.5414, 114.3647
562.0236, 110.8970
562.5057, 107.2277
562.9878, 103.8102
563.4699, 100.9258
563.9520, 98.51411
564.4341, 95.66866
564.9163, 92.07271
565.3984, 88.48063
565.8805, 85.21449
566.3626, 82.27412
566.8447, 79.56483
567.3268, 77.09292
567.8090, 74.73563
568.2911, 72.32871
568.7732, 69.88538
569.2553, 67.73550
569.7374, 65.96214
570.2195, 64.42413
570.7017, 62.90575
571.1838, 61.40647
571.6659, 59.95546
572.1480, 58.54592
572.6301, 57.18489
573.1122, 55.89523
573.5944, 54.65931
574.0765, 53.42543
574.5586, 52.04271
575.0407, 50.75177
575.5228, 49.71040
576.0049, 49.04458
576.4871, 48.35106
576.9692, 47.52043
577.4513, 46.69085
577.9334, 46.00091
578.4155, 45.59552
578.8976, 44.97660
579.3798, 43.94844
579.8619, 42.78154
580.3440, 42.24969
580.8261, 42.41033
581.3082, 42.48816
581.7903, 42.09836
582.2725, 41.40416
582.7546, 40.87289
583.2367, 40.49664
583.7188, 40.18149
584.2009, 39.83238
584.6830, 39.51902
585.1652, 39.36389
585.6473, 39.40676
586.1294, 39.43678
586.6115, 39.24423
587.0936, 39.01049
587.5757, 38.92908
588.0579, 39.19280
588.5400, 39.44205
589.0221, 39.66957
589.5042, 39.83214
589.9863, 39.81776
590.4684, 39.41554
590.9506, 39.18129
591.4327, 39.29453
591.9148, 39.71523
592.3969, 40.09320
592.8790, 40.42054
593.3611, 40.74006
593.8433, 41.04102
594.3254, 41.34338
594.8075, 41.82370
595.2896, 42.50517
595.7717, 43.20272
596.2538, 43.60055
596.7360, 43.91284
597.2181, 44.56885
597.7002, 45.80697
598.1823, 47.09711
598.6644, 47.98928
599.1465, 48.70465
599.6287, 49.62668
600.1108, 51.02195
600.5929, 52.48012
601.0750, 53.87237
601.5571, 55.20654
602.0392, 56.61353
602.5214, 58.07093
603.0035, 59.65069
603.4856, 61.38277
603.9677, 63.29146
604.4498, 65.21074
604.9319, 67.15302
605.4141, 69.11236
605.8962, 70.94409
606.3783, 72.72477
606.8604, 74.87680
607.3425, 77.53532
607.8246, 80.28748
608.3068, 82.52855
608.7889, 84.48455
609.2710, 86.59510
609.7531, 89.10110
610.2352, 91.70988
610.7173, 94.20383
611.1995, 96.66040
611.6816, 99.30521
612.1637, 102.4478
612.6458, 105.5893
613.1279, 108.6060
613.6100, 111.4538
614.0922, 114.2082
614.5743, 117.0128
615.0564, 119.5779
615.5385, 121.6953
616.0206, 123.3015
616.5027, 124.9642
616.9849, 126.7168
617.4670, 128.4224
617.9491, 130.0164
618.4312, 131.4377
618.9133, 132.3020
619.3954, 132.4978
619.8776, 132.2253
620.3597, 131.7681
620.8418, 131.0243
621.3239, 129.7888
621.8060, 127.7920
622.2881, 125.4202
622.7703, 122.8163
623.2524, 120.0011
623.7345, 117.0503
624.2166, 113.8305
624.6987, 110.6085
625.1808, 107.5362
625.6630, 104.6161
626.1451, 101.6252
626.6272, 98.50953
627.1093, 95.35625
627.5914, 92.18372
628.0735, 88.98098
628.5557, 85.91013
629.0378, 82.99485
629.5199, 80.22878
630.0020, 77.63269
630.4841, 75.16328
630.9662, 72.65166
631.4484, 69.96899
631.9305, 67.41995
