##NAMES=Groutite
##RRUFFID=R080004
##IDEAL CHEMISTRY=Mn^3+^O(OH)
##LOCALITY=Roberts mine, Crosby, Minnesota, USA
##OWNER=RRUFF
##SOURCE=Michael Scott
##DESCRIPTION=Black crystalline and in some cases striated.
##STATUS=The identification of this mineral has been confirmed by single-crystal X-ray diffraction.
##URL=rruff.info/R080004
120.5444, 33.22290
121.0265, 33.49835
121.5086, 33.92298
121.9907, 34.28490
122.4728, 34.56269
122.9549, 34.73465
123.4371, 34.70780
123.9192, 34.32868
124.4013, 33.90478
124.8834, 33.74904
125.3655, 33.86482
125.8476, 34.14299
126.3298, 34.59862
126.8119, 35.26014
127.2940, 35.72210
127.7761, 35.63299
128.2582, 35.43703
128.7404, 35.39148
129.2225, 35.56482
129.7046, 35.85699
130.1867, 36.10754
130.6688, 36.31107
131.1509, 36.47574
131.6331, 36.61628
132.1152, 36.72253
132.5973, 36.76860
133.0794, 36.73986
133.5615, 36.66777
134.0436, 36.68520
134.5258, 36.78850
135.0079, 36.99541
135.4900, 37.44963
135.9721, 38.00359
136.4542, 38.38929
136.9363, 38.40484
137.4184, 38.08594
137.9006, 38.02576
138.3827, 38.42449
138.8648, 38.83608
139.3469, 39.06612
139.8290, 39.11556
140.3111, 39.06364
140.7933, 38.92268
141.2754, 38.71744
141.7575, 38.63525
142.2396, 38.80907
142.7217, 39.05021
143.2038, 39.17567
143.6860, 39.17491
144.1681, 39.05502
144.6502, 38.74175
145.1323, 38.30807
145.6144, 37.90566
146.0965, 37.62825
146.5787, 37.43424
147.0608, 37.20281
147.5429, 36.97687
148.0250, 36.62871
148.5071, 36.01730
148.9892, 35.22762
149.4714, 34.49059
149.9535, 34.02491
150.4356, 33.85523
150.9177, 33.62628
151.3998, 33.29393
151.8819, 32.93303
152.3641, 32.55207
152.8462, 32.16021
153.3283, 31.77454
153.8104, 31.40444
154.2925, 31.03089
154.7746, 30.74028
155.2568, 30.59127
155.7389, 30.46363
156.2210, 30.27517
156.7031, 30.01335
157.1852, 29.72950
157.6673, 29.50253
158.1495, 29.35451
158.6316, 29.24134
159.1137, 29.21800
159.5958, 29.20411
160.0779, 29.10563
160.5600, 28.88742
161.0422, 28.61192
161.5243, 28.40628
162.0064, 28.28121
162.4885, 28.18411
162.9706, 28.13702
163.4527, 28.10897
163.9349, 28.04822
164.4170, 27.94866
164.8991, 27.77999
165.3812, 27.45164
165.8633, 26.86583
166.3454, 26.40587
166.8276, 26.36680
167.3097, 26.69599
167.7918, 26.99426
168.2739, 27.11445
168.7560, 27.11887
169.2381, 27.08671
169.7203, 27.02035
170.2024, 26.93088
170.6845, 26.80837
171.1666, 26.63851
171.6487, 26.52398
172.1308, 26.61455
172.6130, 26.72006
173.0951, 26.65862
173.5772, 26.35471
174.0593, 25.97493
174.5414, 25.82943
175.0235, 26.04865
175.5057, 26.23936
175.9878, 26.31676
176.4699, 26.33213
176.9520, 26.33181
177.4341, 26.33640
177.9162, 26.33723
178.3984, 26.30628
178.8805, 26.21277
179.3626, 26.12385
179.8447, 26.06773
180.3268, 26.01554
180.8089, 25.91172
181.2911, 25.71939
181.7732, 25.47432
182.2553, 25.38396
182.7374, 25.66681
183.2195, 25.86373
183.7016, 25.85136
184.1838, 25.69357
184.6659, 25.49809
185.1480, 25.31911
185.6301, 25.16506
186.1122, 25.12722
186.5943, 25.26863
187.0765, 25.43140
187.5586, 25.60219
188.0407, 25.75576
188.5228, 25.80908
189.0049, 25.67184
189.4870, 25.38525
189.9692, 25.23077
190.4513, 25.32019
190.9334, 25.44050
191.4155, 25.42302
191.8976, 25.27759
192.3797, 25.18543
192.8619, 25.31426
193.3440, 25.58335
193.8261, 25.75252
194.3082, 25.69375
194.7903, 25.59384
195.2724, 25.69005
195.7546, 26.01871
196.2367, 26.30429
196.7188, 26.24627
197.2009, 26.05628
197.6830, 26.02905
198.1651, 26.34316
198.6473, 26.80608
199.1294, 27.07558
199.6115, 27.08157
200.0936, 27.06242
200.5757, 27.17754
201.0578, 27.32652
201.5400, 27.36580
202.0221, 27.18407
202.5042, 26.87998
202.9863, 26.73695
203.4684, 26.78690
203.9505, 26.97052
204.4327, 27.35909
204.9148, 27.82543
205.3969, 28.19961
205.8790, 28.38471
206.3611, 28.40528
206.8432, 28.38553
207.3254, 28.26679
207.8075, 28.17700
208.2896, 28.10628
208.7717, 28.08729
209.2538, 28.17581
209.7359, 28.41724
210.2181, 28.79135
210.7002, 29.10101
211.1823, 29.31793
211.6644, 29.49447
212.1465, 29.64965
212.6286, 29.77002
213.1108, 29.81848
213.5929, 29.76104
214.0750, 29.61070
214.5571, 29.56159
215.0392, 29.67691
215.5213, 29.81436
216.0035, 29.94401
216.4856, 30.06614
216.9677, 30.20586
217.4498, 30.39908
217.9319, 30.62603
218.4140, 30.61315
218.8961, 30.22688
219.3783, 29.79803
219.8604, 29.47092
220.3425, 29.21068
220.8246, 28.87232
221.3067, 28.31911
221.7888, 27.61698
222.2710, 27.19501
222.7531, 27.25382
223.2352, 27.36416
223.7173, 27.29199
224.1994, 27.07175
224.6815, 26.88718
225.1637, 26.85529
225.6458, 26.94860
226.1279, 27.01970
226.6100, 27.01838
227.0921, 27.04394
227.5742, 27.20028
228.0564, 27.47164
228.5385, 27.69376
229.0206, 27.73151
229.5027, 27.67900
229.9848, 27.74893
230.4669, 28.03043
230.9491, 28.33408
231.4312, 28.49662
231.9133, 28.51792
232.3954, 28.49675
232.8775, 28.40940
233.3596, 28.34158
233.8418, 28.42374
234.3239, 28.73083
234.8060, 29.07137
235.2881, 29.20442
235.7702, 29.09955
236.2523, 29.07493
236.7345, 29.32225
237.2166, 29.67569
237.6987, 30.00756
238.1808, 30.29722
238.6629, 30.54116
239.1451, 30.74251
239.6272, 30.90945
240.1093, 30.99274
240.5914, 30.79765
241.0735, 30.61310
241.5556, 30.68754
242.0378, 31.08514
242.5199, 31.57928
243.0020, 31.86951
243.4841, 31.89485
243.9662, 31.93216
244.4483, 32.02295
244.9305, 32.14797
245.4126, 32.31231
245.8947, 32.51302
246.3768, 32.71601
246.8589, 32.87310
247.3410, 32.97121
247.8232, 33.06222
248.3053, 33.13795
248.7874, 33.21841
249.2695, 33.31881
249.7516, 33.44066
250.2337, 33.57183
250.7159, 33.69722
251.1980, 33.81639
251.6801, 33.93116
252.1622, 33.99947
252.6443, 34.09563
253.1264, 34.29943
253.6086, 34.60036
254.0907, 34.89681
254.5728, 35.05725
255.0549, 35.03798
255.5370, 35.01058
256.0191, 34.94004
256.5013, 34.89011
256.9834, 34.86992
257.4655, 34.89581
257.9476, 35.00988
258.4297, 35.27249
258.9118, 35.73980
259.3940, 36.12866
259.8761, 36.47491
260.3582, 36.73146
260.8403, 36.84646
261.3224, 36.83735
261.8045, 36.77660
262.2867, 36.73103
262.7688, 36.70617
263.2509, 36.65759
263.7330, 36.48835
264.2151, 36.38775
264.6972, 36.47807
265.1794, 36.72834
265.6615, 37.02979
266.1436, 37.31559
266.6257, 37.59458
267.1078, 37.60960
267.5899, 37.09314
268.0721, 36.63459
268.5542, 36.52645
269.0363, 36.69934
269.5184, 36.91670
270.0005, 37.01980
270.4826, 37.01586
270.9648, 37.01093
271.4469, 36.97779
271.9290, 36.97123
272.4111, 37.05066
272.8932, 37.17549
273.3753, 37.24105
273.8575, 37.17521
274.3396, 37.01137
274.8217, 36.92560
275.3038, 36.91904
275.7859, 36.96698
276.2680, 37.16421
276.7502, 37.40860
277.2323, 37.47630
277.7144, 37.24520
278.1965, 36.80614
278.6786, 36.41730
279.1607, 36.10666
279.6429, 35.78664
280.1250, 35.47567
280.6071, 35.13270
281.0892, 34.67875
281.5713, 34.07534
282.0534, 33.37066
282.5356, 32.64702
283.0177, 31.91250
283.4998, 31.14564
283.9819, 30.27326
284.4640, 29.38465
284.9461, 28.60981
285.4283, 27.98178
285.9104, 27.48222
286.3925, 27.11578
286.8746, 26.88554
287.3567, 26.68253
287.8388, 26.50356
288.3210, 26.33136
288.8031, 26.10353
289.2852, 25.79235
289.7673, 25.56755
290.2494, 25.70630
290.7315, 26.18249
291.2137, 26.45718
291.6958, 26.32340
292.1779, 26.01783
292.6600, 25.76938
293.1421, 25.59971
293.6242, 25.49126
294.1064, 25.45412
294.5885, 25.47515
295.0706, 25.47895
295.5527, 25.44110
296.0348, 25.39514
296.5169, 25.35876
296.9991, 25.33357
297.4812, 25.34562
297.9633, 25.42908
298.4454, 25.56028
298.9275, 25.66009
299.4096, 25.71115
299.8918, 25.74680
300.3739, 25.80275
300.8560, 25.87151
301.3381, 25.88828
301.8202, 25.77738
302.3023, 25.63542
302.7845, 25.65356
303.2666, 25.88422
303.7487, 26.14448
304.2308, 26.36898
304.7129, 26.54659
305.1950, 26.62544
305.6772, 26.55479
306.1593, 26.42432
306.6414, 26.33661
307.1235, 26.27630
307.6056, 26.33196
308.0877, 26.66440
308.5699, 27.13460
309.0520, 27.39331
309.5341, 27.31442
310.0162, 27.14779
310.4983, 27.19947
310.9804, 27.43326
311.4626, 27.61768
311.9447, 27.62195
312.4268, 27.55178
312.9089, 27.56965
313.3910, 27.69967
313.8731, 27.87825
314.3553, 28.08450
314.8374, 28.30207
315.3195, 28.47637
315.8016, 28.57526
316.2837, 28.63828
316.7658, 28.67684
317.2480, 28.68847
317.7301, 28.78081
318.2122, 29.09906
318.6943, 29.52554
319.1764, 29.77097
319.6585, 29.71665
320.1407, 29.59995
320.6228, 29.56837
321.1049, 29.62112
321.5870, 29.76686
322.0691, 30.06012
322.5512, 30.40689
323.0334, 30.63544
323.5155, 30.71605
323.9976, 30.77575
324.4797, 30.88785
324.9618, 31.03269
325.4439, 31.13290
325.9261, 31.13556
326.4082, 31.14889
326.8903, 31.33808
327.3724, 31.69689
327.8545, 32.05993
328.3366, 32.34431
328.8188, 32.60101
329.3009, 32.93827
329.7830, 33.39220
330.2651, 33.83176
330.7472, 34.08652
331.2293, 34.19630
331.7115, 34.38587
332.1936, 34.77532
332.6757, 35.21665
333.1578, 35.55719
333.6399, 35.79005
334.1220, 35.98039
334.6042, 36.15312
335.0863, 36.31973
335.5684, 36.51190
336.0505, 36.66880
336.5326, 36.91471
337.0147, 37.41291
337.4969, 38.10149
337.9790, 38.68692
338.4611, 39.00690
338.9432, 39.17509
339.4253, 39.45197
339.9074, 39.86014
340.3896, 40.29435
340.8717, 40.74672
341.3538, 41.19274
341.8359, 41.56634
342.3180, 41.83447
342.8001, 42.08525
343.2822, 42.48918
343.7643, 43.07476
344.2465, 43.51468
344.7286, 43.65636
345.2107, 43.66865
345.6928, 43.69775
346.1749, 43.76653
346.6570, 43.93781
347.1392, 44.30096
347.6213, 44.86450
348.1034, 45.32715
348.5855, 45.63786
349.0676, 45.89257
349.5497, 46.15338
350.0319, 46.41717
350.5140, 46.64830
350.9961, 46.81850
351.4782, 46.94457
351.9603, 47.10584
352.4424, 47.37574
352.9246, 47.58831
353.4067, 47.65071
353.8888, 47.62858
354.3709, 47.63790
354.8530, 47.72361
355.3351, 47.85520
355.8173, 47.97367
356.2994, 48.05766
356.7815, 48.18137
357.2636, 48.33665
357.7457, 48.54280
358.2278, 48.81892
358.7100, 49.16734
359.1921, 49.58118
359.6742, 50.04944
360.1563, 50.57707
360.6384, 51.15913
361.1205, 51.79762
361.6027, 52.48114
362.0848, 53.15709
362.5669, 53.86234
363.0490, 54.72844
363.5311, 55.85667
364.0132, 57.21107
364.4954, 58.48580
364.9775, 59.53771
365.4596, 60.67936
365.9417, 62.06056
366.4238, 63.53777
366.9059, 64.91534
367.3881, 66.11978
367.8702, 67.20163
368.3523, 68.26271
368.8344, 69.22967
369.3165, 70.30089
369.7986, 71.53162
370.2808, 72.82233
370.7629, 74.14024
371.2450, 75.45849
371.7271, 76.71719
372.2092, 77.83058
372.6913, 78.77571
373.1735, 79.77103
373.6556, 80.73415
374.1377, 81.82323
374.6198, 83.30293
375.1019, 84.94924
375.5840, 86.25989
376.0662, 86.87820
376.5483, 86.98047
377.0304, 87.41231
377.5125, 88.56691
377.9946, 89.48383
378.4767, 89.92654
378.9589, 90.11739
379.4410, 90.25992
379.9231, 90.42488
380.4052, 90.58663
380.8873, 90.75798
381.3694, 91.04466
381.8516, 90.97895
382.3337, 90.46972
382.8158, 89.64505
383.2979, 88.54162
383.7800, 87.16735
384.2621, 85.52036
384.7443, 83.55677
385.2264, 81.30071
385.7085, 78.95798
386.1906, 76.57259
386.6727, 74.01395
387.1548, 71.22533
387.6370, 68.26402
388.1191, 65.21444
388.6012, 62.05882
389.0833, 58.90883
389.5654, 55.96273
390.0475, 53.22066
390.5297, 50.68710
391.0118, 48.46217
391.4939, 46.38573
391.9760, 44.34015
392.4581, 42.30758
392.9402, 40.37730
393.4224, 38.61467
393.9045, 37.01532
394.3866, 35.55366
394.8687, 34.22713
395.3508, 33.04686
395.8329, 32.03009
396.3151, 31.15448
396.7972, 30.36575
397.2793, 29.65918
397.7614, 29.02178
398.2435, 28.44111
398.7256, 27.92328
399.2078, 27.41844
399.6899, 26.89602
400.1720, 26.37763
400.6541, 25.90278
401.1362, 25.48624
401.6183, 25.09246
402.1005, 24.70924
402.5826, 24.33522
403.0647, 23.95392
403.5468, 23.55050
404.0289, 23.16958
404.5110, 22.88052
404.9932, 22.68326
405.4753, 22.52362
405.9574, 22.44716
406.4395, 22.37088
406.9216, 22.18961
407.4037, 21.90457
407.8859, 21.63450
408.3680, 21.47773
408.8501, 21.42386
409.3322, 21.33332
409.8143, 21.16519
410.2964, 21.01078
410.7786, 20.94879
411.2607, 20.91399
411.7428, 20.76667
412.2249, 20.44586
412.7070, 20.05929
413.1891, 19.82018
413.6713, 19.82382
414.1534, 19.81932
414.6355, 19.82977
415.1176, 19.81583
415.5997, 19.73230
416.0818, 19.58783
416.5640, 19.43708
417.0461, 19.32802
417.5282, 19.26105
418.0103, 19.21041
418.4924, 19.19641
418.9745, 19.17710
419.4567, 19.16205
419.9388, 19.13048
420.4209, 19.03493
420.9030, 18.85291
421.3851, 18.65378
421.8672, 18.59693
422.3494, 18.76169
422.8315, 18.86505
423.3136, 18.84931
423.7957, 18.79219
424.2778, 18.71364
424.7599, 18.62968
425.2421, 18.58184
425.7242, 18.64009
426.2063, 18.78426
426.6884, 18.79646
427.1705, 18.56338
427.6526, 18.38968
428.1348, 18.47304
428.6169, 18.67295
429.0990, 18.78098
429.5811, 18.70392
430.0632, 18.56710
430.5453, 18.54494
431.0275, 18.64081
431.5096, 18.67977
431.9917, 18.55544
432.4738, 18.41330
432.9559, 18.41812
433.4380, 18.56807
433.9202, 18.71619
434.4023, 18.81272
434.8844, 18.85597
435.3665, 18.81819
435.8486, 18.68666
436.3307, 18.57112
436.8129, 18.56354
437.2950, 18.64016
437.7771, 18.68603
438.2592, 18.66306
438.7413, 18.64643
439.2234, 18.69126
439.7056, 18.77329
440.1877, 18.83473
440.6698, 18.85463
441.1519, 18.84527
441.6340, 18.82206
442.1161, 18.77326
442.5983, 18.74690
443.0804, 18.73220
443.5625, 18.75049
444.0446, 18.84579
444.5267, 18.99965
445.0089, 19.13111
445.4910, 19.17567
445.9731, 19.14331
446.4552, 19.13171
446.9373, 19.17606
447.4194, 19.19898
447.9016, 19.14496
448.3837, 19.08411
448.8658, 19.10131
449.3479, 19.21896
449.8300, 19.38576
450.3121, 19.53538
450.7943, 19.67319
451.2764, 19.77301
451.7585, 19.84257
452.2406, 19.86476
452.7227, 19.77953
453.2048, 19.64084
453.6870, 19.56530
454.1691, 19.63047
454.6512, 19.79066
455.1333, 19.93831
455.6154, 20.07980
456.0975, 20.18847
456.5797, 20.25704
457.0618, 20.28726
457.5439, 20.23409
458.0260, 20.09392
458.5081, 20.03584
458.9902, 20.26286
459.4724, 20.68567
459.9545, 20.97479
460.4366, 21.06906
460.9187, 21.10512
461.4008, 21.17117
461.8829, 21.25804
462.3651, 21.34160
462.8472, 21.35961
463.3293, 21.43495
463.8114, 21.70610
464.2935, 22.12250
464.7756, 22.50490
465.2578, 22.78981
465.7399, 23.00544
466.2220, 23.17909
466.7041, 23.29051
467.1862, 23.44811
467.6683, 23.70113
468.1505, 23.97832
468.6326, 24.20175
469.1147, 24.38383
469.5968, 24.60427
470.0789, 24.92216
470.5610, 25.32686
471.0432, 25.74153
471.5253, 26.20624
472.0074, 26.63384
472.4895, 26.97221
472.9716, 27.29244
473.4537, 27.68740
473.9359, 28.16574
474.4180, 28.63063
474.9001, 28.94695
475.3822, 29.08713
475.8643, 29.29417
476.3464, 29.60911
476.8286, 29.95182
477.3107, 30.33997
477.7928, 30.72869
478.2749, 31.03452
478.7570, 31.20419
479.2391, 31.33711
479.7213, 31.61015
480.2034, 32.04359
480.6855, 32.45124
481.1676, 32.79276
481.6497, 33.09652
482.1318, 33.37634
482.6140, 33.63789
483.0961, 33.90980
483.5782, 34.24585
484.0603, 34.58467
484.5424, 34.80748
485.0245, 34.90589
485.5067, 35.02856
485.9888, 35.27556
486.4709, 35.59100
486.9530, 35.83179
487.4351, 36.00104
487.9172, 36.09806
488.3994, 36.07695
488.8815, 36.00343
489.3636, 35.98263
489.8457, 36.02997
490.3278, 36.05515
490.8099, 35.97127
491.2921, 35.77602
491.7742, 35.54438
492.2563, 35.17208
492.7384, 34.88895
493.2205, 34.80484
493.7026, 34.84020
494.1848, 34.86816
494.6669, 34.84436
495.1490, 34.84801
495.6311, 35.04493
496.1132, 35.56106
496.5953, 35.85865
497.0775, 35.62961
497.5596, 35.47297
498.0417, 35.62247
498.5238, 36.03292
499.0059, 36.58152
499.4880, 37.23289
499.9702, 37.93633
500.4523, 38.59371
500.9344, 39.20423
501.4165, 39.78230
501.8986, 40.30590
502.3807, 40.81633
502.8629, 41.34153
503.3450, 41.88096
503.8271, 42.44273
504.3092, 43.03731
504.7913, 43.65450
505.2734, 44.28394
505.7556, 44.92495
506.2377, 45.53688
506.7198, 46.05120
507.2019, 46.55052
507.6840, 47.29816
508.1661, 48.44410
508.6482, 49.51757
509.1303, 50.32701
509.6125, 51.03649
510.0946, 51.84725
510.5767, 52.78130
511.0588, 53.69616
511.5409, 54.44981
512.0231, 55.04368
512.5052, 55.71753
512.9873, 56.44361
513.4694, 57.28640
513.9515, 58.40609
514.4337, 59.57753
514.9158, 60.53325
515.3979, 61.20354
515.8800, 61.74011
516.3621, 62.31911
516.8442, 62.94015
517.3264, 63.59854
517.8085, 64.35204
518.2906, 65.07580
518.7727, 65.72165
519.2548, 66.30337
519.7369, 66.82778
520.2191, 67.27005
520.7012, 67.73405
521.1833, 68.37613
521.6654, 69.16818
522.1475, 69.89930
522.6296, 70.53585
523.1118, 71.06695
523.5939, 71.43437
524.0760, 71.65950
524.5581, 71.88486
525.0402, 72.07441
525.5223, 72.32342
526.0045, 72.77680
526.4866, 73.35156
526.9687, 73.78585
527.4508, 73.94964
527.9329, 74.01516
528.4150, 74.31620
528.8972, 75.03019
529.3793, 75.56481
529.8614, 75.76887
530.3435, 75.94264
530.8256, 76.28197
531.3077, 76.73309
531.7899, 77.10967
532.2720, 77.28773
532.7541, 77.38435
533.2362, 77.72910
533.7183, 78.43566
534.2004, 79.07144
534.6826, 79.50472
535.1647, 79.89428
535.6468, 80.27579
536.1289, 80.68174
536.6110, 81.20784
537.0931, 82.02020
537.5753, 82.93378
538.0574, 83.52393
538.5395, 83.77094
539.0216, 84.17433
539.5037, 85.02342
539.9858, 86.07002
540.4680, 86.90135
540.9501, 87.50613
541.4322, 88.05517
541.9143, 88.61999
542.3964, 89.13747
542.8785, 89.47990
543.3607, 89.68574
543.8428, 89.99187
544.3249, 90.56728
544.8070, 91.32038
545.2891, 91.91428
545.7712, 92.36259
546.2534, 92.60985
546.7355, 92.35799
547.2176, 92.12879
547.6997, 92.46330
548.1818, 93.25082
548.6639, 93.87655
549.1461, 93.82527
549.6282, 93.25298
550.1103, 92.81812
550.5924, 92.59025
551.0745, 92.31377
551.5566, 91.92322
552.0388, 91.43734
552.5209, 90.86289
553.0030, 90.20051
553.4851, 89.44956
553.9672, 88.61640
554.4493, 87.68591
554.9315, 86.56590
555.4136, 85.25129
555.8957, 84.03867
556.3778, 83.19122
556.8599, 82.48399
557.3420, 81.28637
557.8242, 79.44265
558.3063, 77.58471
558.7884, 75.77679
559.2705, 74.05059
559.7526, 72.45283
560.2347, 70.98461
560.7169, 69.61713
561.1990, 68.35536
561.6811, 67.15281
562.1632, 65.80863
562.6453, 64.31316
563.1274, 62.68662
563.6096, 60.64898
564.0917, 58.72411
564.5738, 57.37059
565.0559, 56.53346
565.5380, 55.74925
566.0201, 54.70542
566.5023, 53.47026
566.9844, 52.16198
567.4665, 50.73425
567.9486, 49.51851
568.4307, 48.77812
568.9128, 48.20837
569.3950, 47.36438
569.8771, 46.21403
570.3592, 45.13801
570.8413, 44.21977
571.3234, 43.45804
571.8055, 42.93231
572.2877, 42.59107
572.7698, 42.20968
573.2519, 41.66710
573.7340, 41.00514
574.2161, 40.32826
574.6982, 39.50447
575.1804, 38.90489
575.6625, 38.74422
576.1446, 38.60674
576.6267, 38.20073
577.1088, 37.59920
577.5909, 37.03170
578.0731, 36.62465
578.5552, 36.36843
579.0373, 36.30554
579.5194, 36.50447
580.0015, 36.50487
580.4836, 36.05788
580.9658, 35.54859
581.4479, 35.27970
581.9300, 35.20736
582.4121, 35.12959
582.8942, 34.88272
583.3763, 34.67342
583.8585, 34.78370
584.3406, 35.12113
584.8227, 35.31649
585.3048, 35.22448
585.7869, 35.04476
586.2690, 35.06038
586.7512, 35.33266
587.2333, 35.50183
587.7154, 35.41786
588.1975, 35.39947
588.6796, 35.61579
589.1617, 35.97784
589.6438, 36.33468
590.1259, 36.62891
590.6080, 36.92106
591.0901, 37.31438
591.5723, 37.82745
592.0544, 38.25115
592.5365, 38.50253
593.0186, 38.77851
593.5007, 39.12417
593.9828, 39.56154
594.4650, 40.15680
594.9471, 40.96097
595.4292, 41.77285
595.9113, 42.41388
596.3934, 42.94764
596.8755, 43.49184
597.3577, 44.06037
597.8398, 44.71645
598.3219, 45.52877
598.8040, 46.47118
599.2861, 47.37439
599.7682, 48.19225
600.2504, 49.03870
600.7325, 49.95272
601.2146, 50.89372
601.6967, 51.79926
602.1788, 52.68382
602.6609, 53.64768
603.1431, 54.78102
603.6252, 56.03996
604.1073, 57.20671
604.5894, 58.27285
605.0715, 59.27204
605.5536, 60.23658
606.0358, 61.11784
606.5179, 61.80564
607.0000, 62.33178
607.4821, 62.96580
607.9642, 63.98718
608.4464, 65.08305
608.9285, 65.82605
609.4106, 66.26885
609.8927, 66.69413
610.3748, 67.18305
610.8569, 67.80253
611.3391, 68.72315
611.8212, 70.13309
612.3033, 71.04526
612.7854, 71.04613
613.2675, 71.00990
613.7496, 71.41822
614.2318, 72.02778
614.7139, 72.41112
615.1960, 72.41566
615.6781, 72.20829
616.1602, 72.01815
616.6423, 71.85195
617.1245, 71.53101
617.6066, 71.03368
618.0887, 70.41032
618.5708, 69.61914
619.0529, 68.73838
