##NAMES=Groutite
##RRUFFID=R070583
##IDEAL CHEMISTRY=Mn^3+^O(OH)
##LOCALITY=Marble Canyon, Gunnison County, Colorado, USA
##OWNER=RRUFF
##SOURCE=James Shigley
##DESCRIPTION=Black elongated prismatic
##STATUS=The identification of this mineral has been confirmed by single-crystal X-ray diffraction.
##URL=rruff.info/R070583
92.96582, 160.4591
93.44794, 161.7525
93.93005, 162.3377
94.41217, 160.3277
94.89429, 156.9979
95.37640, 152.4055
95.85852, 147.3741
96.34064, 142.9138
96.82275, 139.5777
97.30487, 137.0906
97.78699, 134.6282
98.26910, 132.2594
98.75122, 129.9354
99.23334, 127.6317
99.71545, 125.2782
100.1976, 122.7201
100.6797, 120.2862
101.1618, 117.9312
101.6439, 115.4891
102.1260, 112.5873
102.6081, 109.6058
103.0903, 107.4101
103.5724, 106.1881
104.0545, 105.3895
104.5366, 104.9169
105.0187, 104.5766
105.5008, 103.9993
105.9830, 102.9085
106.4651, 101.2816
106.9472, 99.44511
107.4293, 96.68523
107.9114, 94.26753
108.3935, 92.64579
108.8757, 91.84478
109.3578, 91.67722
109.8399, 91.99136
110.3220, 93.28642
110.8041, 93.90936
111.2862, 93.58215
111.7684, 92.84707
112.2505, 92.07097
112.7326, 91.37495
113.2147, 90.74376
113.6968, 90.12157
114.1789, 89.23149
114.6611, 88.83205
115.1432, 89.32805
115.6253, 90.41451
116.1074, 91.54774
116.5895, 92.60217
117.0716, 93.39889
117.5538, 93.53796
118.0359, 92.53974
118.5180, 91.70700
119.0001, 92.11418
119.4822, 93.79124
119.9643, 95.58999
120.4465, 97.03687
120.9286, 98.24429
121.4107, 99.31555
121.8928, 100.3004
122.3749, 101.1385
122.8570, 101.6966
123.3392, 101.8658
123.8213, 101.9255
124.3034, 101.9448
124.7855, 101.9458
125.2676, 101.9276
125.7497, 101.8331
126.2319, 101.6964
126.7140, 101.9997
127.1961, 103.5294
127.6782, 104.8028
128.1603, 105.3707
128.6424, 105.3563
129.1246, 105.1234
129.6067, 104.9735
130.0888, 104.8729
130.5709, 105.0930
131.0530, 105.9797
131.5351, 106.8502
132.0173, 107.2979
132.4994, 107.2785
132.9815, 107.0313
133.4636, 106.8594
133.9457, 106.8374
134.4278, 106.5976
134.9100, 105.7325
135.3921, 104.7771
135.8742, 104.5270
136.3563, 105.3276
136.8384, 106.3763
137.3205, 106.3596
137.8027, 105.2799
138.2848, 104.1093
138.7669, 103.3718
139.2490, 102.9132
139.7311, 102.0898
140.2132, 100.5155
140.6954, 98.67233
141.1775, 97.11568
141.6596, 95.89121
142.1417, 94.70098
142.6238, 93.21766
143.1059, 91.36922
143.5881, 89.67336
144.0702, 88.61191
144.5523, 87.56111
145.0344, 86.04593
145.5165, 83.91819
145.9986, 81.49584
146.4807, 79.33068
146.9629, 77.41539
147.4450, 75.81057
147.9271, 74.52906
148.4092, 73.48469
148.8913, 72.59587
149.3734, 71.81798
149.8556, 71.17091
150.3377, 70.73788
150.8198, 70.66267
151.3019, 70.67478
151.7840, 71.02242
152.2661, 71.40813
152.7483, 71.30969
153.2304, 70.34553
153.7125, 68.60564
154.1946, 67.50095
154.6767, 67.37364
155.1588, 67.36579
155.6410, 67.19063
156.1231, 66.85855
156.6052, 66.46664
157.0873, 66.03805
157.5694, 65.60999
158.0515, 65.44016
158.5337, 65.61697
159.0158, 65.98206
159.4979, 66.60576
159.9800, 67.51046
160.4621, 68.08179
160.9442, 67.42897
161.4264, 65.97793
161.9085, 65.01453
162.3906, 65.11990
162.8727, 65.81547
163.3548, 66.37595
163.8369, 66.82061
164.3191, 66.99396
164.8012, 66.68885
165.2833, 66.05470
165.7654, 65.39623
166.2475, 64.79100
166.7296, 64.26784
167.2118, 63.96264
167.6939, 63.84452
168.1760, 64.03918
168.6581, 64.77695
169.1402, 65.87534
169.6223, 66.89882
170.1045, 67.49153
170.5866, 67.63294
171.0687, 67.57387
171.5508, 67.26426
172.0329, 66.78181
172.5150, 65.89779
172.9972, 64.77116
173.4793, 63.89473
173.9614, 63.91593
174.4435, 65.32572
174.9256, 65.90188
175.4077, 64.79869
175.8899, 63.69283
176.3720, 63.67285
176.8541, 64.80371
177.3362, 66.31937
177.8183, 67.24231
178.3004, 67.46031
178.7826, 67.18040
179.2647, 65.74189
179.7468, 64.22314
180.2289, 63.61773
180.7110, 64.15800
181.1931, 65.18608
181.6752, 65.71748
182.1574, 65.60255
182.6395, 65.41874
183.1216, 65.10684
183.6037, 64.79362
184.0858, 64.68391
184.5679, 64.86416
185.0501, 65.16084
185.5322, 65.29496
186.0143, 65.27094
186.4964, 65.19991
186.9785, 65.05112
187.4606, 64.87989
187.9428, 64.87011
188.4249, 65.19625
188.9070, 65.51157
189.3891, 65.33131
189.8712, 64.62535
190.3533, 63.94384
190.8355, 63.60395
191.3176, 63.58498
191.7997, 63.73936
192.2818, 64.14961
192.7639, 64.63126
193.2460, 64.98931
193.7282, 65.21189
194.2103, 65.49275
194.6924, 66.05576
195.1745, 66.94109
195.6566, 67.76394
196.1387, 68.51883
196.6209, 69.13204
197.1030, 69.44365
197.5851, 69.45522
198.0672, 69.46971
198.5493, 70.04636
199.0314, 71.61318
199.5136, 72.32504
199.9957, 71.13342
200.4778, 69.66992
200.9599, 68.97621
201.4420, 69.29070
201.9241, 70.10198
202.4063, 70.61617
202.8884, 70.69286
203.3705, 70.72255
203.8526, 70.52986
204.3347, 70.41853
204.8168, 70.68843
205.2990, 71.40355
205.7811, 72.32050
206.2632, 72.98884
206.7453, 73.24211
207.2274, 73.44509
207.7095, 73.56339
208.1917, 73.65287
208.6738, 73.82743
209.1559, 74.11662
209.6380, 74.35006
210.1201, 74.15389
210.6022, 72.65477
211.0844, 72.05052
211.5665, 73.14335
212.0486, 74.92913
212.5307, 76.30054
213.0128, 76.87769
213.4949, 76.84364
213.9771, 76.46835
214.4592, 75.49849
214.9413, 74.77764
215.4234, 74.66348
215.9055, 74.84856
216.3876, 74.82347
216.8698, 74.37621
217.3519, 73.76051
217.8340, 73.48428
218.3161, 73.59635
218.7982, 73.71263
219.2803, 73.61141
219.7625, 73.42464
220.2446, 73.44039
220.7267, 73.73953
221.2088, 74.30193
221.6909, 75.19028
222.1730, 76.46938
222.6552, 77.55938
223.1373, 78.08767
223.6194, 78.17545
224.1015, 78.21009
224.5836, 78.11596
225.0657, 78.25288
225.5479, 79.03928
226.0300, 80.48803
226.5121, 82.01864
226.9942, 83.37196
227.4763, 84.53016
227.9584, 85.36698
228.4406, 85.47168
228.9227, 85.65328
229.4048, 86.54925
229.8869, 88.14915
230.3690, 90.03951
230.8511, 92.20711
231.3333, 94.62283
231.8154, 96.20754
232.2975, 96.08340
232.7796, 95.73251
233.2617, 95.85450
233.7438, 96.51759
234.2260, 97.69070
234.7081, 99.58773
235.1902, 102.2853
235.6723, 104.5331
236.1544, 105.8378
236.6365, 107.0074
237.1187, 108.4486
237.6008, 110.1166
238.0829, 111.6808
238.5650, 112.7117
239.0471, 113.0809
239.5292, 113.8693
240.0114, 116.0090
240.4935, 117.7846
240.9756, 118.3159
241.4577, 117.7935
241.9398, 117.0510
242.4219, 116.8117
242.9041, 117.0961
243.3862, 117.7572
243.8683, 119.5607
244.3504, 121.0427
244.8325, 121.4132
245.3146, 120.9026
245.7968, 120.3219
246.2789, 120.4540
246.7610, 121.4338
247.2431, 121.8948
247.7252, 121.8144
248.2073, 121.2921
248.6895, 120.0156
249.1716, 118.2619
249.6537, 116.7410
250.1358, 116.1290
250.6179, 116.5319
251.1000, 116.0893
251.5822, 113.9991
252.0643, 111.9768
252.5464, 110.9723
253.0285, 110.6050
253.5106, 109.7138
253.9927, 107.2878
254.4748, 103.3503
254.9570, 100.7338
255.4391, 100.4347
255.9212, 100.1559
256.4033, 98.94924
256.8854, 97.09054
257.3676, 95.38706
257.8497, 94.41671
258.3318, 94.09289
258.8139, 93.29671
259.2960, 91.46874
259.7781, 89.88103
260.2603, 88.94176
260.7424, 88.56960
261.2245, 88.54927
261.7066, 88.78495
262.1887, 89.25181
262.6708, 89.83353
263.1530, 90.97790
263.6351, 91.72889
264.1172, 91.53245
264.5993, 90.72413
265.0814, 90.02522
265.5635, 89.79075
266.0457, 89.88527
266.5278, 89.89310
267.0099, 89.89610
267.4920, 89.72092
267.9741, 89.02161
268.4562, 88.11835
268.9384, 87.72047
269.4204, 88.18659
269.9026, 89.14599
270.3847, 89.86161
270.8668, 90.43848
271.3489, 90.62914
271.8310, 89.92756
272.3131, 88.83057
272.7953, 88.33650
273.2774, 88.83315
273.7595, 89.81741
274.2416, 90.57803
274.7237, 91.15811
275.2058, 91.47481
275.6880, 91.44156
276.1701, 91.14320
276.6522, 90.74893
277.1343, 90.31588
277.6164, 89.71819
278.0985, 88.59769
278.5807, 87.01334
279.0628, 85.68599
279.5449, 85.12366
280.0270, 84.85090
280.5091, 84.16734
280.9912, 82.97728
281.4734, 81.35852
281.9555, 79.03462
282.4376, 76.20672
282.9197, 73.83291
283.4018, 72.44960
283.8839, 71.52407
284.3661, 70.36728
284.8482, 68.91872
285.3303, 67.36024
285.8124, 65.68559
286.2945, 64.00703
286.7766, 62.63470
287.2588, 61.88819
287.7409, 61.34108
288.2230, 60.34828
288.7051, 58.83566
289.1872, 57.74541
289.6693, 58.09914
290.1515, 59.13935
290.6336, 59.46733
291.1157, 58.48675
291.5978, 57.21900
292.0799, 56.57871
292.5620, 56.56532
293.0442, 56.96507
293.5263, 58.14214
294.0084, 59.41845
294.4905, 59.74929
294.9726, 58.73305
295.4547, 57.66759
295.9369, 57.89233
296.4190, 59.28027
296.9011, 60.07478
297.3832, 59.36756
297.8653, 58.13012
298.3474, 57.48067
298.8296, 57.48783
299.3117, 57.67160
299.7938, 57.72201
300.2759, 57.67268
300.7580, 57.73318
301.2401, 58.07385
301.7223, 58.35568
302.2044, 58.19982
302.6865, 57.65868
303.1686, 57.18735
303.6507, 57.03717
304.1328, 57.14771
304.6150, 57.33199
305.0971, 57.57557
305.5792, 57.88951
306.0613, 58.34021
306.5434, 58.87168
307.0255, 59.32267
307.5077, 59.56349
307.9898, 59.69011
308.4719, 59.95827
308.9540, 60.47512
309.4361, 60.80680
309.9182, 60.41276
310.4004, 59.70161
310.8825, 59.28088
311.3646, 59.34229
311.8467, 59.76878
312.3288, 60.55452
312.8109, 61.79589
313.2931, 62.77630
313.7752, 63.15458
314.2573, 63.06527
314.7394, 62.49710
315.2215, 61.23064
315.7036, 60.07584
316.1858, 60.00560
316.6679, 61.01051
317.1500, 61.84837
317.6321, 61.95361
318.1142, 61.86937
318.5963, 62.20365
319.0785, 63.02108
319.5606, 63.81519
320.0427, 64.19166
320.5248, 64.21354
321.0069, 64.24122
321.4890, 64.32991
321.9712, 64.45632
322.4533, 64.50504
322.9354, 64.51628
323.4175, 64.77653
323.8996, 65.61391
324.3817, 66.80823
324.8639, 67.72346
325.3460, 68.19875
325.8281, 68.67698
326.3102, 69.66098
326.7923, 70.89529
327.2744, 71.79957
327.7566, 71.86928
328.2387, 71.64532
328.7208, 71.89551
329.2029, 72.63982
329.6850, 73.74976
330.1671, 75.36449
330.6493, 77.25624
331.1314, 79.13148
331.6135, 80.97157
332.0956, 82.71995
332.5777, 84.20977
333.0598, 85.45495
333.5420, 86.95265
334.0241, 89.06496
334.5062, 91.38374
334.9883, 93.29264
335.4704, 94.67005
335.9525, 96.19785
336.4347, 98.47514
336.9168, 101.2954
337.3989, 103.8477
337.8810, 105.9935
338.3631, 107.7497
338.8452, 108.8631
339.3274, 109.4128
339.8094, 110.5689
340.2916, 113.3317
340.7737, 116.8456
341.2558, 119.6146
341.7379, 121.4113
342.2200, 122.8144
342.7021, 124.1128
343.1843, 125.3730
343.6664, 126.8133
344.1485, 128.8448
344.6306, 130.8408
345.1127, 131.9515
345.5948, 132.2012
346.0770, 132.7731
346.5591, 134.5346
347.0412, 137.0151
347.5233, 138.8501
348.0054, 139.7739
348.4875, 140.4751
348.9697, 141.2450
349.4518, 142.0977
349.9339, 143.1714
350.4160, 144.6891
350.8981, 146.1592
351.3802, 146.6920
351.8624, 146.2384
352.3445, 145.5242
352.8266, 144.6075
353.3087, 143.6189
353.7908, 142.7940
354.2729, 142.1968
354.7551, 141.6082
355.2372, 140.7607
355.7193, 139.6444
356.2014, 138.6132
356.6835, 137.5378
357.1656, 136.6770
357.6478, 136.1313
358.1299, 135.9444
358.6120, 136.3148
359.0941, 137.4065
359.5762, 139.2087
360.0583, 141.4301
360.5405, 143.6575
361.0226, 146.6835
361.5047, 150.7253
361.9868, 155.8080
362.4689, 161.9955
362.9510, 169.2447
363.4332, 177.6920
363.9153, 187.5214
364.3974, 198.3499
364.8795, 211.2502
365.3616, 227.5044
365.8438, 245.3741
366.3259, 263.0940
366.8080, 280.2972
367.2901, 297.1341
367.7722, 314.0391
368.2543, 331.4955
368.7365, 346.2108
369.2186, 357.1124
369.7007, 366.3917
370.1828, 374.9867
370.6649, 383.1059
371.1470, 390.8738
371.6292, 398.3826
372.1113, 405.6253
372.5934, 412.4820
373.0755, 417.9754
373.5576, 424.2163
374.0397, 432.3120
374.5219, 441.2211
375.0040, 449.3934
375.4861, 456.2085
375.9682, 462.1497
376.4503, 468.4460
376.9324, 476.8018
377.4146, 482.6164
377.8967, 484.6801
378.3788, 485.2843
378.8609, 486.4515
379.3430, 488.2254
379.8251, 488.9037
380.3073, 486.6117
380.7894, 481.1102
381.2715, 474.2523
381.7536, 466.6165
382.2357, 456.9677
382.7178, 444.5416
383.2000, 429.7763
383.6821, 413.3596
384.1642, 395.6405
384.6463, 376.7550
385.1284, 357.2654
385.6105, 337.4082
386.0927, 316.4038
386.5748, 293.0668
387.0569, 269.1657
387.5390, 246.0882
388.0211, 224.1906
388.5032, 204.0091
388.9854, 186.3519
389.4675, 171.4958
389.9496, 157.8731
390.4317, 145.4919
390.9138, 134.4424
391.3959, 125.0547
391.8781, 117.1704
392.3602, 110.1224
392.8423, 103.4680
393.3244, 97.28512
393.8065, 91.99709
394.2886, 87.82799
394.7708, 84.20831
395.2529, 80.88931
395.7350, 77.87521
396.2171, 75.22141
396.6992, 72.96460
397.1813, 70.99998
397.6635, 69.20325
398.1456, 67.57526
398.6277, 66.09653
399.1098, 64.81161
399.5919, 63.65055
400.0740, 62.59373
400.5562, 61.64547
401.0383, 60.58391
401.5204, 59.13653
402.0025, 57.48553
402.4846, 56.08369
402.9667, 55.00848
403.4489, 54.12749
403.9310, 53.34215
404.4131, 52.66307
404.8952, 52.16952
405.3773, 52.16850
405.8594, 52.14013
406.3416, 51.44460
406.8237, 50.19801
407.3058, 49.27845
407.7879, 49.23752
408.2700, 49.70667
408.7521, 49.69880
409.2343, 48.95719
409.7164, 48.37282
410.1985, 48.52004
410.6806, 48.89153
411.1627, 48.64406
411.6448, 47.57066
412.1269, 46.30604
412.6090, 45.57161
413.0912, 45.46007
413.5733, 45.57810
414.0554, 46.12830
414.5375, 46.71612
415.0196, 47.34429
415.5017, 47.84339
415.9839, 47.68398
416.4660, 46.42513
416.9481, 44.43202
417.4302, 43.45974
417.9123, 44.72734
418.3944, 45.54554
418.8766, 45.33220
419.3587, 44.74237
419.8408, 44.50346
420.3229, 44.78364
420.8050, 45.14816
421.2871, 44.94236
421.7693, 43.86208
422.2514, 43.34981
422.7335, 43.83595
423.2156, 44.43597
423.6977, 44.87775
424.1798, 45.13974
424.6620, 45.26827
425.1441, 45.29089
425.6262, 45.20778
426.1083, 45.01650
426.5904, 44.70180
427.0725, 44.29858
427.5547, 43.45916
428.0368, 42.74763
428.5189, 42.87122
429.0010, 43.95473
429.4831, 45.09211
429.9652, 45.12304
430.4474, 44.04621
430.9295, 43.46332
431.4116, 43.87442
431.8937, 44.36730
432.3758, 44.31745
432.8579, 43.88146
433.3401, 43.50268
433.8222, 43.44516
434.3043, 43.51315
434.7864, 43.33452
435.2685, 42.87278
435.7506, 42.56017
436.2328, 42.64972
436.7149, 42.97578
437.1970, 43.27642
437.6791, 43.56797
438.1612, 43.75739
438.6433, 43.75239
439.1255, 43.61699
439.6076, 43.48151
440.0897, 43.37251
440.5718, 43.25690
441.0539, 43.04017
441.5360, 42.73236
442.0182, 42.71988
442.5003, 43.39553
442.9824, 44.04193
443.4645, 44.05729
443.9466, 43.62918
444.4287, 43.40556
444.9109, 43.74207
445.3930, 44.41449
445.8751, 44.82087
446.3572, 44.68030
446.8393, 44.69347
447.3214, 45.27898
447.8036, 45.78730
448.2857, 45.36013
448.7678, 44.06451
449.2499, 42.98962
449.7320, 43.33648
450.2141, 45.21540
450.6963, 46.24694
451.1784, 45.57460
451.6605, 44.97194
452.1426, 44.92926
452.6247, 45.18711
453.1068, 45.32386
453.5890, 45.15924
454.0711, 44.91956
454.5532, 45.04609
455.0353, 45.65493
455.5174, 46.22377
455.9995, 46.74591
456.4817, 47.16477
456.9638, 47.44037
457.4459, 47.57615
457.9280, 47.58299
458.4101, 47.32691
458.8922, 46.97349
459.3744, 47.15983
459.8565, 48.12355
460.3386, 48.85392
460.8207, 48.53881
461.3028, 47.86259
461.7849, 47.63723
462.2671, 48.05604
462.7492, 48.63801
463.2313, 49.06654
463.7134, 49.38253
464.1955, 49.66240
464.6776, 49.85256
465.1598, 50.23895
465.6419, 51.23547
466.1240, 52.77367
466.6061, 54.18175
467.0882, 55.51103
467.5703, 56.57116
468.0525, 56.90850
468.5346, 56.80994
469.0167, 57.23232
469.4988, 58.67041
469.9809, 60.79252
470.4630, 62.84515
470.9452, 64.58516
471.4273, 66.69389
471.9094, 69.70464
472.3915, 72.74836
472.8736, 75.19205
473.3557, 76.95820
473.8379, 78.19990
474.3200, 78.98454
474.8021, 79.35438
475.2842, 79.92317
475.7663, 80.72305
476.2484, 81.70340
476.7306, 82.94517
477.2127, 84.31517
477.6948, 85.65597
478.1769, 86.92074
478.6590, 88.22208
479.1411, 89.77893
479.6233, 91.64697
480.1054, 93.17242
480.5875, 94.14980
481.0696, 94.96732
481.5517, 95.69860
482.0338, 96.43822
482.5159, 97.46681
482.9980, 99.22960
483.4802, 100.8718
483.9623, 100.8249
484.4444, 99.08311
484.9265, 97.96389
485.4086, 98.62390
485.8907, 99.79187
486.3729, 99.68566
486.8550, 98.25912
487.3371, 97.12949
487.8192, 97.48192
488.3013, 98.06770
488.7834, 97.05495
489.2656, 94.45437
489.7477, 92.16141
490.2298, 91.51360
490.7119, 92.09029
491.1940, 91.82736
491.6761, 90.10299
492.1583, 88.53194
492.6404, 87.30025
493.1225, 86.42068
493.6046, 85.90699
494.0867, 85.76325
494.5688, 85.99852
495.0510, 86.63113
495.5331, 87.66557
496.0152, 89.00899
496.4973, 91.00255
496.9794, 92.93330
497.4615, 94.63888
497.9437, 96.18222
498.4258, 97.59966
498.9079, 98.90755
499.3900, 100.2418
499.8721, 101.7161
500.3542, 103.2666
500.8364, 105.3968
501.3185, 108.4855
501.8006, 111.8245
502.2827, 115.0586
502.7648, 118.2037
503.2469, 121.4026
503.7291, 124.7234
504.2112, 128.0818
504.6933, 131.1638
505.1754, 133.9881
505.6575, 137.4581
506.1396, 142.2799
506.6218, 147.4465
507.1039, 151.3270
507.5860, 153.8117
508.0681, 156.6570
508.5502, 160.2711
509.0323, 164.5079
509.5145, 169.4887
509.9966, 175.0662
510.4787, 180.4569
510.9608, 185.1444
511.4429, 189.3018
511.9250, 193.5511
512.4072, 198.0900
512.8893, 202.4329
513.3714, 206.3512
513.8535, 210.1901
514.3356, 214.3389
514.8177, 218.7645
515.2999, 223.1091
515.7820, 227.0164
516.2641, 230.4990
516.7462, 233.9408
517.2283, 237.3653
517.7104, 240.6682
518.1926, 244.0064
518.6747, 247.1277
519.1568, 249.7839
519.6389, 251.9085
520.1210, 253.6069
520.6031, 254.7211
521.0853, 255.3952
521.5674, 256.6927
522.0495, 259.0198
522.5316, 261.2035
523.0137, 262.3329
523.4958, 262.7659
523.9780, 263.1129
524.4601, 263.4411
524.9422, 263.7504
525.4243, 264.1826
525.9064, 264.5844
526.3885, 264.4528
526.8707, 263.6100
527.3528, 262.7474
527.8349, 262.6865
528.3170, 263.5477
528.7991, 264.1935
529.2813, 264.4839
529.7634, 264.7259
530.2455, 264.7836
530.7276, 264.9446
531.2097, 265.7275
531.6918, 267.3238
532.1740, 269.3397
532.6561, 271.1038
533.1382, 272.3873
533.6203, 274.1657
534.1024, 276.9359
534.5845, 279.7351
535.0667, 281.7103
535.5488, 283.5333
536.0309, 286.6123
536.5130, 291.7700
536.9951, 297.9241
537.4772, 303.5606
537.9594, 308.6780
538.4415, 313.7879
538.9236, 319.0933
539.4057, 324.3160
539.8878, 329.0848
540.3699, 333.5088
540.8521, 338.3566
541.3342, 344.1024
541.8163, 350.1391
542.2984, 356.3180
542.7805, 362.4229
543.2626, 367.6633
543.7448, 371.6509
544.2269, 374.8926
544.7090, 378.2591
545.1911, 381.9887
545.6732, 385.1937
546.1553, 387.6396
546.6375, 389.7895
547.1196, 392.0452
547.6017, 394.2303
548.0838, 395.9522
548.5659, 397.0324
549.0480, 397.3394
549.5302, 396.4865
550.0123, 394.1714
550.4944, 391.6046
550.9765, 389.0175
551.4586, 386.0763
551.9407, 382.9507
552.4229, 379.3500
552.9050, 374.4516
553.3871, 367.4905
553.8692, 359.4049
554.3513, 351.4399
554.8334, 343.5995
555.3156, 336.2944
555.7977, 330.2709
556.2798, 323.9228
556.7619, 314.5479
557.2440, 302.2134
557.7261, 290.5405
558.2083, 280.5114
558.6904, 271.0905
559.1725, 261.1945
559.6546, 251.1590
560.1367, 242.0425
560.6188, 234.4453
561.1010, 227.7358
561.5831, 220.8447
562.0652, 213.9748
562.5473, 206.3452
563.0294, 196.7814
563.5115, 187.7189
563.9937, 180.5272
564.4758, 174.7948
564.9579, 169.4355
565.4400, 163.9078
565.9221, 158.3765
566.4042, 153.1676
566.8864, 148.3488
567.3685, 143.3226
567.8506, 137.5085
568.3327, 132.0565
568.8148, 127.8424
569.2969, 124.6595
569.7791, 121.7072
570.2612, 118.9065
570.7433, 116.0879
571.2254, 112.9543
571.7075, 109.6462
572.1896, 106.7440
572.6718, 104.4647
573.1539, 102.4452
573.6360, 100.1975
574.1181, 97.61846
574.6002, 95.24331
575.0823, 92.92280
575.5645, 90.95296
576.0466, 89.73212
576.5287, 88.86604
577.0108, 87.70434
577.4929, 86.00105
577.9750, 84.07431
578.4572, 82.38956
578.9393, 80.99091
579.4214, 79.59975
579.9035, 78.24316
580.3856, 76.85709
580.8677, 75.17437
581.3499, 73.51376
581.8320, 72.46976
582.3141, 72.34690
582.7962, 72.42529
583.2783, 72.25987
583.7604, 71.79135
584.2426, 70.66430
584.7247, 68.71765
585.2068, 66.80012
585.6889, 65.60340
586.1710, 65.09507
586.6531, 64.75646
587.1352, 64.73337
587.6173, 64.69260
588.0994, 64.60971
588.5815, 64.42406
589.0637, 64.01618
589.5458, 63.39480
590.0279, 62.74303
590.5100, 62.25694
590.9921, 61.90745
591.4742, 61.33741
