##NAMES=Grunerite
##RRUFFID=R070204
##IDEAL CHEMISTRY=[box]Fe^2+^_2_Fe^2+^_5_Si_8_O_22_(OH)_2_
##LOCALITY=Penge mine, Transvaal, South Africa
##OWNER=RRUFF
##SOURCE=California Institute of Technology
##DESCRIPTION=Aggregate of tan colored parallel fibers. The Penge mine is the source of UICC standard for amosite
##STATUS=The identification of this mineral has been confirmed by X-ray diffraction and chemical analysis
##URL=rruff.info/R070204
##MEASURED CHEMISTRY=([box]_0.98_Na_0.02_)_Σ=1_(Fe_5.24_Mg_1.59_Mn_0.08_[box]_0.03_Al_0.04_Ca_0.02_)_Σ=7_Si_8.00_O_22_(OH)_2_ ; OH estimated by difference and charge balance
144.4510, 1521.177
144.9332, 1558.475
145.4153, 1600.386
145.8974, 1654.308
146.3795, 1718.172
146.8616, 1779.037
147.3438, 1826.709
147.8259, 1860.094
148.3080, 1890.913
148.7901, 1916.842
149.2722, 1941.940
149.7543, 1970.447
150.2365, 2002.461
150.7186, 2032.656
151.2007, 2057.646
151.6828, 2076.773
152.1649, 2090.385
152.6470, 2098.735
153.1292, 2101.370
153.6113, 2097.398
154.0934, 2086.683
154.5755, 2071.060
155.0576, 2048.995
155.5397, 2022.332
156.0219, 1999.371
156.5040, 1985.372
156.9861, 1973.742
157.4682, 1955.557
157.9503, 1929.356
158.4324, 1903.963
158.9146, 1887.859
159.3967, 1878.055
159.8788, 1867.838
160.3609, 1853.537
160.8430, 1838.658
161.3251, 1827.843
161.8073, 1821.064
162.2894, 1819.085
162.7715, 1827.745
163.2536, 1841.570
163.7357, 1850.301
164.2178, 1843.880
164.7000, 1831.951
165.1821, 1834.005
165.6642, 1854.989
166.1463, 1876.096
166.6284, 1885.459
167.1105, 1887.056
167.5927, 1886.651
168.0748, 1883.800
168.5569, 1881.295
169.0390, 1885.790
169.5211, 1899.443
170.0032, 1915.528
170.4854, 1932.917
170.9675, 1949.902
171.4496, 1963.391
171.9317, 1970.703
172.4138, 1974.139
172.8959, 1978.989
173.3781, 1984.521
173.8602, 1993.279
174.3423, 2008.141
174.8244, 2026.250
175.3065, 2043.289
175.7886, 2056.807
176.2708, 2068.209
176.7529, 2081.664
177.2350, 2098.198
177.7171, 2115.015
178.1992, 2131.529
178.6813, 2147.487
179.1634, 2162.193
179.6456, 2174.813
180.1277, 2186.624
180.6098, 2202.687
181.0919, 2229.000
181.5740, 2248.434
182.0561, 2253.932
182.5383, 2251.294
183.0204, 2247.511
183.5025, 2246.075
183.9846, 2245.474
184.4667, 2241.852
184.9488, 2236.939
185.4310, 2225.202
185.9131, 2201.692
186.3952, 2173.164
186.8773, 2147.202
187.3594, 2127.459
187.8415, 2111.934
188.3237, 2094.640
188.8058, 2073.337
189.2879, 2054.517
189.7700, 2041.550
190.2521, 2030.660
190.7342, 2017.862
191.2164, 2001.479
191.6985, 1982.472
192.1806, 1962.759
192.6627, 1940.236
193.1448, 1920.894
193.6269, 1903.436
194.1091, 1889.954
194.5912, 1883.082
195.0733, 1883.922
195.5554, 1890.007
196.0375, 1896.497
196.5196, 1905.045
197.0018, 1910.742
197.4839, 1915.266
197.9660, 1916.091
198.4481, 1909.785
198.9302, 1895.373
199.4123, 1876.857
199.8945, 1861.149
200.3766, 1847.395
200.8587, 1838.763
201.3408, 1838.209
201.8229, 1840.138
202.3050, 1840.568
202.7872, 1838.324
203.2693, 1834.574
203.7514, 1830.819
204.2335, 1825.957
204.7156, 1823.800
205.1977, 1830.548
205.6799, 1835.555
206.1620, 1827.698
206.6441, 1806.534
207.1262, 1784.684
207.6083, 1781.443
208.0904, 1808.031
208.5726, 1824.731
209.0547, 1828.704
209.5368, 1826.212
210.0189, 1817.363
210.5010, 1804.034
210.9831, 1791.833
211.4653, 1788.146
211.9474, 1796.168
212.4295, 1801.070
212.9116, 1803.062
213.3937, 1802.050
213.8758, 1795.409
214.3580, 1784.756
214.8401, 1775.585
215.3222, 1774.212
215.8043, 1782.473
216.2864, 1786.286
216.7685, 1780.511
217.2507, 1775.133
217.7328, 1777.453
218.2149, 1784.122
218.6970, 1784.938
219.1791, 1769.586
219.6612, 1737.362
220.1434, 1714.777
220.6255, 1711.122
221.1076, 1708.637
221.5897, 1701.269
222.0718, 1691.439
222.5539, 1685.207
223.0361, 1687.604
223.5182, 1697.449
224.0003, 1701.834
224.4824, 1697.721
224.9645, 1690.784
225.4466, 1679.810
225.9288, 1667.229
226.4109, 1656.063
226.8930, 1647.960
227.3751, 1642.891
227.8572, 1640.984
228.3393, 1645.863
228.8215, 1649.097
229.3036, 1651.286
229.7857, 1650.474
230.2678, 1642.886
230.7499, 1626.527
231.2320, 1606.418
231.7142, 1595.359
232.1963, 1599.677
232.6784, 1602.693
233.1605, 1600.762
233.6426, 1597.593
234.1247, 1597.403
234.6069, 1601.402
235.0890, 1605.759
235.5711, 1602.113
236.0532, 1582.532
236.5353, 1574.231
237.0174, 1587.129
237.4996, 1605.165
237.9817, 1619.897
238.4638, 1628.821
238.9459, 1631.796
239.4280, 1626.675
239.9101, 1609.801
240.3923, 1598.450
240.8744, 1595.531
241.3565, 1596.358
241.8386, 1600.768
242.3207, 1607.620
242.8028, 1613.762
243.2850, 1616.545
243.7671, 1615.945
244.2492, 1612.041
244.7313, 1599.428
245.2134, 1588.527
245.6955, 1582.969
246.1777, 1582.316
246.6598, 1584.963
247.1419, 1591.255
247.6240, 1600.334
248.1061, 1603.673
248.5882, 1595.317
249.0704, 1589.109
249.5525, 1591.421
250.0346, 1598.592
250.5167, 1604.663
250.9988, 1606.444
251.4809, 1605.099
251.9631, 1604.063
252.4452, 1603.969
252.9273, 1602.818
253.4094, 1598.451
253.8915, 1593.436
254.3736, 1591.187
254.8558, 1593.522
255.3379, 1596.786
255.8200, 1594.664
256.3021, 1585.746
256.7842, 1576.787
257.2664, 1567.389
257.7485, 1560.064
258.2306, 1557.839
258.7127, 1561.518
259.1948, 1566.274
259.6769, 1566.477
260.1591, 1561.861
260.6412, 1558.983
261.1233, 1560.683
261.6054, 1563.093
262.0875, 1563.634
262.5696, 1562.207
263.0518, 1559.733
263.5339, 1555.084
264.0160, 1549.237
264.4981, 1548.890
264.9802, 1558.894
265.4623, 1567.988
265.9445, 1568.424
266.4266, 1561.559
266.9087, 1551.325
267.3908, 1533.089
267.8729, 1513.889
268.3550, 1512.107
268.8372, 1533.853
269.3193, 1554.393
269.8014, 1550.979
270.2835, 1535.075
270.7656, 1526.042
271.2477, 1533.133
271.7299, 1545.613
272.2120, 1550.331
272.6941, 1546.997
273.1762, 1546.720
273.6583, 1558.556
274.1404, 1575.208
274.6226, 1582.086
275.1047, 1573.415
275.5868, 1564.254
276.0689, 1567.562
276.5510, 1579.760
277.0331, 1585.020
277.5153, 1574.926
277.9974, 1559.250
278.4795, 1554.534
278.9616, 1561.969
279.4437, 1571.339
279.9258, 1583.184
280.4080, 1593.650
280.8901, 1594.208
281.3722, 1581.903
281.8543, 1566.283
282.3364, 1558.219
282.8185, 1558.153
283.3007, 1560.510
283.7828, 1567.348
284.2649, 1574.686
284.7470, 1579.260
285.2291, 1580.749
285.7112, 1579.618
286.1934, 1575.050
286.6755, 1567.368
287.1576, 1565.787
287.6397, 1576.490
288.1218, 1586.713
288.6039, 1588.631
289.0861, 1584.876
289.5682, 1583.898
290.0503, 1591.276
290.5324, 1603.495
291.0145, 1605.353
291.4966, 1584.376
291.9788, 1569.173
292.4609, 1566.581
292.9430, 1571.171
293.4251, 1576.909
293.9072, 1581.600
294.3893, 1585.426
294.8715, 1588.623
295.3536, 1590.623
295.8357, 1593.072
296.3178, 1597.751
296.7999, 1601.567
297.2820, 1601.844
297.7642, 1598.609
298.2463, 1593.921
298.7284, 1589.286
299.2105, 1583.973
299.6926, 1584.071
300.1747, 1593.936
300.6569, 1604.673
301.1390, 1614.840
301.6211, 1623.503
302.1032, 1629.548
302.5853, 1632.259
303.0674, 1631.775
303.5495, 1628.329
304.0316, 1617.239
304.5138, 1610.298
304.9959, 1611.644
305.4780, 1617.131
305.9601, 1623.018
306.4422, 1628.006
306.9243, 1631.351
307.4065, 1631.512
307.8886, 1627.795
308.3707, 1623.466
308.8528, 1617.279
309.3349, 1611.940
309.8170, 1609.019
310.2992, 1608.700
310.7813, 1610.518
311.2634, 1615.923
311.7455, 1624.264
312.2276, 1627.570
312.7097, 1621.645
313.1919, 1615.848
313.6740, 1617.028
314.1561, 1622.947
314.6382, 1627.844
315.1203, 1630.035
315.6024, 1629.226
316.0846, 1623.728
316.5667, 1612.643
317.0488, 1602.242
317.5309, 1597.255
318.0130, 1594.714
318.4951, 1589.626
318.9773, 1580.558
319.4594, 1570.433
319.9415, 1557.748
320.4236, 1544.708
320.9057, 1543.008
321.3878, 1560.968
321.8700, 1585.135
322.3521, 1593.249
322.8342, 1583.941
323.3163, 1573.107
323.7984, 1562.337
324.2805, 1553.718
324.7627, 1551.193
325.2448, 1555.377
325.7269, 1560.851
326.2090, 1562.458
326.6911, 1559.724
327.1732, 1557.569
327.6554, 1553.908
328.1375, 1552.666
328.6196, 1558.056
329.1017, 1568.030
329.5838, 1576.119
330.0659, 1578.186
330.5481, 1576.121
331.0302, 1578.437
331.5123, 1592.631
331.9944, 1601.927
332.4765, 1599.901
332.9586, 1594.294
333.4408, 1593.641
333.9229, 1600.446
334.4050, 1610.952
334.8871, 1619.705
335.3692, 1625.890
335.8513, 1632.396
336.3335, 1640.009
336.8156, 1647.205
337.2977, 1654.311
337.7798, 1660.453
338.2619, 1663.030
338.7440, 1658.263
339.2262, 1647.807
339.7083, 1646.671
340.1904, 1657.339
340.6725, 1674.592
341.1546, 1703.389
341.6367, 1734.759
342.1189, 1756.902
342.6010, 1764.855
343.0831, 1765.229
343.5652, 1766.872
344.0473, 1769.795
344.5294, 1774.157
345.0116, 1782.849
345.4937, 1790.644
345.9758, 1792.588
346.4579, 1788.611
346.9400, 1784.433
347.4221, 1783.798
347.9043, 1785.708
348.3864, 1788.798
348.8685, 1794.768
349.3506, 1796.103
349.8327, 1782.186
350.3148, 1758.236
350.7970, 1739.805
351.2791, 1729.475
351.7612, 1725.680
352.2433, 1731.533
352.7254, 1744.562
353.2076, 1751.350
353.6897, 1744.075
354.1718, 1728.410
354.6539, 1718.995
355.1360, 1716.277
355.6181, 1717.021
356.1003, 1725.084
356.5824, 1734.206
357.0645, 1736.271
357.5466, 1729.763
358.0287, 1719.435
358.5108, 1710.114
358.9930, 1701.456
359.4751, 1696.091
359.9572, 1698.786
360.4393, 1699.594
360.9214, 1691.028
361.4035, 1677.184
361.8857, 1667.725
362.3678, 1668.719
362.8499, 1676.859
363.3320, 1679.641
363.8141, 1670.753
364.2962, 1666.756
364.7784, 1673.943
365.2605, 1683.544
365.7426, 1687.745
366.2247, 1685.103
366.7068, 1680.537
367.1889, 1679.998
367.6711, 1683.854
368.1532, 1685.436
368.6353, 1683.441
369.1174, 1680.253
369.5995, 1677.086
370.0816, 1673.774
370.5638, 1669.752
371.0459, 1663.817
371.5280, 1657.785
372.0101, 1655.860
372.4922, 1658.696
372.9743, 1659.294
373.4565, 1653.551
373.9386, 1644.469
374.4207, 1636.368
374.9028, 1629.019
375.3849, 1623.932
375.8670, 1623.929
376.3492, 1626.446
376.8313, 1625.392
377.3134, 1619.014
377.7955, 1613.244
378.2776, 1615.565
378.7597, 1627.125
379.2419, 1631.581
379.7240, 1622.616
380.2061, 1611.996
380.6882, 1606.656
381.1703, 1605.511
381.6524, 1604.393
382.1346, 1600.945
382.6167, 1596.329
383.0988, 1594.031
383.5809, 1595.538
384.0630, 1597.682
384.5451, 1599.411
385.0273, 1602.356
385.5094, 1609.852
385.9915, 1621.238
386.4736, 1630.587
386.9557, 1630.706
387.4378, 1620.937
387.9200, 1614.561
388.4021, 1612.825
388.8842, 1613.351
389.3663, 1616.411
389.8484, 1620.874
390.3305, 1625.013
390.8127, 1628.042
391.2948, 1630.704
391.7769, 1634.489
392.2590, 1639.586
392.7411, 1644.120
393.2232, 1649.960
393.7054, 1652.582
394.1875, 1644.767
394.6696, 1626.727
395.1517, 1614.833
395.6338, 1621.926
396.1159, 1638.601
396.5981, 1650.226
397.0802, 1655.532
397.5623, 1655.561
398.0444, 1648.448
398.5265, 1636.499
399.0086, 1631.555
399.4908, 1639.832
399.9729, 1648.012
400.4550, 1650.590
400.9371, 1649.772
401.4192, 1649.863
401.9013, 1652.289
402.3835, 1653.822
402.8656, 1649.107
403.3477, 1634.361
403.8298, 1625.075
404.3119, 1625.542
404.7940, 1626.600
405.2762, 1621.721
405.7583, 1613.385
406.2404, 1609.274
406.7225, 1615.080
407.2046, 1626.792
407.6867, 1629.568
408.1689, 1618.713
408.6510, 1608.420
409.1331, 1598.531
409.6152, 1592.045
410.0973, 1594.549
410.5794, 1605.890
411.0616, 1614.393
411.5437, 1605.591
412.0258, 1583.929
412.5079, 1574.286
412.9900, 1583.136
413.4721, 1592.320
413.9543, 1583.241
414.4364, 1565.928
414.9185, 1561.583
415.4006, 1582.617
415.8827, 1607.234
416.3648, 1622.526
416.8470, 1628.793
417.3291, 1624.885
417.8112, 1608.789
418.2933, 1588.253
418.7754, 1574.401
419.2575, 1568.444
419.7397, 1566.217
420.2218, 1570.587
420.7039, 1576.271
421.1860, 1579.386
421.6681, 1580.539
422.1502, 1582.865
422.6324, 1588.610
423.1145, 1596.671
423.5966, 1602.711
424.0787, 1611.153
424.5608, 1609.916
425.0429, 1592.430
425.5251, 1569.360
426.0072, 1545.826
426.4893, 1524.288
426.9714, 1510.409
427.4535, 1514.990
427.9356, 1535.648
428.4178, 1542.147
428.8999, 1527.988
429.3820, 1512.031
429.8641, 1503.758
430.3462, 1499.950
430.8283, 1496.050
431.3105, 1490.526
431.7926, 1485.706
432.2747, 1484.880
432.7568, 1486.595
433.2389, 1485.015
433.7210, 1477.894
434.2032, 1469.672
434.6853, 1465.384
435.1674, 1465.368
435.6495, 1466.920
436.1316, 1470.533
436.6137, 1475.129
437.0959, 1482.105
437.5780, 1489.556
438.0601, 1493.193
438.5422, 1490.787
439.0243, 1483.373
439.5064, 1472.876
439.9886, 1452.561
440.4707, 1441.647
440.9528, 1445.984
441.4349, 1453.972
441.9170, 1459.129
442.3991, 1460.921
442.8813, 1461.398
443.3634, 1461.756
443.8455, 1462.115
444.3276, 1463.345
444.8097, 1466.404
445.2918, 1467.650
445.7740, 1465.081
446.2561, 1460.234
446.7382, 1453.849
447.2203, 1445.736
447.7024, 1438.513
448.1845, 1433.013
448.6667, 1429.693
449.1488, 1430.251
449.6309, 1435.136
450.1130, 1441.099
450.5951, 1446.859
451.0772, 1451.713
451.5594, 1450.555
452.0415, 1434.787
452.5236, 1423.457
453.0057, 1426.927
453.4878, 1437.124
453.9699, 1442.790
454.4521, 1440.691
454.9342, 1434.974
455.4163, 1430.403
455.8984, 1426.511
456.3805, 1426.429
456.8626, 1433.508
457.3448, 1441.144
457.8269, 1451.169
458.3090, 1459.517
458.7911, 1458.256
459.2732, 1442.445
459.7553, 1423.655
460.2375, 1420.045
460.7196, 1431.888
461.2017, 1440.775
461.6838, 1441.659
462.1659, 1440.741
462.6480, 1444.664
463.1302, 1452.209
463.6123, 1456.710
464.0944, 1455.238
464.5765, 1450.871
465.0586, 1443.183
465.5407, 1434.239
466.0229, 1433.214
466.5050, 1445.448
466.9871, 1462.806
467.4692, 1468.934
467.9513, 1455.369
468.4334, 1448.159
468.9156, 1452.186
469.3977, 1458.184
469.8798, 1461.645
470.3619, 1462.040
470.8440, 1459.501
471.3261, 1453.662
471.8083, 1446.173
472.2904, 1442.112
472.7725, 1443.061
473.2546, 1443.194
473.7367, 1439.747
474.2188, 1436.212
474.7010, 1434.405
475.1831, 1434.568
475.6652, 1436.825
476.1473, 1442.519
476.6294, 1449.839
477.1115, 1456.639
477.5937, 1462.859
478.0758, 1465.160
478.5579, 1459.636
479.0400, 1450.961
479.5221, 1451.715
480.0042, 1467.325
480.4864, 1477.350
480.9685, 1472.439
481.4506, 1463.961
481.9327, 1463.570
482.4148, 1470.830
482.8969, 1476.392
483.3791, 1472.629
483.8612, 1462.033
484.3433, 1458.567
484.8254, 1465.987
485.3075, 1474.731
485.7896, 1487.232
486.2718, 1497.699
486.7539, 1500.035
487.2360, 1494.415
487.7181, 1487.804
488.2002, 1483.881
488.6823, 1483.221
489.1645, 1489.380
489.6466, 1503.961
490.1287, 1516.119
490.6108, 1520.157
491.0929, 1518.193
491.5750, 1515.087
492.0572, 1510.301
492.5393, 1505.934
493.0214, 1499.368
493.5035, 1495.482
493.9856, 1502.662
494.4677, 1520.011
494.9499, 1536.748
495.4320, 1544.781
495.9141, 1545.049
496.3962, 1543.552
496.8783, 1534.942
497.3604, 1532.377
497.8426, 1542.839
498.3247, 1555.629
498.8068, 1561.727
499.2889, 1560.361
499.7710, 1556.747
500.2531, 1552.269
500.7353, 1549.082
501.2174, 1559.022
501.6995, 1587.221
502.1816, 1605.885
502.6637, 1591.406
503.1458, 1567.357
503.6280, 1575.342
504.1101, 1627.014
504.5922, 1664.044
505.0743, 1650.933
505.5564, 1619.481
506.0385, 1606.232
506.5207, 1612.914
507.0028, 1623.430
507.4849, 1627.764
507.9670, 1626.336
508.4491, 1620.675
508.9312, 1602.171
509.4134, 1592.301
509.8955, 1601.874
510.3776, 1612.615
510.8597, 1608.076
511.3418, 1590.336
511.8239, 1575.617
512.3061, 1576.678
512.7882, 1588.405
513.2703, 1595.985
513.7524, 1597.890
514.2346, 1605.447
514.7167, 1628.891
515.1988, 1654.353
515.6809, 1661.775
516.1630, 1649.503
516.6451, 1641.590
517.1273, 1651.623
517.6094, 1664.525
518.0915, 1664.308
518.5736, 1653.413
519.0557, 1644.885
519.5378, 1645.672
520.0200, 1652.922
520.5021, 1660.685
520.9842, 1675.216
521.4663, 1677.819
521.9484, 1652.176
522.4305, 1631.245
522.9127, 1638.749
523.3948, 1665.669
523.8769, 1686.088
524.3590, 1684.753
524.8411, 1674.023
525.3232, 1674.240
525.8054, 1685.332
526.2875, 1696.120
526.7696, 1705.027
527.2517, 1711.123
527.7338, 1712.718
528.2159, 1710.265
528.6981, 1706.181
529.1802, 1700.580
529.6623, 1693.637
530.1444, 1682.535
530.6265, 1670.698
531.1086, 1666.881
531.5908, 1673.719
532.0729, 1681.343
532.5550, 1675.115
533.0371, 1651.930
533.5192, 1634.124
534.0013, 1626.863
534.4835, 1619.130
534.9656, 1603.989
535.4477, 1587.787
535.9298, 1580.273
536.4119, 1584.897
536.8940, 1591.769
537.3762, 1591.866
537.8583, 1586.817
538.3404, 1581.729
538.8225, 1577.241
539.3046, 1572.483
539.7867, 1566.693
540.2689, 1560.168
540.7510, 1554.536
541.2331, 1552.218
541.7152, 1547.334
542.1973, 1534.646
542.6794, 1521.484
543.1616, 1515.909
543.6437, 1517.755
544.1258, 1520.454
544.6079, 1518.717
545.0900, 1513.661
545.5721, 1509.741
546.0543, 1506.095
546.5364, 1506.096
547.0185, 1518.969
547.5006, 1529.402
547.9827, 1519.366
548.4648, 1491.202
548.9469, 1474.915
549.4290, 1495.955
549.9111, 1526.756
550.3932, 1536.072
550.8754, 1527.604
551.3575, 1520.271
551.8396, 1521.918
552.3217, 1526.225
552.8038, 1522.319
553.2859, 1505.683
553.7681, 1496.191
554.2502, 1498.973
554.7323, 1502.288
555.2144, 1501.231
555.6965, 1497.657
556.1786, 1495.238
556.6608, 1495.360
557.1429, 1495.413
557.6250, 1491.188
558.1071, 1483.475
558.5892, 1479.288
559.0714, 1480.379
559.5535, 1481.517
560.0356, 1479.746
560.5177, 1475.215
560.9998, 1468.873
561.4819, 1458.978
561.9641, 1450.313
562.4462, 1442.144
562.9283, 1437.303
563.4104, 1442.171
563.8925, 1454.795
564.3746, 1463.555
564.8568, 1459.276
565.3389, 1445.875
565.8210, 1439.619
566.3031, 1445.283
566.7852, 1445.990
567.2673, 1430.384
567.7495, 1415.811
568.2316, 1415.046
568.7137, 1425.853
569.1958, 1435.739
569.6779, 1439.128
570.1600, 1439.629
570.6422, 1441.435
571.1243, 1443.544
571.6064, 1441.868
572.0885, 1434.879
572.5706, 1426.700
573.0527, 1422.877
573.5349, 1424.417
574.0170, 1420.543
574.4991, 1401.199
574.9812, 1388.658
575.4633, 1394.382
575.9454, 1406.702
576.4276, 1413.354
576.9097, 1411.377
577.3918, 1404.250
577.8739, 1390.483
578.3560, 1374.136
578.8381, 1370.626
579.3203, 1381.483
579.8024, 1394.122
580.2845, 1405.449
580.7666, 1412.920
581.2487, 1409.336
581.7308, 1391.300
582.2130, 1378.553
582.6951, 1374.604
583.1772, 1376.087
583.6593, 1385.846
584.1414, 1398.629
584.6235, 1402.382
585.1057, 1391.438
585.5878, 1376.844
586.0699, 1379.402
586.5520, 1401.671
587.0341, 1409.707
587.5162, 1394.018
587.9984, 1377.017
588.4805, 1372.398
588.9626, 1374.601
589.4447, 1374.866
589.9268, 1371.410
590.4089, 1367.613
590.8911, 1364.037
591.3732, 1361.603
591.8553, 1362.458
592.3374, 1366.087
592.8195, 1369.349
593.3016, 1370.401
593.7838, 1368.889
594.2659, 1362.613
594.7480, 1346.272
595.2301, 1337.855
595.7122, 1344.572
596.1943, 1354.526
596.6765, 1363.480
597.1586, 1370.955
597.6407, 1376.738
598.1228, 1380.878
598.6049, 1382.988
599.0870, 1382.111
599.5692, 1378.982
600.0513, 1374.205
600.5334, 1367.860
601.0155, 1365.381
601.4976, 1372.938
601.9797, 1388.367
602.4619, 1393.907
602.9440, 1379.322
603.4261, 1368.568
603.9082, 1362.536
604.3903, 1361.590
604.8724, 1369.607
605.3546, 1383.680
605.8367, 1393.320
606.3188, 1390.608
606.8009, 1382.875
607.2830, 1382.256
607.7651, 1387.529
608.2473, 1388.400
608.7294, 1381.540
609.2115, 1372.749
609.6936, 1367.894
610.1757, 1366.991
610.6578, 1364.682
611.1400, 1357.336
611.6221, 1353.304
612.1042, 1356.843
612.5863, 1363.155
613.0684, 1367.617
613.5505, 1369.645
614.0327, 1371.123
614.5148, 1373.172
614.9969, 1375.923
615.4790, 1379.217
615.9611, 1382.950
616.4432, 1390.564
616.9254, 1405.853
617.4075, 1420.180
617.8896, 1420.838
618.3717, 1407.490
618.8538, 1404.768
619.3359, 1424.352
619.8181, 1442.277
620.3002, 1449.686
620.7823, 1450.042
621.2644, 1446.957
621.7465, 1441.781
622.2286, 1435.557
622.7108, 1427.924
623.1929, 1420.533
623.6750, 1420.603
624.1571, 1429.081
624.6392, 1440.244
625.1213, 1456.315
625.6035, 1469.874
626.0856, 1467.413
626.5677, 1450.051
627.0498, 1443.418
627.5319, 1461.561
628.0140, 1479.834
628.4962, 1482.827
628.9783, 1479.263
629.4604, 1483.320
629.9425, 1497.590
630.4246, 1513.030
630.9067, 1520.799
631.3889, 1522.100
631.8710, 1524.282
632.3531, 1528.573
632.8352, 1528.100
633.3173, 1512.920
633.7994, 1499.798
634.2816, 1512.356
634.7637, 1548.828
635.2458, 1574.219
635.7279, 1571.530
