##NAMES=Grunerite
##RRUFFID=R060062
##IDEAL CHEMISTRY=[box]Fe^2+^_2_Fe^2+^_5_Si_8_O_22_(OH)_2_
##LOCALITY=2C mine, Broken Hill, New South Wales, Australia
##OWNER=RRUFF
##SOURCE=University of Arizona Mineral Museum
##DESCRIPTION=Aggregate of greenish-brown colored parallel acicular crystals
##STATUS=The identification of this mineral has been confirmed by X-ray diffraction and chemical analysis
##URL=rruff.info/R060062
##MEASURED CHEMISTRY=[box](Fe^2+^_4.32_Mg_1.90_Mn_0.54_Ca_0.22_)_Σ=7_(Si_7.98_Al_0.02_)_Σ=8_O_22_(OH)_2_
139.6275, 106.6165
140.1096, 107.5116
140.5918, 108.7768
141.0739, 109.7264
141.5560, 110.2185
142.0381, 110.6531
142.5202, 111.4265
143.0023, 112.6899
143.4845, 113.8120
143.9666, 114.5032
144.4487, 114.7535
144.9308, 115.7616
145.4129, 117.8352
145.8951, 120.3639
146.3772, 122.7813
146.8593, 124.9807
147.3414, 127.2143
147.8235, 129.5170
148.3056, 131.9240
148.7878, 134.3307
149.2699, 136.8333
149.7520, 139.3254
150.2341, 141.6201
150.7162, 143.0269
151.1983, 144.9803
151.6805, 147.8930
152.1626, 151.9666
152.6447, 156.3885
153.1268, 161.6819
153.6089, 167.2801
154.0910, 172.2157
154.5732, 175.3658
155.0553, 178.8013
155.5374, 183.2376
156.0195, 189.1667
156.5016, 195.1651
156.9837, 201.7195
157.4659, 208.1948
157.9480, 213.2661
158.4301, 216.4298
158.9122, 218.2725
159.3943, 219.0096
159.8764, 218.6368
160.3586, 217.2541
160.8407, 215.0304
161.3228, 211.8504
161.8049, 207.3812
162.2870, 200.1732
162.7691, 192.4512
163.2512, 185.6068
163.7334, 179.8374
164.2155, 175.1241
164.6976, 171.5021
165.1797, 168.9349
165.6618, 167.2915
166.1439, 167.3295
166.6261, 167.8917
167.1082, 167.9481
167.5903, 166.3859
168.0724, 165.1067
168.5545, 165.2879
169.0366, 166.7986
169.5188, 168.8439
170.0009, 171.4056
170.4830, 174.0845
170.9651, 176.4767
171.4472, 178.0116
171.9293, 179.5643
172.4115, 181.7786
172.8936, 184.6404
173.3757, 188.0051
173.8578, 191.9500
174.3399, 196.2602
174.8220, 200.6555
175.3042, 205.2620
175.7863, 209.7580
176.2684, 213.4041
176.7505, 216.2235
177.2326, 219.8057
177.7147, 226.2993
178.1969, 234.5879
178.6790, 242.1131
179.1611, 247.0924
179.6432, 250.9792
180.1253, 256.0156
180.6074, 262.2122
181.0896, 268.5943
181.5717, 274.2427
182.0538, 279.2524
182.5359, 284.1429
183.0180, 289.5885
183.5001, 294.9290
183.9823, 298.6632
184.4644, 300.7006
184.9465, 301.5192
185.4286, 301.3985
185.9107, 300.4132
186.3928, 298.9468
186.8750, 297.6048
187.3571, 295.9637
187.8392, 292.3889
188.3213, 286.6779
188.8034, 279.9872
189.2855, 273.7765
189.7677, 268.0316
190.2498, 262.2983
190.7319, 256.4139
191.2140, 250.4054
191.6961, 244.4099
192.1782, 238.4550
192.6603, 232.4932
193.1425, 226.2958
193.6246, 219.8918
194.1067, 214.1788
194.5888, 209.9341
195.0709, 207.0455
195.5530, 203.8825
196.0352, 200.3214
196.5173, 196.5831
196.9994, 192.8718
197.4815, 189.1543
197.9636, 185.8660
198.4457, 183.1401
198.9279, 180.9809
199.4100, 179.6217
199.8921, 179.3515
200.3742, 179.3940
200.8563, 178.0619
201.3384, 175.0705
201.8206, 172.3294
202.3027, 171.0387
202.7848, 171.3593
203.2669, 170.8898
203.7490, 169.3200
204.2311, 167.2274
204.7133, 165.8558
205.1954, 165.3697
205.6775, 164.9345
206.1596, 164.1825
206.6417, 163.0992
207.1238, 161.7316
207.6060, 159.9509
208.0881, 158.0014
208.5702, 156.3908
209.0523, 155.1252
209.5344, 154.1743
210.0165, 153.6897
210.4987, 153.8934
210.9808, 153.4244
211.4629, 152.0133
211.9450, 150.0925
212.4271, 148.6852
212.9092, 147.9306
213.3914, 147.3376
213.8735, 146.6898
214.3556, 145.9928
214.8377, 145.2630
215.3198, 144.5817
215.8019, 143.8272
216.2841, 142.6257
216.7662, 140.6803
217.2483, 138.9171
217.7304, 137.9208
218.2125, 138.1568
218.6946, 137.6454
219.1767, 135.9950
219.6589, 133.7477
220.1410, 132.2017
220.6231, 131.6591
221.1052, 131.2497
221.5873, 130.5955
222.0694, 129.6792
222.5516, 128.5689
223.0337, 127.1706
223.5158, 125.6206
223.9979, 124.1533
224.4800, 122.7234
224.9621, 121.4740
225.4443, 120.5230
225.9264, 120.0324
226.4085, 119.3926
226.8906, 118.4986
227.3727, 117.4961
227.8548, 116.6855
228.3370, 116.1135
228.8191, 115.6708
229.3012, 115.3678
229.7833, 115.4062
230.2654, 115.0430
230.7475, 114.1262
231.2297, 112.8685
231.7118, 111.7254
232.1939, 110.6588
232.6760, 109.7716
233.1581, 109.1039
233.6402, 108.6960
234.1224, 108.4186
234.6045, 108.3199
235.0866, 108.3283
235.5687, 108.3213
236.0508, 108.4249
236.5329, 108.3097
237.0151, 107.8258
237.4972, 106.8632
237.9793, 105.8075
238.4614, 104.3350
238.9435, 102.9068
239.4256, 102.5154
239.9078, 103.8679
240.3899, 105.1187
240.8720, 105.5199
241.3541, 104.6471
241.8362, 104.4687
242.3183, 105.5190
242.8005, 106.9793
243.2826, 107.3570
243.7647, 106.0254
244.2468, 104.6448
244.7289, 103.7166
245.2110, 103.3049
245.6931, 103.1039
246.1753, 103.2381
246.6574, 103.5023
247.1395, 103.5686
247.6216, 103.3268
248.1037, 103.0770
248.5858, 102.9344
249.0680, 102.9523
249.5501, 102.7478
250.0322, 102.0907
250.5143, 101.3895
250.9964, 101.2470
251.4785, 102.0140
251.9607, 102.6979
252.4428, 103.0285
252.9249, 102.9614
253.4070, 102.9201
253.8891, 102.9997
254.3712, 103.0178
254.8534, 102.6764
255.3355, 101.6206
255.8176, 100.9601
256.2997, 101.1354
256.7818, 102.2170
257.2639, 102.6120
257.7461, 101.9726
258.2282, 101.0363
258.7103, 100.6513
259.1924, 101.1815
259.6745, 101.3828
260.1566, 100.8145
260.6388, 99.50455
261.1209, 98.97871
261.6030, 99.63771
262.0851, 100.5150
262.5672, 100.6865
263.0493, 99.89832
263.5315, 99.07276
264.0136, 98.28075
264.4957, 97.55698
264.9778, 97.26672
265.4599, 97.62016
265.9420, 98.04984
266.4242, 98.01390
266.9063, 97.25800
267.3884, 96.89571
267.8705, 97.17154
268.3526, 97.95899
268.8347, 98.67050
269.3169, 99.34090
269.7990, 99.84426
270.2811, 100.0575
270.7632, 99.90674
271.2453, 99.76196
271.7274, 99.63966
272.2096, 99.55550
272.6917, 99.55932
273.1738, 99.65768
273.6559, 99.82292
274.1380, 100.0248
274.6201, 100.2519
275.1023, 100.6483
275.5844, 101.3486
276.0665, 102.1139
276.5486, 102.2779
277.0307, 101.6662
277.5128, 101.1735
277.9950, 101.3950
278.4771, 102.4070
278.9592, 103.0422
279.4413, 103.1451
279.9234, 103.0379
280.4055, 103.4169
280.8877, 104.3692
281.3698, 105.1641
281.8519, 105.3397
282.3340, 104.9010
282.8161, 104.7359
283.2982, 104.8502
283.7804, 105.2312
284.2625, 106.0582
284.7446, 107.3620
285.2267, 108.2698
285.7088, 108.1685
286.1909, 107.2624
286.6730, 107.1200
287.1552, 107.8755
287.6373, 108.8473
288.1194, 109.1382
288.6015, 108.7961
289.0836, 108.5687
289.5657, 108.6838
290.0479, 109.1026
290.5300, 109.8397
291.0121, 110.9424
291.4942, 111.8807
291.9763, 111.9292
292.4584, 111.2469
292.9406, 110.8297
293.4227, 111.1393
293.9048, 111.7348
294.3869, 111.4856
294.8690, 110.3891
295.3511, 109.3262
295.8333, 109.0900
296.3154, 109.4809
296.7975, 109.8391
297.2796, 110.0198
297.7617, 110.1127
298.2438, 110.3021
298.7260, 110.5634
299.2081, 110.7111
299.6902, 110.5041
300.1723, 110.1046
300.6544, 109.9326
301.1365, 110.1882
301.6187, 110.3284
302.1008, 109.3828
302.5829, 107.6587
303.0650, 106.2726
303.5471, 106.0779
304.0292, 106.5617
304.5114, 106.9864
304.9935, 107.2663
305.4756, 107.5751
305.9577, 108.3098
306.4398, 109.2132
306.9219, 109.7015
307.4041, 108.9697
307.8862, 107.9797
308.3683, 107.8495
308.8504, 108.6681
309.3325, 109.4397
309.8146, 109.1481
310.2968, 108.3806
310.7789, 108.0076
311.2610, 108.8654
311.7431, 109.8986
312.2252, 110.2671
312.7073, 110.0112
313.1895, 109.7577
313.6716, 110.0870
314.1537, 110.5190
314.6358, 110.5351
315.1179, 109.4921
315.6000, 108.5229
316.0822, 108.2513
316.5643, 108.5665
317.0464, 109.0109
317.5285, 109.7319
318.0106, 110.2993
318.4927, 110.3514
318.9749, 109.4587
319.4570, 108.6670
319.9391, 108.4584
320.4212, 108.6321
320.9033, 108.7127
321.3854, 108.6840
321.8676, 108.4271
322.3497, 107.7882
322.8318, 106.5216
323.3139, 105.5506
323.7960, 105.3192
324.2781, 105.4451
324.7603, 105.3714
325.2424, 104.8802
325.7245, 104.2975
326.2066, 103.6216
326.6887, 102.7829
327.1708, 102.3049
327.6530, 102.5094
328.1351, 102.9676
328.6172, 103.2863
329.0993, 103.4708
329.5814, 103.4905
330.0635, 103.1730
330.5457, 102.5416
331.0278, 102.3522
331.5099, 102.6770
331.9920, 103.3915
332.4741, 104.4621
332.9562, 106.5114
333.4384, 107.8678
333.9205, 108.1465
334.4026, 107.6447
334.8847, 107.4384
335.3668, 107.5008
335.8489, 107.9006
336.3311, 108.7164
336.8132, 110.1183
337.2953, 111.4787
337.7774, 112.8469
338.2595, 114.1245
338.7416, 115.0307
339.2238, 115.4149
339.7059, 115.8939
340.1880, 116.7122
340.6701, 117.8818
341.1522, 119.0173
341.6343, 120.0849
342.1164, 121.2146
342.5985, 122.7193
343.0807, 124.6861
343.5628, 126.2201
344.0449, 126.9627
344.5270, 127.1135
345.0091, 127.5665
345.4912, 128.3456
345.9734, 129.2874
346.4555, 130.1994
346.9376, 131.1107
347.4197, 132.4295
347.9018, 134.3927
348.3839, 136.5420
348.8661, 138.0266
349.3482, 138.8768
349.8303, 139.6201
350.3124, 140.9073
350.7945, 142.3380
351.2766, 142.7527
351.7588, 141.9026
352.2409, 140.6077
352.7230, 139.7092
353.2051, 139.1320
353.6872, 138.6387
354.1693, 138.1196
354.6515, 137.6269
355.1336, 137.2901
355.6157, 137.1133
356.0978, 136.8535
356.5799, 136.2646
357.0620, 135.4792
357.5442, 134.6839
358.0263, 133.7582
358.5084, 133.0219
358.9905, 132.8686
359.4726, 133.1865
359.9547, 133.3806
360.4369, 133.0454
360.9190, 132.4863
361.4011, 131.9213
361.8832, 131.2853
362.3653, 130.8632
362.8474, 131.0197
363.3296, 131.4764
363.8117, 131.6502
364.2938, 130.8683
364.7759, 130.1402
365.2580, 130.0221
365.7401, 130.7435
366.2223, 131.3014
366.7044, 131.5769
367.1865, 131.5380
367.6686, 131.1528
368.1507, 130.2724
368.6328, 129.2008
369.1150, 127.9954
369.5971, 126.6583
370.0792, 125.1372
370.5613, 123.0897
371.0434, 121.1301
371.5255, 119.6673
372.0077, 119.3511
372.4898, 118.4992
372.9719, 116.7383
373.4540, 114.4044
373.9361, 112.5390
374.4182, 111.2351
374.9004, 110.2792
375.3825, 109.6532
375.8646, 109.4714
376.3467, 109.1471
376.8288, 108.6755
377.3109, 108.0621
377.7931, 107.1984
378.2752, 105.9528
378.7573, 105.0748
379.2394, 104.9585
379.7215, 105.4442
380.2036, 105.2210
380.6858, 104.1454
381.1679, 103.0632
381.6500, 102.8579
382.1321, 103.4550
382.6142, 103.9256
383.0963, 104.0836
383.5785, 104.0649
384.0606, 104.0798
384.5427, 104.1346
385.0248, 104.2990
385.5069, 104.6968
385.9890, 105.2303
386.4712, 105.6446
386.9533, 105.9024
387.4354, 106.1417
387.9175, 106.5104
388.3996, 106.9665
388.8817, 107.4202
389.3639, 107.7203
389.8460, 108.0603
390.3281, 108.6446
390.8102, 109.4649
391.2923, 110.4135
391.7744, 111.4729
392.2566, 112.6092
392.7387, 113.8427
393.2208, 115.4403
393.7029, 116.7330
394.1850, 117.1666
394.6671, 117.0158
395.1493, 117.0143
395.6314, 117.3614
396.1135, 117.9929
396.5956, 119.0179
397.0777, 120.6714
397.5598, 121.8700
398.0419, 122.1421
398.5240, 121.9154
399.0062, 121.6811
399.4883, 121.3074
399.9704, 121.1349
400.4525, 121.2682
400.9346, 121.6991
401.4167, 122.2355
401.8989, 123.2165
402.3810, 123.9960
402.8631, 124.1548
403.3452, 123.2973
403.8273, 122.5819
404.3094, 122.0488
404.7916, 121.6893
405.2737, 121.5478
405.7558, 121.7703
406.2379, 121.8460
406.7200, 121.5305
407.2021, 120.8042
407.6843, 120.2112
408.1664, 119.8020
408.6485, 119.4129
409.1306, 118.8107
409.6127, 117.9923
410.0948, 117.3319
410.5770, 116.9713
411.0591, 116.7856
411.5412, 116.4476
412.0233, 115.9571
412.5054, 115.4627
412.9875, 115.1254
413.4697, 114.8615
413.9518, 114.4404
414.4339, 113.8193
414.9160, 113.1220
415.3981, 112.3167
415.8802, 111.5372
416.3624, 111.0813
416.8445, 111.4762
417.3266, 112.0193
417.8087, 111.9193
418.2908, 111.2042
418.7729, 110.5686
419.2551, 110.4138
419.7372, 110.5726
420.2193, 110.9204
420.7014, 111.6863
421.1835, 112.2341
421.6656, 112.1986
422.1478, 111.7360
422.6299, 111.2160
423.1120, 110.8223
423.5941, 110.3350
424.0762, 109.5965
424.5583, 108.4718
425.0405, 107.5998
425.5226, 107.3784
426.0047, 107.2861
426.4868, 106.8218
426.9689, 105.8420
427.4510, 104.6736
427.9332, 103.3291
428.4153, 101.8318
428.8974, 100.2705
429.3795, 98.54366
429.8616, 96.93000
430.3438, 95.59708
430.8259, 94.59259
431.3080, 93.65353
431.7901, 92.82497
432.2722, 91.99564
432.7543, 90.91261
433.2365, 89.54710
433.7186, 88.26561
434.2007, 87.13466
434.6828, 86.18713
435.1649, 85.66064
435.6470, 85.57825
436.1292, 85.48306
436.6113, 84.91691
437.0934, 84.02445
437.5755, 83.20816
438.0576, 82.46995
438.5397, 82.00021
439.0219, 82.27542
439.5040, 83.05658
439.9861, 83.62431
440.4682, 83.65907
440.9503, 83.29308
441.4324, 82.46226
441.9146, 81.17693
442.3967, 80.11215
442.8788, 79.81290
443.3609, 79.88057
443.8430, 79.90018
444.3251, 79.50648
444.8073, 79.38752
445.2894, 80.11581
445.7715, 81.32494
446.2536, 82.06474
446.7357, 81.80052
447.2178, 81.29118
447.7000, 80.77035
448.1821, 80.18401
448.6642, 79.84272
449.1463, 79.94682
449.6284, 80.17181
450.1105, 80.22153
450.5927, 80.00857
451.0747, 79.75282
451.5569, 79.34815
452.0390, 78.92897
452.5211, 79.15491
453.0032, 80.33014
453.4853, 81.32829
453.9674, 81.47030
454.4496, 80.70522
454.9317, 80.06667
455.4138, 79.55693
455.8959, 79.20557
456.3780, 79.12088
456.8601, 79.27245
457.3423, 79.37984
457.8244, 79.33647
458.3065, 79.21905
458.7886, 79.16771
459.2707, 79.17762
459.7528, 79.21536
460.2350, 79.26277
460.7171, 79.32102
461.1992, 79.40099
461.6813, 79.50927
462.1634, 79.60185
462.6455, 79.59222
463.1277, 79.55582
463.6098, 79.60822
464.0919, 80.05074
464.5740, 80.35330
465.0561, 80.09238
465.5382, 79.38017
466.0204, 78.93441
466.5025, 79.28381
466.9846, 79.72661
467.4667, 79.82756
467.9488, 79.22231
468.4309, 78.95479
468.9131, 79.50739
469.3952, 80.26947
469.8773, 80.40224
470.3594, 79.22007
470.8415, 78.53087
471.3236, 78.92205
471.8058, 80.21269
472.2879, 80.77876
472.7700, 80.40108
473.2521, 79.84453
473.7342, 79.60521
474.2163, 79.70592
474.6985, 79.71941
475.1806, 79.57873
475.6627, 79.45950
476.1448, 79.68327
476.6269, 80.20528
477.1090, 80.64587
477.5912, 80.85557
478.0733, 80.90707
478.5554, 80.84409
479.0375, 80.69118
479.5196, 80.68604
480.0017, 81.10742
480.4839, 81.72672
480.9660, 82.27035
481.4481, 82.70067
481.9302, 83.02885
482.4123, 83.11938
482.8944, 83.14507
483.3766, 83.36057
483.8587, 83.99850
484.3408, 84.70264
484.8229, 85.42915
485.3050, 86.14896
485.7871, 86.63161
486.2693, 86.93213
486.7514, 86.91394
487.2335, 86.38512
487.7156, 84.71734
488.1977, 83.98745
488.6798, 84.70390
489.1620, 86.01395
489.6441, 86.79770
490.1262, 86.90144
490.6083, 86.87367
491.0904, 86.76402
491.5725, 86.61970
492.0547, 86.69059
492.5368, 87.01295
493.0189, 87.34999
493.5010, 87.46395
493.9831, 87.42004
494.4652, 87.80354
494.9474, 88.73885
495.4295, 89.58965
495.9116, 89.37639
496.3937, 88.46907
496.8758, 87.90205
497.3579, 88.00788
497.8401, 88.59984
498.3222, 89.86385
498.8043, 91.54996
499.2864, 92.74542
499.7685, 92.27815
500.2506, 91.59236
500.7328, 91.89310
501.2149, 93.48352
501.6970, 94.86472
502.1791, 95.36329
502.6612, 95.45180
503.1433, 95.57713
503.6255, 95.69725
504.1076, 95.99207
504.5897, 96.23995
505.0718, 96.66737
505.5539, 98.12672
506.0360, 102.1494
506.5181, 104.8908
507.0002, 104.4073
507.4824, 100.3993
507.9645, 98.71052
508.4466, 99.98175
508.9287, 102.0986
509.4108, 103.2093
509.8929, 103.3195
510.3751, 102.9822
510.8572, 102.0573
511.3393, 101.1480
511.8214, 101.5513
512.3035, 103.0081
512.7856, 104.1468
513.2678, 104.2029
513.7499, 103.5917
514.2320, 102.6492
514.7141, 101.4368
515.1962, 100.5207
515.6783, 100.3362
516.1605, 100.5992
516.6426, 101.1041
517.1247, 101.9583
517.6068, 102.6647
518.0889, 102.9972
518.5710, 103.0707
519.0532, 103.0472
519.5353, 102.7875
520.0174, 102.6227
520.4995, 102.6311
520.9816, 102.8029
521.4637, 103.0800
521.9459, 103.5080
522.4280, 103.9816
522.9101, 104.3920
523.3922, 104.6466
523.8743, 105.4198
524.3564, 106.9811
524.8386, 108.5289
525.3207, 108.9175
525.8028, 108.1504
526.2849, 107.5825
526.7670, 107.5649
527.2491, 107.8484
527.7313, 107.9382
528.2134, 107.8800
528.6955, 107.9404
529.1776, 108.5150
529.6597, 109.1802
530.1418, 109.3649
530.6240, 109.0444
531.1061, 108.5092
531.5882, 107.8724
532.0703, 107.1548
532.5524, 106.3783
533.0345, 105.5762
533.5167, 104.6762
533.9988, 103.4504
534.4809, 102.1536
534.9630, 101.2240
535.4451, 101.4071
535.9272, 101.1949
536.4094, 100.0517
536.8915, 98.08339
537.3736, 96.68016
537.8557, 96.12156
538.3378, 95.63902
538.8199, 94.68961
539.3021, 93.12956
539.7842, 92.30498
540.2663, 92.40769
540.7484, 92.72581
541.2305, 92.28783
541.7126, 91.19158
542.1948, 90.25302
542.6769, 89.70625
543.1590, 89.39317
543.6411, 89.09145
544.1232, 88.82925
544.6053, 88.71204
545.0875, 88.95953
545.5696, 89.27404
546.0517, 89.35118
546.5338, 89.18463
547.0159, 89.01989
547.4980, 89.20081
547.9802, 89.29130
548.4623, 88.88582
548.9444, 87.30116
549.4265, 86.31532
549.9086, 86.58525
550.3907, 87.47696
550.8729, 88.09076
551.3550, 88.35697
551.8371, 88.45066
552.3192, 88.35432
552.8013, 88.10371
553.2834, 87.88489
553.7656, 87.69292
554.2477, 87.54347
554.7298, 87.44622
555.2119, 87.39851
555.6940, 87.37742
556.1761, 87.38054
556.6583, 87.42531
557.1404, 87.58936
557.6225, 87.80698
558.1046, 87.90029
558.5867, 87.78025
559.0688, 87.64909
559.5510, 87.74940
560.0331, 87.96933
560.5152, 88.08825
560.9973, 87.96172
561.4794, 87.76288
561.9615, 87.54771
562.4437, 87.32503
562.9258, 87.13725
563.4079, 87.00668
563.8900, 86.90117
564.3721, 86.82657
564.8542, 86.83598
565.3364, 86.67771
565.8185, 86.26085
566.3006, 85.79044
566.7827, 85.49141
567.2648, 85.39829
567.7469, 85.29167
568.2291, 85.16237
568.7112, 84.97024
569.1933, 84.57851
569.6754, 84.00978
570.1575, 83.48024
570.6396, 82.95924
571.1218, 82.60390
571.6039, 82.86635
572.0860, 83.65490
572.5681, 84.27306
573.0502, 84.16221
573.5323, 83.71816
574.0145, 83.26383
574.4966, 82.84205
574.9787, 82.43430
575.4608, 81.96053
575.9429, 81.53185
576.4250, 81.26311
576.9072, 81.11660
577.3893, 81.21613
577.8714, 81.77949
578.3535, 82.53734
578.8356, 82.83267
579.3177, 82.49381
579.7999, 82.11340
580.2820, 81.84901
580.7641, 81.69530
581.2462, 81.62468
581.7283, 81.64684
582.2104, 81.67001
582.6926, 81.61107
583.1747, 81.50282
583.6568, 81.40581
584.1389, 81.31286
584.6210, 81.35196
585.1031, 81.83784
585.5853, 82.47191
586.0674, 82.78825
586.5495, 82.42831
587.0316, 82.11330
587.5137, 82.40213
587.9958, 82.96693
588.4779, 83.17550
588.9600, 82.27499
589.4421, 81.61844
589.9243, 81.74632
590.4064, 82.54753
590.8885, 83.04144
591.3706, 83.13292
591.8527, 83.06879
592.3348, 82.97401
592.8170, 82.86022
593.2991, 82.50687
593.7812, 81.83313
594.2633, 81.21444
594.7454, 81.03825
595.2275, 81.25430
595.7097, 81.68989
596.1918, 82.37949
596.6739, 83.08443
597.1560, 83.63913
597.6381, 83.98798
598.1202, 84.00051
598.6024, 83.16241
599.0845, 82.39445
599.5666, 82.28452
600.0487, 82.71473
600.5308, 83.22392
601.0129, 83.96188
601.4951, 84.48961
601.9772, 84.49159
602.4593, 83.88013
602.9414, 83.60979
603.4235, 83.81799
603.9056, 84.19412
604.3878, 84.53043
604.8699, 84.79818
605.3520, 85.22691
605.8341, 85.91067
606.3162, 86.54697
606.7983, 86.61977
607.2805, 86.23961
607.7626, 86.05862
608.2447, 86.31536
608.7268, 86.74562
609.2089, 87.12932
609.6910, 87.42506
610.1732, 87.53091
610.6553, 87.01400
611.1374, 86.60733
611.6195, 86.84608
612.1016, 87.68613
612.5837, 88.57804
613.0659, 89.75109
613.5480, 90.61890
614.0301, 90.68916
614.5122, 89.59428
614.9943, 89.36267
615.4764, 90.43803
615.9586, 91.81224
616.4407, 92.60226
616.9228, 92.72691
617.4049, 92.77591
617.8870, 92.71541
618.3691, 92.82714
618.8513, 93.81058
619.3334, 95.43077
619.8155, 96.60578
620.2976, 96.66756
620.7797, 96.43721
621.2618, 96.88869
621.7440, 97.83392
622.2261, 98.73297
622.7082, 99.01451
623.1903, 99.42588
623.6724, 100.6097
624.1545, 102.5592
624.6367, 104.0467
625.1188, 104.4609
625.6009, 104.6809
626.0830, 105.0247
626.5651, 105.3300
627.0472, 106.5505
627.5294, 109.2936
628.0115, 111.9575
628.4936, 112.5163
628.9757, 110.9429
629.4578, 110.2465
629.9399, 110.8676
630.4221, 112.4105
630.9042, 114.9153
631.3863, 117.9596
631.8684, 120.1689
632.3505, 120.6576
632.8326, 120.5469
