##NAMES=Grunerite
##RRUFFID=R070267
##IDEAL CHEMISTRY=[box]Fe^2+^_2_Fe^2+^_5_Si_8_O_22_(OH)_2_
##LOCALITY=Långfall mine (Saxberg mine),  Saxberget ore field,  Ludvika,  Dalarna,  Sweden
##OWNER=RRUFF
##SOURCE=Michael Scott
##DESCRIPTION=Mass of interlocking light to dark brown striated prismatic crystals associated with sphalerite, garnet and arsenopyrite
##STATUS=The identification of this mineral is confirmed by single-crystal X-ray diffraction and chemical analysis.
##URL=rruff.info/R070267
##MEASURED CHEMISTRY=([box]_0.95_Na_0.05_)_Σ=1_(Fe_4.89_Mg_1.19_Mn_0.86_Ca_0.06_)_Σ=7_(Si_7.95_Al_0.05_)_Σ=8_O_22_((OH)_1.90_F_0.10_)_Σ=2_ ; OH estimated by difference and charge balance
141.9480, 1236.666
142.4301, 1283.492
142.9122, 1337.553
143.3943, 1394.971
143.8764, 1453.752
144.3585, 1513.592
144.8407, 1586.889
145.3228, 1676.242
145.8049, 1776.658
146.2870, 1882.639
146.7691, 1987.935
147.2512, 2105.098
147.7334, 2236.155
148.2155, 2384.246
148.6976, 2537.947
149.1797, 2694.819
149.6618, 2858.488
150.1439, 3032.120
150.6261, 3224.543
151.1082, 3417.010
151.5903, 3608.366
152.0724, 3814.309
152.5545, 3982.454
153.0366, 4119.887
153.5188, 4215.554
154.0009, 4247.616
154.4830, 4200.419
154.9651, 4098.574
155.4472, 3949.751
155.9293, 3728.209
156.4115, 3500.459
156.8936, 3261.671
157.3757, 3021.717
157.8578, 2810.781
158.3399, 2644.984
158.8221, 2507.137
159.3042, 2384.277
159.7863, 2270.745
160.2684, 2174.501
160.7505, 2100.494
161.2326, 2047.007
161.7148, 2006.380
162.1969, 1979.673
162.6790, 1962.430
163.1611, 1950.602
163.6432, 1939.787
164.1253, 1936.238
164.6075, 1943.763
165.0896, 1962.519
165.5717, 1988.572
166.0538, 2017.120
166.5359, 2052.142
167.0180, 2099.181
167.5002, 2171.062
167.9823, 2249.589
168.4644, 2317.054
168.9465, 2369.317
169.4286, 2430.341
169.9107, 2524.761
170.3929, 2640.813
170.8750, 2756.251
171.3571, 2851.620
171.8392, 2942.773
172.3213, 3046.883
172.8034, 3166.286
173.2856, 3294.438
173.7677, 3424.943
174.2498, 3559.365
174.7319, 3700.466
175.2140, 3854.379
175.6961, 4015.128
176.1783, 4174.130
176.6604, 4329.779
177.1425, 4479.966
177.6246, 4625.383
178.1067, 4763.575
178.5888, 4888.317
179.0710, 4994.378
179.5531, 5081.837
180.0352, 5149.873
180.5173, 5202.459
180.9994, 5230.312
181.4815, 5211.481
181.9637, 5146.592
182.4458, 5060.859
182.9279, 4970.786
183.4100, 4876.101
183.8921, 4774.709
184.3742, 4667.862
184.8564, 4552.866
185.3385, 4422.962
185.8206, 4275.979
186.3027, 4126.899
186.7848, 3985.739
187.2669, 3853.185
187.7491, 3729.450
188.2312, 3614.592
188.7133, 3509.042
189.1954, 3412.158
189.6775, 3324.582
190.1596, 3245.666
190.6418, 3173.997
191.1239, 3109.901
191.6060, 3052.480
192.0881, 3004.247
192.5702, 2963.935
193.0524, 2918.668
193.5345, 2866.320
194.0166, 2814.815
194.4987, 2778.445
194.9808, 2757.960
195.4629, 2741.211
195.9451, 2723.293
196.4272, 2704.019
196.9093, 2685.074
197.3914, 2665.152
197.8735, 2647.689
198.3556, 2641.623
198.8378, 2648.927
199.3199, 2655.194
199.8020, 2648.833
200.2841, 2628.200
200.7662, 2621.484
201.2483, 2633.655
201.7305, 2657.549
202.2126, 2674.997
202.6947, 2684.036
203.1768, 2693.955
203.6589, 2710.853
204.1410, 2735.449
204.6232, 2761.535
205.1053, 2790.576
205.5874, 2819.885
206.0695, 2837.313
206.5516, 2836.852
207.0337, 2840.296
207.5159, 2864.853
207.9980, 2914.570
208.4801, 2964.486
208.9622, 3013.680
209.4443, 3060.694
209.9264, 3097.226
210.4086, 3120.203
210.8907, 3138.952
211.3728, 3160.197
211.8549, 3184.903
212.3370, 3209.967
212.8191, 3237.646
213.3013, 3266.227
213.7834, 3282.504
214.2655, 3283.654
214.7476, 3277.006
215.2297, 3270.487
215.7118, 3268.994
216.1940, 3253.263
216.6761, 3217.208
217.1582, 3161.629
217.6403, 3106.795
218.1224, 3054.394
218.6045, 3001.352
219.0867, 2944.460
219.5688, 2882.972
220.0509, 2820.189
220.5330, 2757.480
221.0151, 2693.990
221.4972, 2632.304
221.9794, 2570.406
222.4615, 2511.959
222.9436, 2459.742
223.4257, 2413.027
223.9078, 2373.726
224.3899, 2343.484
224.8721, 2322.339
225.3542, 2305.351
225.8363, 2296.932
226.3184, 2288.362
226.8005, 2267.855
227.2827, 2228.366
227.7648, 2190.509
228.2469, 2158.910
228.7290, 2133.883
229.2111, 2113.759
229.6932, 2100.891
230.1754, 2091.256
230.6575, 2080.220
231.1396, 2070.493
231.6217, 2054.517
232.1038, 2028.853
232.5859, 1991.291
233.0681, 1955.317
233.5502, 1918.365
234.0323, 1884.945
234.5144, 1862.384
234.9965, 1857.973
235.4786, 1852.390
235.9608, 1839.439
236.4429, 1817.618
236.9250, 1796.163
237.4071, 1774.763
237.8892, 1754.079
238.3713, 1735.154
238.8535, 1718.190
239.3356, 1702.627
239.8177, 1688.014
240.2998, 1673.696
240.7819, 1663.189
241.2640, 1659.010
241.7462, 1657.009
242.2283, 1649.722
242.7104, 1634.328
243.1925, 1618.202
243.6746, 1602.614
244.1567, 1585.321
244.6389, 1576.811
245.1210, 1580.933
245.6031, 1591.521
246.0852, 1598.246
246.5673, 1601.714
247.0494, 1600.150
247.5316, 1590.578
248.0137, 1567.053
248.4958, 1556.386
248.9779, 1563.834
249.4600, 1581.274
249.9421, 1593.824
250.4243, 1600.660
250.9064, 1604.279
251.3885, 1605.643
251.8706, 1605.085
252.3527, 1600.579
252.8348, 1589.800
253.3170, 1576.537
253.7991, 1568.864
254.2812, 1570.888
254.7633, 1570.758
255.2454, 1562.891
255.7275, 1544.011
256.2097, 1530.549
256.6918, 1526.441
257.1739, 1525.203
257.6560, 1513.171
258.1381, 1483.720
258.6202, 1457.108
259.1024, 1442.103
259.5845, 1442.723
260.0666, 1438.474
260.5487, 1427.016
261.0308, 1412.472
261.5129, 1402.262
261.9951, 1398.158
262.4772, 1394.365
262.9593, 1388.463
263.4414, 1379.675
263.9235, 1371.885
264.4056, 1364.002
264.8878, 1358.071
265.3699, 1359.421
265.8520, 1372.219
266.3341, 1380.357
266.8162, 1374.930
267.2983, 1352.428
267.7805, 1339.961
268.2626, 1340.655
268.7447, 1348.061
269.2268, 1350.029
269.7089, 1343.932
270.1910, 1341.890
270.6732, 1351.690
271.1553, 1375.598
271.6374, 1387.136
272.1195, 1382.570
272.6016, 1371.113
273.0837, 1367.125
273.5659, 1371.165
274.0480, 1379.554
274.5301, 1391.803
275.0122, 1407.989
275.4943, 1425.546
275.9764, 1446.064
276.4586, 1464.963
276.9407, 1472.422
277.4228, 1466.456
277.9049, 1465.359
278.3870, 1477.053
278.8691, 1501.070
279.3513, 1528.477
279.8334, 1561.239
280.3155, 1592.328
280.7976, 1610.967
281.2798, 1616.552
281.7619, 1620.154
282.2440, 1625.182
282.7261, 1631.564
283.2082, 1637.395
283.6903, 1641.465
284.1725, 1649.441
284.6546, 1673.569
285.1367, 1712.764
285.6188, 1743.509
286.1009, 1752.019
286.5830, 1744.789
287.0652, 1750.642
287.5473, 1770.765
288.0294, 1796.516
288.5115, 1820.224
288.9936, 1841.893
289.4757, 1860.432
289.9579, 1872.884
290.4400, 1882.675
290.9221, 1900.075
291.4042, 1925.392
291.8863, 1954.491
292.3684, 1985.508
292.8506, 2017.448
293.3327, 2046.531
293.8148, 2071.881
294.2969, 2093.665
294.7790, 2112.261
295.2611, 2127.732
295.7433, 2141.287
296.2254, 2152.480
296.7075, 2162.665
297.1896, 2176.226
297.6717, 2201.724
298.1538, 2225.297
298.6360, 2222.343
299.1181, 2194.501
299.6002, 2161.510
300.0823, 2134.769
300.5644, 2113.778
301.0465, 2098.069
301.5287, 2090.989
302.0108, 2084.787
302.4929, 2068.445
302.9750, 2043.770
303.4571, 2022.048
303.9392, 2014.465
304.4214, 2013.195
304.9035, 2006.770
305.3856, 1989.234
305.8677, 1971.343
306.3498, 1961.373
306.8319, 1958.795
307.3141, 1961.667
307.7962, 1975.560
308.2783, 1991.228
308.7604, 1998.609
309.2425, 1991.781
309.7246, 1984.668
310.2068, 1987.990
310.6889, 1998.205
311.1710, 2006.132
311.6531, 2008.395
312.1352, 2006.046
312.6173, 1998.312
313.0995, 1982.383
313.5816, 1969.278
314.0637, 1969.704
314.5458, 1976.173
315.0279, 1974.610
315.5100, 1956.484
315.9922, 1931.272
316.4743, 1902.183
316.9564, 1867.784
317.4385, 1837.042
317.9206, 1812.699
318.4027, 1793.832
318.8849, 1779.151
319.3670, 1776.913
319.8491, 1771.241
320.3312, 1753.248
320.8133, 1719.059
321.2954, 1692.117
321.7776, 1680.231
322.2597, 1676.331
322.7418, 1672.877
323.2239, 1664.650
323.7060, 1660.906
324.1881, 1664.792
324.6703, 1676.916
325.1524, 1690.004
325.6345, 1706.208
326.1166, 1721.650
326.5987, 1733.375
327.0808, 1741.382
327.5630, 1745.569
328.0451, 1742.829
328.5272, 1733.787
329.0093, 1732.550
329.4914, 1746.739
329.9735, 1761.828
330.4557, 1767.512
330.9378, 1753.600
331.4199, 1748.378
331.9020, 1757.476
332.3841, 1777.502
332.8662, 1791.646
333.3484, 1796.791
333.8305, 1800.567
334.3126, 1807.006
334.7947, 1816.396
335.2768, 1827.625
335.7589, 1841.723
336.2411, 1857.009
336.7232, 1867.081
337.2053, 1867.050
337.6874, 1875.950
338.1695, 1907.643
338.6516, 1965.762
339.1338, 2011.629
339.6159, 2041.489
340.0980, 2063.266
340.5801, 2089.977
341.0622, 2122.723
341.5443, 2153.112
342.0265, 2175.687
342.5086, 2191.744
342.9907, 2217.279
343.4728, 2253.948
343.9549, 2292.752
344.4370, 2324.962
344.9192, 2350.164
345.4013, 2364.902
345.8834, 2363.296
346.3655, 2351.386
346.8476, 2345.047
347.3297, 2344.439
347.8119, 2345.207
348.2940, 2343.215
348.7761, 2339.326
349.2582, 2337.345
349.7403, 2344.496
350.2225, 2347.709
350.7046, 2324.452
351.1867, 2277.136
351.6688, 2225.962
352.1509, 2186.549
352.6331, 2152.215
353.1152, 2111.849
353.5973, 2059.198
354.0794, 2007.091
354.5615, 1964.780
355.0436, 1931.964
355.5258, 1907.724
356.0079, 1895.999
356.4900, 1890.167
356.9721, 1884.289
357.4542, 1876.711
357.9363, 1871.611
358.4185, 1871.905
358.9006, 1876.203
359.3827, 1882.107
359.8648, 1892.393
360.3469, 1901.099
360.8290, 1904.071
361.3112, 1900.055
361.7933, 1897.072
362.2754, 1901.989
362.7575, 1907.637
363.2396, 1906.220
363.7217, 1891.398
364.2039, 1873.932
364.6860, 1855.423
365.1681, 1835.874
365.6502, 1818.120
366.1323, 1807.210
366.6144, 1795.215
367.0966, 1776.534
367.5787, 1743.127
368.0608, 1713.006
368.5429, 1690.105
369.0250, 1672.160
369.5071, 1647.796
369.9893, 1610.978
370.4714, 1574.885
370.9535, 1546.283
371.4356, 1529.674
371.9177, 1510.552
372.3998, 1486.192
372.8820, 1460.449
373.3641, 1442.557
373.8462, 1434.487
374.3283, 1429.247
374.8104, 1424.638
375.2925, 1420.681
375.7747, 1416.984
376.2568, 1414.088
376.7389, 1410.318
377.2210, 1401.639
377.7031, 1387.402
378.1852, 1377.781
378.6674, 1376.873
379.1495, 1382.985
379.6316, 1388.806
380.1137, 1394.107
380.5958, 1400.727
381.0779, 1411.502
381.5601, 1425.559
382.0422, 1437.632
382.5243, 1446.259
383.0064, 1453.073
383.4885, 1458.259
383.9706, 1462.735
384.4528, 1472.868
384.9349, 1498.116
385.4170, 1530.643
385.8991, 1557.674
386.3812, 1576.641
386.8633, 1592.998
387.3455, 1611.389
387.8276, 1631.036
388.3097, 1650.488
388.7918, 1667.449
389.2739, 1684.714
389.7560, 1705.253
390.2382, 1729.620
390.7203, 1753.258
391.2024, 1771.114
391.6845, 1787.674
392.1666, 1808.372
392.6487, 1846.089
393.1309, 1877.737
393.6130, 1889.511
394.0951, 1883.367
394.5772, 1882.104
395.0593, 1899.358
395.5414, 1918.373
396.0236, 1928.499
396.5057, 1922.268
396.9878, 1914.222
397.4699, 1907.215
397.9520, 1899.519
398.4341, 1885.863
398.9163, 1863.456
399.3984, 1837.964
399.8805, 1810.886
400.3626, 1781.123
400.8447, 1753.066
401.3268, 1727.054
401.8090, 1702.533
402.2911, 1678.621
402.7732, 1656.478
403.2553, 1632.335
403.7374, 1603.808
404.2195, 1571.411
404.7017, 1545.200
405.1838, 1526.469
405.6659, 1510.197
406.1480, 1490.163
406.6301, 1466.110
407.1122, 1449.573
407.5944, 1444.812
408.0765, 1446.466
408.5586, 1441.972
409.0407, 1431.409
409.5228, 1419.283
410.0049, 1408.128
410.4871, 1397.812
410.9692, 1386.935
411.4513, 1374.531
411.9334, 1364.853
412.4155, 1364.779
412.8976, 1371.619
413.3798, 1377.548
413.8619, 1377.082
414.3440, 1375.088
414.8261, 1377.171
415.3082, 1383.445
415.7903, 1389.729
416.2725, 1393.380
416.7546, 1395.533
417.2367, 1397.601
417.7188, 1401.740
418.2009, 1403.922
418.6830, 1400.107
419.1652, 1392.186
419.6473, 1387.243
420.1294, 1388.344
420.6115, 1392.479
421.0937, 1399.113
421.5758, 1412.267
422.0579, 1418.741
422.5400, 1413.712
423.0221, 1401.670
423.5042, 1389.907
423.9864, 1384.738
424.4685, 1373.201
424.9506, 1350.729
425.4327, 1316.719
425.9148, 1282.821
426.3969, 1247.463
426.8791, 1214.019
427.3612, 1185.185
427.8433, 1160.126
428.3254, 1143.672
428.8075, 1141.242
429.2896, 1146.136
429.7718, 1132.736
430.2539, 1097.389
430.7360, 1063.121
431.2181, 1045.544
431.7002, 1043.411
432.1823, 1037.940
432.6645, 1027.341
433.1466, 1016.251
433.6287, 1013.563
434.1108, 1017.164
434.5929, 1016.240
435.0750, 1001.500
435.5572, 981.5541
436.0393, 972.5560
436.5214, 974.0852
437.0035, 977.2141
437.4856, 974.8029
437.9677, 969.6920
438.4499, 966.2293
438.9320, 967.5147
439.4141, 967.2954
439.8962, 958.3939
440.3783, 944.2813
440.8604, 933.6431
441.3426, 929.2031
441.8247, 930.3099
442.3068, 939.3942
442.7889, 959.8056
443.2710, 973.1364
443.7531, 968.2555
444.2353, 956.2031
444.7174, 949.1022
445.1995, 953.8614
445.6816, 958.0793
446.1637, 961.5045
446.6458, 963.6634
447.1280, 958.7609
447.6101, 940.4730
448.0922, 922.0480
448.5743, 910.7573
449.0564, 907.9122
449.5385, 908.8521
450.0207, 914.5842
450.5028, 922.9778
450.9849, 931.3448
451.4670, 940.6530
451.9491, 944.4437
452.4312, 937.3118
452.9134, 921.3750
453.3955, 914.1198
453.8776, 916.5018
454.3597, 920.8198
454.8418, 918.1584
455.3239, 910.6059
455.8061, 907.5187
456.2882, 912.9455
456.7703, 920.6802
457.2524, 921.1891
457.7345, 915.9780
458.2166, 911.1823
458.6988, 910.6027
459.1809, 912.3034
459.6630, 915.2734
460.1451, 919.9680
460.6272, 921.8802
461.1093, 913.6505
461.5915, 902.3581
462.0736, 896.9893
462.5557, 910.3060
463.0378, 920.4415
463.5199, 915.9600
464.0020, 899.1085
464.4842, 887.2081
464.9663, 885.8455
465.4484, 888.9836
465.9305, 893.8514
466.4126, 903.8086
466.8947, 909.2119
467.3769, 906.0815
467.8590, 900.1284
468.3411, 901.4542
468.8232, 915.1208
469.3053, 925.9654
469.7874, 929.6281
470.2696, 926.4631
470.7517, 921.7737
471.2338, 914.0624
471.7159, 909.4253
472.1980, 916.1591
472.6801, 933.8928
473.1623, 944.7093
473.6444, 944.8503
474.1265, 939.6157
474.6086, 936.4672
475.0907, 935.4991
475.5728, 937.3175
476.0550, 946.5724
476.5371, 957.3321
477.0192, 956.8809
477.5013, 944.6156
477.9834, 935.5242
478.4655, 947.0910
478.9477, 966.9671
479.4298, 978.5132
479.9119, 970.4351
480.3940, 961.1140
480.8761, 958.8350
481.3582, 962.6873
481.8404, 970.1739
482.3225, 987.2461
482.8046, 1002.189
483.2867, 1008.493
483.7688, 1002.114
484.2509, 999.2540
484.7331, 1005.190
485.2152, 1013.222
485.6973, 1016.943
486.1794, 1012.273
486.6615, 1010.413
487.1436, 1014.078
487.6258, 1021.798
488.1079, 1026.850
488.5900, 1029.161
489.0721, 1028.872
489.5542, 1023.160
490.0363, 1011.859
490.5185, 1012.570
491.0006, 1028.230
491.4827, 1047.590
491.9648, 1056.451
492.4470, 1056.024
492.9291, 1052.183
493.4112, 1044.688
493.8933, 1036.856
494.3754, 1032.755
494.8575, 1032.563
495.3397, 1037.633
495.8218, 1055.856
496.3039, 1076.509
496.7860, 1086.443
497.2681, 1081.260
497.7502, 1075.840
498.2324, 1077.637
498.7145, 1084.084
499.1966, 1091.734
499.6787, 1101.668
500.1608, 1110.495
500.6429, 1116.684
501.1251, 1120.399
501.6072, 1124.490
502.0893, 1128.187
502.5714, 1133.220
503.0535, 1141.061
503.5356, 1155.214
504.0178, 1163.376
504.4999, 1163.093
504.9820, 1158.962
505.4641, 1157.644
505.9462, 1159.330
506.4283, 1163.132
506.9105, 1170.456
507.3926, 1179.311
507.8747, 1180.478
508.3568, 1173.567
508.8389, 1166.037
509.3210, 1162.484
509.8032, 1162.524
510.2853, 1165.754
510.7674, 1172.792
511.2495, 1180.132
511.7316, 1184.990
512.2137, 1187.459
512.6959, 1187.690
513.1780, 1179.648
513.6601, 1174.487
514.1422, 1181.899
514.6243, 1200.146
515.1064, 1216.963
515.5886, 1226.522
516.0707, 1233.934
516.5528, 1242.307
517.0349, 1253.334
517.5170, 1262.758
517.9991, 1265.821
518.4813, 1268.703
518.9634, 1279.983
519.4455, 1307.124
519.9276, 1329.825
520.4097, 1343.526
520.8918, 1349.131
521.3740, 1352.864
521.8561, 1353.302
522.3382, 1356.583
522.8203, 1370.387
523.3024, 1393.467
523.7845, 1404.697
524.2667, 1401.088
524.7488, 1392.692
525.2309, 1390.160
525.7130, 1392.908
526.1951, 1399.474
526.6772, 1415.390
527.1594, 1429.166
527.6415, 1424.914
528.1236, 1405.694
528.6057, 1384.689
529.0878, 1370.159
529.5699, 1356.372
530.0521, 1338.825
530.5342, 1315.850
531.0163, 1293.367
531.4984, 1270.764
531.9805, 1250.460
532.4626, 1234.906
532.9448, 1226.282
533.4269, 1220.530
533.9090, 1221.254
534.3911, 1224.969
534.8732, 1216.783
535.3553, 1189.117
535.8375, 1163.566
536.3196, 1151.570
536.8017, 1153.927
537.2838, 1148.084
537.7659, 1131.696
538.2480, 1114.665
538.7302, 1108.139
539.2123, 1110.887
539.6944, 1115.509
540.1765, 1121.959
540.6586, 1126.721
541.1407, 1122.670
541.6229, 1112.169
542.1050, 1103.667
542.5871, 1101.850
543.0692, 1103.949
543.5513, 1109.716
544.0334, 1118.977
544.5156, 1124.217
544.9977, 1118.485
545.4798, 1109.254
545.9619, 1102.306
546.4440, 1097.978
546.9261, 1097.080
547.4083, 1101.913
547.8904, 1109.870
548.3725, 1116.272
548.8546, 1121.152
549.3367, 1124.425
549.8188, 1125.485
550.3010, 1124.616
550.7831, 1124.949
551.2652, 1126.351
551.7473, 1129.414
552.2294, 1135.794
552.7115, 1144.956
553.1937, 1150.478
553.6758, 1151.096
554.1579, 1151.219
554.6400, 1158.109
555.1221, 1169.150
555.6042, 1176.840
556.0864, 1179.113
556.5685, 1176.378
557.0506, 1165.055
557.5327, 1147.953
558.0148, 1135.727
558.4969, 1137.618
558.9791, 1142.934
559.4612, 1145.764
559.9433, 1145.466
560.4254, 1142.722
560.9075, 1136.194
561.3896, 1128.053
561.8718, 1120.047
562.3539, 1111.081
562.8360, 1104.672
563.3181, 1104.565
563.8002, 1105.586
564.2823, 1091.077
564.7645, 1055.443
565.2466, 1030.612
565.7287, 1036.261
566.2108, 1063.686
566.6929, 1066.657
567.1750, 1044.192
567.6572, 1018.953
568.1393, 1010.220
568.6214, 1012.562
569.1035, 1016.492
569.5856, 1021.359
570.0677, 1024.341
570.5499, 1021.587
571.0320, 1015.745
571.5141, 1010.995
571.9962, 1009.062
572.4783, 1008.314
572.9604, 1009.677
573.4426, 1012.265
573.9247, 1011.639
574.4068, 1001.022
574.8889, 992.6901
575.3710, 992.4749
575.8531, 1002.788
576.3353, 1008.171
576.8174, 1006.466
577.2995, 1002.953
577.7816, 1003.238
578.2637, 1007.890
578.7458, 1009.951
579.2280, 1007.835
579.7101, 1003.767
580.1922, 1000.234
580.6743, 997.7079
581.1564, 998.8568
581.6385, 1009.857
582.1207, 1022.596
582.6028, 1023.155
583.0849, 1013.421
583.5670, 1008.198
584.0491, 1023.744
584.5313, 1042.487
585.0134, 1049.827
585.4955, 1039.932
585.9776, 1030.562
586.4597, 1024.454
586.9418, 1021.952
587.4240, 1023.796
587.9061, 1034.790
588.3882, 1042.369
588.8703, 1043.824
589.3524, 1041.378
589.8345, 1042.148
590.3167, 1047.432
590.7988, 1050.773
591.2809, 1046.985
591.7630, 1038.573
592.2451, 1040.205
592.7272, 1052.234
593.2094, 1065.720
593.6915, 1074.368
594.1736, 1078.953
594.6557, 1079.758
595.1378, 1075.534
595.6199, 1073.058
596.1021, 1077.633
596.5842, 1087.114
597.0663, 1098.488
597.5485, 1117.630
598.0306, 1131.072
598.5127, 1129.226
598.9948, 1116.652
599.4769, 1113.433
599.9590, 1129.741
600.4412, 1144.571
600.9233, 1150.241
601.4054, 1146.016
601.8875, 1144.905
602.3696, 1147.683
602.8517, 1151.704
603.3339, 1153.592
603.8160, 1153.809
604.2981, 1159.842
604.7802, 1173.973
605.2623, 1188.730
605.7444, 1191.682
606.2266, 1187.234
606.7087, 1187.168
607.1908, 1199.737
607.6729, 1214.293
608.1550, 1221.233
608.6371, 1222.958
609.1193, 1227.509
609.6014, 1243.070
610.0835, 1257.919
610.5656, 1264.078
611.0477, 1258.995
611.5298, 1262.372
612.0120, 1281.124
612.4941, 1302.109
612.9762, 1316.011
613.4583, 1320.006
613.9404, 1326.886
614.4225, 1337.190
614.9047, 1350.383
615.3868, 1367.867
615.8689, 1389.183
616.3510, 1405.687
616.8331, 1412.106
617.3152, 1416.013
617.7974, 1430.621
618.2795, 1453.383
618.7616, 1475.102
619.2437, 1489.476
619.7258, 1501.698
620.2079, 1513.910
620.6901, 1526.335
621.1722, 1544.663
621.6543, 1580.596
622.1364, 1616.359
622.6185, 1638.637
623.1006, 1635.869
623.5828, 1644.487
624.0649, 1668.195
624.5470, 1699.897
625.0291, 1732.766
625.5112, 1767.982
625.9933, 1797.213
626.4755, 1816.301
626.9576, 1831.739
627.4397, 1859.194
627.9218, 1896.857
628.4039, 1930.938
628.8860, 1948.943
629.3682, 1962.541
629.8503, 1985.745
630.3324, 2018.442
630.8145, 2058.872
631.2966, 2110.400
