##NAMES=Grunerite
##RRUFFID=R060062
##IDEAL CHEMISTRY=[box]Fe^2+^_2_Fe^2+^_5_Si_8_O_22_(OH)_2_
##LOCALITY=2C mine, Broken Hill, New South Wales, Australia
##OWNER=RRUFF
##SOURCE=University of Arizona Mineral Museum
##DESCRIPTION=Aggregate of greenish-brown colored parallel acicular crystals
##STATUS=The identification of this mineral has been confirmed by X-ray diffraction and chemical analysis
##URL=rruff.info/R060062
##MEASURED CHEMISTRY=[box](Fe^2+^_4.32_Mg_1.90_Mn_0.54_Ca_0.22_)_Σ=7_(Si_7.98_Al_0.02_)_Σ=8_O_22_(OH)_2_
135.0798, 60.19017
135.5619, 60.56083
136.0440, 61.07946
136.5262, 61.74120
137.0083, 62.59132
137.4904, 64.00669
137.9725, 65.41354
138.4546, 66.37309
138.9367, 66.74223
139.4189, 66.80498
139.9010, 67.08027
140.3831, 67.64684
140.8652, 68.31084
141.3473, 69.08523
141.8294, 69.90402
142.3116, 70.70687
142.7937, 71.46947
143.2758, 72.18590
143.7579, 72.85250
144.2400, 73.22897
144.7221, 73.81319
145.2043, 74.83684
145.6864, 76.10976
146.1685, 77.27731
146.6506, 78.09215
147.1327, 78.59569
147.6148, 79.43626
148.0969, 80.80367
148.5791, 82.23976
149.0612, 83.55255
149.5433, 84.75143
150.0254, 85.96228
150.5075, 87.29051
150.9896, 88.72398
151.4718, 90.06258
151.9539, 91.12032
152.4360, 92.19272
152.9181, 93.63883
153.4002, 95.51800
153.8823, 97.42505
154.3645, 99.06389
154.8466, 100.4876
155.3287, 101.6871
155.8108, 102.6463
156.2929, 103.3835
156.7750, 103.9601
157.2572, 104.4231
157.7393, 104.6093
158.2214, 104.5468
158.7035, 104.1993
159.1856, 103.4592
159.6677, 102.1776
160.1499, 100.3814
160.6320, 98.45379
161.1141, 96.03969
161.5962, 93.86348
162.0783, 92.31757
162.5604, 91.28119
163.0426, 90.36784
163.5247, 89.13434
164.0068, 87.41701
164.4889, 86.27742
164.9710, 85.82554
165.4531, 85.79845
165.9353, 86.25565
166.4174, 87.10631
166.8995, 88.08727
167.3816, 88.87123
167.8637, 89.37476
168.3458, 89.88745
168.8279, 90.27003
169.3101, 90.74591
169.7922, 91.44892
170.2743, 92.41476
170.7564, 93.62453
171.2385, 95.09715
171.7206, 96.97475
172.2028, 98.79296
172.6849, 100.5889
173.1670, 102.2925
173.6491, 103.7694
174.1312, 104.9619
174.6133, 106.0587
175.0955, 107.4220
175.5776, 109.1051
176.0597, 110.6886
176.5418, 111.9108
177.0239, 112.9470
177.5060, 114.2529
177.9882, 116.0732
178.4703, 118.0495
178.9524, 119.6822
179.4345, 120.9461
179.9166, 122.1912
180.3987, 123.8928
180.8809, 125.9296
181.3630, 127.2002
181.8451, 127.0249
182.3272, 126.2340
182.8093, 125.5738
183.2914, 125.1061
183.7736, 124.6292
184.2557, 124.0117
184.7378, 123.2752
185.2199, 122.2353
185.7020, 120.4356
186.1841, 118.5629
186.6663, 117.1313
187.1484, 116.2301
187.6305, 115.3707
188.1126, 113.7928
188.5947, 111.1763
189.0768, 108.7052
189.5589, 106.5510
190.0411, 104.5566
190.5232, 102.5921
191.0053, 100.6233
191.4874, 98.70893
191.9695, 96.95156
192.4516, 95.49446
192.9338, 93.98352
193.4159, 92.23784
193.8980, 90.50592
194.3801, 89.01751
194.8622, 87.84880
195.3443, 86.90401
195.8265, 85.95751
196.3086, 85.00981
196.7907, 84.05226
197.2728, 82.96832
197.7549, 81.91447
198.2370, 81.10921
198.7192, 80.65144
199.2013, 80.39679
199.6834, 79.95668
200.1655, 79.15154
200.6476, 78.42987
201.1297, 77.91798
201.6119, 77.52715
202.0940, 77.12903
202.5761, 76.67548
203.0582, 76.17337
203.5403, 75.63916
204.0224, 75.08265
204.5046, 74.48904
204.9867, 73.78742
205.4688, 73.03956
205.9509, 72.41399
206.4330, 72.01118
206.9151, 71.74134
207.3973, 71.41907
207.8794, 71.03328
208.3615, 70.63517
208.8436, 70.28094
209.3257, 69.95421
209.8078, 69.56326
210.2899, 69.12600
210.7721, 68.54595
211.2542, 67.66851
211.7363, 66.40163
212.2184, 65.18871
212.7005, 64.44247
213.1826, 64.16384
213.6648, 63.91216
214.1469, 63.62009
214.6290, 63.24775
215.1111, 62.72845
215.5932, 62.04033
216.0753, 61.33507
216.5575, 60.77217
217.0396, 60.37160
217.5217, 59.99514
218.0038, 59.71110
218.4859, 59.37620
218.9680, 58.84136
219.4502, 58.08370
219.9323, 57.30878
220.4144, 56.79659
220.8965, 56.62931
221.3786, 56.45430
221.8607, 56.27521
222.3429, 56.04126
222.8250, 55.67538
223.3071, 55.17362
223.7892, 54.65557
224.2713, 54.31948
224.7534, 54.28981
225.2356, 54.14822
225.7177, 53.74253
226.1998, 53.32392
226.6819, 53.10319
227.1640, 53.11079
227.6461, 53.17565
228.1283, 53.02606
228.6104, 52.52512
229.0925, 52.05602
229.5746, 51.64250
230.0567, 51.24003
230.5388, 50.74077
231.0210, 50.15197
231.5031, 49.66158
231.9852, 49.58421
232.4673, 50.35201
232.9494, 50.66169
233.4315, 50.18793
233.9137, 49.50727
234.3958, 49.01049
234.8779, 48.80173
235.3600, 48.80947
235.8421, 48.95910
236.3242, 49.39757
236.8064, 49.61285
237.2885, 49.47893
237.7706, 49.20393
238.2527, 48.93536
238.7348, 48.70919
239.2169, 48.53175
239.6991, 48.41701
240.1812, 48.38234
240.6633, 48.36057
241.1454, 48.33784
241.6275, 48.33375
242.1096, 48.40405
242.5918, 48.55611
243.0739, 48.66252
243.5560, 48.51731
244.0381, 48.08193
244.5202, 47.88140
245.0023, 48.26298
245.4845, 48.74769
245.9666, 48.72061
246.4487, 48.07040
246.9308, 47.42103
247.4129, 47.50718
247.8950, 48.23625
248.3772, 48.68763
248.8593, 48.60647
249.3414, 48.23257
249.8235, 47.74972
250.3056, 47.14543
250.7877, 46.67333
251.2698, 46.64776
251.7520, 46.94777
252.2341, 47.21084
252.7162, 47.38927
253.1983, 47.48059
253.6804, 47.45669
254.1625, 47.30183
254.6447, 47.12053
255.1268, 46.99439
255.6089, 46.88985
256.0910, 46.74267
256.5731, 46.51057
257.0552, 46.24623
257.5374, 46.03484
258.0195, 45.89431
258.5016, 45.71629
258.9837, 45.31831
259.4658, 44.87945
259.9479, 44.62451
260.4301, 44.63772
260.9122, 44.82274
261.3943, 45.11805
261.8764, 45.57932
262.3585, 45.89240
262.8406, 45.77145
263.3228, 45.49143
263.8049, 45.27869
264.2870, 45.19186
264.7691, 45.18474
265.2512, 45.22159
265.7333, 45.32175
266.2155, 45.37144
266.6976, 45.27803
267.1797, 45.14942
267.6618, 45.02076
268.1439, 44.89403
268.6260, 44.88005
269.1082, 45.20091
269.5903, 45.96054
270.0724, 46.51667
270.5545, 46.59964
271.0366, 46.51514
271.5187, 46.36081
272.0009, 46.17180
272.4830, 46.06578
272.9651, 46.21937
273.4472, 46.69190
273.9293, 47.08549
274.4114, 47.31220
274.8936, 47.48070
275.3757, 47.63155
275.8578, 47.76999
276.3399, 47.88931
276.8220, 47.97726
277.3041, 48.02874
277.7863, 48.08408
278.2684, 48.16436
278.7505, 48.23099
279.2326, 48.23521
279.7147, 48.20369
280.1968, 48.22112
280.6789, 48.39047
281.1610, 48.72084
281.6432, 48.91690
282.1253, 48.77833
282.6074, 48.69306
283.0895, 48.77303
283.5716, 48.99847
284.0537, 49.32814
284.5359, 49.77269
285.0180, 50.30257
285.5001, 50.57061
285.9822, 50.34007
286.4643, 50.08976
286.9464, 49.89115
287.4286, 49.75285
287.9107, 49.67471
288.3928, 49.65635
288.8749, 49.69633
289.3570, 49.79563
289.8391, 50.06736
290.3213, 50.24627
290.8034, 50.28199
291.2855, 50.21321
291.7676, 50.04357
292.2497, 49.77232
292.7318, 49.48967
293.2140, 49.45186
293.6961, 49.96812
294.1782, 50.23972
294.6603, 50.03655
295.1424, 49.67432
295.6245, 49.43023
296.1067, 49.39113
296.5888, 49.45460
297.0709, 49.46617
297.5530, 49.51803
298.0351, 49.31304
298.5172, 48.43447
298.9994, 47.63223
299.4815, 47.54377
299.9636, 48.20486
300.4457, 49.04937
300.9278, 49.35493
301.4099, 48.90314
301.8921, 48.61063
302.3742, 48.55340
302.8563, 48.55729
303.3384, 48.52430
303.8205, 48.46185
304.3026, 48.45408
304.7848, 48.60401
305.2669, 48.94911
305.7490, 49.06120
306.2311, 48.66599
306.7132, 48.32803
307.1953, 48.25747
307.6775, 48.39771
308.1596, 48.59830
308.6417, 48.75853
309.1238, 48.88188
309.6059, 49.00524
310.0880, 49.19364
310.5702, 49.30852
311.0523, 49.36538
311.5344, 49.32262
312.0165, 49.07866
312.4986, 48.57093
312.9807, 47.92564
313.4629, 47.53434
313.9450, 47.56747
314.4271, 47.66953
314.9092, 47.89729
315.3913, 48.14192
315.8734, 48.30406
316.3556, 48.34885
316.8377, 48.30110
317.3198, 48.18661
317.8019, 47.85008
318.2840, 47.74505
318.7661, 48.07043
319.2483, 48.45482
319.7304, 48.67266
320.2125, 48.67303
320.6946, 48.49572
321.1767, 48.16056
321.6588, 47.58829
322.1409, 47.16902
322.6230, 46.84014
323.1052, 46.68797
323.5873, 46.88237
324.0694, 47.31808
324.5515, 47.69682
325.0336, 47.76731
325.5157, 47.52956
325.9979, 47.31981
326.4800, 47.10619
326.9621, 46.95644
327.4442, 46.89223
327.9263, 46.90526
328.4084, 46.96771
328.8906, 47.05830
329.3727, 47.20639
329.8548, 47.53745
330.3369, 48.22007
330.8190, 48.88394
331.3011, 49.62643
331.7833, 50.27253
332.2654, 50.56631
332.7475, 50.42961
333.2296, 50.13576
333.7117, 50.20870
334.1938, 50.85558
334.6760, 51.49382
335.1581, 52.17047
335.6402, 52.78947
336.1223, 53.26509
336.6044, 53.60010
337.0865, 53.87549
337.5687, 54.16063
338.0508, 54.41271
338.5329, 54.88078
339.0150, 55.86115
339.4971, 56.76772
339.9792, 57.33529
340.4614, 57.62221
340.9435, 57.83900
341.4256, 58.14013
341.9077, 58.51674
342.3898, 58.85163
342.8719, 58.97518
343.3541, 59.26677
343.8362, 59.97893
344.3183, 60.85480
344.8004, 61.52950
345.2825, 61.81597
345.7646, 61.86797
346.2468, 62.11484
346.7289, 62.81911
347.2110, 63.20997
347.6931, 62.94906
348.1752, 62.53711
348.6573, 62.41577
349.1395, 62.67941
349.6216, 63.04473
350.1037, 63.14318
350.5858, 62.93105
351.0679, 62.61883
351.5500, 62.08955
352.0322, 61.56895
352.5143, 61.10749
352.9964, 60.73946
353.4785, 60.53187
353.9606, 60.63384
354.4427, 61.01570
354.9249, 61.04041
355.4070, 60.44772
355.8891, 59.80882
356.3712, 59.22659
356.8533, 58.75121
357.3354, 58.47396
357.8176, 58.48286
358.2997, 58.64120
358.7818, 58.59871
359.2639, 58.26215
359.7460, 57.95342
360.2281, 57.77312
360.7103, 57.65236
361.1924, 57.55710
361.6745, 57.48017
362.1566, 57.36320
362.6387, 57.13464
363.1208, 56.78817
363.6029, 56.39172
364.0851, 55.95340
364.5672, 55.46033
365.0493, 54.81477
365.5314, 54.06852
366.0135, 53.48141
366.4956, 53.45871
366.9778, 53.80717
367.4599, 53.56233
367.9420, 52.40825
368.4241, 51.19994
368.9062, 50.39909
369.3883, 49.88656
369.8705, 49.49215
370.3526, 49.25940
370.8347, 49.00699
371.3168, 48.41434
371.7989, 47.43724
372.2810, 46.46824
372.7632, 45.55582
373.2453, 44.81300
373.7274, 44.43072
374.2095, 44.50019
374.6916, 44.60331
375.1737, 44.39382
375.6559, 43.93710
376.1380, 43.56421
376.6201, 43.38474
377.1022, 43.25028
377.5843, 42.92896
378.0664, 42.45295
378.5486, 42.16647
379.0307, 42.34544
379.5128, 42.73107
379.9949, 42.92370
380.4770, 42.87615
380.9591, 42.80126
381.4413, 42.84285
381.9234, 42.98401
382.4055, 43.14519
382.8876, 43.40229
383.3697, 43.60203
383.8518, 43.53978
384.3340, 43.30221
384.8161, 43.27666
385.2982, 43.70541
385.7803, 44.32898
386.2624, 44.51523
386.7445, 44.11550
387.2267, 43.83529
387.7088, 43.87691
388.1909, 44.13794
388.6730, 44.53114
389.1551, 45.03917
389.6372, 45.54548
390.1194, 45.93130
390.6015, 46.17837
391.0836, 46.35139
391.5657, 46.27038
392.0478, 46.27130
392.5299, 46.72735
393.0121, 47.48492
393.4942, 47.95882
393.9763, 47.72117
394.4584, 46.96939
394.9405, 46.76465
395.4226, 47.75504
395.9048, 48.44810
396.3869, 48.45251
396.8690, 48.10662
397.3511, 47.78460
397.8332, 47.61439
398.3153, 47.55154
398.7975, 47.54293
399.2796, 47.65437
399.7617, 47.64209
400.2438, 47.29934
400.7259, 47.02933
401.2080, 47.26507
401.6902, 47.82967
402.1723, 48.07727
402.6544, 47.42057
403.1365, 45.97071
403.6186, 45.12129
404.1007, 45.51147
404.5828, 45.77314
405.0649, 45.65554
405.5471, 45.28294
406.0292, 44.75784
406.5113, 44.12157
406.9934, 43.50310
407.4755, 43.14869
407.9576, 43.17326
408.4398, 43.11588
408.9219, 42.83934
409.4040, 42.54464
409.8861, 42.38158
410.3682, 42.32222
410.8503, 42.19257
411.3325, 41.78175
411.8146, 41.14808
412.2967, 40.77949
412.7788, 40.86277
413.2609, 40.89127
413.7430, 40.60540
414.2252, 40.14909
414.7073, 39.71827
415.1894, 39.38388
415.6715, 39.08302
416.1536, 38.71505
416.6357, 38.27380
417.1179, 37.88874
417.6000, 37.58311
418.0821, 37.36673
418.5642, 37.26945
419.0463, 37.28994
419.5284, 37.27963
420.0106, 37.13654
420.4927, 36.90985
420.9748, 36.70771
421.4569, 36.54352
421.9390, 36.38581
422.4211, 36.21027
422.9033, 36.02172
423.3854, 35.83736
423.8675, 35.72493
424.3496, 35.55456
424.8317, 35.18685
425.3138, 34.67422
425.7960, 34.22797
426.2781, 33.96645
426.7602, 33.75167
427.2423, 33.27513
427.7244, 32.44179
428.2065, 31.72293
428.6887, 31.29319
429.1708, 30.96414
429.6529, 30.51266
430.1350, 29.92880
430.6171, 29.39582
431.0992, 29.07484
431.5814, 28.96992
432.0635, 28.90300
432.5456, 28.95143
433.0277, 28.94430
433.5098, 28.81418
433.9919, 28.59554
434.4741, 28.32701
434.9562, 28.02410
435.4383, 27.72694
435.9204, 27.51546
436.4025, 27.41550
436.8846, 27.35747
437.3668, 27.39338
437.8489, 27.42210
438.3310, 27.36230
438.8131, 27.22972
439.2952, 27.10978
439.7773, 27.08136
440.2595, 27.13063
440.7416, 27.11392
441.2237, 26.97054
441.7058, 26.84865
442.1879, 26.83876
442.6700, 26.84575
443.1522, 26.73430
443.6343, 26.45591
444.1164, 26.16220
444.5985, 26.07697
445.0806, 26.22202
445.5627, 26.29211
446.0448, 26.18870
446.5269, 26.05860
447.0091, 26.01142
447.4912, 26.02552
447.9733, 26.01003
448.4554, 25.86584
448.9375, 25.68481
449.4196, 25.67419
449.9018, 25.86248
450.3839, 25.96897
450.8660, 25.76518
451.3481, 25.44374
451.8302, 25.37018
452.3123, 25.65546
452.7945, 25.89209
453.2766, 25.75769
453.7587, 25.44224
454.2408, 25.35149
454.7229, 25.58563
455.2050, 25.92819
455.6872, 26.18993
456.1693, 26.36249
456.6514, 26.43265
457.1335, 26.37440
457.6156, 26.23857
458.0977, 25.96266
458.5799, 25.62935
459.0620, 25.46166
459.5441, 25.57940
460.0262, 25.86011
460.5083, 26.00872
460.9904, 26.01417
461.4726, 25.88128
461.9547, 25.48315
462.4368, 25.04346
462.9189, 24.66912
463.4010, 24.40547
463.8831, 24.32428
464.3653, 24.51933
464.8474, 24.96596
465.3295, 25.26287
465.8116, 25.36503
466.2937, 25.35855
466.7758, 25.22752
467.2580, 25.01966
467.7401, 24.72869
468.2222, 24.36137
468.7043, 24.07626
469.1864, 24.12001
469.6685, 24.51803
470.1507, 24.91320
470.6328, 25.37140
471.1149, 25.69760
471.5970, 25.75228
472.0791, 25.60124
472.5612, 25.41058
473.0434, 25.19609
473.5255, 25.03215
474.0076, 25.07581
474.4897, 25.33389
474.9718, 25.53761
475.4539, 25.56816
475.9361, 25.50499
476.4182, 25.45864
476.9003, 25.42465
477.3824, 25.43432
477.8645, 25.49659
478.3466, 25.61082
478.8288, 25.80204
479.3109, 26.06923
479.7930, 26.32173
480.2751, 26.50715
480.7572, 26.61836
481.2393, 26.61863
481.7215, 26.32963
482.2036, 26.15760
482.6857, 26.32334
483.1678, 26.63096
483.6499, 26.82787
484.1320, 26.83843
484.6142, 26.72557
485.0963, 26.53371
485.5784, 26.17610
486.0605, 26.16117
486.5426, 26.91471
487.0247, 27.53795
487.5068, 27.61911
487.9890, 27.34969
488.4711, 27.06588
488.9532, 26.92646
489.4353, 26.93357
489.9174, 27.14785
490.3995, 27.67617
490.8817, 28.03824
491.3638, 27.99922
491.8459, 27.89672
492.3280, 27.89483
492.8101, 27.99558
493.2922, 28.13710
493.7744, 28.32979
494.2565, 28.52144
494.7386, 28.57210
495.2207, 28.45775
495.7028, 28.35598
496.1849, 28.36321
496.6671, 28.42034
497.1492, 28.40999
497.6313, 28.29081
498.1134, 28.26499
498.5955, 28.46382
499.0776, 28.80333
499.5598, 29.22640
500.0419, 29.72207
500.5240, 30.03578
501.0061, 29.89735
501.4882, 29.35224
501.9703, 29.04287
502.4525, 29.03923
502.9346, 29.15952
503.4167, 29.42950
503.8988, 29.76079
504.3809, 30.04701
504.8630, 30.25453
505.3452, 30.39772
505.8273, 30.48623
506.3094, 30.50037
506.7915, 30.56267
507.2736, 30.65928
507.7557, 30.81873
508.2379, 31.13584
508.7200, 31.50247
509.2021, 31.75490
509.6842, 31.82122
510.1663, 31.74804
510.6484, 31.57311
511.1306, 31.26796
511.6127, 31.06955
512.0948, 31.11795
512.5769, 31.17284
513.0590, 31.03330
513.5411, 30.75736
514.0233, 30.55734
514.5054, 30.51374
514.9875, 30.60671
515.4696, 30.90895
515.9517, 31.40052
516.4338, 31.67867
516.9160, 31.49940
517.3981, 31.12636
517.8802, 31.00866
518.3623, 31.16690
518.8444, 31.36381
519.3265, 31.59931
519.8087, 31.81490
520.2908, 31.95066
520.7729, 32.01121
521.2550, 32.03809
521.7371, 32.05091
522.2192, 32.06276
522.7014, 32.12677
523.1835, 32.36354
523.6656, 32.48957
524.1477, 32.40705
524.6298, 32.27485
525.1119, 32.20030
525.5941, 32.20189
526.0762, 32.27110
526.5583, 32.44347
527.0404, 32.67251
527.5225, 32.62087
528.0046, 32.15475
528.4868, 31.66527
528.9689, 31.14716
529.4510, 30.73289
529.9331, 30.63453
530.4152, 30.88268
530.8973, 31.08435
531.3795, 30.85191
531.8616, 30.33908
532.3437, 30.02560
532.8258, 29.98500
533.3079, 29.95334
533.7900, 29.76480
534.2722, 29.45029
534.7543, 29.12465
535.2364, 28.75556
535.7185, 28.43156
536.2006, 28.28497
536.6827, 28.16877
537.1649, 27.77105
537.6470, 27.05870
538.1291, 26.45765
538.6112, 26.40796
539.0933, 26.91843
539.5754, 27.24028
540.0576, 27.35237
540.5397, 27.31066
541.0218, 27.02097
541.5039, 26.63319
541.9860, 26.28972
542.4681, 26.03803
542.9503, 25.88110
543.4324, 25.86782
543.9145, 26.00840
544.3966, 25.98736
544.8787, 25.65206
545.3608, 25.38821
545.8430, 25.45569
546.3251, 25.64890
546.8072, 25.66105
547.2892, 25.37287
547.7714, 25.07535
548.2535, 25.03474
548.7356, 25.19262
549.2177, 25.37561
549.6998, 25.57484
550.1819, 25.69755
550.6641, 25.62992
551.1462, 25.39621
551.6283, 25.24559
552.1104, 25.31716
552.5925, 25.31652
553.0746, 25.02192
553.5568, 24.61704
554.0389, 24.38043
554.5210, 24.38110
555.0031, 24.50086
555.4852, 24.61465
555.9673, 24.72489
556.4495, 24.79964
556.9316, 24.79199
557.4137, 24.80121
557.8958, 24.83284
558.3779, 24.90077
558.8600, 25.05931
559.3422, 25.31603
559.8243, 25.52643
560.3064, 25.51344
560.7885, 25.28788
561.2706, 24.98864
561.7527, 24.53408
562.2349, 24.18593
562.7170, 24.28798
563.1991, 24.55941
563.6812, 24.51324
564.1633, 23.90935
564.6454, 23.35953
565.1276, 23.30505
565.6097, 23.55764
566.0918, 23.80596
566.5739, 23.99080
567.0560, 24.01162
567.5381, 23.71980
568.0203, 23.14089
568.5024, 22.87750
568.9845, 23.26431
569.4666, 23.49940
569.9487, 23.23906
570.4308, 22.83802
570.9130, 22.74574
571.3951, 23.00845
571.8772, 23.25736
572.3593, 23.08051
572.8414, 22.51773
573.3235, 22.21977
573.8057, 22.31660
574.2878, 22.45167
574.7699, 22.54043
575.2520, 22.59277
575.7341, 22.60924
576.2162, 22.59007
576.6984, 22.56010
577.1805, 22.56149
577.6626, 22.55844
578.1447, 22.44897
578.6268, 22.22035
579.1089, 22.01072
579.5911, 21.88789
580.0732, 21.84896
580.5553, 21.89861
581.0374, 22.10651
581.5195, 22.24244
582.0016, 22.16097
582.4838, 22.05966
582.9659, 22.16945
583.4480, 22.45248
583.9301, 22.66325
584.4122, 22.62485
584.8943, 22.40622
585.3765, 22.25543
585.8586, 22.17488
586.3407, 22.16163
586.8228, 22.33883
587.3049, 22.47664
587.7870, 22.37286
588.2692, 22.08313
588.7513, 21.85570
589.2334, 21.84115
589.7155, 21.95971
590.1976, 22.12191
590.6797, 22.32570
591.1619, 22.43238
591.6440, 22.37372
592.1261, 22.23837
592.6082, 22.10857
593.0903, 21.97991
593.5724, 21.95480
594.0546, 22.15939
594.5367, 22.36423
595.0188, 22.36304
595.5009, 22.26107
595.9830, 22.34004
596.4651, 22.70577
596.9473, 23.10909
597.4294, 23.14726
597.9115, 22.72307
598.3936, 22.40875
598.8757, 22.13180
599.3578, 22.06093
599.8400, 22.43406
600.3221, 22.97696
600.8042, 23.30359
601.2863, 23.28419
601.7684, 23.14393
602.2505, 23.08800
602.7327, 23.10398
603.2148, 23.14317
603.6969, 23.20732
604.1790, 23.26899
604.6611, 23.31433
605.1432, 23.34194
605.6254, 23.35601
606.1075, 23.37834
606.5896, 23.34752
607.0717, 23.10032
607.5538, 22.87616
608.0359, 22.97823
608.5181, 23.39799
609.0002, 23.91668
609.4823, 24.40011
609.9644, 24.80553
610.4465, 24.93066
610.9286, 24.59233
611.4108, 24.32744
611.8929, 24.14681
612.3750, 24.09262
612.8571, 24.21203
613.3392, 24.48705
613.8214, 24.86569
614.3035, 25.39136
614.7856, 25.92190
615.2677, 26.23289
615.7498, 26.33541
616.2319, 26.33882
616.7141, 26.24156
617.1962, 26.12912
617.6783, 26.10319
618.1604, 26.16634
618.6425, 26.22961
619.1246, 26.20976
619.6068, 26.27549
620.0889, 26.58069
620.5710, 26.99487
621.0531, 27.30614
621.5352, 27.46205
622.0173, 27.58757
622.4995, 27.83207
622.9816, 28.19566
623.4637, 28.50113
623.9458, 28.67241
624.4279, 28.91418
624.9100, 29.33262
625.3922, 29.81790
625.8743, 30.27975
626.3564, 30.70579
626.8385, 31.08502
627.3206, 31.38118
627.8027, 31.64156
628.2849, 31.92981
