##NAMES=Grunerite
##RRUFFID=R070186
##IDEAL CHEMISTRY=[box]Fe^2+^_2_Fe^2+^_5_Si_8_O_22_(OH)_2_
##LOCALITY=Homestake mine, 3800' level, Lead, Lawrence County, South Dakota, USA
##OWNER=RRUFF
##SOURCE=California Institute of Technology
##DESCRIPTION=Parallel aggregate of brown acicular to fibrous crystals
##STATUS=The identification of this mineral is confirmed by single-crystal X-ray diffraction and chemical analysis.
##URL=rruff.info/R070186
##MEASURED CHEMISTRY=([box]_0.96_Ca_0.04_)_Σ=1_(Fe_4.34_Mg_2.43_Mn_0.14_Al_0.05_)_Σ=7_(Si_7.95_Al_0.05_)_Σ=8_O_22_(OH)_2_ ; OH estimated by difference
129.4506, 577.3984
129.9327, 603.7208
130.4149, 636.0638
130.8970, 668.6104
131.3791, 696.9525
131.8612, 721.9879
132.3433, 748.8317
132.8254, 778.4909
133.3076, 809.2632
133.7897, 837.2741
134.2718, 862.5623
134.7539, 885.4889
135.2360, 906.8725
135.7181, 926.9741
136.2003, 942.2863
136.6824, 949.1314
137.1645, 950.1232
137.6466, 964.1476
138.1287, 996.4275
138.6108, 1030.469
139.0930, 1047.536
139.5751, 1043.219
140.0572, 1036.934
140.5393, 1032.350
141.0214, 1029.125
141.5035, 1030.966
141.9857, 1037.741
142.4678, 1049.734
142.9499, 1067.802
143.4320, 1094.508
143.9141, 1122.871
144.3962, 1150.370
144.8784, 1174.155
145.3605, 1203.791
145.8426, 1241.328
146.3247, 1284.593
146.8068, 1326.573
147.2889, 1365.184
147.7711, 1404.505
148.2532, 1445.975
148.7353, 1486.203
149.2174, 1533.577
149.6995, 1591.490
150.1816, 1658.787
150.6638, 1723.408
151.1459, 1773.742
151.6280, 1828.465
152.1101, 1898.513
152.5922, 1991.700
153.0743, 2092.657
153.5565, 2202.906
154.0386, 2322.625
154.5207, 2435.796
155.0028, 2536.670
155.4849, 2632.174
155.9670, 2730.325
156.4492, 2826.115
156.9313, 2930.059
157.4134, 3054.163
157.8955, 3204.764
158.3776, 3336.132
158.8597, 3439.563
159.3419, 3515.802
159.8240, 3564.734
160.3061, 3591.683
160.7882, 3588.281
161.2703, 3547.243
161.7524, 3460.729
162.2346, 3356.530
162.7167, 3239.706
163.1988, 3112.833
163.6809, 2983.695
164.1630, 2838.611
164.6451, 2700.876
165.1273, 2588.092
165.6094, 2508.434
166.0915, 2446.199
166.5736, 2392.216
167.0557, 2348.224
167.5379, 2318.338
168.0200, 2307.217
168.5021, 2310.877
168.9842, 2326.031
169.4663, 2357.612
169.9484, 2394.320
170.4306, 2424.796
170.9127, 2450.183
171.3948, 2482.400
171.8769, 2529.102
172.3590, 2587.678
172.8411, 2654.408
173.3233, 2730.336
173.8054, 2811.708
174.2875, 2891.463
174.7696, 2969.828
175.2517, 3057.301
175.7338, 3166.546
176.2160, 3292.027
176.6981, 3421.210
177.1802, 3547.372
177.6623, 3673.288
178.1444, 3801.693
178.6265, 3931.094
179.1087, 4066.294
179.5908, 4210.266
180.0729, 4362.056
180.5550, 4521.905
181.0371, 4697.938
181.5192, 4881.076
182.0014, 5043.394
182.4835, 5181.165
182.9656, 5308.921
183.4477, 5456.169
183.9298, 5618.273
184.4119, 5763.518
184.8941, 5875.976
185.3762, 5957.521
185.8583, 6010.989
186.3404, 6037.743
186.8225, 6035.831
187.3046, 5998.375
187.7868, 5925.890
188.2689, 5831.117
188.7510, 5724.521
189.2331, 5605.397
189.7152, 5465.244
190.1973, 5299.016
190.6795, 5116.521
191.1616, 4935.331
191.6437, 4756.103
192.1258, 4580.308
192.6079, 4407.474
193.0900, 4237.854
193.5722, 4077.214
194.0543, 3927.428
194.5364, 3786.784
195.0185, 3653.869
195.5006, 3528.271
195.9827, 3411.865
196.4649, 3310.071
196.9470, 3221.951
197.4291, 3138.126
197.9112, 3055.307
198.3933, 2974.462
198.8754, 2902.399
199.3576, 2839.865
199.8397, 2784.444
200.3218, 2735.080
200.8039, 2692.670
201.2860, 2652.942
201.7681, 2614.080
202.2503, 2576.229
202.7324, 2546.089
203.2145, 2527.307
203.6966, 2509.525
204.1787, 2475.458
204.6608, 2420.534
205.1430, 2371.175
205.6251, 2337.947
206.1072, 2322.184
206.5893, 2304.832
207.0714, 2284.957
207.5535, 2264.652
208.0357, 2248.563
208.5178, 2239.285
208.9999, 2226.422
209.4820, 2203.121
209.9641, 2165.459
210.4462, 2140.568
210.9284, 2133.403
211.4105, 2134.933
211.8926, 2126.098
212.3747, 2102.413
212.8568, 2079.030
213.3389, 2064.086
213.8211, 2062.459
214.3032, 2050.712
214.7853, 2023.412
215.2674, 1988.381
215.7495, 1966.323
216.2316, 1960.710
216.7138, 1960.797
217.1959, 1963.419
217.6780, 1972.760
218.1601, 1971.545
218.6422, 1956.301
219.1243, 1930.821
219.6065, 1906.466
220.0886, 1882.711
220.5707, 1861.234
221.0528, 1843.855
221.5349, 1831.933
222.0170, 1819.823
222.4992, 1806.693
222.9813, 1793.134
223.4634, 1781.461
223.9455, 1773.577
224.4276, 1764.738
224.9097, 1751.300
225.3919, 1728.852
225.8740, 1711.745
226.3561, 1701.813
226.8382, 1698.301
227.3203, 1696.947
227.8024, 1699.913
228.2846, 1702.235
228.7667, 1700.224
229.2488, 1691.331
229.7309, 1683.815
230.2130, 1679.618
230.6951, 1678.031
231.1773, 1671.939
231.6594, 1654.363
232.1415, 1640.621
232.6236, 1644.126
233.1057, 1679.399
233.5878, 1702.407
234.0700, 1705.262
234.5521, 1689.498
235.0342, 1673.012
235.5163, 1652.939
235.9984, 1635.461
236.4805, 1625.940
236.9627, 1628.264
237.4448, 1631.135
237.9269, 1633.805
238.4090, 1636.179
238.8911, 1634.758
239.3732, 1625.402
239.8554, 1616.629
240.3375, 1616.665
240.8196, 1632.457
241.3017, 1643.872
241.7838, 1647.815
242.2659, 1644.259
242.7481, 1637.126
243.2302, 1624.289
243.7123, 1610.032
244.1944, 1598.174
244.6765, 1589.334
245.1586, 1581.727
245.6408, 1575.407
246.1229, 1570.355
246.6050, 1564.935
247.0871, 1559.301
247.5692, 1553.140
248.0513, 1545.758
248.5335, 1535.236
249.0156, 1527.254
249.4977, 1523.353
249.9798, 1523.577
250.4619, 1524.442
250.9440, 1527.103
251.4262, 1529.168
251.9083, 1527.878
252.3904, 1520.903
252.8725, 1515.411
253.3546, 1513.873
253.8367, 1516.430
254.3189, 1514.849
254.8010, 1508.655
255.2831, 1498.908
255.7652, 1484.796
256.2473, 1460.458
256.7295, 1445.714
257.2116, 1448.448
257.6937, 1468.897
258.1758, 1479.694
258.6579, 1478.219
259.1400, 1470.264
259.6222, 1460.333
260.1043, 1445.730
260.5864, 1436.458
261.0685, 1436.660
261.5506, 1446.257
262.0327, 1450.737
262.5149, 1448.723
262.9970, 1443.445
263.4791, 1437.844
263.9612, 1431.394
264.4433, 1425.994
264.9254, 1422.004
265.4076, 1419.467
265.8897, 1417.792
266.3718, 1416.752
266.8539, 1416.922
267.3360, 1419.739
267.8181, 1426.659
268.3003, 1430.755
268.7824, 1429.235
269.2645, 1422.652
269.7466, 1419.448
270.2287, 1419.362
270.7108, 1423.144
271.1930, 1433.436
271.6751, 1452.443
272.1572, 1467.556
272.6393, 1475.534
273.1214, 1476.986
273.6035, 1475.668
274.0857, 1469.662
274.5678, 1465.768
275.0499, 1471.851
275.5320, 1489.383
276.0141, 1507.093
276.4962, 1523.854
276.9784, 1538.975
277.4605, 1546.116
277.9426, 1543.293
278.4247, 1539.741
278.9068, 1545.207
279.3889, 1560.372
279.8711, 1573.953
280.3532, 1582.609
280.8353, 1587.978
281.3174, 1597.216
281.7995, 1610.655
282.2816, 1625.827
282.7638, 1642.928
283.2459, 1661.823
283.7280, 1673.175
284.2101, 1672.648
284.6922, 1664.447
285.1743, 1660.272
285.6565, 1659.986
286.1386, 1665.299
286.6207, 1682.181
287.1028, 1708.867
287.5849, 1727.631
288.0670, 1733.542
288.5492, 1730.578
289.0313, 1727.302
289.5134, 1723.774
289.9955, 1718.631
290.4776, 1707.666
290.9597, 1693.170
291.4419, 1686.150
291.9240, 1690.675
292.4061, 1700.942
292.8882, 1708.492
293.3703, 1713.108
293.8524, 1711.838
294.3346, 1697.505
294.8167, 1675.206
295.2988, 1659.462
295.7809, 1653.228
296.2630, 1653.571
296.7451, 1660.567
297.2273, 1672.614
297.7094, 1678.887
298.1915, 1667.282
298.6736, 1645.461
299.1557, 1629.437
299.6378, 1622.277
300.1200, 1619.478
300.6021, 1615.741
301.0842, 1611.673
301.5663, 1609.639
302.0484, 1614.057
302.5305, 1620.430
303.0127, 1620.859
303.4948, 1612.390
303.9769, 1604.663
304.4590, 1608.245
304.9411, 1620.099
305.4232, 1631.891
305.9054, 1641.561
306.3875, 1647.802
306.8696, 1648.461
307.3517, 1642.740
307.8338, 1634.463
308.3159, 1624.192
308.7981, 1613.557
309.2802, 1605.707
309.7623, 1602.375
310.2444, 1602.225
310.7265, 1605.333
311.2086, 1612.216
311.6908, 1618.124
312.1729, 1618.951
312.6550, 1617.329
313.1371, 1617.014
313.6192, 1619.809
314.1013, 1624.074
314.5835, 1629.871
315.0656, 1637.351
315.5477, 1643.058
316.0298, 1645.155
316.5119, 1644.795
316.9940, 1643.240
317.4762, 1640.826
317.9583, 1637.358
318.4404, 1631.983
318.9225, 1624.738
319.4046, 1618.840
319.8867, 1618.838
320.3689, 1618.813
320.8510, 1613.850
321.3331, 1592.066
321.8152, 1576.458
322.2973, 1577.173
322.7794, 1592.281
323.2616, 1599.480
323.7437, 1588.594
324.2258, 1572.874
324.7079, 1560.562
325.1900, 1552.716
325.6721, 1548.046
326.1543, 1548.871
326.6364, 1553.805
327.1185, 1554.850
327.6006, 1544.706
328.0827, 1536.405
328.5648, 1535.877
329.0470, 1548.178
329.5291, 1561.271
330.0112, 1576.150
330.4933, 1591.773
330.9754, 1604.792
331.4576, 1612.990
331.9397, 1621.346
332.4218, 1631.323
332.9039, 1641.199
333.3860, 1657.768
333.8681, 1683.695
334.3503, 1714.450
334.8324, 1740.824
335.3145, 1760.330
335.7966, 1780.275
336.2787, 1803.369
336.7608, 1829.768
337.2430, 1857.243
337.7251, 1886.044
338.2072, 1914.673
338.6893, 1939.139
339.1714, 1957.223
339.6535, 1980.881
340.1357, 2013.622
340.6178, 2055.437
341.0999, 2103.521
341.5820, 2160.185
342.0641, 2217.581
342.5462, 2268.027
343.0284, 2311.119
343.5105, 2356.313
343.9926, 2407.385
344.4747, 2461.604
344.9568, 2507.172
345.4389, 2543.524
345.9211, 2578.688
346.4032, 2619.813
346.8853, 2666.050
347.3674, 2712.042
347.8495, 2757.459
348.3316, 2801.044
348.8138, 2840.195
349.2959, 2875.034
349.7780, 2905.046
350.2601, 2931.299
350.7422, 2952.845
351.2243, 2967.845
351.7065, 2975.795
352.1886, 2978.106
352.6707, 2975.977
353.1528, 2969.443
353.6349, 2958.837
354.1170, 2938.186
354.5992, 2916.305
355.0813, 2906.534
355.5634, 2913.372
356.0455, 2914.212
356.5276, 2884.187
357.0097, 2837.578
357.4919, 2799.790
357.9740, 2785.725
358.4561, 2779.999
358.9382, 2773.265
359.4203, 2764.901
359.9024, 2757.763
360.3846, 2752.588
360.8667, 2749.564
361.3488, 2748.889
361.8309, 2749.133
362.3130, 2753.186
362.7951, 2763.583
363.2773, 2779.788
363.7594, 2795.725
364.2415, 2806.745
364.7236, 2818.713
365.2057, 2835.486
365.6878, 2867.200
366.1700, 2892.513
366.6521, 2907.710
367.1342, 2914.308
367.6163, 2918.561
368.0984, 2934.675
368.5805, 2936.607
369.0627, 2912.176
369.5448, 2845.394
370.0269, 2784.148
370.5090, 2735.998
370.9911, 2691.250
371.4732, 2630.873
371.9554, 2549.166
372.4375, 2462.105
372.9196, 2371.055
373.4017, 2271.814
373.8838, 2194.067
374.3659, 2142.997
374.8481, 2104.448
375.3302, 2061.969
375.8123, 2013.827
376.2944, 1967.576
376.7765, 1924.853
377.2586, 1885.061
377.7408, 1845.262
378.2229, 1803.459
378.7050, 1767.635
379.1871, 1748.952
379.6692, 1746.470
380.1513, 1735.304
380.6335, 1707.196
381.1156, 1672.122
381.5977, 1652.940
382.0798, 1649.203
382.5619, 1649.828
383.0440, 1646.667
383.5262, 1642.193
384.0083, 1644.367
384.4904, 1655.759
384.9725, 1668.455
385.4546, 1670.903
385.9367, 1666.353
386.4189, 1664.932
386.9010, 1673.115
387.3831, 1686.564
387.8652, 1701.113
388.3473, 1716.565
388.8294, 1731.340
389.3116, 1739.985
389.7937, 1747.921
390.2758, 1762.695
390.7579, 1794.681
391.2400, 1827.946
391.7221, 1853.091
392.2043, 1870.681
392.6864, 1887.252
393.1685, 1902.214
393.6506, 1918.973
394.1327, 1940.384
394.6148, 1969.620
395.0970, 2000.131
395.5791, 2030.090
396.0612, 2060.258
396.5433, 2092.000
397.0254, 2129.799
397.5075, 2165.680
397.9897, 2195.771
398.4718, 2214.740
398.9539, 2239.729
399.4360, 2277.122
399.9181, 2318.170
400.4002, 2350.224
400.8824, 2367.789
401.3645, 2384.437
401.8466, 2402.348
402.3287, 2421.505
402.8108, 2444.906
403.2929, 2474.767
403.7751, 2505.143
404.2572, 2530.882
404.7393, 2551.684
405.2214, 2569.542
405.7035, 2585.638
406.1856, 2598.475
406.6678, 2600.005
407.1499, 2588.486
407.6320, 2577.773
408.1141, 2578.925
408.5962, 2590.428
409.0783, 2597.554
409.5605, 2599.032
410.0426, 2596.147
410.5247, 2589.886
411.0068, 2580.555
411.4889, 2569.576
411.9710, 2556.162
412.4532, 2542.001
412.9353, 2529.898
413.4174, 2520.003
413.8995, 2511.246
414.3816, 2505.404
414.8637, 2499.572
415.3459, 2488.785
415.8280, 2469.507
416.3101, 2446.635
416.7922, 2421.612
417.2743, 2395.599
417.7564, 2371.699
418.2386, 2353.834
418.7207, 2337.583
419.2028, 2319.612
419.6849, 2297.656
420.1670, 2277.248
420.6491, 2260.561
421.1313, 2246.479
421.6134, 2232.821
422.0955, 2226.899
422.5776, 2214.169
423.0597, 2188.563
423.5418, 2147.890
424.0240, 2105.132
424.5061, 2059.261
424.9882, 2012.691
425.4703, 1967.296
425.9524, 1922.153
426.4345, 1880.084
426.9167, 1844.670
427.3988, 1813.192
427.8809, 1770.195
428.3630, 1710.329
428.8451, 1649.483
429.3272, 1597.842
429.8094, 1555.986
430.2915, 1517.976
430.7736, 1484.334
431.2557, 1453.240
431.7378, 1421.358
432.2199, 1388.531
432.7021, 1359.457
433.1842, 1337.047
433.6663, 1320.085
434.1484, 1303.391
434.6305, 1286.992
435.1126, 1271.368
435.5948, 1258.460
436.0769, 1246.937
436.5590, 1232.754
437.0411, 1212.839
437.5232, 1192.758
438.0053, 1177.576
438.4875, 1167.405
438.9696, 1162.709
439.4517, 1172.603
439.9338, 1183.287
440.4159, 1179.059
440.8980, 1152.950
441.3802, 1130.473
441.8623, 1129.347
442.3444, 1138.629
442.8265, 1142.704
443.3086, 1132.567
443.7907, 1120.310
444.2729, 1108.351
444.7550, 1096.917
445.2371, 1090.792
445.7192, 1096.536
446.2013, 1103.945
446.6834, 1106.259
447.1656, 1098.260
447.6477, 1092.645
448.1298, 1092.011
448.6119, 1093.711
449.0940, 1089.652
449.5761, 1074.739
450.0583, 1063.776
450.5404, 1064.600
451.0225, 1079.005
451.5046, 1085.657
451.9867, 1082.273
452.4688, 1075.844
452.9510, 1074.541
453.4331, 1078.464
453.9152, 1083.695
454.3973, 1090.080
454.8794, 1096.512
455.3615, 1100.716
455.8437, 1102.676
456.3258, 1100.905
456.8079, 1089.422
457.2900, 1074.169
457.7721, 1067.959
458.2542, 1073.722
458.7364, 1083.993
459.2185, 1095.216
459.7006, 1105.432
460.1827, 1110.267
460.6648, 1101.414
461.1469, 1091.310
461.6291, 1089.234
462.1112, 1095.115
462.5933, 1102.164
463.0754, 1111.741
463.5575, 1118.778
464.0396, 1118.855
464.5218, 1102.836
465.0039, 1090.805
465.4860, 1089.276
465.9681, 1094.554
466.4502, 1097.040
466.9323, 1094.062
467.4145, 1090.273
467.8966, 1085.700
468.3787, 1078.818
468.8608, 1080.398
469.3429, 1096.140
469.8250, 1113.931
470.3072, 1120.883
470.7893, 1114.360
471.2714, 1106.976
471.7535, 1099.989
472.2356, 1094.079
472.7177, 1092.791
473.1999, 1096.635
473.6820, 1100.088
474.1641, 1097.013
474.6462, 1089.986
475.1284, 1093.086
475.6105, 1109.046
476.0926, 1125.284
476.5747, 1123.645
477.0568, 1110.417
477.5389, 1101.718
478.0211, 1105.778
478.5032, 1115.690
478.9853, 1125.981
479.4674, 1136.515
479.9495, 1146.121
480.4316, 1155.562
480.9138, 1162.960
481.3959, 1165.809
481.8780, 1160.660
482.3601, 1158.441
482.8422, 1164.428
483.3243, 1175.307
483.8065, 1185.964
484.2886, 1197.995
484.7707, 1207.141
485.2528, 1210.309
485.7349, 1207.449
486.2170, 1209.431
486.6992, 1217.437
487.1813, 1229.048
487.6634, 1244.272
488.1455, 1267.379
488.6276, 1280.653
489.1097, 1279.414
489.5919, 1271.541
490.0740, 1272.871
490.5561, 1284.084
491.0382, 1298.403
491.5203, 1312.719
492.0024, 1327.855
492.4846, 1349.503
492.9667, 1378.134
493.4488, 1403.362
493.9309, 1412.880
494.4130, 1411.732
494.8951, 1411.294
495.3773, 1413.761
495.8594, 1418.341
496.3415, 1423.396
496.8236, 1429.854
497.3057, 1440.028
497.7878, 1457.490
498.2700, 1477.255
498.7521, 1496.412
499.2342, 1514.519
499.7163, 1533.211
500.1984, 1551.473
500.6805, 1571.000
501.1627, 1593.337
501.6448, 1621.023
502.1269, 1648.485
502.6090, 1676.752
503.0911, 1704.560
503.5732, 1728.614
504.0554, 1746.518
504.5375, 1764.268
505.0196, 1783.538
505.5017, 1804.256
505.9838, 1827.575
506.4659, 1853.793
506.9481, 1881.776
507.4302, 1912.807
507.9123, 1947.026
508.3944, 1970.678
508.8765, 1978.439
509.3586, 1979.181
509.8408, 1991.278
510.3229, 2012.809
510.8050, 2030.381
511.2871, 2033.219
511.7692, 2028.696
512.2513, 2029.098
512.7335, 2035.172
513.2156, 2037.443
513.6977, 2024.425
514.1798, 2005.650
514.6619, 1992.188
515.1440, 1989.706
515.6262, 1989.817
516.1083, 1991.037
516.5904, 1992.469
517.0725, 1991.781
517.5546, 1975.790
518.0367, 1969.188
518.5189, 1985.071
519.0010, 2028.062
519.4831, 2062.425
519.9652, 2079.673
520.4473, 2096.406
520.9294, 2129.001
521.4116, 2184.437
521.8937, 2230.167
522.3758, 2259.718
522.8579, 2279.932
523.3400, 2306.351
523.8221, 2339.024
524.3043, 2375.569
524.7864, 2417.886
525.2685, 2463.214
525.7506, 2503.588
526.2327, 2539.075
526.7148, 2572.176
527.1970, 2605.380
527.6791, 2638.040
528.1612, 2669.219
528.6433, 2698.954
529.1254, 2727.236
529.6075, 2759.488
530.0897, 2790.019
530.5718, 2806.201
531.0539, 2799.248
531.5360, 2780.614
532.0181, 2753.826
532.5002, 2719.144
532.9824, 2680.044
533.4645, 2638.396
533.9466, 2591.566
534.4287, 2538.621
534.9108, 2477.513
535.3929, 2412.123
535.8751, 2338.019
536.3572, 2262.939
536.8393, 2202.462
537.3214, 2159.074
537.8035, 2116.797
538.2856, 2069.382
538.7678, 2018.845
539.2499, 1972.600
539.7320, 1930.601
540.2141, 1893.985
540.6962, 1867.799
541.1783, 1847.353
541.6605, 1819.091
542.1426, 1778.947
542.6247, 1741.959
543.1068, 1727.314
543.5889, 1724.678
544.0710, 1716.434
544.5532, 1689.397
545.0353, 1660.734
545.5174, 1639.778
545.9995, 1625.009
546.4816, 1609.024
546.9637, 1582.902
547.4459, 1560.585
547.9280, 1550.748
548.4101, 1561.369
548.8922, 1561.542
549.3743, 1544.434
549.8564, 1522.589
550.3386, 1509.364
550.8207, 1507.064
551.3028, 1506.425
551.7849, 1507.730
552.2670, 1508.451
552.7491, 1498.271
553.2313, 1476.581
553.7134, 1460.589
554.1955, 1463.159
554.6776, 1478.187
555.1597, 1491.613
555.6418, 1503.195
556.1240, 1506.406
556.6061, 1486.365
557.0882, 1457.221
557.5703, 1440.670
558.0524, 1447.471
558.5345, 1456.163
559.0167, 1454.488
559.4988, 1445.943
559.9809, 1437.099
560.4630, 1422.619
560.9451, 1415.210
561.4272, 1424.040
561.9094, 1449.564
562.3915, 1463.149
562.8736, 1459.192
563.3557, 1449.150
563.8378, 1439.073
564.3199, 1429.475
564.8021, 1417.591
565.2842, 1402.939
565.7663, 1386.942
566.2484, 1370.738
566.7305, 1354.259
567.2126, 1341.912
567.6948, 1336.549
568.1769, 1334.164
568.6590, 1327.636
569.1411, 1317.318
569.6232, 1305.605
570.1053, 1291.957
570.5875, 1278.633
571.0696, 1267.195
571.5517, 1257.699
572.0338, 1252.659
572.5159, 1259.027
572.9980, 1267.709
573.4802, 1270.382
573.9623, 1262.269
574.4444, 1251.964
574.9265, 1238.497
575.4086, 1224.055
575.8907, 1213.358
576.3729, 1207.917
576.8550, 1203.737
577.3371, 1199.984
577.8192, 1196.685
578.3013, 1194.858
578.7834, 1195.525
579.2656, 1193.654
579.7477, 1181.899
580.2298, 1162.876
580.7119, 1155.951
581.1940, 1164.072
581.6761, 1175.390
582.1583, 1176.713
582.6404, 1171.450
583.1225, 1166.933
583.6046, 1167.038
584.0867, 1166.842
584.5688, 1162.112
585.0510, 1154.120
585.5331, 1146.430
586.0152, 1138.323
586.4973, 1132.645
586.9794, 1132.011
587.4615, 1137.475
587.9437, 1139.529
588.4258, 1137.048
588.9079, 1131.811
589.3900, 1123.628
589.8721, 1108.604
590.3542, 1103.506
590.8364, 1112.184
591.3185, 1126.195
591.8006, 1131.620
592.2827, 1128.671
592.7648, 1126.999
593.2469, 1130.735
593.7291, 1136.320
594.2112, 1135.003
594.6933, 1128.360
595.1754, 1124.754
595.6575, 1132.705
596.1396, 1144.156
596.6218, 1150.756
597.1039, 1151.596
597.5860, 1153.035
598.0681, 1160.769
598.5502, 1168.821
599.0323, 1172.133
599.5145, 1163.262
599.9966, 1159.154
600.4787, 1164.841
600.9608, 1174.344
601.4429, 1177.083
601.9250, 1168.240
602.4072, 1164.509
602.8893, 1171.890
603.3714, 1186.952
603.8535, 1193.802
604.3356, 1191.887
604.8177, 1189.837
605.2999, 1193.717
605.7820, 1201.583
606.2641, 1208.144
606.7462, 1213.252
607.2283, 1217.106
607.7104, 1218.755
608.1926, 1219.723
608.6747, 1221.910
609.1568, 1225.576
609.6389, 1230.945
610.1210, 1238.910
610.6031, 1248.445
611.0853, 1257.701
611.5674, 1268.192
612.0495, 1276.129
612.5316, 1278.674
613.0137, 1277.297
613.4958, 1282.046
613.9780, 1295.013
614.4601, 1309.151
614.9422, 1320.741
615.4243, 1329.863
615.9064, 1339.139
616.3885, 1348.192
616.8707, 1360.343
617.3528, 1381.797
617.8349, 1408.650
618.3170, 1432.232
618.7991, 1450.922
619.2813, 1465.115
619.7634, 1472.179
620.2455, 1475.474
620.7276, 1480.779
621.2097, 1489.508
