##NAMES=Grunerite
##RRUFFID=R070186
##IDEAL CHEMISTRY=[box]Fe^2+^_2_Fe^2+^_5_Si_8_O_22_(OH)_2_
##LOCALITY=Homestake mine, 3800' level, Lead, Lawrence County, South Dakota, USA
##OWNER=RRUFF
##SOURCE=California Institute of Technology
##DESCRIPTION=Parallel aggregate of brown acicular to fibrous crystals
##STATUS=The identification of this mineral is confirmed by single-crystal X-ray diffraction and chemical analysis.
##URL=rruff.info/R070186
##MEASURED CHEMISTRY=([box]_0.96_Ca_0.04_)_Σ=1_(Fe_4.34_Mg_2.43_Mn_0.14_Al_0.05_)_Σ=7_(Si_7.95_Al_0.05_)_Σ=8_O_22_(OH)_2_ ; OH estimated by difference
93.82880, 63.90979
94.31091, 70.20839
94.79303, 72.83486
95.27515, 65.12828
95.75726, 50.28569
96.23938, 37.52634
96.72150, 36.43393
97.20361, 50.24889
97.68573, 61.47113
98.16785, 71.19390
98.64996, 78.18968
99.13208, 80.76246
99.61420, 79.26345
100.0963, 76.21890
100.5784, 74.71859
101.0605, 75.52523
101.5427, 76.13860
102.0248, 77.75272
102.5069, 78.52916
102.9890, 75.38750
103.4711, 67.80811
103.9532, 60.36326
104.4354, 61.47592
104.9175, 76.94780
105.3996, 86.13346
105.8817, 81.80453
106.3638, 71.42766
106.8459, 64.80130
107.3281, 65.08144
107.8102, 70.17368
108.2923, 78.21741
108.7744, 91.92332
109.2565, 99.68430
109.7386, 91.03494
110.2208, 72.69071
110.7029, 63.39287
111.1850, 72.49841
111.6671, 90.69852
112.1492, 101.4824
112.6313, 103.1466
113.1135, 103.2201
113.5956, 106.8069
114.0777, 113.4131
114.5598, 118.1051
115.0419, 116.4836
115.5240, 113.8051
116.0062, 116.6217
116.4883, 126.6623
116.9704, 139.0707
117.4525, 149.7140
117.9346, 158.6548
118.4167, 165.6571
118.8989, 168.8087
119.3810, 170.6876
119.8631, 172.9891
120.3452, 175.8847
120.8273, 180.1092
121.3094, 186.9074
121.7916, 196.7347
122.2737, 207.9797
122.7558, 222.0190
123.2379, 236.4109
123.7200, 248.1996
124.2021, 255.7232
124.6843, 261.5337
125.1664, 271.6721
125.6485, 287.7787
126.1306, 306.0988
126.6127, 326.6909
127.0948, 348.2779
127.5770, 369.9645
128.0591, 391.3315
128.5412, 412.0195
129.0233, 429.4250
129.5054, 436.7343
129.9875, 449.4260
130.4697, 472.0578
130.9518, 501.1631
131.4339, 532.2684
131.9160, 562.9693
132.3981, 593.0565
132.8802, 620.8432
133.3624, 645.2753
133.8445, 668.2997
134.3266, 691.0483
134.8087, 712.4985
135.2908, 730.6825
135.7729, 743.9492
136.2551, 752.5491
136.7372, 761.5792
137.2193, 770.1014
137.7014, 779.9100
138.1835, 792.2833
138.6656, 806.4733
139.1478, 820.8829
139.6299, 834.3350
140.1120, 846.8348
140.5941, 859.5658
141.0762, 868.1088
141.5583, 880.8317
142.0405, 903.3399
142.5226, 933.8673
143.0047, 965.1953
143.4868, 991.0904
143.9689, 1011.512
144.4510, 1041.662
144.9332, 1085.814
145.4153, 1134.637
145.8974, 1183.025
146.3795, 1230.979
146.8616, 1281.567
147.3438, 1338.745
147.8259, 1402.265
148.3080, 1458.079
148.7901, 1498.680
149.2722, 1537.206
149.7543, 1583.288
150.2365, 1637.615
150.7186, 1694.592
151.2007, 1750.158
151.6828, 1804.588
152.1649, 1861.838
152.6470, 1933.177
153.1292, 2000.679
153.6113, 2046.381
154.0934, 2068.496
154.5755, 2081.461
155.0576, 2090.632
155.5397, 2098.908
156.0219, 2118.583
156.5040, 2155.623
156.9861, 2203.075
157.4682, 2255.950
157.9503, 2315.119
158.4324, 2371.794
158.9146, 2417.747
159.3967, 2455.616
159.8788, 2490.509
160.3609, 2528.158
160.8430, 2561.781
161.3251, 2583.046
161.8073, 2592.868
162.2894, 2585.634
162.7715, 2547.497
163.2536, 2489.826
163.7357, 2430.157
164.2178, 2370.063
164.7000, 2313.129
165.1821, 2266.466
165.6642, 2230.933
166.1463, 2203.888
166.6284, 2187.350
167.1105, 2177.431
167.5927, 2167.888
168.0748, 2153.414
168.5569, 2138.559
169.0390, 2133.365
169.5211, 2139.446
170.0032, 2152.113
170.4854, 2173.667
170.9675, 2198.932
171.4496, 2218.789
171.9317, 2222.998
172.4138, 2221.646
172.8959, 2241.912
173.3781, 2292.951
173.8602, 2348.183
174.3423, 2395.265
174.8244, 2438.823
175.3065, 2484.549
175.7886, 2534.752
176.2708, 2589.437
176.7529, 2650.462
177.2350, 2722.587
177.7171, 2792.359
178.1992, 2853.665
178.6813, 2909.988
179.1634, 2965.045
179.6456, 3019.796
180.1277, 3076.043
180.6098, 3139.950
181.0919, 3213.729
181.5740, 3292.018
182.0561, 3373.801
182.5383, 3458.124
183.0204, 3545.292
183.5025, 3638.019
183.9846, 3729.759
184.4667, 3801.762
184.9488, 3849.502
185.4310, 3882.200
185.9131, 3900.249
186.3952, 3908.269
186.8773, 3913.375
187.3594, 3920.225
187.8415, 3922.079
188.3237, 3899.907
188.8058, 3844.659
189.2879, 3778.712
189.7700, 3708.145
190.2521, 3631.648
190.7342, 3546.323
191.2164, 3451.206
191.6985, 3348.466
192.1806, 3241.955
192.6627, 3123.294
193.1448, 3015.951
193.6269, 2924.846
194.1091, 2843.909
194.5912, 2767.507
195.0733, 2693.423
195.5554, 2622.459
196.0375, 2558.027
196.5196, 2505.827
197.0018, 2448.407
197.4839, 2376.103
197.9660, 2302.348
198.4481, 2237.777
198.9302, 2185.921
199.4123, 2145.739
199.8945, 2117.327
200.3766, 2110.393
200.8587, 2095.717
201.3408, 2062.467
201.8229, 2026.922
202.3050, 2003.363
202.7872, 1995.115
203.2693, 1993.159
203.7514, 1982.878
204.2335, 1960.534
204.7156, 1937.942
205.1977, 1915.430
205.6799, 1893.042
206.1620, 1869.778
206.6441, 1845.882
207.1262, 1823.730
207.6083, 1807.004
208.0904, 1798.563
208.5726, 1788.707
209.0547, 1777.319
209.5368, 1764.744
210.0189, 1751.440
210.5010, 1737.357
210.9831, 1721.642
211.4653, 1702.136
211.9474, 1676.016
212.4295, 1657.170
212.9116, 1647.656
213.3937, 1643.078
213.8758, 1645.349
214.3580, 1651.982
214.8401, 1655.723
215.3222, 1648.080
215.8043, 1626.447
216.2864, 1610.952
216.7685, 1607.971
217.2507, 1605.056
217.7328, 1598.261
218.2149, 1587.473
218.6970, 1573.424
219.1791, 1555.136
219.6612, 1532.192
220.1434, 1520.424
220.6255, 1533.983
221.1076, 1545.493
221.5897, 1549.448
222.0718, 1545.601
222.5539, 1533.945
223.0361, 1512.988
223.5182, 1484.207
224.0003, 1465.451
224.4824, 1468.926
224.9645, 1469.650
225.4466, 1458.215
225.9288, 1441.566
226.4109, 1432.024
226.8930, 1438.026
227.3751, 1453.432
227.8572, 1451.424
228.3393, 1411.558
228.8215, 1381.403
229.3036, 1372.992
229.7857, 1376.511
230.2678, 1381.446
230.7499, 1383.170
231.2320, 1382.496
231.7142, 1381.435
232.1963, 1380.505
232.6784, 1378.135
233.1605, 1371.289
233.6426, 1364.661
234.1247, 1363.472
234.6069, 1369.239
235.0890, 1377.256
235.5711, 1378.972
236.0532, 1371.010
236.5353, 1364.662
237.0174, 1359.630
237.4996, 1357.076
237.9817, 1358.750
238.4638, 1364.580
238.9459, 1371.791
239.4280, 1377.886
239.9101, 1383.959
240.3923, 1384.631
240.8744, 1375.099
241.3565, 1363.913
241.8386, 1353.518
242.3207, 1344.874
242.8028, 1339.353
243.2850, 1340.409
243.7671, 1349.222
244.2492, 1350.180
244.7313, 1334.350
245.2134, 1318.653
245.6955, 1307.208
246.1777, 1300.853
246.6598, 1300.716
247.1419, 1310.396
247.6240, 1327.974
248.1061, 1335.128
248.5882, 1323.945
249.0704, 1312.347
249.5525, 1306.102
250.0346, 1303.699
250.5167, 1302.570
250.9988, 1301.438
251.4809, 1300.554
251.9631, 1301.076
252.4452, 1304.734
252.9273, 1306.155
253.4094, 1301.396
253.8915, 1294.687
254.3736, 1290.345
254.8558, 1289.868
255.3379, 1292.523
255.8200, 1298.750
256.3021, 1310.696
256.7842, 1317.901
257.2664, 1314.902
257.7485, 1307.302
258.2306, 1297.449
258.7127, 1285.682
259.1948, 1275.245
259.6769, 1270.655
260.1591, 1272.245
260.6412, 1271.703
261.1233, 1265.174
261.6054, 1258.034
262.0875, 1253.683
262.5696, 1252.299
263.0518, 1253.015
263.5339, 1255.994
264.0160, 1260.854
264.4981, 1265.404
264.9802, 1269.581
265.4623, 1273.126
265.9445, 1277.625
266.4266, 1281.923
266.9087, 1281.687
267.3908, 1269.023
267.8729, 1251.492
268.3550, 1247.721
268.8372, 1262.754
269.3193, 1276.454
269.8014, 1268.697
270.2835, 1250.550
270.7656, 1241.121
271.2477, 1249.379
271.7299, 1265.032
272.2120, 1278.453
272.6941, 1289.709
273.1762, 1296.279
273.6583, 1292.641
274.1404, 1285.521
274.6226, 1288.485
275.1047, 1308.326
275.5868, 1327.047
276.0689, 1332.051
276.5510, 1325.611
277.0331, 1315.613
277.5153, 1301.598
277.9974, 1289.788
278.4795, 1292.073
278.9616, 1310.984
279.4437, 1328.484
279.9258, 1336.287
280.4080, 1338.861
280.8901, 1343.853
281.3722, 1353.108
281.8543, 1363.969
282.3364, 1373.873
282.8185, 1382.836
283.3007, 1389.967
283.7828, 1393.217
284.2649, 1395.809
284.7470, 1401.692
285.2291, 1410.809
285.7112, 1418.526
286.1934, 1420.511
286.6755, 1416.850
287.1576, 1415.948
287.6397, 1423.339
288.1218, 1427.907
288.6039, 1422.045
289.0861, 1408.748
289.5682, 1395.955
290.0503, 1387.804
290.5324, 1383.884
291.0145, 1382.851
291.4966, 1393.745
291.9788, 1396.271
292.4609, 1376.350
292.9430, 1350.308
293.4251, 1341.280
293.9072, 1357.066
294.3893, 1383.127
294.8715, 1393.003
295.3536, 1371.340
295.8357, 1362.470
296.3178, 1381.916
296.7999, 1402.065
297.2820, 1400.131
297.7642, 1375.861
298.2463, 1347.100
298.7284, 1332.124
299.2105, 1332.758
299.6926, 1334.781
300.1747, 1341.371
300.6569, 1346.147
301.1390, 1344.717
301.6211, 1339.758
302.1032, 1337.622
302.5853, 1343.314
303.0674, 1354.312
303.5495, 1356.856
304.0316, 1340.437
304.5138, 1331.236
304.9959, 1339.614
305.4780, 1354.965
305.9601, 1366.499
306.4422, 1370.260
306.9243, 1368.434
307.4065, 1364.105
307.8886, 1356.944
308.3707, 1348.556
308.8528, 1332.734
309.3349, 1320.440
309.8170, 1322.021
310.2992, 1337.035
310.7813, 1351.516
311.2634, 1351.063
311.7455, 1337.383
312.2276, 1329.565
312.7097, 1331.397
313.1919, 1335.901
313.6740, 1340.239
314.1561, 1343.713
314.6382, 1344.283
315.1203, 1339.394
315.6024, 1331.758
316.0846, 1325.750
316.5667, 1321.348
317.0488, 1318.809
317.5309, 1319.588
318.0130, 1321.984
318.4951, 1323.010
318.9773, 1321.356
319.4594, 1319.981
319.9415, 1322.671
320.4236, 1328.055
320.9057, 1330.463
321.3878, 1328.793
321.8700, 1321.966
322.3521, 1304.102
322.8342, 1271.692
323.3163, 1250.706
323.7984, 1256.990
324.2805, 1275.107
324.7627, 1285.151
325.2448, 1283.820
325.7269, 1278.714
326.2090, 1276.718
326.6911, 1278.209
327.1732, 1279.482
327.6554, 1281.222
328.1375, 1282.144
328.6196, 1281.083
329.1017, 1278.526
329.5838, 1274.895
330.0659, 1269.588
330.5481, 1264.817
331.0302, 1270.854
331.5123, 1302.305
331.9944, 1326.541
332.4765, 1335.730
332.9586, 1338.172
333.4408, 1342.221
333.9229, 1350.569
334.4050, 1361.525
334.8871, 1372.983
335.3692, 1385.833
335.8513, 1396.533
336.3335, 1398.578
336.8156, 1404.374
337.2977, 1423.967
337.7798, 1453.843
338.2619, 1481.708
338.7440, 1496.544
339.2262, 1500.371
339.7083, 1511.447
340.1904, 1532.354
340.6725, 1557.206
341.1546, 1588.316
341.6367, 1620.502
342.1189, 1646.512
342.6010, 1663.080
343.0831, 1675.751
343.5652, 1692.846
344.0473, 1715.049
344.5294, 1736.956
345.0116, 1756.143
345.4937, 1775.669
345.9758, 1798.422
346.4579, 1824.506
346.9400, 1850.889
347.4221, 1878.231
347.9043, 1904.377
348.3864, 1921.479
348.8685, 1925.685
349.3506, 1930.572
349.8327, 1950.514
350.3148, 1980.218
350.7970, 2003.793
351.2791, 2019.791
351.7612, 2027.701
352.2433, 2023.488
352.7254, 2009.365
353.2076, 1997.142
353.6897, 1993.254
354.1718, 1993.677
354.6539, 1988.012
355.1360, 1977.462
355.6181, 1960.484
356.1003, 1932.529
356.5824, 1899.844
357.0645, 1868.039
357.5466, 1838.702
358.0287, 1815.659
358.5108, 1804.579
358.9930, 1809.179
359.4751, 1804.633
359.9572, 1784.037
360.4393, 1762.643
360.9214, 1746.943
361.4035, 1735.824
361.8857, 1724.620
362.3678, 1709.954
362.8499, 1695.142
363.3320, 1693.622
363.8141, 1722.271
364.2962, 1736.668
364.7784, 1719.732
365.2605, 1695.471
365.7426, 1685.667
366.2247, 1694.186
366.7068, 1706.446
367.1889, 1704.745
367.6711, 1687.935
368.1532, 1676.653
368.6353, 1678.898
369.1174, 1677.874
369.5995, 1662.464
370.0816, 1637.458
370.5638, 1614.942
371.0459, 1603.555
371.5280, 1595.407
372.0101, 1577.027
372.4922, 1547.779
372.9743, 1514.234
373.4565, 1473.787
373.9386, 1434.185
374.4207, 1407.231
374.9028, 1396.040
375.3849, 1387.617
375.8670, 1374.721
376.3492, 1360.047
376.8313, 1349.243
377.3134, 1343.637
377.7955, 1340.699
378.2776, 1339.104
378.7597, 1339.126
379.2419, 1333.771
379.7240, 1319.577
380.2061, 1303.032
380.6882, 1285.437
381.1703, 1268.527
381.6524, 1256.702
382.1346, 1252.646
382.6167, 1254.161
383.0988, 1254.577
383.5809, 1252.599
384.0630, 1251.165
384.5451, 1249.022
385.0273, 1248.283
385.5094, 1251.645
385.9915, 1258.943
386.4736, 1266.755
386.9557, 1271.093
387.4378, 1271.626
387.9200, 1274.754
388.4021, 1282.002
388.8842, 1290.330
389.3663, 1297.816
389.8484, 1305.878
390.3305, 1317.965
390.8127, 1337.317
391.2948, 1356.404
391.7769, 1360.403
392.2590, 1347.046
392.7411, 1340.229
393.2232, 1348.619
393.7054, 1364.207
394.1875, 1380.128
394.6696, 1396.240
395.1517, 1410.886
395.6338, 1421.902
396.1159, 1431.386
396.5981, 1442.983
397.0802, 1457.042
397.5623, 1472.310
398.0444, 1489.490
398.5265, 1507.034
399.0086, 1518.348
399.4908, 1512.221
399.9729, 1512.362
400.4550, 1532.769
400.9371, 1564.341
401.4192, 1593.675
401.9013, 1616.529
402.3835, 1632.291
402.8656, 1639.776
403.3477, 1636.175
403.8298, 1632.187
404.3119, 1627.437
404.7940, 1622.667
405.2762, 1614.802
405.7583, 1607.138
406.2404, 1608.540
406.7225, 1626.156
407.2046, 1653.431
407.6867, 1665.512
408.1689, 1652.459
408.6510, 1644.556
409.1331, 1651.868
409.6152, 1663.371
410.0973, 1672.065
410.5794, 1676.426
411.0616, 1675.831
411.5437, 1666.081
412.0258, 1649.780
412.5079, 1641.326
412.9900, 1643.768
413.4721, 1649.051
413.9543, 1658.412
414.4364, 1666.205
414.9185, 1658.371
415.4006, 1620.118
415.8827, 1580.428
416.3648, 1560.205
416.8470, 1555.768
417.3291, 1557.797
417.8112, 1564.652
418.2933, 1571.293
418.7754, 1570.025
419.2575, 1558.792
419.7397, 1545.751
420.2218, 1527.691
420.7039, 1510.804
421.1860, 1500.649
421.6681, 1495.611
422.1502, 1489.604
422.6324, 1478.463
423.1145, 1463.683
423.5966, 1452.169
424.0787, 1450.145
424.5608, 1441.312
425.0429, 1419.758
425.5251, 1394.241
426.0072, 1371.234
426.4893, 1351.901
426.9714, 1334.580
427.4535, 1318.215
427.9356, 1302.596
428.4178, 1287.040
428.8999, 1272.579
429.3820, 1256.179
429.8641, 1231.769
430.3462, 1205.540
430.8283, 1188.374
431.3105, 1187.208
431.7926, 1186.059
432.2747, 1167.146
432.7568, 1136.470
433.2389, 1117.559
433.7210, 1118.947
434.2032, 1124.794
434.6853, 1114.265
435.1674, 1084.902
435.6495, 1066.914
436.1316, 1074.376
436.6137, 1082.465
437.0959, 1072.972
437.5780, 1051.464
438.0601, 1033.721
438.5422, 1027.864
439.0243, 1030.446
439.5064, 1033.141
439.9886, 1037.777
440.4707, 1039.051
440.9528, 1034.033
441.4349, 1028.401
441.9170, 1027.089
442.3991, 1029.009
442.8813, 1028.617
443.3634, 1020.925
443.8455, 1007.995
444.3276, 997.5996
444.8097, 989.8640
445.2918, 984.3084
445.7740, 981.1827
446.2561, 979.9922
446.7382, 981.1370
447.2203, 985.0897
447.7024, 987.9781
448.1845, 984.1959
448.6667, 978.3038
449.1488, 982.4168
449.6309, 999.0155
450.1130, 1013.420
450.5951, 1013.673
451.0772, 1000.830
451.5594, 989.0844
452.0415, 974.8826
452.5236, 965.7579
453.0057, 967.3068
453.4878, 974.3319
453.9699, 980.3007
454.4521, 983.1384
454.9342, 983.5347
455.4163, 981.9337
455.8984, 977.6243
456.3805, 975.3634
456.8626, 974.9539
457.3448, 977.0032
457.8269, 985.3859
458.3090, 995.5093
458.7911, 998.8666
459.2732, 990.6584
459.7553, 980.4116
460.2375, 984.5900
460.7196, 1003.500
461.2017, 1014.232
461.6838, 1008.717
462.1659, 998.7701
462.6480, 993.3319
463.1302, 992.1804
463.6123, 995.0921
464.0944, 1009.643
464.5765, 1022.257
465.0586, 1014.996
465.5407, 993.7045
466.0229, 984.1732
466.5050, 999.7083
466.9871, 1025.141
467.4692, 1029.635
467.9513, 993.6324
468.4334, 978.3235
468.9156, 1004.196
469.3977, 1032.570
469.8798, 1036.850
470.3619, 1022.019
470.8440, 1008.421
471.3261, 1009.113
471.8083, 1019.019
472.2904, 1023.327
472.7725, 1020.345
473.2546, 1016.285
473.7367, 1009.169
474.2188, 1003.810
474.7010, 1005.333
475.1831, 1013.006
475.6652, 1018.792
476.1473, 1014.805
476.6294, 1007.300
477.1115, 1007.785
477.5937, 1016.582
478.0758, 1026.482
478.5579, 1035.201
479.0400, 1041.672
479.5221, 1042.325
480.0042, 1033.703
480.4864, 1028.761
480.9685, 1029.899
481.4506, 1035.801
481.9327, 1049.352
482.4148, 1067.926
482.8969, 1080.348
483.3791, 1077.245
483.8612, 1062.220
484.3433, 1055.154
484.8254, 1058.135
485.3075, 1066.289
485.7896, 1085.119
486.2718, 1103.802
486.7539, 1111.695
487.2360, 1108.831
487.7181, 1105.982
488.2002, 1111.445
488.6823, 1123.396
489.1645, 1137.274
489.6466, 1153.642
490.1287, 1168.215
490.6108, 1177.852
491.0929, 1184.713
491.5750, 1193.473
492.0572, 1204.821
492.5393, 1216.070
493.0214, 1228.857
493.5035, 1239.567
493.9856, 1242.016
494.4677, 1236.823
494.9499, 1231.963
495.4320, 1233.505
495.9141, 1240.593
496.3962, 1247.730
496.8783, 1253.863
497.3604, 1261.583
497.8426, 1274.133
498.3247, 1286.285
498.8068, 1292.145
499.2889, 1292.069
499.7710, 1292.906
500.2531, 1300.408
500.7353, 1313.344
501.2174, 1326.976
501.6995, 1341.130
502.1816, 1357.133
502.6637, 1379.016
503.1458, 1401.002
503.6280, 1413.286
504.1101, 1413.165
504.5922, 1413.889
505.0743, 1421.855
505.5564, 1432.421
506.0385, 1439.019
506.5207, 1441.988
507.0028, 1447.479
507.4849, 1459.899
507.9670, 1477.784
508.4491, 1494.607
508.9312, 1509.918
509.4134, 1524.865
509.8955, 1541.412
510.3776, 1556.200
510.8597, 1566.484
511.3418, 1572.400
511.8239, 1576.262
512.3061, 1581.127
512.7882, 1584.255
513.2703, 1574.295
513.7524, 1547.561
514.2346, 1531.432
514.7167, 1543.214
515.1988, 1563.624
515.6809, 1565.461
516.1630, 1546.981
516.6451, 1533.417
517.1273, 1534.660
517.6094, 1542.434
518.0915, 1549.213
518.5736, 1555.351
519.0557, 1566.036
519.5378, 1584.808
520.0200, 1605.968
520.5021, 1615.155
520.9842, 1602.188
521.4663, 1596.699
521.9484, 1599.220
522.4305, 1607.700
522.9127, 1624.573
523.3948, 1646.512
523.8769, 1664.568
524.3590, 1671.303
524.8411, 1678.135
525.3232, 1709.290
525.8054, 1764.537
526.2875, 1806.323
526.7696, 1821.923
527.2517, 1827.687
527.7338, 1841.095
528.2159, 1860.924
528.6981, 1875.099
529.1802, 1877.906
529.6623, 1878.606
530.1444, 1886.098
530.6265, 1894.816
531.1086, 1892.128
531.5908, 1873.972
532.0729, 1850.254
532.5550, 1836.381
533.0371, 1836.483
533.5192, 1820.005
534.0013, 1767.779
534.4835, 1720.505
534.9656, 1696.049
535.4477, 1681.700
535.9298, 1659.147
536.4119, 1622.516
536.8940, 1582.542
537.3762, 1550.188
537.8583, 1522.625
538.3404, 1488.714
538.8225, 1445.968
539.3046, 1407.921
539.7867, 1387.092
540.2689, 1379.003
540.7510, 1361.487
541.2331, 1320.610
541.7152, 1290.174
542.1973, 1288.568
542.6794, 1292.970
543.1616, 1278.547
543.6437, 1245.505
544.1258, 1213.483
544.6079, 1198.604
545.0900, 1196.843
545.5721, 1190.341
546.0543, 1176.985
546.5364, 1164.694
547.0185, 1155.429
547.5006, 1148.115
547.9827, 1143.042
548.4648, 1139.809
548.9469, 1134.718
549.4290, 1125.493
549.9111, 1114.119
550.3932, 1101.937
550.8754, 1089.356
551.3575, 1077.894
551.8396, 1067.967
552.3217, 1059.908
552.8038, 1054.624
553.2859, 1053.965
553.7681, 1049.659
554.2502, 1035.353
554.7323, 1024.684
555.2144, 1026.000
555.6965, 1033.667
556.1786, 1038.763
556.6608, 1038.018
557.1429, 1034.518
557.6250, 1031.065
558.1071, 1027.839
558.5892, 1026.417
559.0714, 1027.138
559.5535, 1029.269
560.0356, 1034.823
560.5177, 1040.972
560.9998, 1039.052
561.4819, 1023.050
561.9641, 1009.411
562.4462, 1006.550
562.9283, 1006.594
563.4104, 997.9225
563.8925, 982.0267
564.3746, 973.6595
564.8568, 985.4687
565.3389, 1009.724
565.8210, 1014.816
566.3031, 992.5583
566.7852, 971.8326
567.2673, 956.9365
567.7495, 945.5880
568.2316, 937.2007
568.7137, 931.3725
569.1958, 926.7665
569.6779, 923.1270
570.1600, 920.1616
570.6422, 917.8372
571.1243, 915.9457
571.6064, 914.1945
572.0885, 912.6376
572.5706, 909.6014
573.0527, 902.5265
573.5349, 890.5800
574.0170, 882.3138
574.4991, 881.3250
574.9812, 879.4220
575.4633, 872.7665
575.9454, 865.0837
576.4276, 860.7310
576.9097, 860.5757
577.3918, 862.0014
577.8739, 863.7479
578.3560, 865.1641
578.8381, 863.6892
579.3203, 859.0346
579.8024, 853.4520
580.2845, 846.5844
580.7666, 840.6094
581.2487, 840.9020
581.7308, 849.3521
582.2130, 854.9258
582.6951, 856.7769
583.1772, 854.6811
583.6593, 843.7422
584.1414, 829.3318
584.6235, 823.9219
585.1057, 833.3691
585.5878, 847.4293
