##NAMES=Grunerite
##RRUFFID=R040150
##IDEAL CHEMISTRY=[box]Fe^2+^_2_Fe^2+^_5_Si_8_O_22_(OH)_2_
##LOCALITY=Smallwood mine, Heath Lake, Newfoundland, Canada
##OWNER=RRUFF
##SOURCE=University of Arizona Mineral Museum
##DESCRIPTION=Brown bladed crystals in parallel aggregate
##STATUS=The identification of this mineral has been confirmed by X-ray diffraction and chemical analysis
##URL=rruff.info/R040150
##MEASURED CHEMISTRY=(Fe_0.69_Mg_0.27_Ca_0.02_Mn_0.02_)_7_Si_8.02_O_22_((OH)_0.98_Cl_0.02_)_2_
151.8749, 8917.266
152.3570, 8925.375
152.8391, 8914.923
153.3212, 8952.821
153.8033, 9045.022
154.2855, 9139.443
154.7676, 9192.753
155.2497, 9212.903
155.7318, 9233.846
156.2139, 9258.540
156.6960, 9287.620
157.1782, 9324.185
157.6603, 9369.602
158.1424, 9413.831
158.6245, 9447.191
159.1066, 9473.056
159.5887, 9498.872
160.0709, 9519.329
160.5530, 9543.342
161.0351, 9583.240
161.5172, 9639.648
161.9993, 9710.100
162.4814, 9801.422
162.9636, 9905.011
163.4457, 10008.11
163.9278, 10106.33
164.4099, 10200.81
164.8920, 10292.25
165.3741, 10379.76
165.8563, 10466.05
166.3384, 10549.74
166.8205, 10633.54
167.3026, 10723.35
167.7847, 10829.84
168.2668, 10941.58
168.7490, 11030.55
169.2311, 11086.06
169.7132, 11143.78
170.1953, 11236.28
170.6774, 11341.73
171.1595, 11423.64
171.6417, 11454.35
172.1238, 11455.39
172.6059, 11481.89
173.0880, 11544.43
173.5701, 11612.33
174.0522, 11672.28
174.5344, 11728.50
175.0165, 11786.26
175.4986, 11849.11
175.9807, 11914.92
176.4628, 11976.94
176.9449, 12027.88
177.4271, 12089.51
177.9092, 12183.01
178.3913, 12287.45
178.8734, 12372.03
179.3555, 12416.92
179.8376, 12437.81
180.3197, 12482.19
180.8019, 12560.10
181.2840, 12645.46
181.7661, 12736.00
182.2482, 12826.12
182.7303, 12910.73
183.2124, 12990.32
183.6946, 13058.26
184.1767, 13092.51
184.6588, 13074.23
185.1409, 13052.94
185.6230, 13047.43
186.1051, 13045.16
186.5873, 13030.19
187.0694, 12993.62
187.5515, 12944.37
188.0336, 12907.40
188.5157, 12899.20
188.9978, 12874.15
189.4800, 12805.81
189.9621, 12725.58
190.4442, 12666.57
190.9263, 12644.69
191.4084, 12646.43
191.8905, 12639.12
192.3727, 12615.80
192.8548, 12595.49
193.3369, 12582.02
193.8190, 12572.19
194.3011, 12563.65
194.7832, 12555.53
195.2654, 12546.82
195.7475, 12534.13
196.2296, 12509.55
196.7117, 12496.47
197.1938, 12496.89
197.6759, 12508.23
198.1581, 12533.31
198.6402, 12572.42
199.1223, 12613.42
199.6044, 12632.21
200.0865, 12615.37
200.5686, 12602.19
201.0508, 12598.22
201.5329, 12597.30
202.0150, 12596.01
202.4971, 12593.02
202.9792, 12587.35
203.4613, 12577.69
203.9435, 12564.79
204.4256, 12545.58
204.9077, 12499.46
205.3898, 12461.69
205.8719, 12464.63
206.3540, 12510.87
206.8362, 12569.04
207.3183, 12595.40
207.8004, 12575.81
208.2825, 12558.75
208.7646, 12542.63
209.2467, 12530.17
209.7289, 12526.48
210.2110, 12530.25
210.6931, 12532.57
211.1752, 12519.15
211.6573, 12478.72
212.1395, 12465.21
212.6216, 12503.13
213.1037, 12545.04
213.5858, 12573.06
214.0679, 12583.98
214.5500, 12579.29
215.0322, 12554.66
215.5143, 12502.52
215.9964, 12482.34
216.4785, 12524.08
216.9606, 12569.40
217.4427, 12596.69
217.9249, 12608.25
218.4070, 12618.57
218.8891, 12641.63
219.3712, 12678.27
219.8533, 12697.24
220.3354, 12670.70
220.8176, 12652.94
221.2997, 12665.49
221.7818, 12698.27
222.2639, 12729.50
222.7460, 12743.65
223.2281, 12742.44
223.7103, 12743.05
224.1924, 12744.94
224.6745, 12749.64
225.1566, 12761.88
225.6387, 12776.29
226.1208, 12785.87
226.6030, 12786.85
227.0851, 12779.25
227.5672, 12762.36
228.0493, 12723.96
228.5314, 12692.59
229.0135, 12671.61
229.4957, 12660.27
229.9778, 12659.41
230.4599, 12669.71
230.9420, 12686.35
231.4241, 12697.18
231.9062, 12697.38
232.3884, 12699.85
232.8705, 12715.85
233.3526, 12729.45
233.8347, 12722.52
234.3168, 12689.87
234.7989, 12648.21
235.2811, 12624.56
235.7632, 12618.10
236.2453, 12633.50
236.7274, 12704.02
237.2095, 12771.20
237.6916, 12785.24
238.1738, 12741.52
238.6559, 12686.69
239.1380, 12683.68
239.6201, 12751.69
240.1022, 12800.52
240.5843, 12820.69
241.0665, 12826.28
241.5486, 12819.02
242.0307, 12801.52
242.5128, 12780.04
242.9949, 12756.30
243.4770, 12728.52
243.9592, 12720.42
244.4413, 12759.10
244.9234, 12792.51
245.4055, 12800.97
245.8876, 12788.03
246.3697, 12765.59
246.8519, 12737.70
247.3340, 12706.34
247.8161, 12691.51
248.2982, 12702.61
248.7803, 12719.03
249.2624, 12740.16
249.7446, 12760.22
250.2267, 12769.31
250.7088, 12759.89
251.1909, 12738.61
251.6730, 12724.30
252.1551, 12718.37
252.6373, 12716.98
253.1194, 12712.37
253.6015, 12713.48
254.0836, 12737.92
254.5657, 12798.48
255.0478, 12859.72
255.5300, 12851.71
256.0121, 12747.81
256.4942, 12676.25
256.9763, 12702.85
257.4584, 12759.62
257.9406, 12803.40
258.4227, 12825.39
258.9048, 12832.05
259.3869, 12826.14
259.8690, 12806.99
260.3511, 12789.62
260.8333, 12771.87
261.3154, 12761.78
261.7975, 12768.83
262.2796, 12791.95
262.7617, 12813.72
263.2438, 12822.30
263.7260, 12818.98
264.2081, 12810.46
264.6902, 12794.54
265.1723, 12777.79
265.6544, 12762.11
266.1365, 12748.70
266.6187, 12742.52
267.1008, 12748.97
267.5829, 12763.68
268.0650, 12779.93
268.5471, 12800.37
269.0292, 12813.16
269.5114, 12800.65
269.9935, 12775.48
270.4756, 12758.92
270.9577, 12757.87
271.4398, 12766.47
271.9219, 12782.04
272.4041, 12804.94
272.8862, 12822.51
273.3683, 12826.08
273.8504, 12821.10
274.3325, 12820.03
274.8146, 12829.03
275.2968, 12831.64
275.7789, 12808.18
276.2610, 12766.44
276.7431, 12738.45
277.2252, 12736.50
277.7073, 12752.60
278.1895, 12775.68
278.6716, 12807.84
279.1537, 12835.84
279.6358, 12853.30
280.1179, 12863.81
280.6000, 12872.21
281.0822, 12879.05
281.5643, 12887.19
282.0464, 12900.44
282.5285, 12918.98
283.0106, 12939.39
283.4927, 12972.80
283.9749, 13000.63
284.4570, 13000.29
284.9391, 12972.15
285.4212, 12942.33
285.9033, 12932.75
286.3854, 12943.22
286.8676, 12946.29
287.3497, 12931.00
287.8318, 12919.57
288.3139, 12929.04
288.7960, 12951.78
289.2781, 12965.85
289.7603, 12957.90
290.2424, 12934.12
290.7245, 12920.70
291.2066, 12930.89
291.6887, 12934.38
292.1708, 12921.30
292.6530, 12900.94
293.1351, 12882.87
293.6172, 12870.64
294.0993, 12866.06
294.5814, 12873.77
295.0635, 12909.65
295.5457, 12926.95
296.0278, 12918.17
296.5099, 12897.74
296.9920, 12866.14
297.4741, 12829.04
297.9562, 12805.57
298.4384, 12819.22
298.9205, 12878.38
299.4026, 12916.46
299.8847, 12916.45
300.3668, 12913.09
300.8489, 12918.39
301.3310, 12929.67
301.8131, 12938.18
302.2953, 12937.15
302.7774, 12929.76
303.2595, 12933.61
303.7416, 12964.11
304.2237, 12982.66
304.7058, 12973.70
305.1880, 12953.43
305.6701, 12938.55
306.1522, 12935.19
306.6343, 12939.31
307.1164, 12945.95
307.5985, 12956.92
308.0807, 12963.44
308.5628, 12953.85
309.0449, 12946.45
309.5270, 12956.11
310.0091, 12982.67
310.4912, 13008.71
310.9734, 13021.99
311.4555, 13022.58
311.9376, 13008.76
312.4197, 12972.86
312.9018, 12932.87
313.3839, 12894.24
313.8661, 12859.95
314.3482, 12838.96
314.8303, 12841.32
315.3124, 12856.77
315.7945, 12868.03
316.2766, 12874.65
316.7588, 12879.73
317.2409, 12886.17
317.7230, 12891.44
318.2051, 12890.99
318.6872, 12881.90
319.1693, 12871.18
319.6515, 12864.14
320.1336, 12860.01
320.6157, 12855.13
321.0978, 12848.07
321.5799, 12840.10
322.0620, 12830.44
322.5442, 12816.20
323.0263, 12814.69
323.5084, 12852.62
323.9905, 12896.76
324.4726, 12896.17
324.9547, 12842.53
325.4369, 12780.28
325.9190, 12750.40
326.4011, 12756.69
326.8832, 12769.30
327.3653, 12800.62
327.8474, 12826.80
328.3296, 12825.63
328.8117, 12806.72
329.2938, 12801.36
329.7759, 12829.93
330.2580, 12882.59
330.7401, 12913.69
331.2223, 12909.34
331.7044, 12900.53
332.1865, 12881.49
332.6686, 12863.58
333.1507, 12861.49
333.6328, 12878.82
334.1150, 12903.58
334.5971, 12918.53
335.0792, 12922.19
335.5613, 12919.19
336.0434, 12901.11
336.5255, 12884.59
337.0077, 12879.32
337.4898, 12883.74
337.9719, 12889.31
338.4540, 12887.19
338.9361, 12879.90
339.4182, 12892.22
339.9004, 12943.96
340.3825, 12985.91
340.8646, 13001.97
341.3467, 13001.99
341.8288, 12996.62
342.3109, 12988.75
342.7931, 12982.10
343.2752, 12981.27
343.7573, 12985.98
344.2394, 12999.04
344.7215, 13029.33
345.2036, 13061.91
345.6858, 13084.38
346.1679, 13096.35
346.6500, 13106.80
347.1321, 13121.66
347.6142, 13139.32
348.0963, 13156.14
348.5785, 13172.65
349.0606, 13185.63
349.5427, 13191.86
350.0248, 13192.42
350.5069, 13189.75
350.9890, 13181.08
351.4712, 13171.82
351.9533, 13166.88
352.4354, 13165.49
352.9175, 13163.38
353.3996, 13158.12
353.8817, 13151.33
354.3639, 13147.44
354.8460, 13147.16
355.3281, 13147.47
355.8102, 13151.77
356.2923, 13154.48
356.7744, 13150.99
357.2566, 13139.79
357.7387, 13116.41
358.2208, 13072.22
358.7029, 12998.61
359.1850, 12953.87
359.6671, 12957.88
360.1493, 12966.49
360.6314, 12963.06
361.1135, 12948.58
361.5956, 12928.60
362.0777, 12905.91
362.5598, 12881.36
363.0420, 12856.93
363.5241, 12824.20
364.0062, 12806.35
364.4883, 12813.97
364.9704, 12830.75
365.4525, 12848.02
365.9347, 12861.96
366.4168, 12864.98
366.8989, 12843.91
367.3810, 12796.72
367.8631, 12755.79
368.3452, 12714.61
368.8274, 12690.50
369.3095, 12698.35
369.7916, 12728.36
370.2737, 12757.40
370.7558, 12775.68
371.2379, 12786.03
371.7201, 12793.64
372.2022, 12798.97
372.6843, 12796.45
373.1664, 12778.33
373.6485, 12754.05
374.1306, 12738.17
374.6128, 12732.72
375.0949, 12729.94
375.5770, 12722.87
376.0591, 12716.17
376.5412, 12725.18
377.0233, 12755.84
377.5055, 12779.46
377.9876, 12760.04
378.4697, 12691.68
378.9518, 12651.91
379.4339, 12659.12
379.9160, 12679.51
380.3982, 12702.78
380.8803, 12723.44
381.3624, 12727.88
381.8445, 12706.86
382.3266, 12671.37
382.8087, 12654.77
383.2909, 12680.29
383.7730, 12695.13
384.2551, 12691.83
384.7372, 12681.68
385.2193, 12669.81
385.7014, 12659.37
386.1836, 12656.90
386.6657, 12672.34
387.1478, 12707.18
387.6299, 12730.16
388.1120, 12735.80
388.5941, 12734.95
389.0763, 12723.58
389.5584, 12710.08
390.0405, 12708.66
390.5226, 12727.68
391.0047, 12754.36
391.4868, 12769.39
391.9690, 12772.07
392.4511, 12768.26
392.9332, 12750.78
393.4153, 12735.37
393.8974, 12739.19
394.3795, 12762.15
394.8617, 12784.00
395.3438, 12790.79
395.8259, 12791.51
396.3080, 12804.03
396.7901, 12830.65
397.2722, 12853.49
397.7544, 12856.82
398.2365, 12845.66
398.7186, 12847.67
399.2007, 12885.35
399.6828, 12910.81
400.1649, 12896.04
400.6471, 12859.01
401.1292, 12828.15
401.6113, 12812.65
402.0934, 12807.85
402.5755, 12807.83
403.0576, 12816.34
403.5398, 12817.81
404.0219, 12816.58
404.5040, 12805.47
404.9861, 12768.78
405.4682, 12718.79
405.9503, 12687.11
406.4325, 12696.91
406.9146, 12732.41
407.3967, 12733.58
407.8788, 12673.07
408.3609, 12634.83
408.8430, 12655.49
409.3252, 12689.25
409.8073, 12700.18
410.2894, 12683.05
410.7715, 12657.46
411.2536, 12636.93
411.7357, 12621.44
412.2179, 12611.21
412.7000, 12605.31
413.1821, 12607.07
413.6642, 12624.38
414.1463, 12650.75
414.6284, 12674.27
415.1106, 12701.18
415.5927, 12714.49
416.0748, 12692.25
416.5569, 12645.13
417.0390, 12606.05
417.5211, 12586.37
418.0033, 12578.29
418.4854, 12569.73
418.9675, 12557.32
419.4496, 12557.82
419.9317, 12597.37
420.4138, 12628.99
420.8960, 12603.15
421.3781, 12537.98
421.8602, 12499.56
422.3423, 12534.59
422.8244, 12620.50
423.3065, 12659.05
423.7887, 12620.96
424.2708, 12578.67
424.7529, 12532.68
425.2350, 12490.65
425.7171, 12458.91
426.1992, 12438.14
426.6814, 12424.91
427.1635, 12422.33
427.6456, 12428.16
428.1277, 12413.26
428.6098, 12366.18
429.0919, 12320.33
429.5741, 12291.10
430.0562, 12274.22
430.5383, 12266.25
431.0204, 12270.89
431.5025, 12274.42
431.9846, 12261.63
432.4668, 12237.63
432.9489, 12221.00
433.4310, 12216.99
433.9131, 12220.01
434.3952, 12226.87
434.8773, 12238.87
435.3595, 12237.19
435.8416, 12207.38
436.3237, 12175.66
436.8058, 12157.74
437.2879, 12151.14
437.7701, 12147.30
438.2522, 12141.99
438.7343, 12135.87
439.2164, 12130.73
439.6985, 12127.39
440.1806, 12123.61
440.6628, 12123.17
441.1449, 12119.22
441.6270, 12102.28
442.1091, 12076.37
442.5912, 12057.02
443.0733, 12058.24
443.5555, 12074.28
444.0376, 12082.81
444.5197, 12082.16
445.0018, 12078.71
445.4839, 12072.45
445.9660, 12065.77
446.4482, 12061.36
446.9303, 12059.88
447.4124, 12058.29
447.8945, 12058.20
448.3766, 12056.00
448.8587, 12041.16
449.3409, 12011.28
449.8230, 11982.36
450.3051, 11967.31
450.7872, 11964.92
451.2693, 11960.32
451.7514, 11947.20
452.2336, 11939.31
452.7157, 11947.00
453.1978, 11960.53
453.6799, 11965.82
454.1620, 11959.00
454.6441, 11946.78
455.1263, 11936.96
455.6084, 11928.98
456.0905, 11926.77
456.5726, 11942.25
457.0547, 11951.30
457.5368, 11943.76
458.0190, 11925.54
458.5011, 11904.61
458.9832, 11882.91
459.4653, 11866.40
459.9474, 11866.28
460.4295, 11882.82
460.9117, 11898.19
461.3938, 11913.37
461.8759, 11920.20
462.3580, 11899.00
462.8401, 11858.13
463.3222, 11844.93
463.8044, 11904.35
464.2865, 11971.59
464.7686, 11986.32
465.2507, 11957.35
465.7328, 11920.40
466.2149, 11888.54
466.6971, 11865.43
467.1792, 11859.69
467.6613, 11883.99
468.1434, 11899.45
468.6255, 11911.95
469.1076, 11910.87
469.5898, 11876.10
470.0719, 11820.90
470.5540, 11780.57
471.0361, 11777.86
471.5182, 11803.18
472.0003, 11833.23
472.4825, 11877.39
472.9646, 11899.96
473.4467, 11870.81
473.9288, 11833.23
474.4109, 11819.27
474.8930, 11827.57
475.3752, 11827.08
475.8573, 11783.92
476.3394, 11727.07
476.8215, 11713.68
477.3036, 11745.43
477.7857, 11769.78
478.2679, 11759.10
478.7500, 11725.62
479.2321, 11696.72
479.7142, 11668.87
480.1963, 11653.13
480.6784, 11658.55
481.1606, 11672.34
481.6427, 11688.72
482.1248, 11703.52
482.6069, 11704.36
483.0890, 11678.90
483.5711, 11635.18
484.0533, 11619.76
484.5354, 11662.18
485.0175, 11684.12
485.4996, 11655.48
485.9817, 11617.86
486.4638, 11602.28
486.9460, 11612.69
487.4281, 11637.17
487.9102, 11677.57
488.3923, 11724.39
488.8744, 11745.39
489.3565, 11736.40
489.8387, 11723.88
490.3208, 11717.28
490.8029, 11717.71
491.2850, 11727.26
491.7671, 11750.15
492.2492, 11769.86
492.7314, 11782.88
493.2135, 11788.54
493.6956, 11784.94
494.1777, 11772.52
494.6598, 11753.11
495.1419, 11725.91
495.6241, 11694.38
496.1062, 11680.46
496.5883, 11696.40
497.0704, 11713.91
497.5525, 11742.41
498.0346, 11763.06
498.5168, 11751.74
498.9989, 11711.26
499.4810, 11675.11
499.9631, 11672.93
500.4452, 11697.04
500.9273, 11722.74
501.4095, 11754.14
501.8916, 11768.74
502.3737, 11744.44
502.8558, 11704.55
503.3379, 11687.23
503.8200, 11698.31
504.3022, 11710.32
504.7843, 11717.20
505.2664, 11717.22
505.7485, 11700.53
506.2306, 11670.86
506.7127, 11654.43
507.1949, 11670.78
507.6770, 11711.36
508.1591, 11738.63
508.6412, 11744.62
509.1233, 11748.28
509.6054, 11754.80
510.0876, 11756.39
510.5697, 11741.18
511.0518, 11713.48
511.5339, 11693.93
512.0161, 11703.55
512.4982, 11728.04
512.9803, 11722.71
513.4624, 11680.69
513.9445, 11651.46
514.4266, 11659.55
514.9088, 11682.70
515.3909, 11691.19
515.8730, 11683.97
516.3551, 11676.96
516.8372, 11679.11
517.3193, 11680.53
517.8015, 11665.91
518.2836, 11640.54
518.7657, 11627.35
519.2478, 11639.37
519.7299, 11667.12
520.2120, 11687.43
520.6942, 11690.03
521.1763, 11705.27
521.6584, 11756.74
522.1405, 11797.40
522.6226, 11791.13
523.1047, 11753.10
523.5869, 11725.41
524.0690, 11732.59
524.5511, 11755.45
525.0332, 11759.40
525.5153, 11744.65
525.9974, 11745.69
526.4796, 11778.37
526.9617, 11816.85
527.4438, 11833.98
527.9259, 11832.00
528.4080, 11823.86
528.8901, 11804.88
529.3723, 11786.53
529.8544, 11779.05
530.3365, 11776.43
530.8186, 11767.97
531.3007, 11749.84
531.7828, 11722.37
532.2650, 11682.99
532.7471, 11626.63
533.2292, 11589.43
533.7113, 11588.46
534.1934, 11587.57
534.6755, 11575.21
535.1577, 11556.67
535.6398, 11541.26
536.1219, 11532.46
536.6040, 11518.40
537.0861, 11482.19
537.5682, 11431.67
538.0504, 11392.97
538.5325, 11370.07
539.0146, 11353.87
539.4967, 11342.78
539.9788, 11332.96
540.4609, 11306.13
540.9431, 11233.96
541.4252, 11184.96
541.9073, 11188.24
542.3894, 11210.86
542.8715, 11228.91
543.3536, 11235.28
543.8358, 11222.56
544.3179, 11178.97
544.8000, 11117.25
545.2821, 11097.98
545.7642, 11139.75
546.2463, 11173.03
546.7285, 11174.86
547.2106, 11165.43
547.6926, 11160.08
548.1747, 11158.81
548.6569, 11152.84
549.1390, 11128.20
549.6211, 11104.14
550.1032, 11114.81
550.5853, 11148.61
551.0674, 11148.92
551.5496, 11088.76
552.0317, 11007.10
552.5138, 10966.91
552.9959, 10980.06
553.4780, 10995.46
553.9601, 11017.64
554.4423, 11036.97
554.9244, 11049.60
555.4065, 11056.83
555.8886, 11062.15
556.3707, 11066.99
556.8528, 11066.00
557.3350, 11046.66
557.8171, 11012.59
558.2992, 10995.01
558.7813, 11000.17
559.2634, 11011.59
559.7455, 11024.41
560.2277, 11034.19
560.7098, 11028.53
561.1919, 11000.31
561.6740, 10969.03
562.1561, 10932.59
562.6382, 10901.11
563.1204, 10886.19
563.6025, 10887.89
564.0846, 10899.65
564.5667, 10918.80
565.0488, 10940.68
565.5309, 10946.38
566.0131, 10930.64
566.4952, 10912.09
566.9773, 10897.10
567.4594, 10877.21
567.9415, 10839.34
568.4236, 10789.34
568.9058, 10753.92
569.3879, 10751.97
569.8700, 10762.47
570.3521, 10766.84
570.8342, 10765.92
571.3163, 10760.96
571.7985, 10751.81
572.2806, 10744.49
572.7627, 10747.70
573.2448, 10763.62
573.7269, 10769.17
574.2090, 10750.82
574.6912, 10738.84
575.1733, 10752.27
575.6554, 10769.98
576.1375, 10766.20
576.6196, 10736.22
577.1017, 10699.09
577.5839, 10667.32
578.0660, 10642.24
578.5481, 10629.25
579.0302, 10629.12
579.5123, 10635.49
579.9944, 10647.27
580.4766, 10662.35
580.9587, 10678.59
581.4408, 10699.36
581.9229, 10708.52
582.4050, 10698.68
582.8871, 10681.13
583.3693, 10660.78
583.8514, 10639.09
584.3335, 10614.78
584.8156, 10587.32
585.2977, 10564.79
585.7798, 10563.52
586.2620, 10586.03
586.7441, 10600.52
587.2262, 10604.58
587.7083, 10602.04
588.1904, 10589.86
588.6725, 10573.91
589.1547, 10564.97
589.6368, 10568.53
590.1189, 10568.21
590.6010, 10554.05
591.0831, 10532.68
591.5652, 10508.34
592.0474, 10483.96
592.5295, 10470.49
593.0116, 10477.16
593.4937, 10494.48
593.9758, 10490.37
594.4579, 10447.68
594.9401, 10424.44
595.4222, 10445.80
595.9043, 10469.38
596.3864, 10472.15
596.8685, 10460.36
597.3506, 10452.91
597.8328, 10460.55
598.3149, 10467.32
598.7970, 10451.59
599.2791, 10424.33
599.7612, 10418.20
600.2433, 10439.52
600.7255, 10461.51
601.2076, 10462.27
601.6897, 10443.43
602.1718, 10418.05
602.6539, 10358.19
603.1360, 10331.28
603.6182, 10363.34
604.1003, 10412.99
604.5824, 10463.71
605.0645, 10505.09
605.5466, 10513.51
606.0287, 10459.84
606.5109, 10387.29
606.9930, 10366.59
607.4751, 10390.79
607.9572, 10403.74
608.4393, 10389.96
608.9214, 10368.29
609.4036, 10358.35
609.8857, 10360.14
610.3678, 10352.28
610.8499, 10320.15
611.3320, 10297.83
611.8141, 10305.05
612.2963, 10318.39
612.7784, 10309.11
613.2605, 10278.11
613.7426, 10254.44
614.2247, 10266.06
614.7068, 10295.54
615.1890, 10297.99
615.6711, 10272.24
616.1532, 10243.23
616.6353, 10212.76
617.1174, 10191.42
617.5995, 10195.54
618.0817, 10225.79
618.5638, 10248.46
619.0459, 10255.83
619.5280, 10262.87
620.0101, 10283.30
620.4922, 10302.69
620.9744, 10298.26
621.4565, 10268.80
621.9386, 10238.06
622.4207, 10229.16
622.9028, 10235.26
623.3849, 10226.49
623.8671, 10198.31
624.3492, 10182.74
624.8313, 10195.27
625.3134, 10217.86
625.7955, 10232.13
626.2776, 10238.57
626.7598, 10234.35
627.2419, 10201.21
627.7240, 10176.60
628.2061, 10187.28
628.6882, 10215.42
629.1703, 10237.15
629.6525, 10245.71
630.1346, 10243.84
630.6167, 10231.63
631.0988, 10211.66
631.5809, 10197.38
632.0630, 10187.80
632.5452, 10188.91
633.0273, 10214.25
633.5094, 10239.70
633.9915, 10231.15
634.4736, 10191.04
634.9557, 10169.44
635.4379, 10196.66
635.9200, 10223.45
636.4021, 10212.31
636.8842, 10186.28
637.3663, 10185.06
637.8484, 10216.31
638.3306, 10254.83
638.8127, 10276.61
639.2948, 10283.58
639.7769, 10285.64
640.2590, 10280.80
640.7411, 10277.71
641.2233, 10274.42
641.7054, 10278.42
642.1875, 10302.79
642.6696, 10345.25
643.1517, 10376.31
643.6339, 10388.34
644.1160, 10389.16
644.5981, 10366.61
645.0802, 10342.12
645.5623, 10353.69
646.0444, 10405.72
