##NAMES=Grunerite
##RRUFFID=R040150
##IDEAL CHEMISTRY=[box]Fe^2+^_2_Fe^2+^_5_Si_8_O_22_(OH)_2_
##LOCALITY=Smallwood mine, Heath Lake, Newfoundland, Canada
##OWNER=RRUFF
##SOURCE=University of Arizona Mineral Museum
##DESCRIPTION=Brown bladed crystals in parallel aggregate
##STATUS=The identification of this mineral has been confirmed by X-ray diffraction and chemical analysis
##URL=rruff.info/R040150
##MEASURED CHEMISTRY=(Fe_0.69_Mg_0.27_Ca_0.02_Mn_0.02_)_7_Si_8.02_O_22_((OH)_0.98_Cl_0.02_)_2_
150.6261, 5388.772
151.1082, 5511.622
151.5903, 5627.199
152.0724, 5727.438
152.5545, 5837.423
153.0366, 5967.200
153.5188, 6107.104
154.0009, 6237.583
154.4830, 6361.109
154.9651, 6472.081
155.4472, 6569.266
155.9293, 6651.025
156.4115, 6720.769
156.8936, 6782.799
157.3757, 6834.430
157.8578, 6867.703
158.3399, 6884.522
158.8221, 6879.731
159.3042, 6850.185
159.7863, 6784.597
160.2684, 6704.413
160.7505, 6605.251
161.2326, 6490.308
161.7148, 6391.454
162.1969, 6328.293
162.6790, 6284.910
163.1611, 6246.611
163.6432, 6202.414
164.1253, 6166.361
164.6075, 6146.718
165.0896, 6143.812
165.5717, 6149.906
166.0538, 6162.004
166.5359, 6180.231
167.0180, 6204.671
167.5002, 6230.818
167.9823, 6266.139
168.4644, 6321.283
168.9465, 6400.071
169.4286, 6477.518
169.9107, 6532.588
170.3929, 6572.453
170.8750, 6613.665
171.3571, 6666.679
171.8392, 6723.930
172.3213, 6775.450
172.8034, 6816.818
173.2856, 6861.176
173.7677, 6922.203
174.2498, 6997.155
174.7319, 7075.354
175.2140, 7152.504
175.6961, 7228.404
176.1783, 7301.712
176.6604, 7369.593
177.1425, 7437.921
177.6246, 7514.484
178.1067, 7597.855
178.5888, 7684.042
179.0710, 7775.201
179.5531, 7865.810
180.0352, 7940.481
180.5173, 7988.690
180.9994, 8025.504
181.4815, 8071.498
181.9637, 8127.045
182.4458, 8190.955
182.9279, 8282.942
183.4100, 8388.460
183.8921, 8452.994
184.3742, 8447.576
184.8564, 8397.200
185.3385, 8359.096
185.8206, 8333.918
186.3027, 8309.039
186.7848, 8271.869
187.2669, 8223.235
187.7491, 8168.577
188.2312, 8109.425
188.7133, 8045.988
189.1954, 7974.816
189.6775, 7894.402
190.1596, 7815.029
190.6418, 7751.811
191.1239, 7704.533
191.6060, 7653.145
192.0881, 7581.243
192.5702, 7493.375
193.0524, 7431.581
193.5345, 7399.575
194.0166, 7384.201
194.4987, 7368.609
194.9808, 7352.843
195.4629, 7336.099
195.9451, 7320.519
196.4272, 7305.731
196.9093, 7278.019
197.3914, 7230.748
197.8735, 7180.299
198.3556, 7161.317
198.8378, 7178.079
199.3199, 7199.187
199.8020, 7207.962
200.2841, 7203.530
200.7662, 7197.779
201.2483, 7189.191
201.7305, 7181.652
202.2126, 7187.352
202.6947, 7209.977
203.1768, 7232.068
203.6589, 7242.670
204.1410, 7240.329
204.6232, 7236.010
205.1053, 7230.201
205.5874, 7223.229
206.0695, 7214.398
206.5516, 7200.850
207.0337, 7192.952
207.5159, 7201.522
207.9980, 7231.803
208.4801, 7251.560
208.9622, 7251.533
209.4443, 7238.068
209.9264, 7245.963
210.4086, 7285.607
210.8907, 7325.845
211.3728, 7340.178
211.8549, 7320.633
212.3370, 7302.400
212.8191, 7288.857
213.3013, 7280.433
213.7834, 7280.979
214.2655, 7293.928
214.7476, 7310.381
215.2297, 7323.225
215.7118, 7332.882
216.1940, 7337.779
216.6761, 7336.106
217.1582, 7328.277
217.6403, 7323.610
218.1224, 7322.639
218.6045, 7324.171
219.0867, 7326.868
219.5688, 7329.782
220.0509, 7336.457
220.5330, 7349.857
221.0151, 7370.488
221.4972, 7381.419
221.9794, 7378.976
222.4615, 7371.058
222.9436, 7365.612
223.4257, 7362.521
223.9078, 7362.350
224.3899, 7366.603
224.8721, 7376.050
225.3542, 7380.656
225.8363, 7380.175
226.3184, 7375.148
226.8005, 7364.700
227.2827, 7342.875
227.7648, 7327.233
228.2469, 7323.102
228.7290, 7331.852
229.2111, 7341.551
229.6932, 7352.759
230.1754, 7364.348
230.6575, 7375.784
231.1396, 7390.438
231.6217, 7398.583
232.1038, 7395.324
232.5859, 7377.192
233.0681, 7366.534
233.5502, 7365.708
234.0323, 7370.650
234.5144, 7375.859
234.9965, 7381.861
235.4786, 7387.136
235.9608, 7390.720
236.4429, 7391.645
236.9250, 7396.007
237.4071, 7409.057
237.8892, 7422.222
238.3713, 7419.535
238.8535, 7386.362
239.3356, 7361.959
239.8177, 7361.348
240.2998, 7392.754
240.7819, 7416.684
241.2640, 7432.969
241.7462, 7442.267
242.2283, 7444.949
242.7104, 7436.566
243.1925, 7428.903
243.6746, 7426.320
244.1567, 7430.958
244.6389, 7433.383
245.1210, 7433.257
245.6031, 7431.134
246.0852, 7428.220
246.5673, 7425.776
247.0494, 7420.253
247.5316, 7407.994
248.0137, 7382.758
248.4958, 7372.706
248.9779, 7383.359
249.4600, 7406.196
249.9421, 7426.242
250.4243, 7445.632
250.9064, 7458.658
251.3885, 7461.999
251.8706, 7452.042
252.3527, 7444.110
252.8348, 7437.619
253.3170, 7433.500
253.7991, 7435.217
254.2812, 7448.735
254.7633, 7456.487
255.2454, 7447.757
255.7275, 7412.490
256.2097, 7400.602
256.6918, 7423.936
257.1739, 7462.639
257.6560, 7478.179
258.1381, 7459.193
258.6202, 7440.506
259.1024, 7436.783
259.5845, 7453.477
260.0666, 7461.644
260.5487, 7456.272
261.0308, 7446.168
261.5129, 7449.349
261.9951, 7472.659
262.4772, 7492.829
262.9593, 7499.842
263.4414, 7490.976
263.9235, 7481.675
264.4056, 7470.722
264.8878, 7460.372
265.3699, 7452.839
265.8520, 7445.693
266.3341, 7448.313
266.8162, 7470.157
267.2983, 7517.352
267.7805, 7541.054
268.2626, 7533.432
268.7447, 7510.720
269.2268, 7499.832
269.7089, 7502.187
270.1910, 7511.309
270.6732, 7526.782
271.1553, 7549.544
271.6374, 7568.461
272.1195, 7582.533
272.6016, 7594.256
273.0837, 7607.773
273.5659, 7623.966
274.0480, 7637.748
274.5301, 7646.248
275.0122, 7649.169
275.4943, 7653.824
275.9764, 7659.708
276.4586, 7668.271
276.9407, 7681.985
277.4228, 7700.887
277.9049, 7722.949
278.3870, 7748.426
278.8691, 7777.089
279.3513, 7805.403
279.8334, 7835.313
280.3155, 7859.865
280.7976, 7865.676
281.2798, 7851.782
281.7619, 7840.507
282.2440, 7839.202
282.7261, 7847.469
283.2082, 7865.691
283.6903, 7896.796
284.1725, 7927.069
284.6546, 7935.609
285.1367, 7923.282
285.6188, 7914.427
286.1009, 7915.242
286.5830, 7926.255
287.0652, 7954.861
287.5473, 8003.639
288.0294, 8053.044
288.5115, 8078.544
288.9936, 8082.887
289.4757, 8088.475
289.9579, 8108.989
290.4400, 8134.688
290.9221, 8133.064
291.4042, 8101.991
291.8863, 8070.167
292.3684, 8005.459
292.8506, 8082.659
293.3327, 8130.411
293.8148, 8150.297
294.2969, 8058.862
294.7790, 8111.175
295.2611, 8105.881
295.7433, 8098.226
296.2254, 8170.772
296.7075, 8095.528
297.1896, 8166.802
297.6717, 8179.588
298.1538, 8219.144
298.6360, 8200.736
299.1181, 8200.230
299.6002, 8216.403
300.0823, 8222.993
300.5644, 8222.729
301.0465, 8226.943
301.5287, 8243.487
302.0108, 8259.559
302.4929, 8256.354
302.9750, 8237.138
303.4571, 8220.798
303.9392, 8225.393
304.4214, 8238.861
304.9035, 8243.415
305.3856, 8227.728
305.8677, 8213.419
306.3498, 8225.437
306.8319, 8256.654
307.3141, 8282.199
307.7962, 8279.854
308.2783, 8267.941
308.7604, 8266.680
309.2425, 8287.595
309.7246, 8303.180
310.2068, 8285.677
310.6889, 8247.820
311.1710, 8222.470
311.6531, 8233.321
312.1352, 8257.927
312.6173, 8280.378
313.0995, 8297.251
313.5816, 8313.707
314.0637, 8338.855
314.5458, 8364.946
315.0279, 8377.686
315.5100, 8355.159
315.9922, 8330.222
316.4743, 8321.787
316.9564, 8335.893
317.4385, 8350.482
317.9206, 8365.370
318.4027, 8374.786
318.8849, 8370.664
319.3670, 8328.908
319.8491, 8292.533
320.3312, 8278.208
320.8133, 8289.550
321.2954, 8308.467
321.7776, 8350.231
322.2597, 8390.785
322.7418, 8404.481
323.2239, 8357.016
323.7060, 8312.921
324.1881, 8286.081
324.6703, 8277.627
325.1524, 8278.225
325.6345, 8295.408
326.1166, 8317.137
326.5987, 8333.797
327.0808, 8334.664
327.5630, 8343.104
328.0451, 8366.583
328.5272, 8404.000
329.0093, 8431.517
329.4914, 8447.166
329.9735, 8454.179
330.4557, 8452.744
330.9378, 8429.195
331.4199, 8421.515
331.9020, 8437.473
332.3841, 8472.327
332.8662, 8502.773
333.3484, 8525.139
333.8305, 8548.218
334.3126, 8578.479
334.7947, 8620.240
335.2768, 8654.074
335.7589, 8675.217
336.2411, 8689.936
336.7232, 8715.439
337.2053, 8754.363
337.6874, 8795.867
338.1695, 8833.384
338.6516, 8864.913
339.1338, 8910.451
339.6159, 8976.640
340.0980, 9046.273
340.5801, 9082.719
341.0622, 9082.014
341.5443, 9088.939
342.0265, 9128.423
342.5086, 9195.582
342.9907, 9246.641
343.4728, 9278.885
343.9549, 9303.964
344.4370, 9336.038
344.9192, 9374.025
345.4013, 9409.282
345.8834, 9438.490
346.3655, 9462.428
346.8476, 9480.527
347.3297, 9492.563
347.8119, 9503.438
348.2940, 9517.468
348.7761, 9533.924
349.2582, 9551.257
349.7403, 9574.416
350.2225, 9593.180
350.7046, 9588.872
351.1867, 9563.910
351.6688, 9537.236
352.1509, 9517.516
352.6331, 9506.025
353.1152, 9507.656
353.5973, 9532.382
354.0794, 9553.699
354.5615, 9539.577
355.0436, 9500.785
355.5258, 9470.092
356.0079, 9484.145
356.4900, 9503.840
356.9721, 9488.173
357.4542, 9417.323
357.9363, 9357.019
358.4185, 9348.757
358.9006, 9375.489
359.3827, 9407.716
359.8648, 9437.717
360.3469, 9467.261
360.8290, 9503.784
361.3112, 9552.182
361.7933, 9575.681
362.2754, 9533.996
362.7575, 9472.387
363.2396, 9439.907
363.7217, 9483.965
364.2039, 9522.311
364.6860, 9524.493
365.1681, 9489.564
365.6502, 9476.955
366.1323, 9521.828
366.6144, 9573.819
367.0966, 9598.172
367.5787, 9565.829
368.0608, 9539.919
368.5429, 9529.536
369.0250, 9530.248
369.5071, 9519.169
369.9893, 9487.600
370.4714, 9454.470
370.9535, 9428.768
371.4356, 9413.199
371.9177, 9399.832
372.3998, 9390.185
372.8820, 9381.825
373.3641, 9369.954
373.8462, 9355.078
374.3283, 9335.367
374.8104, 9307.084
375.2925, 9268.196
375.7747, 9242.481
376.2568, 9231.375
376.7389, 9230.136
377.2210, 9233.908
377.7031, 9242.939
378.1852, 9253.737
378.6674, 9266.829
379.1495, 9280.770
379.6316, 9288.217
380.1137, 9288.331
380.5958, 9288.988
381.0779, 9297.563
381.5601, 9313.179
382.0422, 9331.858
382.5243, 9356.488
383.0064, 9379.367
383.4885, 9382.985
383.9706, 9370.084
384.4528, 9360.619
384.9349, 9366.898
385.4170, 9385.779
385.8991, 9414.776
386.3812, 9457.324
386.8633, 9498.386
387.3455, 9522.874
387.8276, 9535.106
388.3097, 9545.307
388.7918, 9553.558
389.2739, 9564.929
389.7560, 9584.873
390.2382, 9614.425
390.7203, 9645.029
391.2024, 9674.530
391.6845, 9701.612
392.1666, 9725.111
392.6487, 9731.291
393.1309, 9746.155
393.6130, 9786.897
394.0951, 9850.850
394.5772, 9904.751
395.0593, 9935.983
395.5414, 9957.216
396.0236, 9976.012
396.5057, 9990.150
396.9878, 10005.85
397.4699, 10029.30
397.9520, 10055.39
398.4341, 10067.30
398.9163, 10039.79
399.3984, 10024.47
399.8805, 10046.21
400.3626, 10130.29
400.8447, 10174.51
401.3268, 10160.99
401.8090, 10120.75
402.2911, 10097.65
402.7732, 10098.93
403.2553, 10099.18
403.7374, 10092.80
404.2195, 10079.80
404.7017, 10057.58
405.1838, 10021.55
405.6659, 9988.498
406.1480, 9977.220
406.6301, 9988.033
407.1122, 9993.863
407.5944, 9988.689
408.0765, 9976.932
408.5586, 9969.280
409.0407, 9965.618
409.5228, 9961.656
410.0049, 9956.838
410.4871, 9949.655
410.9692, 9932.974
411.4513, 9903.367
411.9334, 9875.036
412.4155, 9866.206
412.8976, 9871.919
413.3798, 9878.030
413.8619, 9880.147
414.3440, 9878.240
414.8261, 9871.916
415.3082, 9861.142
415.7903, 9847.471
416.2725, 9825.657
416.7546, 9803.770
417.2367, 9790.540
417.7188, 9791.153
418.2009, 9798.715
418.6830, 9818.894
419.1652, 9845.943
419.6473, 9857.970
420.1294, 9828.088
420.6115, 9795.839
421.0937, 9784.586
421.5758, 9812.033
422.0579, 9829.339
422.5400, 9823.226
423.0221, 9804.709
423.5042, 9791.875
423.9864, 9800.112
424.4685, 9797.447
424.9506, 9771.043
425.4327, 9718.176
425.9148, 9682.682
426.3969, 9675.713
426.8791, 9673.411
427.3612, 9655.107
427.8433, 9616.974
428.3254, 9573.375
428.8075, 9520.065
429.2896, 9465.156
429.7718, 9442.636
430.2539, 9458.563
430.7360, 9474.246
431.2181, 9464.739
431.7002, 9431.858
432.1823, 9402.015
432.6645, 9376.774
433.1466, 9353.593
433.6287, 9324.138
434.1108, 9291.747
434.5929, 9273.928
435.0750, 9290.451
435.5572, 9320.854
436.0393, 9325.917
436.5214, 9306.772
437.0035, 9287.373
437.4856, 9291.912
437.9677, 9306.366
438.4499, 9309.745
438.9320, 9288.834
439.4141, 9269.078
439.8962, 9271.467
440.3783, 9289.425
440.8604, 9306.065
441.3426, 9310.363
441.8247, 9313.755
442.3068, 9324.724
442.7889, 9347.193
443.2710, 9362.670
443.7531, 9364.545
444.2353, 9357.542
444.7174, 9346.911
445.1995, 9319.351
445.6816, 9303.715
446.1637, 9310.229
446.6458, 9336.352
447.1280, 9356.546
447.6101, 9372.771
448.0922, 9380.904
448.5743, 9376.568
449.0564, 9351.373
449.5385, 9336.151
450.0207, 9333.466
450.5028, 9339.465
450.9849, 9348.738
451.4670, 9362.401
451.9491, 9373.037
452.4312, 9375.039
452.9134, 9370.463
453.3955, 9376.223
453.8776, 9393.031
454.3597, 9414.694
454.8418, 9437.385
455.3239, 9460.358
455.8061, 9481.021
456.2882, 9503.011
456.7703, 9516.208
457.2524, 9492.102
457.7345, 9441.751
458.2166, 9410.000
458.6988, 9442.826
459.1809, 9498.880
459.6630, 9534.132
460.1451, 9543.143
460.6272, 9540.723
461.1093, 9532.496
461.5915, 9519.508
462.0736, 9503.165
462.5557, 9461.986
463.0378, 9438.997
463.5199, 9464.643
464.0020, 9530.816
464.4842, 9577.307
464.9663, 9578.785
465.4484, 9566.451
465.9305, 9556.387
466.4126, 9550.564
466.8947, 9544.012
467.3769, 9528.605
467.8590, 9515.979
468.3411, 9528.976
468.8232, 9587.796
469.3053, 9631.424
469.7874, 9639.989
470.2696, 9615.676
470.7517, 9597.834
471.2338, 9586.490
471.7159, 9581.572
472.1980, 9583.183
472.6801, 9591.367
473.1623, 9607.275
473.6444, 9633.560
474.1265, 9662.905
474.6086, 9684.588
475.0907, 9698.681
475.5728, 9705.659
476.0550, 9700.023
476.5371, 9689.413
477.0192, 9687.130
477.5013, 9693.680
477.9834, 9701.391
478.4655, 9701.437
478.9477, 9700.015
479.4298, 9705.672
479.9119, 9728.004
480.3940, 9749.149
480.8761, 9761.273
481.3582, 9765.028
481.8404, 9761.998
482.3225, 9735.763
482.8046, 9716.830
483.2867, 9722.928
483.7688, 9765.929
484.2509, 9797.827
484.7331, 9805.642
485.2152, 9805.076
485.6973, 9811.452
486.1794, 9833.769
486.6615, 9846.953
487.1436, 9842.604
487.6258, 9826.262
488.1079, 9826.262
488.5900, 9848.427
489.0721, 9870.866
489.5542, 9879.742
490.0363, 9874.948
490.5185, 9875.347
491.0006, 9881.673
491.4827, 9892.326
491.9648, 9907.194
492.4470, 9925.331
492.9291, 9940.971
493.4112, 9949.220
493.8933, 9956.123
494.3754, 9972.545
494.8575, 9997.127
495.3397, 10020.30
495.8218, 10034.88
496.3039, 10045.53
496.7860, 10056.98
497.2681, 10070.11
497.7502, 10084.04
498.2324, 10090.36
498.7145, 10099.48
499.1966, 10125.77
499.6787, 10202.22
500.1608, 10267.30
500.6429, 10298.35
501.1251, 10296.96
501.6072, 10295.30
502.0893, 10294.52
502.5714, 10294.91
503.0535, 10295.13
503.5356, 10287.62
504.0178, 10298.98
504.4999, 10335.71
504.9820, 10385.37
505.4641, 10433.69
505.9462, 10483.44
506.4283, 10516.38
506.9105, 10523.73
507.3926, 10510.76
507.8747, 10496.00
508.3568, 10479.19
508.8389, 10464.62
509.3210, 10451.76
509.8032, 10443.41
510.2853, 10448.27
510.7674, 10468.86
511.2495, 10496.62
511.7316, 10533.25
512.2137, 10570.16
512.6959, 10589.52
513.1780, 10565.17
513.6601, 10536.72
514.1422, 10530.91
514.6243, 10545.25
515.1064, 10560.84
515.5886, 10568.16
516.0707, 10575.96
516.5528, 10590.85
517.0349, 10622.32
517.5170, 10643.00
517.9991, 10636.74
518.4813, 10623.43
518.9634, 10629.20
519.4455, 10667.97
519.9276, 10701.63
520.4097, 10720.24
520.8918, 10726.60
521.3740, 10738.97
521.8561, 10754.92
522.3382, 10784.98
522.8203, 10848.54
523.3024, 10941.56
523.7845, 10999.44
524.2667, 11014.20
524.7488, 11011.36
525.2309, 11020.52
525.7130, 11038.65
526.1951, 11054.88
526.6772, 11063.64
527.1594, 11070.63
527.6415, 11083.00
528.1236, 11099.59
528.6057, 11115.70
529.0878, 11137.42
529.5699, 11151.68
530.0521, 11146.82
530.5342, 11118.48
531.0163, 11084.35
531.4984, 11037.19
531.9805, 10992.32
532.4626, 10965.72
532.9448, 10989.20
533.4269, 10995.42
533.9090, 10973.37
534.3911, 10928.24
534.8732, 10880.25
535.3553, 10826.51
535.8375, 10774.00
536.3196, 10722.84
536.8017, 10671.45
537.2838, 10645.57
537.7659, 10651.05
538.2480, 10661.88
538.7302, 10646.94
539.2123, 10610.11
539.6944, 10579.41
540.1765, 10561.82
540.6586, 10551.27
541.1407, 10540.72
541.6229, 10529.95
542.1050, 10518.01
542.5871, 10499.71
543.0692, 10483.02
543.5513, 10479.55
544.0334, 10489.68
544.5156, 10492.08
544.9977, 10457.28
545.4798, 10421.85
545.9619, 10416.83
546.4440, 10482.91
546.9261, 10527.57
547.4083, 10522.61
547.8904, 10491.35
548.3725, 10475.96
548.8546, 10484.31
549.3367, 10495.46
549.8188, 10504.60
550.3010, 10512.07
550.7831, 10525.37
551.2652, 10549.90
551.7473, 10562.13
552.2294, 10531.30
552.7115, 10464.31
553.1937, 10435.55
553.6758, 10455.35
554.1579, 10494.98
554.6400, 10528.50
555.1221, 10554.04
555.6042, 10564.83
556.0864, 10543.91
556.5685, 10522.15
557.0506, 10535.01
557.5327, 10573.97
558.0148, 10607.18
558.4969, 10615.97
558.9791, 10616.67
559.4612, 10621.48
559.9433, 10635.24
560.4254, 10634.39
560.9075, 10593.02
561.3896, 10547.48
561.8718, 10529.70
562.3539, 10558.74
562.8360, 10584.11
563.3181, 10605.42
563.8002, 10619.09
564.2823, 10611.35
564.7645, 10575.56
565.2466, 10549.09
565.7287, 10552.80
566.2108, 10578.47
566.6929, 10584.51
567.1750, 10570.30
567.6572, 10549.59
568.1393, 10528.20
568.6214, 10509.74
569.1035, 10502.92
569.5856, 10510.11
570.0677, 10524.43
570.5499, 10548.93
571.0320, 10575.05
571.5141, 10589.42
571.9962, 10568.72
572.4783, 10553.72
572.9604, 10569.65
573.4426, 10608.83
573.9247, 10631.25
574.4068, 10612.71
574.8889, 10592.26
575.3710, 10586.38
575.8531, 10599.81
576.3353, 10602.51
576.8174, 10590.45
577.2995, 10573.55
577.7816, 10558.49
578.2637, 10544.51
578.7458, 10543.28
579.2280, 10559.88
579.7101, 10583.67
580.1922, 10596.94
580.6743, 10600.62
581.1564, 10599.93
581.6385, 10594.74
582.1207, 10587.92
582.6028, 10581.08
583.0849, 10574.98
583.5670, 10575.03
584.0491, 10587.15
584.5313, 10604.99
585.0134, 10625.98
585.4955, 10653.85
585.9776, 10671.01
586.4597, 10660.87
586.9418, 10642.66
587.4240, 10638.50
587.9061, 10658.77
588.3882, 10678.10
588.8703, 10696.12
589.3524, 10710.85
589.8345, 10715.29
590.3167, 10707.34
590.7988, 10696.83
591.2809, 10684.57
591.7630, 10672.84
592.2451, 10677.65
592.7272, 10699.64
593.2094, 10722.67
593.6915, 10733.84
594.1736, 10736.39
594.6557, 10735.75
595.1378, 10732.19
595.6199, 10728.12
596.1021, 10723.47
596.5842, 10719.96
597.0663, 10720.01
597.5485, 10726.72
598.0306, 10734.71
598.5127, 10740.87
598.9948, 10746.52
599.4769, 10758.17
599.9590, 10793.82
600.4412, 10813.95
600.9233, 10796.64
601.4054, 10737.11
601.8875, 10717.70
602.3696, 10748.38
602.8517, 10795.29
603.3339, 10835.33
603.8160, 10868.28
604.2981, 10881.79
604.7802, 10870.80
605.2623, 10852.78
605.7444, 10844.39
606.2266, 10846.72
606.7087, 10863.59
607.1908, 10912.19
607.6729, 10959.56
608.1550, 10963.99
608.6371, 10942.79
609.1193, 10955.99
609.6014, 11019.07
610.0835, 11056.96
610.5656, 11071.01
611.0477, 10989.85
611.5298, 11031.65
612.0120, 11024.17
612.4941, 11014.67
612.9762, 11073.76
613.4583, 11006.46
613.9404, 11024.22
614.4225, 11051.10
614.9047, 11073.52
615.3868, 11074.14
615.8689, 11055.25
616.3510, 11049.18
616.8331, 11073.21
617.3152, 11104.53
617.7974, 11101.87
618.2795, 11073.98
618.7616, 11054.77
619.2437, 11067.75
619.7258, 11092.91
620.2079, 11116.13
620.6901, 11136.53
621.1722, 11160.36
621.6543, 11197.88
622.1364, 11233.96
622.6185, 11257.73
623.1006, 11262.93
623.5828, 11268.78
624.0649, 11274.18
624.5470, 11281.21
625.0291, 11291.14
625.5112, 11302.75
625.9933, 11325.66
626.4755, 11365.79
626.9576, 11412.11
627.4397, 11443.93
627.9218, 11461.50
628.4039, 11466.99
628.8860, 11441.98
629.3682, 11415.69
629.8503, 11431.42
630.3324, 11485.45
630.8145, 11548.83
631.2966, 11624.09
631.7787, 11688.51
632.2609, 11721.08
632.7430, 11709.54
633.2251, 11704.38
633.7072, 11717.67
634.1893, 11739.82
634.6714, 11764.41
635.1536, 11798.19
635.6357, 11817.66
636.1178, 11813.77
636.5999, 11802.35
637.0820, 11812.53
637.5641, 11844.88
638.0463, 11884.23
638.5284, 11921.33
639.0105, 11966.42
639.4926, 12054.05
639.9747, 12176.10
640.4568, 12282.82
640.9390, 12332.36
641.4211, 12361.71
641.9032, 12402.69
642.3853, 12457.41
642.8674, 12519.60
643.3495, 12577.42
643.8317, 12647.98
644.3138, 12746.17
644.7959, 12895.38
