##NAMES=Grunerite
##RRUFFID=R070204
##IDEAL CHEMISTRY=[box]Fe^2+^_2_Fe^2+^_5_Si_8_O_22_(OH)_2_
##LOCALITY=Penge mine, Transvaal, South Africa
##OWNER=RRUFF
##SOURCE=California Institute of Technology
##DESCRIPTION=Aggregate of tan colored parallel fibers. The Penge mine is the source of UICC standard for amosite
##STATUS=The identification of this mineral has been confirmed by X-ray diffraction and chemical analysis
##URL=rruff.info/R070204
##MEASURED CHEMISTRY=([box]_0.98_Na_0.02_)_Σ=1_(Fe_5.24_Mg_1.59_Mn_0.08_[box]_0.03_Al_0.04_Ca_0.02_)_Σ=7_Si_8.00_O_22_(OH)_2_ ; OH estimated by difference and charge balance
142.4678, 924.2595
142.9499, 944.7209
143.4320, 967.3242
143.9141, 989.5727
144.3962, 1008.882
144.8784, 1019.548
145.3605, 1036.392
145.8426, 1062.311
146.3247, 1098.375
146.8068, 1137.775
147.2889, 1186.580
147.7711, 1235.834
148.2532, 1274.313
148.7353, 1282.724
149.2174, 1300.504
149.6995, 1339.045
150.1816, 1409.021
150.6638, 1474.160
151.1459, 1535.389
151.6280, 1591.511
152.1101, 1640.409
152.5922, 1674.026
153.0743, 1706.770
153.5565, 1744.495
154.0386, 1797.248
154.5207, 1839.701
155.0028, 1872.782
155.4849, 1893.889
155.9670, 1896.809
156.4492, 1868.478
156.9313, 1829.194
157.4134, 1789.952
157.8955, 1756.121
158.3776, 1719.696
158.8597, 1675.168
159.3419, 1623.975
159.8240, 1578.865
160.3061, 1542.741
160.7882, 1514.706
161.2703, 1494.088
161.7524, 1488.117
162.2346, 1482.974
162.7167, 1472.277
163.1988, 1455.736
163.6809, 1438.556
164.1630, 1419.360
164.6451, 1401.764
165.1273, 1390.307
165.6094, 1390.942
166.0915, 1395.494
166.5736, 1397.633
167.0557, 1396.062
167.5379, 1398.052
168.0200, 1408.154
168.5021, 1425.044
168.9842, 1446.302
169.4663, 1478.477
169.9484, 1510.703
170.4306, 1531.027
170.9127, 1534.563
171.3948, 1535.817
171.8769, 1544.129
172.3590, 1559.327
172.8411, 1581.040
173.3233, 1611.946
173.8054, 1648.177
174.2875, 1685.038
174.7696, 1722.816
175.2517, 1759.090
175.7338, 1790.029
176.2160, 1816.614
176.6981, 1843.388
177.1802, 1876.053
177.6623, 1910.801
178.1444, 1939.768
178.6265, 1958.747
179.1087, 1972.890
179.5908, 1989.713
180.0729, 2008.948
180.5550, 2027.026
181.0371, 2044.523
181.5192, 2059.009
182.0014, 2062.041
182.4835, 2045.215
182.9656, 2017.926
183.4477, 2000.751
183.9298, 1994.543
184.4119, 1988.749
184.8941, 1971.727
185.3762, 1945.019
185.8583, 1917.773
186.3404, 1894.288
186.8225, 1872.904
187.3046, 1844.872
187.7868, 1808.772
188.2689, 1773.618
188.7510, 1755.478
189.2331, 1752.874
189.7152, 1747.028
190.1973, 1726.152
190.6795, 1693.290
191.1616, 1667.455
191.6437, 1650.071
192.1258, 1637.523
192.6079, 1625.146
193.0900, 1612.978
193.5722, 1599.853
194.0543, 1583.627
194.5364, 1564.504
195.0185, 1550.176
195.5006, 1541.573
195.9827, 1537.104
196.4649, 1533.373
196.9470, 1530.016
197.4291, 1529.670
197.9112, 1537.027
198.3933, 1552.678
198.8754, 1558.988
199.3576, 1552.048
199.8397, 1536.688
200.3218, 1526.281
200.8039, 1521.564
201.2860, 1519.179
201.7681, 1517.415
202.2503, 1516.412
202.7324, 1515.145
203.2145, 1514.352
203.6966, 1512.991
204.1787, 1504.688
204.6608, 1486.132
205.1430, 1470.030
205.6251, 1468.051
206.1072, 1483.375
206.5893, 1497.356
207.0714, 1507.897
207.5535, 1514.789
208.0357, 1515.644
208.5178, 1508.552
208.9999, 1499.221
209.4820, 1492.423
209.9641, 1488.658
210.4462, 1485.685
210.9284, 1483.371
211.4105, 1481.647
211.8926, 1479.464
212.3747, 1477.318
212.8568, 1473.929
213.3389, 1466.501
213.8211, 1451.806
214.3032, 1443.061
214.7853, 1446.580
215.2674, 1463.246
215.7495, 1466.501
216.2316, 1451.223
216.7138, 1428.658
217.1959, 1411.832
217.6780, 1402.508
218.1601, 1394.414
218.6422, 1386.258
219.1243, 1378.022
219.6065, 1369.378
220.0886, 1359.983
220.5707, 1350.526
221.0528, 1342.532
221.5349, 1337.045
222.0170, 1330.544
222.4992, 1321.194
222.9813, 1307.969
223.4634, 1298.428
223.9455, 1294.518
224.4276, 1292.888
224.9097, 1288.721
225.3919, 1282.853
225.8740, 1272.652
226.3561, 1254.488
226.8382, 1223.016
227.3203, 1205.888
227.8024, 1209.039
228.2846, 1223.257
228.7667, 1233.111
229.2488, 1238.748
229.7309, 1239.424
230.2130, 1233.880
230.6951, 1219.538
231.1773, 1207.131
231.6594, 1196.767
232.1415, 1188.383
232.6236, 1182.010
233.1057, 1178.414
233.5878, 1175.622
234.0700, 1172.624
234.5521, 1168.294
235.0342, 1167.089
235.5163, 1171.262
235.9984, 1177.837
236.4805, 1179.383
236.9627, 1172.021
237.4448, 1165.537
237.9269, 1164.879
238.4090, 1175.313
238.8911, 1179.298
239.3732, 1174.785
239.8554, 1164.318
240.3375, 1153.821
240.8196, 1140.192
241.3017, 1131.055
241.7838, 1130.538
242.2659, 1144.691
242.7481, 1154.362
243.2302, 1158.299
243.7123, 1157.854
244.1944, 1156.878
244.6765, 1155.361
245.1586, 1153.307
245.6408, 1150.203
246.1229, 1143.730
246.6050, 1142.007
247.0871, 1148.725
247.5692, 1159.751
248.0513, 1161.387
248.5335, 1146.823
249.0156, 1132.793
249.4977, 1128.487
249.9798, 1139.723
250.4619, 1147.079
250.9440, 1149.599
251.4262, 1147.954
251.9083, 1144.197
252.3904, 1137.812
252.8725, 1130.038
253.3546, 1121.217
253.8367, 1110.324
254.3189, 1100.392
254.8010, 1089.667
255.2831, 1080.352
255.7652, 1081.772
256.2473, 1101.918
256.7295, 1119.480
257.2116, 1121.116
257.6937, 1099.052
258.1758, 1083.568
258.6579, 1078.799
259.1400, 1081.031
259.6222, 1077.123
260.1043, 1063.105
260.5864, 1050.381
261.0685, 1046.662
261.5506, 1056.804
262.0327, 1060.126
262.5149, 1052.824
262.9970, 1038.797
263.4791, 1030.581
263.9612, 1029.495
264.4433, 1031.313
264.9254, 1034.139
265.4076, 1038.256
265.8897, 1042.199
266.3718, 1046.100
266.8539, 1049.694
267.3360, 1052.632
267.8181, 1055.429
268.3003, 1056.202
268.7824, 1052.999
269.2645, 1044.508
269.7466, 1038.049
270.2287, 1033.282
270.7108, 1031.269
271.1930, 1037.016
271.6751, 1054.054
272.1572, 1067.845
272.6393, 1066.991
273.1214, 1047.725
273.6035, 1040.155
274.0857, 1048.904
274.5678, 1067.206
275.0499, 1080.118
275.5320, 1087.083
276.0141, 1090.593
276.4962, 1089.662
276.9784, 1083.492
277.4605, 1085.114
277.9426, 1097.344
278.4247, 1114.844
278.9068, 1126.330
279.3889, 1131.258
279.8711, 1133.784
280.3532, 1135.906
280.8353, 1137.623
281.3174, 1138.206
281.7995, 1137.502
282.2816, 1135.850
282.7638, 1132.150
283.2459, 1125.998
283.7280, 1124.165
284.2101, 1133.521
284.6922, 1152.657
285.1743, 1164.815
285.6565, 1168.177
286.1386, 1166.710
286.6207, 1165.326
287.1028, 1164.054
287.5849, 1164.572
288.0670, 1170.395
288.5492, 1179.637
289.0313, 1180.807
289.5134, 1171.712
289.9955, 1160.475
290.4776, 1159.165
290.9597, 1166.888
291.4419, 1175.442
291.9240, 1183.687
292.4061, 1189.934
292.8882, 1186.870
293.3703, 1172.893
293.8524, 1156.393
294.3346, 1145.726
294.8167, 1140.727
295.2988, 1140.185
295.7809, 1146.977
296.2630, 1157.336
296.7451, 1162.939
297.2273, 1163.273
297.7094, 1161.895
298.1915, 1161.277
298.6736, 1161.690
299.1557, 1163.915
299.6378, 1169.606
300.1200, 1176.827
300.6021, 1182.999
301.0842, 1188.068
301.5663, 1192.039
302.0484, 1193.031
302.5305, 1192.978
303.0127, 1195.740
303.4948, 1204.297
303.9769, 1215.590
304.4590, 1228.631
304.9411, 1243.144
305.4232, 1253.020
305.9054, 1249.943
306.3875, 1240.073
306.8696, 1232.509
307.3517, 1229.501
307.8338, 1230.762
308.3159, 1238.062
308.7981, 1250.701
309.2802, 1262.842
309.7623, 1271.851
310.2444, 1278.051
310.7265, 1281.915
311.2086, 1284.102
311.6908, 1283.330
312.1729, 1276.232
312.6550, 1264.368
313.1371, 1255.425
313.6192, 1256.260
314.1013, 1260.170
314.5835, 1261.951
315.0656, 1261.163
315.5477, 1256.832
316.0298, 1246.216
316.5119, 1231.188
316.9940, 1217.799
317.4762, 1209.684
317.9583, 1203.144
318.4404, 1196.342
318.9225, 1190.091
319.4046, 1181.510
319.8867, 1167.172
320.3689, 1149.822
320.8510, 1135.864
321.3331, 1129.471
321.8152, 1124.786
322.2973, 1118.786
322.7794, 1109.196
323.2616, 1102.697
323.7437, 1105.515
324.2258, 1111.331
324.7079, 1109.118
325.1900, 1083.517
325.6721, 1062.444
326.1543, 1055.593
326.6364, 1069.124
327.1185, 1080.478
327.6006, 1089.226
328.0827, 1095.720
328.5648, 1100.311
329.0470, 1100.171
329.5291, 1101.446
330.0112, 1105.880
330.4933, 1114.074
330.9754, 1121.262
331.4576, 1125.730
331.9397, 1130.484
332.4218, 1139.034
332.9039, 1154.152
333.3860, 1168.049
333.8681, 1178.255
334.3503, 1185.041
334.8324, 1194.558
335.3145, 1206.937
335.7966, 1221.680
336.2787, 1239.309
336.7608, 1261.373
337.2430, 1280.236
337.7251, 1292.752
338.2072, 1301.105
338.6893, 1315.657
339.1714, 1337.915
339.6535, 1361.458
340.1357, 1381.384
340.6178, 1397.600
341.0999, 1413.825
341.5820, 1431.840
342.0641, 1448.858
342.5462, 1456.910
343.0284, 1454.977
343.5105, 1454.761
343.9926, 1466.967
344.4747, 1489.463
344.9568, 1502.229
345.4389, 1502.124
345.9211, 1495.944
346.4032, 1493.525
346.8853, 1494.521
347.3674, 1495.870
347.8495, 1497.416
348.3316, 1498.102
348.8138, 1494.315
349.2959, 1485.399
349.7780, 1475.229
350.2601, 1467.910
350.7422, 1462.591
351.2243, 1456.687
351.7065, 1448.661
352.1886, 1439.540
352.6707, 1430.235
353.1528, 1420.720
353.6349, 1412.206
354.1170, 1407.844
354.5992, 1404.524
355.0813, 1397.085
355.5634, 1376.552
356.0455, 1357.581
356.5276, 1355.273
357.0097, 1367.141
357.4919, 1376.397
357.9740, 1369.026
358.4561, 1356.965
358.9382, 1351.708
359.4203, 1360.698
359.9024, 1370.274
360.3846, 1372.807
360.8667, 1370.623
361.3488, 1370.700
361.8309, 1379.272
362.3130, 1388.299
362.7951, 1392.942
363.2773, 1390.438
363.7594, 1388.143
364.2415, 1386.400
364.7236, 1386.175
365.2057, 1389.178
365.6878, 1403.325
366.1700, 1413.788
366.6521, 1414.381
367.1342, 1401.327
367.6163, 1391.479
368.0984, 1390.753
368.5805, 1391.384
369.0627, 1384.923
369.5448, 1366.059
370.0269, 1346.944
370.5090, 1327.927
370.9911, 1308.831
371.4732, 1299.431
371.9554, 1307.517
372.4375, 1316.589
372.9196, 1312.541
373.4017, 1289.051
373.8838, 1268.328
374.3659, 1253.261
374.8481, 1242.654
375.3302, 1231.389
375.8123, 1218.416
376.2944, 1207.500
376.7765, 1201.403
377.2586, 1200.544
377.7408, 1199.926
378.2229, 1199.498
378.7050, 1198.715
379.1871, 1196.872
379.6692, 1194.012
380.1513, 1189.218
380.6335, 1178.727
381.1156, 1164.886
381.5977, 1161.592
382.0798, 1170.344
382.5619, 1182.720
383.0440, 1190.775
383.5262, 1194.632
384.0083, 1194.853
384.4904, 1188.067
384.9725, 1179.559
385.4546, 1178.384
385.9367, 1184.342
386.4189, 1192.918
386.9010, 1201.782
387.3831, 1210.759
387.8652, 1219.635
388.3473, 1228.332
388.8294, 1236.962
389.3116, 1246.470
389.7937, 1256.101
390.2758, 1263.260
390.7579, 1259.837
391.2400, 1257.233
391.7221, 1265.968
392.2043, 1292.342
392.6864, 1317.712
393.1685, 1333.970
393.6506, 1343.597
394.1327, 1351.184
394.6148, 1361.058
395.0970, 1366.531
395.5791, 1361.653
396.0612, 1343.080
396.5433, 1333.338
397.0254, 1343.752
397.5075, 1361.232
397.9897, 1373.175
398.4718, 1378.179
398.9539, 1378.063
399.4360, 1369.946
399.9181, 1354.815
400.4002, 1346.138
400.8824, 1350.012
401.3645, 1353.849
401.8466, 1349.095
402.3287, 1329.759
402.8108, 1316.862
403.2929, 1314.839
403.7751, 1318.279
404.2572, 1312.344
404.7393, 1293.444
405.2214, 1276.312
405.7035, 1269.145
406.1856, 1272.454
406.6678, 1272.117
407.1499, 1267.888
407.6320, 1260.723
408.1141, 1249.648
408.5962, 1234.893
409.0783, 1224.972
409.5605, 1225.419
410.0426, 1231.613
410.5247, 1230.994
411.0068, 1223.544
411.4889, 1214.032
411.9710, 1204.066
412.4532, 1195.174
412.9353, 1191.386
413.4174, 1195.822
413.8995, 1201.875
414.3816, 1202.244
414.8637, 1198.035
415.3459, 1193.099
415.8280, 1187.016
416.3101, 1182.689
416.7922, 1183.928
417.2743, 1192.414
417.7564, 1200.269
418.2386, 1205.842
418.7207, 1207.351
419.2028, 1202.191
419.6849, 1178.505
420.1670, 1158.020
420.6491, 1152.482
421.1313, 1162.205
421.6134, 1167.312
422.0955, 1161.792
422.5776, 1150.923
423.0597, 1138.212
423.5418, 1122.607
424.0240, 1106.960
424.5061, 1091.029
424.9882, 1075.200
425.4703, 1060.639
425.9524, 1047.120
426.4345, 1035.163
426.9167, 1025.167
427.3988, 1017.459
427.8809, 1010.458
428.3630, 1005.166
428.8451, 999.4431
429.3272, 990.1691
429.8094, 976.6746
430.2915, 962.4310
430.7736, 947.8526
431.2557, 933.2020
431.7378, 920.7966
432.2199, 910.6826
432.7021, 902.5342
433.1842, 895.9717
433.6663, 891.1240
434.1484, 889.0226
434.6305, 890.9995
435.1126, 893.5121
435.5948, 889.6702
436.0769, 880.7589
436.5590, 873.2349
437.0411, 873.5038
437.5232, 876.3707
438.0053, 873.1718
438.4875, 862.5259
438.9696, 853.8624
439.4517, 856.6958
439.9338, 865.6607
440.4159, 872.9764
440.8980, 875.6626
441.3802, 875.8373
441.8623, 873.7522
442.3444, 869.7327
442.8265, 865.8457
443.3086, 863.8500
443.7907, 861.5709
444.2729, 849.4008
444.7550, 856.5425
445.2371, 860.0485
445.7192, 860.1139
446.2013, 846.4343
446.6834, 850.5035
447.1656, 847.4596
447.6477, 844.1242
448.1298, 850.6916
448.6119, 839.0111
449.0940, 845.4214
449.5761, 844.6102
450.0583, 847.1039
450.5404, 842.4409
451.0225, 839.9885
451.5046, 844.6952
451.9867, 845.4379
452.4688, 839.9509
452.9510, 842.6548
453.4331, 837.7839
453.9152, 839.0151
454.3973, 841.2123
454.8794, 844.0411
455.3615, 845.1984
455.8437, 844.2506
456.3258, 843.1046
456.8079, 844.5673
457.2900, 847.8059
457.7721, 850.2586
458.2542, 849.4007
458.7364, 848.1757
459.2185, 851.0041
459.7006, 857.3668
460.1827, 862.8083
460.6648, 867.2607
461.1469, 868.0466
461.6291, 861.0992
462.1112, 839.1957
462.5933, 822.2947
463.0754, 824.5778
463.5575, 837.6937
464.0396, 845.6070
464.5218, 837.6237
465.0039, 829.2345
465.4860, 826.3162
465.9681, 829.9930
466.4502, 833.7703
466.9323, 839.6727
467.4145, 844.0009
467.8966, 843.3931
468.3787, 832.1205
468.8608, 826.2327
469.3429, 828.5081
469.8250, 836.9337
470.3072, 845.9183
470.7893, 856.8839
471.2714, 864.4288
471.7535, 864.5157
472.2356, 856.7270
472.7177, 851.9586
473.1999, 850.5118
473.6820, 851.2437
474.1641, 853.6596
474.6462, 857.4555
475.1284, 860.2685
475.6105, 860.6793
476.0926, 860.3527
476.5747, 862.7640
477.0568, 867.4975
477.5389, 871.6733
478.0211, 870.7108
478.5032, 869.1508
478.9853, 873.4330
479.4674, 885.7755
479.9495, 898.9551
480.4316, 909.8032
480.9138, 918.0850
481.3959, 923.3608
481.8780, 923.2253
482.3601, 922.1652
482.8422, 922.7214
483.3243, 924.7069
483.8065, 923.9096
484.2886, 911.1307
484.7707, 901.2211
485.2528, 903.6879
485.7349, 932.7951
486.2170, 950.6734
486.6992, 950.8523
487.1813, 942.5797
487.6634, 943.4001
488.1455, 958.5565
488.6276, 970.6454
489.1097, 972.7188
489.5919, 965.7705
490.0740, 965.7874
490.5561, 974.0880
491.0382, 984.0457
491.5203, 990.5405
492.0024, 993.6926
492.4846, 993.4507
492.9667, 988.7737
493.4488, 983.0845
493.9309, 979.9825
494.4130, 979.9089
494.8951, 984.7802
495.3773, 1000.657
495.8594, 1019.423
496.3415, 1030.554
496.8236, 1033.780
497.3057, 1036.661
497.7878, 1046.246
498.2700, 1056.879
498.7521, 1062.741
499.2342, 1058.151
499.7163, 1054.208
500.1984, 1053.275
500.6805, 1055.755
501.1627, 1062.751
501.6448, 1080.091
502.1269, 1096.630
502.6090, 1109.258
503.0911, 1117.831
503.5732, 1122.628
504.0554, 1120.959
504.5375, 1118.250
505.0196, 1119.648
505.5017, 1126.990
505.9838, 1131.974
506.4659, 1132.670
506.9481, 1131.221
507.4302, 1133.494
507.9123, 1139.827
508.3944, 1146.084
508.8765, 1149.822
509.3586, 1151.801
509.8408, 1155.790
510.3229, 1162.052
510.8050, 1166.803
511.2871, 1166.024
511.7692, 1161.181
512.2513, 1154.732
512.7335, 1145.191
513.2156, 1137.751
513.6977, 1138.409
514.1798, 1144.703
514.6619, 1150.306
515.1440, 1149.029
515.6262, 1148.953
516.1083, 1156.057
516.5904, 1171.920
517.0725, 1184.843
517.5546, 1187.250
518.0367, 1188.513
518.5189, 1196.776
519.0010, 1225.110
519.4831, 1241.220
519.9652, 1236.125
520.4473, 1219.414
520.9294, 1217.157
521.4116, 1234.857
521.8937, 1252.893
522.3758, 1262.686
522.8579, 1264.648
523.3400, 1273.095
523.8221, 1289.747
524.3043, 1304.708
524.7864, 1306.729
525.2685, 1298.317
525.7506, 1290.983
526.2327, 1286.956
526.7148, 1284.707
527.1970, 1282.648
527.6791, 1280.748
528.1612, 1278.896
528.6433, 1281.193
529.1254, 1280.620
529.6075, 1268.386
530.0897, 1244.420
530.5718, 1223.799
531.0539, 1215.983
531.5360, 1212.628
532.0181, 1207.258
532.5002, 1199.104
532.9824, 1188.316
533.4645, 1173.595
533.9466, 1156.440
534.4287, 1139.858
534.9108, 1122.608
535.3929, 1107.568
535.8751, 1095.683
536.3572, 1086.837
536.8393, 1078.707
537.3214, 1070.837
537.8035, 1064.780
538.2856, 1063.003
538.7678, 1065.242
539.2499, 1064.098
539.7320, 1058.721
540.2141, 1050.396
540.6962, 1038.819
541.1783, 1025.368
541.6605, 1014.646
542.1426, 1009.117
542.6247, 1006.966
543.1068, 1007.687
543.5889, 1010.628
544.0710, 1012.235
544.5532, 1009.674
545.0353, 1005.565
545.5174, 1001.547
545.9995, 997.4440
546.4816, 994.7491
546.9637, 993.6512
547.4459, 994.2686
547.9280, 996.8323
548.4101, 1006.885
548.8922, 1011.372
549.3743, 1005.183
549.8564, 992.1086
550.3386, 988.9514
550.8207, 1000.608
551.3028, 1010.331
551.7849, 1007.622
552.2670, 992.7249
552.7491, 989.5887
553.2313, 1000.391
553.7134, 1012.428
554.1955, 1010.371
554.6776, 997.8714
555.1597, 988.9462
555.6418, 987.4807
556.1240, 989.4812
556.6061, 992.5854
557.0882, 995.6895
557.5703, 995.7473
558.0524, 986.9528
558.5345, 977.9749
559.0167, 976.7655
559.4988, 983.3006
559.9809, 985.4753
560.4630, 974.6213
560.9451, 961.2634
561.4272, 952.2366
561.9094, 950.9830
562.3915, 949.9084
562.8736, 948.9200
563.3557, 948.1129
563.8378, 947.5967
564.3199, 947.3179
564.8021, 947.7825
565.2842, 950.5016
565.7663, 953.7814
566.2484, 947.8035
566.7305, 931.4664
567.2126, 918.0639
567.6948, 919.3225
568.1769, 930.2840
568.6590, 936.7886
569.1411, 938.0143
569.6232, 935.0928
570.1053, 925.0468
570.5875, 912.4995
571.0696, 904.8765
571.5517, 906.9742
572.0338, 910.9066
572.5159, 912.4183
572.9980, 912.5326
573.4802, 913.6403
573.9623, 918.4110
574.4444, 922.4316
574.9265, 923.0175
575.4086, 919.6544
575.8907, 920.3879
576.3729, 930.9745
576.8550, 938.8314
577.3371, 933.0112
577.8192, 907.9589
578.3013, 895.0947
578.7834, 898.9058
579.2656, 910.0978
579.7477, 916.2180
580.2298, 917.4352
580.7119, 914.9921
581.1940, 907.4275
581.6761, 898.2449
582.1583, 894.1193
582.6404, 894.1025
583.1225, 893.3953
583.6046, 886.0541
584.0867, 878.5889
584.5688, 878.0130
585.0510, 885.5735
585.5331, 892.2778
586.0152, 894.7879
586.4973, 894.5676
586.9794, 892.8448
587.4615, 885.7729
587.9437, 882.4229
588.4258, 884.3397
588.9079, 889.7759
589.3900, 895.9338
589.8721, 904.2476
590.3542, 909.7602
590.8364, 910.3384
591.3185, 906.9127
591.8006, 904.4336
592.2827, 902.8861
592.7648, 902.2695
593.2469, 903.4252
593.7291, 905.5046
594.2112, 905.9937
594.6933, 904.6572
595.1754, 902.3092
595.6575, 897.8615
596.1396, 893.4125
596.6218, 892.2647
597.1039, 898.4194
597.5860, 903.8595
598.0681, 901.4125
598.5502, 895.5396
599.0323, 895.9442
599.5145, 913.8145
599.9966, 928.8863
600.4787, 935.3141
600.9608, 933.1960
601.4429, 928.2256
601.9250, 916.8239
602.4072, 908.6064
602.8893, 912.0420
603.3714, 928.6642
603.8535, 935.0714
604.3356, 928.5416
604.8177, 919.2161
605.2999, 920.8399
605.7820, 930.8242
606.2641, 938.5302
606.7462, 940.2897
607.2283, 940.2133
607.7104, 942.6389
608.1926, 946.8370
608.6747, 950.9673
609.1568, 956.3212
609.6389, 959.4783
610.1210, 957.1632
610.6031, 949.4541
611.0853, 943.2906
611.5674, 938.4984
612.0495, 936.9833
612.5316, 940.1646
613.0137, 950.4406
613.4958, 958.6577
613.9780, 963.9935
614.4601, 968.2821
614.9422, 973.3624
615.4243, 979.2349
615.9064, 985.8346
616.3885, 993.1500
616.8707, 1001.318
617.3528, 1012.348
617.8349, 1025.001
618.3170, 1034.428
618.7991, 1033.754
619.2813, 1031.348
619.7634, 1036.498
620.2455, 1048.491
620.7276, 1061.186
621.2097, 1074.221
621.6918, 1084.835
622.1740, 1090.522
622.6561, 1088.691
623.1382, 1089.252
623.6203, 1091.776
624.1024, 1097.998
624.5845, 1110.553
625.0667, 1133.563
625.5488, 1151.317
626.0309, 1160.515
626.5130, 1165.951
626.9951, 1178.200
627.4772, 1197.178
627.9594, 1213.729
628.4415, 1222.016
628.9236, 1227.230
629.4057, 1240.186
629.8878, 1259.768
630.3699, 1279.191
630.8521, 1294.777
631.3342, 1307.961
631.8163, 1318.447
632.2984, 1325.781
632.7805, 1336.692
633.2626, 1357.857
633.7448, 1381.043
