##NAMES=Guanajuatite
##RRUFFID=R080140
##IDEAL CHEMISTRY=Bi^3+^_2_Se^2-^_3_
##LOCALITY=Falun, Dalarna, Sweden
##OWNER=RRUFF
##SOURCE=James Shigley
##DESCRIPTION=Compact mass of silver flattened crystals, exhibiting metallic luster
##STATUS=The identification of this mineral has been confirmed only by single crystal X-ray diffraction.
##URL=rruff.info/R080140
90.52570, 0.0000000E+00
91.00781, 7.341677
91.48993, 7.489994
91.97205, 7.549527
92.45416, 7.497172
92.93628, 7.357665
93.41840, 7.154249
93.90051, 6.838447
94.38263, 6.550561
94.86475, 6.575209
95.34686, 6.909480
95.82898, 7.274832
96.31110, 7.440766
96.79321, 7.424615
97.27533, 7.395841
97.75745, 7.383497
98.23956, 7.387812
98.72168, 7.397296
99.20380, 7.397510
99.68591, 7.447405
100.1680, 7.662041
100.6501, 8.095011
101.1323, 8.414385
101.6144, 8.453107
102.0965, 8.167959
102.5786, 8.129995
103.0607, 8.369260
103.5428, 8.827834
104.0250, 9.436852
104.5071, 10.25184
104.9892, 11.11674
105.4713, 12.00244
105.9534, 13.05409
106.4355, 13.78943
106.9177, 13.97439
107.3998, 13.83268
107.8819, 14.08384
108.3640, 15.05193
108.8461, 16.14977
109.3282, 17.12081
109.8104, 17.86221
110.2925, 18.57403
110.7746, 19.28164
111.2567, 19.97236
111.7388, 20.57385
112.2209, 20.63183
112.7031, 20.83085
113.1852, 21.64767
113.6673, 24.00921
114.1494, 26.19682
114.6315, 27.62371
115.1136, 28.25805
115.5958, 29.04068
116.0779, 30.49605
116.5600, 32.18890
117.0421, 33.62518
117.5242, 34.31006
118.0063, 34.95293
118.4885, 35.95573
118.9706, 37.39553
119.4527, 38.96604
119.9348, 40.50406
120.4169, 42.04877
120.8990, 43.69871
121.3812, 45.81954
121.8633, 47.91035
122.3454, 49.48967
122.8275, 50.48669
123.3096, 50.99561
123.7917, 50.85847
124.2739, 50.21894
124.7560, 49.60437
125.2381, 49.24778
125.7202, 49.15559
126.2023, 49.33974
126.6844, 49.80339
127.1666, 50.54110
127.6487, 51.71898
128.1308, 53.31042
128.6129, 54.79585
129.0950, 55.70570
129.5771, 56.15554
130.0593, 56.55912
130.5414, 57.02788
131.0235, 57.52782
131.5056, 57.84357
131.9877, 57.73547
132.4698, 57.47337
132.9520, 57.70535
133.4341, 58.40412
133.9162, 59.12655
134.3983, 59.73199
134.8804, 60.23327
135.3625, 60.65715
135.8447, 60.92442
136.3268, 61.31196
136.8089, 62.37859
137.2910, 64.28397
137.7731, 65.93936
138.2552, 66.97632
138.7374, 67.38316
139.2195, 67.25954
139.7016, 66.47894
140.1837, 65.29789
140.6658, 64.20366
141.1479, 63.10925
141.6301, 62.25904
142.1122, 61.81304
142.5943, 61.97255
143.0764, 61.94280
143.5585, 61.53822
144.0406, 60.94326
144.5228, 60.82943
145.0049, 61.42670
145.4870, 62.20992
145.9691, 62.92318
146.4512, 63.82495
146.9333, 64.23798
147.4155, 63.84401
147.8976, 62.77135
148.3797, 62.26875
148.8618, 62.67205
149.3439, 63.39319
149.8260, 64.05109
150.3082, 64.64872
150.7903, 65.18702
151.2724, 65.66673
151.7545, 66.08428
152.2366, 66.47666
152.7188, 66.87045
153.2009, 67.22652
153.6830, 67.50864
154.1651, 68.06211
154.6472, 68.20365
155.1293, 67.53978
155.6115, 65.91727
156.0936, 64.74199
156.5757, 64.45369
157.0578, 64.65402
157.5399, 64.91410
158.0220, 65.26679
158.5042, 65.55483
158.9863, 65.69032
159.4684, 65.63322
159.9505, 65.60559
160.4326, 65.62112
160.9147, 65.71776
161.3969, 65.95177
161.8790, 66.63065
162.3611, 67.24566
162.8432, 67.52846
163.3253, 67.41304
163.8074, 67.05341
164.2896, 66.26043
164.7717, 65.26891
165.2538, 64.54915
165.7359, 64.40359
166.2180, 64.55338
166.7001, 64.83572
167.1823, 65.30905
167.6644, 65.70065
168.1465, 65.79131
168.6286, 65.65295
169.1107, 65.48796
169.5928, 65.54452
170.0750, 65.57494
170.5571, 65.27869
171.0392, 64.41727
171.5213, 63.50706
172.0034, 62.95837
172.4855, 62.73008
172.9677, 62.65062
173.4498, 62.77539
173.9319, 62.93935
174.4140, 62.87936
174.8961, 62.36359
175.3782, 61.78511
175.8604, 61.61990
176.3425, 61.82524
176.8246, 62.04963
177.3067, 62.05285
177.7888, 61.88503
178.2709, 61.64058
178.7531, 61.28555
179.2352, 60.91340
179.7173, 60.70116
180.1994, 60.64083
180.6815, 60.55869
181.1636, 60.21469
181.6458, 59.70930
182.1279, 59.35940
182.6100, 59.34650
183.0921, 59.51658
183.5742, 59.55666
184.0563, 59.46226
184.5385, 59.31575
185.0206, 59.17308
185.5027, 59.03860
185.9848, 58.94363
186.4669, 58.92813
186.9490, 58.95589
187.4312, 58.93556
187.9133, 58.87265
188.3954, 58.72717
188.8775, 58.38342
189.3596, 57.86956
189.8417, 57.43892
190.3239, 57.17906
190.8060, 57.08123
191.2881, 57.16147
191.7702, 57.45580
192.2523, 57.78548
192.7344, 57.90959
193.2166, 57.82820
193.6987, 57.72668
194.1808, 57.65621
194.6629, 57.62032
195.1450, 57.68108
195.6271, 57.87403
196.1093, 58.07355
196.5914, 58.03381
197.0735, 57.72694
197.5556, 57.52212
198.0377, 57.64074
198.5198, 58.08651
199.0020, 58.39304
199.4841, 58.55708
199.9662, 58.58685
200.4483, 58.44700
200.9304, 58.10184
201.4125, 57.80199
201.8947, 57.67999
202.3768, 57.75228
202.8589, 57.79937
203.3410, 57.83099
203.8231, 57.82349
204.3052, 57.70079
204.7874, 57.42291
205.2695, 57.19650
205.7516, 57.12465
206.2337, 57.22707
206.7158, 57.36363
207.1979, 57.56411
207.6801, 57.76881
208.1622, 57.80809
208.6443, 57.59859
209.1264, 57.48107
209.6085, 57.62713
210.0906, 58.08500
210.5728, 58.61570
211.0549, 59.29309
211.5370, 59.98300
212.0191, 60.31953
212.5012, 60.17134
212.9833, 60.00245
213.4655, 60.07697
213.9476, 60.52608
214.4297, 60.68791
214.9118, 60.35202
215.3939, 59.82471
215.8760, 59.94841
216.3581, 61.04582
216.8403, 62.12706
217.3224, 62.65645
217.8045, 62.39284
218.2866, 62.33970
218.7687, 62.58337
219.2508, 63.02260
219.7330, 63.39154
220.2151, 63.69356
220.6972, 63.91473
221.1793, 64.00887
221.6614, 63.85834
222.1435, 63.91429
222.6257, 64.28632
223.1078, 64.83757
223.5899, 65.17391
224.0720, 65.14436
224.5541, 65.14433
225.0362, 64.78132
225.5184, 65.80441
226.0005, 66.45206
226.4826, 66.74313
226.9647, 65.68714
227.4468, 66.31122
227.9289, 66.22572
228.4111, 66.08629
228.8932, 66.87275
229.3753, 65.87937
229.8574, 66.59892
230.3395, 66.59846
230.8216, 66.88976
231.3038, 66.46723
231.7859, 66.23129
232.2680, 66.65755
232.7501, 66.67688
233.2322, 66.00109
233.7143, 65.92586
234.1965, 65.56430
234.6786, 65.06780
235.1607, 64.90150
235.6428, 65.38184
236.1249, 65.72987
236.6070, 65.55363
237.0892, 64.49616
237.5713, 63.71220
238.0534, 63.32777
238.5355, 63.18335
239.0176, 62.85653
239.4997, 62.19479
239.9819, 61.56230
240.4640, 61.12722
240.9461, 60.97485
241.4282, 60.81764
241.9103, 60.68689
242.3924, 60.54211
242.8746, 60.26865
243.3567, 59.75941
243.8388, 59.28630
244.3209, 58.98798
244.8030, 59.00977
245.2851, 58.80693
245.7673, 58.21453
246.2494, 57.46558
246.7315, 57.11644
247.2136, 57.52176
247.6957, 57.76274
248.1778, 57.41706
248.6600, 56.19722
249.1421, 55.26415
249.6242, 54.64143
250.1063, 54.28411
250.5884, 54.13367
251.0705, 54.30429
251.5527, 54.48922
252.0348, 54.61287
252.5169, 54.73380
252.9990, 54.54700
253.4811, 53.86339
253.9632, 52.99159
254.4454, 52.52302
254.9275, 52.69256
255.4096, 52.80814
255.8917, 52.60505
256.3738, 51.98696
256.8560, 51.50275
257.3381, 51.18942
257.8202, 50.97511
258.3023, 50.76585
258.7844, 50.61538
259.2665, 50.35390
259.7487, 49.86980
260.2308, 49.10036
260.7129, 48.58997
261.1950, 48.45788
261.6771, 48.45571
262.1592, 48.25294
262.6414, 47.81620
263.1235, 47.25951
263.6056, 46.56040
264.0877, 45.68863
264.5698, 45.06549
265.0519, 44.77915
265.5341, 44.62217
266.0162, 44.36295
266.4983, 43.99841
266.9804, 43.53702
267.4625, 42.91722
267.9446, 42.14951
268.4268, 41.62705
268.9089, 41.45263
269.3910, 41.35979
269.8731, 41.05675
270.3552, 40.48787
270.8373, 39.94292
271.3195, 39.49821
271.8016, 39.13971
272.2837, 38.66880
272.7658, 38.00846
273.2479, 37.39596
273.7300, 37.10404
274.2122, 37.20716
274.6943, 37.16463
275.1764, 36.82831
275.6585, 36.26285
276.1406, 35.79058
276.6227, 35.40854
277.1049, 35.12995
277.5870, 35.01102
278.0691, 35.07197
278.5512, 35.05329
279.0333, 34.88929
279.5154, 34.63011
279.9976, 34.47203
280.4797, 34.44420
280.9618, 34.36386
281.4439, 34.05598
281.9260, 33.51863
282.4081, 33.03975
282.8903, 32.64561
283.3724, 32.34061
283.8545, 32.17022
284.3366, 32.14715
284.8187, 32.12286
285.3008, 31.97079
285.7830, 31.70638
286.2651, 31.54025
286.7472, 31.51327
287.2293, 31.54682
287.7114, 31.49949
288.1935, 31.37168
288.6757, 31.22118
289.1578, 31.07838
289.6399, 30.93975
290.1220, 30.80402
290.6041, 30.67852
291.0862, 30.52870
291.5684, 30.29007
292.0505, 29.96934
292.5326, 29.64294
293.0147, 29.29607
293.4968, 28.96942
293.9789, 28.80069
294.4611, 28.81166
294.9432, 28.87931
295.4253, 28.85551
295.9074, 28.76269
296.3895, 28.69824
296.8716, 28.78077
297.3538, 28.90145
297.8359, 28.81269
298.3180, 28.50705
298.8001, 28.14490
299.2822, 27.84140
299.7643, 27.59326
300.2465, 27.39411
300.7286, 27.21688
301.2107, 27.10344
301.6928, 27.16893
302.1749, 27.39946
302.6570, 27.59010
303.1392, 27.52509
303.6213, 27.31637
304.1034, 27.15902
304.5855, 27.12925
305.0676, 27.14707
305.5497, 27.14776
306.0319, 27.12957
306.5140, 27.08329
306.9961, 26.95781
307.4782, 26.81770
307.9603, 26.74139
308.4424, 26.76220
308.9246, 26.82280
309.4067, 26.97359
309.8888, 27.14540
310.3709, 27.14133
310.8530, 26.59460
311.3351, 25.96837
311.8173, 25.69273
312.2994, 25.92537
312.7815, 26.22235
313.2636, 26.36007
313.7457, 26.37484
314.2278, 26.33047
314.7100, 26.25355
315.1921, 26.12609
315.6742, 25.89093
316.1563, 25.50880
316.6384, 25.24025
317.1205, 25.33992
317.6027, 25.58302
318.0848, 25.68423
318.5669, 25.41959
319.0490, 25.11655
319.5311, 24.87233
320.0132, 24.69125
320.4954, 24.62129
320.9775, 24.80712
321.4596, 25.04719
321.9417, 25.16758
322.4238, 25.03219
322.9059, 24.87850
323.3881, 24.73143
323.8702, 24.59834
324.3523, 24.53429
324.8344, 24.69807
325.3165, 24.83460
325.7986, 24.79491
326.2808, 24.26418
326.7629, 23.91464
327.2450, 23.88682
327.7271, 24.09806
328.2092, 24.22188
328.6913, 24.25793
329.1735, 24.20392
329.6556, 24.04105
330.1377, 23.62981
330.6198, 23.37887
331.1019, 23.38349
331.5840, 23.51994
332.0662, 23.55021
332.5483, 23.39576
333.0304, 23.24552
333.5125, 23.15483
333.9946, 23.12346
334.4767, 23.15978
334.9589, 23.33680
335.4410, 23.50972
335.9231, 23.45242
336.4052, 23.02446
336.8873, 22.74595
337.3694, 22.80300
337.8515, 23.16833
338.3336, 23.34529
338.8158, 23.27389
339.2979, 23.14272
339.7800, 23.16171
340.2621, 23.37595
340.7442, 23.40101
341.2263, 23.08179
341.7085, 22.57220
342.1906, 22.45602
342.6727, 22.78964
343.1548, 23.15729
343.6369, 23.26858
344.1190, 23.13708
344.6012, 22.99679
345.0833, 22.87025
345.5654, 22.74931
346.0475, 22.59924
346.5296, 22.42506
347.0117, 22.30189
347.4939, 22.33319
347.9760, 22.45281
348.4581, 22.41871
348.9402, 22.19523
349.4223, 21.95735
349.9044, 21.91030
350.3866, 22.01427
350.8687, 22.13133
351.3508, 22.22952
351.8329, 22.29729
352.3150, 22.28846
352.7971, 22.20617
353.2793, 22.15462
353.7614, 22.30282
354.2435, 22.51868
354.7256, 22.57297
355.2077, 22.27793
355.6898, 21.95159
356.1720, 21.93580
356.6541, 22.15531
357.1362, 22.28708
357.6183, 22.00137
358.1004, 21.62176
358.5826, 21.47445
359.0647, 21.72972
359.5468, 21.93807
360.0289, 21.75970
360.5110, 21.37005
360.9931, 21.10224
361.4753, 21.19342
361.9574, 21.35662
362.4395, 21.46719
362.9216, 21.51644
363.4037, 21.49164
363.8858, 21.33270
364.3680, 21.12016
364.8501, 20.93811
365.3322, 20.79801
365.8143, 20.69910
366.2964, 20.66201
366.7785, 20.68457
367.2607, 20.68173
367.7428, 20.58808
368.2249, 20.50501
368.7070, 20.49635
369.1891, 20.70899
369.6712, 20.79805
370.1534, 20.66489
370.6355, 20.39840
371.1176, 20.29150
371.5997, 20.52631
372.0818, 20.68306
372.5639, 20.53892
373.0461, 19.89676
373.5282, 19.62353
374.0103, 19.86519
374.4924, 20.33277
374.9745, 20.58643
375.4566, 20.57813
375.9388, 20.50848
376.4209, 20.40940
376.9030, 20.28631
377.3851, 20.26806
377.8672, 20.39270
378.3493, 20.50349
378.8315, 20.41844
379.3136, 20.13284
379.7957, 19.90129
380.2778, 19.77773
380.7599, 19.72744
381.2420, 19.64058
381.7242, 19.51852
382.2063, 19.47111
382.6884, 19.64803
383.1705, 19.96964
383.6526, 20.14004
384.1347, 20.11047
384.6169, 20.01005
385.0990, 19.97644
385.5811, 20.00168
386.0632, 20.06306
386.5453, 20.21984
387.0274, 20.37499
387.5096, 20.36494
387.9917, 20.19027
388.4738, 20.01324
388.9559, 19.97153
389.4380, 20.00305
389.9201, 20.02547
390.4023, 19.99833
390.8844, 19.97211
391.3665, 20.00653
391.8486, 20.07803
392.3307, 20.09824
392.8128, 20.02960
393.2950, 19.89169
393.7771, 19.65591
394.2592, 19.21548
394.7413, 18.95392
395.2234, 19.14582
395.7055, 19.56550
396.1877, 19.86418
396.6698, 19.93032
397.1519, 19.89710
397.6340, 19.75694
398.1161, 19.48747
398.5982, 19.33150
399.0804, 19.41583
399.5625, 19.55260
400.0446, 19.60666
400.5267, 19.52643
401.0088, 19.43753
401.4909, 19.33285
401.9731, 19.22627
402.4552, 19.18382
402.9373, 19.25118
403.4194, 19.30852
403.9015, 19.29782
404.3836, 19.20629
404.8658, 19.09237
405.3479, 18.94691
405.8300, 18.79245
406.3121, 18.63998
406.7942, 18.47650
407.2763, 18.41053
407.7585, 18.52125
408.2406, 18.76378
408.7227, 18.88651
409.2048, 18.88390
409.6869, 18.80653
410.1690, 18.63127
410.6512, 18.39812
411.1333, 18.31508
411.6154, 18.46865
412.0975, 18.70170
412.5796, 18.75469
413.0617, 18.66314
413.5439, 18.60500
414.0260, 18.72988
414.5081, 18.93145
414.9902, 19.07092
415.4723, 19.14025
415.9544, 19.13611
416.4366, 19.05401
416.9187, 18.89691
417.4008, 18.67010
417.8829, 18.15006
418.3650, 17.75265
418.8471, 17.84563
419.3293, 18.33849
419.8114, 18.69390
420.2935, 18.55732
420.7756, 18.28185
421.2577, 18.09478
421.7398, 18.01265
422.2220, 18.05386
422.7041, 18.36582
423.1862, 18.78340
423.6683, 19.01125
424.1504, 18.80398
424.6325, 18.61505
425.1147, 18.59292
425.5968, 18.76796
426.0789, 18.82679
426.5610, 18.65767
427.0431, 18.47374
427.5252, 18.47125
428.0074, 18.78476
428.4895, 18.96054
428.9716, 18.91410
429.4537, 18.70765
429.9358, 18.52517
430.4179, 18.36357
430.9001, 18.23741
431.3822, 18.14885
431.8643, 18.09741
432.3464, 18.13695
432.8285, 18.29574
433.3106, 18.45398
433.7928, 18.40111
434.2749, 18.17208
434.7570, 18.07920
435.2391, 18.32059
435.7212, 18.67630
436.2033, 18.66311
436.6855, 18.31428
437.1676, 17.96222
437.6497, 17.83048
438.1318, 17.85176
438.6139, 17.97519
439.0960, 18.25328
439.5782, 18.40819
440.0603, 18.01077
440.5424, 17.34224
441.0245, 16.93391
441.5066, 17.19751
441.9887, 17.62920
442.4709, 18.00034
442.9530, 18.29662
443.4351, 18.45683
443.9172, 18.34995
444.3993, 18.15981
444.8814, 18.01897
445.3636, 17.94181
445.8457, 17.92394
446.3278, 18.03574
446.8099, 18.20676
447.2920, 18.26217
447.7741, 18.05552
448.2563, 17.89592
448.7384, 17.92801
449.2205, 18.20913
449.7026, 18.20297
450.1847, 17.73918
450.6668, 17.20335
451.1490, 16.95885
451.6311, 17.06576
452.1132, 17.24489
452.5953, 17.49575
453.0774, 17.76495
453.5595, 17.92731
454.0417, 17.98145
454.5238, 17.94138
455.0059, 17.72866
455.4880, 17.40308
455.9701, 17.31058
456.4522, 17.48971
456.9344, 17.71527
457.4165, 17.74238
457.8986, 17.62066
458.3807, 17.48198
458.8628, 17.33439
459.3449, 17.22598
459.8271, 17.21637
460.3092, 17.29565
460.7913, 17.41952
461.2734, 17.67291
461.7555, 17.89247
462.2376, 17.90808
462.7198, 17.65058
463.2019, 17.40561
463.6840, 17.31655
464.1661, 17.31220
464.6482, 17.30641
465.1303, 17.29968
465.6125, 17.26484
466.0946, 17.15167
466.5767, 16.97716
467.0588, 16.90819
467.5409, 17.11066
468.0230, 17.28494
468.5052, 17.27403
468.9873, 16.91621
469.4694, 16.79347
469.9515, 17.03336
470.4336, 17.39760
470.9157, 17.54068
471.3979, 17.40193
471.8800, 17.24024
472.3621, 17.09370
472.8442, 16.97892
473.3263, 17.00824
473.8084, 17.20374
474.2906, 17.37201
474.7727, 17.31271
475.2548, 17.08734
475.7369, 17.03124
476.2190, 17.21856
476.7011, 17.41465
477.1833, 17.24045
477.6654, 16.83573
478.1475, 16.58585
478.6296, 16.78522
479.1117, 17.12324
479.5938, 17.33472
480.0760, 17.41910
480.5581, 17.36987
481.0402, 16.91740
481.5223, 16.48960
482.0044, 16.49953
482.4865, 17.23144
482.9687, 17.82788
483.4508, 17.91942
483.9329, 17.72333
484.4150, 17.54922
484.8971, 17.52302
485.3792, 17.44923
485.8614, 17.22320
486.3435, 16.86378
486.8256, 16.66973
487.3077, 16.75461
487.7898, 16.87325
488.2719, 16.88993
488.7541, 16.76214
489.2362, 16.66326
489.7183, 16.58372
490.2004, 16.54720
490.6825, 16.62991
491.1646, 16.85365
491.6468, 16.96571
492.1289, 16.84282
492.6110, 16.58230
493.0931, 16.47894
493.5752, 16.53058
494.0573, 16.59052
494.5395, 16.54863
495.0216, 16.43991
495.5037, 16.31182
495.9858, 16.15692
496.4679, 16.07089
496.9500, 16.21443
497.4322, 16.47616
497.9143, 16.66880
498.3964, 16.66377
498.8785, 16.61899
499.3606, 16.59090
499.8427, 16.58837
500.3249, 16.65130
500.8070, 16.96709
501.2891, 17.21675
501.7712, 17.18729
502.2533, 16.69861
502.7354, 16.38844
503.2176, 16.46808
503.6997, 16.66501
504.1818, 16.70241
504.6639, 16.49306
505.1460, 16.28002
505.6281, 16.07362
506.1103, 15.89124
506.5924, 15.83202
507.0745, 15.93590
507.5566, 16.02128
508.0387, 15.96354
508.5208, 15.77394
509.0030, 15.68527
509.4851, 15.70484
509.9672, 15.78481
510.4493, 15.91176
510.9314, 16.06311
511.4135, 16.15661
511.8957, 16.15163
512.3778, 16.11455
512.8599, 16.12464
513.3420, 16.16697
513.8242, 16.19731
514.3063, 16.19205
514.7884, 16.16689
515.2705, 16.12955
515.7526, 16.08073
516.2347, 16.03267
516.7169, 15.93638
517.1990, 15.87422
517.6811, 15.91551
518.1632, 16.29074
518.6453, 16.47034
519.1274, 16.24561
519.6096, 15.81947
520.0917, 15.56447
520.5738, 15.55854
521.0559, 15.59774
521.5380, 15.65138
522.0201, 15.71564
522.5023, 15.69438
522.9844, 15.53571
523.4665, 15.44033
523.9486, 15.65347
524.4307, 16.14912
524.9128, 16.30395
525.3950, 16.00650
525.8771, 15.58037
526.3592, 15.45388
526.8413, 15.56486
527.3234, 15.68605
527.8055, 15.75206
528.2877, 15.76973
528.7698, 15.71557
529.2519, 15.60956
529.7340, 15.53486
530.2161, 15.55464
530.6982, 15.61284
531.1804, 15.68720
531.6625, 15.78679
532.1446, 15.82060
532.6267, 15.68837
533.1088, 15.51091
533.5909, 15.40161
534.0731, 15.43301
534.5552, 15.46150
535.0373, 15.48232
535.5194, 15.49259
536.0015, 15.48402
536.4836, 15.44948
536.9658, 15.41110
537.4479, 15.38084
537.9300, 15.35733
538.4121, 15.28768
538.8942, 15.15202
539.3763, 15.05504
539.8585, 15.12707
540.3406, 15.33165
540.8227, 15.44800
541.3048, 15.43298
541.7869, 15.38372
542.2690, 15.44534
542.7512, 15.56939
543.2333, 15.63357
543.7154, 15.52172
544.1975, 15.38415
544.6796, 15.37196
545.1617, 15.45137
545.6439, 15.47391
546.1260, 15.30000
546.6081, 15.10387
547.0902, 15.00067
547.5723, 15.03707
548.0544, 15.02557
548.5366, 14.84976
549.0187, 14.66672
549.5008, 14.61847
549.9829, 14.79904
550.4650, 14.94969
550.9471, 15.07588
551.4293, 15.14554
551.9114, 15.02595
552.3935, 14.64567
552.8756, 14.43343
553.3577, 14.66750
553.8398, 15.20160
554.3220, 15.28100
554.8041, 14.89050
555.2862, 14.49718
555.7683, 14.52914
556.2504, 14.80646
556.7325, 14.95534
557.2147, 14.90794
557.6968, 14.83474
558.1789, 14.92442
558.6610, 15.06947
559.1431, 15.11051
559.6252, 14.83189
560.1074, 14.60140
560.5895, 14.60619
561.0716, 14.78287
561.5537, 14.91827
562.0358, 14.96372
562.5179, 14.96845
563.0001, 14.94994
563.4822, 14.90991
563.9643, 14.82632
564.4464, 14.65157
564.9285, 14.50031
565.4106, 14.47954
565.8928, 14.61976
566.3749, 14.67714
566.8570, 14.60981
567.3391, 14.50708
567.8212, 14.51528
568.3033, 14.62015
568.7855, 14.71548
569.2676, 14.75886
569.7497, 14.78035
570.2318, 14.85626
570.7139, 14.96129
571.1960, 14.99112
571.6782, 14.80671
572.1603, 14.57303
572.6424, 14.41690
573.1245, 14.34935
573.6066, 14.33760
574.0887, 14.40000
574.5709, 14.49418
575.0530, 14.58728
575.5351, 14.66902
576.0172, 14.76301
576.4993, 14.91639
576.9814, 15.06100
577.4636, 15.06100
577.9457, 14.82846
578.4278, 14.69488
578.9099, 14.78777
579.3920, 15.02395
579.8741, 15.05490
580.3563, 14.86378
580.8384, 14.69207
581.3205, 14.77009
581.8026, 14.97457
582.2847, 14.86248
582.7668, 14.41320
583.2490, 14.06028
583.7311, 14.34630
584.2131, 14.87770
584.6953, 15.11693
585.1774, 14.80771
585.6595, 14.50158
586.1416, 14.53892
586.6237, 14.74812
587.1058, 14.86942
587.5880, 14.73258
588.0701, 14.62218
