##NAMES=Guanacoite
##RRUFFID=R060811
##IDEAL CHEMISTRY=Cu^2+^_2_Mg_3_(As^5+^O_4_)_2_(OH)_4_&#183;4H_2_O
##LOCALITY=Guanaco mine, Tal Tal, Chile
##OWNER=RRUFF
##SOURCE=Bob Jenkins
##DESCRIPTION=Tufts of light blue acicular crystals
##STATUS=The identification of this mineral has been confirmed only by single crystal X-ray diffraction.
##URL=rruff.info/R060811
115.255, 1009.348
115.737, 1052.173
116.219, 1077.481
116.702, 1089.665
117.184, 1103.617
117.666, 1127.663
118.148, 1154.967
118.630, 1179.644
119.112, 1193.837
119.594, 1210.157
120.076, 1238.135
120.559, 1277.002
121.041, 1313.941
121.523, 1336.674
122.005, 1353.476
122.487, 1376.647
122.969, 1417.109
123.451, 1463.580
123.933, 1506.943
124.415, 1547.292
124.898, 1580.847
125.380, 1601.333
125.862, 1611.534
126.344, 1619.756
126.826, 1628.737
127.308, 1639.069
127.790, 1651.334
128.272, 1664.769
128.755, 1681.671
129.237, 1706.099
129.719, 1737.716
130.201, 1772.525
130.683, 1808.046
131.165, 1844.203
131.647, 1882.724
132.129, 1924.631
132.611, 1968.191
133.094, 2010.737
133.576, 2053.108
134.058, 2088.440
134.540, 2109.834
135.022, 2117.348
135.504, 2113.901
135.986, 2095.833
136.468, 2065.223
136.951, 2043.620
137.433, 2031.918
137.915, 2027.562
138.397, 2026.273
138.879, 2027.043
139.361, 2035.203
139.843, 2055.672
140.325, 2092.316
140.807, 2119.097
141.290, 2129.800
141.772, 2134.867
142.254, 2159.409
142.736, 2211.639
143.218, 2268.458
143.700, 2320.203
144.182, 2365.998
144.664, 2407.252
145.146, 2441.914
145.629, 2471.448
146.111, 2502.319
146.593, 2535.186
147.075, 2568.660
147.557, 2600.878
148.039, 2629.318
148.521, 2660.407
149.003, 2694.632
149.486, 2731.805
149.968, 2772.965
150.450, 2825.891
150.932, 2879.621
151.414, 2924.655
151.896, 2957.014
152.378, 2986.153
152.860, 3015.016
153.342, 3045.534
153.824, 3068.253
154.307, 3090.992
154.789, 3103.539
155.271, 3092.879
155.753, 3051.593
156.235, 2991.626
156.717, 2914.093
157.199, 2811.654
157.682, 2709.347
158.164, 2606.109
158.646, 2506.589
159.128, 2419.411
159.610, 2343.137
160.092, 2283.173
160.574, 2244.659
161.056, 2235.984
161.538, 2235.829
162.020, 2235.932
162.503, 2238.204
162.985, 2248.957
163.467, 2273.335
163.949, 2305.820
164.431, 2342.189
164.913, 2380.687
165.395, 2423.515
165.877, 2472.886
166.360, 2528.259
166.842, 2585.961
167.324, 2642.314
167.806, 2700.406
168.288, 2764.404
168.770, 2841.869
169.252, 2921.583
169.734, 2997.042
170.217, 3067.621
170.699, 3133.385
171.181, 3196.732
171.663, 3254.686
172.145, 3303.548
172.627, 3336.648
173.109, 3362.304
173.591, 3389.843
174.073, 3420.040
174.555, 3448.228
175.038, 3469.007
175.520, 3484.280
176.002, 3498.164
176.484, 3522.153
176.966, 3543.206
177.448, 3541.452
177.930, 3512.891
178.413, 3469.388
178.895, 3420.575
179.377, 3366.284
179.859, 3308.791
180.341, 3245.337
180.823, 3178.698
181.305, 3116.004
181.787, 3057.838
182.269, 3003.315
182.751, 2950.243
183.234, 2899.078
183.716, 2849.516
184.198, 2799.667
184.680, 2751.290
185.162, 2711.213
185.644, 2682.500
186.126, 2659.994
186.608, 2630.773
187.091, 2595.019
187.573, 2563.966
188.055, 2551.586
188.537, 2554.624
189.019, 2552.464
189.501, 2537.694
189.983, 2515.948
190.465, 2500.729
190.947, 2491.561
191.430, 2493.201
191.912, 2518.295
192.394, 2564.522
192.876, 2600.337
193.358, 2613.420
193.840, 2608.906
194.322, 2608.860
194.804, 2613.692
195.286, 2621.608
195.769, 2631.979
196.251, 2645.208
196.733, 2656.060
197.215, 2662.830
197.697, 2665.742
198.179, 2664.966
198.661, 2658.045
199.143, 2653.495
199.626, 2663.055
200.108, 2687.603
200.590, 2720.853
201.072, 2759.280
201.554, 2802.629
202.036, 2861.322
202.518, 2937.318
203.000, 3025.450
203.482, 3118.946
203.965, 3218.712
204.447, 3319.797
204.929, 3417.379
205.411, 3510.361
205.893, 3611.752
206.375, 3723.390
206.857, 3841.420
207.339, 3959.422
207.822, 4078.767
208.304, 4194.239
208.786, 4299.692
209.268, 4392.055
209.750, 4494.573
210.232, 4614.711
210.714, 4741.546
211.196, 4851.661
211.678, 4946.728
212.161, 5022.199
212.643, 5077.166
213.125, 5115.739
213.607, 5119.393
214.089, 5080.388
214.571, 5007.624
215.053, 4928.030
215.535, 4835.943
216.018, 4748.894
216.500, 4679.680
216.982, 4637.601
217.464, 4586.980
217.946, 4517.067
218.428, 4436.196
218.910, 4382.393
219.392, 4366.221
219.874, 4360.540
220.357, 4348.115
220.839, 4328.279
221.321, 4303.817
221.803, 4274.872
222.285, 4241.749
222.767, 4205.078
223.249, 4169.867
223.731, 4124.943
224.214, 4063.418
224.696, 3984.496
225.178, 3888.156
225.660, 3765.823
226.142, 3621.418
226.624, 3492.159
227.106, 3386.775
227.588, 3287.300
228.070, 3180.516
228.553, 3060.418
229.035, 2941.347
229.517, 2821.024
229.999, 2698.946
230.481, 2597.830
230.963, 2524.379
231.445, 2464.566
231.927, 2408.440
232.410, 2360.161
232.892, 2307.103
233.374, 2243.165
233.856, 2168.181
234.338, 2109.026
234.820, 2070.593
235.302, 2042.567
235.784, 2014.782
236.266, 1984.240
236.749, 1959.613
237.231, 1943.785
237.713, 1936.944
238.195, 1932.233
238.677, 1931.795
239.159, 1931.523
239.641, 1926.334
240.123, 1909.954
240.605, 1898.548
241.088, 1896.437
241.570, 1932.295
242.052, 1958.937
242.534, 1976.857
243.016, 1959.937
243.498, 1988.007
243.980, 1998.046
244.462, 2007.345
244.945, 2041.747
245.427, 2029.892
245.909, 2061.437
246.391, 2053.763
246.873, 2063.166
247.355, 2072.258
247.837, 2079.616
248.319, 2089.217
248.801, 2102.780
249.284, 2120.584
249.766, 2137.325
250.248, 2155.074
250.730, 2170.009
251.212, 2176.209
251.694, 2166.306
252.176, 2162.248
252.658, 2170.715
253.141, 2193.024
253.623, 2212.109
254.105, 2222.543
254.587, 2235.071
255.069, 2263.932
255.551, 2316.638
256.033, 2370.637
256.515, 2420.600
256.997, 2466.322
257.480, 2513.187
257.962, 2559.546
258.444, 2609.697
258.926, 2668.130
259.408, 2735.915
259.890, 2810.333
260.372, 2889.453
260.854, 2974.010
261.336, 3067.911
261.819, 3176.166
262.301, 3289.733
262.783, 3393.279
263.265, 3478.549
263.747, 3577.636
264.229, 3703.325
264.711, 3855.806
265.193, 4004.138
265.676, 4144.616
266.158, 4281.541
266.640, 4421.198
267.122, 4563.363
267.604, 4705.425
268.086, 4845.626
268.568, 4985.218
269.050, 5123.380
269.532, 5259.844
270.015, 5392.718
270.497, 5517.674
270.979, 5634.400
271.461, 5743.885
271.943, 5847.193
272.425, 5943.662
272.907, 6025.862
273.389, 6092.871
273.871, 6144.749
274.354, 6184.540
274.836, 6215.738
275.318, 6216.758
275.800, 6180.208
276.282, 6107.610
276.764, 6014.900
277.246, 5900.922
277.728, 5765.797
278.211, 5602.153
278.693, 5407.143
279.175, 5209.091
279.657, 5008.147
280.139, 4809.083
280.621, 4642.416
281.103, 4511.439
281.585, 4399.686
282.068, 4286.970
282.550, 4173.382
283.032, 4075.305
283.514, 3998.674
283.996, 3940.238
284.478, 3886.185
284.960, 3835.708
285.442, 3794.321
285.924, 3768.693
286.406, 3758.066
286.889, 3757.507
287.371, 3769.261
287.853, 3788.467
288.335, 3800.423
288.817, 3804.594
289.299, 3808.555
289.781, 3819.756
290.263, 3836.875
290.746, 3853.915
291.228, 3873.586
291.710, 3888.607
292.192, 3875.970
292.674, 3836.039
293.156, 3798.816
293.638, 3790.469
294.120, 3805.067
294.603, 3821.472
295.085, 3838.173
295.567, 3851.501
296.049, 3850.602
296.531, 3837.182
297.013, 3828.114
297.495, 3834.797
297.977, 3854.938
298.459, 3883.646
298.942, 3920.219
299.424, 3964.259
299.906, 4017.486
300.388, 4078.358
300.870, 4142.017
301.352, 4197.198
301.834, 4253.749
302.316, 4326.714
302.798, 4420.407
303.281, 4526.946
303.763, 4648.720
304.245, 4779.148
304.727, 4901.322
305.209, 4990.517
305.691, 5070.333
306.173, 5169.194
306.655, 5293.323
307.138, 5430.344
307.620, 5576.895
308.102, 5729.874
308.584, 5878.729
309.066, 6014.159
309.548, 6145.947
310.030, 6285.875
310.512, 6437.207
310.994, 6581.268
311.477, 6692.357
311.959, 6787.914
312.441, 6898.010
312.923, 7066.972
313.405, 7231.909
313.887, 7341.235
314.369, 7388.229
314.851, 7435.377
315.333, 7534.481
315.816, 7645.991
316.298, 7720.231
316.780, 7725.418
317.262, 7703.160
317.744, 7678.769
318.226, 7654.140
318.708, 7591.880
319.190, 7472.618
319.672, 7312.531
320.155, 7126.812
320.637, 6903.260
321.119, 6669.065
321.601, 6430.612
322.083, 6187.379
322.565, 5946.611
323.047, 5693.763
323.530, 5452.887
324.012, 5240.703
324.494, 5079.142
324.976, 4924.820
325.458, 4765.379
325.940, 4605.405
326.422, 4468.286
326.904, 4372.483
327.386, 4288.205
327.868, 4199.989
328.351, 4085.844
328.833, 3994.613
329.315, 3934.871
329.797, 3899.582
330.279, 3862.886
330.761, 3824.767
331.243, 3785.189
331.725, 3743.911
332.208, 3696.498
332.690, 3656.110
333.172, 3624.867
333.654, 3599.980
334.136, 3576.068
334.618, 3555.862
335.100, 3531.445
335.582, 3496.101
336.065, 3443.001
336.547, 3411.240
337.029, 3408.292
337.511, 3418.527
337.993, 3415.853
338.475, 3394.794
338.957, 3379.253
339.439, 3377.164
339.921, 3388.523
340.404, 3402.347
340.886, 3417.210
341.368, 3438.191
341.850, 3472.886
342.332, 3521.859
342.814, 3573.456
343.296, 3621.658
343.778, 3670.147
344.260, 3733.273
344.743, 3812.389
345.225, 3901.932
345.707, 4003.346
346.189, 4114.245
346.671, 4213.373
347.153, 4290.616
347.635, 4360.310
348.117, 4451.171
348.599, 4563.606
349.082, 4690.205
349.564, 4829.575
350.046, 4978.999
350.528, 5111.230
351.010, 5184.565
351.492, 5320.683
351.974, 5446.917
352.457, 5573.173
352.939, 5699.397
353.421, 5825.620
353.903, 5951.852
354.385, 6078.076
354.867, 6204.304
355.349, 6230.300
355.831, 6262.680
356.313, 6299.453
356.796, 6337.075
357.278, 6377.396
357.760, 6415.354
358.242, 6444.001
358.724, 6462.055
359.206, 6486.360
359.688, 6529.073
360.170, 6582.397
360.652, 6637.072
361.135, 6680.677
361.617, 6733.160
362.099, 6804.139
362.581, 6893.128
363.063, 6991.583
363.545, 7093.432
364.027, 7205.308
364.509, 7332.118
364.991, 7480.018
365.474, 7637.924
365.956, 7814.005
366.438, 8002.458
366.920, 8169.309
367.402, 8285.122
367.884, 8399.845
368.366, 8536.922
368.848, 8718.559
369.331, 8891.141
369.813, 9043.989
370.295, 9187.636
370.777, 9342.782
371.259, 9532.075
371.741, 9703.795
372.223, 9840.396
372.705, 9934.540
373.188, 10022.040
373.670, 10092.910
374.152, 10164.840
374.634, 10267.270
375.116, 10415.160
375.598, 10546.320
376.080, 10640.140
376.562, 10698.870
377.044, 10771.920
377.526, 10866.290
378.009, 10954.990
378.491, 11016.610
378.973, 11050.680
379.455, 11059.560
379.937, 11036.550
380.419, 10994.610
380.901, 10971.230
381.384, 10967.340
381.866, 10962.800
382.348, 10941.740
382.830, 10908.040
383.312, 10877.210
383.794, 10852.680
384.276, 10827.450
384.758, 10783.820
385.240, 10727.420
385.723, 10683.750
386.205, 10670.010
386.687, 10675.540
387.169, 10676.840
387.651, 10669.460
388.133, 10690.130
388.615, 10798.350
389.097, 10953.380
389.579, 11082.440
390.062, 11143.880
390.544, 11180.060
391.026, 11127.175
391.508, 11074.285
391.990, 11021.399
392.472, 10968.510
392.954, 10915.623
393.436, 10862.733
393.918, 10809.837
394.401, 10756.947
394.883, 10704.060
395.365, 10618.390
395.847, 10528.180
396.329, 10425.580
396.811, 10298.360
397.293, 10136.450
397.775, 9923.234
398.258, 9712.951
398.740, 9512.545
399.222, 9317.135
399.704, 9118.839
400.186, 8913.188
400.668, 8709.705
401.150, 8508.148
401.632, 8306.502
402.114, 8121.389
402.597, 7958.300
403.079, 7804.361
403.561, 7646.499
404.043, 7478.335
404.525, 7324.276
405.007, 7189.228
405.489, 7070.011
405.971, 6958.037
406.453, 6851.042
406.936, 6754.705
407.418, 6671.469
407.900, 6601.023
408.382, 6550.808
408.864, 6526.677
409.346, 6510.665
409.828, 6468.572
410.310, 6402.045
410.793, 6341.120
411.275, 6299.778
411.757, 6274.251
412.239, 6255.649
412.721, 6243.823
413.203, 6237.688
413.685, 6245.420
414.167, 6257.822
414.650, 6254.390
415.132, 6217.739
415.614, 6171.934
416.096, 6141.028
416.578, 6123.012
417.060, 6108.257
417.542, 6099.942
418.024, 6087.659
418.506, 6060.779
418.988, 6011.724
419.471, 5959.686
419.953, 5910.020
420.435, 5863.958
420.917, 5822.613
421.399, 5787.185
421.881, 5756.609
422.363, 5729.312
422.845, 5704.247
423.328, 5689.152
423.810, 5683.234
424.292, 5688.979
424.774, 5709.106
425.256, 5747.556
425.738, 5795.590
426.220, 5851.577
426.702, 5915.682
427.185, 5993.249
427.667, 6090.953
428.149, 6192.327
428.631, 6278.213
429.113, 6323.670
429.595, 6434.684
430.077, 6607.093
430.559, 6762.411
431.041, 6917.731
431.524, 7073.073
432.006, 7228.394
432.488, 7383.705
432.970, 7539.026
433.452, 7694.337
433.934, 7849.659
434.416, 8004.964
434.898, 8100.267
435.380, 8250.195
435.863, 8386.636
436.345, 8487.086
436.827, 8571.146
437.309, 8673.158
437.791, 8788.148
438.273, 8886.661
438.755, 8944.992
439.237, 8977.810
439.720, 9004.234
440.202, 9029.301
440.684, 9038.384
441.166, 9023.327
441.648, 8984.949
442.130, 8924.539
442.612, 8832.309
443.094, 8726.490
443.576, 8622.866
444.059, 8521.243
444.541, 8391.055
445.023, 8205.104
445.505, 7998.766
445.987, 7795.036
446.469, 7600.907
446.951, 7408.276
447.433, 7218.935
447.915, 7030.915
448.398, 6836.491
448.880, 6626.208
449.362, 6424.320
449.844, 6238.031
450.326, 6070.985
450.808, 5908.820
451.290, 5748.522
451.772, 5596.726
452.254, 5461.309
452.737, 5344.381
453.219, 5228.171
453.701, 5105.818
454.183, 4981.541
454.665, 4877.166
455.147, 4792.701
455.629, 4715.933
456.112, 4636.933
456.594, 4557.902
457.076, 4483.238
457.558, 4414.648
458.040, 4351.607
458.522, 4293.716
459.004, 4241.599
459.486, 4198.783
459.968, 4175.181
460.451, 4156.170
460.933, 4124.883
461.415, 4081.753
461.897, 4040.034
462.379, 4002.460
462.861, 3972.209
463.343, 3952.749
463.825, 3957.879
464.307, 3956.500
464.790, 3926.945
465.272, 3882.215
465.754, 3855.897
466.236, 3873.380
466.718, 3893.985
467.200, 3899.868
467.682, 3881.857
468.164, 3880.805
468.647, 3906.889
469.129, 3942.938
469.611, 3969.897
470.093, 3977.646
470.575, 3999.340
471.057, 4041.917
471.539, 4102.171
472.021, 4166.349
472.503, 4233.334
472.986, 4308.452
473.468, 4397.741
473.950, 4500.506
474.432, 4593.460
474.914, 4671.176
475.396, 4754.696
475.878, 4872.244
476.360, 5020.270
476.842, 5183.392
477.325, 5361.672
477.807, 5546.101
478.289, 5715.351
478.771, 5873.131
479.253, 6047.870
479.735, 6261.294
480.217, 6500.993
480.699, 6755.469
481.181, 7021.204
481.664, 7297.784
482.146, 7584.327
482.628, 7879.999
483.110, 8188.542
483.592, 8521.244
484.074, 8856.327
484.556, 9188.072
485.039, 9509.862
485.521, 9833.255
486.003, 10169.510
486.485, 10499.510
486.967, 10812.600
487.449, 11102.000
487.931, 11382.110
488.413, 11661.000
488.895, 11928.150
489.378, 12161.580
489.860, 12361.060
490.342, 12537.110
490.824, 12706.830
491.306, 12865.810
491.788, 12942.720
492.270, 12934.110
492.752, 12866.880
493.234, 12774.720
493.717, 12649.240
494.199, 12444.550
494.681, 12135.210
495.163, 11772.040
495.645, 11410.520
496.127, 11048.200
496.609, 10671.590
497.091, 10264.830
497.573, 9847.273
498.056, 9430.157
498.538, 9018.010
499.020, 8607.305
499.502, 8191.847
499.984, 7782.398
500.466, 7392.631
500.948, 7032.761
501.430, 6690.764
501.913, 6364.806
502.395, 6058.042
502.877, 5774.249
503.359, 5528.767
503.841, 5294.434
504.323, 5059.099
504.805, 4823.455
505.287, 4600.323
505.770, 4389.732
506.252, 4191.660
506.734, 4007.176
507.216, 3834.790
507.698, 3686.490
508.180, 3570.264
508.662, 3473.532
509.144, 3363.989
509.626, 3241.796
510.108, 3123.175
510.591, 3016.797
511.073, 2920.826
511.555, 2831.065
512.037, 2747.099
512.519, 2669.119
513.001, 2596.013
513.483, 2528.306
513.966, 2466.738
514.448, 2411.054
514.930, 2362.154
515.412, 2327.344
515.894, 2300.342
516.376, 2264.648
516.858, 2205.647
517.340, 2143.355
517.822, 2085.110
518.305, 2030.444
518.787, 1985.622
519.269, 1960.333
519.751, 1939.852
520.233, 1912.353
520.715, 1875.377
521.197, 1836.832
521.679, 1795.607
522.161, 1754.008
522.644, 1719.221
523.126, 1693.113
523.608, 1667.737
524.090, 1638.200
524.572, 1605.599
525.054, 1580.393
525.536, 1563.156
526.018, 1547.367
526.500, 1526.677
526.983, 1502.437
527.465, 1477.892
527.947, 1453.422
528.429, 1429.412
528.911, 1401.967
529.393, 1374.573
529.875, 1355.443
530.357, 1359.204
530.839, 1364.416
531.322, 1355.980
531.804, 1332.908
532.286, 1309.126
532.768, 1285.563
533.250, 1265.292
533.732, 1250.831
534.214, 1244.624
534.696, 1241.503
535.179, 1247.190
535.661, 1253.994
536.143, 1245.785
536.625, 1213.720
537.107, 1185.806
537.589, 1170.817
538.071, 1167.644
538.553, 1166.373
539.036, 1168.253
539.518, 1166.290
540.000, 1148.871
540.482, 1120.567
540.964, 1109.341
541.446, 1121.569
541.928, 1138.664
542.410, 1137.069
542.892, 1122.236
543.375, 1107.544
543.857, 1098.525
544.339, 1092.443
544.821, 1087.857
545.303, 1084.539
545.785, 1081.563
546.267, 1081.840
546.749, 1079.906
547.231, 1070.452
547.714, 1047.468
548.196, 1033.235
548.678, 1038.819
549.160, 1050.739
549.642, 1054.466
550.124, 1044.202
550.606, 1035.853
551.088, 1032.287
551.570, 1031.966
552.053, 1028.770
552.535, 1021.602
553.017, 1016.050
553.499, 1017.243
553.981, 1023.783
554.463, 1021.477
554.945, 1009.412
555.427, 996.078
555.909, 991.158
556.392, 991.489
556.874, 990.044
557.356, 984.810
557.838, 978.056
558.320, 969.370
558.802, 960.704
559.284, 956.524
559.766, 962.872
560.249, 970.520
560.731, 976.068
561.213, 979.277
561.695, 978.398
562.177, 968.146
562.659, 957.360
563.141, 951.330
563.623, 953.568
564.106, 953.152
564.588, 947.394
565.070, 941.312
565.552, 944.446
566.034, 960.309
566.516, 967.287
566.998, 956.574
567.480, 935.503
567.963, 926.492
568.445, 929.217
568.927, 934.852
569.409, 939.781
569.891, 943.278
570.373, 943.179
570.855, 939.093
571.337, 935.349
571.819, 935.394
572.302, 937.619
572.784, 940.343
573.266, 945.468
573.748, 947.623
574.230, 943.072
574.712, 934.222
575.194, 926.417
575.676, 918.383
576.158, 913.931
576.641, 915.166
577.123, 922.048
577.605, 926.663
578.087, 928.083
578.569, 928.970
579.051, 931.785
579.533, 936.849
580.015, 937.902
580.497, 933.767
580.980, 928.149
581.462, 927.361
581.944, 929.802
582.426, 927.688
582.908, 913.601
583.390, 899.819
583.872, 905.175
584.354, 924.469
584.836, 939.661
585.319, 939.104
585.801, 932.953
586.283, 926.834
586.765, 921.075
587.247, 917.635
587.729, 919.545
588.211, 922.333
588.693, 922.580
589.176, 916.580
589.658, 914.047
590.140, 915.935
590.622, 920.779
591.104, 926.501
591.586, 933.501
592.068, 939.838
592.550, 945.658
593.032, 950.109
593.515, 949.250
593.997, 943.188
594.479, 937.227
594.961, 935.945
595.443, 936.697
595.925, 934.317
596.407, 928.263
596.890, 923.200
597.372, 923.857
597.854, 926.773
598.336, 927.871
598.818, 921.984
599.300, 920.497
599.782, 930.602
600.264, 946.827
600.746, 958.655
601.229, 965.759
601.711, 967.519
602.193, 960.935
602.675, 947.841
603.157, 942.891
603.639, 948.716
604.121, 954.961
604.603, 953.288
605.085, 944.813
605.568, 946.405
606.050, 959.883
606.532, 974.101
607.014, 975.052
607.496, 968.275
607.978, 966.240
608.460, 974.664
608.942, 983.508
609.424, 984.346
609.907, 979.830
610.389, 975.153
610.871, 971.158
611.353, 968.261
611.835, 967.954
612.317, 969.855
612.799, 968.104
613.281, 957.976
613.763, 949.341
614.246, 946.194
614.728, 948.673
615.210, 958.040
615.692, 977.989
616.174, 995.622
616.656, 993.288
617.138, 973.414
617.620, 960.090
618.103, 957.934
618.585, 962.426
619.067, 970.425
619.549, 980.323
620.031, 987.950
620.513, 992.153
620.995, 992.872
621.477, 988.383
621.959, 979.740
622.442, 972.105
622.924, 967.638
623.406, 964.213
623.888, 960.413
624.370, 955.430
624.852, 953.854
625.334, 957.904
625.816, 962.832
626.299, 964.664
626.781, 962.892
627.263, 961.139
627.745, 959.615
628.227, 958.416
628.709, 958.572
629.191, 959.579
629.673, 957.964
630.156, 949.285
630.638, 941.125
631.120, 946.438
631.602, 961.063
632.084, 970.754
632.566, 961.346
633.048, 950.297
633.530, 949.769
634.012, 961.148
634.495, 969.092
634.977, 968.685
635.459, 965.419
635.941, 959.746
636.423, 952.026
636.905, 959.278
637.387, 962.895
637.869, 963.073
638.351, 949.514
638.834, 953.694
639.316, 950.765
639.798, 951.356
640.280, 961.802
640.762, 961.110
641.244, 952.239
641.726, 945.375
642.208, 945.678
642.690, 950.096
643.173, 960.058
643.655, 973.767
