##NAMES=Gudmundite
##RRUFFID=R060741
##IDEAL CHEMISTRY=Fe^3+^(SbS)^3-^
##LOCALITY=Pezinok, Czechoslovakia
##OWNER=RRUFF
##SOURCE=Michael Scott
##DESCRIPTION=Silver metallic blebs with a blue surface tarnish associated with quartz, stibnite and kermesite, R060742
##STATUS=The identification of this mineral is confirmed by single-crystal X-ray diffraction and chemical analysis.
##URL=rruff.info/R060741
##MEASURED CHEMISTRY=Fe_1.00_Sb_1.00_S_1.00_ ; trace amounts of As
150.6375, 1599.556
151.1196, 1691.268
151.6017, 1884.963
152.0838, 2023.328
152.5659, 2065.100
153.0480, 1980.785
153.5302, 1900.378
154.0123, 1825.174
154.4944, 1758.542
154.9765, 1705.369
155.4586, 1660.861
155.9408, 1634.273
156.4229, 1632.216
156.9050, 1663.467
157.3871, 1680.612
157.8692, 1678.246
158.3513, 1664.040
158.8335, 1653.146
159.3156, 1647.104
159.7977, 1646.705
160.2798, 1653.139
160.7619, 1675.829
161.2440, 1692.930
161.7262, 1694.314
162.2083, 1683.608
162.6904, 1675.397
163.1725, 1679.503
163.6546, 1686.109
164.1367, 1687.674
164.6189, 1673.079
165.1010, 1660.795
165.5831, 1659.819
166.0652, 1669.448
166.5473, 1682.651
167.0294, 1695.824
167.5116, 1710.176
167.9937, 1726.978
168.4758, 1753.692
168.9579, 1778.038
169.4400, 1788.430
169.9221, 1783.671
170.4043, 1780.730
170.8864, 1795.958
171.3685, 1820.323
171.8506, 1838.679
172.3327, 1837.307
172.8148, 1830.056
173.2970, 1830.299
173.7791, 1839.879
174.2612, 1852.978
174.7433, 1869.390
175.2254, 1885.988
175.7076, 1894.942
176.1897, 1887.206
176.6718, 1870.969
177.1539, 1856.057
177.6360, 1842.489
178.1181, 1833.813
178.6003, 1834.555
179.0824, 1843.908
179.5645, 1857.637
180.0466, 1880.376
180.5287, 1905.256
181.0108, 1915.967
181.4930, 1903.967
181.9751, 1885.457
182.4572, 1882.982
182.9393, 1895.911
183.4214, 1917.993
183.9035, 1949.210
184.3857, 1986.281
184.8678, 2020.837
185.3499, 2053.621
185.8320, 2080.289
186.3141, 2085.052
186.7962, 2067.313
187.2784, 2051.117
187.7605, 2059.547
188.2426, 2089.286
188.7247, 2124.212
189.2068, 2162.521
189.6889, 2201.480
190.1711, 2238.381
190.6532, 2274.906
191.1353, 2296.231
191.6174, 2281.511
192.0995, 2232.878
192.5816, 2173.024
193.0638, 2100.527
193.5459, 2021.195
194.0280, 1971.125
194.5101, 1954.257
194.9922, 1951.389
195.4743, 1936.463
195.9565, 1909.414
196.4386, 1885.335
196.9207, 1869.015
197.4028, 1860.521
197.8849, 1864.535
198.3670, 1885.495
198.8492, 1910.387
199.3313, 1914.780
199.8134, 1895.746
200.2955, 1877.973
200.7776, 1874.408
201.2597, 1885.698
201.7419, 1893.237
202.2240, 1895.059
202.7061, 1894.659
203.1882, 1901.242
203.6703, 1917.231
204.1524, 1929.797
204.6346, 1931.079
205.1167, 1919.614
205.5988, 1907.907
206.0809, 1894.753
206.5630, 1883.051
207.0451, 1881.900
207.5273, 1893.923
208.0094, 1908.837
208.4915, 1920.659
208.9736, 1928.543
209.4557, 1938.312
209.9378, 1953.488
210.4200, 1970.100
210.9021, 1971.076
211.3842, 1950.286
211.8663, 1927.713
212.3484, 1917.615
212.8305, 1922.881
213.3127, 1929.791
213.7948, 1938.517
214.2769, 1947.832
214.7590, 1949.690
215.2411, 1941.097
215.7233, 1930.396
216.2054, 1923.592
216.6875, 1920.722
217.1696, 1921.712
217.6517, 1927.707
218.1338, 1938.155
218.6160, 1946.905
219.0981, 1954.656
219.5802, 1959.773
220.0623, 1958.604
220.5444, 1944.542
221.0265, 1942.219
221.5087, 1964.065
221.9908, 2009.065
222.4729, 2018.341
222.9550, 1970.745
223.4371, 1913.394
223.9192, 1893.656
224.4014, 1930.004
224.8835, 1963.067
225.3656, 1981.157
225.8477, 1984.071
226.3298, 1982.979
226.8119, 1975.458
227.2941, 1966.406
227.7762, 1960.767
228.2583, 1959.226
228.7404, 1960.007
229.2225, 1964.901
229.7046, 1975.091
230.1868, 1974.315
230.6689, 1955.771
231.1510, 1932.332
231.6331, 1919.086
232.1152, 1919.717
232.5973, 1924.193
233.0795, 1932.151
233.5616, 1945.042
234.0437, 1949.503
234.5258, 1938.708
235.0079, 1925.155
235.4900, 1926.852
235.9722, 1956.872
236.4543, 1978.896
236.9364, 1979.682
237.4185, 1952.855
237.9006, 1941.464
238.3827, 1951.722
238.8649, 1972.751
239.3470, 1989.871
239.8291, 2001.967
240.3112, 2011.507
240.7933, 2016.962
241.2754, 2015.145
241.7576, 2025.647
242.2397, 2057.886
242.7218, 2096.093
243.2039, 2114.306
243.6860, 2098.398
244.1681, 2086.396
244.6503, 2090.804
245.1324, 2115.733
245.6145, 2138.644
246.0966, 2155.291
246.5787, 2172.708
247.0608, 2192.722
247.5430, 2234.838
248.0251, 2271.855
248.5072, 2304.053
248.9893, 2316.999
249.4714, 2354.805
249.9535, 2382.648
250.4357, 2410.088
250.9178, 2451.393
251.3999, 2467.138
251.8820, 2494.315
252.3641, 2521.167
252.8462, 2557.732
253.3284, 2605.591
253.8105, 2670.260
254.2926, 2741.964
254.7747, 2809.548
255.2568, 2893.464
255.7389, 2934.944
256.2211, 2908.913
256.7032, 2802.192
257.1853, 2682.275
257.6674, 2536.747
258.1495, 2388.499
258.6317, 2279.136
259.1138, 2221.356
259.5959, 2177.772
260.0780, 2134.508
260.5601, 2086.610
261.0422, 2062.625
261.5244, 2072.567
262.0065, 2097.750
262.4886, 2105.080
262.9707, 2086.906
263.4528, 2068.998
263.9349, 2060.544
264.4171, 2063.287
264.8992, 2067.189
265.3813, 2074.362
265.8634, 2080.689
266.3455, 2078.555
266.8276, 2065.297
267.3098, 2050.754
267.7919, 2037.145
268.2740, 2023.864
268.7561, 2017.126
269.2382, 2019.033
269.7203, 2025.103
270.2025, 2021.386
270.6846, 2028.403
271.1667, 2031.782
271.6488, 2031.719
272.1309, 2017.904
272.6130, 2021.847
273.0952, 2018.673
273.5773, 2015.207
274.0594, 2021.650
274.5415, 2009.835
275.0236, 2016.120
275.5057, 2015.180
275.9879, 2020.023
276.4700, 2023.869
276.9521, 2024.450
277.4342, 2011.454
277.9163, 2016.391
278.3984, 2014.388
278.8806, 2012.269
279.3627, 2020.233
279.8448, 2010.117
280.3269, 2018.275
280.8090, 2019.385
281.2911, 2023.976
281.7733, 2021.584
282.2554, 2021.579
282.7375, 2028.912
283.2196, 2032.455
283.7017, 2029.941
284.1838, 2035.798
284.6660, 2027.189
285.1481, 2031.604
285.6302, 2041.739
286.1123, 2040.464
286.5944, 2047.331
287.0765, 2051.339
287.5587, 2041.737
288.0408, 2056.288
288.5229, 2060.645
289.0050, 2054.530
289.4871, 2068.786
289.9692, 2064.491
290.4514, 2067.057
290.9335, 2074.828
291.4156, 2077.531
291.8977, 2088.678
292.3798, 2092.036
292.8619, 2094.857
293.3441, 2100.961
293.8262, 2098.440
294.3083, 2112.421
294.7904, 2115.425
295.2725, 2124.148
295.7546, 2134.305
296.2368, 2135.016
296.7189, 2155.782
297.2010, 2171.258
297.6831, 2181.357
298.1652, 2184.270
298.6473, 2175.497
299.1295, 2162.952
299.6116, 2157.513
300.0937, 2159.139
300.5758, 2166.836
301.0579, 2180.156
301.5400, 2198.866
302.0222, 2223.160
302.5043, 2254.102
302.9864, 2289.036
303.4685, 2325.060
303.9506, 2362.359
304.4327, 2400.078
304.9149, 2443.186
305.3970, 2484.769
305.8791, 2514.195
306.3612, 2523.772
306.8433, 2529.334
307.3254, 2543.037
307.8076, 2564.284
308.2897, 2591.443
308.7718, 2626.352
309.2539, 2665.191
309.7360, 2707.580
310.2181, 2761.266
310.7003, 2799.581
311.1824, 2809.619
311.6645, 2789.785
312.1466, 2736.346
312.6287, 2611.617
313.1108, 2473.342
313.5930, 2364.456
314.0751, 2292.781
314.5572, 2243.104
315.0393, 2216.610
315.5214, 2205.772
316.0035, 2196.680
316.4857, 2182.406
316.9678, 2169.238
317.4499, 2162.617
317.9320, 2165.764
318.4141, 2163.515
318.8962, 2142.133
319.3784, 2114.015
319.8605, 2095.850
320.3426, 2096.112
320.8247, 2104.539
321.3068, 2122.959
321.7889, 2155.115
322.2711, 2170.262
322.7532, 2142.634
323.2353, 2101.419
323.7174, 2077.609
324.1995, 2094.526
324.6816, 2111.902
325.1638, 2118.815
325.6459, 2114.208
326.1280, 2110.605
326.6101, 2105.762
327.0922, 2104.212
327.5743, 2109.610
328.0565, 2138.249
328.5386, 2155.942
329.0207, 2154.054
329.5028, 2133.827
329.9849, 2119.764
330.4670, 2110.987
330.9492, 2109.200
331.4313, 2116.646
331.9134, 2148.271
332.3955, 2165.327
332.8776, 2160.198
333.3597, 2137.453
333.8419, 2116.412
334.3240, 2092.047
334.8061, 2076.061
335.2882, 2075.771
335.7703, 2097.275
336.2524, 2119.724
336.7346, 2146.070
337.2167, 2171.308
337.6988, 2181.167
338.1809, 2171.058
338.6630, 2157.331
339.1452, 2146.788
339.6273, 2139.303
340.1094, 2134.666
340.5915, 2131.734
341.0736, 2133.180
341.5558, 2146.850
342.0379, 2175.424
342.5200, 2199.169
343.0021, 2209.717
343.4842, 2207.623
343.9663, 2201.393
344.4485, 2189.914
344.9306, 2178.233
345.4127, 2172.525
345.8948, 2172.638
346.3769, 2176.892
346.8590, 2185.787
347.3412, 2198.283
347.8233, 2211.577
348.3054, 2225.759
348.7875, 2238.926
349.2696, 2247.753
349.7517, 2253.493
350.2339, 2261.239
350.7160, 2273.731
351.1981, 2287.461
351.6802, 2294.972
352.1623, 2296.988
352.6444, 2302.071
353.1266, 2315.705
353.6087, 2336.725
354.0908, 2364.748
354.5729, 2404.530
355.0550, 2442.128
355.5371, 2458.622
356.0193, 2460.109
356.5014, 2466.286
356.9835, 2492.643
357.4656, 2527.132
357.9477, 2557.787
358.4298, 2581.476
358.9120, 2606.158
359.3941, 2639.125
359.8762, 2676.317
360.3583, 2710.941
360.8404, 2738.990
361.3225, 2764.107
361.8047, 2788.925
362.2868, 2813.942
362.7689, 2836.283
363.2510, 2864.944
363.7331, 2886.806
364.2152, 2886.913
364.6974, 2845.355
365.1795, 2796.780
365.6616, 2749.007
366.1437, 2702.381
366.6258, 2658.354
367.1079, 2622.301
367.5901, 2586.014
368.0722, 2543.675
368.5543, 2482.052
369.0364, 2428.996
369.5185, 2386.772
370.0006, 2354.925
370.4828, 2332.790
370.9649, 2328.366
371.4470, 2325.992
371.9291, 2316.849
372.4112, 2287.414
372.8933, 2278.104
373.3755, 2300.171
373.8576, 2338.127
374.3397, 2356.089
374.8218, 2345.774
375.3039, 2332.159
375.7860, 2324.897
376.2682, 2325.206
376.7503, 2322.456
377.2324, 2315.505
377.7145, 2307.289
378.1966, 2303.104
378.6787, 2304.159
379.1609, 2300.496
379.6430, 2288.144
380.1251, 2268.507
380.6072, 2246.142
381.0893, 2219.767
381.5714, 2199.094
382.0536, 2197.302
382.5357, 2211.709
383.0178, 2222.976
383.4999, 2226.773
383.9820, 2225.200
384.4641, 2219.823
384.9463, 2211.082
385.4284, 2205.354
385.9105, 2210.963
386.3926, 2221.917
386.8747, 2225.047
387.3568, 2216.260
387.8390, 2205.793
388.3211, 2204.028
388.8032, 2209.121
389.2853, 2216.111
389.7674, 2229.245
390.2495, 2239.212
390.7317, 2232.705
391.2138, 2206.852
391.6959, 2186.292
392.1780, 2190.064
392.6601, 2207.047
393.1422, 2222.261
393.6244, 2233.759
394.1065, 2239.543
394.5886, 2235.439
395.0707, 2222.451
395.5528, 2213.069
396.0349, 2214.643
396.5171, 2219.304
396.9992, 2221.558
397.4813, 2218.201
397.9634, 2214.938
398.4455, 2209.745
398.9276, 2204.653
399.4098, 2206.363
399.8919, 2223.691
400.3740, 2240.628
400.8561, 2252.109
401.3382, 2259.168
401.8203, 2257.481
402.3025, 2240.815
402.7846, 2218.902
403.2667, 2206.286
403.7488, 2205.823
404.2309, 2209.182
404.7130, 2214.308
405.1952, 2221.182
405.6773, 2234.319
406.1594, 2259.545
406.6415, 2278.848
407.1236, 2268.880
407.6057, 2225.562
408.0879, 2195.420
408.5700, 2187.885
409.0521, 2198.050
409.5342, 2218.278
410.0163, 2249.290
410.4984, 2270.987
410.9806, 2262.643
411.4627, 2231.840
411.9448, 2209.981
412.4269, 2199.793
412.9090, 2199.664
413.3911, 2212.353
413.8733, 2234.520
414.3554, 2254.801
414.8375, 2271.752
415.3196, 2281.688
415.8017, 2276.229
416.2838, 2255.206
416.7660, 2233.051
417.2481, 2215.384
417.7302, 2204.936
418.2123, 2206.005
418.6944, 2232.199
419.1765, 2257.717
419.6587, 2265.621
420.1408, 2259.504
420.6229, 2253.639
421.1050, 2254.303
421.5871, 2256.872
422.0692, 2259.378
422.5514, 2264.593
423.0335, 2263.076
423.5156, 2240.642
423.9977, 2212.355
424.4798, 2203.017
424.9619, 2238.029
425.4441, 2270.305
425.9262, 2288.640
426.4083, 2291.670
426.8904, 2288.763
427.3725, 2271.985
427.8546, 2256.046
428.3368, 2255.060
428.8189, 2278.683
429.3010, 2296.018
429.7831, 2304.723
430.2652, 2304.278
430.7473, 2287.071
431.2295, 2245.057
431.7116, 2212.093
432.1937, 2213.846
432.6758, 2251.169
433.1579, 2277.657
433.6400, 2289.616
434.1222, 2293.969
434.6043, 2299.490
435.0864, 2306.152
435.5685, 2314.136
436.0506, 2325.565
436.5327, 2337.724
437.0149, 2343.690
437.4970, 2343.494
437.9791, 2341.079
438.4612, 2339.325
438.9434, 2337.706
439.4255, 2334.842
439.9076, 2328.379
440.3897, 2323.858
440.8718, 2325.869
441.3539, 2333.797
441.8361, 2345.977
442.3182, 2368.874
442.8003, 2390.865
443.2824, 2403.000
443.7645, 2402.316
444.2466, 2400.751
444.7288, 2404.411
445.2109, 2408.986
445.6930, 2409.331
446.1751, 2394.570
446.6572, 2385.673
447.1393, 2389.431
447.6215, 2405.593
448.1036, 2421.138
448.5857, 2434.978
449.0678, 2448.802
449.5499, 2464.494
450.0320, 2487.379
450.5142, 2500.103
450.9963, 2496.914
451.4784, 2486.393
451.9605, 2488.878
452.4426, 2510.181
452.9247, 2526.738
453.4069, 2529.923
453.8890, 2520.065
454.3711, 2505.093
454.8532, 2483.750
455.3353, 2461.850
455.8174, 2446.468
456.2996, 2436.608
456.7817, 2425.359
457.2638, 2409.651
457.7459, 2393.602
458.2280, 2382.539
458.7101, 2376.717
459.1923, 2377.268
459.6744, 2389.905
460.1565, 2407.639
460.6386, 2421.017
461.1207, 2429.404
461.6028, 2433.113
462.0850, 2428.711
462.5671, 2420.782
463.0492, 2416.114
463.5313, 2425.296
464.0134, 2431.210
464.4955, 2421.014
464.9777, 2397.051
465.4598, 2380.502
465.9419, 2383.105
466.4240, 2391.170
466.9061, 2396.859
467.3882, 2400.331
467.8704, 2399.422
468.3525, 2389.775
468.8346, 2376.532
469.3167, 2368.343
469.7988, 2367.478
470.2809, 2367.968
470.7631, 2368.749
471.2452, 2369.846
471.7273, 2369.630
472.2094, 2368.748
472.6915, 2365.370
473.1736, 2354.930
473.6558, 2336.392
474.1379, 2328.906
474.6200, 2338.190
475.1021, 2355.750
475.5842, 2365.114
476.0663, 2366.544
476.5485, 2363.337
477.0306, 2350.297
477.5127, 2335.134
477.9948, 2339.938
478.4769, 2366.697
478.9590, 2390.611
479.4412, 2382.962
479.9233, 2358.704
480.4054, 2343.210
480.8875, 2351.638
481.3696, 2362.590
481.8517, 2360.902
482.3339, 2349.726
482.8160, 2339.541
483.2981, 2332.458
483.7802, 2329.306
484.2623, 2331.388
484.7444, 2340.223
485.2266, 2349.092
485.7087, 2360.674
486.1908, 2370.200
486.6729, 2371.847
487.1550, 2356.686
487.6371, 2345.797
488.1193, 2344.014
488.6014, 2349.533
489.0835, 2350.960
489.5656, 2346.859
490.0477, 2341.480
490.5298, 2337.529
491.0120, 2335.566
491.4941, 2329.315
491.9762, 2315.723
492.4583, 2304.171
492.9404, 2313.471
493.4225, 2341.842
493.9047, 2360.035
494.3868, 2350.745
494.8689, 2330.214
495.3510, 2337.823
495.8331, 2370.606
496.3152, 2396.014
496.7974, 2380.070
497.2795, 2346.517
497.7616, 2328.777
498.2437, 2335.015
498.7258, 2346.268
499.2079, 2352.673
499.6901, 2354.879
500.1722, 2354.038
500.6543, 2348.475
501.1364, 2342.024
501.6185, 2335.321
502.1006, 2328.625
502.5828, 2324.212
503.0649, 2323.361
503.5470, 2324.354
504.0291, 2326.669
504.5112, 2334.921
504.9933, 2335.437
505.4755, 2320.971
505.9576, 2303.196
506.4397, 2304.146
506.9218, 2333.803
507.4039, 2353.458
507.8860, 2348.492
508.3682, 2323.476
508.8503, 2310.890
509.3324, 2312.233
509.8145, 2316.115
510.2966, 2311.350
510.7787, 2300.743
511.2609, 2298.271
511.7430, 2306.808
512.2251, 2319.670
512.7072, 2331.093
513.1893, 2340.482
513.6714, 2346.300
514.1536, 2348.083
514.6357, 2345.837
515.1178, 2335.896
515.5999, 2319.674
516.0820, 2309.375
516.5641, 2313.652
517.0463, 2324.407
517.5284, 2337.202
518.0105, 2356.552
518.4926, 2366.729
518.9747, 2357.685
519.4568, 2339.145
519.9390, 2326.150
520.4211, 2322.199
520.9032, 2319.612
521.3853, 2316.314
521.8674, 2312.688
522.3495, 2314.746
522.8317, 2326.231
523.3138, 2335.638
523.7959, 2333.389
524.2780, 2318.303
524.7601, 2309.856
525.2422, 2309.497
525.7244, 2314.484
526.2065, 2325.119
526.6886, 2339.528
527.1707, 2345.713
527.6528, 2334.911
528.1349, 2316.906
528.6171, 2303.232
529.0992, 2294.380
529.5813, 2293.646
530.0634, 2311.993
530.5455, 2334.444
531.0276, 2344.462
531.5098, 2335.923
531.9919, 2330.997
532.4740, 2345.997
532.9561, 2367.823
533.4382, 2381.165
533.9203, 2375.824
534.4025, 2368.765
534.8846, 2363.665
535.3667, 2359.888
535.8488, 2353.487
536.3309, 2337.799
536.8130, 2328.436
537.2952, 2334.046
537.7773, 2358.435
538.2594, 2376.010
538.7415, 2387.045
539.2236, 2391.311
539.7057, 2385.093
540.1879, 2368.681
540.6700, 2359.453
541.1521, 2364.323
541.6342, 2373.517
542.1163, 2362.764
542.5984, 2336.767
543.0806, 2321.813
543.5627, 2349.873
544.0448, 2388.423
544.5269, 2390.392
545.0090, 2353.285
545.4911, 2325.676
545.9733, 2352.636
546.4554, 2396.419
546.9375, 2420.366
547.4196, 2401.808
547.9017, 2383.225
548.3839, 2379.349
548.8660, 2382.522
549.3481, 2376.384
549.8302, 2345.313
550.3123, 2321.843
550.7944, 2315.110
551.2766, 2324.877
551.7587, 2335.327
552.2408, 2349.148
552.7229, 2358.268
553.2050, 2352.096
553.6871, 2329.227
554.1693, 2324.443
554.6514, 2344.071
555.1335, 2371.686
555.6156, 2385.033
556.0977, 2385.769
556.5798, 2380.656
557.0620, 2368.272
557.5441, 2354.691
558.0262, 2349.065
558.5083, 2349.980
558.9904, 2350.212
559.4725, 2341.600
559.9547, 2333.301
560.4368, 2333.850
560.9189, 2346.335
561.4010, 2356.719
561.8831, 2362.292
562.3652, 2362.842
562.8474, 2358.125
563.3295, 2335.926
563.8116, 2324.208
564.2937, 2330.538
564.7758, 2347.641
565.2579, 2355.375
565.7401, 2350.054
566.2222, 2344.122
566.7043, 2341.638
567.1864, 2342.526
567.6685, 2345.333
568.1506, 2349.845
568.6328, 2357.662
569.1149, 2376.457
569.5970, 2400.578
570.0791, 2409.150
570.5612, 2397.039
571.0433, 2375.509
571.5255, 2346.701
572.0076, 2317.794
572.4897, 2302.327
572.9718, 2312.380
573.4539, 2332.174
573.9360, 2361.510
574.4182, 2396.087
574.9003, 2413.977
575.3824, 2393.003
575.8645, 2366.901
576.3466, 2351.418
576.8287, 2349.149
577.3109, 2351.685
577.7930, 2365.614
578.2751, 2378.053
578.7572, 2374.734
579.2393, 2350.704
579.7214, 2332.010
580.2036, 2323.006
580.6857, 2319.840
581.1678, 2313.412
581.6499, 2304.035
582.1320, 2297.697
582.6141, 2296.244
583.0963, 2300.189
583.5784, 2314.875
584.0605, 2338.921
584.5426, 2357.606
585.0247, 2355.843
585.5068, 2345.587
585.9890, 2339.610
586.4711, 2342.097
586.9532, 2342.218
587.4354, 2327.884
587.9175, 2311.602
588.3996, 2308.210
588.8817, 2335.141
589.3638, 2357.375
589.8459, 2371.086
590.3281, 2376.764
590.8102, 2375.220
591.2923, 2361.428
591.7744, 2351.744
592.2565, 2354.774
592.7386, 2369.521
593.2208, 2377.581
593.7029, 2378.261
594.1850, 2376.555
594.6671, 2379.942
595.1492, 2384.746
595.6313, 2375.791
596.1135, 2346.076
596.5956, 2320.271
597.0777, 2330.668
597.5598, 2360.890
598.0419, 2381.443
598.5240, 2371.152
599.0062, 2358.179
599.4883, 2353.881
599.9704, 2357.672
600.4525, 2366.592
600.9346, 2389.566
601.4167, 2408.424
601.8989, 2414.095
602.3810, 2403.727
602.8631, 2401.430
603.3452, 2412.498
603.8273, 2423.558
604.3094, 2421.155
604.7916, 2403.116
605.2737, 2395.700
605.7558, 2404.473
606.2379, 2417.006
606.7200, 2414.483
607.2021, 2399.318
607.6843, 2359.162
608.1664, 2388.327
608.6485, 2404.760
609.1306, 2409.146
609.6127, 2365.401
610.0948, 2383.808
610.5770, 2377.306
611.0591, 2369.784
611.5412, 2396.938
612.0233, 2360.193
612.5054, 2386.797
612.9875, 2388.114
613.4697, 2401.003
613.9518, 2388.832
614.4339, 2384.401
614.9160, 2405.040
615.3981, 2411.797
615.8802, 2396.740
616.3624, 2410.366
616.8445, 2372.746
617.3266, 2380.095
617.8087, 2406.845
618.2908, 2393.049
618.7729, 2407.133
619.2551, 2410.598
619.7372, 2365.809
620.2193, 2404.939
620.7014, 2407.777
621.1835, 2373.350
621.6656, 2409.606
622.1478, 2380.316
622.6299, 2374.422
623.1120, 2386.135
623.5941, 2379.493
624.0762, 2401.789
624.5583, 2396.208
625.0405, 2388.135
625.5226, 2390.932
626.0047, 2362.928
626.4868, 2392.067
626.9689, 2382.172
627.4510, 2391.680
627.9332, 2405.586
628.4153, 2385.817
628.8974, 2401.699
629.3795, 2362.295
629.8616, 2369.151
630.3438, 2371.026
630.8259, 2402.468
631.3080, 2363.334
631.7901, 2368.904
632.2722, 2393.509
632.7543, 2391.480
633.2365, 2400.588
633.7186, 2376.728
634.2007, 2383.838
634.6828, 2382.412
635.1649, 2410.483
635.6470, 2415.268
636.1292, 2391.968
636.6113, 2368.787
637.0934, 2398.981
637.5755, 2378.586
638.0576, 2385.483
638.5397, 2364.193
639.0219, 2367.240
639.5040, 2369.902
639.9861, 2385.040
640.4682, 2357.458
640.9503, 2335.842
641.4324, 2327.772
641.9146, 2345.222
642.3967, 2373.622
642.8788, 2396.061
643.3609, 2411.232
643.8430, 2417.637
644.3251, 2403.874
644.8073, 2387.003
645.2894, 2382.335
