##NAMES=Guilleminite
##RRUFFID=R090007
##IDEAL CHEMISTRY=Ba(U^6+^O_2_)_3_(Se^4+^O_3_)_2_O_2_&#183;3H_2_O
##LOCALITY=Musonoi mine, Kolwezi, Katanga, Democratic Republic of the Congo
##OWNER=RRUFF
##SOURCE=William W. Pinch
##DESCRIPTION=Yellow transparent thin tabular crystals removed from the structure type specimen of Cooper & Hawthorne (1995) study
##STATUS=The identification of this mineral has been confirmed by single-crystal X-ray diffraction.
##URL=rruff.info/R090007
90.92609, 0.0000000E+00
91.40820, 147.4161
91.89032, 147.5415
92.37244, 147.2882
92.85455, 146.7729
93.33667, 146.6914
93.81879, 147.9158
94.30090, 150.0233
94.78302, 151.7071
95.26514, 152.4169
95.74725, 152.7411
96.22937, 154.1995
96.71149, 156.8763
97.19360, 159.5840
97.67572, 160.7253
98.15784, 160.3206
98.63995, 160.9961
99.12207, 163.6597
99.60419, 168.1063
100.0863, 172.6771
100.5684, 177.2382
101.0505, 182.2175
101.5327, 187.8925
102.0148, 193.7592
102.4969, 201.9171
102.9790, 213.3069
103.4611, 228.1369
103.9432, 244.3746
104.4253, 261.2487
104.9075, 279.8886
105.3896, 302.1406
105.8717, 329.2396
106.3538, 358.5791
106.8359, 389.6139
107.3180, 420.9330
107.8002, 455.8218
108.2823, 493.1480
108.7644, 533.7249
109.2465, 582.2462
109.7286, 639.9691
110.2107, 704.1206
110.6929, 774.5944
111.1750, 844.3442
111.6571, 927.3538
112.1392, 1025.502
112.6213, 1138.329
113.1034, 1264.006
113.5856, 1413.139
114.0677, 1571.090
114.5498, 1726.078
115.0319, 1873.152
115.5140, 2020.962
115.9961, 2174.408
116.4783, 2333.307
116.9604, 2482.781
117.4425, 2618.698
117.9246, 2743.675
118.4067, 2859.655
118.8888, 2959.040
119.3710, 3057.071
119.8531, 3161.834
120.3352, 3273.543
120.8173, 3390.796
121.2994, 3509.063
121.7815, 3631.547
122.2637, 3764.409
122.7458, 3907.493
123.2279, 4062.454
123.7100, 4232.396
124.1921, 4419.515
124.6742, 4613.795
125.1564, 4807.994
125.6385, 5002.221
126.1206, 5197.669
126.6027, 5397.686
127.0848, 5597.465
127.5669, 5786.794
128.0491, 5963.305
128.5312, 6130.675
129.0133, 6294.840
129.4954, 6454.108
129.9775, 6606.567
130.4596, 6750.370
130.9418, 6885.021
131.4239, 7013.623
131.9060, 7135.721
132.3881, 7253.380
132.8702, 7368.527
133.3523, 7481.585
133.8345, 7593.732
134.3166, 7705.267
134.7987, 7817.185
135.2808, 7929.643
135.7629, 8043.655
136.2450, 8160.036
136.7272, 8278.978
137.2093, 8400.710
137.6914, 8526.295
138.1735, 8657.840
138.6556, 8795.326
139.1377, 8934.905
139.6199, 9077.063
140.1020, 9220.575
140.5841, 9367.112
141.0662, 9515.709
141.5483, 9666.300
142.0304, 9819.824
142.5126, 9978.111
142.9947, 10127.96
143.4768, 10232.65
143.9589, 10268.03
144.4410, 10298.57
144.9231, 10324.47
145.4053, 10346.21
145.8874, 10364.92
146.3695, 10380.98
146.8516, 10393.99
147.3337, 10403.44
147.8158, 10408.53
148.2980, 10413.35
148.7801, 10419.57
149.2622, 10425.49
149.7443, 10427.35
150.2264, 10419.82
150.7085, 10413.17
151.1907, 10411.20
151.6728, 10419.20
152.1549, 10422.70
152.6370, 10413.06
153.1191, 10397.94
153.6012, 10396.90
154.0834, 10426.00
154.5655, 10457.52
155.0476, 10479.96
155.5297, 10486.57
156.0118, 10490.61
156.4939, 10488.97
156.9761, 10484.85
157.4582, 10489.26
157.9403, 10517.39
158.4224, 10546.48
158.9045, 10563.23
159.3866, 10555.05
159.8688, 10545.91
160.3509, 10541.67
160.8330, 10541.78
161.3151, 10543.45
161.7972, 10544.21
162.2793, 10547.06
162.7615, 10554.40
163.2436, 10578.54
163.7257, 10596.32
164.2078, 10593.88
164.6899, 10573.90
165.1720, 10555.37
165.6541, 10548.71
166.1363, 10547.36
166.6184, 10544.83
167.1005, 10534.47
167.5826, 10525.58
168.0647, 10526.42
168.5468, 10536.05
169.0290, 10542.91
169.5111, 10535.82
169.9932, 10522.62
170.4753, 10513.64
170.9574, 10517.99
171.4395, 10525.07
171.9217, 10524.90
172.4038, 10517.52
172.8859, 10510.88
173.3680, 10511.51
173.8501, 10517.14
174.3322, 10523.66
174.8144, 10528.79
175.2965, 10534.33
175.7786, 10543.05
176.2607, 10555.16
176.7428, 10567.03
177.2249, 10573.12
177.7071, 10576.05
178.1892, 10582.49
178.6713, 10600.26
179.1534, 10621.90
179.6355, 10633.51
180.1176, 10633.72
180.5998, 10632.50
181.0819, 10643.88
181.5640, 10663.67
182.0461, 10677.46
182.5282, 10671.98
183.0103, 10656.02
183.4925, 10651.05
183.9746, 10659.18
184.4567, 10671.33
184.9388, 10676.25
185.4209, 10675.08
185.9030, 10674.11
186.3852, 10678.00
186.8673, 10684.90
187.3494, 10688.27
187.8315, 10687.81
188.3136, 10684.43
188.7957, 10676.68
189.2779, 10665.27
189.7600, 10658.03
190.2421, 10661.13
190.7242, 10672.73
191.2063, 10682.67
191.6884, 10690.42
192.1706, 10696.31
192.6527, 10699.84
193.1348, 10700.78
193.6169, 10703.28
194.0990, 10711.29
194.5811, 10724.00
195.0633, 10730.88
195.5454, 10730.30
196.0275, 10725.80
196.5096, 10722.92
196.9917, 10721.48
197.4738, 10723.17
197.9560, 10731.53
198.4381, 10746.69
198.9202, 10754.39
199.4023, 10751.86
199.8844, 10745.20
200.3665, 10747.39
200.8487, 10760.05
201.3308, 10773.03
201.8129, 10781.17
202.2950, 10784.22
202.7771, 10786.17
203.2592, 10785.97
203.7414, 10786.01
204.2235, 10793.38
204.7056, 10810.58
205.1877, 10824.67
205.6698, 10827.21
206.1519, 10815.73
206.6341, 10807.50
207.1162, 10802.56
207.5983, 10801.39
208.0804, 10806.97
208.5625, 10821.89
209.0446, 10835.20
209.5268, 10840.81
210.0089, 10836.90
210.4910, 10833.98
210.9731, 10832.00
211.4552, 10831.55
211.9373, 10833.97
212.4195, 10839.62
212.9016, 10847.53
213.3837, 10859.29
213.8658, 10878.81
214.3479, 10886.94
214.8300, 10878.33
215.3121, 10861.04
215.7943, 10855.68
216.2764, 10866.84
216.7585, 10880.00
217.2406, 10889.04
217.7227, 10893.23
218.2048, 10894.46
218.6870, 10891.17
219.1691, 10885.43
219.6512, 10882.67
220.1333, 10884.95
220.6154, 10886.15
221.0975, 10883.37
221.5797, 10875.07
222.0618, 10867.52
222.5439, 10861.33
223.0260, 10855.88
223.5081, 10849.91
223.9902, 10845.19
224.4724, 10837.54
224.9545, 10824.71
225.4366, 10803.52
225.9187, 10786.98
226.4008, 10778.05
226.8829, 10772.46
227.3651, 10759.96
227.8472, 10734.56
228.3293, 10711.95
228.8114, 10699.04
229.2935, 10699.97
229.7757, 10697.58
230.2578, 10691.18
230.7399, 10681.57
231.2220, 10669.08
231.7041, 10648.16
232.1862, 10633.09
232.6684, 10630.51
233.1505, 10645.89
233.6326, 10655.52
234.1147, 10657.60
234.5968, 10654.85
235.0789, 10651.88
235.5611, 10648.05
236.0432, 10645.23
236.5253, 10644.91
237.0074, 10649.22
237.4895, 10648.31
237.9716, 10639.82
238.4538, 10627.68
238.9359, 10617.97
239.4180, 10610.42
239.9001, 10605.71
240.3822, 10604.43
240.8643, 10607.23
241.3465, 10610.63
241.8286, 10614.98
242.3107, 10619.64
242.7928, 10624.05
243.2749, 10629.78
243.7570, 10632.23
244.2392, 10628.57
244.7213, 10616.71
245.2034, 10611.88
245.6855, 10619.05
246.1676, 10629.13
246.6497, 10629.99
247.1319, 10615.59
247.6140, 10603.27
248.0961, 10597.43
248.5782, 10598.71
249.0603, 10601.79
249.5424, 10607.48
250.0246, 10614.44
250.5067, 10621.45
250.9888, 10629.17
251.4709, 10635.70
251.9530, 10640.28
252.4351, 10642.77
252.9173, 10645.59
253.3994, 10649.42
253.8815, 10652.39
254.3636, 10652.04
254.8457, 10645.41
255.3278, 10641.40
255.8100, 10642.61
256.2921, 10648.75
256.7742, 10651.11
257.2563, 10647.58
257.7384, 10643.04
258.2205, 10642.62
258.7026, 10650.13
259.1848, 10651.89
259.6669, 10642.30
260.1490, 10623.88
260.6311, 10620.00
261.1132, 10639.40
261.5953, 10659.56
262.0775, 10661.76
262.5596, 10637.83
263.0417, 10620.72
263.5238, 10617.05
264.0059, 10623.02
264.4880, 10618.67
264.9702, 10598.43
265.4523, 10578.37
265.9344, 10569.36
266.4165, 10574.35
266.8986, 10579.47
267.3807, 10585.05
267.8629, 10589.50
268.3450, 10587.35
268.8271, 10577.12
269.3092, 10564.22
269.7913, 10550.81
270.2734, 10536.67
270.7556, 10524.55
271.2377, 10514.60
271.7198, 10507.09
272.2019, 10502.43
272.6840, 10500.96
273.1661, 10501.96
273.6483, 10506.93
274.1304, 10517.17
274.6125, 10519.48
275.0946, 10510.25
275.5767, 10497.24
276.0588, 10495.12
276.5410, 10505.53
277.0231, 10516.80
277.5052, 10522.83
277.9873, 10523.26
278.4694, 10528.15
278.9515, 10538.56
279.4337, 10550.40
279.9158, 10557.60
280.3979, 10559.63
280.8800, 10561.48
281.3621, 10565.73
281.8442, 10571.87
282.3264, 10574.54
282.8085, 10574.08
283.2906, 10569.89
283.7727, 10558.80
284.2548, 10540.85
284.7369, 10527.61
285.2191, 10524.60
285.7012, 10528.86
286.1833, 10526.80
286.6654, 10517.55
287.1475, 10508.01
287.6296, 10506.13
288.1118, 10510.99
288.5939, 10513.57
289.0760, 10511.58
289.5581, 10505.98
290.0402, 10497.39
290.5223, 10485.52
291.0045, 10476.22
291.4866, 10478.49
291.9687, 10488.68
292.4508, 10488.72
292.9329, 10473.16
293.4150, 10449.65
293.8972, 10428.90
294.3793, 10411.05
294.8614, 10396.88
295.3435, 10389.40
295.8256, 10386.31
296.3077, 10381.09
296.7899, 10372.79
297.2720, 10363.12
297.7541, 10352.60
298.2362, 10342.09
298.7183, 10335.31
299.2004, 10339.87
299.6826, 10348.33
300.1647, 10344.96
300.6468, 10327.05
301.1289, 10306.47
301.6110, 10293.60
302.0931, 10287.38
302.5753, 10284.83
303.0574, 10288.86
303.5395, 10293.90
304.0216, 10292.30
304.5037, 10283.85
304.9858, 10272.47
305.4680, 10259.96
305.9501, 10247.08
306.4322, 10235.14
306.9143, 10224.48
307.3964, 10215.18
307.8785, 10206.21
308.3607, 10198.01
308.8428, 10193.61
309.3249, 10199.96
309.8070, 10209.52
310.2891, 10212.82
310.7712, 10202.06
311.2534, 10190.83
311.7355, 10188.45
312.2176, 10193.35
312.6997, 10200.09
313.1818, 10211.39
313.6639, 10219.89
314.1461, 10218.10
314.6282, 10198.85
315.1103, 10181.30
315.5924, 10177.22
316.0745, 10181.76
316.5566, 10184.81
317.0388, 10181.50
317.5209, 10176.24
318.0030, 10172.71
318.4851, 10173.18
318.9672, 10168.17
319.4493, 10145.63
319.9315, 10118.20
320.4136, 10102.39
320.8957, 10115.43
321.3778, 10129.73
321.8599, 10135.43
322.3420, 10131.39
322.8242, 10125.42
323.3063, 10115.33
323.7884, 10105.81
324.2705, 10100.91
324.7526, 10105.96
325.2347, 10110.73
325.7169, 10114.49
326.1990, 10117.01
326.6811, 10115.07
327.1632, 10102.95
327.6453, 10090.05
328.1274, 10081.60
328.6096, 10082.78
329.0917, 10082.05
329.5738, 10077.84
330.0559, 10071.44
330.5380, 10067.01
331.0201, 10067.93
331.5023, 10067.21
331.9844, 10061.30
332.4665, 10046.29
332.9486, 10036.04
333.4307, 10033.16
333.9128, 10033.66
334.3950, 10030.10
334.8771, 10017.90
335.3592, 10010.43
335.8413, 10014.90
336.3234, 10033.84
336.8055, 10037.53
337.2877, 10019.25
337.7698, 9994.901
338.2519, 9982.671
338.7340, 9986.149
339.2161, 9987.920
339.6982, 9983.063
340.1803, 9973.264
340.6624, 9970.392
341.1446, 9976.572
341.6267, 9982.706
342.1088, 9980.311
342.5909, 9969.016
343.0730, 9961.797
343.5551, 9961.960
344.0373, 9965.320
344.5194, 9961.432
345.0015, 9949.908
345.4836, 9938.056
345.9657, 9930.290
346.4478, 9925.979
346.9300, 9921.911
347.4121, 9917.944
347.8942, 9914.066
348.3763, 9908.799
348.8584, 9902.975
349.3405, 9900.911
349.8227, 9908.401
350.3048, 9920.401
350.7869, 9926.245
351.2690, 9925.978
351.7511, 9922.400
352.2332, 9915.565
352.7154, 9907.447
353.1975, 9902.069
353.6796, 9899.892
354.1617, 9901.691
354.6438, 9911.078
355.1259, 9926.386
355.6081, 9939.258
356.0902, 9944.979
356.5723, 9944.799
357.0544, 9938.906
357.5365, 9924.280
358.0186, 9910.842
358.5008, 9908.506
358.9829, 9912.342
359.4650, 9911.879
359.9471, 9895.393
360.4292, 9878.138
360.9113, 9872.143
361.3935, 9880.744
361.8756, 9885.495
362.3577, 9876.092
362.8398, 9860.100
363.3219, 9846.107
363.8040, 9839.971
364.2862, 9833.150
364.7683, 9823.743
365.2504, 9811.659
365.7325, 9796.305
366.2146, 9771.108
366.6967, 9746.770
367.1789, 9729.932
367.6610, 9727.174
368.1431, 9724.995
368.6252, 9723.064
369.1073, 9721.089
369.5894, 9718.236
370.0716, 9713.564
370.5537, 9708.911
371.0358, 9705.143
371.5179, 9703.226
372.0000, 9698.762
372.4821, 9689.287
372.9643, 9678.869
373.4464, 9673.442
373.9285, 9675.741
374.4106, 9676.953
374.8927, 9674.193
375.3748, 9667.596
375.8570, 9664.307
376.3391, 9665.600
376.8212, 9667.168
377.3033, 9664.616
377.7854, 9657.055
378.2675, 9651.909
378.7497, 9650.269
379.2318, 9651.538
379.7139, 9656.638
380.1960, 9666.385
380.6781, 9670.751
381.1602, 9659.775
381.6424, 9636.662
382.1245, 9622.427
382.6066, 9619.251
383.0887, 9619.857
383.5708, 9615.711
384.0529, 9607.455
384.5351, 9597.592
385.0172, 9585.080
385.4993, 9572.729
385.9814, 9565.264
386.4635, 9562.605
386.9456, 9562.343
387.4278, 9563.464
387.9099, 9565.445
388.3920, 9567.805
388.8741, 9571.416
389.3562, 9573.377
389.8383, 9567.938
390.3205, 9558.176
390.8026, 9553.045
391.2847, 9564.767
391.7668, 9578.021
392.2489, 9580.383
392.7310, 9568.799
393.2132, 9554.338
393.6953, 9539.857
394.1774, 9526.529
394.6595, 9515.696
395.1416, 9504.807
395.6237, 9499.584
396.1059, 9506.713
396.5880, 9525.036
397.0701, 9535.432
397.5522, 9528.263
398.0343, 9515.876
398.5164, 9505.455
398.9986, 9493.692
399.4807, 9489.268
399.9628, 9499.216
400.4449, 9516.228
400.9270, 9522.843
401.4091, 9509.393
401.8913, 9498.158
402.3734, 9497.635
402.8555, 9510.764
403.3376, 9517.305
403.8197, 9513.619
404.3018, 9507.479
404.7840, 9507.920
405.2661, 9517.322
405.7482, 9524.529
406.2303, 9526.635
406.7124, 9524.974
407.1945, 9524.846
407.6767, 9525.829
408.1588, 9529.783
408.6409, 9538.920
409.1230, 9552.813
409.6051, 9566.760
410.0872, 9580.747
410.5694, 9593.905
411.0515, 9604.832
411.5336, 9613.717
412.0157, 9621.108
412.4978, 9624.024
412.9799, 9626.729
413.4621, 9639.730
413.9442, 9663.018
414.4263, 9686.729
414.9084, 9704.180
415.3905, 9716.710
415.8727, 9725.740
416.3548, 9727.974
416.8369, 9733.262
417.3190, 9753.677
417.8011, 9784.155
418.2832, 9811.620
418.7654, 9824.126
419.2475, 9834.706
419.7296, 9852.497
420.2117, 9879.518
420.6938, 9907.424
421.1759, 9932.185
421.6581, 9956.189
422.1402, 9982.311
422.6223, 10015.56
423.1044, 10046.00
423.5865, 10069.32
424.0686, 10086.40
424.5508, 10105.42
425.0329, 10130.66
425.5150, 10154.99
425.9971, 10175.39
426.4792, 10191.66
426.9613, 10204.53
427.4435, 10213.33
427.9256, 10219.21
428.4077, 10223.58
428.8898, 10225.57
429.3719, 10228.53
429.8540, 10235.12
430.3362, 10244.58
430.8183, 10245.38
431.3004, 10236.65
431.7825, 10221.68
432.2646, 10200.80
432.7467, 10174.03
433.2289, 10151.23
433.7110, 10134.61
434.1931, 10121.58
434.6752, 10110.46
435.1573, 10100.50
435.6394, 10084.34
436.1216, 10054.31
436.6036, 10015.82
437.0858, 9982.362
437.5679, 9954.186
438.0500, 9924.819
438.5321, 9886.921
439.0142, 9844.292
439.4963, 9803.521
439.9785, 9767.926
440.4606, 9732.896
440.9427, 9695.424
441.4248, 9655.935
441.9069, 9615.922
442.3890, 9573.993
442.8712, 9533.527
443.3533, 9497.482
443.8354, 9467.196
444.3175, 9436.234
444.7996, 9399.308
445.2817, 9362.245
445.7639, 9330.814
446.2460, 9310.104
446.7281, 9290.316
447.2102, 9269.774
447.6923, 9248.463
448.1744, 9227.826
448.6566, 9205.851
449.1387, 9186.274
449.6208, 9171.298
450.1029, 9163.098
450.5850, 9152.178
451.0671, 9137.657
451.5493, 9121.440
452.0314, 9105.929
452.5135, 9091.106
452.9956, 9078.166
453.4777, 9068.672
453.9598, 9061.342
454.4420, 9049.813
454.9241, 9033.941
455.4062, 9016.532
455.8883, 8997.497
456.3704, 8978.229
456.8525, 8965.842
457.3347, 8961.970
457.8168, 8962.736
458.2989, 8966.045
458.7810, 8970.601
459.2631, 8972.436
459.7452, 8968.891
460.2274, 8962.352
460.7095, 8954.307
461.1916, 8945.035
461.6737, 8937.392
462.1558, 8933.208
462.6379, 8931.281
463.1201, 8930.740
463.6022, 8932.071
464.0843, 8933.012
464.5664, 8931.128
465.0485, 8928.443
465.5306, 8928.218
466.0128, 8933.917
466.4949, 8939.376
466.9770, 8942.965
467.4591, 8944.599
467.9412, 8944.909
468.4233, 8943.749
468.9055, 8941.548
469.3876, 8938.302
469.8697, 8932.600
470.3518, 8929.554
470.8339, 8930.861
471.3160, 8933.928
471.7982, 8933.680
472.2803, 8929.502
472.7624, 8924.728
473.2445, 8920.711
473.7266, 8917.047
474.2087, 8911.929
474.6909, 8905.445
475.1730, 8896.269
475.6551, 8880.821
476.1372, 8861.055
476.6193, 8846.006
477.1014, 8838.004
477.5836, 8831.967
478.0657, 8822.908
478.5478, 8810.822
479.0299, 8796.060
479.5120, 8778.770
479.9941, 8758.684
480.4763, 8732.395
480.9584, 8701.042
481.4405, 8676.168
481.9226, 8672.014
482.4047, 8672.482
482.8868, 8663.877
483.3690, 8638.795
483.8511, 8614.698
484.3332, 8597.290
484.8153, 8583.918
485.2974, 8569.850
485.7795, 8554.191
486.2617, 8538.260
486.7438, 8521.455
487.2259, 8503.809
487.7080, 8489.729
488.1901, 8480.704
488.6722, 8473.209
489.1544, 8465.435
489.6365, 8457.929
490.1186, 8447.960
490.6007, 8434.225
491.0828, 8419.810
491.5649, 8409.682
492.0471, 8404.085
492.5292, 8398.671
493.0113, 8391.606
493.4934, 8383.924
493.9755, 8379.324
494.4576, 8377.576
494.9398, 8374.420
495.4219, 8366.670
495.9040, 8355.239
496.3861, 8340.623
496.8682, 8321.520
497.3503, 8305.665
497.8325, 8304.678
498.3146, 8309.986
498.7967, 8308.273
499.2788, 8286.250
499.7609, 8263.783
500.2430, 8253.253
500.7252, 8251.767
501.2073, 8245.580
501.6894, 8222.412
502.1715, 8200.646
502.6536, 8190.077
503.1357, 8197.228
503.6179, 8199.787
504.1000, 8195.493
504.5821, 8187.492
505.0642, 8178.255
505.5463, 8165.522
506.0284, 8156.571
506.5106, 8153.942
506.9927, 8155.141
507.4748, 8151.799
507.9569, 8142.997
508.4390, 8133.454
508.9211, 8124.452
509.4033, 8116.243
509.8854, 8112.425
510.3675, 8113.485
510.8496, 8114.570
511.3317, 8109.915
511.8138, 8101.464
512.2960, 8094.657
512.7781, 8091.026
513.2602, 8088.655
513.7423, 8087.538
514.2244, 8086.259
514.7065, 8081.303
515.1887, 8065.908
515.6708, 8050.306
516.1529, 8041.827
516.6350, 8040.534
517.1171, 8040.241
517.5992, 8041.268
518.0814, 8040.972
518.5635, 8037.502
519.0456, 8028.619
519.5277, 8019.810
520.0098, 8009.608
520.4919, 8000.369
520.9741, 7996.384
521.4562, 8002.194
521.9383, 8003.825
522.4204, 7996.143
522.9025, 7981.277
523.3846, 7974.041
523.8668, 7976.203
524.3489, 7978.411
524.8310, 7973.658
525.3131, 7962.931
525.7952, 7955.739
526.2773, 7952.848
526.7595, 7951.044
527.2416, 7947.815
527.7237, 7942.903
528.2058, 7935.363
528.6879, 7924.270
529.1700, 7911.696
529.6522, 7897.171
530.1343, 7882.637
530.6164, 7873.142
531.0985, 7877.073
531.5806, 7882.480
532.0627, 7881.276
532.5449, 7872.489
533.0270, 7865.086
533.5091, 7863.088
533.9912, 7862.366
534.4733, 7860.025
534.9554, 7855.486
535.4376, 7849.240
535.9197, 7838.302
536.4018, 7826.975
536.8839, 7824.266
537.3660, 7834.532
537.8481, 7841.224
538.3303, 7839.125
538.8124, 7829.819
539.2945, 7822.127
539.7766, 7816.335
540.2587, 7809.830
540.7408, 7798.955
541.2230, 7785.674
541.7051, 7778.854
542.1872, 7779.907
542.6693, 7781.430
543.1514, 7774.461
543.6335, 7763.057
544.1157, 7754.509
544.5978, 7752.023
545.0799, 7751.810
545.5620, 7751.324
546.0441, 7751.134
546.5262, 7752.620
547.0084, 7761.727
547.4905, 7767.638
547.9726, 7764.114
548.4547, 7749.949
548.9368, 7738.083
549.4189, 7728.817
549.9011, 7722.671
550.3832, 7720.424
550.8653, 7724.755
551.3474, 7726.308
551.8295, 7724.090
552.3116, 7719.910
552.7938, 7716.774
553.2759, 7714.948
553.7580, 7711.070
554.2401, 7703.376
554.7222, 7693.817
555.2043, 7687.889
555.6865, 7685.323
556.1686, 7682.201
556.6507, 7676.200
557.1328, 7668.251
557.6149, 7658.733
558.0970, 7647.732
558.5792, 7638.444
559.0613, 7634.124
559.5434, 7632.394
560.0255, 7631.008
560.5076, 7629.981
560.9897, 7628.420
561.4719, 7625.560
561.9540, 7622.065
562.4361, 7619.078
562.9182, 7616.794
563.4003, 7614.900
563.8824, 7614.403
564.3646, 7614.567
564.8467, 7609.384
565.3288, 7594.876
565.8109, 7582.905
566.2930, 7581.429
566.7751, 7590.981
567.2573, 7593.478
567.7394, 7587.888
568.2215, 7579.750
568.7036, 7575.501
569.1857, 7573.691
569.6678, 7567.866
570.1500, 7554.895
570.6321, 7542.174
571.1142, 7541.327
571.5963, 7547.400
572.0784, 7549.193
572.5605, 7538.855
573.0427, 7525.409
573.5248, 7513.202
574.0069, 7502.495
574.4890, 7492.967
574.9711, 7485.414
575.4532, 7478.647
575.9354, 7472.187
576.4175, 7465.940
576.8996, 7460.445
577.3817, 7455.894
577.8638, 7451.970
578.3459, 7448.409
578.8281, 7445.371
579.3102, 7442.069
579.7923, 7438.409
580.2744, 7434.294
580.7565, 7429.259
581.2386, 7423.346
581.7208, 7418.248
582.2029, 7415.860
582.6850, 7413.693
583.1671, 7406.664
583.6492, 7395.368
584.1313, 7383.348
584.6134, 7369.612
585.0955, 7358.131
585.5776, 7354.000
