##NAMES=Guilleminite
##RRUFFID=R090007
##IDEAL CHEMISTRY=Ba(U^6+^O_2_)_3_(Se^4+^O_3_)_2_O_2_&#183;3H_2_O
##LOCALITY=Musonoi mine, Kolwezi, Katanga, Democratic Republic of the Congo
##OWNER=RRUFF
##SOURCE=William W. Pinch
##DESCRIPTION=Yellow transparent thin tabular crystals removed from the structure type specimen of Cooper & Hawthorne (1995) study
##STATUS=The identification of this mineral has been confirmed by single-crystal X-ray diffraction.
##URL=rruff.info/R090007
92.37695, 130.5515
92.85907, 129.0513
93.34119, 129.3590
93.82330, 130.3547
94.30542, 131.1415
94.78754, 131.7855
95.26965, 132.4648
95.75177, 132.8049
96.23389, 132.6000
96.71600, 132.1903
97.19812, 131.9797
97.68024, 132.0695
98.16235, 132.3022
98.64447, 132.4966
99.12659, 132.7045
99.60870, 132.4512
100.0908, 131.0606
100.5729, 129.9297
101.0551, 130.7262
101.5372, 134.5132
102.0193, 140.3705
102.5014, 143.4856
102.9835, 141.6701
103.4656, 139.0932
103.9478, 135.7133
104.4299, 132.0284
104.9120, 128.7941
105.3941, 126.6470
105.8762, 125.6843
106.3583, 124.6066
106.8405, 123.3971
107.3226, 122.0762
107.8047, 120.5326
108.2868, 118.7944
108.7689, 117.1619
109.2510, 116.0656
109.7332, 115.5493
110.2153, 114.8481
110.6974, 113.6667
111.1795, 112.2918
111.6616, 111.1299
112.1437, 110.2701
112.6259, 109.6636
113.1080, 109.2938
113.5901, 109.1426
114.0722, 109.0151
114.5543, 108.7346
115.0364, 108.3146
115.5185, 108.0739
116.0007, 108.1333
116.4828, 108.3729
116.9649, 108.6860
117.4470, 109.0636
117.9291, 109.6237
118.4112, 110.5867
118.8934, 112.1634
119.3755, 113.6307
119.8576, 114.8587
120.3397, 115.9902
120.8218, 117.1473
121.3039, 118.3781
121.7861, 119.6281
122.2682, 120.7509
122.7503, 121.7301
123.2324, 122.5626
123.7145, 123.1143
124.1966, 123.5388
124.6788, 124.0563
125.1609, 124.8094
125.6430, 125.7630
126.1251, 126.6087
126.6072, 127.3278
127.0893, 127.9916
127.5715, 128.5783
128.0536, 129.1133
128.5357, 129.6982
129.0178, 130.4030
129.4999, 131.2376
129.9821, 132.1544
130.4642, 133.2824
130.9463, 134.4312
131.4284, 135.3858
131.9105, 136.1072
132.3926, 136.7836
132.8748, 137.4776
133.3569, 138.2284
133.8390, 139.1304
134.3211, 140.4055
134.8032, 141.8903
135.2853, 143.0040
135.7674, 143.4843
136.2496, 143.9246
136.7317, 144.7450
137.2138, 145.7921
137.6959, 146.6792
138.1780, 147.2440
138.6601, 147.5391
139.1423, 146.9461
139.6244, 144.8611
140.1065, 142.3488
140.5886, 139.6266
141.0707, 136.8002
141.5528, 133.9439
142.0350, 131.1603
142.5171, 128.5134
142.9992, 125.7505
143.4813, 122.5331
143.9634, 119.4539
144.4455, 116.8932
144.9277, 114.9546
145.4098, 113.4304
145.8919, 112.0050
146.3740, 110.7295
146.8561, 109.4686
147.3382, 108.1761
147.8204, 106.9038
148.3025, 105.7195
148.7846, 104.6506
149.2667, 103.6606
149.7488, 102.6805
150.2309, 101.7236
150.7131, 100.7286
151.1952, 99.67171
151.6773, 98.55806
152.1594, 97.42644
152.6415, 96.30772
153.1236, 95.14725
153.6058, 93.85765
154.0879, 92.40162
154.5700, 90.94886
155.0521, 89.66380
155.5342, 88.55904
156.0163, 87.44057
156.4985, 86.26865
156.9806, 85.04128
157.4627, 83.70450
157.9448, 82.21252
158.4269, 80.75159
158.9090, 79.62415
159.3912, 78.96996
159.8733, 78.31760
160.3554, 77.55928
160.8375, 76.74588
161.3196, 75.87843
161.8017, 74.94941
162.2839, 74.03300
162.7660, 73.36948
163.2481, 73.18824
163.7302, 72.97037
164.2123, 72.60410
164.6944, 72.16867
165.1766, 71.76379
165.6587, 71.44360
166.1408, 71.20065
166.6229, 70.97902
167.1050, 70.86707
167.5871, 70.68167
168.0693, 70.27621
168.5514, 69.76818
169.0335, 69.38050
169.5156, 69.26330
169.9977, 69.40638
170.4798, 69.60181
170.9620, 69.83920
171.4441, 70.12487
171.9262, 70.52647
172.4083, 71.00555
172.8904, 71.38677
173.3725, 71.47847
173.8547, 71.33652
174.3368, 71.46689
174.8189, 72.04249
175.3010, 72.76856
175.7831, 73.40871
176.2652, 73.95247
176.7474, 74.50887
177.2295, 75.13021
177.7116, 75.82884
178.1937, 76.62675
178.6758, 77.71279
179.1579, 78.83755
179.6401, 79.57191
180.1222, 79.77053
180.6043, 79.99473
181.0864, 80.69018
181.5685, 81.63934
182.0506, 82.48908
182.5328, 83.01643
183.0149, 83.33346
183.4970, 83.79407
183.9791, 84.43743
184.4612, 85.18130
184.9433, 86.03539
185.4255, 86.94186
185.9076, 87.80096
186.3897, 88.51359
186.8718, 89.10508
187.3539, 89.84193
187.8360, 90.98330
188.3182, 92.00086
188.8003, 92.68276
189.2824, 93.12199
189.7645, 93.48612
190.2466, 93.84290
190.7287, 94.17161
191.2109, 95.06352
191.6930, 97.26362
192.1751, 99.31409
192.6572, 100.5646
193.1393, 101.2159
193.6214, 101.9073
194.1036, 103.2104
194.5857, 105.2284
195.0678, 107.0787
195.5499, 108.8495
196.0320, 110.4263
196.5141, 111.6406
196.9963, 112.5614
197.4784, 113.4811
197.9605, 114.6838
198.4426, 116.2268
198.9247, 117.5776
199.4068, 118.5504
199.8890, 119.4899
200.3711, 120.7141
200.8532, 122.2182
201.3353, 123.6218
201.8174, 124.5527
202.2995, 124.9677
202.7817, 125.3997
203.2638, 125.8747
203.7459, 126.3697
204.2280, 126.8849
204.7101, 127.4259
205.1922, 127.9230
205.6744, 128.2925
206.1565, 128.5584
206.6386, 128.8195
207.1207, 129.1368
207.6028, 129.4448
208.0849, 129.6273
208.5671, 129.6444
209.0492, 129.6608
209.5313, 129.7999
210.0134, 130.0348
210.4955, 130.3321
210.9776, 130.7652
211.4598, 131.2434
211.9419, 131.5434
212.4240, 131.5836
212.9061, 131.6064
213.3882, 131.8179
213.8703, 132.1150
214.3525, 132.3020
214.8346, 132.2442
215.3167, 131.9989
215.7988, 131.7913
216.2809, 131.7224
216.7630, 131.5191
217.2451, 130.9679
217.7273, 130.2325
218.2094, 129.6193
218.6915, 129.4064
219.1736, 129.4718
219.6557, 129.0582
220.1378, 127.7762
220.6200, 126.4550
221.1021, 125.4507
221.5842, 124.5770
222.0663, 123.4984
222.5484, 121.9721
223.0305, 120.0490
223.5127, 118.2219
223.9948, 116.8965
224.4769, 115.2364
224.9590, 112.8703
225.4411, 110.0585
225.9232, 107.2540
226.4054, 104.7459
226.8875, 102.5176
227.3696, 100.1800
227.8517, 97.59270
228.3338, 95.05756
228.8159, 92.66521
229.2981, 90.37170
229.7802, 88.09560
230.2623, 85.75975
230.7444, 83.38708
231.2265, 81.30659
231.7086, 79.56444
232.1908, 78.03242
232.6729, 76.79859
233.1550, 75.74736
233.6371, 74.65645
234.1192, 73.38082
234.6013, 71.95876
235.0835, 70.68657
235.5656, 69.42334
236.0477, 68.41245
236.5298, 67.85954
237.0119, 67.61946
237.4940, 67.37343
237.9762, 66.94161
238.4583, 66.37125
238.9404, 65.88627
239.4225, 65.61144
239.9046, 65.27034
240.3867, 64.66239
240.8689, 63.90739
241.3510, 63.31156
241.8331, 63.04335
242.3152, 63.02075
242.7973, 62.99097
243.2794, 62.99525
243.7616, 62.93382
244.2437, 62.77320
244.7258, 62.51497
245.2079, 62.13085
245.6900, 61.53713
246.1721, 60.90120
246.6543, 60.59108
247.1364, 60.75630
247.6185, 60.81633
248.1006, 60.34791
248.5827, 59.50343
249.0648, 58.84750
249.5470, 58.65230
250.0291, 58.62987
250.5112, 58.32434
250.9933, 57.69123
251.4754, 57.07293
251.9576, 56.68594
252.4397, 56.48219
252.9218, 56.22995
253.4039, 55.83272
253.8860, 55.41811
254.3681, 55.09755
254.8503, 54.86778
255.3324, 54.75014
255.8145, 54.84519
256.2966, 55.09644
256.7787, 55.19125
257.2608, 54.94871
257.7430, 54.70617
258.2251, 54.75756
258.7072, 55.06843
259.1893, 55.41042
259.6714, 55.61767
260.1535, 55.72306
260.6357, 55.92349
261.1178, 56.30572
261.5999, 56.69448
262.0820, 56.94690
262.5641, 57.10798
263.0462, 57.31715
263.5284, 57.71847
264.0105, 58.26546
264.4926, 58.67099
264.9747, 58.79337
265.4568, 58.97517
265.9389, 59.42782
266.4211, 60.05260
266.9032, 60.64529
267.3853, 61.07680
267.8674, 61.38000
268.3495, 61.70929
268.8316, 62.12217
269.3138, 62.46791
269.7959, 62.72160
270.2780, 62.87899
270.7601, 62.92303
271.2422, 62.82434
271.7243, 62.62735
272.2065, 62.48564
272.6886, 62.45222
273.1707, 62.38550
273.6528, 62.16897
274.1349, 61.93029
274.6170, 61.83218
275.0992, 61.95648
275.5813, 62.21730
276.0634, 62.43850
276.5455, 62.77390
277.0276, 62.74765
277.5097, 61.98548
277.9919, 61.03886
278.4740, 60.43168
278.9561, 60.34800
279.4382, 60.56585
279.9203, 60.67385
280.4024, 60.60917
280.8846, 60.56366
281.3667, 60.60809
281.8488, 60.64446
282.3309, 60.60781
282.8130, 60.47953
283.2951, 60.27306
283.7773, 60.03725
284.2594, 59.88027
284.7415, 59.40009
285.2236, 58.38997
285.7057, 57.25391
286.1878, 56.25746
286.6700, 55.41526
287.1521, 54.52971
287.6342, 53.34052
288.1163, 51.75187
288.5984, 50.26142
289.0805, 48.91724
289.5627, 47.62401
290.0448, 46.34878
290.5269, 45.08521
291.0090, 43.84194
291.4911, 42.61932
291.9732, 41.41529
292.4554, 40.28938
292.9375, 39.21038
293.4196, 38.23485
293.9017, 37.44102
294.3838, 36.76827
294.8659, 36.07719
295.3481, 35.25298
295.8302, 34.31774
296.3123, 33.61670
296.7944, 33.47292
297.2765, 33.22515
297.7586, 32.67268
298.2408, 31.95040
298.7229, 31.26480
299.2050, 30.73144
299.6871, 30.32317
300.1692, 29.94096
300.6513, 29.62805
301.1335, 29.29179
301.6156, 28.87299
302.0977, 28.45103
302.5798, 28.12588
303.0619, 27.93617
303.5440, 27.81516
304.0262, 27.61736
304.5083, 27.27398
304.9904, 26.95419
305.4725, 26.63897
305.9546, 26.35914
306.4367, 26.13152
306.9189, 25.96354
307.4010, 25.86411
307.8831, 25.86685
308.3652, 26.08822
308.8473, 26.09193
309.3294, 25.71531
309.8116, 25.28994
310.2937, 24.99689
310.7758, 24.85552
311.2579, 24.80674
311.7400, 24.80456
312.2221, 24.86490
312.7043, 24.85365
313.1864, 24.71741
313.6685, 24.57331
314.1506, 24.44366
314.6327, 24.34277
315.1148, 24.29512
315.5970, 24.32507
316.0791, 24.42475
316.5612, 24.48470
317.0433, 24.47538
317.5254, 24.45967
318.0075, 24.45762
318.4897, 24.45575
318.9718, 24.41509
319.4539, 24.31191
319.9360, 24.19116
320.4181, 24.20087
320.9002, 24.55315
321.3824, 24.77002
321.8645, 24.74524
322.3466, 24.61603
322.8287, 24.49545
323.3108, 24.42731
323.7929, 24.41747
324.2751, 24.48714
324.7572, 24.73130
325.2393, 24.86819
325.7214, 24.79216
326.2035, 24.70260
326.6856, 24.75132
327.1678, 24.94567
327.6499, 25.17549
328.1320, 25.31737
328.6141, 25.34390
329.0962, 25.41943
329.5783, 25.63974
330.0605, 25.81226
330.5426, 25.83695
331.0247, 25.74121
331.5068, 25.60435
331.9889, 25.47779
332.4710, 25.36487
332.9532, 25.32206
333.4353, 25.39937
333.9174, 25.49726
334.3995, 25.62921
334.8816, 25.76260
335.3637, 25.83683
335.8459, 25.81766
336.3280, 25.76047
336.8101, 25.83540
337.2922, 26.16147
337.7743, 26.44987
338.2564, 26.71267
338.7386, 26.91428
339.2206, 26.98909
339.7028, 26.93237
340.1849, 26.84275
340.6670, 26.87449
341.1491, 27.08220
341.6312, 27.27782
342.1133, 27.45938
342.5955, 27.63134
343.0776, 27.78762
343.5597, 27.93378
344.0418, 28.08831
344.5239, 28.27277
345.0060, 28.49017
345.4882, 28.68431
345.9703, 28.78464
346.4524, 28.93205
346.9345, 29.19585
347.4166, 29.53186
347.8987, 29.86081
348.3809, 30.13314
348.8630, 30.36142
349.3451, 30.59247
349.8272, 30.84584
350.3093, 31.07267
350.7914, 31.19876
351.2736, 31.32756
351.7557, 31.60159
352.2378, 32.06813
352.7199, 32.56941
353.2020, 32.81604
353.6841, 32.70585
354.1663, 32.65056
354.6484, 32.75401
355.1305, 32.87854
355.6126, 32.94954
356.0947, 32.95963
356.5768, 32.94206
357.0590, 32.93660
357.5411, 32.94613
358.0232, 32.90541
358.5053, 32.85814
358.9874, 32.69886
359.4695, 32.30928
359.9517, 31.78444
360.4338, 31.32379
360.9159, 31.07193
361.3980, 30.94713
361.8801, 30.67830
362.3622, 30.18962
362.8444, 29.72606
363.3265, 29.39878
363.8086, 29.12731
364.2907, 28.81815
364.7728, 28.43273
365.2549, 28.05467
365.7371, 27.83343
366.2192, 27.79750
366.7013, 27.63896
367.1834, 27.13106
367.6655, 26.60223
368.1476, 26.29312
368.6298, 26.20962
369.1119, 26.21909
369.5940, 26.27592
370.0761, 26.35894
370.5582, 26.36057
371.0403, 26.25119
371.5225, 26.09500
372.0046, 25.89171
372.4867, 25.67638
372.9688, 25.53568
373.4509, 25.55193
373.9330, 25.63126
374.4152, 25.62568
374.8973, 25.52420
375.3794, 25.42884
375.8615, 25.37393
376.3436, 25.36600
376.8257, 25.42293
377.3079, 25.57547
377.7900, 25.72008
378.2721, 25.66827
378.7542, 25.51024
379.2363, 25.48359
379.7184, 25.85311
380.2006, 26.13528
380.6827, 26.33475
381.1648, 26.20389
381.6469, 26.49958
382.1290, 26.62432
382.6111, 26.74206
383.0933, 27.09780
383.5754, 27.01500
384.0575, 27.36693
384.5396, 27.54533
385.0217, 27.80315
385.5038, 27.79375
385.9860, 28.29987
386.4681, 28.81777
386.9502, 29.05896
387.4323, 29.09626
387.9144, 29.21023
388.3965, 29.55811
388.8787, 30.02409
389.3608, 30.28117
389.8429, 30.19817
390.3250, 30.22354
390.8071, 30.53644
391.2892, 30.96817
391.7714, 31.29496
392.2535, 31.46993
392.7356, 31.64528
393.2177, 32.01998
393.6998, 32.67043
394.1819, 33.12617
394.6641, 33.18795
395.1462, 33.25371
395.6283, 33.57207
396.1104, 34.09218
396.5925, 34.59732
397.0746, 34.93671
397.5568, 35.16246
398.0389, 35.58596
398.5210, 36.51122
399.0031, 37.26571
399.4852, 37.62759
399.9673, 37.85077
400.4495, 38.20808
400.9316, 38.78632
401.4137, 39.50212
401.8958, 40.24186
402.3779, 41.03800
402.8600, 41.76501
403.3422, 42.33073
403.8243, 42.92300
404.3064, 43.58899
404.7885, 44.36131
405.2706, 45.31269
405.7527, 46.53593
406.2349, 47.97949
406.7170, 49.15380
407.1991, 49.74507
407.6812, 50.50761
408.1633, 51.60096
408.6454, 52.94516
409.1276, 54.48643
409.6097, 56.20558
410.0918, 58.00944
410.5739, 59.74708
411.0560, 61.37202
411.5381, 63.14418
412.0203, 65.12054
412.5024, 67.24752
412.9845, 69.49361
413.4666, 71.85207
413.9487, 74.33364
414.4308, 76.91201
414.9130, 79.60742
415.3951, 82.50160
415.8772, 85.61134
416.3593, 88.88110
416.8414, 92.41752
417.3235, 96.05788
417.8057, 99.55359
418.2878, 102.7523
418.7699, 105.9857
419.2520, 109.6493
419.7341, 113.7011
420.2162, 117.7115
420.6984, 121.4142
421.1805, 125.1881
421.6626, 129.5709
422.1447, 134.5935
422.6268, 139.4897
423.1089, 143.8862
423.5911, 148.0373
424.0732, 152.3187
424.5553, 156.7530
425.0374, 161.1901
425.5195, 165.4037
426.0016, 169.4949
426.4838, 174.0651
426.9659, 179.8362
427.4480, 185.3086
427.9301, 189.5627
428.4122, 193.0336
428.8943, 196.6265
429.3765, 200.7107
429.8586, 204.9803
430.3407, 208.9189
430.8228, 212.4893
431.3049, 215.7481
431.7870, 218.7843
432.2692, 221.4311
432.7513, 223.6164
433.2334, 225.2986
433.7155, 226.4583
434.1976, 227.1046
434.6797, 227.2128
435.1619, 226.3694
435.6440, 224.4457
436.1261, 221.6448
436.6082, 217.8025
437.0903, 213.1758
437.5724, 207.9679
438.0546, 202.2767
438.5367, 196.1637
439.0188, 189.6792
439.5009, 182.7223
439.9830, 175.7276
440.4651, 168.4476
440.9473, 161.3057
441.4294, 154.4218
441.9115, 147.8494
442.3936, 141.7177
442.8757, 136.2569
443.3578, 131.2313
443.8400, 125.9298
444.3221, 120.0356
444.8042, 114.6109
445.2863, 110.2505
445.7684, 106.3997
446.2505, 102.6501
446.7327, 98.92068
447.2148, 95.34270
447.6969, 92.01713
448.1790, 88.95470
448.6611, 86.18742
449.1432, 83.76033
449.6254, 81.57729
450.1075, 79.60134
450.5896, 77.80323
451.0717, 76.11276
451.5538, 74.36632
452.0359, 72.82994
452.5181, 71.84686
453.0002, 71.35873
453.4823, 70.98286
453.9644, 70.55959
454.4465, 70.13029
454.9286, 69.77660
455.4108, 69.46109
455.8929, 69.29607
456.3750, 69.30760
456.8571, 69.48216
457.3392, 69.84254
457.8214, 70.37682
458.3035, 70.97613
458.7856, 71.53731
459.2677, 72.05965
459.7498, 72.73827
460.2319, 73.73129
460.7141, 74.67345
461.1962, 75.38213
461.6783, 76.00388
462.1604, 76.73843
462.6425, 77.66295
463.1246, 78.71862
463.6068, 79.79784
464.0889, 80.83616
464.5710, 82.05966
465.0531, 83.75447
465.5352, 85.35521
466.0173, 86.50966
466.4995, 87.34048
466.9816, 88.21577
467.4637, 89.39242
467.9458, 90.76589
468.4279, 92.02843
468.9100, 93.20918
469.3922, 94.21163
469.8743, 94.97964
470.3564, 95.58076
470.8385, 96.06907
471.3206, 96.45113
471.8027, 96.65095
472.2849, 96.60387
472.7670, 96.32481
473.2491, 95.88581
473.7312, 95.31786
474.2133, 94.51770
474.6954, 93.41953
475.1776, 92.02288
475.6597, 90.27944
476.1418, 87.98750
476.6239, 85.59527
477.1060, 83.45985
477.5881, 81.49078
478.0703, 79.34693
478.5524, 76.91389
479.0345, 74.34592
479.5166, 71.89036
479.9987, 69.57842
480.4808, 67.19236
480.9630, 64.54273
481.4451, 61.97251
481.9272, 59.79644
482.4093, 57.93148
482.8914, 56.05445
483.3735, 53.94860
483.8557, 51.72207
484.3378, 49.74958
484.8199, 48.20156
485.3020, 46.68728
485.7841, 45.13789
486.2662, 43.64468
486.7484, 42.27654
487.2305, 41.03728
487.7126, 39.90066
488.1947, 38.84513
488.6768, 37.86524
489.1589, 36.86531
489.6411, 35.75587
490.1232, 34.77148
490.6053, 34.04267
491.0874, 33.42997
491.5695, 32.78896
492.0516, 32.08200
492.5338, 31.32738
493.0159, 30.49663
493.4980, 29.60868
493.9801, 28.86885
494.4622, 28.33292
494.9443, 27.90155
495.4265, 27.54301
495.9086, 27.22894
496.3907, 26.88339
496.8728, 26.50430
497.3549, 26.07181
497.8370, 25.50535
498.3192, 24.85810
498.8013, 24.34745
499.2834, 24.07991
499.7655, 23.92164
500.2476, 23.64930
500.7297, 23.21854
501.2119, 22.83140
501.6940, 22.49736
502.1761, 22.21277
502.6582, 22.01802
503.1403, 21.87593
503.6224, 21.66611
504.1045, 21.30396
504.5866, 20.84808
505.0688, 20.50764
505.5509, 20.32814
506.0330, 20.20090
506.5151, 20.19241
506.9972, 20.17395
507.4793, 20.03087
507.9615, 19.77154
508.4436, 19.50198
508.9257, 19.31332
509.4078, 19.19030
509.8899, 19.04114
510.3720, 18.83896
510.8542, 18.66894
511.3363, 18.61872
511.8184, 18.58682
512.3005, 18.44979
512.7827, 18.17449
513.2648, 17.91828
513.7469, 17.82177
514.2290, 17.83626
514.7111, 17.82671
515.1932, 17.78035
515.6754, 17.68751
516.1575, 17.51337
516.6396, 17.28238
517.1217, 17.11193
517.6038, 17.06372
518.0859, 17.01020
518.5681, 16.88080
519.0502, 16.71129
519.5323, 16.54904
520.0144, 16.40789
520.4965, 16.31400
520.9786, 16.30617
521.4608, 16.40293
521.9429, 16.47427
522.4250, 16.54346
522.9071, 16.56753
523.3892, 16.49333
523.8713, 16.37485
524.3535, 16.29877
524.8356, 16.30043
525.3177, 16.32995
525.7998, 16.29667
526.2819, 16.17983
526.7640, 16.10547
527.2462, 16.12489
527.7283, 16.14311
528.2104, 16.08568
528.6925, 15.99328
529.1746, 15.96783
529.6567, 16.08495
530.1389, 16.23658
530.6210, 16.27226
531.1031, 16.19791
531.5852, 16.11152
532.0673, 16.02608
532.5494, 15.96216
533.0316, 15.93786
533.5137, 15.94996
533.9958, 16.02614
534.4779, 16.26696
534.9600, 16.49530
535.4421, 16.55808
535.9243, 16.48498
536.4064, 16.38207
536.8885, 16.29281
537.3706, 16.23857
537.8527, 16.26928
538.3348, 16.44693
538.8170, 16.58901
539.2991, 16.69114
539.7812, 16.76429
540.2633, 16.78691
540.7454, 16.78590
541.2275, 16.82560
541.7097, 16.94900
542.1918, 17.12551
542.6739, 17.28077
543.1560, 17.42000
543.6381, 17.52289
544.1202, 17.54164
544.6024, 17.55714
545.0845, 17.63065
545.5666, 17.75316
546.0487, 17.86139
546.5308, 17.89351
547.0129, 17.90657
547.4951, 18.00173
547.9772, 18.17689
548.4593, 18.34435
548.9414, 18.46251
549.4235, 18.55897
549.9056, 18.67732
550.3878, 18.81211
550.8699, 18.98095
551.3520, 19.22487
551.8341, 19.47418
552.3162, 19.67263
552.7983, 19.82292
553.2805, 19.94860
553.7626, 20.06123
554.2447, 20.17009
554.7268, 20.30738
555.2089, 20.52725
555.6910, 20.67590
556.1732, 20.69575
556.6553, 20.69934
557.1374, 20.72873
557.6195, 20.80218
558.1016, 20.94840
558.5837, 21.20198
559.0659, 21.51656
559.5480, 21.79296
560.0301, 22.03240
560.5122, 22.22126
560.9943, 22.36605
561.4764, 22.44186
561.9586, 22.36070
562.4407, 22.14355
562.9228, 22.09342
563.4049, 22.46276
563.8870, 22.95615
564.3691, 23.29943
564.8513, 23.48704
565.3334, 23.51577
565.8155, 23.34893
566.2976, 23.12768
566.7797, 23.13130
567.2618, 23.51263
567.7440, 23.77063
568.2261, 23.89022
568.7082, 23.90051
569.1903, 23.73873
569.6724, 23.48607
570.1545, 23.31528
570.6367, 23.32291
571.1188, 23.42910
571.6009, 23.46513
572.0830, 23.41231
572.5651, 23.35919
573.0472, 23.27181
573.5294, 23.23157
574.0115, 23.35509
574.4936, 23.56333
574.9757, 23.63786
575.4578, 23.45034
575.9399, 23.14415
576.4221, 22.84552
576.9042, 22.56259
577.3863, 22.36500
577.8684, 22.30997
578.3505, 22.23421
578.8326, 21.91036
579.3148, 21.31296
579.7969, 20.87040
580.2790, 20.67397
580.7611, 20.55238
581.2432, 20.53414
581.7253, 20.50377
582.2075, 20.23389
582.6896, 19.65989
583.1717, 18.99684
583.6538, 18.54934
584.1359, 18.34990
584.6180, 18.13659
585.1002, 17.94824
585.5823, 17.69188
586.0643, 17.27999
586.5464, 16.80904
587.0286, 16.41260
