##NAMES=Gunningite
##RRUFFID=R070571
##IDEAL CHEMISTRY=Zn^2+^S^6+^O_4_&#183;H_2_O
##LOCALITY=Rammelsberg, Goslar, Harz Mountains, Lower Saxony, Germany
##OWNER=RRUFF
##SOURCE=James Shigley
##DESCRIPTION=Fine white powder, with minor component of boyleite
##STATUS=The identification of this mineral has been confirmed by X-ray diffraction.
##URL=rruff.info/R070571
159.1767, 2897.895
159.6588, 2908.292
160.1409, 2926.940
160.6231, 2938.629
161.1052, 2935.833
161.5873, 2924.222
162.0694, 2923.324
162.5515, 2940.484
163.0336, 2960.111
163.5158, 2983.876
163.9979, 3008.329
164.4800, 3030.028
164.9621, 3047.243
165.4442, 3059.436
165.9263, 3064.100
166.4085, 3048.531
166.8906, 3039.586
167.3727, 3042.462
167.8548, 3054.562
168.3369, 3074.822
168.8190, 3104.360
169.3012, 3138.528
169.7833, 3146.460
170.2654, 3094.510
170.7475, 3056.317
171.2296, 3057.366
171.7117, 3083.179
172.1939, 3107.069
172.6760, 3113.461
173.1581, 3104.479
173.6402, 3096.070
174.1223, 3087.245
174.6044, 3079.946
175.0866, 3073.415
175.5687, 3068.827
176.0508, 3070.741
176.5329, 3084.064
177.0150, 3105.882
177.4971, 3104.500
177.9793, 3051.276
178.4614, 3009.728
178.9435, 3009.347
179.4256, 3037.312
179.9077, 3063.061
180.3898, 3067.479
180.8720, 3052.009
181.3541, 3034.808
181.8362, 3012.742
182.3183, 2992.535
182.8004, 2975.990
183.2825, 2963.095
183.7647, 2953.335
184.2468, 2946.378
184.7289, 2942.273
185.2110, 2941.684
185.6931, 2942.665
186.1752, 2948.091
186.6574, 2964.584
187.1395, 2987.362
187.6216, 3002.798
188.1037, 3000.384
188.5858, 2981.837
189.0679, 2976.243
189.5501, 2993.935
190.0322, 3011.214
190.5143, 3018.726
190.9964, 3018.198
191.4785, 3014.914
191.9606, 3011.250
192.4428, 3007.737
192.9249, 3013.156
193.4070, 3036.088
193.8891, 3057.244
194.3712, 3067.446
194.8533, 3069.249
195.3355, 3070.182
195.8176, 3074.670
196.2997, 3082.640
196.7818, 3093.984
197.2639, 3108.765
197.7460, 3125.844
198.2282, 3143.766
198.7103, 3163.413
199.1924, 3187.099
199.6745, 3216.473
200.1566, 3251.272
200.6387, 3288.148
201.1209, 3335.311
201.6030, 3375.689
202.0851, 3396.778
202.5672, 3405.576
203.0493, 3418.441
203.5314, 3445.512
204.0136, 3485.378
204.4957, 3526.861
204.9778, 3574.728
205.4599, 3619.076
205.9420, 3654.785
206.4241, 3684.605
206.9063, 3714.910
207.3884, 3750.157
207.8705, 3788.799
208.3526, 3820.750
208.8347, 3835.150
209.3168, 3855.947
209.7990, 3893.458
210.2811, 3941.749
210.7632, 3991.030
211.2453, 4036.722
211.7274, 4077.832
212.2095, 4109.007
212.6917, 4118.341
213.1738, 4132.390
213.6559, 4158.903
214.1380, 4193.519
214.6201, 4231.368
215.1022, 4270.729
215.5844, 4308.283
216.0665, 4328.732
216.5486, 4324.620
217.0307, 4312.457
217.5128, 4285.041
217.9949, 4252.998
218.4771, 4232.326
218.9592, 4231.065
219.4413, 4243.020
219.9234, 4248.094
220.4055, 4257.171
220.8876, 4245.151
221.3698, 4194.855
221.8519, 4127.224
222.3340, 4067.387
222.8161, 4026.391
223.2982, 3996.723
223.7803, 3959.394
224.2625, 3897.258
224.7446, 3849.281
225.2267, 3825.527
225.7088, 3812.358
226.1909, 3796.497
226.6730, 3773.059
227.1552, 3744.735
227.6373, 3716.962
228.1194, 3689.654
228.6015, 3663.064
229.0836, 3637.673
229.5658, 3612.631
230.0479, 3588.256
230.5300, 3564.337
231.0121, 3538.599
231.4942, 3506.296
231.9763, 3459.348
232.4585, 3420.927
232.9406, 3394.741
233.4227, 3373.506
233.9048, 3353.101
234.3869, 3332.112
234.8690, 3310.197
235.3512, 3286.187
235.8333, 3256.958
236.3154, 3233.450
236.7975, 3223.122
237.2796, 3211.838
237.7617, 3187.323
238.2439, 3150.384
238.7260, 3114.624
239.2081, 3098.915
239.6902, 3112.297
240.1723, 3108.770
240.6544, 3064.579
241.1366, 3023.533
241.6187, 3009.132
242.1008, 3018.604
242.5829, 3031.390
243.0650, 3028.791
243.5471, 3009.803
244.0293, 2986.781
244.5114, 2949.040
244.9935, 2917.441
245.4756, 2902.368
245.9577, 2900.760
246.4398, 2902.602
246.9220, 2899.395
247.4041, 2892.125
247.8862, 2893.308
248.3683, 2910.381
248.8504, 2926.980
249.3325, 2938.464
249.8147, 2944.708
250.2968, 2945.358
250.7789, 2936.446
251.2610, 2922.541
251.7431, 2921.953
252.2252, 2943.568
252.7074, 2962.206
253.1895, 2964.055
253.6716, 2956.900
254.1537, 2951.852
254.6358, 2951.963
255.1179, 2958.356
255.6001, 2974.507
256.0822, 3002.819
256.5643, 3033.294
257.0464, 3065.025
257.5285, 3095.098
258.0107, 3118.553
258.4928, 3130.053
258.9749, 3141.147
259.4570, 3170.799
259.9391, 3221.274
260.4212, 3260.920
260.9034, 3267.718
261.3855, 3261.111
261.8676, 3265.357
262.3497, 3282.683
262.8318, 3311.507
263.3139, 3356.458
263.7961, 3414.914
264.2782, 3468.818
264.7603, 3511.213
265.2424, 3546.346
265.7245, 3581.755
266.2066, 3618.184
266.6888, 3652.085
267.1709, 3678.683
267.6530, 3701.319
268.1351, 3727.704
268.6172, 3759.256
269.0993, 3796.627
269.5815, 3847.529
270.0636, 3915.461
270.5457, 3966.663
271.0278, 3987.774
271.5099, 3989.016
271.9920, 3981.369
272.4742, 3966.445
272.9563, 3949.500
273.4384, 3938.292
273.9205, 3935.450
274.4026, 3919.085
274.8847, 3884.075
275.3669, 3837.585
275.8490, 3779.978
276.3311, 3713.464
276.8132, 3650.515
277.2953, 3602.070
277.7774, 3569.911
278.2596, 3534.885
278.7417, 3500.571
279.2238, 3460.553
279.7059, 3407.022
280.1880, 3343.992
280.6701, 3283.267
281.1523, 3232.522
281.6344, 3191.045
282.1165, 3151.365
282.5986, 3108.298
283.0807, 3072.607
283.5628, 3047.884
284.0450, 3031.992
284.5271, 3024.160
285.0092, 3024.788
285.4913, 3027.883
285.9734, 3013.426
286.4555, 2958.428
286.9377, 2918.274
287.4198, 2903.785
287.9019, 2902.371
288.3840, 2904.258
288.8661, 2905.840
289.3482, 2906.024
289.8304, 2903.008
290.3125, 2896.541
290.7946, 2887.413
291.2767, 2871.748
291.7588, 2856.575
292.2409, 2846.992
292.7231, 2843.265
293.2052, 2840.973
293.6873, 2834.263
294.1694, 2822.337
294.6515, 2816.573
295.1336, 2822.347
295.6158, 2829.815
296.0979, 2836.041
296.5800, 2840.103
297.0621, 2839.890
297.5442, 2831.074
298.0263, 2816.292
298.5085, 2806.535
298.9906, 2802.994
299.4727, 2802.121
299.9548, 2803.663
300.4369, 2806.115
300.9190, 2806.371
301.4012, 2800.951
301.8833, 2794.413
302.3654, 2792.566
302.8475, 2795.454
303.3296, 2803.181
303.8117, 2822.568
304.2939, 2844.180
304.7760, 2848.734
305.2581, 2825.084
305.7402, 2798.533
306.2223, 2784.949
306.7044, 2782.339
307.1866, 2784.708
307.6687, 2792.002
308.1508, 2799.846
308.6329, 2797.218
309.1150, 2778.331
309.5971, 2766.625
310.0793, 2775.786
310.5614, 2793.303
311.0435, 2802.193
311.5256, 2798.224
312.0077, 2786.176
312.4898, 2770.611
312.9720, 2747.459
313.4541, 2735.156
313.9362, 2740.819
314.4183, 2751.760
314.9004, 2762.937
315.3825, 2772.020
315.8647, 2774.264
316.3468, 2764.577
316.8289, 2742.259
317.3110, 2723.571
317.7931, 2711.080
318.2752, 2699.223
318.7574, 2682.081
319.2395, 2664.908
319.7216, 2658.378
320.2037, 2669.963
320.6858, 2693.502
321.1679, 2705.593
321.6501, 2700.615
322.1322, 2692.164
322.6143, 2682.268
323.0964, 2670.568
323.5785, 2655.413
324.0606, 2636.277
324.5428, 2617.166
325.0249, 2602.040
325.5070, 2589.530
325.9891, 2588.119
326.4712, 2611.287
326.9533, 2637.066
327.4355, 2652.314
327.9176, 2656.395
328.3997, 2655.617
328.8818, 2653.132
329.3639, 2649.328
329.8460, 2645.788
330.3282, 2642.454
330.8103, 2639.824
331.2924, 2640.057
331.7745, 2641.686
332.2566, 2639.698
332.7387, 2629.764
333.2209, 2616.990
333.7030, 2605.091
334.1851, 2594.261
334.6672, 2591.639
335.1493, 2605.596
335.6314, 2630.346
336.1136, 2643.818
336.5957, 2637.136
337.0778, 2629.869
337.5599, 2633.870
338.0420, 2643.432
338.5241, 2645.379
339.0063, 2633.867
339.4884, 2615.541
339.9705, 2603.622
340.4526, 2600.707
340.9347, 2600.076
341.4168, 2602.122
341.8990, 2605.987
342.3811, 2611.717
342.8632, 2618.945
343.3453, 2626.146
343.8274, 2632.219
344.3095, 2637.981
344.7917, 2637.585
345.2738, 2622.376
345.7559, 2609.872
346.2380, 2609.905
346.7201, 2617.786
347.2022, 2622.202
347.6844, 2615.107
348.1665, 2599.808
348.6486, 2589.871
349.1307, 2586.628
349.6128, 2586.655
350.0949, 2589.505
350.5771, 2594.451
351.0592, 2601.603
351.5413, 2611.350
352.0234, 2620.548
352.5055, 2627.201
352.9876, 2631.431
353.4698, 2626.031
353.9519, 2601.508
354.4340, 2574.845
354.9161, 2562.635
355.3982, 2564.791
355.8803, 2570.587
356.3625, 2580.199
356.8446, 2588.707
357.3267, 2582.703
357.8088, 2558.155
358.2909, 2538.896
358.7730, 2549.438
359.2552, 2586.847
359.7373, 2608.282
360.2194, 2597.919
360.7015, 2583.971
361.1836, 2584.747
361.6657, 2596.292
362.1479, 2605.514
362.6300, 2605.742
363.1121, 2598.906
363.5942, 2591.137
364.0763, 2576.700
364.5584, 2568.779
365.0406, 2574.708
365.5227, 2584.053
366.0048, 2586.896
366.4869, 2580.826
366.9690, 2569.203
367.4511, 2553.726
367.9333, 2529.374
368.4154, 2521.653
368.8975, 2550.977
369.3796, 2578.185
369.8617, 2585.356
370.3438, 2576.995
370.8260, 2567.510
371.3081, 2565.792
371.7902, 2570.104
372.2723, 2575.069
372.7544, 2581.443
373.2365, 2586.473
373.7187, 2590.850
374.2008, 2592.505
374.6829, 2587.333
375.1650, 2572.050
375.6471, 2557.341
376.1292, 2554.290
376.6114, 2560.803
377.0935, 2565.456
377.5756, 2565.258
378.0577, 2562.210
378.5398, 2556.726
379.0219, 2548.090
379.5041, 2546.024
379.9862, 2561.721
380.4683, 2579.517
380.9504, 2580.432
381.4325, 2564.604
381.9146, 2550.581
382.3968, 2554.000
382.8789, 2573.698
383.3610, 2581.105
383.8431, 2566.169
384.3252, 2552.601
384.8073, 2549.104
385.2895, 2550.353
385.7716, 2546.769
386.2537, 2534.496
386.7358, 2520.481
387.2179, 2519.944
387.7000, 2542.102
388.1822, 2555.599
388.6643, 2552.691
389.1464, 2546.186
389.6285, 2539.707
390.1106, 2535.550
390.5927, 2538.761
391.0749, 2531.253
391.5570, 2560.307
392.0391, 2577.522
392.5212, 2583.536
393.0033, 2544.796
393.4854, 2563.846
393.9676, 2559.737
394.4497, 2554.677
394.9318, 2581.860
395.4139, 2549.630
395.8960, 2576.302
396.3781, 2579.461
396.8603, 2593.382
397.3424, 2584.000
397.8245, 2581.815
398.3066, 2602.940
398.7887, 2611.159
399.2708, 2599.094
399.7530, 2613.699
400.2351, 2582.994
400.7172, 2577.507
401.1993, 2574.892
401.6814, 2576.061
402.1635, 2582.659
402.6457, 2594.537
403.1278, 2600.658
403.6099, 2593.855
404.0920, 2589.416
404.5741, 2592.379
405.0562, 2598.864
405.5384, 2602.282
406.0205, 2599.922
406.5026, 2598.362
406.9847, 2609.721
407.4668, 2637.085
407.9489, 2663.064
408.4311, 2684.961
408.9132, 2705.236
409.3953, 2722.245
409.8774, 2737.687
410.3595, 2759.915
410.8416, 2792.771
411.3238, 2835.857
411.8059, 2894.734
412.2880, 2972.610
412.7701, 3039.537
413.2522, 3069.881
413.7343, 3076.701
414.2165, 3105.503
414.6986, 3167.406
415.1807, 3236.083
415.6628, 3301.290
416.1449, 3365.117
416.6270, 3433.418
417.1092, 3507.784
417.5913, 3580.518
418.0734, 3640.134
418.5555, 3678.702
419.0376, 3729.193
419.5197, 3792.049
420.0019, 3864.627
420.4840, 3953.921
420.9661, 4052.003
421.4482, 4141.716
421.9303, 4211.656
422.4124, 4266.464
422.8946, 4323.970
423.3767, 4394.220
423.8588, 4443.198
424.3409, 4462.817
424.8230, 4457.866
425.3051, 4430.294
425.7873, 4380.450
426.2694, 4309.804
426.7515, 4215.070
427.2336, 4100.587
427.7157, 3976.609
428.1978, 3841.520
428.6800, 3706.565
429.1621, 3578.857
429.6442, 3458.476
430.1263, 3348.194
430.6084, 3248.797
431.0905, 3158.313
431.5727, 3075.271
432.0548, 3000.181
432.5369, 2934.177
433.0190, 2878.117
433.5011, 2831.320
433.9832, 2793.913
434.4654, 2772.978
434.9475, 2748.203
435.4296, 2714.660
435.9117, 2681.654
436.3938, 2654.468
436.8759, 2633.285
437.3581, 2616.026
437.8402, 2600.015
438.3223, 2586.983
438.8044, 2585.929
439.2865, 2602.559
439.7686, 2618.021
440.2508, 2632.004
440.7329, 2638.017
441.2150, 2623.852
441.6971, 2582.658
442.1792, 2545.209
442.6613, 2537.320
443.1435, 2549.867
443.6256, 2560.602
444.1077, 2566.339
444.5898, 2564.926
445.0719, 2550.527
445.5540, 2522.319
446.0362, 2509.695
446.5183, 2529.543
447.0004, 2547.722
447.4825, 2545.996
447.9646, 2530.811
448.4467, 2514.760
448.9289, 2503.441
449.4110, 2496.398
449.8931, 2493.019
450.3752, 2493.661
450.8573, 2497.325
451.3394, 2514.725
451.8216, 2525.750
452.3037, 2511.043
452.7858, 2477.843
453.2679, 2454.442
453.7500, 2465.017
454.2321, 2495.525
454.7143, 2510.505
455.1964, 2507.240
455.6785, 2503.630
456.1606, 2509.558
456.6428, 2518.293
457.1249, 2517.010
457.6070, 2500.195
458.0891, 2489.596
458.5712, 2504.724
459.0533, 2527.041
459.5355, 2527.770
460.0176, 2503.422
460.4997, 2474.118
460.9818, 2456.710
461.4639, 2451.298
461.9460, 2453.618
462.4282, 2471.495
462.9103, 2487.666
463.3924, 2499.988
463.8745, 2507.563
464.3566, 2508.340
464.8387, 2501.760
465.3209, 2492.621
465.8030, 2487.308
466.2851, 2486.033
466.7672, 2484.989
467.2493, 2480.898
467.7314, 2481.092
468.2136, 2494.556
468.6957, 2515.931
469.1778, 2529.798
469.6599, 2524.680
470.1420, 2515.617
470.6241, 2515.325
471.1063, 2523.283
471.5884, 2539.583
472.0705, 2566.822
472.5526, 2595.095
473.0347, 2606.780
473.5168, 2592.168
473.9990, 2583.188
474.4811, 2583.642
474.9632, 2586.740
475.4453, 2586.293
475.9274, 2584.408
476.4095, 2588.927
476.8917, 2606.007
477.3738, 2630.808
477.8559, 2647.650
478.3380, 2654.739
478.8201, 2658.181
479.3022, 2649.276
479.7844, 2644.073
480.2665, 2658.925
480.7486, 2694.182
481.2307, 2726.050
481.7128, 2736.151
482.1949, 2734.601
482.6771, 2740.064
483.1592, 2753.854
483.6413, 2767.160
484.1234, 2773.048
484.6055, 2774.842
485.0876, 2786.822
485.5698, 2814.743
486.0519, 2843.211
486.5340, 2870.667
487.0161, 2896.568
487.4982, 2920.011
487.9803, 2941.016
488.4625, 2960.482
488.9446, 2977.818
489.4267, 2993.359
489.9088, 3018.886
490.3909, 3062.521
490.8730, 3103.601
491.3552, 3134.935
491.8373, 3160.415
492.3194, 3181.828
492.8015, 3197.714
493.2836, 3220.763
493.7657, 3271.416
494.2479, 3337.479
494.7300, 3379.424
495.2121, 3387.845
495.6942, 3392.677
496.1763, 3420.791
496.6584, 3470.948
497.1406, 3509.902
497.6227, 3530.691
498.1048, 3549.089
498.5869, 3573.812
499.0690, 3598.142
499.5511, 3608.614
500.0333, 3602.504
500.5154, 3596.321
500.9975, 3619.410
501.4796, 3681.074
501.9617, 3699.034
502.4438, 3639.661
502.9260, 3578.935
503.4081, 3556.690
503.8902, 3553.367
504.3723, 3532.998
504.8544, 3479.427
505.3365, 3417.596
505.8187, 3372.365
506.3008, 3337.956
506.7829, 3291.807
507.2650, 3226.069
507.7471, 3159.744
508.2292, 3113.459
508.7114, 3089.555
509.1935, 3065.330
509.6756, 3044.522
510.1577, 3019.420
510.6398, 2984.761
511.1219, 2944.348
511.6041, 2901.731
512.0862, 2858.515
512.5683, 2821.354
513.0504, 2804.069
513.5325, 2810.107
514.0146, 2806.096
514.4968, 2786.633
514.9789, 2761.053
515.4610, 2731.609
515.9431, 2700.844
516.4252, 2674.323
516.9073, 2650.036
517.3895, 2635.210
517.8716, 2642.904
518.3537, 2664.577
518.8358, 2676.735
519.3179, 2672.346
519.8000, 2660.309
520.2822, 2651.027
520.7643, 2645.115
521.2464, 2638.555
521.7285, 2629.206
522.2106, 2621.645
522.6927, 2620.517
523.1749, 2621.300
523.6570, 2617.289
524.1391, 2605.907
524.6212, 2589.950
525.1033, 2570.412
525.5854, 2547.507
526.0676, 2532.239
526.5497, 2525.798
527.0318, 2527.063
527.5139, 2545.975
527.9960, 2573.254
528.4781, 2579.065
528.9603, 2533.395
529.4424, 2492.659
529.9245, 2495.558
530.4066, 2521.308
530.8887, 2532.751
531.3708, 2520.050
531.8530, 2500.806
532.3351, 2497.053
532.8172, 2511.779
533.2993, 2513.081
533.7814, 2484.046
534.2635, 2461.171
534.7457, 2461.483
535.2278, 2470.521
535.7099, 2467.753
536.1920, 2446.334
536.6741, 2422.103
537.1563, 2411.111
537.6384, 2409.293
538.1205, 2402.234
538.6026, 2387.179
539.0847, 2373.793
539.5668, 2370.855
540.0490, 2376.472
540.5311, 2375.319
541.0132, 2362.927
541.4953, 2350.265
541.9774, 2339.098
542.4595, 2329.377
542.9417, 2321.062
543.4238, 2314.093
543.9059, 2308.095
544.3880, 2302.662
544.8701, 2297.861
545.3522, 2294.071
545.8344, 2290.402
546.3165, 2289.939
546.7986, 2296.427
547.2807, 2305.501
547.7628, 2313.669
548.2449, 2321.574
548.7271, 2322.791
549.2092, 2310.205
549.6913, 2291.623
550.1734, 2274.115
550.6555, 2259.310
551.1376, 2251.844
551.6198, 2255.509
552.1019, 2266.811
552.5840, 2273.594
553.0661, 2274.433
553.5482, 2272.938
554.0303, 2269.717
554.5125, 2264.290
554.9946, 2253.209
555.4767, 2238.914
555.9588, 2230.388
556.4409, 2236.795
556.9230, 2248.575
557.4052, 2249.003
557.8873, 2238.977
558.3694, 2210.362
558.8515, 2236.348
559.3336, 2250.496
559.8157, 2253.442
560.2979, 2211.634
560.7800, 2227.616
561.2621, 2220.439
561.7442, 2212.312
562.2263, 2236.428
562.7084, 2201.130
563.1906, 2224.735
563.6727, 2224.826
564.1548, 2235.679
564.6369, 2223.230
565.1190, 2217.978
565.6011, 2236.036
566.0833, 2241.187
566.5654, 2226.054
567.0475, 2237.592
567.5296, 2201.479
568.0117, 2207.180
568.4938, 2230.921
568.9760, 2216.961
569.4581, 2228.924
569.9402, 2231.014
570.4223, 2188.235
570.9044, 2223.488
571.3865, 2224.994
571.8687, 2191.851
572.3508, 2224.430
572.8329, 2196.063
573.3150, 2189.451
573.7971, 2199.209
574.2792, 2191.902
574.7614, 2211.500
575.2435, 2205.178
575.7256, 2196.540
576.2077, 2198.009
576.6898, 2170.837
577.1719, 2196.799
577.6541, 2186.466
578.1362, 2194.175
578.6183, 2205.973
579.1004, 2190.518
579.5825, 2200.966
580.0646, 2200.440
580.5468, 2176.895
581.0289, 2170.042
581.5110, 2199.254
581.9931, 2223.653
582.4752, 2218.406
582.9573, 2194.539
583.4395, 2175.678
583.9216, 2172.317
584.4037, 2176.197
584.8858, 2179.937
585.3679, 2182.904
585.8500, 2180.941
586.3322, 2172.346
586.8143, 2163.456
587.2964, 2159.354
587.7785, 2159.844
588.2606, 2161.455
588.7427, 2163.478
589.2249, 2167.385
589.7070, 2177.859
590.1891, 2187.696
590.6712, 2187.365
591.1533, 2177.242
591.6354, 2168.411
592.1176, 2170.931
592.5997, 2181.515
593.0818, 2190.190
593.5639, 2197.297
594.0460, 2199.494
594.5281, 2192.086
595.0103, 2182.726
595.4924, 2184.993
595.9745, 2200.756
596.4566, 2209.375
596.9387, 2198.821
597.4208, 2188.748
597.9030, 2192.010
598.3851, 2205.157
598.8672, 2221.837
599.3493, 2239.303
599.8314, 2253.322
600.3135, 2258.131
600.7957, 2253.711
601.2778, 2238.055
601.7599, 2199.841
602.2420, 2171.479
602.7241, 2180.350
603.2062, 2210.042
603.6884, 2230.892
604.1705, 2237.363
604.6526, 2240.817
605.1347, 2239.506
605.6168, 2241.237
606.0989, 2258.525
606.5811, 2289.236
607.0632, 2317.883
607.5453, 2333.006
608.0274, 2339.819
608.5095, 2355.610
608.9916, 2384.122
609.4738, 2409.238
609.9559, 2425.533
610.4380, 2440.603
610.9201, 2452.950
611.4022, 2466.886
611.8843, 2500.623
612.3665, 2560.041
612.8486, 2640.108
613.3307, 2771.970
613.8128, 2914.191
614.2949, 2974.867
614.7770, 2936.402
615.2592, 2877.271
615.7413, 2870.044
616.2234, 2915.600
616.7055, 3041.581
617.1876, 3318.109
617.6697, 3547.909
618.1519, 3642.144
618.6340, 3690.707
619.1161, 3789.928
619.5982, 3946.016
620.0803, 4032.331
620.5624, 3910.663
621.0446, 3754.248
621.5267, 3765.451
622.0088, 3899.872
622.4909, 3992.723
622.9730, 3976.932
623.4551, 3906.211
623.9373, 3861.793
624.4194, 3850.741
624.9015, 3827.829
625.3836, 3781.972
625.8657, 3738.588
626.3478, 3715.488
626.8300, 3696.263
627.3121, 3659.345
627.7942, 3600.117
628.2763, 3525.883
628.7584, 3432.403
629.2405, 3330.164
629.7227, 3230.103
630.2048, 3133.912
630.6869, 3045.759
631.1690, 2968.497
631.6511, 2898.399
632.1332, 2826.089
632.6154, 2747.472
633.0975, 2678.716
633.5796, 2623.964
634.0617, 2575.810
634.5438, 2535.573
635.0259, 2498.735
635.5081, 2455.351
635.9902, 2398.071
636.4723, 2345.296
636.9544, 2310.564
637.4365, 2288.059
637.9186, 2268.789
638.4008, 2251.485
638.8829, 2238.603
639.3650, 2232.187
639.8471, 2230.609
640.3292, 2227.945
640.8113, 2224.509
641.2935, 2219.214
641.7756, 2210.233
642.2577, 2200.875
642.7398, 2193.259
643.2219, 2186.918
643.7040, 2179.989
644.1862, 2169.878
644.6683, 2161.742
645.1504, 2159.804
645.6325, 2162.009
646.1146, 2165.939
646.5967, 2170.675
647.0789, 2173.878
647.5610, 2173.449
648.0431, 2169.865
648.5252, 2164.779
649.0073, 2154.503
649.4894, 2152.303
649.9716, 2170.351
650.4537, 2189.092
650.9358, 2190.380
651.4179, 2177.552
651.9000, 2171.825
652.3821, 2183.202
652.8643, 2199.617
653.3464, 2215.108
653.8285, 2229.960
654.3106, 2247.138
654.7927, 2266.164
655.2748, 2277.839
655.7570, 2270.652
656.2391, 2249.292
656.7212, 2244.730
