##NAMES=Gunningite
##RRUFFID=R070571
##IDEAL CHEMISTRY=Zn^2+^S^6+^O_4_&#183;H_2_O
##LOCALITY=Rammelsberg, Goslar, Harz Mountains, Lower Saxony, Germany
##OWNER=RRUFF
##SOURCE=James Shigley
##DESCRIPTION=Fine white powder, with minor component of boyleite
##STATUS=The identification of this mineral has been confirmed by X-ray diffraction.
##URL=rruff.info/R070571
157.7414, 6864.715
158.2235, 6851.003
158.7056, 6846.594
159.1877, 6865.166
159.6698, 6889.164
160.1519, 6902.298
160.6341, 6880.782
161.1162, 6865.115
161.5983, 6873.919
162.0804, 6916.815
162.5625, 6952.622
163.0446, 6954.461
163.5268, 6941.500
164.0089, 6949.956
164.4910, 6987.474
164.9731, 7052.546
165.4552, 7149.401
165.9373, 7309.916
166.4195, 7457.531
166.9016, 7572.567
167.3837, 7652.125
167.8658, 7679.381
168.3479, 7595.721
168.8300, 7473.251
169.3122, 7385.895
169.7943, 7388.158
170.2764, 7414.618
170.7585, 7418.172
171.2406, 7394.579
171.7227, 7389.788
172.2049, 7461.750
172.6870, 7572.673
173.1691, 7653.271
173.6512, 7637.858
174.1333, 7591.302
174.6154, 7582.708
175.0976, 7633.674
175.5797, 7689.456
176.0618, 7702.417
176.5439, 7679.212
177.0260, 7645.079
177.5081, 7599.441
177.9903, 7556.117
178.4724, 7538.267
178.9545, 7566.388
179.4366, 7608.244
179.9187, 7623.959
180.4008, 7614.291
180.8830, 7595.474
181.3651, 7580.417
181.8472, 7566.835
182.3293, 7549.009
182.8114, 7523.591
183.2935, 7492.602
183.7757, 7454.691
184.2578, 7407.098
184.7399, 7368.223
185.2220, 7371.574
185.7041, 7409.368
186.1862, 7439.224
186.6684, 7425.040
187.1505, 7384.116
187.6326, 7370.062
188.1147, 7397.938
188.5968, 7439.638
189.0790, 7442.015
189.5611, 7405.957
190.0432, 7368.972
190.5253, 7358.544
191.0074, 7371.861
191.4895, 7394.154
191.9717, 7426.126
192.4538, 7463.293
192.9359, 7492.605
193.4180, 7512.863
193.9001, 7532.226
194.3822, 7560.541
194.8644, 7597.239
195.3465, 7634.129
195.8286, 7668.378
196.3107, 7700.428
196.7928, 7730.930
197.2749, 7755.885
197.7571, 7788.923
198.2392, 7855.917
198.7213, 7958.508
199.2034, 8065.801
199.6855, 8165.139
200.1676, 8257.272
200.6498, 8336.533
201.1319, 8397.181
201.6140, 8449.435
202.0961, 8519.233
202.5782, 8608.751
203.0603, 8705.759
203.5425, 8803.999
204.0246, 8902.479
204.5067, 9004.975
204.9888, 9110.799
205.4709, 9220.823
205.9530, 9343.350
206.4352, 9483.722
206.9173, 9624.334
207.3994, 9747.179
207.8815, 9848.126
208.3636, 9952.007
208.8457, 10066.08
209.3279, 10190.52
209.8100, 10313.46
210.2921, 10433.69
210.7742, 10555.42
211.2563, 10685.54
211.7384, 10826.58
212.2206, 10971.13
212.7027, 11119.26
213.1848, 11274.48
213.6669, 11417.24
214.1490, 11544.56
214.6311, 11662.19
215.1133, 11783.72
215.5954, 11909.98
216.0775, 12040.28
216.5596, 12178.78
217.0417, 12332.12
217.5238, 12467.09
218.0060, 12583.35
218.4881, 12679.61
218.9702, 12743.57
219.4523, 12769.04
219.9344, 12773.23
220.4165, 12771.79
220.8987, 12774.10
221.3808, 12744.16
221.8629, 12669.72
222.3450, 12550.78
222.8271, 12435.01
223.3092, 12327.06
223.7914, 12217.53
224.2735, 12097.91
224.7556, 11964.56
225.2377, 11827.67
225.7198, 11686.85
226.2020, 11541.94
226.6841, 11402.86
227.1662, 11272.77
227.6483, 11148.86
228.1304, 11030.03
228.6125, 10913.73
229.0947, 10805.07
229.5768, 10707.36
230.0589, 10630.73
230.5410, 10536.50
231.0231, 10409.10
231.5052, 10269.34
231.9874, 10169.27
232.4695, 10133.00
232.9516, 10102.09
233.4337, 10046.66
233.9158, 9953.113
234.3979, 9865.059
234.8801, 9785.853
235.3622, 9714.448
235.8443, 9640.050
236.3264, 9563.545
236.8085, 9481.845
237.2906, 9390.532
237.7728, 9279.295
238.2549, 9179.024
238.7370, 9094.188
239.2191, 9025.183
239.7012, 8967.509
240.1833, 8935.311
240.6655, 8900.297
241.1476, 8832.255
241.6297, 8705.366
242.1118, 8592.354
242.5939, 8511.902
243.0760, 8468.781
243.5582, 8415.304
244.0403, 8341.591
244.5224, 8265.171
245.0045, 8210.184
245.4866, 8189.042
245.9688, 8168.629
246.4509, 8138.053
246.9330, 8091.632
247.4151, 8056.529
247.8972, 8036.215
248.3793, 8025.292
248.8615, 8013.920
249.3436, 7999.341
249.8257, 7988.449
250.3078, 7983.090
250.7899, 7980.998
251.2720, 7991.021
251.7542, 8020.686
252.2363, 8060.678
252.7184, 8083.510
253.2005, 8079.885
253.6826, 8072.589
254.1647, 8071.795
254.6469, 8074.982
255.1290, 8091.010
255.6111, 8123.360
256.0932, 8168.993
256.5753, 8211.370
257.0574, 8242.331
257.5396, 8281.517
258.0217, 8346.017
258.5038, 8452.109
258.9859, 8544.271
259.4680, 8605.477
259.9501, 8641.718
260.4323, 8709.963
260.9144, 8823.838
261.3965, 8950.322
261.8786, 9060.131
262.3607, 9143.493
262.8428, 9233.502
263.3250, 9338.046
263.8071, 9456.964
264.2892, 9568.842
264.7713, 9667.915
265.2534, 9769.107
265.7355, 9887.820
266.2177, 10029.25
266.6998, 10176.81
267.1819, 10330.51
267.6640, 10488.15
268.1461, 10637.41
268.6282, 10767.08
269.1104, 10899.30
269.5925, 11072.55
270.0746, 11301.57
270.5567, 11522.52
271.0388, 11708.78
271.5209, 11855.02
272.0031, 12015.44
272.4852, 12202.17
272.9673, 12388.59
273.4494, 12532.59
273.9315, 12628.36
274.4136, 12699.36
274.8958, 12767.62
275.3779, 12844.29
275.8600, 12835.58
276.3421, 12723.17
276.8242, 12545.30
277.3063, 12376.19
277.7885, 12219.55
278.2706, 12056.44
278.7527, 11876.80
279.2348, 11681.12
279.7169, 11462.92
280.1990, 11213.24
280.6812, 10951.81
281.1633, 10728.93
281.6454, 10546.84
282.1275, 10379.93
282.6096, 10211.03
283.0917, 10039.58
283.5739, 9883.368
284.0560, 9748.988
284.5381, 9628.717
285.0202, 9503.371
285.5023, 9371.822
285.9844, 9245.381
286.4666, 9130.624
286.9487, 9027.800
287.4308, 8939.851
287.9129, 8874.253
288.3950, 8819.632
288.8771, 8742.211
289.3593, 8639.784
289.8414, 8541.018
290.3235, 8472.268
290.8056, 8430.853
291.2877, 8387.479
291.7699, 8331.365
292.2520, 8273.155
292.7341, 8242.324
293.2162, 8239.979
293.6983, 8240.583
294.1805, 8218.957
294.6626, 8179.563
295.1447, 8144.935
295.6268, 8121.260
296.1089, 8105.721
296.5910, 8092.859
297.0732, 8082.718
297.5553, 8072.073
298.0374, 8055.883
298.5195, 8036.350
299.0016, 8021.339
299.4837, 8016.729
299.9659, 8016.350
300.4480, 8008.098
300.9301, 7991.976
301.4122, 7975.474
301.8943, 7963.880
302.3764, 7957.128
302.8586, 7955.325
303.3407, 7961.448
303.8228, 7971.271
304.3049, 7979.392
304.7870, 7985.954
305.2691, 7991.098
305.7513, 7996.569
306.2334, 8000.751
306.7155, 8000.525
307.1976, 7989.257
307.6797, 7975.589
308.1618, 7967.041
308.6440, 7963.372
309.1261, 7968.669
309.6082, 7993.658
310.0903, 8028.610
310.5724, 8057.040
311.0545, 8075.499
311.5367, 8082.457
312.0188, 8071.525
312.5009, 8041.567
312.9830, 8013.615
313.4651, 8003.007
313.9472, 8002.613
314.4294, 8002.293
314.9115, 8000.444
315.3936, 7995.973
315.8757, 7988.590
316.3578, 7978.593
316.8399, 7965.448
317.3221, 7949.382
317.8042, 7930.353
318.2863, 7907.935
318.7684, 7876.501
319.2505, 7846.384
319.7326, 7820.036
320.2148, 7796.776
320.6969, 7785.415
321.1790, 7800.505
321.6611, 7825.586
322.1432, 7839.897
322.6253, 7833.438
323.1075, 7818.037
323.5896, 7792.647
324.0717, 7753.151
324.5538, 7727.561
325.0359, 7734.837
325.5180, 7755.193
326.0002, 7764.669
326.4823, 7753.126
326.9644, 7736.382
327.4465, 7716.565
327.9286, 7691.257
328.4107, 7675.136
328.8929, 7680.586
329.3750, 7692.599
329.8571, 7692.660
330.3392, 7669.460
330.8213, 7645.186
331.3034, 7620.972
331.7856, 7592.066
332.2677, 7582.992
332.7498, 7609.359
333.2319, 7647.413
333.7140, 7667.736
334.1961, 7659.703
334.6783, 7647.973
335.1604, 7636.021
335.6425, 7621.843
336.1246, 7619.010
336.6067, 7634.529
337.0888, 7655.135
337.5710, 7662.720
338.0531, 7649.475
338.5352, 7639.744
339.0173, 7640.105
339.4994, 7651.155
339.9815, 7666.654
340.4637, 7692.561
340.9458, 7714.085
341.4279, 7708.162
341.9100, 7666.261
342.3921, 7632.943
342.8742, 7621.590
343.3564, 7631.539
343.8385, 7649.596
344.3206, 7678.533
344.8027, 7707.662
345.2848, 7721.771
345.7669, 7720.465
346.2491, 7720.581
346.7312, 7728.680
347.2133, 7742.804
347.6954, 7754.206
348.1775, 7763.317
348.6596, 7767.850
349.1418, 7765.734
349.6239, 7756.931
350.1060, 7740.850
350.5881, 7701.720
351.0702, 7659.381
351.5523, 7671.734
352.0345, 7741.517
352.5166, 7817.094
352.9987, 7853.038
353.4808, 7857.455
353.9629, 7851.041
354.4450, 7834.948
354.9272, 7815.652
355.4093, 7800.399
355.8914, 7789.324
356.3735, 7783.630
356.8556, 7788.459
357.3377, 7798.541
357.8199, 7805.565
358.3020, 7801.190
358.7841, 7797.564
359.2662, 7811.069
359.7483, 7839.502
360.2304, 7857.993
360.7126, 7837.999
361.1947, 7806.445
361.6768, 7790.174
362.1589, 7739.052
362.6410, 7793.844
363.1231, 7825.350
363.6053, 7834.822
364.0874, 7756.266
364.5695, 7791.380
365.0516, 7780.940
365.5337, 7768.633
366.0158, 7819.746
366.4980, 7753.993
366.9801, 7804.101
367.4622, 7807.959
367.9443, 7832.984
368.4264, 7812.174
368.9085, 7805.521
369.3907, 7801.901
369.8728, 7862.455
370.3549, 7907.631
370.8370, 7927.899
371.3191, 7928.311
371.8012, 7927.167
372.2834, 7926.360
372.7655, 7923.072
373.2476, 7915.663
373.7297, 7897.384
374.2119, 7888.279
374.6940, 7892.868
375.1761, 7906.277
375.6582, 7916.243
376.1403, 7924.815
376.6224, 7926.821
377.1046, 7916.539
377.5867, 7886.179
378.0688, 7873.133
378.5509, 7881.547
379.0330, 7903.090
379.5151, 7922.752
379.9973, 7940.752
380.4794, 7955.139
380.9615, 7961.365
381.4436, 7959.054
381.9257, 7969.842
382.4078, 7997.093
382.8900, 8028.664
383.3721, 8046.478
383.8542, 8050.730
384.3363, 8054.324
384.8184, 8044.167
385.3005, 8094.482
385.7827, 8121.511
386.2648, 8126.507
386.7469, 8043.474
387.2290, 8074.112
387.7111, 8059.195
388.1932, 8042.411
388.6754, 8089.047
389.1575, 8018.818
389.6396, 8064.449
390.1217, 8063.831
390.6038, 8041.586
391.0859, 8033.380
391.5681, 8034.099
392.0502, 8038.132
392.5323, 8045.340
393.0144, 8053.830
393.4965, 8061.855
393.9786, 8069.684
394.4608, 8079.216
394.9429, 8091.779
395.4250, 8106.194
395.9071, 8121.298
396.3892, 8133.314
396.8713, 8149.139
397.3535, 8172.745
397.8356, 8202.470
398.3177, 8231.050
398.7998, 8256.922
399.2819, 8280.377
399.7640, 8301.588
400.2462, 8322.781
400.7283, 8338.468
401.2104, 8339.927
401.6925, 8334.127
402.1746, 8344.606
402.6567, 8403.433
403.1389, 8447.504
403.6210, 8447.808
404.1031, 8368.042
404.5852, 8324.983
405.0673, 8327.481
405.5494, 8362.349
406.0316, 8405.483
406.5137, 8461.051
406.9958, 8516.497
407.4779, 8566.794
407.9600, 8611.404
408.4421, 8657.520
408.9243, 8704.502
409.4064, 8754.759
409.8885, 8810.820
410.3706, 8872.905
410.8527, 8939.248
411.3348, 9005.394
411.8170, 9074.468
412.2991, 9165.791
412.7812, 9279.451
413.2633, 9408.438
413.7454, 9544.039
414.2275, 9687.708
414.7097, 9843.981
415.1918, 10021.84
415.6739, 10207.94
416.1560, 10384.70
416.6381, 10551.61
417.1202, 10710.25
417.6024, 10842.49
418.0845, 10971.49
418.5666, 11133.01
419.0487, 11342.90
419.5308, 11578.70
420.0129, 11828.86
420.4951, 12091.08
420.9772, 12363.64
421.4593, 12633.75
421.9414, 12918.57
422.4235, 13227.10
422.9056, 13568.00
423.3878, 13922.82
423.8699, 14300.97
424.3520, 14688.57
424.8341, 15067.25
425.3162, 15462.91
425.7983, 15825.77
426.2805, 16150.73
426.7626, 16452.07
427.2447, 16661.79
427.7268, 16794.83
428.2089, 16830.85
428.6910, 16747.84
429.1732, 16530.88
429.6553, 16213.32
430.1374, 15784.12
430.6195, 15235.83
431.1016, 14689.52
431.5837, 14143.13
432.0659, 13601.81
432.5480, 13063.89
433.0301, 12522.54
433.5122, 12017.55
433.9943, 11549.60
434.4764, 11127.22
434.9586, 10775.65
435.4407, 10499.49
435.9228, 10273.53
436.4049, 10091.77
436.8870, 9948.958
437.3691, 9824.057
437.8513, 9716.938
438.3334, 9620.296
438.8155, 9521.834
439.2976, 9422.320
439.7797, 9333.570
440.2618, 9257.120
440.7440, 9196.109
441.2261, 9161.874
441.7082, 9160.727
442.1903, 9156.569
442.6724, 9108.429
443.1545, 9038.548
443.6367, 8986.619
444.1188, 8983.127
444.6009, 8991.312
445.0830, 8992.845
445.5651, 8986.746
446.0472, 8975.666
446.5294, 8952.898
447.0115, 8929.079
447.4936, 8913.887
447.9757, 8915.244
448.4578, 8918.606
448.9399, 8923.444
449.4221, 8929.132
449.9042, 8930.292
450.3863, 8926.741
450.8684, 8918.976
451.3505, 8905.489
451.8326, 8874.280
452.3148, 8863.688
452.7969, 8886.695
453.2790, 8925.222
453.7611, 8933.369
454.2432, 8901.139
454.7253, 8868.615
455.2075, 8854.667
455.6896, 8860.068
456.1717, 8859.741
456.6538, 8851.813
457.1360, 8843.666
457.6181, 8845.390
458.1002, 8856.320
458.5823, 8869.278
459.0644, 8879.864
459.5465, 8891.498
460.0287, 8917.329
460.5108, 8956.530
460.9929, 8989.609
461.4750, 8991.192
461.9571, 8977.160
462.4392, 8974.635
462.9214, 8995.290
463.4035, 9022.716
463.8856, 9044.773
464.3677, 9062.655
464.8498, 9079.227
465.3319, 9095.966
465.8141, 9111.911
466.2962, 9125.755
466.7783, 9135.727
467.2604, 9148.001
467.7425, 9174.038
468.2246, 9201.287
468.7068, 9210.294
469.1889, 9164.864
469.6710, 9134.160
470.1531, 9141.498
470.6352, 9192.398
471.1173, 9233.217
471.5995, 9258.438
472.0816, 9279.072
472.5637, 9306.630
473.0458, 9347.693
473.5279, 9377.552
474.0100, 9387.896
474.4922, 9385.676
474.9743, 9399.356
475.4564, 9431.559
475.9385, 9467.427
476.4206, 9498.774
476.9027, 9525.529
477.3849, 9545.606
477.8670, 9555.559
478.3491, 9567.062
478.8312, 9597.886
479.3133, 9645.764
479.7954, 9699.088
480.2776, 9752.550
480.7597, 9808.451
481.2418, 9876.792
481.7239, 9958.394
482.2060, 10025.99
482.6881, 10035.18
483.1703, 10026.36
483.6524, 10050.77
484.1345, 10152.74
484.6166, 10264.16
485.0987, 10356.32
485.5808, 10432.61
486.0630, 10509.34
486.5451, 10593.19
487.0272, 10676.50
487.5093, 10754.08
487.9914, 10812.05
488.4735, 10886.18
488.9557, 10984.81
489.4378, 11097.72
489.9199, 11208.39
490.4020, 11313.59
490.8841, 11419.51
491.3662, 11525.09
491.8484, 11628.03
492.3305, 11754.22
492.8126, 11910.34
493.2947, 12075.59
493.7768, 12230.66
494.2589, 12376.04
494.7411, 12527.30
495.2232, 12691.46
495.7053, 12861.25
496.1874, 13028.89
496.6695, 13193.51
497.1516, 13359.92
497.6338, 13533.68
498.1159, 13709.94
498.5980, 13882.20
499.0801, 14047.27
499.5622, 14215.64
500.0443, 14415.85
500.5265, 14625.02
501.0086, 14807.51
501.4907, 14936.92
501.9728, 15042.55
502.4549, 15144.59
502.9370, 15243.05
503.4192, 15302.46
503.9013, 15289.35
504.3834, 15246.79
504.8655, 15204.94
505.3476, 15192.94
505.8297, 15150.15
506.3119, 15075.14
506.7940, 14967.93
507.2761, 14826.50
507.7582, 14644.86
508.2403, 14440.26
508.7224, 14214.55
509.2046, 13964.77
509.6867, 13723.25
510.1688, 13486.43
510.6509, 13261.16
511.1330, 13056.43
511.6151, 12873.41
512.0973, 12696.20
512.5794, 12520.44
513.0615, 12348.19
513.5436, 12173.92
514.0258, 11999.74
514.5079, 11847.17
514.9900, 11741.72
515.4721, 11664.17
515.9542, 11586.61
516.4363, 11505.18
516.9185, 11419.85
517.4006, 11324.76
517.8827, 11226.43
518.3648, 11136.67
518.8469, 11065.78
519.3290, 10999.84
519.8112, 10930.52
520.2933, 10857.10
520.7754, 10793.92
521.2575, 10752.99
521.7396, 10718.75
522.2217, 10679.67
522.7039, 10626.66
523.1860, 10584.26
523.6681, 10554.78
524.1502, 10536.34
524.6323, 10524.29
525.1144, 10518.69
525.5966, 10517.98
526.0787, 10527.88
526.5608, 10547.47
527.0429, 10536.38
527.5250, 10488.62
528.0071, 10434.14
528.4893, 10412.66
528.9714, 10415.65
529.4535, 10408.52
529.9356, 10372.22
530.4177, 10329.55
530.8998, 10323.56
531.3820, 10344.22
531.8641, 10342.14
532.3462, 10254.35
532.8283, 10150.66
533.3104, 10095.89
533.7925, 10115.41
534.2747, 10134.85
534.7568, 10126.70
535.2389, 10100.99
535.7210, 10071.47
536.2031, 10033.48
536.6852, 9999.319
537.1674, 9975.947
537.6495, 9962.323
538.1316, 9931.708
538.6137, 9865.312
539.0958, 9805.832
539.5779, 9787.923
540.0601, 9827.931
540.5422, 9827.703
541.0243, 9768.393
541.5064, 9686.174
541.9885, 9647.197
542.4706, 9651.254
542.9528, 9654.702
543.4349, 9641.133
543.9170, 9614.078
544.3991, 9577.361
544.8812, 9531.217
545.3633, 9488.944
545.8455, 9461.128
546.3276, 9443.943
546.8097, 9432.276
547.2918, 9425.496
547.7739, 9423.143
548.2560, 9426.498
548.7382, 9433.898
549.2203, 9441.729
549.7024, 9451.146
550.1845, 9458.139
550.6666, 9458.950
551.1487, 9451.137
551.6309, 9448.981
552.1130, 9456.935
552.5951, 9466.302
553.0772, 9471.368
553.5593, 9474.176
554.0414, 9465.071
554.5236, 9437.387
555.0057, 9401.365
555.4878, 9384.242
555.9699, 9387.900
556.4520, 9392.089
556.9341, 9388.487
557.4163, 9377.714
557.8984, 9360.402
558.3805, 9336.427
558.8626, 9309.935
559.3447, 9277.464
559.8268, 9246.230
560.3090, 9229.901
560.7911, 9238.071
561.2732, 9253.985
561.7553, 9273.914
562.2374, 9293.707
562.7195, 9301.009
563.2017, 9286.143
563.6838, 9262.229
564.1659, 9227.291
564.6480, 9169.976
565.1301, 9150.906
565.6122, 9200.755
566.0944, 9269.938
566.5765, 9316.194
567.0586, 9340.608
567.5407, 9337.028
568.0228, 9289.888
568.5049, 9221.560
568.9871, 9202.223
569.4692, 9236.204
569.9513, 9283.351
570.4334, 9332.560
570.9155, 9378.007
571.3976, 9390.855
571.8798, 9367.977
572.3619, 9337.640
572.8440, 9327.696
573.3261, 9328.901
573.8082, 9324.801
574.2903, 9304.924
574.7725, 9286.128
575.2546, 9281.269
575.7367, 9286.562
576.2188, 9290.785
576.7009, 9286.929
577.1830, 9284.369
577.6652, 9289.116
578.1473, 9304.939
578.6294, 9314.261
579.1115, 9319.340
579.5936, 9316.241
580.0757, 9295.973
580.5579, 9241.701
581.0400, 9222.564
581.5221, 9257.396
582.0042, 9323.244
582.4863, 9363.679
582.9684, 9378.465
583.4506, 9378.894
583.9327, 9352.759
584.4148, 9317.793
584.8969, 9332.546
585.3790, 9399.210
585.8611, 9464.450
586.3433, 9486.655
586.8254, 9480.869
587.3075, 9465.858
587.7896, 9436.553
588.2717, 9415.600
588.7538, 9420.602
589.2360, 9441.813
589.7181, 9458.495
590.2002, 9456.841
590.6823, 9457.901
591.1644, 9471.164
591.6465, 9497.759
592.1287, 9516.441
592.6108, 9525.777
593.0929, 9529.550
593.5750, 9528.803
594.0571, 9522.284
594.5392, 9522.505
595.0214, 9533.673
595.5035, 9546.648
595.9856, 9541.363
596.4677, 9520.736
596.9498, 9507.849
597.4319, 9510.306
597.9141, 9527.663
598.3962, 9566.679
598.8783, 9624.442
599.3604, 9676.629
599.8425, 9713.054
600.3246, 9733.588
600.8068, 9733.052
601.2889, 9696.846
601.7710, 9675.360
602.2531, 9685.555
602.7352, 9717.858
603.2173, 9759.979
603.6995, 9826.215
604.1816, 9881.238
604.6637, 9914.221
605.1458, 9930.504
605.6279, 9960.741
606.1100, 10010.68
606.5922, 10056.48
607.0743, 10079.37
607.5564, 10082.37
608.0385, 10093.42
608.5206, 10111.35
609.0027, 10149.12
609.4849, 10233.13
609.9670, 10346.95
610.4491, 10449.40
610.9312, 10520.00
611.4133, 10588.83
611.8954, 10679.32
612.3776, 10787.34
612.8597, 10904.65
613.3418, 11020.00
613.8239, 11148.48
614.3060, 11294.07
614.7881, 11455.70
615.2703, 11640.88
615.7524, 11849.42
616.2345, 12078.06
616.7166, 12330.14
617.1987, 12607.08
617.6808, 12888.96
618.1630, 13177.35
618.6451, 13469.96
619.1272, 13753.32
619.6093, 14031.29
620.0914, 14346.11
620.5735, 14737.21
621.0557, 15160.29
621.5378, 15548.00
622.0199, 15902.84
622.5020, 16258.68
622.9841, 16649.62
623.4662, 17045.17
623.9484, 17424.95
624.4305, 17802.44
624.9126, 18119.37
625.3947, 18350.07
625.8768, 18515.44
626.3589, 18638.88
626.8411, 18737.24
627.3232, 18773.76
627.8053, 18736.96
628.2874, 18636.93
628.7695, 18504.79
629.2516, 18341.62
629.7338, 18149.08
630.2159, 17935.10
630.6980, 17695.31
631.1801, 17394.29
631.6622, 17030.65
632.1443, 16630.78
632.6265, 16220.44
633.1086, 15793.27
633.5907, 15333.68
634.0728, 14819.81
634.5549, 14318.28
635.0370, 13861.34
635.5192, 13443.89
636.0013, 13057.56
636.4834, 12679.68
636.9655, 12351.59
637.4476, 12104.03
637.9297, 11926.66
638.4119, 11740.99
638.8940, 11528.40
639.3761, 11334.64
639.8582, 11182.08
640.3403, 11073.94
640.8224, 10974.23
641.3046, 10882.23
641.7867, 10802.23
642.2688, 10740.67
642.7509, 10696.10
643.2330, 10663.09
643.7151, 10647.75
644.1973, 10629.48
644.6794, 10580.74
645.1615, 10511.89
645.6436, 10446.33
646.1257, 10386.97
646.6078, 10341.27
647.0900, 10313.81
647.5721, 10304.58
648.0542, 10310.35
648.5363, 10351.63
649.0184, 10389.99
649.5005, 10405.67
649.9827, 10387.80
650.4648, 10385.79
650.9469, 10403.64
651.4290, 10430.71
651.9111, 10453.78
652.3932, 10472.80
652.8754, 10493.18
653.3575, 10513.14
653.8396, 10538.69
654.3217, 10583.59
654.8038, 10642.89
655.2859, 10700.25
