##NAMES=Gustavite
##RRUFFID=R110011
##IDEAL CHEMISTRY=Ag^1+^Pb^2+^Bi^3+^_3_S^2-^_6_
##LOCALITY=Rotgulden, Salzburg, Austria
##OWNER=RRUFF
##SOURCE=William Pinch
##DESCRIPTION=Black bladed reticulated crystals associated with arsenopyrite, siderite and pyrrhotite
##STATUS=The identification of this mineral has been confirmed by single-crystal X-ray diffraction.
##URL=rruff.info/R110011
118.9371, 39.13850
119.4192, 39.22214
119.9013, 39.12262
120.3834, 38.81704
120.8655, 38.38806
121.3477, 38.15841
121.8298, 38.28091
122.3119, 38.70558
122.7940, 39.44333
123.2761, 41.29258
123.7582, 42.74263
124.2404, 42.18304
124.7225, 39.74287
125.2046, 37.00680
125.6867, 34.80615
126.1688, 33.19194
126.6509, 32.28265
127.1331, 32.41909
127.6152, 33.18580
128.0973, 34.02162
128.5794, 34.92694
129.0615, 35.89671
129.5436, 37.18273
130.0258, 38.63439
130.5079, 39.56981
130.9900, 39.38258
131.4721, 38.41740
131.9542, 37.73853
132.4363, 37.41840
132.9185, 37.26902
133.4006, 36.77071
133.8827, 35.92767
134.3648, 35.73442
134.8469, 37.54747
135.3290, 41.11027
135.8112, 42.38988
136.2933, 40.47906
136.7754, 36.88337
137.2575, 35.00817
137.7396, 35.06044
138.2217, 35.89751
138.7039, 37.12389
139.1860, 38.91595
139.6681, 39.78407
140.1502, 39.29923
140.6323, 37.81581
141.1144, 36.75889
141.5966, 36.02009
142.0787, 35.92118
142.5608, 36.97174
143.0429, 39.86693
143.5250, 41.92494
144.0071, 42.61246
144.4893, 41.97265
144.9714, 41.14586
145.4535, 39.81921
145.9356, 38.61721
146.4177, 38.18803
146.8998, 39.00415
147.3820, 39.83070
147.8641, 40.37615
148.3462, 40.54216
148.8283, 41.12159
149.3104, 42.66562
149.7925, 44.36751
150.2747, 45.29059
150.7568, 43.98832
151.2389, 43.37539
151.7210, 44.24673
152.2031, 47.11802
152.6852, 49.80001
153.1674, 52.39703
153.6495, 54.77592
154.1316, 56.76366
154.6137, 57.65189
155.0958, 58.74414
155.5779, 60.39477
156.0601, 62.55895
156.5422, 65.43635
157.0243, 69.61389
157.5064, 74.49214
157.9885, 78.91010
158.4706, 82.27760
158.9528, 85.37814
159.4349, 88.55978
159.9170, 91.88731
160.3991, 95.27885
160.8812, 98.85416
161.3633, 102.4958
161.8455, 105.8953
162.3276, 108.9139
162.8097, 111.6571
163.2918, 114.2265
163.7739, 116.4197
164.2560, 118.7107
164.7382, 121.1822
165.2203, 123.8814
165.7024, 126.9882
166.1845, 131.1185
166.6666, 135.4749
167.1487, 139.2992
167.6309, 142.2779
168.1130, 144.8394
168.5951, 146.9959
169.0772, 148.8348
169.5593, 150.8302
170.0414, 153.5633
170.5236, 156.5347
171.0057, 159.0820
171.4878, 160.0683
171.9699, 161.2964
172.4520, 164.4913
172.9341, 169.5452
173.4163, 174.9836
173.8984, 179.8291
174.3805, 184.3769
174.8626, 188.9688
175.3447, 193.9928
175.8268, 199.0792
176.3090, 203.9929
176.7911, 208.6951
177.2732, 212.8420
177.7553, 215.0119
178.2374, 215.3912
178.7195, 215.4235
179.2017, 215.2455
179.6838, 215.2837
180.1659, 216.4752
180.6480, 218.9111
181.1301, 221.3563
181.6122, 222.2381
182.0944, 222.0604
182.5765, 222.4544
183.0586, 224.7776
183.5407, 228.0554
184.0228, 230.3331
184.5049, 231.5195
184.9871, 231.9831
185.4692, 232.0907
185.9513, 231.8309
186.4334, 231.1199
186.9155, 229.4780
187.3976, 227.2976
187.8798, 226.0105
188.3619, 225.8036
188.8440, 225.9301
189.3261, 225.2232
189.8082, 223.7512
190.2903, 222.5230
190.7725, 222.4522
191.2546, 223.2266
191.7367, 222.7177
192.2188, 220.4161
192.7009, 217.8777
193.1830, 218.2049
193.6652, 221.4034
194.1473, 224.3560
194.6294, 225.2729
195.1115, 224.2921
195.5936, 222.9832
196.0757, 221.3133
196.5579, 219.5643
197.0400, 218.1512
197.5221, 217.0434
198.0042, 216.5289
198.4863, 217.0710
198.9684, 218.6857
199.4506, 219.7605
199.9327, 220.1397
200.4148, 219.9870
200.8969, 219.5551
201.3790, 218.7936
201.8611, 218.0131
202.3433, 217.4120
202.8254, 217.0105
203.3075, 216.5176
203.7896, 215.8318
204.2717, 215.1145
204.7538, 214.8530
205.2360, 215.1516
205.7181, 215.5008
206.2002, 215.5686
206.6823, 215.2959
207.1644, 215.1229
207.6465, 215.1397
208.1287, 215.2427
208.6108, 215.0556
209.0929, 214.4355
209.5750, 213.9109
210.0571, 214.0206
210.5392, 215.0900
211.0214, 215.1506
211.5035, 213.5482
211.9856, 210.9878
212.4677, 210.1336
212.9498, 211.7772
213.4319, 213.3641
213.9140, 212.9668
214.3962, 209.5806
214.8783, 207.9621
215.3604, 209.1873
215.8425, 212.3878
216.3246, 213.9838
216.8067, 213.5298
217.2889, 212.3692
217.7710, 211.1327
218.2531, 209.5081
218.7352, 208.7869
219.2173, 209.4353
219.6994, 211.0689
220.1816, 211.8642
220.6637, 211.6646
221.1458, 210.9230
221.6279, 209.9037
222.1100, 208.5757
222.5921, 206.9838
223.0743, 204.8925
223.5564, 202.5280
224.0385, 200.9702
224.5206, 200.7795
225.0027, 200.5725
225.4848, 199.3320
225.9670, 196.2268
226.4491, 194.2089
226.9312, 194.0085
227.4133, 195.1165
227.8954, 194.9937
228.3775, 193.1616
228.8597, 190.8123
229.3418, 188.6044
229.8239, 186.4245
230.3060, 184.6793
230.7881, 183.6113
231.2702, 183.0229
231.7524, 181.9866
232.2345, 180.2077
232.7166, 178.4085
233.1987, 177.0687
233.6808, 176.4967
234.1629, 175.6937
234.6451, 174.5415
235.1272, 173.1015
235.6093, 171.6175
236.0914, 170.0654
236.5735, 168.5040
237.0556, 167.0324
237.5378, 165.9688
238.0199, 164.2503
238.5020, 161.4062
238.9841, 157.8484
239.4662, 155.3492
239.9483, 154.1681
240.4305, 153.6917
240.9126, 153.7448
241.3947, 154.9792
241.8768, 155.2973
242.3589, 154.3775
242.8410, 152.5035
243.3232, 150.5836
243.8053, 148.4538
244.2874, 146.5137
244.7695, 145.0007
245.2516, 144.0568
245.7337, 143.2016
246.2159, 142.4972
246.6980, 141.8539
247.1801, 141.0088
247.6622, 139.9216
248.1443, 138.6761
248.6264, 137.2565
249.1086, 135.3808
249.5907, 133.9931
250.0728, 133.2159
250.5549, 132.9052
251.0370, 132.7006
251.5191, 132.6595
252.0013, 132.6388
252.4834, 132.6867
252.9655, 133.1878
253.4476, 132.6490
253.9297, 130.3816
254.4118, 127.3860
254.8940, 125.9979
255.3761, 127.0941
255.8582, 128.2452
256.3403, 128.4126
256.8224, 127.2865
257.3046, 126.1693
257.7867, 124.9709
258.2688, 123.8442
258.7509, 123.1397
259.2330, 123.0437
259.7151, 122.9981
260.1973, 122.7700
260.6794, 122.2910
261.1615, 121.9495
261.6436, 121.7630
262.1257, 121.7027
262.6078, 121.6850
263.0900, 121.6052
263.5721, 121.8438
264.0542, 122.7751
264.5363, 124.6876
265.0184, 125.2941
265.5005, 124.0721
265.9827, 122.1810
266.4648, 121.3403
266.9469, 121.9176
267.4290, 122.4967
267.9111, 122.6106
268.3932, 122.2185
268.8754, 122.0149
269.3575, 122.0449
269.8396, 122.1882
270.3217, 122.2544
270.8038, 122.1691
271.2859, 122.2887
271.7681, 122.7665
272.2502, 123.5836
272.7323, 124.3123
273.2144, 124.9371
273.6965, 125.4773
274.1786, 125.9804
274.6608, 126.4828
275.1429, 126.7465
275.6250, 126.5737
276.1071, 126.0734
276.5892, 126.1832
277.0714, 127.0827
277.5535, 128.0753
278.0356, 128.4833
278.5177, 128.2569
278.9998, 127.9268
279.4819, 127.5008
279.9641, 127.0702
280.4462, 127.2159
280.9283, 128.1056
281.4104, 128.8489
281.8925, 128.4664
282.3746, 126.9355
282.8568, 126.0479
283.3389, 126.3330
283.8210, 127.2638
284.3031, 127.3421
284.7852, 126.5051
285.2673, 125.3736
285.7495, 124.4552
286.2316, 123.7069
286.7137, 122.4523
287.1958, 120.4483
287.6779, 118.1346
288.1600, 116.5443
288.6422, 115.6902
289.1243, 114.6899
289.6064, 112.7936
290.0885, 110.2033
290.5706, 108.1522
291.0527, 106.8964
291.5349, 105.8460
292.0170, 103.8143
292.4991, 100.9256
292.9812, 98.38490
293.4633, 97.02847
293.9454, 96.56612
294.4276, 96.17872
294.9097, 95.85949
295.3918, 95.46774
295.8739, 94.76809
296.3560, 93.82022
296.8381, 92.87025
297.3203, 92.11332
297.8024, 91.43184
298.2845, 90.52522
298.7666, 89.36311
299.2487, 88.19530
299.7308, 87.22617
300.2130, 86.43425
300.6951, 85.76894
301.1772, 85.09788
301.6593, 84.59517
302.1414, 84.62302
302.6235, 85.16983
303.1057, 85.76609
303.5878, 86.17394
304.0699, 86.33923
304.5520, 86.12592
305.0341, 85.20573
305.5162, 84.15569
305.9984, 83.78799
306.4805, 83.97436
306.9626, 83.80952
307.4447, 82.04529
307.9268, 79.75635
308.4089, 78.48005
308.8911, 79.26701
309.3732, 80.15054
309.8553, 79.31095
310.3374, 77.18557
310.8195, 75.22801
311.3016, 74.44395
311.7838, 74.12530
312.2659, 73.63593
312.7480, 72.80939
313.2301, 71.91330
313.7122, 70.96265
314.1943, 70.04659
314.6765, 69.37527
315.1586, 69.33630
315.6407, 69.36597
316.1228, 69.00660
316.6049, 68.05058
317.0870, 67.36662
317.5692, 67.55085
318.0513, 68.19629
318.5334, 68.73473
319.0155, 69.22243
319.4976, 69.36030
319.9797, 68.80897
320.4619, 67.47007
320.9440, 66.45124
321.4261, 66.42835
321.9082, 66.73568
322.3903, 66.74359
322.8724, 66.10046
323.3546, 65.36304
323.8367, 64.47652
324.3188, 63.47083
324.8009, 63.00106
325.2830, 63.74229
325.7651, 64.70561
326.2473, 65.25050
326.7294, 65.27628
327.2115, 64.93448
327.6936, 63.94239
328.1757, 62.49087
328.6578, 61.48117
329.1400, 61.12505
329.6221, 61.04320
330.1042, 61.09656
330.5863, 61.50109
331.0684, 61.67793
331.5505, 61.47839
332.0327, 61.07688
332.5148, 60.89611
332.9969, 61.32230
333.4790, 61.43390
333.9611, 60.74215
334.4432, 58.81934
334.9254, 57.87638
335.4075, 58.43833
335.8896, 59.54338
336.3717, 59.73899
336.8538, 58.44107
337.3359, 57.67462
337.8180, 58.26786
338.3001, 60.18317
338.7823, 60.99643
339.2644, 60.36103
339.7465, 59.29801
340.2286, 58.79315
340.7107, 58.93782
341.1928, 59.15869
341.6750, 59.44859
342.1571, 59.70565
342.6392, 59.33884
343.1213, 58.19613
343.6034, 57.22344
344.0855, 57.42995
344.5677, 58.73811
345.0498, 59.09695
345.5319, 57.99411
346.0140, 56.27497
346.4961, 55.56356
346.9782, 55.83054
347.4604, 56.33559
347.9425, 56.73982
348.4246, 57.05578
348.9067, 57.25384
349.3888, 57.29135
349.8709, 57.41585
350.3531, 58.17296
350.8352, 59.34376
351.3173, 60.11321
351.7994, 59.83546
352.2815, 59.03982
352.7636, 58.66494
353.2458, 58.71027
353.7279, 58.70128
354.2100, 57.98159
354.6921, 56.97021
355.1742, 56.43494
355.6563, 57.01761
356.1385, 57.73066
356.6206, 57.53951
357.1027, 56.59470
357.5848, 55.65819
358.0669, 55.01805
358.5490, 54.67775
359.0312, 54.70966
359.5133, 55.31646
359.9954, 55.86214
360.4775, 55.91841
360.9596, 55.64775
361.4417, 55.39491
361.9239, 55.31133
362.4060, 55.27431
362.8881, 55.20708
363.3702, 55.08662
363.8523, 55.01887
364.3344, 54.97717
364.8166, 55.02746
365.2987, 55.24697
365.7808, 56.23045
366.2629, 56.80243
366.7450, 56.39995
367.2271, 55.02721
367.7093, 54.03167
368.1914, 53.72707
368.6735, 53.74665
369.1556, 53.85823
369.6377, 54.40769
370.1198, 54.58757
370.6020, 54.05086
371.0841, 53.07663
371.5662, 52.70549
372.0483, 53.39579
372.5304, 54.13527
373.0125, 54.51396
373.4947, 54.43382
373.9768, 54.22103
374.4589, 53.68342
374.9410, 53.16442
375.4231, 53.34169
375.9052, 54.58175
376.3874, 55.49518
376.8695, 55.62389
377.3516, 54.98327
377.8337, 54.14471
378.3158, 52.96553
378.7979, 51.95073
379.2801, 51.79063
379.7622, 52.53820
380.2443, 52.91087
380.7264, 52.52288
381.2085, 51.71982
381.6906, 51.47647
382.1728, 51.80237
382.6549, 52.17564
383.1370, 52.09320
383.6191, 51.72986
384.1012, 51.89659
384.5833, 52.81366
385.0655, 53.79888
385.5476, 53.70770
386.0297, 52.83929
386.5118, 52.28799
386.9939, 53.01955
387.4760, 54.20182
387.9582, 54.55373
388.4403, 54.04638
388.9224, 53.37664
389.4045, 53.10323
389.8866, 53.03067
390.3687, 52.88231
390.8509, 52.55545
391.3330, 52.14247
391.8151, 51.66611
392.2972, 51.14494
392.7793, 50.64529
393.2614, 50.09182
393.7436, 49.64285
394.2257, 49.38773
394.7078, 49.32384
395.1899, 49.51001
395.6720, 49.97909
396.1541, 50.70842
396.6363, 51.66188
397.1184, 53.73559
397.6005, 55.18957
398.0826, 55.19970
398.5647, 53.53559
399.0468, 52.10359
399.5290, 50.92390
400.0111, 50.13889
400.4932, 49.87005
400.9753, 50.65050
401.4574, 51.22297
401.9395, 51.31716
402.4217, 51.08386
402.9038, 51.29104
403.3859, 52.35907
403.8680, 53.25154
404.3501, 53.42485
404.8322, 52.66834
405.3144, 51.85968
405.7965, 50.84533
406.2786, 49.97086
406.7607, 49.99028
407.2428, 51.12733
407.7249, 51.90140
408.2071, 51.54738
408.6892, 50.34978
409.1713, 50.36989
409.6534, 51.81260
410.1355, 53.28289
410.6176, 53.29413
411.0998, 52.10613
411.5819, 51.24854
412.0640, 51.09125
412.5461, 51.26896
413.0282, 51.13884
413.5103, 50.76980
413.9925, 50.56324
414.4746, 50.88826
414.9567, 51.47951
415.4388, 51.92158
415.9209, 52.17648
416.4030, 52.36843
416.8852, 52.68400
417.3673, 52.99626
417.8494, 53.10146
418.3315, 52.85390
418.8136, 52.43314
419.2957, 51.79976
419.7779, 51.02186
420.2600, 50.49415
420.7421, 50.67717
421.2242, 51.01383
421.7063, 51.05463
422.1884, 50.40706
422.6706, 50.05562
423.1527, 50.42535
423.6348, 51.22923
424.1169, 51.92486
424.5990, 52.61413
425.0811, 53.01900
425.5633, 53.01883
426.0454, 52.57806
426.5275, 51.97901
427.0096, 50.85785
427.4917, 49.85866
427.9738, 49.56796
428.4560, 50.44335
428.9381, 51.08120
429.4202, 51.36920
429.9023, 51.30064
430.3844, 50.73997
430.8665, 49.47695
431.3487, 48.32981
431.8308, 47.65893
432.3129, 47.46576
432.7950, 47.81179
433.2771, 48.83775
433.7592, 50.03100
434.2414, 50.83254
434.7235, 51.24487
435.2056, 51.24291
435.6877, 50.56865
436.1698, 49.65131
436.6519, 49.55380
437.1341, 50.23039
437.6162, 50.83407
438.0983, 50.54649
438.5804, 49.81266
439.0625, 49.44010
439.5446, 49.64326
440.0268, 49.94263
440.5089, 49.95830
440.9910, 49.75265
441.4731, 49.45552
441.9552, 48.75891
442.4373, 48.27542
442.9195, 48.65324
443.4016, 49.87107
443.8837, 50.67980
444.3658, 50.23595
444.8479, 49.35619
445.3300, 48.66669
445.8122, 47.97226
446.2943, 47.88325
446.7764, 49.08159
447.2585, 50.97860
447.7406, 52.06683
448.2227, 51.76991
448.7049, 51.11385
449.1870, 50.22588
449.6691, 48.97648
450.1512, 48.34748
450.6333, 48.59347
451.1154, 49.18925
451.5976, 49.72748
452.0797, 50.31868
452.5618, 50.40841
453.0439, 49.66230
453.5260, 48.49118
454.0081, 48.31414
454.4903, 49.31072
454.9724, 50.12907
455.4545, 49.83498
455.9366, 48.61107
456.4187, 47.68773
456.9008, 47.09872
457.3830, 46.86968
457.8651, 47.32113
458.3472, 48.21615
458.8293, 48.75460
459.3114, 48.53948
459.7935, 47.98763
460.2757, 47.43042
460.7578, 46.92894
461.2399, 46.77428
461.7220, 47.65563
462.2041, 48.68995
462.6862, 48.93224
463.1684, 48.08232
463.6505, 47.19647
464.1326, 46.58902
464.6147, 46.33748
465.0968, 46.53996
465.5789, 48.09845
466.0611, 49.22803
466.5432, 49.11817
467.0253, 47.89314
467.5074, 47.06291
467.9895, 46.96110
468.4716, 47.16535
468.9538, 47.49932
469.4359, 48.02958
469.9180, 48.55777
470.4001, 49.25133
470.8822, 49.83098
471.3643, 49.81596
471.8465, 48.99015
472.3286, 48.18044
472.8107, 47.53072
473.2928, 47.06961
473.7749, 47.04221
474.2570, 47.54317
474.7392, 47.97917
475.2213, 47.79076
475.7034, 47.08615
476.1855, 46.57961
476.6676, 46.33045
477.1497, 46.34330
477.6319, 46.88229
478.1140, 47.74226
478.5961, 48.23994
479.0782, 47.63417
479.5603, 46.78551
480.0424, 46.93448
480.5246, 47.93250
481.0067, 48.56925
481.4888, 47.41061
481.9709, 45.92606
482.4530, 45.56818
482.9352, 47.18034
483.4173, 48.51050
483.8994, 48.47562
484.3815, 47.64249
484.8636, 46.87606
485.3457, 46.05094
485.8279, 45.64279
486.3100, 46.09003
486.7921, 47.38884
487.2742, 47.93440
487.7563, 47.13035
488.2384, 46.18504
488.7206, 45.80257
489.2027, 46.27305
489.6848, 46.51520
490.1669, 46.44101
490.6490, 46.21751
491.1311, 46.10547
491.6133, 46.11953
492.0954, 46.13810
492.5775, 46.05963
493.0596, 45.97475
493.5417, 46.44878
494.0238, 47.49544
494.5060, 48.15950
494.9881, 47.25859
495.4702, 45.45337
495.9523, 44.45012
496.4344, 44.58423
496.9165, 45.02406
497.3987, 44.88801
497.8808, 44.46756
498.3629, 44.31553
498.8450, 45.27497
499.3271, 46.06067
499.8092, 45.47168
500.2914, 43.79409
500.7735, 42.65710
501.2556, 42.98441
501.7377, 43.80680
502.2198, 44.65028
502.7019, 45.66552
503.1841, 46.17645
503.6662, 45.53455
504.1483, 44.58221
504.6304, 44.34782
505.1125, 45.62457
505.5946, 46.29737
506.0768, 45.68978
506.5589, 44.19120
507.0410, 43.98009
507.5231, 45.64095
508.0052, 46.94509
508.4873, 46.25590
508.9695, 43.55438
509.4516, 42.56471
509.9337, 43.59016
510.4158, 45.15015
510.8979, 45.59694
511.3800, 45.11218
511.8622, 44.45602
512.3443, 43.72594
512.8264, 43.07207
513.3085, 42.59785
513.7906, 42.34019
514.2728, 42.43171
514.7549, 43.48507
515.2370, 44.57045
515.7191, 44.61289
516.2012, 43.46196
516.6833, 42.83050
517.1655, 44.29761
517.6476, 46.21184
518.1297, 47.15326
518.6118, 45.87724
519.0939, 44.79881
519.5760, 44.49431
520.0582, 44.62769
520.5403, 44.36956
521.0224, 43.39029
521.5045, 42.47870
521.9866, 41.81551
522.4688, 41.39934
522.9509, 41.19914
523.4330, 41.19905
523.9151, 41.44400
524.3972, 42.16857
524.8793, 43.38947
525.3615, 43.92270
525.8436, 43.50210
526.3257, 42.82410
526.8078, 43.15437
527.2899, 44.23693
527.7720, 44.81848
528.2542, 43.94684
528.7363, 42.66324
529.2184, 42.49831
529.7005, 43.26507
530.1826, 43.93569
530.6647, 43.80196
531.1469, 43.34445
531.6290, 42.96614
532.1111, 42.74450
532.5932, 42.50652
533.0753, 42.16543
533.5574, 41.78198
534.0396, 41.42485
534.5217, 41.00542
535.0038, 40.72899
535.4859, 40.69686
535.9680, 40.83072
536.4501, 40.87273
536.9323, 40.72518
537.4144, 40.65033
537.8965, 40.74076
538.3786, 40.99658
538.8607, 41.43199
539.3428, 42.15882
539.8250, 42.70757
540.3071, 42.42272
540.7892, 41.42491
541.2713, 40.91846
541.7534, 41.21547
542.2355, 41.70001
542.7177, 41.29018
543.1998, 40.30392
543.6819, 39.76671
544.1640, 40.65868
544.6461, 41.86045
545.1282, 42.43812
545.6104, 42.41546
546.0925, 41.98878
546.5746, 40.57346
547.0567, 39.27399
547.5388, 38.93895
548.0209, 40.01994
548.5031, 40.94121
548.9852, 41.30684
549.4673, 41.39282
549.9494, 41.50730
550.4315, 41.96607
550.9136, 41.94109
551.3958, 41.07150
551.8779, 39.72859
552.3600, 39.05997
552.8421, 39.19249
553.3242, 39.53965
553.8063, 39.90400
554.2885, 40.28270
554.7706, 40.69719
555.2527, 41.16305
555.7348, 41.50216
556.2169, 41.51723
556.6990, 41.28656
557.1812, 40.96693
557.6633, 40.53717
558.1454, 40.20441
558.6275, 40.31721
559.1096, 40.64587
559.5917, 40.78743
560.0739, 40.45906
560.5560, 40.01757
561.0381, 39.51396
561.5202, 39.01184
562.0023, 38.75816
562.4844, 39.02416
562.9666, 39.37276
563.4487, 39.59624
563.9308, 39.64211
564.4129, 39.84263
564.8950, 40.56697
565.3771, 41.04090
565.8593, 40.45265
566.3414, 38.41730
566.8235, 36.92863
567.3056, 36.14079
567.7877, 36.01772
568.2698, 36.81136
568.7520, 38.45381
569.2341, 39.66421
569.7162, 39.76815
570.1983, 39.27800
570.6804, 39.11018
571.1625, 39.22453
571.6447, 39.33128
572.1268, 39.26099
572.6089, 39.08109
573.0910, 38.77850
573.5731, 38.30539
574.0552, 38.07256
574.5374, 38.63897
575.0195, 39.34611
575.5016, 39.58067
575.9837, 38.81206
576.4658, 38.07548
576.9479, 37.43609
577.4301, 36.88879
577.9122, 36.40337
578.3943, 35.88300
578.8764, 35.60823
579.3585, 35.66497
579.8406, 36.03344
580.3228, 36.72456
580.8049, 37.83337
581.2870, 38.64744
581.7691, 38.36120
582.2512, 37.33108
582.7333, 37.16474
583.2155, 38.03944
583.6975, 38.92743
584.1796, 38.84147
584.6617, 38.12730
585.1439, 37.32073
585.6260, 36.42737
586.1081, 35.73310
586.5902, 35.44978
587.0723, 35.48501
587.5544, 35.66145
588.0366, 35.98334
588.5187, 36.38197
589.0008, 36.88959
589.4829, 37.49292
589.9650, 37.97241
590.4471, 38.26251
590.9293, 38.51373
591.4114, 38.82292
591.8935, 39.22926
592.3756, 39.42149
592.8577, 39.38826
593.3398, 39.16950
593.8220, 38.63718
594.3041, 37.87105
594.7862, 37.59153
595.2683, 38.09258
595.7504, 38.68650
596.2325, 38.35326
596.7147, 37.38820
597.1968, 36.56692
597.6789, 36.18852
598.1610, 36.10601
598.6431, 36.49458
599.1252, 37.18275
599.6074, 37.40014
600.0895, 36.02068
600.5716, 34.83130
601.0537, 34.87166
601.5358, 36.58968
602.0179, 37.73561
602.5001, 38.10793
602.9822, 38.07827
603.4643, 37.84969
603.9464, 37.31139
604.4285, 37.02070
604.9106, 37.05659
605.3928, 37.26081
605.8749, 37.38119
606.3570, 37.43090
606.8391, 37.60279
607.3212, 38.08509
607.8033, 38.55388
608.2855, 38.45363
608.7676, 37.89380
609.2497, 37.27366
609.7318, 36.61008
610.2139, 36.12711
610.6960, 36.12721
611.1782, 36.60036
611.6603, 36.94923
612.1424, 36.70668
612.6245, 36.46449
613.1066, 36.68371
613.5887, 37.97974
614.0709, 38.31841
614.5530, 37.00093
615.0351, 35.35775
615.5172, 34.86082
615.9993, 35.80413
