##NAMES=Gustavite
##RRUFFID=R100202
##IDEAL CHEMISTRY=Ag^1+^Pb^2+^Bi^3+^_3_S^2-^_6_
##LOCALITY=Level 390, Vein 14, Mina Herminia, Julcani District, Huancavelica, Peru
##OWNER=RRUFF
##SOURCE=William W Pinch
##DESCRIPTION=Elongated black metallic crystals frozen in white granular quartz and barite mixture
##STATUS=The identification of this mineral is confirmed by single-crystal X-ray diffraction and chemical analysis.
##URL=rruff.info/R100202
##MEASURED CHEMISTRY=Ag_1.03_Pb_0.91_Bi_1.72_Sb_1.32_(S_5.96_As_0.04_)_Î£=6.00_
172.0831, 49.66643
172.5652, 50.17277
173.0474, 50.03829
173.5295, 48.99583
174.0116, 47.82874
174.4937, 47.06138
174.9758, 46.69075
175.4579, 46.62289
175.9401, 47.19564
176.4222, 47.87079
176.9043, 47.98102
177.3864, 47.24119
177.8685, 46.30965
178.3506, 46.14001
178.8328, 47.01842
179.3149, 47.62811
179.7970, 47.35021
180.2791, 46.69218
180.7612, 45.97976
181.2433, 45.28302
181.7255, 44.75505
182.2076, 44.83313
182.6897, 46.13237
183.1718, 46.88418
183.6539, 46.36437
184.1360, 45.35773
184.6181, 44.69111
185.1003, 44.77844
185.5824, 45.37718
186.0645, 45.62250
186.5466, 45.15126
187.0287, 44.74139
187.5108, 44.52737
187.9930, 44.42509
188.4751, 44.27947
188.9572, 43.99145
189.4393, 43.64204
189.9214, 43.70548
190.4035, 45.01662
190.8857, 45.81460
191.3678, 45.31722
191.8499, 44.11385
192.3320, 43.27116
192.8141, 43.47778
193.2962, 44.55234
193.7784, 45.08163
194.2605, 44.70218
194.7426, 44.30947
195.2247, 44.17075
195.7068, 44.25861
196.1889, 44.51891
196.6711, 45.02750
197.1532, 45.62659
197.6353, 45.62175
198.1174, 44.31388
198.5995, 43.10214
199.0816, 42.92785
199.5638, 43.64717
200.0459, 44.27653
200.5280, 44.17412
201.0101, 43.57129
201.4922, 43.23808
201.9743, 43.42659
202.4565, 43.66161
202.9386, 43.41922
203.4207, 42.67977
203.9028, 42.15453
204.3849, 42.43713
204.8670, 43.11190
205.3492, 43.57795
205.8313, 43.64996
206.3134, 43.57841
206.7955, 43.69287
207.2776, 44.04575
207.7597, 44.34008
208.2419, 44.36835
208.7240, 44.29509
209.2061, 44.25605
209.6882, 44.27791
210.1703, 44.38562
210.6524, 44.69160
211.1346, 45.36285
211.6167, 45.78235
212.0988, 45.65878
212.5809, 45.26210
213.0630, 44.75710
213.5451, 44.16934
214.0273, 43.67660
214.5094, 43.77403
214.9915, 45.01103
215.4736, 45.83575
215.9557, 45.68626
216.4378, 45.16473
216.9200, 44.90415
217.4021, 45.19526
217.8842, 45.78330
218.3663, 45.93442
218.8484, 45.21696
219.3305, 44.66479
219.8127, 44.56516
220.2948, 44.61131
220.7769, 44.45966
221.2590, 43.95366
221.7411, 43.21823
222.2232, 42.61384
222.7054, 41.88112
223.1875, 41.65167
223.6696, 42.48450
224.1517, 43.65281
224.6338, 44.26646
225.1159, 43.92827
225.5980, 42.97998
226.0802, 42.40910
226.5623, 42.85031
227.0444, 42.91860
227.5265, 42.01710
228.0086, 40.82777
228.4907, 40.34557
228.9729, 41.01905
229.4550, 42.33137
229.9371, 42.92710
230.4192, 42.41534
230.9013, 41.85809
231.3834, 41.43329
231.8656, 41.05367
232.3477, 40.53310
232.8298, 39.76705
233.3119, 38.96450
233.7940, 38.63177
234.2761, 38.89464
234.7583, 39.18411
235.2404, 39.49697
235.7225, 39.72466
236.2046, 39.61382
236.6867, 39.00483
237.1688, 38.21633
237.6510, 37.78084
238.1331, 37.67559
238.6152, 37.79250
239.0973, 38.25857
239.5794, 38.91397
240.0615, 39.40576
240.5437, 39.61715
241.0258, 39.68824
241.5079, 39.83099
241.9900, 40.05322
242.4721, 40.15857
242.9542, 39.97252
243.4364, 39.60567
243.9185, 39.29617
244.4006, 39.00075
244.8827, 38.95616
245.3648, 39.69176
245.8469, 41.07032
246.3290, 41.92052
246.8112, 41.24032
247.2933, 39.55197
247.7754, 38.49902
248.2575, 38.57096
248.7396, 38.83445
249.2217, 38.44548
249.7039, 37.59644
250.1860, 36.95010
250.6681, 37.11941
251.1502, 37.82122
251.6323, 37.94978
252.1144, 37.16518
252.5966, 36.26705
253.0787, 35.65025
253.5608, 35.28520
254.0429, 35.11990
254.5250, 35.29008
255.0071, 35.64798
255.4893, 35.55679
255.9714, 34.66649
256.4535, 33.88654
256.9356, 33.66033
257.4177, 33.79071
257.8998, 33.97923
258.3820, 34.12372
258.8641, 34.18160
259.3462, 33.93394
259.8283, 32.99221
260.3104, 32.40862
260.7925, 32.78871
261.2747, 33.59208
261.7568, 34.08532
262.2389, 33.86373
262.7210, 33.18761
263.2031, 32.83482
263.6852, 33.06356
264.1674, 33.18051
264.6495, 32.82121
265.1316, 32.36338
265.6137, 32.21470
266.0958, 32.55426
266.5779, 33.24518
267.0601, 34.03814
267.5422, 35.28075
268.0243, 35.94200
268.5064, 35.72660
268.9885, 35.05457
269.4706, 34.13936
269.9528, 33.08017
270.4349, 32.13817
270.9170, 31.89919
271.3991, 32.96381
271.8812, 33.54906
272.3633, 33.26262
272.8455, 32.70811
273.3276, 32.29748
273.8097, 32.14734
274.2918, 32.16742
274.7739, 32.26294
275.2560, 32.61226
275.7382, 32.63198
276.2202, 32.17897
276.7024, 31.57889
277.1845, 30.82935
277.6666, 30.04244
278.1487, 29.60730
278.6308, 30.12184
279.1129, 32.12664
279.5951, 33.17305
280.0772, 32.82390
280.5593, 32.08945
281.0414, 31.19834
281.5235, 30.34576
282.0056, 29.90952
282.4878, 30.35095
282.9699, 31.89345
283.4520, 32.68544
283.9341, 32.16175
284.4162, 31.55916
284.8983, 31.35846
285.3805, 31.50595
285.8626, 31.74420
286.3447, 31.90070
286.8268, 31.97264
287.3089, 31.77315
287.7910, 30.85833
288.2732, 30.16854
288.7553, 30.19945
289.2374, 30.64300
289.7195, 30.87374
290.2016, 30.49190
290.6837, 29.64118
291.1659, 29.11674
291.6480, 29.28301
292.1301, 29.35018
292.6122, 29.11198
293.0943, 28.71763
293.5764, 28.32638
294.0586, 28.00168
294.5407, 27.82422
295.0228, 28.01478
295.5049, 28.89089
295.9870, 29.77175
296.4691, 31.01526
296.9513, 32.08831
297.4334, 32.23779
297.9155, 31.25091
298.3976, 29.81062
298.8797, 29.06982
299.3618, 29.56059
299.8440, 29.80840
300.3261, 29.38803
300.8082, 28.99207
301.2903, 29.33881
301.7724, 30.49566
302.2545, 31.79626
302.7367, 32.45549
303.2188, 32.27267
303.7009, 32.12830
304.1830, 32.20718
304.6651, 32.17371
305.1472, 31.65131
305.6294, 30.73556
306.1115, 29.97181
306.5936, 29.87858
307.0757, 30.51053
307.5578, 30.72669
308.0399, 30.18592
308.5221, 29.64750
309.0042, 29.42147
309.4863, 29.46824
309.9684, 29.65072
310.4505, 29.90027
310.9326, 30.19644
311.4148, 30.38317
311.8969, 30.51699
312.3790, 30.49972
312.8611, 30.08373
313.3432, 29.54055
313.8253, 29.40941
314.3075, 29.97455
314.7896, 30.83324
315.2717, 30.92517
315.7538, 29.30066
316.2359, 28.28247
316.7180, 28.46886
317.2001, 29.16725
317.6823, 29.69189
318.1644, 29.83591
318.6465, 29.67916
319.1286, 29.29558
319.6107, 28.42407
320.0928, 28.00550
320.5750, 28.32217
321.0571, 28.87941
321.5392, 29.44661
322.0213, 29.92710
322.5034, 30.13444
322.9855, 29.85460
323.4677, 29.00842
323.9498, 28.15720
324.4319, 26.86009
324.9140, 25.95422
325.3961, 26.00782
325.8782, 26.84443
326.3604, 27.94675
326.8425, 29.03986
327.3246, 30.06129
327.8067, 30.27621
328.2888, 29.02792
328.7709, 27.84390
329.2531, 26.95436
329.7352, 26.41389
330.2173, 26.38910
330.6994, 26.98873
331.1815, 27.90374
331.6636, 28.29762
332.1458, 27.56695
332.6279, 27.03751
333.1100, 26.78821
333.5921, 26.73934
334.0742, 26.93657
334.5563, 27.35580
335.0385, 27.70052
335.5206, 27.50555
336.0027, 26.44262
336.4848, 25.66563
336.9669, 25.08196
337.4490, 24.80995
337.9312, 24.94882
338.4133, 25.48587
338.8954, 26.39324
339.3775, 27.76515
339.8596, 29.73307
340.3417, 30.50210
340.8239, 29.01498
341.3060, 27.59974
341.7881, 27.14404
342.2702, 27.38727
342.7523, 27.70725
343.2344, 27.72980
343.7166, 27.49719
344.1987, 27.21287
344.6808, 26.46576
345.1629, 26.16246
345.6450, 26.93078
346.1271, 27.96560
346.6093, 28.29256
347.0914, 27.57228
347.5735, 26.32140
348.0556, 25.49347
348.5377, 25.09962
349.0198, 25.17426
349.5020, 26.21029
349.9841, 27.28055
350.4662, 27.69245
350.9483, 27.41393
351.4304, 26.91530
351.9125, 26.70002
352.3947, 26.81979
352.8768, 26.88056
353.3589, 26.69913
353.8410, 26.63995
354.3231, 27.02302
354.8052, 27.62718
355.2874, 27.96188
355.7695, 27.64633
356.2516, 26.83491
356.7337, 26.41448
357.2158, 26.71146
357.6979, 26.98009
358.1800, 26.97631
358.6621, 26.92102
359.1443, 27.18682
359.6264, 27.91359
360.1085, 28.64246
360.5906, 28.40536
361.0727, 26.60208
361.5548, 25.40909
362.0370, 25.48928
362.5191, 25.86698
363.0012, 25.99347
363.4833, 25.80207
363.9654, 25.51209
364.4475, 25.29989
364.9297, 25.16052
365.4118, 25.20015
365.8939, 25.75170
366.3760, 26.10865
366.8581, 25.74830
367.3402, 24.99881
367.8224, 24.56916
368.3045, 24.99872
368.7866, 25.93091
369.2687, 26.27418
369.7508, 25.78139
370.2329, 25.22970
370.7151, 24.80455
371.1972, 24.49071
371.6793, 24.26756
372.1614, 24.12837
372.6435, 24.10707
373.1256, 24.27315
373.6078, 24.63696
374.0899, 25.04802
374.5720, 25.68663
375.0541, 26.15763
375.5362, 26.04250
376.0183, 25.40296
376.5005, 24.85203
376.9826, 24.97939
377.4647, 25.54470
377.9468, 25.58912
378.4289, 24.83378
378.9110, 24.04902
379.3932, 23.72303
379.8753, 23.73401
380.3574, 23.90265
380.8395, 24.26749
381.3216, 24.67920
381.8037, 24.93162
382.2859, 25.02156
382.7680, 25.15181
383.2501, 25.52878
383.7322, 25.90692
384.2143, 25.90721
384.6964, 25.44667
385.1786, 24.87802
385.6607, 24.33618
386.1428, 23.84140
386.6249, 23.39007
387.1070, 22.91626
387.5891, 22.68011
388.0713, 23.31471
388.5534, 24.72139
389.0355, 25.46165
389.5176, 24.57346
389.9997, 23.30490
390.4818, 22.97241
390.9640, 23.60676
391.4461, 24.38334
391.9282, 24.80687
392.4103, 24.89318
392.8924, 24.83155
393.3745, 24.59246
393.8567, 24.25286
394.3388, 23.73187
394.8209, 23.14322
395.3030, 22.70879
395.7851, 22.50734
396.2672, 22.49282
396.7494, 22.59627
397.2315, 22.87045
397.7136, 23.14226
398.1957, 23.45855
398.6778, 23.73577
399.1599, 23.83873
399.6420, 23.79359
400.1241, 23.83227
400.6063, 24.19893
401.0884, 24.91433
401.5705, 25.27653
402.0526, 25.16324
402.5347, 24.89096
403.0168, 24.33567
403.4990, 23.72904
403.9811, 23.54843
404.4632, 24.03540
404.9453, 24.75218
405.4274, 24.53365
405.9095, 22.08021
406.3917, 20.93518
406.8738, 22.18216
407.3559, 23.91931
407.8380, 24.84285
408.3201, 24.78617
408.8022, 24.34050
409.2844, 24.05566
409.7665, 23.94090
410.2486, 23.86381
410.7307, 23.85751
411.2128, 23.85509
411.6949, 23.81783
412.1771, 23.77503
412.6592, 23.80248
413.1413, 23.96191
413.6234, 24.12823
414.1055, 23.97239
414.5876, 23.32686
415.0698, 22.86940
415.5519, 22.87000
416.0340, 23.04395
416.5161, 23.28077
416.9982, 23.54676
417.4803, 23.70555
417.9625, 23.55740
418.4446, 23.16240
418.9267, 22.94083
419.4088, 22.97496
419.8909, 23.09201
420.3730, 23.25975
420.8552, 23.42087
421.3373, 23.44037
421.8194, 23.21313
422.3015, 22.88788
422.7836, 22.53969
423.2657, 22.17384
423.7479, 22.16625
424.2300, 22.91179
424.7121, 23.87841
425.1942, 24.21633
425.6763, 23.82571
426.1584, 23.35442
426.6406, 23.03224
427.1227, 22.82204
427.6048, 22.68461
428.0869, 22.61745
428.5690, 22.54872
429.0511, 22.36856
429.5333, 22.09080
430.0154, 22.05277
430.4975, 22.44349
430.9796, 22.89756
431.4617, 23.28882
431.9438, 23.58177
432.4260, 23.71663
432.9081, 23.66620
433.3902, 23.43078
433.8723, 22.98021
434.3544, 21.82409
434.8365, 21.29447
435.3187, 22.09153
435.8008, 23.09495
436.2829, 23.17715
436.7650, 22.35219
437.2471, 21.64003
437.7292, 22.06680
438.2114, 23.67765
438.6935, 24.68874
439.1756, 24.71130
439.6577, 24.55441
440.1398, 24.34629
440.6219, 24.08024
441.1040, 23.66946
441.5862, 23.08076
442.0683, 22.49630
442.5504, 22.29356
443.0325, 22.62840
443.5146, 22.86540
443.9967, 22.73763
444.4789, 22.67853
444.9610, 23.10124
445.4431, 23.84953
445.9252, 24.32129
446.4073, 23.95243
446.8894, 22.98063
447.3716, 22.32754
447.8537, 22.08281
448.3358, 21.93614
448.8179, 21.78099
449.3000, 21.63749
449.7821, 21.50282
450.2643, 21.35303
450.7464, 21.32388
451.2285, 21.64118
451.7106, 22.21830
452.1927, 22.58595
452.6748, 22.58392
453.1570, 22.48966
453.6391, 22.70158
454.1212, 23.12025
454.6033, 23.19728
455.0854, 22.49023
455.5675, 21.62210
456.0497, 21.07182
456.5318, 20.85069
457.0139, 20.94239
457.4960, 21.41232
457.9781, 22.10315
458.4602, 22.61319
458.9424, 23.06060
459.4245, 23.14026
459.9066, 22.47863
460.3887, 21.60080
460.8708, 20.96889
461.3529, 20.68228
461.8351, 20.74060
462.3172, 21.21678
462.7993, 22.13491
463.2814, 22.61401
463.7635, 22.49356
464.2456, 22.15402
464.7278, 21.42878
465.2099, 20.62472
465.6920, 20.19366
466.1741, 20.29953
466.6562, 20.64397
467.1383, 20.65757
467.6205, 20.08090
468.1026, 19.98886
468.5847, 21.06249
469.0668, 22.04830
469.5489, 22.24132
470.0310, 21.85458
470.5132, 21.55515
470.9953, 21.77027
471.4774, 22.32824
471.9595, 22.86775
472.4416, 23.47480
472.9237, 23.73660
473.4059, 23.11654
473.8880, 22.31221
474.3701, 22.04047
474.8522, 22.40130
475.3343, 22.68118
475.8164, 22.27892
476.2986, 21.46716
476.7807, 20.86533
477.2628, 20.52343
477.7449, 20.51578
478.2270, 21.09491
478.7091, 22.08378
479.1913, 22.71798
479.6734, 22.88163
480.1555, 22.76995
480.6376, 22.25617
481.1197, 21.56202
481.6018, 21.18126
482.0839, 21.28433
482.5660, 21.61942
483.0482, 21.85242
483.5303, 21.96220
484.0124, 22.02208
484.4945, 21.92372
484.9766, 21.87952
485.4587, 22.03243
485.9409, 22.33333
486.4230, 22.68654
486.9051, 23.05350
487.3872, 23.35107
487.8693, 23.31874
488.3514, 22.75833
488.8336, 22.22817
489.3157, 21.62164
489.7978, 21.16791
490.2799, 21.11139
490.7620, 21.39293
491.2441, 21.69542
491.7263, 21.74331
492.2084, 21.60280
492.6905, 21.59909
493.1726, 21.77142
493.6547, 21.98662
494.1368, 22.40998
494.6190, 22.74044
495.1011, 22.58358
495.5832, 21.82173
496.0653, 20.97315
496.5474, 20.25120
497.0295, 19.74903
497.5117, 19.93704
497.9938, 21.07528
498.4759, 22.08908
498.9580, 21.89839
499.4401, 20.76244
499.9222, 20.14460
500.4044, 20.46575
500.8865, 20.97625
501.3686, 21.45662
501.8507, 21.82630
502.3328, 21.83106
502.8149, 21.36756
503.2971, 20.84564
503.7792, 20.86342
504.2613, 21.60776
504.7434, 22.25466
505.2255, 22.98292
505.7076, 23.45204
506.1898, 23.30313
506.6719, 22.79219
507.1540, 22.44519
507.6361, 22.54362
508.1182, 22.89546
508.6003, 23.08671
509.0825, 23.15432
509.5646, 22.95960
510.0467, 22.04593
510.5288, 21.24613
511.0109, 21.17837
511.4930, 21.67391
511.9752, 22.02464
512.4573, 21.70899
512.9394, 21.00452
513.4215, 20.56539
513.9036, 20.43508
514.3857, 20.26759
514.8679, 19.75463
515.3500, 19.27968
515.8321, 19.39356
516.3142, 20.17815
516.7963, 20.89106
517.2784, 20.16559
517.7606, 21.55734
518.2427, 22.34143
518.7248, 22.55052
519.2069, 20.46265
519.6890, 21.34063
520.1711, 21.02991
520.6533, 20.67037
521.1354, 21.96554
521.6175, 20.21133
522.0996, 21.48009
522.5817, 21.54201
523.0638, 22.15615
523.5460, 21.57426
524.0281, 21.36167
524.5102, 22.34533
524.9923, 22.66649
525.4744, 21.94658
525.9565, 22.59533
526.4387, 20.79849
526.9208, 21.14753
527.4029, 22.42236
527.8850, 21.76217
528.3671, 22.43236
528.8492, 22.59574
529.3314, 20.45624
529.8135, 22.32146
530.2956, 22.45465
530.7777, 20.80943
531.2598, 22.53718
531.7419, 21.13694
532.2241, 20.85309
532.7062, 21.40938
533.1883, 21.08968
533.6704, 22.15085
534.1525, 21.88156
534.6346, 21.49333
535.1168, 21.62374
535.5989, 21.27569
536.0810, 21.67146
536.5631, 21.19593
537.0452, 21.64625
537.5273, 22.30635
538.0095, 21.35937
538.4916, 22.11360
538.9737, 20.22945
539.4558, 20.55277
539.9379, 20.63830
540.4200, 22.13477
540.9022, 20.26314
541.3843, 20.52479
541.8664, 21.69472
542.3485, 21.59356
542.8306, 22.02372
543.3127, 20.88061
543.7948, 21.21531
544.2769, 21.14256
544.7590, 22.47741
545.2411, 22.70087
545.7233, 21.58402
546.2054, 20.47277
546.6875, 21.90859
547.1696, 20.93011
547.6517, 21.25398
548.1339, 20.23262
548.6160, 20.37261
549.0981, 20.49410
549.5802, 21.21089
550.0623, 21.08821
550.5444, 21.37533
551.0266, 21.27482
551.5087, 21.57294
551.9908, 21.82662
552.4729, 21.98557
552.9550, 21.71085
553.4371, 22.24661
553.9193, 21.05396
554.4014, 20.51701
554.8835, 20.44616
555.3656, 22.57534
555.8477, 22.65946
556.3298, 20.29910
556.8120, 22.33108
557.2941, 21.66067
557.7762, 21.79321
558.2583, 21.63269
558.7404, 21.55881
559.2225, 21.66621
559.7047, 20.65823
560.1868, 22.11675
560.6689, 21.55996
561.1510, 22.37243
561.6331, 20.68926
562.1152, 20.48731
562.5974, 20.67849
563.0795, 21.01298
563.5616, 20.20158
564.0437, 20.48992
564.5258, 20.40182
565.0079, 20.26765
565.4901, 20.33376
565.9722, 20.16164
566.4543, 19.84311
566.9364, 21.36691
567.4185, 20.02378
567.9006, 21.38271
568.3828, 21.87546
568.8649, 21.19723
569.3470, 21.14110
569.8291, 19.90449
570.3112, 20.47798
570.7933, 20.42882
571.2755, 21.40534
571.7576, 20.17315
572.2397, 21.48345
572.7218, 20.31033
573.2039, 21.72342
573.6860, 20.49762
574.1682, 21.62239
574.6503, 19.94124
575.1324, 20.29086
575.6145, 20.77244
576.0966, 20.58058
576.5787, 20.69291
577.0609, 20.79449
577.5430, 20.65470
578.0251, 20.38366
578.5072, 20.24540
578.9893, 20.26810
579.4714, 20.37172
579.9536, 20.68671
580.4357, 20.98219
580.9178, 20.92429
581.3999, 20.50718
581.8820, 19.98717
582.3641, 19.52196
582.8463, 19.15209
583.3284, 19.12264
583.8105, 19.91418
584.2926, 20.34636
584.7747, 19.93516
585.2568, 19.45165
585.7390, 19.66008
586.2211, 20.44408
586.7032, 20.93526
587.1853, 20.25215
587.6674, 19.02358
588.1495, 19.20673
588.6317, 21.10559
589.1138, 22.51910
589.5959, 22.57055
590.0780, 21.97516
590.5601, 21.47009
591.0422, 21.05367
591.5244, 20.95120
592.0065, 21.65717
592.4886, 22.37402
592.9707, 22.21354
593.4528, 21.40213
593.9349, 20.83830
594.4171, 20.94449
594.8992, 21.27823
595.3813, 21.00124
595.8634, 19.65079
596.3455, 19.07991
596.8276, 19.85600
597.3098, 20.69972
597.7919, 21.18841
598.2740, 21.34785
598.7561, 21.20401
599.2382, 20.74861
599.7203, 20.34265
600.2025, 20.60995
600.6846, 21.52466
601.1667, 22.03030
601.6488, 21.83087
602.1309, 21.59655
602.6130, 21.85167
603.0952, 22.39112
603.5773, 22.84484
604.0594, 23.33350
604.5415, 23.41696
605.0236, 22.48113
605.5057, 21.14780
605.9879, 20.41290
606.4700, 20.41325
606.9521, 20.64097
607.4342, 20.69097
607.9163, 20.59348
608.3984, 20.57687
608.8806, 20.58196
609.3627, 20.76410
609.8448, 21.40634
610.3269, 22.02278
610.8090, 22.13786
611.2911, 21.81630
611.7733, 21.55133
612.2554, 21.72131
612.7375, 22.14512
613.2196, 22.42968
613.7017, 22.57553
614.1838, 22.58464
614.6660, 22.44337
615.1481, 22.18064
615.6302, 21.78926
616.1123, 21.27934
616.5944, 20.80953
617.0765, 20.11903
617.5587, 19.75427
618.0408, 20.46214
618.5229, 21.73210
619.0050, 22.43971
619.4871, 22.19428
619.9692, 21.41436
620.4514, 20.58401
620.9335, 19.63050
621.4156, 19.16389
621.8977, 19.59693
622.3798, 20.04919
622.8619, 20.26663
623.3441, 20.39864
623.8262, 20.72058
624.3083, 21.28128
624.7904, 21.60772
625.2725, 21.02239
625.7546, 19.92262
626.2367, 19.49044
626.7188, 19.83704
627.2009, 20.20640
627.6830, 20.16234
628.1652, 19.92883
628.6473, 20.03624
629.1294, 20.54733
629.6115, 21.11209
630.0936, 22.03407
630.5757, 22.69291
631.0579, 22.43851
631.5400, 21.54019
632.0221, 20.68826
632.5042, 20.22750
632.9863, 20.13900
633.4684, 20.50292
633.9506, 21.48372
634.4327, 22.09914
634.9148, 22.10835
635.3969, 21.97454
635.8790, 21.90328
636.3611, 21.86467
636.8433, 21.78766
637.3254, 21.61963
637.8075, 21.52596
638.2896, 21.73080
638.7717, 22.06469
639.2538, 22.21921
639.7360, 22.14899
640.2181, 21.85854
640.7002, 21.25824
641.1823, 20.52060
641.6644, 20.35113
642.1465, 21.50176
642.6287, 22.19171
643.1108, 22.16315
643.5929, 21.87509
644.0750, 21.33983
644.5571, 20.81262
645.0392, 20.96611
645.5214, 22.36305
646.0035, 23.98539
646.4856, 23.73813
646.9677, 21.63250
647.4498, 20.57992
647.9319, 21.49066
648.4141, 22.70991
648.8962, 22.77399
649.3783, 22.00765
649.8604, 21.63969
650.3425, 22.02602
650.8246, 22.46680
651.3068, 22.82001
651.7889, 23.00734
652.2710, 22.80815
652.7531, 22.27564
653.2352, 21.83996
653.7173, 21.86788
654.1995, 22.20998
654.6816, 22.21602
655.1637, 21.72042
655.6458, 21.28484
656.1279, 20.72851
656.6100, 20.49481
657.0922, 21.13602
657.5743, 22.37008
658.0564, 23.21688
658.5385, 23.08001
659.0206, 22.72438
659.5027, 22.97083
659.9849, 23.58376
660.4670, 23.87024
660.9491, 23.66541
661.4312, 23.27904
661.9133, 22.95733
662.3954, 22.70501
662.8776, 22.59471
663.3597, 22.88048
663.8418, 22.97381
664.3239, 22.59523
664.8060, 22.17061
665.2881, 22.04250
