##NAMES=Gustavite
##RRUFFID=R100203
##IDEAL CHEMISTRY=Ag^1+^Pb^2+^Bi^3+^_3_S^2-^_6_
##LOCALITY=Level 390, Vein 14, Mina Herminia, Julcani District, Huancavelica, Peru
##OWNER=RRUFF
##SOURCE=William W Pinch
##DESCRIPTION=Elongated black metallic crystals with striations, on a matrix of tetrahedrite, R100204.
##STATUS=The identification of this mineral is confirmed by single-crystal X-ray diffraction and chemical analysis.
##URL=rruff.info/R100203
##MEASURED CHEMISTRY=Ag_1.02_Pb_0.96_Bi_1.86_Sb_1.17_(S_5.97_As_0.03_)_Î£=6.00_
169.6203, 111.7537
170.1024, 112.6243
170.5845, 112.4086
171.0666, 112.4749
171.5487, 114.2083
172.0309, 117.4395
172.5130, 119.8727
172.9951, 119.0338
173.4772, 116.5097
173.9593, 114.7654
174.4414, 115.3324
174.9236, 116.8242
175.4057, 117.6892
175.8878, 117.9190
176.3699, 118.2374
176.8520, 119.6389
177.3341, 121.5978
177.8163, 122.9709
178.2984, 122.8659
178.7805, 122.0272
179.2626, 121.5207
179.7447, 121.3829
180.2268, 121.4048
180.7090, 121.3320
181.1911, 121.2363
181.6732, 121.3493
182.1553, 121.7599
182.6374, 122.4504
183.1195, 123.5694
183.6017, 125.2444
184.0838, 126.7100
184.5659, 126.6856
185.0480, 125.4984
185.5301, 124.8159
186.0123, 126.0866
186.4944, 128.5482
186.9765, 129.6124
187.4586, 129.0072
187.9407, 127.7444
188.4228, 127.0192
188.9050, 126.8203
189.3871, 127.0873
189.8692, 128.0726
190.3513, 129.5872
190.8334, 130.7273
191.3155, 131.4500
191.7977, 131.7837
192.2798, 131.5980
192.7619, 130.8959
193.2440, 130.2964
193.7261, 130.2292
194.2082, 130.6357
194.6904, 130.7887
195.1725, 130.6047
195.6546, 130.2526
196.1367, 129.9844
196.6188, 129.7876
197.1009, 129.7910
197.5831, 130.2425
198.0652, 131.1424
198.5473, 131.4924
199.0294, 131.0717
199.5115, 130.3109
199.9937, 130.0890
200.4758, 130.4514
200.9579, 131.0422
201.4400, 131.8136
201.9221, 132.8099
202.4042, 133.2712
202.8864, 132.9314
203.3685, 132.2569
203.8506, 132.5952
204.3327, 134.2898
204.8148, 135.5935
205.2969, 135.2277
205.7791, 132.8446
206.2612, 131.3743
206.7433, 131.1609
207.2254, 131.8145
207.7075, 132.3881
208.1896, 132.8698
208.6718, 133.3118
209.1539, 133.8249
209.6360, 134.5026
210.1181, 134.7171
210.6002, 134.2665
211.0823, 133.4296
211.5645, 133.0398
212.0466, 133.2823
212.5287, 133.5378
213.0108, 133.4086
213.4929, 132.7252
213.9750, 132.3601
214.4572, 132.5015
214.9393, 132.9351
215.4214, 132.9580
215.9035, 132.3121
216.3856, 131.7783
216.8678, 131.9013
217.3499, 133.0418
217.8320, 133.6053
218.3141, 133.2672
218.7962, 132.3710
219.2783, 132.0678
219.7605, 132.7016
220.2426, 133.2980
220.7247, 133.2577
221.2068, 132.2274
221.6889, 131.5907
222.1710, 131.5675
222.6532, 131.9394
223.1353, 131.9992
223.6174, 131.5712
224.0995, 131.1301
224.5816, 130.9009
225.0637, 130.8946
225.5459, 131.1275
226.0280, 131.8894
226.5101, 132.8306
226.9922, 132.7222
227.4743, 130.7935
227.9564, 129.0275
228.4386, 128.4809
228.9207, 129.8814
229.4028, 130.7617
229.8849, 131.0339
230.3670, 130.7770
230.8492, 130.1027
231.3313, 128.5051
231.8134, 127.2625
232.2955, 127.0687
232.7776, 128.6377
233.2597, 129.6039
233.7419, 129.8325
234.2240, 129.4883
234.7061, 128.9449
235.1882, 128.0231
235.6703, 127.1817
236.1524, 126.5917
236.6346, 126.2387
237.1167, 126.2063
237.5988, 126.6390
238.0809, 127.3376
238.5630, 127.9027
239.0451, 128.5625
239.5273, 128.7295
240.0094, 128.0007
240.4915, 125.6836
240.9736, 124.2960
241.4557, 124.1507
241.9378, 124.7790
242.4200, 125.2395
242.9021, 125.5375
243.3842, 125.6626
243.8663, 125.6089
244.3484, 125.3668
244.8306, 124.9633
245.3127, 124.3564
245.7948, 123.6154
246.2769, 122.8188
246.7590, 121.7606
247.2411, 121.0111
247.7233, 120.7939
248.2054, 121.2107
248.6875, 121.8517
249.1696, 123.0521
249.6517, 124.2506
250.1338, 124.4159
250.6160, 122.8876
251.0981, 121.5143
251.5802, 120.9205
252.0623, 121.2585
252.5444, 121.5782
253.0265, 121.9025
253.5087, 122.1888
253.9908, 122.4028
254.4729, 122.6547
254.9550, 122.6143
255.4371, 122.1254
255.9192, 121.1305
256.4014, 120.1541
256.8835, 119.0249
257.3656, 118.0847
257.8477, 117.7971
258.3298, 118.4827
258.8120, 119.0954
259.2941, 119.3199
259.7762, 119.1180
260.2583, 119.2582
260.7404, 120.0485
261.2225, 120.7972
261.7047, 120.5904
262.1868, 118.8008
262.6689, 117.7384
263.1510, 118.2130
263.6331, 120.1531
264.1152, 120.9421
264.5974, 120.0303
265.0795, 118.8063
265.5616, 118.7660
266.0437, 120.4174
266.5258, 121.5484
267.0079, 121.6124
267.4901, 120.7538
267.9722, 120.3003
268.4543, 120.4595
268.9364, 120.6058
269.4185, 120.0676
269.9006, 118.5534
270.3828, 117.6632
270.8649, 117.7842
271.3470, 118.6957
271.8291, 119.4157
272.3112, 119.9904
272.7933, 120.2633
273.2755, 120.0346
273.7576, 119.2236
274.2397, 118.4512
274.7218, 117.7669
275.2039, 117.1818
275.6860, 116.7522
276.1682, 116.4970
276.6503, 116.3104
277.1324, 116.1085
277.6145, 115.8845
278.0966, 115.7832
278.5787, 115.8235
279.0609, 115.9895
279.5430, 116.3667
280.0251, 117.0339
280.5072, 117.4317
280.9893, 117.1917
281.4715, 116.3211
281.9536, 115.2793
282.4357, 113.9513
282.9178, 112.7159
283.3999, 112.3580
283.8820, 112.9222
284.3642, 113.5204
284.8463, 113.8795
285.3284, 113.9723
285.8105, 113.3820
286.2926, 111.9479
286.7747, 110.3251
287.2569, 109.4919
287.7390, 109.4178
288.2211, 109.3178
288.7032, 108.8637
289.1853, 108.1228
289.6674, 107.4119
290.1496, 106.7463
290.6317, 106.0008
291.1138, 104.7658
291.5959, 103.1768
292.0780, 102.2424
292.5602, 102.6829
293.0423, 103.8501
293.5244, 104.0157
294.0065, 103.1477
294.4886, 101.9973
294.9707, 101.1337
295.4529, 100.5236
295.9350, 100.0683
296.4171, 99.76388
296.8992, 99.56996
297.3813, 99.48251
297.8634, 99.48736
298.3456, 99.41525
298.8277, 99.14702
299.3098, 98.70782
299.7919, 98.07840
300.2740, 97.09407
300.7561, 96.21574
301.2383, 96.27901
301.7204, 97.09207
302.2025, 97.77926
302.6846, 97.63924
303.1667, 97.07061
303.6488, 96.71443
304.1310, 96.75317
304.6131, 96.75356
305.0952, 96.14076
305.5773, 95.12248
306.0594, 94.26363
306.5415, 94.10844
307.0237, 94.13631
307.5058, 93.72275
307.9879, 92.75235
308.4700, 91.75396
308.9521, 91.02321
309.4343, 90.54868
309.9164, 90.28786
310.3985, 90.53842
310.8806, 90.77782
311.3627, 90.64233
311.8448, 90.11359
312.3270, 89.26779
312.8091, 87.54578
313.2912, 85.72327
313.7733, 84.71654
314.2554, 85.65995
314.7375, 86.80136
315.2197, 87.37666
315.7018, 87.39388
316.1839, 86.94957
316.6660, 85.37410
317.1481, 83.72276
317.6302, 82.91304
318.1124, 84.07742
318.5945, 84.96281
319.0766, 84.40800
319.5587, 82.87131
320.0408, 81.93507
320.5229, 82.91634
321.0051, 84.05831
321.4872, 84.29945
321.9693, 82.78857
322.4514, 81.66617
322.9335, 81.72647
323.4156, 82.43566
323.8978, 82.76498
324.3799, 82.41283
324.8620, 81.76176
325.3441, 80.86707
325.8262, 79.59895
326.3083, 78.53898
326.7905, 77.69432
327.2726, 77.09045
327.7547, 76.76762
328.2368, 77.10796
328.7189, 77.32533
329.2010, 77.11581
329.6832, 76.39202
330.1653, 76.24529
330.6474, 77.20588
331.1295, 78.36147
331.6116, 78.96235
332.0938, 78.58837
332.5759, 78.33776
333.0580, 78.47176
333.5401, 78.89524
334.0222, 78.86805
334.5043, 78.18494
334.9865, 77.33473
335.4686, 76.56377
335.9507, 75.80762
336.4328, 75.30839
336.9149, 75.10985
337.3970, 75.15649
337.8792, 75.34509
338.3613, 75.75478
338.8434, 76.09177
339.3255, 76.18610
339.8076, 75.99151
340.2898, 75.92991
340.7719, 76.03796
341.2540, 76.21697
341.7361, 76.36143
342.2182, 76.48146
342.7003, 76.45499
343.1825, 76.22269
343.6646, 75.80107
344.1467, 75.23878
344.6288, 74.47948
345.1109, 73.83753
345.5930, 73.69582
346.0752, 74.01140
346.5573, 74.35142
347.0394, 74.68918
347.5215, 74.92146
348.0036, 74.75825
348.4857, 74.20634
348.9679, 73.57340
349.4500, 72.81664
349.9321, 72.13670
350.4142, 72.23759
350.8963, 73.43980
351.3784, 74.89480
351.8606, 75.59061
352.3427, 75.60836
352.8248, 75.24969
353.3069, 74.14848
353.7890, 72.97944
354.2711, 72.84521
354.7533, 73.93694
355.2354, 75.07585
355.7175, 75.24887
356.1996, 74.77181
356.6817, 74.19508
357.1638, 73.61655
357.6460, 73.12273
358.1281, 72.71506
358.6102, 72.40831
359.0923, 72.35946
359.5744, 73.09959
360.0565, 73.94749
360.5387, 74.21456
361.0208, 73.22808
361.5029, 72.22912
361.9850, 71.76267
362.4671, 71.72071
362.9492, 71.78245
363.4314, 71.89027
363.9135, 72.03285
364.3956, 72.17992
364.8777, 72.24878
365.3598, 72.51686
365.8419, 73.46350
366.3241, 74.55338
366.8062, 74.97475
367.2883, 73.87870
367.7704, 72.81339
368.2526, 72.18642
368.7347, 72.06413
369.2168, 72.06340
369.6989, 72.29900
370.1810, 72.57481
370.6631, 72.73289
371.1453, 72.72951
371.6274, 72.67841
372.1095, 72.65206
372.5916, 72.60874
373.0737, 72.21705
373.5558, 71.11624
374.0380, 70.19656
374.5201, 70.08125
375.0022, 71.20568
375.4843, 71.59180
375.9664, 70.78641
376.4485, 69.55437
376.9307, 69.58843
377.4128, 71.22985
377.8949, 72.68565
378.3770, 73.16131
378.8591, 72.70699
379.3412, 72.29166
379.8234, 71.90430
380.3055, 71.60665
380.7876, 71.53316
381.2697, 71.66772
381.7518, 71.71211
382.2339, 71.50278
382.7161, 71.21984
383.1982, 71.44880
383.6803, 72.16412
384.1624, 72.66456
384.6445, 72.09071
385.1266, 70.90878
385.6088, 70.32629
386.0909, 70.61804
386.5730, 71.24515
387.0551, 71.74536
387.5372, 72.09444
388.0193, 72.22758
388.5015, 71.89592
388.9836, 71.44176
389.4657, 71.30721
389.9478, 71.52784
390.4299, 71.64345
390.9120, 71.09134
391.3942, 70.32818
391.8763, 69.92858
392.3584, 70.46319
392.8405, 71.05163
393.3226, 71.17501
393.8047, 70.93907
394.2869, 70.82706
394.7690, 71.29678
395.2511, 71.76551
395.7332, 71.85950
396.2154, 71.38368
396.6975, 70.82113
397.1796, 69.91970
397.6617, 69.04545
398.1438, 68.82453
398.6259, 69.94938
399.1081, 71.13419
399.5902, 72.12144
400.0723, 72.94144
400.5544, 73.32077
401.0365, 73.00359
401.5186, 72.43240
402.0008, 71.94510
402.4829, 71.44509
402.9650, 71.21555
403.4471, 71.38520
403.9292, 71.84838
404.4113, 72.16323
404.8935, 72.31200
405.3756, 72.35972
405.8577, 72.32249
406.3398, 72.18996
406.8219, 72.05201
407.3040, 71.90115
407.7862, 71.76316
408.2683, 71.72012
408.7504, 71.77982
409.2325, 71.69770
409.7146, 71.26694
410.1967, 70.66285
410.6789, 70.50511
411.1610, 70.80800
411.6431, 71.20072
412.1252, 71.36081
412.6073, 71.35505
413.0894, 71.40013
413.5716, 71.60001
414.0537, 71.72424
414.5358, 71.37173
415.0179, 70.67667
415.5000, 70.06625
415.9821, 69.79721
416.4643, 69.72232
416.9464, 69.69676
417.4285, 69.70735
417.9106, 69.79729
418.3927, 70.07711
418.8748, 70.42355
419.3570, 70.68577
419.8391, 70.76834
420.3212, 70.80293
420.8033, 70.84245
421.2854, 70.88161
421.7675, 70.89454
422.2497, 70.79813
422.7318, 70.73128
423.2139, 70.77150
423.6960, 70.95698
424.1781, 71.18696
424.6602, 71.71297
425.1424, 72.20728
425.6245, 72.15362
426.1066, 70.69070
426.5887, 69.79604
427.0709, 70.24329
427.5530, 72.03053
428.0351, 72.56260
428.5172, 71.02261
428.9993, 69.35115
429.4814, 69.11087
429.9636, 70.83765
430.4457, 71.88277
430.9278, 71.86246
431.4099, 71.21163
431.8920, 70.88100
432.3741, 70.91158
432.8563, 70.91556
433.3384, 70.54641
433.8205, 69.93192
434.3026, 70.10754
434.7847, 71.16451
435.2668, 72.28267
435.7490, 72.60112
436.2311, 72.27744
436.7132, 71.81094
437.1953, 71.17502
437.6774, 70.67968
438.1595, 70.95473
438.6417, 71.81125
439.1238, 72.46652
439.6059, 72.25381
440.0880, 71.70013
440.5701, 71.33114
441.0522, 71.20604
441.5344, 71.25307
442.0165, 71.65246
442.4986, 72.12467
442.9807, 72.32420
443.4628, 71.70004
443.9449, 71.20969
444.4271, 71.39890
444.9092, 72.12593
445.3913, 72.56691
445.8734, 72.25956
446.3555, 71.80576
446.8376, 71.51187
447.3198, 71.54665
447.8019, 71.44209
448.2840, 70.96606
448.7661, 70.43959
449.2482, 70.36083
449.7303, 71.19653
450.2125, 71.66604
450.6946, 71.31174
451.1767, 70.22468
451.6588, 69.81541
452.1409, 70.26475
452.6230, 70.96349
453.1052, 71.52112
453.5873, 71.94009
454.0694, 72.28260
454.5515, 72.60653
455.0337, 72.74728
455.5158, 72.17799
455.9979, 70.96480
456.4800, 70.17714
456.9621, 70.64298
457.4442, 71.73563
457.9264, 71.84316
458.4085, 71.00150
458.8906, 70.14439
459.3727, 70.14896
459.8548, 70.61386
460.3369, 70.87321
460.8191, 70.69479
461.3012, 70.50277
461.7833, 70.68724
462.2654, 71.10966
462.7475, 71.48013
463.2296, 71.87204
463.7118, 72.01795
464.1939, 71.55781
464.6760, 70.45701
465.1581, 69.76627
465.6402, 70.20213
466.1223, 70.93469
466.6045, 71.37627
467.0866, 70.99073
467.5687, 70.87611
468.0508, 71.40701
468.5329, 72.21589
469.0150, 72.45368
469.4972, 71.66573
469.9793, 70.99786
470.4614, 70.88322
470.9435, 71.36470
471.4256, 71.50302
471.9077, 71.16399
472.3899, 70.75216
472.8720, 70.66494
473.3541, 70.93732
473.8362, 71.14669
474.3183, 71.29530
474.8004, 71.26134
475.2826, 70.54810
475.7647, 69.22648
476.2468, 68.30813
476.7289, 68.39079
477.2110, 69.22643
477.6931, 70.60257
478.1753, 72.51368
478.6574, 73.87661
479.1395, 73.28883
479.6216, 71.72496
480.1037, 70.64767
480.5858, 70.62955
481.0680, 70.80360
481.5501, 70.54613
482.0322, 70.04417
482.5143, 69.68922
482.9964, 69.55782
483.4786, 69.67549
483.9607, 70.17410
484.4428, 71.09118
484.9249, 71.82359
485.4070, 72.24049
485.8892, 72.43704
486.3713, 72.46974
486.8534, 72.27034
487.3355, 72.01089
487.8176, 71.59799
488.2997, 71.16011
488.7819, 71.01780
489.2640, 71.38857
489.7461, 71.53957
490.2282, 71.08852
490.7103, 70.09624
491.1924, 69.70385
491.6746, 69.96398
492.1567, 70.58902
492.6388, 71.59010
493.1209, 72.87621
493.6030, 73.50023
494.0851, 73.26445
494.5673, 72.56237
495.0494, 71.67700
495.5315, 70.73701
496.0136, 70.23836
496.4957, 70.75103
496.9778, 71.61842
497.4600, 72.24895
497.9421, 72.62132
498.4242, 72.62881
498.9063, 71.95749
499.3884, 71.03873
499.8705, 70.15488
500.3527, 69.17253
500.8348, 68.72227
501.3169, 69.75583
501.7990, 71.26984
502.2811, 71.85131
502.7632, 69.92287
503.2454, 68.45846
503.7275, 68.33891
504.2096, 69.42068
504.6917, 70.13075
505.1738, 70.37055
505.6559, 70.36755
506.1381, 70.23988
506.6202, 70.01427
507.1023, 69.43981
507.5844, 68.25616
508.0665, 67.19221
508.5486, 67.49567
509.0308, 69.20793
509.5129, 70.57882
509.9950, 71.14541
510.4771, 71.11320
510.9592, 70.68742
511.4413, 69.93183
511.9235, 69.44389
512.4056, 70.00258
512.8877, 70.91537
513.3698, 70.98466
513.8519, 70.06068
514.3340, 69.24875
514.8162, 69.68732
515.2983, 70.58120
515.7804, 70.95618
516.2625, 70.01671
516.7446, 69.15501
517.2267, 68.90209
517.7089, 69.14251
518.1910, 69.60036
518.6731, 70.83473
519.1552, 71.70074
519.6373, 71.61585
520.1194, 70.46752
520.6016, 69.64654
521.0837, 69.24995
521.5658, 69.07985
522.0479, 68.99522
522.5300, 68.97034
523.0121, 69.15239
523.4943, 69.62827
523.9764, 70.21058
524.4585, 70.57290
524.9406, 70.70679
525.4227, 70.73499
525.9048, 70.61485
526.3870, 70.46093
526.8691, 70.62110
527.3513, 71.07590
527.8334, 71.51392
528.3155, 71.82188
528.7976, 71.93701
529.2797, 71.72438
529.7618, 71.13058
530.2440, 70.44302
530.7261, 69.50887
531.2082, 68.71555
531.6903, 68.57468
532.1724, 70.40102
532.6545, 71.68462
533.1367, 71.08945
533.6188, 69.20683
534.1009, 68.13882
534.5830, 68.92294
535.0651, 69.88427
535.5472, 70.52839
536.0294, 70.84768
536.5115, 70.91027
536.9936, 70.57430
537.4757, 70.18060
537.9578, 70.00968
538.4399, 70.08382
538.9221, 70.25256
539.4042, 70.54147
539.8863, 70.85092
540.3684, 71.00333
540.8505, 71.00655
541.3326, 70.95843
541.8148, 70.95054
542.2969, 70.88570
542.7790, 70.41631
543.2611, 69.62087
543.7432, 69.10316
544.2253, 69.69732
544.7075, 70.55094
545.1896, 70.68690
545.6717, 69.84168
546.1538, 69.02957
546.6359, 68.52196
547.1180, 68.39930
547.6002, 68.75626
548.0823, 70.20211
548.5644, 71.45326
549.0465, 72.46297
549.5286, 73.12486
550.0107, 73.09310
550.4929, 71.87008
550.9750, 70.68890
551.4571, 69.86678
551.9392, 69.40244
552.4213, 69.47942
552.9034, 70.23465
553.3856, 71.09985
553.8677, 71.77792
554.3498, 72.23739
554.8319, 71.88570
555.3140, 70.44859
555.7961, 68.99174
556.2783, 69.25327
556.7604, 70.66340
557.2425, 71.59203
557.7246, 71.09527
558.2067, 70.21748
558.6888, 69.98486
559.1710, 70.23396
559.6531, 70.41496
560.1352, 70.17617
560.6173, 69.85576
561.0994, 69.63463
561.5815, 69.52939
562.0637, 69.50723
562.5458, 69.47031
563.0279, 69.57771
563.5100, 69.96890
563.9921, 71.08352
564.4742, 71.68890
564.9564, 71.60909
565.4385, 71.12524
565.9206, 70.62017
566.4027, 70.03164
566.8848, 69.79129
567.3669, 70.20020
567.8491, 70.95411
568.3312, 70.93766
568.8133, 70.18217
569.2954, 69.49768
569.7775, 69.68279
570.2596, 70.21878
570.7418, 70.00280
571.2239, 68.94328
571.7060, 68.00050
572.1881, 67.94709
572.6702, 68.38634
573.1523, 68.91599
573.6345, 69.57868
574.1166, 70.05235
574.5987, 70.06631
575.0808, 69.83936
575.5629, 69.73471
576.0450, 69.91845
576.5272, 70.11101
577.0093, 70.25083
577.4914, 70.35045
577.9735, 70.52652
578.4556, 70.88026
578.9377, 71.09910
579.4199, 70.98616
579.9020, 70.53651
580.3841, 70.12241
580.8662, 69.73573
581.3483, 69.43668
581.8304, 69.24854
582.3126, 69.19657
582.7947, 69.43569
583.2768, 70.09731
583.7589, 70.74100
584.2410, 70.84189
584.7231, 70.58395
585.2053, 70.33159
585.6874, 69.93914
586.1696, 69.86883
586.6517, 70.72950
587.1338, 72.23887
587.6159, 73.15186
588.0980, 72.88976
588.5801, 72.18703
589.0623, 71.14980
589.5444, 69.63010
590.0265, 68.85050
590.5086, 69.08289
590.9907, 69.70824
591.4728, 70.39236
591.9550, 71.23103
592.4371, 71.37679
592.9192, 70.58003
593.4013, 69.52576
593.8834, 69.27168
594.3655, 69.70433
594.8477, 70.11818
595.3298, 70.32307
595.8119, 70.34849
596.2940, 70.10886
596.7761, 69.69504
597.2582, 69.40433
597.7404, 69.50145
598.2225, 69.69389
598.7046, 69.82961
599.1867, 69.89359
599.6688, 69.79418
600.1509, 69.15788
600.6331, 68.59726
601.1152, 68.57753
601.5973, 69.59813
602.0794, 69.96381
602.5615, 69.32704
603.0436, 68.36479
603.5258, 67.79591
604.0079, 67.63016
604.4900, 67.86095
604.9721, 68.61558
605.4542, 69.57674
605.9363, 70.14814
606.4185, 70.34216
606.9006, 70.29394
607.3827, 69.90480
607.8648, 69.40849
608.3469, 69.07809
608.8290, 68.92482
609.3112, 69.02970
609.7933, 69.84185
610.2754, 70.64719
610.7575, 70.77171
611.2396, 70.01907
611.7217, 69.56860
612.2039, 70.14662
612.6860, 70.89977
613.1681, 71.17461
613.6502, 70.70439
614.1323, 70.15938
614.6144, 69.37177
615.0966, 68.66814
615.5787, 68.59403
616.0608, 69.26139
616.5429, 69.88089
617.0250, 70.33742
617.5071, 70.56296
617.9893, 70.18172
618.4714, 69.29169
618.9535, 68.66537
619.4356, 68.82828
619.9177, 69.40665
620.3998, 70.06776
620.8820, 70.77071
621.3641, 71.22768
621.8462, 71.08247
622.3283, 70.76911
622.8104, 70.61251
623.2925, 70.70017
623.7747, 70.74780
624.2568, 70.65334
624.7389, 70.52882
625.2210, 70.45873
625.7031, 70.43230
626.1852, 70.49693
626.6674, 70.70748
627.1495, 70.94836
627.6316, 71.01656
628.1137, 70.90624
628.5958, 70.76109
629.0779, 70.59982
629.5601, 70.45452
630.0422, 70.38005
630.5243, 70.37676
631.0064, 70.44050
631.4885, 70.60117
631.9706, 70.80730
632.4528, 71.16700
632.9349, 71.62724
633.4170, 71.66013
633.8991, 70.37922
634.3812, 69.09507
634.8633, 68.65989
635.3455, 69.50401
635.8276, 70.12270
636.3097, 70.42036
636.7918, 70.52974
637.2739, 70.50947
637.7560, 70.27385
638.2382, 70.29019
638.7203, 70.68202
639.2024, 71.16678
639.6845, 71.27376
640.1666, 71.04861
640.6487, 70.88134
641.1309, 70.93736
641.6130, 71.03548
642.0951, 70.81734
642.5772, 70.41977
643.0594, 70.24007
643.5415, 70.77654
644.0236, 71.32116
644.5057, 71.38026
644.9879, 71.00041
645.4700, 70.73914
645.9521, 70.92860
646.4342, 71.07893
646.9163, 70.95478
647.3984, 70.50216
647.8806, 70.14205
648.3627, 69.88264
648.8448, 69.69884
649.3269, 69.48868
649.8090, 69.25603
650.2911, 69.56562
650.7733, 70.58852
651.2554, 71.59779
651.7375, 71.77032
652.2196, 71.25828
652.7017, 70.34756
653.1838, 68.79400
653.6660, 67.50417
654.1481, 67.25679
654.6302, 67.74561
655.1123, 68.43192
655.5944, 69.20541
656.0765, 70.07561
656.5587, 71.40501
657.0408, 72.91969
657.5229, 73.33092
658.0050, 71.84797
658.4871, 70.59995
658.9692, 70.43454
659.4514, 71.23052
659.9335, 71.62642
660.4156, 71.58652
660.8977, 71.43554
661.3798, 71.33810
661.8619, 71.31436
662.3441, 71.54091
662.8262, 72.04122
