##NAMES=Guyanaite
##RRUFFID=R070444
##IDEAL CHEMISTRY=Cr^3+^O(OH)
##LOCALITY=Merume river, Kamakusa, Mazaruni District, Guyana
##OWNER=RRUFF
##SOURCE=Michael Scott
##DESCRIPTION=Black alluvial grains, a mixture of guyanaite, bracewellite, eskolaite and quartz, colloquially known as merumite
##STATUS=The identification of this mineral has been confirmed only by X-ray diffraction
##URL=rruff.info/R070444
163.4554, 8124.497
163.9376, 8148.109
164.4197, 8159.439
164.9018, 8196.507
165.3839, 8271.957
165.8660, 8337.091
166.3481, 8356.874
166.8303, 8346.855
167.3124, 8329.364
167.7945, 8298.566
168.2766, 8270.628
168.7587, 8289.292
169.2408, 8379.437
169.7230, 8459.809
170.2051, 8477.680
170.6872, 8460.028
171.1693, 8447.647
171.6514, 8461.176
172.1335, 8491.057
172.6157, 8515.092
173.0978, 8535.701
173.5799, 8544.409
174.0620, 8527.222
174.5441, 8499.209
175.0262, 8482.302
175.5084, 8487.811
175.9905, 8510.745
176.4726, 8538.882
176.9547, 8576.035
177.4368, 8611.397
177.9189, 8642.852
178.4010, 8669.839
178.8832, 8691.230
179.3653, 8706.280
179.8474, 8715.839
180.3295, 8721.310
180.8116, 8716.882
181.2937, 8719.153
181.7759, 8734.196
182.2580, 8757.396
182.7401, 8783.854
183.2222, 8812.118
183.7043, 8840.717
184.1864, 8865.901
184.6686, 8888.834
185.1507, 8905.238
185.6328, 8907.451
186.1149, 8905.896
186.5970, 8913.810
187.0791, 8938.597
187.5613, 8972.771
188.0434, 8996.920
188.5255, 9006.638
189.0076, 9012.628
189.4897, 9014.794
189.9718, 9016.090
190.4540, 9019.962
190.9361, 9028.085
191.4182, 9038.445
191.9003, 9045.668
192.3824, 9045.953
192.8645, 9050.119
193.3467, 9065.788
193.8288, 9082.901
194.3109, 9088.142
194.7930, 9075.913
195.2751, 9059.298
195.7572, 9068.113
196.2394, 9118.470
196.7215, 9165.349
197.2036, 9212.096
197.6857, 9248.839
198.1678, 9264.073
198.6499, 9254.446
199.1321, 9230.385
199.6142, 9210.015
200.0963, 9191.709
200.5784, 9181.246
201.0605, 9177.081
201.5426, 9180.331
202.0248, 9195.979
202.5069, 9224.218
202.9890, 9254.675
203.4711, 9270.271
203.9532, 9264.946
204.4353, 9257.493
204.9175, 9251.334
205.3996, 9242.136
205.8817, 9222.927
206.3638, 9194.109
206.8459, 9166.522
207.3280, 9156.674
207.8102, 9174.272
208.2923, 9185.314
208.7744, 9191.548
209.2565, 9190.752
209.7386, 9176.868
210.2207, 9151.830
210.7029, 9126.641
211.1850, 9114.924
211.6671, 9120.970
212.1492, 9125.175
212.6313, 9121.688
213.1134, 9121.367
213.5956, 9130.453
214.0777, 9148.331
214.5598, 9170.401
215.0419, 9193.789
215.5240, 9220.146
216.0061, 9235.925
216.4883, 9233.185
216.9704, 9227.479
217.4525, 9223.632
217.9346, 9221.773
218.4167, 9219.945
218.8988, 9216.119
219.3810, 9210.146
219.8631, 9207.654
220.3452, 9207.070
220.8273, 9211.902
221.3094, 9230.018
221.7915, 9254.358
222.2737, 9271.137
222.7558, 9269.657
223.2379, 9251.842
223.7200, 9238.530
224.2021, 9230.543
224.6842, 9226.844
225.1664, 9235.962
225.6485, 9247.538
226.1306, 9242.880
226.6127, 9208.403
227.0948, 9156.161
227.5770, 9138.810
228.0591, 9195.886
228.5412, 9235.485
229.0233, 9230.398
229.5054, 9204.898
229.9875, 9187.668
230.4697, 9191.847
230.9518, 9207.810
231.4339, 9211.169
231.9160, 9192.152
232.3981, 9176.868
232.8802, 9169.404
233.3624, 9166.124
233.8445, 9162.824
234.3266, 9158.323
234.8087, 9156.280
235.2908, 9165.488
235.7729, 9196.579
236.2551, 9213.160
236.7372, 9197.042
237.2193, 9177.857
237.7014, 9177.973
238.1835, 9200.407
238.6656, 9228.838
239.1478, 9243.751
239.6299, 9242.938
240.1120, 9236.363
240.5941, 9206.009
241.0762, 9184.966
241.5583, 9200.340
242.0405, 9246.132
242.5226, 9287.522
243.0047, 9282.167
243.4868, 9223.272
243.9689, 9200.369
244.4510, 9264.458
244.9332, 9317.338
245.4153, 9317.964
245.8974, 9276.463
246.3795, 9224.259
246.8616, 9179.638
247.3437, 9142.882
247.8259, 9118.566
248.3080, 9106.879
248.7901, 9109.363
249.2722, 9137.937
249.7543, 9177.594
250.2364, 9203.242
250.7186, 9198.361
251.2007, 9174.360
251.6828, 9165.611
252.1649, 9181.883
252.6470, 9193.558
253.1291, 9183.478
253.6113, 9167.463
254.0934, 9163.460
254.5755, 9179.111
255.0576, 9204.446
255.5397, 9226.424
256.0219, 9247.039
256.5040, 9256.211
256.9861, 9241.395
257.4682, 9219.289
257.9503, 9198.736
258.4324, 9181.347
258.9146, 9171.743
259.3967, 9179.276
259.8788, 9205.026
260.3609, 9222.805
260.8430, 9222.141
261.3251, 9216.640
261.8073, 9216.710
262.2894, 9222.395
262.7715, 9226.979
263.2536, 9225.220
263.7357, 9218.004
264.2178, 9208.795
264.7000, 9191.276
265.1821, 9182.848
265.6642, 9204.580
266.1463, 9246.950
266.6284, 9277.648
267.1105, 9273.568
267.5927, 9248.959
268.0748, 9233.589
268.5569, 9229.688
269.0390, 9230.045
269.5211, 9230.010
270.0032, 9230.882
270.4854, 9235.717
270.9675, 9248.643
271.4496, 9263.113
271.9317, 9271.987
272.4138, 9275.185
272.8959, 9275.301
273.3781, 9271.107
273.8602, 9265.800
274.3423, 9266.539
274.8244, 9279.775
275.3065, 9287.887
275.7886, 9267.449
276.2708, 9228.431
276.7529, 9215.889
277.2350, 9256.042
277.7171, 9315.917
278.1992, 9338.820
278.6813, 9319.458
279.1635, 9298.430
279.6456, 9284.856
280.1277, 9280.279
280.6098, 9257.937
281.0919, 9308.098
281.5740, 9340.064
282.0562, 9354.805
282.5383, 9301.248
283.0204, 9335.472
283.5025, 9334.268
283.9846, 9331.439
284.4667, 9377.509
284.9489, 9332.971
285.4310, 9377.905
285.9131, 9386.874
286.3952, 9412.043
286.8773, 9401.567
287.3594, 9401.869
287.8416, 9437.472
288.3237, 9453.250
288.8058, 9437.979
289.2879, 9463.120
289.7700, 9415.561
290.2521, 9431.464
290.7343, 9474.647
291.2164, 9460.269
291.6985, 9485.168
292.1806, 9494.863
292.6627, 9436.087
293.1448, 9475.258
293.6270, 9481.794
294.1091, 9483.765
294.5912, 9483.266
295.0733, 9474.315
295.5554, 9474.992
296.0375, 9496.687
296.5197, 9519.072
297.0018, 9524.434
297.4839, 9513.051
297.9660, 9500.244
298.4481, 9502.014
298.9302, 9520.387
299.4124, 9539.778
299.8945, 9564.662
300.3766, 9586.088
300.8587, 9599.087
301.3408, 9606.244
301.8229, 9614.116
302.3050, 9628.126
302.7871, 9645.172
303.2693, 9647.816
303.7514, 9617.939
304.2335, 9600.701
304.7156, 9611.521
305.1977, 9635.554
305.6798, 9658.427
306.1620, 9674.979
306.6441, 9685.746
307.1262, 9691.450
307.6083, 9691.919
308.0904, 9687.823
308.5725, 9664.763
309.0547, 9647.474
309.5368, 9658.356
310.0189, 9696.619
310.5010, 9732.800
310.9831, 9737.879
311.4652, 9714.972
311.9474, 9698.017
312.4295, 9690.429
312.9116, 9687.854
313.3937, 9685.612
313.8758, 9685.351
314.3579, 9692.001
314.8401, 9716.358
315.3222, 9745.230
315.8043, 9753.713
316.2864, 9739.244
316.7685, 9719.039
317.2506, 9696.428
317.7328, 9676.046
318.2149, 9666.252
318.6970, 9672.063
319.1791, 9681.616
319.6612, 9683.676
320.1433, 9681.100
320.6255, 9689.180
321.1076, 9718.218
321.5897, 9751.909
322.0718, 9762.276
322.5539, 9746.926
323.0360, 9731.284
323.5182, 9718.104
324.0003, 9710.433
324.4824, 9714.508
324.9645, 9731.323
325.4466, 9751.656
325.9287, 9768.375
326.4109, 9781.195
326.8930, 9784.496
327.3751, 9767.780
327.8572, 9751.550
328.3393, 9748.756
328.8214, 9756.416
329.3036, 9763.508
329.7857, 9763.125
330.2678, 9758.006
330.7499, 9760.632
331.2320, 9782.351
331.7141, 9797.783
332.1963, 9802.040
332.6784, 9799.813
333.1605, 9794.434
333.6426, 9787.449
334.1247, 9781.835
334.6068, 9784.304
335.0890, 9805.393
335.5711, 9804.957
336.0532, 9763.054
336.5353, 9719.942
337.0174, 9692.692
337.4995, 9682.649
337.9817, 9686.282
338.4638, 9704.781
338.9459, 9735.116
339.4280, 9748.615
339.9101, 9730.484
340.3922, 9716.970
340.8744, 9726.572
341.3565, 9743.574
341.8386, 9746.274
342.3207, 9724.815
342.8028, 9694.777
343.2849, 9677.496
343.7671, 9673.332
344.2492, 9680.533
344.7313, 9716.393
345.2134, 9749.071
345.6955, 9749.466
346.1776, 9716.979
346.6598, 9681.948
347.1419, 9659.628
347.6240, 9649.379
348.1061, 9651.414
348.5882, 9668.591
349.0703, 9689.395
349.5525, 9705.735
350.0346, 9718.593
350.5167, 9730.448
350.9988, 9746.349
351.4809, 9757.782
351.9630, 9755.589
352.4452, 9741.802
352.9273, 9727.178
353.4094, 9716.921
353.8915, 9708.767
354.3736, 9695.909
354.8557, 9674.155
355.3379, 9657.425
355.8200, 9648.730
356.3021, 9646.731
356.7842, 9654.103
357.2663, 9670.336
357.7484, 9683.646
358.2306, 9680.398
358.7127, 9657.559
359.1948, 9633.713
359.6769, 9603.349
360.1590, 9577.590
360.6411, 9561.252
361.1233, 9553.441
361.6054, 9550.706
362.0875, 9550.651
362.5696, 9555.396
363.0517, 9575.011
363.5338, 9634.720
364.0160, 9667.392
364.4981, 9645.216
364.9802, 9608.470
365.4623, 9592.571
365.9444, 9604.207
366.4265, 9622.094
366.9087, 9620.398
367.3908, 9597.456
367.8729, 9582.124
368.3550, 9573.800
368.8371, 9576.262
369.3192, 9598.358
369.8014, 9631.815
370.2835, 9656.754
370.7656, 9660.532
371.2477, 9653.275
371.7298, 9653.458
372.2119, 9662.498
372.6941, 9664.655
373.1762, 9645.869
373.6583, 9621.030
374.1404, 9614.194
374.6225, 9631.361
375.1046, 9647.457
375.5868, 9644.958
376.0689, 9632.934
376.5510, 9631.100
377.0331, 9644.462
377.5152, 9660.449
377.9973, 9667.257
378.4795, 9663.806
378.9616, 9654.689
379.4437, 9626.554
379.9258, 9604.813
380.4079, 9612.629
380.8900, 9640.323
381.3722, 9659.326
381.8543, 9653.492
382.3364, 9630.904
382.8185, 9615.869
383.3006, 9616.106
383.7827, 9614.394
384.2649, 9603.111
384.7470, 9594.431
385.2291, 9601.217
385.7112, 9623.681
386.1933, 9649.589
386.6754, 9667.300
387.1576, 9676.725
387.6397, 9677.800
388.1218, 9656.521
388.6039, 9643.337
389.0860, 9651.202
389.5681, 9672.582
390.0503, 9696.729
390.5324, 9720.835
391.0145, 9741.100
391.4966, 9748.802
391.9787, 9742.026
392.4608, 9741.014
392.9430, 9755.336
393.4251, 9773.727
393.9072, 9784.338
394.3893, 9787.171
394.8714, 9791.939
395.3535, 9805.038
395.8357, 9822.521
396.3178, 9838.066
396.7999, 9851.052
397.2820, 9863.582
397.7641, 9879.225
398.2462, 9895.381
398.7284, 9900.793
399.2105, 9887.503
399.6926, 9872.657
400.1747, 9857.955
400.6568, 9847.190
401.1389, 9848.097
401.6211, 9863.304
402.1032, 9886.097
402.5853, 9908.429
403.0674, 9935.971
403.5495, 9943.526
404.0316, 9911.026
404.5138, 9880.089
404.9959, 9878.066
405.4780, 9895.832
405.9601, 9905.221
406.4422, 9886.236
406.9243, 9850.662
407.4065, 9843.169
407.8886, 9882.476
408.3707, 9911.483
408.8528, 9909.293
409.3349, 9899.979
409.8170, 9903.582
410.2992, 9922.675
410.7813, 9943.152
411.2634, 9952.428
411.7455, 9952.495
412.2276, 9952.925
412.7097, 9953.938
413.1919, 9956.216
413.6740, 9957.436
414.1561, 9960.470
414.6382, 9973.146
415.1203, 10010.10
415.6024, 10041.04
416.0846, 10034.52
416.5667, 10002.76
417.0488, 9985.484
417.5309, 9998.147
418.0130, 10023.05
418.4951, 10034.45
418.9773, 10028.77
419.4594, 10020.16
419.9415, 10007.53
420.4236, 9993.356
420.9057, 9970.401
421.3878, 9946.022
421.8700, 9942.850
422.3521, 9977.753
422.8342, 10040.43
423.3163, 10087.31
423.7984, 10123.78
424.2805, 10133.60
424.7627, 10089.04
425.2448, 10037.31
425.7269, 10019.64
426.2090, 10040.03
426.6911, 10069.92
427.1732, 10082.99
427.6554, 10080.73
428.1375, 10077.34
428.6196, 10065.49
429.1017, 10066.97
429.5838, 10105.23
430.0659, 10160.38
430.5481, 10202.94
431.0302, 10223.72
431.5123, 10235.58
431.9944, 10251.10
432.4765, 10266.88
432.9586, 10266.45
433.4408, 10240.78
433.9229, 10214.30
434.4050, 10217.18
434.8871, 10252.46
435.3692, 10288.75
435.8513, 10328.25
436.3335, 10364.86
436.8156, 10392.97
437.2977, 10415.14
437.7798, 10440.87
438.2619, 10475.90
438.7440, 10511.21
439.2262, 10520.42
439.7083, 10464.97
440.1904, 10453.71
440.6725, 10532.82
441.1546, 10614.93
441.6367, 10632.47
442.1189, 10595.86
442.6010, 10569.05
443.0831, 10608.59
443.5652, 10692.07
444.0473, 10727.94
444.5294, 10698.42
445.0116, 10671.07
445.4937, 10672.44
445.9758, 10688.43
446.4579, 10710.54
446.9400, 10739.80
447.4221, 10758.37
447.9043, 10744.33
448.3864, 10714.00
448.8685, 10703.87
449.3506, 10719.87
449.8327, 10739.98
450.3148, 10747.74
450.7970, 10744.04
451.2791, 10741.13
451.7612, 10736.96
452.2433, 10735.85
452.7254, 10747.51
453.2076, 10760.11
453.6897, 10756.22
454.1718, 10731.17
454.6539, 10693.94
455.1360, 10653.44
455.6181, 10606.11
456.1003, 10575.89
456.5824, 10579.02
457.0645, 10583.63
457.5466, 10584.61
458.0287, 10579.71
458.5108, 10565.45
458.9930, 10539.43
459.4751, 10508.13
459.9572, 10478.52
460.4393, 10450.66
460.9214, 10429.42
461.4035, 10416.62
461.8857, 10409.78
462.3678, 10410.99
462.8499, 10417.75
463.3320, 10415.75
463.8141, 10362.84
464.2962, 10401.68
464.7784, 10422.51
465.2605, 10426.29
465.7426, 10361.95
466.2247, 10385.58
466.7068, 10373.95
467.1889, 10360.87
467.6711, 10396.87
468.1532, 10342.44
468.6353, 10377.66
469.1174, 10377.10
469.5995, 10392.91
470.0816, 10373.26
470.5638, 10364.56
471.0459, 10391.34
471.5280, 10398.47
472.0101, 10374.74
472.4922, 10391.59
472.9743, 10335.92
473.4565, 10343.90
473.9386, 10379.33
474.4207, 10357.37
474.9028, 10374.88
475.3849, 10377.35
475.8670, 10299.07
476.3492, 10275.76
476.8313, 10285.70
477.3134, 10329.58
477.7955, 10360.68
478.2776, 10350.84
478.7597, 10317.45
479.2419, 10302.91
479.7240, 10312.67
480.2061, 10324.02
480.6882, 10332.21
481.1703, 10340.48
481.6524, 10354.73
482.1346, 10373.22
482.6167, 10385.26
483.0988, 10381.55
483.5809, 10366.30
484.0630, 10363.26
484.5451, 10380.99
485.0273, 10397.27
485.5094, 10414.53
485.9915, 10425.44
486.4736, 10419.99
486.9557, 10399.35
487.4378, 10379.30
487.9200, 10370.03
488.4021, 10370.91
488.8842, 10385.08
489.3663, 10416.71
489.8484, 10436.09
490.3305, 10417.53
490.8127, 10382.73
491.2948, 10379.24
491.7769, 10420.50
492.2590, 10453.63
492.7411, 10454.05
493.2232, 10440.68
493.7054, 10433.09
494.1875, 10433.82
494.6696, 10439.66
495.1517, 10450.35
495.6338, 10462.60
496.1159, 10454.39
496.5981, 10401.58
497.0802, 10361.99
497.5623, 10347.12
498.0444, 10342.85
498.5265, 10341.72
499.0086, 10340.47
499.4908, 10317.90
499.9729, 10339.58
500.4550, 10350.79
500.9371, 10352.10
501.4192, 10312.95
501.9013, 10326.78
502.3835, 10319.83
502.8656, 10312.32
503.3477, 10334.52
503.8298, 10302.89
504.3119, 10325.26
504.7940, 10326.52
505.2762, 10337.90
505.7583, 10328.37
506.2404, 10325.71
506.7225, 10344.61
507.2046, 10352.07
507.6867, 10341.36
508.1689, 10355.28
508.6510, 10326.08
509.1331, 10335.31
509.6152, 10340.76
510.0973, 10344.59
510.5794, 10345.34
511.0616, 10343.68
511.5437, 10341.28
512.0258, 10337.86
512.5079, 10335.50
512.9901, 10342.71
513.4722, 10362.23
513.9543, 10373.98
514.4364, 10367.21
514.9185, 10352.27
515.4006, 10341.81
515.8828, 10335.77
516.3649, 10334.01
516.8470, 10340.18
517.3291, 10347.87
517.8112, 10349.12
518.2933, 10345.87
518.7755, 10348.37
519.2576, 10362.93
519.7397, 10382.51
520.2218, 10389.15
520.7039, 10368.04
521.1860, 10362.60
521.6682, 10390.38
522.1503, 10415.53
522.6324, 10414.71
523.1145, 10395.27
523.5966, 10379.33
524.0787, 10379.52
524.5609, 10386.63
525.0430, 10383.07
525.5251, 10368.97
526.0072, 10364.48
526.4893, 10375.19
526.9714, 10395.63
527.4536, 10425.19
527.9357, 10462.30
528.4178, 10490.00
528.8999, 10498.57
529.3820, 10504.40
529.8641, 10518.07
530.3463, 10535.84
530.8284, 10551.33
531.3105, 10562.20
531.7926, 10566.20
532.2747, 10559.06
532.7568, 10538.45
533.2390, 10520.82
533.7211, 10498.07
534.2032, 10488.40
534.6853, 10501.60
535.1674, 10529.24
535.6495, 10564.61
536.1317, 10607.83
536.6138, 10640.06
537.0959, 10632.67
537.5780, 10599.78
538.0601, 10592.06
538.5422, 10619.11
539.0244, 10641.44
539.5065, 10623.64
539.9886, 10578.56
540.4707, 10570.41
540.9528, 10627.99
541.4349, 10678.49
541.9171, 10700.51
542.3992, 10713.26
542.8813, 10738.75
543.3634, 10776.16
543.8455, 10805.35
544.3276, 10808.59
544.8098, 10792.39
545.2919, 10785.56
545.7740, 10791.11
546.2561, 10797.65
546.7382, 10796.52
547.2203, 10800.02
547.7025, 10822.20
548.1846, 10861.33
548.6666, 10895.11
549.1487, 10911.23
549.6309, 10918.77
550.1130, 10922.05
550.5951, 10924.18
551.0772, 10938.90
551.5593, 10973.35
552.0414, 11015.18
552.5236, 11044.07
553.0057, 11054.68
553.4878, 11070.66
553.9699, 11092.50
554.4520, 11118.42
554.9341, 11150.15
555.4163, 11184.75
555.8984, 11219.99
556.3805, 11255.48
556.8626, 11283.96
557.3447, 11287.49
557.8268, 11271.51
558.3090, 11285.55
558.7911, 11343.79
559.2732, 11401.09
559.7553, 11423.07
560.2374, 11421.88
560.7195, 11438.41
561.2017, 11487.22
561.6838, 11528.85
562.1659, 11546.69
562.6480, 11553.86
563.1301, 11560.64
563.6122, 11570.32
564.0944, 11587.07
564.5765, 11614.71
565.0586, 11650.74
565.5407, 11687.38
566.0228, 11730.31
566.5049, 11759.32
566.9871, 11753.34
567.4692, 11746.54
567.9513, 11763.96
568.4334, 11801.25
568.9155, 11833.78
569.3976, 11845.81
569.8798, 11853.58
570.3619, 11878.12
570.8440, 11912.98
571.3261, 11932.96
571.8082, 11929.03
572.2903, 11922.29
572.7725, 11939.90
573.2546, 11986.03
573.7367, 12017.61
574.2188, 12026.00
574.7009, 12031.34
575.1830, 12038.45
575.6652, 12045.19
576.1473, 12048.69
576.6294, 12048.42
577.1115, 12046.56
577.5936, 12044.35
578.0757, 12042.15
578.5579, 12041.38
579.0400, 12042.25
579.5221, 12043.69
580.0042, 12047.98
580.4863, 12050.11
580.9684, 12036.17
581.4506, 11998.73
581.9327, 11978.29
582.4148, 11999.47
582.8969, 12022.21
583.3790, 12019.96
583.8611, 11998.05
584.3433, 11971.33
584.8254, 11946.66
585.3075, 11922.71
585.7896, 11895.24
586.2717, 11863.21
586.7538, 11841.31
587.2360, 11832.58
587.7181, 11829.98
588.2002, 11839.78
588.6823, 11850.33
589.1644, 11839.75
589.6465, 11797.44
590.1287, 11754.33
590.6108, 11723.65
591.0929, 11701.37
591.5750, 11684.46
592.0571, 11671.49
592.5392, 11658.80
593.0214, 11643.87
593.5035, 11628.00
593.9856, 11614.14
594.4677, 11598.79
594.9498, 11593.95
595.4319, 11613.85
595.9141, 11632.57
596.3962, 11638.62
596.8783, 11633.06
597.3604, 11619.24
597.8425, 11594.55
598.3246, 11569.65
598.8068, 11551.48
599.2889, 11540.78
599.7710, 11544.50
600.2531, 11564.07
600.7352, 11576.25
601.2173, 11558.19
601.6995, 11515.36
602.1816, 11492.55
602.6637, 11503.71
603.1458, 11516.79
603.6279, 11531.53
604.1100, 11545.63
604.5922, 11559.69
605.0743, 11571.99
605.5564, 11576.96
606.0385, 11569.06
606.5206, 11555.36
607.0027, 11545.39
607.4849, 11539.00
607.9670, 11536.53
608.4491, 11539.44
608.9312, 11540.31
609.4133, 11529.03
609.8954, 11505.54
610.3776, 11496.92
610.8597, 11512.41
611.3418, 11529.51
611.8239, 11546.22
612.3060, 11560.11
612.7881, 11569.28
613.2703, 11573.30
613.7524, 11571.33
614.2345, 11558.43
614.7166, 11542.64
615.1987, 11548.72
615.6808, 11578.11
616.1630, 11595.59
616.6451, 11587.17
617.1272, 11570.07
617.6093, 11561.00
618.0914, 11560.18
618.5735, 11568.85
619.0557, 11607.55
619.5378, 11632.09
620.0199, 11610.02
620.5020, 11571.80
620.9841, 11557.48
621.4662, 11573.14
621.9484, 11594.97
622.4305, 11602.49
622.9126, 11598.64
623.3947, 11594.64
623.8768, 11590.83
624.3589, 11584.75
624.8411, 11575.21
625.3232, 11563.54
625.8053, 11551.21
626.2874, 11538.24
626.7695, 11524.41
627.2516, 11499.74
627.7338, 11485.03
628.2159, 11504.39
628.6980, 11535.01
629.1801, 11539.32
629.6622, 11511.30
630.1443, 11479.97
630.6265, 11475.71
631.1086, 11492.22
631.5907, 11490.75
632.0728, 11463.50
632.5549, 11450.09
633.0370, 11476.66
633.5192, 11508.33
634.0013, 11498.44
634.4834, 11449.90
634.9655, 11422.06
635.4476, 11447.74
635.9297, 11474.99
636.4119, 11464.90
636.8940, 11440.87
637.3761, 11448.90
637.8582, 11495.28
638.3403, 11534.70
638.8224, 11516.65
639.3046, 11453.23
639.7867, 11421.19
640.2688, 11429.26
640.7509, 11438.03
641.2330, 11442.21
641.7151, 11436.66
642.1973, 11409.97
642.6794, 11364.57
643.1615, 11332.59
643.6436, 11333.38
644.1257, 11335.63
644.6078, 11312.66
645.0900, 11283.78
645.5721, 11284.33
646.0542, 11318.38
646.5363, 11354.88
647.0184, 11365.77
647.5005, 11354.54
647.9827, 11332.95
648.4648, 11294.83
648.9469, 11272.56
649.4290, 11281.80
649.9111, 11301.89
650.3932, 11317.10
650.8754, 11326.94
651.3575, 11326.88
651.8396, 11315.25
652.3217, 11294.61
652.8038, 11251.75
653.2859, 11207.50
653.7681, 11191.23
654.2502, 11205.93
654.7323, 11235.49
655.2144, 11271.85
655.6965, 11306.51
656.1786, 11303.52
656.6608, 11253.61
657.1429, 11225.29
657.6250, 11245.53
658.1071, 11272.93
658.5892, 11265.24
659.0714, 11231.30
659.5535, 11210.60
660.0356, 11213.18
