##NAMES=Gypsum
##RRUFFID=R040029
##IDEAL CHEMISTRY=CaS^6+^O_4_&#183;2H_2_O
##LOCALITY=Twin Buttes, Pima County, Arizona, USA
##OWNER=RRUFF
##SOURCE=University of Arizona Mineral Museum
##DESCRIPTION=Colorless prismatic crystal
##STATUS=The identification of this mineral has been confirmed by X-ray diffraction.
##URL=rruff.info/R040029
127.6365, 444.8532
128.1186, 451.7318
128.6008, 460.6293
129.0829, 470.3772
129.5650, 479.7282
130.0471, 488.6620
130.5292, 496.3945
131.0113, 502.2302
131.4935, 506.3342
131.9756, 509.4301
132.4577, 512.3585
132.9398, 514.2054
133.4219, 511.4065
133.9040, 503.5435
134.3862, 494.4684
134.8683, 488.1246
135.3504, 484.4126
135.8325, 481.6611
136.3146, 479.3775
136.7967, 477.5837
137.2789, 476.5751
137.7610, 476.4616
138.2431, 476.8141
138.7252, 476.9350
139.2073, 476.6556
139.6894, 476.9417
140.1716, 478.1183
140.6537, 480.2244
141.1358, 483.0611
141.6179, 486.8127
142.1000, 491.1642
142.5821, 495.7764
143.0643, 501.5136
143.5464, 505.8158
144.0285, 507.5258
144.5106, 505.7609
144.9927, 503.7806
145.4748, 502.1274
145.9570, 500.1895
146.4391, 496.0386
146.9212, 487.6047
147.4033, 479.4188
147.8854, 473.6316
148.3675, 472.8992
148.8497, 470.4072
149.3318, 465.0806
149.8139, 457.5946
150.2960, 451.2590
150.7781, 446.2084
151.2602, 442.2230
151.7424, 439.2365
152.2245, 437.6583
152.7066, 436.5667
153.1887, 436.3055
153.6708, 436.7606
154.1529, 436.5331
154.6351, 434.7746
155.1172, 432.7411
155.5993, 431.2763
156.0814, 430.2947
156.5635, 430.0419
157.0456, 430.7313
157.5278, 432.3553
158.0099, 434.1857
158.4920, 436.2526
158.9741, 438.4076
159.4562, 440.5275
159.9383, 442.6610
160.4205, 444.6965
160.9026, 446.4979
161.3847, 448.0403
161.8668, 449.8078
162.3489, 452.5027
162.8310, 455.3625
163.3132, 457.4972
163.7953, 457.9949
164.2774, 458.1660
164.7595, 458.7345
165.2416, 459.8351
165.7237, 460.7370
166.2059, 460.5778
166.6880, 460.0599
167.1701, 460.2547
167.6522, 461.9543
168.1343, 464.3058
168.6164, 466.9669
169.0985, 470.1064
169.5807, 472.6145
170.0628, 473.0168
170.5449, 472.2668
171.0270, 472.2249
171.5091, 474.2368
171.9912, 477.1949
172.4734, 480.0167
172.9555, 482.4876
173.4376, 485.1131
173.9197, 488.5086
174.4018, 492.4485
174.8839, 496.2916
175.3661, 499.1394
175.8482, 501.8107
176.3303, 505.6016
176.8124, 511.1930
177.2945, 516.7895
177.7766, 520.1458
178.2588, 521.7234
178.7409, 523.2905
179.2230, 527.0120
179.7051, 531.3806
180.1872, 533.4948
180.6693, 532.6295
181.1515, 529.8218
181.6336, 526.2038
182.1157, 521.8040
182.5978, 516.8348
183.0799, 511.3073
183.5620, 505.2620
184.0442, 498.9093
184.5263, 492.1849
185.0084, 485.2269
185.4905, 477.2996
185.9726, 468.5386
186.4547, 461.4304
186.9369, 459.1300
187.4190, 460.4691
187.9011, 460.5724
188.3832, 458.0520
188.8653, 454.0822
189.3474, 451.1379
189.8296, 449.2144
190.3117, 447.7975
190.7938, 446.1611
191.2759, 444.4661
191.7580, 444.1295
192.2401, 446.0280
192.7223, 449.1871
193.2044, 450.5626
193.6865, 449.9864
194.1686, 449.0283
194.6507, 449.1187
195.1328, 450.2057
195.6150, 451.4471
196.0971, 452.9079
196.5792, 454.3042
197.0613, 454.0808
197.5434, 451.8644
198.0255, 449.7883
198.5077, 450.2108
198.9898, 453.2211
199.4719, 456.2966
199.9540, 458.9608
200.4361, 461.2061
200.9182, 462.8848
201.4004, 463.7967
201.8825, 464.7342
202.3646, 466.6722
202.8467, 469.7460
203.3288, 472.5596
203.8109, 474.7108
204.2931, 476.2860
204.7752, 478.0632
205.2573, 480.1700
205.7394, 482.1803
206.2215, 483.3930
206.7036, 483.4970
207.1858, 484.4696
207.6679, 487.2988
208.1500, 491.7592
208.6321, 493.9911
209.1142, 493.0961
209.5963, 491.6569
210.0785, 493.0392
210.5606, 498.4785
211.0427, 502.0815
211.5248, 502.3844
212.0069, 499.4380
212.4890, 494.8752
212.9712, 487.7907
213.4533, 480.4667
213.9354, 475.8561
214.4175, 475.0271
214.8996, 473.4976
215.3817, 469.7834
215.8639, 463.9060
216.3460, 459.6742
216.8281, 457.6671
217.3102, 456.5193
217.7923, 454.7271
218.2744, 451.9981
218.7565, 449.3089
219.2387, 446.8510
219.7208, 444.5918
220.2029, 442.8323
220.6850, 441.6985
221.1671, 440.9306
221.6492, 440.3257
222.1314, 440.0400
222.6135, 439.5338
223.0956, 438.6042
223.5777, 437.2116
224.0598, 436.1408
224.5419, 435.4912
225.0241, 435.0444
225.5062, 434.5961
225.9883, 434.2505
226.4704, 433.6871
226.9525, 432.8524
227.4346, 431.7331
227.9168, 430.2824
228.3989, 428.0183
228.8810, 425.9342
229.3631, 425.1573
229.8452, 426.2239
230.3273, 427.5750
230.8095, 429.2420
231.2916, 431.2906
231.7737, 431.6362
232.2558, 429.0253
232.7379, 426.0113
233.2200, 425.4102
233.7022, 428.8561
234.1843, 431.4845
234.6664, 432.0518
235.1485, 430.5208
235.6306, 429.7176
236.1127, 430.2090
236.5949, 430.8361
237.0770, 430.3831
237.5591, 427.9818
238.0412, 426.2052
238.5233, 425.7390
239.0054, 426.5826
239.4876, 426.8648
239.9697, 425.9434
240.4518, 425.1601
240.9339, 425.8388
241.4160, 428.9678
241.8981, 431.6277
242.3803, 433.3961
242.8624, 434.2796
243.3445, 434.3563
243.8266, 433.1431
244.3087, 431.6696
244.7908, 430.7504
245.2730, 430.4464
245.7551, 430.6048
246.2372, 431.4898
246.7193, 432.9921
247.2014, 433.5461
247.6835, 432.4444
248.1657, 431.2307
248.6478, 431.1440
249.1299, 432.7513
249.6120, 434.2424
250.0941, 435.3862
250.5762, 436.2222
251.0584, 437.2523
251.5405, 439.3677
252.0226, 440.4832
252.5047, 438.5976
252.9868, 431.2371
253.4689, 426.8500
253.9511, 427.5493
254.4332, 432.1728
254.9153, 433.7289
255.3974, 430.3232
255.8795, 426.8015
256.3616, 426.5316
256.8438, 431.2661
257.3259, 434.6424
257.8080, 435.9228
258.2901, 435.5074
258.7722, 434.7502
259.2543, 432.9206
259.7365, 431.9759
260.2186, 433.4872
260.7007, 438.9745
261.1828, 442.1428
261.6649, 441.8582
262.1470, 439.2794
262.6292, 437.8810
263.1113, 438.0295
263.5934, 438.6213
264.0755, 439.1469
264.5576, 439.6048
265.0397, 439.9792
265.5219, 440.1893
266.0040, 440.3712
266.4861, 440.8728
266.9682, 441.7809
267.4503, 442.8017
267.9324, 443.8592
268.4146, 445.0609
268.8967, 445.8610
269.3788, 446.1096
269.8609, 446.1208
270.3430, 446.5258
270.8251, 447.4636
271.3073, 448.3470
271.7894, 449.1631
272.2715, 450.0376
272.7536, 449.2292
273.2357, 445.9337
273.7178, 442.1285
274.2000, 441.0557
274.6821, 443.2902
275.1642, 445.7238
275.6463, 447.3485
276.1284, 448.1601
276.6105, 448.7253
277.0927, 449.0876
277.5748, 449.1073
278.0569, 448.4152
278.5390, 446.8976
279.0211, 445.6497
279.5032, 444.9797
279.9854, 444.8815
280.4675, 445.3194
280.9496, 446.3942
281.4317, 447.6832
281.9138, 448.7584
282.3959, 449.6164
282.8781, 450.3960
283.3602, 450.9953
283.8423, 451.5692
284.3244, 453.0444
284.8065, 455.6154
285.2886, 457.9110
285.7708, 458.3039
286.2529, 456.9152
286.7350, 456.1784
287.2171, 456.9190
287.6992, 458.4075
288.1813, 458.4762
288.6635, 457.0628
289.1456, 455.3838
289.6277, 453.8481
290.1098, 452.6384
290.5919, 453.2629
291.0740, 456.5145
291.5562, 460.8724
292.0383, 463.1537
292.5204, 463.4688
293.0025, 463.7287
293.4846, 465.7887
293.9667, 468.9221
294.4489, 470.4738
294.9310, 469.9199
295.4131, 468.2480
295.8952, 466.1699
296.3773, 463.9130
296.8594, 462.8286
297.3416, 464.2171
297.8237, 467.2773
298.3058, 470.4281
298.7879, 473.7240
299.2700, 476.3981
299.7521, 476.8405
300.2343, 475.7181
300.7164, 475.1437
301.1985, 476.8584
301.6806, 479.5046
302.1627, 480.7205
302.6448, 480.3508
303.1270, 479.8578
303.6091, 480.6547
304.0912, 482.3136
304.5733, 483.9874
305.0554, 485.2901
305.5375, 486.4404
306.0197, 487.6249
306.5018, 488.8389
306.9839, 490.1184
307.4660, 491.9053
307.9481, 493.6624
308.4302, 494.5954
308.9124, 493.9772
309.3945, 492.9395
309.8766, 492.0041
310.3587, 491.2868
310.8408, 491.4477
311.3229, 494.0134
311.8051, 497.1702
312.2872, 498.9364
312.7693, 498.2520
313.2514, 497.1441
313.7335, 497.0283
314.2156, 497.4786
314.6978, 497.2518
315.1799, 494.7603
315.6620, 491.9955
316.1441, 490.5418
316.6262, 491.0902
317.1083, 491.7162
317.5905, 491.6682
318.0726, 491.1378
318.5547, 490.4573
319.0368, 489.5290
319.5189, 488.6432
320.0010, 488.1735
320.4832, 488.3846
320.9653, 487.7651
321.4474, 484.8736
321.9295, 481.2675
322.4116, 478.7695
322.8937, 478.8400
323.3759, 479.0549
323.8580, 478.2909
324.3401, 476.4154
324.8222, 476.0340
325.3043, 479.9574
325.7864, 484.2115
326.2686, 485.7320
326.7507, 480.4890
327.2328, 476.6366
327.7149, 476.0749
328.1970, 478.4327
328.6791, 479.4780
329.1613, 478.0886
329.6434, 476.2101
330.1255, 474.7949
330.6076, 473.8280
331.0897, 473.3608
331.5718, 473.7755
332.0540, 474.6781
332.5361, 474.9122
333.0182, 473.9706
333.5003, 473.0317
333.9824, 472.6217
334.4645, 473.0196
334.9467, 473.0222
335.4288, 472.2230
335.9109, 471.3214
336.3930, 471.6085
336.8751, 473.6845
337.3572, 475.5759
337.8394, 476.8410
338.3215, 477.4854
338.8036, 477.0037
339.2857, 474.9343
339.7678, 472.5372
340.2499, 471.0087
340.7320, 470.3604
341.2141, 470.7701
341.6963, 472.7415
342.1784, 475.7540
342.6605, 477.2699
343.1426, 477.1259
343.6247, 476.1801
344.1068, 474.3849
344.5890, 471.8647
345.0711, 471.5124
345.5532, 474.3640
346.0353, 478.7418
346.5174, 481.3009
346.9995, 482.0728
347.4817, 481.7896
347.9638, 480.2897
348.4459, 478.0079
348.9280, 476.6560
349.4101, 476.5061
349.8922, 476.6848
350.3744, 475.4263
350.8565, 473.3304
351.3386, 472.7306
351.8207, 476.7126
352.3028, 482.2323
352.7849, 483.7595
353.2671, 481.1957
353.7492, 478.1506
354.2313, 477.8876
354.7134, 479.2849
355.1955, 480.3857
355.6776, 480.4557
356.1598, 480.0264
356.6419, 479.3157
357.1240, 478.4284
357.6061, 477.9153
358.0882, 478.5056
358.5703, 479.4521
359.0525, 479.9485
359.5346, 479.5307
360.0167, 479.2270
360.4988, 479.9547
360.9809, 481.2398
361.4630, 482.0378
361.9452, 481.6117
362.4273, 480.7923
362.9094, 479.7599
363.3915, 478.2658
363.8736, 477.8266
364.3557, 480.1558
364.8379, 483.3978
365.3200, 485.3745
365.8021, 484.2317
366.2842, 483.1076
366.7663, 482.9845
367.2484, 483.8993
367.7306, 484.6995
368.2127, 485.1302
368.6948, 485.4930
369.1769, 485.9945
369.6590, 486.8071
370.1411, 487.5768
370.6233, 488.3435
371.1054, 489.0732
371.5875, 489.6465
372.0696, 490.2039
372.5517, 490.4247
373.0338, 490.0780
373.5160, 488.7882
373.9981, 488.0409
374.4802, 488.1077
374.9623, 488.4884
375.4444, 488.2727
375.9265, 487.0931
376.4087, 486.3434
376.8908, 486.5645
377.3729, 487.7156
377.8550, 488.5534
378.3371, 488.9985
378.8192, 489.3216
379.3014, 489.5450
379.7835, 489.6275
380.2656, 490.7179
380.7477, 493.4062
381.2298, 496.8809
381.7119, 499.2892
382.1941, 500.6058
382.6762, 501.0170
383.1583, 499.7838
383.6404, 497.5580
384.1225, 497.0760
384.6046, 498.7929
385.0868, 501.5616
385.5689, 504.7064
386.0510, 507.8866
386.5331, 509.8856
387.0152, 509.1676
387.4973, 507.3499
387.9795, 506.7218
388.4616, 507.3195
388.9437, 508.4478
389.4258, 509.3058
389.9079, 510.4306
390.3900, 512.6617
390.8722, 517.1456
391.3543, 521.7598
391.8364, 525.1025
392.3185, 527.2792
392.8006, 528.7970
393.2827, 527.9851
393.7649, 527.8253
394.2470, 530.7865
394.7291, 538.4185
395.2112, 545.8970
395.6933, 550.8310
396.1754, 554.6909
396.6576, 559.6815
397.1397, 568.5393
397.6218, 576.5018
398.1039, 581.5106
398.5860, 583.1712
399.0681, 585.6754
399.5503, 590.2186
400.0324, 595.2962
400.5145, 599.7467
400.9966, 602.8591
401.4787, 606.3888
401.9608, 610.5546
402.4430, 615.2401
402.9251, 619.9187
403.4072, 624.1818
403.8893, 629.0837
404.3714, 634.8954
404.8535, 641.4446
405.3357, 649.9617
405.8178, 661.0223
406.2999, 673.1398
406.7820, 683.7952
407.2641, 692.5236
407.7462, 702.5042
408.2284, 715.1127
408.7105, 729.6432
409.1926, 743.4623
409.6747, 756.3828
410.1568, 769.9846
410.6389, 786.7336
411.1211, 805.7250
411.6032, 822.7769
412.0853, 837.5091
412.5674, 849.4901
413.0495, 859.2806
413.5316, 866.5311
414.0138, 869.2915
414.4959, 867.4401
414.9780, 860.1343
415.4601, 845.3047
415.9422, 822.4891
416.4243, 795.8812
416.9065, 765.7158
417.3886, 734.5217
417.8707, 706.6625
418.3528, 683.6914
418.8349, 664.1481
419.3170, 647.3823
419.7992, 633.0969
420.2813, 620.7272
420.7634, 611.1238
421.2455, 602.2660
421.7276, 592.4959
422.2097, 580.1754
422.6919, 570.0581
423.1740, 564.2917
423.6561, 561.1808
424.1382, 557.9877
424.6203, 553.4956
425.1024, 549.7853
425.5846, 547.8608
426.0667, 547.8905
426.5488, 546.6284
427.0309, 543.0756
427.5130, 539.0937
427.9951, 535.9245
428.4773, 533.7245
428.9594, 532.0265
429.4415, 530.9189
429.9236, 530.2451
430.4057, 529.5706
430.8878, 528.8368
431.3700, 528.3182
431.8521, 528.2523
432.3342, 528.6430
432.8163, 528.7611
433.2984, 528.6366
433.7805, 528.1564
434.2627, 526.7215
434.7448, 524.5129
435.2269, 523.5172
435.7090, 524.8468
436.1911, 527.0357
436.6732, 526.8552
437.1554, 524.5616
437.6375, 522.2424
438.1196, 521.1387
438.6017, 520.9481
439.0838, 521.1908
439.5659, 521.8026
440.0480, 522.8903
440.5302, 525.3554
441.0123, 528.2460
441.4944, 529.9661
441.9765, 528.4098
442.4586, 526.6951
442.9407, 527.2732
443.4229, 529.8063
443.9050, 531.3362
444.3871, 529.7297
444.8692, 527.3109
445.3513, 525.6283
445.8334, 525.4693
446.3156, 525.0870
446.7977, 522.9877
447.2798, 520.6555
447.7619, 520.7587
448.2440, 526.3738
448.7261, 531.2846
449.2083, 534.0209
449.6904, 534.5080
450.1725, 534.6727
450.6546, 534.5469
451.1367, 534.0615
451.6188, 533.0115
452.1010, 531.0377
452.5831, 529.7091
453.0652, 529.1649
453.5473, 529.3114
454.0294, 529.9355
454.5115, 531.0397
454.9937, 532.6698
455.4758, 535.4073
455.9579, 538.8448
456.4400, 540.5212
456.9221, 540.3181
457.4042, 539.5679
457.8864, 539.3080
458.3685, 539.5286
458.8506, 540.2899
459.3327, 541.8619
459.8148, 543.5343
460.2969, 544.1995
460.7791, 544.1936
461.2612, 544.6096
461.7433, 546.3549
462.2254, 548.6077
462.7075, 550.7434
463.1896, 552.7442
463.6718, 554.4503
464.1539, 555.1623
464.6360, 555.8048
465.1181, 557.2897
465.6002, 560.0837
466.0823, 563.5062
466.5645, 568.1945
467.0466, 573.5697
467.5287, 577.4194
468.0108, 576.9757
468.4929, 577.2542
468.9750, 580.1525
469.4572, 586.3185
469.9393, 592.7173
470.4214, 599.8346
470.9035, 606.6730
471.3856, 611.6629
471.8677, 613.5250
472.3499, 617.7938
472.8320, 626.2944
473.3141, 637.5668
473.7962, 646.3027
474.2783, 652.1067
474.7604, 658.2640
475.2426, 666.5008
475.7247, 676.7609
476.2068, 688.8907
476.6889, 703.2422
477.1710, 717.5718
477.6531, 728.7521
478.1353, 737.8575
478.6174, 747.9317
479.0995, 760.7169
479.5816, 774.0826
480.0637, 784.9684
480.5458, 794.1096
481.0280, 804.0990
481.5101, 817.1260
481.9922, 831.1517
482.4743, 843.8641
482.9564, 854.4821
483.4385, 867.2252
483.9207, 884.0597
484.4028, 903.6427
484.8849, 924.6001
485.3670, 947.5640
485.8491, 970.5703
486.3312, 993.6017
486.8134, 1016.484
487.2955, 1038.492
487.7776, 1056.971
488.2597, 1077.199
488.7418, 1102.068
489.2239, 1132.986
489.7061, 1160.831
490.1882, 1185.677
490.6703, 1207.405
491.1524, 1227.125
491.6345, 1245.572
492.1166, 1256.834
492.5988, 1259.952
493.0809, 1255.317
493.5630, 1243.164
494.0451, 1223.462
494.5272, 1199.271
495.0093, 1171.791
495.4915, 1141.004
495.9736, 1105.834
496.4557, 1066.227
496.9378, 1025.276
497.4199, 985.1163
497.9020, 945.8722
498.3842, 908.4170
498.8663, 871.6426
499.3484, 837.9584
499.8305, 809.2687
500.3126, 784.8149
500.7947, 762.7523
501.2769, 741.6903
501.7590, 723.1910
502.2411, 708.5504
502.7232, 698.1849
503.2053, 688.1100
503.6874, 677.7328
504.1696, 667.5828
504.6517, 658.1888
505.1338, 649.7849
505.6159, 641.6998
506.0980, 633.7029
506.5801, 626.1318
507.0623, 620.0127
507.5444, 615.7545
508.0265, 611.3186
508.5086, 605.3083
508.9907, 598.1988
509.4728, 594.7617
509.9550, 595.5072
510.4371, 596.0358
510.9192, 591.2139
511.4013, 582.6827
511.8834, 576.9905
512.3655, 575.4819
512.8477, 575.7491
513.3298, 575.7570
513.8119, 575.3907
514.2940, 574.3654
514.7761, 571.8878
515.2582, 569.2249
515.7404, 567.3480
516.2225, 566.1865
516.7046, 565.1093
517.1867, 563.6820
517.6688, 562.3487
518.1509, 561.4835
518.6331, 561.4977
519.1152, 561.0706
519.5973, 559.3756
520.0794, 557.3493
520.5615, 556.1974
521.0436, 556.4173
521.5258, 556.7248
522.0079, 557.0913
522.4900, 557.3963
522.9721, 556.9302
523.4542, 555.4086
523.9363, 553.9716
524.4185, 553.2858
524.9006, 553.3472
525.3827, 553.2988
525.8648, 553.1402
526.3469, 552.9169
526.8290, 552.4230
527.3112, 551.8621
527.7933, 552.1495
528.2754, 554.0117
528.7575, 555.8952
529.2396, 555.6467
529.7217, 553.8495
530.2039, 552.2220
530.6860, 551.8077
531.1681, 551.7521
531.6502, 551.5060
532.1323, 551.0309
532.6144, 550.3481
533.0966, 548.8401
533.5787, 547.5083
534.0608, 547.0526
534.5429, 547.9415
535.0250, 549.1355
535.5071, 551.1487
535.9893, 553.1836
536.4714, 553.9799
536.9535, 552.9405
537.4356, 551.7826
537.9177, 550.6749
538.3998, 549.7320
538.8820, 549.9775
539.3641, 551.7203
539.8462, 553.2277
540.3283, 553.2659
540.8104, 552.0300
541.2925, 550.7047
541.7747, 549.2706
542.2568, 548.2416
542.7389, 548.1369
543.2210, 548.8627
543.7031, 550.3254
544.1852, 553.0236
544.6674, 555.5936
545.1495, 556.6618
545.6316, 556.5976
546.1137, 556.3193
546.5958, 555.9356
547.0779, 555.7127
547.5601, 556.1412
548.0422, 557.2717
548.5243, 557.3747
549.0064, 554.3929
549.4885, 551.4725
549.9706, 550.5902
550.4528, 552.7441
550.9349, 555.1743
551.4170, 558.6042
551.8991, 561.7729
552.3812, 562.4931
552.8633, 560.0190
553.3455, 558.1233
553.8276, 557.7606
554.3097, 558.5706
554.7918, 559.4153
555.2739, 560.2834
555.7560, 561.4976
556.2382, 563.6226
556.7203, 566.1695
557.2024, 568.1217
557.6845, 569.4377
558.1666, 570.1876
558.6487, 570.0350
559.1309, 569.4920
559.6130, 569.1947
560.0951, 569.2809
560.5772, 569.6691
561.0593, 570.5838
561.5414, 571.7344
562.0236, 572.5954
562.5057, 572.7663
562.9878, 572.9206
563.4699, 572.9423
563.9520, 572.9198
564.4341, 574.0068
564.9163, 576.8381
565.3984, 579.8876
565.8805, 582.6373
566.3626, 585.2526
566.8447, 586.3978
567.3268, 585.7784
567.8090, 584.5589
568.2911, 583.9689
568.7732, 583.9589
569.2553, 584.0900
569.7374, 584.2022
570.2195, 584.5718
570.7017, 585.7648
571.1838, 587.5851
571.6659, 589.3796
572.1480, 590.9681
572.6301, 592.3170
573.1122, 593.4446
573.5944, 594.3441
574.0765, 594.8730
574.5586, 594.3049
575.0407, 593.8398
575.5228, 594.3624
576.0049, 596.5784
576.4871, 598.0619
576.9692, 597.9322
577.4513, 597.4354
577.9334, 597.8112
578.4155, 599.6382
578.8976, 600.9278
579.3798, 601.2813
579.8619, 601.1056
580.3440, 601.3621
580.8261, 602.0781
581.3082, 602.8767
581.7903, 603.4250
582.2725, 603.9933
582.7546, 605.6451
583.2367, 608.2852
583.7188, 610.6758
584.2009, 611.4186
584.6830, 611.5450
585.1652, 612.6464
585.6473, 615.1432
586.1294, 617.1105
586.6115, 616.5855
587.0936, 615.3173
587.5757, 615.1530
588.0578, 617.8076
588.5399, 620.1175
589.0220, 621.0693
589.5042, 621.3188
589.9863, 622.4706
590.4684, 625.5289
590.9505, 627.8229
591.4326, 628.5145
591.9147, 627.7812
592.3969, 626.9512
592.8790, 625.8192
593.3611, 625.4874
593.8432, 627.1312
594.3253, 630.3297
594.8074, 632.8411
595.2896, 634.5250
595.7717, 636.1038
596.2538, 638.5005
596.7359, 641.2593
597.2180, 643.5670
597.7001, 645.1208
598.1823, 646.3007
598.6644, 646.7330
599.1465, 647.0588
599.6286, 648.3836
600.1107, 651.9914
600.5928, 655.6653
601.0750, 658.5472
601.5571, 660.7629
602.0392, 663.5768
602.5213, 666.8478
603.0034, 670.9949
603.4855, 676.7897
603.9677, 684.6044
604.4498, 688.6057
604.9319, 687.6271
605.4140, 686.5411
605.8961, 690.5001
606.3782, 698.7141
606.8604, 705.6741
607.3425, 710.7123
607.8246, 714.4886
608.3067, 716.9110
608.7888, 718.6917
609.2709, 721.3402
609.7531, 725.9738
610.2352, 730.9633
610.7173, 735.3089
611.1994, 739.1983
611.6815, 743.1723
612.1636, 747.2530
612.6458, 751.6434
613.1279, 756.6219
613.6100, 762.1660
614.0921, 767.5546
614.5742, 773.0538
615.0563, 778.1428
615.5385, 782.6990
616.0206, 786.9329
616.5027, 789.4615
616.9848, 789.9904
617.4669, 789.7146
617.9490, 790.3297
618.4312, 791.4622
618.9133, 791.1140
619.3954, 788.7607
619.8775, 785.1012
620.3596, 781.0918
620.8417, 776.3887
621.3239, 770.3467
621.8060, 761.6519
622.2881, 752.3512
622.7702, 743.8944
623.2523, 735.8902
623.7344, 726.7090
624.2166, 714.2983
624.6987, 702.1158
625.1808, 691.5491
625.6629, 682.5988
