##NAMES=Gypsum
##RRUFFID=R040029
##IDEAL CHEMISTRY=CaS^6+^O_4_&#183;2H_2_O
##LOCALITY=Twin Buttes, Pima County, Arizona, USA
##OWNER=RRUFF
##SOURCE=University of Arizona Mineral Museum
##DESCRIPTION=Colorless prismatic crystal
##STATUS=The identification of this mineral has been confirmed by X-ray diffraction.
##URL=rruff.info/R040029
104.6345, 775.1017
105.1166, 774.5139
105.5988, 773.7001
106.0809, 773.3173
106.5630, 774.2347
107.0451, 776.6727
107.5272, 778.7032
108.0093, 778.6219
108.4915, 778.0690
108.9736, 778.7860
109.4557, 781.9971
109.9378, 786.0450
110.4199, 786.0757
110.9020, 778.3118
111.3842, 771.5417
111.8663, 768.5640
112.3484, 767.8256
112.8305, 767.0292
113.3126, 764.5088
113.7947, 760.1766
114.2769, 756.6254
114.7590, 753.5859
115.2411, 751.4314
115.7232, 750.8922
116.2053, 751.5978
116.6874, 752.1838
117.1695, 751.0045
117.6517, 747.1020
118.1338, 746.2302
118.6159, 750.4807
119.0980, 756.3385
119.5801, 761.0847
120.0622, 764.1135
120.5444, 766.0433
121.0265, 767.2075
121.5086, 767.5255
121.9907, 768.5880
122.4728, 771.5567
122.9549, 775.6518
123.4371, 778.8865
123.9192, 780.5610
124.4013, 781.3491
124.8834, 781.8097
125.3655, 781.8824
125.8476, 782.5648
126.3298, 785.1359
126.8119, 789.7918
127.2940, 793.7294
127.7761, 794.7681
128.2582, 795.6440
128.7404, 798.3170
129.2225, 803.3191
129.7046, 809.1681
130.1867, 813.3777
130.6688, 815.2329
131.1509, 816.6229
131.6331, 818.8746
132.1152, 820.4808
132.5973, 819.9012
133.0794, 816.3732
133.5615, 810.4413
134.0436, 804.4182
134.5258, 798.6491
135.0079, 792.3961
135.4900, 784.1362
135.9721, 775.3780
136.4542, 768.9233
136.9363, 766.9333
137.4184, 768.9954
137.9006, 768.2335
138.3827, 761.4211
138.8648, 755.3700
139.3469, 754.3124
139.8290, 757.6644
140.3111, 760.8230
140.7933, 759.6945
141.2754, 754.8016
141.7575, 751.9153
142.2396, 752.2513
142.7217, 754.2947
143.2038, 757.0564
143.6860, 760.8497
144.1681, 763.6552
144.6502, 763.5840
145.1323, 761.3071
145.6144, 757.6981
146.0965, 752.0017
146.5787, 745.1197
147.0608, 739.9534
147.5429, 737.4467
148.0250, 735.7022
148.5071, 733.4643
148.9892, 730.9517
149.4714, 728.8014
149.9535, 727.9240
150.4356, 728.4993
150.9177, 727.9179
151.3998, 724.1536
151.8819, 720.7951
152.3641, 719.6134
152.8462, 720.3931
153.3283, 721.4688
153.8104, 720.7355
154.2925, 717.0295
154.7746, 714.8136
155.2568, 714.0282
155.7389, 714.3878
156.2210, 716.1283
156.7031, 719.1188
157.1852, 722.6027
157.6673, 725.4059
158.1495, 727.0564
158.6316, 728.7015
159.1137, 730.3844
159.5958, 732.0463
160.0779, 733.5860
160.5600, 734.9684
161.0422, 736.3159
161.5243, 737.8883
162.0064, 739.6658
162.4885, 741.6469
162.9706, 744.4606
163.4527, 747.4528
163.9349, 749.1921
164.4170, 748.8430
164.8991, 747.3694
165.3812, 746.4734
165.8633, 745.9486
166.3454, 746.3441
166.8276, 748.7794
167.3097, 752.8884
167.7918, 755.8297
168.2739, 755.5710
168.7560, 754.2223
169.2381, 754.3610
169.7203, 756.4741
170.2024, 759.2776
170.6845, 761.4629
171.1666, 762.8844
171.6487, 764.5048
172.1308, 767.1060
172.6130, 769.8184
173.0951, 771.7605
173.5772, 772.5435
174.0593, 773.1046
174.5414, 775.3260
175.0235, 780.3593
175.5057, 784.6252
175.9878, 787.7953
176.4699, 789.8195
176.9520, 790.1445
177.4341, 788.3810
177.9162, 785.7120
178.3984, 785.9795
178.8805, 793.4105
179.3626, 798.4246
179.8447, 799.3976
180.3268, 797.5439
180.8089, 794.2750
181.2911, 790.3392
181.7732, 785.7935
182.2553, 780.8547
182.7374, 775.5064
183.2195, 769.7819
183.7016, 763.7378
184.1838, 757.3168
184.6659, 750.1891
185.1480, 741.9252
185.6301, 732.8179
186.1122, 726.0441
186.5943, 723.3502
187.0765, 720.6534
187.5586, 715.8677
188.0407, 709.6135
188.5228, 704.0208
189.0049, 700.4918
189.4870, 698.9809
189.9692, 697.9838
190.4513, 698.0502
190.9334, 698.1385
191.4155, 697.2889
191.8976, 695.5794
192.3797, 694.3263
192.8619, 694.8420
193.3440, 696.4339
193.8261, 697.1011
194.3082, 696.5291
194.7903, 695.0217
195.2724, 692.3127
195.7546, 688.0867
196.2367, 684.7692
196.7188, 684.6364
197.2009, 686.2960
197.6830, 688.1861
198.1651, 690.2011
198.6473, 691.9499
199.1294, 692.4240
199.6115, 690.8141
200.0936, 689.9965
200.5757, 692.6754
201.0578, 696.5392
201.5400, 698.3520
202.0221, 695.6431
202.5042, 690.5680
202.9863, 689.8828
203.4684, 697.0534
203.9505, 703.0358
204.4327, 704.4479
204.9148, 703.1865
205.3969, 701.9080
205.8790, 702.1699
206.3611, 703.5395
206.8432, 703.7122
207.3254, 700.4529
207.8075, 698.7136
208.2896, 700.5943
208.7717, 704.4530
209.2538, 708.0166
209.7359, 709.8887
210.2181, 710.1537
210.7002, 709.4852
211.1823, 707.1212
211.6644, 704.5474
212.1465, 701.9960
212.6286, 699.4339
213.1108, 696.6879
213.5929, 693.6001
214.0750, 690.2264
214.5571, 687.4969
215.0392, 685.4069
215.5213, 683.8607
216.0035, 683.3124
216.4856, 683.3303
216.9677, 683.0388
217.4498, 681.8322
217.9319, 679.7862
218.4140, 677.8075
218.8961, 675.8900
219.3783, 674.0460
219.8604, 672.1599
220.3425, 670.3221
220.8246, 668.7403
221.3067, 667.4724
221.7888, 666.6190
222.2710, 666.5560
222.7531, 668.8297
223.2352, 670.3528
223.7173, 668.9253
224.1994, 665.0881
224.6815, 661.4945
225.1637, 659.7064
225.6458, 659.4869
226.1279, 659.3489
226.6100, 659.5902
227.0921, 659.6226
227.5742, 659.0121
228.0564, 657.7963
228.5385, 656.2679
229.0206, 654.2102
229.5027, 652.1298
229.9848, 651.0511
230.4669, 651.2612
230.9491, 652.1727
231.4312, 653.6246
231.9133, 655.6271
232.3954, 657.1655
232.8775, 657.6682
233.3596, 657.4210
233.8418, 656.7742
234.3239, 655.6772
234.8060, 654.3744
235.2881, 652.9581
235.7702, 651.3706
236.2523, 650.2056
236.7345, 649.2714
237.2166, 649.1586
237.6987, 651.1273
238.1808, 655.9573
238.6629, 660.5557
239.1451, 660.2235
239.6272, 653.7043
240.1093, 648.9913
240.5914, 650.2283
241.0735, 653.2305
241.5556, 655.3795
242.0378, 656.0579
242.5199, 655.9384
243.0020, 655.6928
243.4841, 655.1212
243.9662, 655.1885
244.4483, 657.4350
244.9305, 659.4772
245.4126, 659.4069
245.8947, 656.8913
246.3768, 653.5908
246.8589, 651.9807
247.3410, 652.9679
247.8232, 652.7853
248.3053, 649.0015
248.7874, 645.4909
249.2695, 645.0732
249.7516, 648.0323
250.2337, 652.1566
250.7159, 654.6604
251.1980, 655.3282
251.6801, 654.8303
252.1622, 652.1085
252.6443, 649.2112
253.1264, 647.1738
253.6086, 646.1869
254.0907, 645.9419
254.5728, 646.2096
255.0549, 647.4329
255.5370, 647.7758
256.0191, 646.3911
256.5013, 644.9679
256.9834, 644.7579
257.4655, 645.6351
257.9476, 646.2897
258.4297, 645.0389
258.9118, 640.8073
259.3940, 639.1693
259.8761, 642.3484
260.3582, 645.6249
260.8403, 646.1077
261.3224, 644.1070
261.8045, 642.1234
262.2867, 642.6890
262.7688, 646.4201
263.2509, 648.4501
263.7330, 648.0297
264.2151, 647.0076
264.6972, 645.8858
265.1794, 644.8682
265.6615, 644.1899
266.1436, 644.0637
266.6257, 644.5110
267.1078, 645.1698
267.5899, 646.7281
268.0721, 647.8080
268.5542, 647.3214
269.0363, 645.7689
269.5184, 644.6473
270.0005, 645.0847
270.4826, 646.9427
270.9648, 648.1073
271.4469, 648.4955
271.9290, 648.4556
272.4111, 647.9944
272.8932, 647.1964
273.3753, 646.1570
273.8575, 644.8514
274.3396, 643.4198
274.8217, 642.6354
275.3038, 642.5606
275.7859, 642.8776
276.2680, 643.7150
276.7502, 644.8680
277.2323, 646.0516
277.7144, 647.2484
278.1965, 648.1814
278.6786, 647.8378
279.1607, 645.7304
279.6429, 643.5975
280.1250, 641.3069
280.6071, 639.3796
281.0892, 639.0762
281.5713, 641.1202
282.0534, 644.1675
282.5356, 645.4928
283.0177, 644.8340
283.4998, 643.9468
283.9819, 642.8452
284.4640, 641.8788
284.9461, 641.6311
285.4283, 642.2950
285.9104, 643.5213
286.3925, 645.0692
286.8746, 647.0413
287.3567, 648.4069
287.8388, 648.8210
288.3210, 648.5712
288.8031, 647.7358
289.2852, 646.2261
289.7673, 645.0314
290.2494, 645.6701
290.7315, 648.0113
291.2137, 649.3268
291.6958, 648.2653
292.1779, 646.4923
292.6600, 645.8109
293.1421, 646.4070
293.6242, 647.4692
294.1064, 648.4858
294.5885, 649.4447
295.0706, 650.2850
295.5527, 651.2596
296.0348, 651.9299
296.5169, 651.4457
296.9991, 649.8726
297.4812, 649.0056
297.9633, 650.1046
298.4454, 652.8187
298.9275, 655.7114
299.4096, 659.5099
299.8918, 662.6090
300.3739, 663.5186
300.8560, 662.4948
301.3381, 661.3182
301.8202, 660.7094
302.3023, 660.4982
302.7845, 660.2468
303.2666, 659.8844
303.7487, 659.6581
304.2308, 659.6385
304.7129, 659.8566
305.1950, 660.5770
305.6772, 662.2770
306.1593, 663.9395
306.6414, 663.6719
307.1235, 661.1699
307.6056, 659.7078
308.0877, 661.9766
308.5699, 666.2452
309.0520, 668.1520
309.5341, 666.1199
310.0162, 663.2825
310.4983, 663.6740
310.9804, 666.7524
311.4626, 669.0036
311.9447, 669.1007
312.4268, 667.7684
312.9089, 665.7856
313.3910, 663.0219
313.8731, 660.6225
314.3553, 660.1503
314.8374, 660.9164
315.3195, 660.6697
315.8016, 657.9113
316.2837, 654.5503
316.7658, 652.6761
317.2480, 652.3521
317.7301, 652.5575
318.2122, 653.0643
318.6943, 653.5676
319.1764, 653.4199
319.6585, 652.6127
320.1407, 651.1001
320.6228, 648.1552
321.1049, 644.0908
321.5870, 641.2791
322.0691, 641.2821
322.5512, 642.7036
323.0334, 643.0590
323.5155, 642.3571
323.9976, 640.6863
324.4797, 636.9569
324.9618, 632.1442
325.4439, 629.5709
325.9261, 630.8261
326.4082, 633.3152
326.8903, 633.5480
327.3724, 631.5897
327.8545, 629.4949
328.3366, 627.2446
328.8188, 625.5100
329.3009, 625.9067
329.7830, 629.0933
330.2651, 632.4070
330.7472, 633.0038
331.2293, 631.3477
331.7115, 629.7952
332.1936, 629.1582
332.6757, 628.5844
333.1578, 626.7976
333.6399, 623.7460
334.1220, 621.3241
334.6042, 621.1740
335.0863, 622.6442
335.5684, 623.0650
336.0505, 621.8416
336.5326, 620.0908
337.0147, 617.9462
337.4969, 615.6812
337.9790, 614.6970
338.4611, 616.0299
338.9432, 618.6209
339.4253, 620.0873
339.9074, 620.1273
340.3896, 620.0029
340.8717, 620.1978
341.3538, 620.5696
341.8359, 620.9906
342.3180, 621.5504
342.8001, 621.6831
343.2822, 620.1028
343.7643, 616.5570
344.2465, 614.1304
344.7286, 613.8873
345.2107, 614.7978
345.6928, 616.1324
346.1749, 617.7700
346.6570, 618.7639
347.1392, 618.0107
347.6213, 615.4343
348.1034, 613.7001
348.5855, 613.5990
349.0676, 613.6678
349.5497, 612.7179
350.0319, 610.9687
350.5140, 609.6587
350.9961, 609.6400
351.4782, 610.5768
351.9603, 610.8534
352.4424, 609.9745
352.9246, 609.1640
353.4067, 608.9142
353.8888, 608.9684
354.3709, 608.8401
354.8530, 608.3286
355.3351, 607.6562
355.8173, 607.2413
356.2994, 607.1393
356.7815, 607.1735
357.2636, 607.4365
357.7457, 607.7733
358.2278, 608.0598
358.7100, 608.2661
359.1921, 608.3989
359.6742, 608.4933
360.1563, 608.5893
360.6384, 608.2850
361.1205, 606.5458
361.6027, 605.3695
362.0848, 606.7435
362.5669, 609.8061
363.0490, 611.6581
363.5311, 610.1097
364.0132, 605.7292
364.4954, 603.1940
364.9775, 603.2329
365.4596, 604.1115
365.9417, 606.5004
366.4238, 609.2384
366.9059, 610.8756
367.3881, 610.8252
367.8702, 609.3667
368.3523, 606.9264
368.8344, 601.4149
369.3165, 598.4820
369.7986, 599.4813
370.2808, 601.8673
370.7629, 604.1421
371.2450, 605.8963
371.7271, 607.1638
372.2092, 608.0123
372.6913, 608.5199
373.1735, 608.0938
373.6556, 605.4843
374.1377, 603.2537
374.6198, 602.4315
375.1019, 602.7040
375.5840, 603.4920
376.0662, 604.5684
376.5483, 605.5942
377.0304, 604.7491
377.5125, 599.4284
377.9946, 596.0424
378.4767, 596.3009
378.9589, 598.4716
379.4410, 601.1775
379.9231, 603.8964
380.4052, 606.2433
380.8873, 607.6387
381.3694, 607.9864
381.8516, 607.6417
382.3337, 605.3790
382.8158, 603.4547
383.2979, 603.3290
383.7800, 604.7943
384.2621, 606.4699
384.7443, 607.1880
385.2264, 607.0327
385.7085, 607.0875
386.1906, 607.4537
386.6727, 607.9063
387.1548, 608.3047
387.6370, 608.7306
388.1191, 609.2442
388.6012, 609.7799
389.0833, 610.6119
389.5654, 612.3608
390.0475, 615.2347
390.5297, 618.0651
391.0118, 620.1227
391.4939, 622.2313
391.9760, 625.1277
392.4581, 628.9211
392.9402, 632.9461
393.4224, 636.6198
393.9045, 640.0255
394.3866, 643.6119
394.8687, 647.1885
395.3508, 651.4072
395.8329, 657.3852
396.3151, 664.5222
396.7972, 670.8099
397.2793, 675.5906
397.7614, 679.0446
398.2435, 680.8040
398.7256, 680.6755
399.2078, 681.5258
399.6899, 685.5785
400.1720, 691.4899
400.6541, 696.1373
401.1362, 698.6157
401.6183, 701.2788
402.1005, 705.5569
402.5826, 711.0894
403.0647, 716.9785
403.5468, 722.9969
404.0289, 729.1001
404.5110, 735.3287
404.9932, 741.7061
405.4753, 747.8789
405.9574, 753.0474
406.4395, 758.4017
406.9216, 765.0443
407.4037, 773.0830
407.8859, 782.1404
408.3680, 792.1260
408.8501, 802.9458
409.3322, 812.9198
409.8143, 821.0749
410.2964, 829.6819
410.7786, 840.1473
411.2607, 851.5238
411.7428, 862.5975
412.2249, 872.8631
412.7070, 881.8370
413.1891, 888.6859
413.6713, 894.9174
414.1534, 895.4493
414.6355, 888.6312
415.1176, 877.6203
415.5997, 864.1452
416.0818, 848.6637
416.5640, 831.1133
417.0461, 811.1201
417.5282, 788.6701
418.0103, 767.6439
418.4924, 748.5284
418.9745, 730.4459
419.4567, 712.7214
419.9388, 696.0405
420.4209, 681.0713
420.9030, 668.2355
421.3851, 657.5861
421.8672, 649.6062
422.3494, 645.1047
422.8315, 641.2065
423.3136, 637.7653
423.7957, 634.6490
424.2778, 632.1005
424.7599, 629.9249
425.2421, 627.3356
425.7242, 623.1089
426.2063, 617.5653
426.6884, 614.1936
427.1705, 614.3435
427.6526, 614.4525
428.1348, 612.8874
428.6169, 610.3344
429.0990, 607.5966
429.5811, 604.7198
430.0632, 602.3220
430.5453, 601.8926
431.0275, 603.5079
431.5096, 603.1683
431.9917, 597.8837
432.4738, 592.0884
432.9559, 590.9325
433.4380, 594.3534
433.9202, 597.3065
434.4023, 596.8604
434.8844, 594.5414
435.3665, 593.2200
435.8486, 593.2912
436.3307, 592.9072
436.8129, 589.8915
437.2950, 585.3212
437.7771, 583.5934
438.2592, 586.8647
438.7413, 590.7933
439.2234, 593.6544
439.7056, 595.3861
440.1877, 595.6224
440.6698, 594.0887
441.1519, 591.6315
441.6340, 589.4645
442.1161, 587.3779
442.5983, 586.3433
443.0804, 587.1772
443.5625, 588.5061
444.0446, 589.2759
444.5267, 589.5023
445.0089, 589.9757
445.4910, 591.4637
445.9731, 593.6947
446.4552, 594.0314
446.9373, 589.5107
447.4194, 586.6365
447.9016, 587.7198
448.3837, 590.2957
448.8658, 591.6299
449.3479, 590.9026
449.8300, 589.1666
450.3121, 587.7357
450.7943, 586.4219
451.2764, 586.1317
451.7585, 588.1554
452.2406, 590.0104
452.7227, 590.8386
453.2048, 590.7227
453.6870, 589.7589
454.1691, 587.4484
454.6512, 585.1166
455.1333, 587.0130
455.6154, 595.2914
456.0975, 601.3234
456.5797, 600.2883
457.0618, 597.1393
457.5439, 595.3925
458.0260, 595.5543
458.5081, 596.3439
458.9902, 596.9448
459.4724, 597.4067
459.9545, 597.9059
460.4366, 598.4517
460.9187, 599.0646
461.4008, 599.7387
461.8829, 600.4965
462.3651, 601.4014
462.8472, 602.3213
463.3293, 603.5510
463.8114, 605.0973
464.2935, 607.0944
464.7756, 610.3189
465.2578, 615.3967
465.7399, 620.9354
466.2220, 624.3138
466.7041, 624.9254
467.1862, 626.1072
467.6683, 628.1622
468.1505, 630.9709
468.6326, 634.6154
469.1147, 638.9827
469.5968, 643.4646
470.0789, 647.5003
470.5610, 651.4134
471.0432, 657.3195
471.5253, 666.7355
472.0074, 676.3919
472.4895, 686.9086
472.9716, 697.0044
473.4537, 704.5209
473.9359, 709.3787
474.4180, 714.5206
474.9001, 723.6615
475.3822, 737.2252
475.8643, 750.8397
476.3464, 765.6451
476.8286, 779.1331
477.3107, 789.7256
477.7928, 798.6464
478.2749, 807.9199
478.7570, 818.5116
479.2391, 829.5890
479.7213, 839.2507
480.2034, 847.1616
480.6855, 856.8898
481.1676, 870.3370
481.6497, 885.0205
482.1318, 899.1029
482.6140, 912.6167
483.0961, 925.7272
483.5782, 937.8353
484.0603, 949.9159
484.5424, 963.2964
485.0245, 977.9744
485.5067, 995.0545
485.9888, 1016.556
486.4709, 1040.107
486.9530, 1059.207
487.4351, 1071.810
487.9172, 1084.819
488.3994, 1101.332
488.8815, 1119.383
489.3636, 1136.384
489.8457, 1151.850
490.3278, 1166.625
490.8099, 1182.425
491.2921, 1199.557
491.7742, 1208.026
492.2563, 1203.901
492.7384, 1197.188
493.2205, 1192.881
493.7026, 1187.201
494.1848, 1174.336
494.6669, 1152.225
495.1490, 1123.947
495.6311, 1093.893
496.1132, 1062.134
496.5953, 1028.639
497.0775, 991.2979
497.5596, 953.9586
498.0417, 915.9811
498.5238, 879.3051
499.0059, 847.9741
499.4880, 824.7793
499.9702, 806.4419
500.4523, 786.2582
500.9344, 763.5581
501.4165, 742.9639
501.8986, 726.4610
502.3807, 712.2095
502.8629, 698.4237
503.3450, 685.1561
503.8271, 673.3727
504.3092, 664.1619
504.7913, 656.4481
505.2734, 648.6859
505.7556, 640.7927
506.2377, 633.0899
506.7198, 625.4843
507.2019, 618.3412
507.6840, 612.8330
508.1661, 609.6115
508.6482, 606.5378
509.1303, 602.9719
509.6125, 599.3036
510.0946, 596.1469
510.5767, 593.5258
511.0588, 590.7396
511.5409, 587.0179
512.0231, 582.3720
512.5052, 578.8314
512.9873, 576.6808
513.4694, 575.3011
513.9515, 575.2877
514.4337, 575.6656
514.9158, 575.3567
515.3979, 574.0543
515.8800, 572.2560
516.3621, 570.7035
516.8442, 569.5093
517.3264, 567.2479
517.8085, 562.2452
518.2906, 558.3580
518.7727, 558.0035
519.2548, 559.6250
519.7369, 560.6359
520.2191, 560.1315
520.7012, 558.8376
521.1833, 557.4368
521.6654, 555.9271
522.1475, 554.1498
522.6296, 551.7526
523.1118, 549.7091
523.5939, 549.6578
524.0760, 551.2622
524.5581, 551.8993
525.0402, 550.5870
525.5223, 548.6552
526.0045, 546.9390
526.4866, 545.3890
526.9687, 543.5287
527.4508, 541.0687
527.9329, 538.8109
528.4150, 538.3545
528.8972, 540.8053
529.3793, 542.5605
529.8614, 543.6916
530.3435, 544.1127
530.8256, 543.3922
531.3077, 541.9261
531.7899, 540.6532
532.2720, 540.1682
532.7541, 540.0375
533.2362, 538.8004
533.7183, 535.3647
534.2004, 533.9166
534.6826, 538.4369
535.1647, 542.5670
535.6468, 541.4705
536.1289, 536.0660
536.6110, 531.7024
537.0931, 532.6004
537.5753, 536.0130
538.0574, 536.6998
538.5395, 534.5507
539.0216, 532.1057
539.5037, 529.8610
539.9858, 528.4292
540.4680, 529.1788
540.9501, 532.5939
541.4322, 535.0658
541.9143, 535.1982
542.3964, 534.1769
542.8785, 532.7801
543.3607, 531.2608
543.8428, 530.2078
544.3249, 530.0416
544.8070, 530.5563
545.2891, 530.9986
545.7712, 531.6840
546.2534, 531.8240
546.7355, 530.9694
547.2176, 529.8953
547.6997, 528.9253
548.1818, 528.2528
548.6639, 528.2333
549.1461, 529.3122
549.6282, 531.1469
550.1103, 532.3403
550.5924, 532.8910
551.0745, 532.8040
551.5566, 531.0924
552.0388, 529.3529
552.5209, 528.9523
553.0030, 529.9824
553.4851, 531.3584
553.9672, 532.9829
554.4493, 534.3680
554.9315, 534.3359
555.4136, 532.8241
555.8957, 531.5529
556.3778, 531.6160
556.8599, 532.4345
557.3420, 532.3576
557.8242, 530.8901
558.3063, 529.8757
558.7884, 530.4025
559.2705, 531.0325
559.7526, 529.8481
560.2347, 527.2313
560.7169, 525.6291
561.1990, 526.9559
561.6811, 530.4446
562.1632, 532.5226
562.6453, 531.8292
563.1274, 532.0270
563.6096, 534.4740
564.0917, 537.0766
564.5738, 538.4846
565.0559, 538.5823
565.5380, 537.8230
566.0201, 536.1314
566.5023, 534.0070
566.9844, 532.9382
567.4665, 533.1310
567.9486, 532.9789
568.4307, 531.3922
568.9128, 529.5926
569.3950, 529.2623
569.8771, 530.4945
570.3592, 532.0041
570.8413, 533.7892
571.3234, 535.3751
571.8055, 535.9984
572.2877, 535.8525
572.7698, 536.0703
573.2519, 537.3532
573.7340, 539.1371
574.2161, 539.9218
574.6982, 538.4504
575.1804, 538.1840
575.6625, 539.8624
576.1446, 542.0112
576.6267, 544.4431
577.1088, 546.5669
577.5909, 547.0613
578.0731, 544.8651
578.5552, 541.4437
579.0373, 540.2292
579.5194, 541.6735
580.0015, 542.8092
580.4836, 542.9587
580.9658, 542.7259
581.4479, 542.1494
581.9300, 541.4941
582.4121, 541.8878
582.8942, 545.2357
583.3763, 548.5914
583.8585, 548.5900
584.3406, 546.0289
584.8227, 543.8152
585.3048, 542.9179
585.7869, 542.8322
586.2690, 542.9298
586.7512, 543.2477
587.2333, 543.6102
587.7154, 543.5048
588.1975, 543.9866
588.6796, 546.2971
589.1617, 549.2585
589.6438, 550.9816
590.1259, 550.7808
590.6080, 549.5599
591.0901, 548.2590
591.5723, 546.7430
592.0544, 546.5187
592.5365, 548.3155
593.0186, 550.3812
593.5007, 552.1927
593.9828, 553.6240
594.4650, 554.4742
594.9471, 554.6512
595.4292, 554.3817
595.9113, 553.0687
596.3934, 551.5402
596.8755, 552.1667
597.3577, 555.3755
597.8398, 558.6895
598.3219, 560.1105
598.8040, 559.9919
599.2861, 560.7715
599.7682, 563.0242
600.2504, 565.2722
600.7325, 567.2568
601.2146, 569.1744
601.6967, 571.5224
602.1788, 574.1165
602.6609, 575.8878
