##NAMES=Gyrolite
##RRUFFID=R060163
##IDEAL CHEMISTRY=NaCa_16_(Si_23_Al)O_60_(OH)_8_&#183;14H_2_O
##LOCALITY=Bombay, India
##OWNER=RRUFF
##SOURCE=Marcus Origlieri
##DESCRIPTION=Spherical aggregate of thin pseudohexagonal blades
##STATUS=The identification of this mineral has been confirmed by X-ray diffraction and chemical analysis
##URL=rruff.info/R060163
##MEASURED CHEMISTRY=(Ca_15.50_[box]_0.50_)_Σ=16_(Si_23.00_Al_1.00_)O_60_(OH)_6_·14H_2_O
92.02539, 275.7219
92.50751, 278.7713
92.98962, 282.2108
93.47174, 281.4991
93.95386, 279.5733
94.43597, 277.2419
94.91809, 275.5399
95.40021, 274.1427
95.88232, 270.7081
96.36444, 263.8833
96.84656, 256.9592
97.32867, 250.7075
97.81078, 245.1734
98.29290, 240.3034
98.77502, 235.8911
99.25713, 231.5232
99.73925, 227.8761
100.2214, 225.6253
100.7035, 223.3717
101.1856, 220.2856
101.6677, 216.3834
102.1498, 212.3709
102.6320, 209.0285
103.1141, 206.2154
103.5962, 204.7268
104.0783, 205.0966
104.5604, 206.5073
105.0425, 208.0949
105.5247, 209.6015
106.0068, 211.2141
106.4889, 213.4990
106.9710, 216.7644
107.4531, 219.1411
107.9352, 219.7292
108.4173, 218.6782
108.8995, 216.7464
109.3816, 213.6081
109.8637, 210.0635
110.3458, 207.0253
110.8279, 204.6582
111.3100, 202.4575
111.7922, 199.7576
112.2743, 196.3845
112.7564, 193.1032
113.2385, 190.2597
113.7206, 187.5409
114.2027, 184.6008
114.6849, 181.2559
115.1670, 177.7156
115.6491, 174.7928
116.1312, 172.9458
116.6133, 171.2265
117.0954, 169.4316
117.5776, 167.6495
118.0597, 165.9595
118.5418, 164.3614
119.0239, 162.8410
119.5060, 162.3625
119.9881, 163.6480
120.4703, 165.0625
120.9524, 165.8901
121.4345, 166.1783
121.9166, 166.5054
122.3987, 167.5719
122.8808, 169.5432
123.3630, 170.2140
123.8451, 168.5047
124.3272, 166.0447
124.8093, 164.5078
125.2914, 164.2429
125.7735, 164.3110
126.2557, 163.3939
126.7378, 161.7310
127.2199, 160.6136
127.7020, 161.0486
128.1841, 162.4992
128.6662, 163.1958
129.1483, 162.4862
129.6305, 161.3716
130.1126, 160.6350
130.5947, 160.2593
131.0768, 159.9804
131.5589, 159.4930
132.0410, 158.7305
132.5232, 158.3141
133.0053, 158.5605
133.4874, 159.0223
133.9695, 159.4336
134.4516, 159.7637
134.9337, 160.2314
135.4159, 161.2619
135.8980, 163.4626
136.3801, 165.0675
136.8622, 165.6259
137.3443, 165.8494
137.8264, 166.4348
138.3086, 167.6346
138.7907, 169.0655
139.2728, 169.6431
139.7549, 168.0642
140.2370, 167.1036
140.7191, 167.3702
141.2013, 168.3149
141.6834, 169.1027
142.1655, 169.2684
142.6476, 168.9996
143.1297, 169.1345
143.6118, 169.9368
144.0939, 170.7714
144.5761, 171.5376
145.0582, 172.1824
145.5403, 172.4373
146.0224, 171.9863
146.5045, 171.0426
146.9866, 170.3569
147.4688, 170.3651
147.9509, 170.3038
148.4330, 169.3291
148.9151, 167.3132
149.3972, 165.1685
149.8793, 163.3743
150.3615, 161.7845
150.8436, 160.2577
151.3257, 158.8436
151.8078, 157.4165
152.2899, 155.6365
152.7720, 153.1434
153.2542, 150.9204
153.7363, 149.3333
154.2184, 148.2165
154.7005, 147.3026
155.1826, 146.4171
155.6647, 145.5842
156.1469, 145.0962
156.6290, 145.5493
157.1111, 145.7734
157.5932, 145.2147
158.0753, 144.1606
158.5574, 143.2706
159.0396, 143.1624
159.5217, 143.9795
160.0038, 144.2439
160.4859, 143.6483
160.9680, 142.8656
161.4501, 142.1436
161.9323, 141.4995
162.4144, 140.8137
162.8965, 139.9418
163.3786, 138.7769
163.8607, 137.9251
164.3428, 137.1699
164.8250, 136.8332
165.3071, 137.4019
165.7892, 138.8976
166.2713, 140.5308
166.7534, 141.2884
167.2355, 141.0147
167.7177, 140.9929
168.1998, 141.7079
168.6819, 142.6260
169.1640, 143.0002
169.6461, 142.6054
170.1282, 141.9331
170.6104, 141.6616
171.0925, 141.7417
171.5746, 141.5680
172.0567, 140.8026
172.5388, 139.5908
173.0209, 138.3093
173.5031, 136.8745
173.9852, 135.6181
174.4673, 134.9034
174.9494, 134.6732
175.4315, 134.3624
175.9136, 133.5141
176.3958, 132.1458
176.8779, 130.8295
177.3600, 129.8505
177.8421, 128.7506
178.3242, 127.0857
178.8063, 124.9126
179.2885, 122.8568
179.7706, 121.6549
180.2527, 121.5402
180.7348, 121.2640
181.2169, 120.5986
181.6990, 119.8597
182.1812, 119.1777
182.6633, 118.5855
183.1454, 118.0790
183.6275, 117.6554
184.1096, 117.3386
184.5917, 117.0646
185.0738, 116.9553
185.5560, 116.8020
186.0381, 116.3285
186.5202, 115.5150
187.0023, 114.7102
187.4844, 114.5387
187.9665, 115.7304
188.4487, 116.4068
188.9308, 116.1170
189.4129, 115.5545
189.8950, 115.3833
190.3771, 115.8204
190.8592, 116.5749
191.3414, 117.0690
191.8235, 116.9813
192.3056, 117.2435
192.7877, 118.1713
193.2698, 119.4416
193.7519, 120.6185
194.2341, 121.5371
194.7162, 122.3542
195.1983, 123.3739
195.6804, 124.5372
196.1625, 125.9468
196.6446, 127.8757
197.1268, 130.0797
197.6089, 132.0172
198.0910, 133.4961
198.5731, 134.6315
199.0552, 135.5007
199.5373, 135.9869
200.0195, 136.8143
200.5016, 138.5076
200.9837, 140.9399
201.4658, 143.4983
201.9479, 146.3097
202.4300, 148.8511
202.9122, 150.4727
203.3943, 151.0892
203.8764, 151.5886
204.3585, 152.7816
204.8406, 154.6650
205.3227, 156.2650
205.8048, 157.2726
206.2870, 157.9328
206.7691, 158.3823
207.2512, 158.6383
207.7333, 158.7387
208.2154, 158.7630
208.6975, 158.7518
209.1797, 158.4182
209.6618, 157.1109
210.1439, 155.8699
210.6260, 155.4695
211.1081, 155.9725
211.5902, 156.6214
212.0724, 156.3459
212.5545, 154.7439
213.0366, 153.4374
213.5187, 153.1788
214.0008, 152.7856
214.4829, 151.5756
214.9651, 149.4005
215.4472, 146.4943
215.9293, 143.0213
216.4114, 138.1577
216.8935, 134.5130
217.3756, 132.8729
217.8578, 131.6687
218.3399, 129.8426
218.8220, 127.1630
219.3041, 124.0432
219.7862, 121.0973
220.2683, 118.2275
220.7505, 115.8059
221.2326, 114.0517
221.7147, 112.5459
222.1968, 110.8975
222.6789, 109.0372
223.1610, 107.2622
223.6432, 106.0276
224.1253, 105.6569
224.6074, 105.2318
225.0895, 104.9174
225.5716, 104.4608
226.0537, 103.4890
226.5358, 101.9368
227.0180, 100.3004
227.5001, 99.29946
227.9822, 99.17068
228.4643, 98.98542
228.9464, 98.37878
229.4285, 97.83499
229.9107, 97.92779
230.3928, 98.79245
230.8749, 100.0583
231.3570, 101.3987
231.8391, 102.8684
232.3212, 103.8820
232.8034, 103.9206
233.2855, 103.6124
233.7676, 103.8295
234.2497, 104.7920
234.7318, 105.8928
235.2139, 106.3165
235.6961, 106.1618
236.1782, 106.3010
236.6603, 107.0085
237.1424, 108.1237
237.6245, 109.4422
238.1066, 110.9768
238.5888, 112.6163
239.0709, 114.4451
239.5530, 116.3548
240.0351, 117.9387
240.5172, 118.8115
240.9993, 119.3177
241.4815, 120.1472
241.9636, 121.4632
242.4457, 122.7905
242.9278, 123.7991
243.4099, 124.5682
243.8920, 125.2213
244.3742, 125.7358
244.8563, 126.1779
245.3384, 126.7425
245.8205, 127.5446
246.3026, 128.2000
246.7847, 128.3245
247.2668, 128.1936
247.7490, 128.2746
248.2311, 128.9446
248.7132, 129.8812
249.1953, 130.1983
249.6774, 129.4704
250.1595, 128.9946
250.6417, 129.4505
251.1238, 130.4074
251.6059, 131.3399
252.0880, 132.0145
252.5701, 132.5159
253.0522, 133.0489
253.5344, 133.5774
254.0165, 134.2138
254.4986, 135.1948
254.9807, 136.2087
255.4628, 136.8128
255.9449, 136.7374
256.4271, 136.4285
256.9092, 137.0302
257.3913, 139.2182
257.8734, 141.0399
258.3555, 141.9660
258.8376, 142.4781
259.3198, 142.9318
259.8019, 143.4584
260.2840, 144.1674
260.7661, 145.3737
261.2482, 147.5938
261.7303, 149.3055
262.2125, 150.1983
262.6946, 150.6992
263.1767, 151.0994
263.6588, 151.5080
264.1409, 151.9362
264.6230, 152.4184
265.1052, 153.0171
265.5873, 153.5422
266.0694, 153.6938
266.5515, 153.9629
267.0336, 154.7822
267.5157, 156.2124
267.9979, 157.9199
268.4800, 159.3975
268.9621, 160.4331
269.4442, 161.6978
269.9263, 162.7475
270.4084, 164.2902
270.8906, 166.9353
271.3727, 170.6749
271.8548, 174.9504
272.3369, 179.1956
272.8190, 183.6516
273.3011, 187.0953
273.7833, 188.6331
274.2654, 190.1052
274.7475, 192.5074
275.2296, 195.8786
275.7117, 199.7229
276.1938, 203.6200
276.6760, 207.6684
277.1581, 211.1454
277.6402, 213.7398
278.1223, 216.2043
278.6044, 219.1268
279.0865, 222.3095
279.5686, 225.0285
280.0508, 226.6801
280.5329, 227.2441
281.0150, 227.5936
281.4971, 227.8776
281.9792, 227.8499
282.4613, 227.8123
282.9435, 227.4137
283.4256, 225.8617
283.9077, 222.6016
284.3898, 217.7473
284.8719, 212.4706
285.3540, 206.2705
285.8362, 200.2508
286.3183, 194.7827
286.8004, 189.6862
287.2825, 184.5537
287.7646, 179.1264
288.2467, 173.6505
288.7289, 168.9410
289.2110, 165.2790
289.6931, 161.9731
290.1752, 158.8789
290.6573, 156.1145
291.1394, 153.8977
291.6216, 152.3180
292.1037, 151.2443
292.5858, 150.4088
293.0679, 149.7009
293.5500, 149.4602
294.0321, 150.0722
294.5143, 151.0191
294.9964, 151.7112
295.4785, 151.9926
295.9606, 152.1288
296.4427, 152.5449
296.9248, 153.4935
297.4070, 153.8850
297.8891, 153.6259
298.3712, 152.8281
298.8533, 151.5933
299.3354, 149.9398
299.8175, 147.7664
300.2997, 144.8439
300.7818, 140.9964
301.2639, 137.6598
301.7460, 135.4343
302.2281, 133.2644
302.7102, 130.2695
303.1924, 126.5178
303.6745, 122.7534
304.1566, 119.4295
304.6387, 116.6091
305.1208, 114.4691
305.6029, 113.4798
306.0851, 112.6296
306.5672, 111.4067
307.0493, 109.8948
307.5314, 108.3877
308.0135, 107.0102
308.4956, 105.8003
308.9778, 104.9513
309.4599, 104.7767
309.9420, 104.5047
310.4241, 103.7648
310.9062, 102.7662
311.3883, 101.9660
311.8705, 101.5927
312.3526, 101.3914
312.8347, 100.7564
313.3168, 99.46624
313.7989, 98.33707
314.2810, 97.59096
314.7632, 97.07420
315.2453, 96.64137
315.7274, 96.26528
316.2095, 95.80579
316.6916, 95.02225
317.1737, 93.80611
317.6559, 92.73997
318.1380, 91.79555
318.6201, 91.06444
319.1022, 90.66953
319.5843, 90.61497
320.0664, 90.78642
320.5485, 91.21560
321.0306, 91.92004
321.5128, 91.85538
321.9949, 90.03122
322.4770, 88.29213
322.9591, 88.08474
323.4412, 89.17208
323.9233, 90.12373
324.4055, 89.92947
324.8876, 88.78703
325.3697, 88.19212
325.8518, 88.45760
326.3339, 88.83189
326.8160, 89.13512
327.2982, 89.33947
327.7803, 89.37327
328.2624, 89.18002
328.7445, 88.85232
329.2266, 88.63386
329.7087, 88.52244
330.1909, 88.50095
330.6730, 88.55229
331.1551, 88.69804
331.6372, 88.99030
332.1193, 89.44576
332.6014, 89.97897
333.0836, 90.46702
333.5657, 90.87019
334.0478, 91.35497
334.5299, 91.77761
335.0120, 92.37663
335.4941, 93.48596
335.9763, 95.08073
336.4584, 96.69406
336.9405, 97.84060
337.4226, 98.46288
337.9047, 99.43539
338.3868, 100.8567
338.8690, 102.4965
339.3511, 104.1783
339.8332, 105.9710
340.3153, 108.1733
340.7974, 111.0766
341.2795, 114.4708
341.7617, 116.9229
342.2438, 117.7809
342.7259, 118.6175
343.2080, 119.7044
343.6901, 121.0073
344.1722, 122.5197
344.6544, 124.2411
345.1365, 126.0127
345.6186, 127.4915
346.1007, 128.3767
346.5828, 129.4157
347.0649, 130.6607
347.5471, 132.0252
348.0292, 133.5418
348.5113, 135.1618
348.9934, 136.6347
349.4755, 137.5737
349.9576, 137.7146
350.4398, 138.4713
350.9219, 140.2039
351.4040, 142.1174
351.8861, 144.1180
352.3682, 145.9714
352.8503, 147.1968
353.3325, 147.3899
353.8146, 146.6026
354.2967, 145.6173
354.7788, 144.7852
355.2609, 143.3620
355.7430, 140.9082
356.2252, 137.8412
356.7073, 134.7134
357.1894, 131.7908
357.6715, 128.9699
358.1536, 125.9609
358.6357, 122.7463
359.1179, 119.3399
359.5999, 115.2579
360.0821, 111.2994
360.5642, 108.2202
361.0463, 106.1068
361.5284, 104.4322
362.0105, 102.5077
362.4926, 100.1859
362.9748, 98.19505
363.4569, 96.32535
363.9390, 94.95448
364.4211, 94.67794
364.9032, 95.09555
365.3853, 95.16942
365.8675, 94.00209
366.3496, 91.78687
366.8317, 90.40848
367.3138, 90.66113
367.7959, 90.78562
368.2780, 90.29484
368.7602, 89.50273
369.2423, 88.86327
369.7244, 88.58653
370.2065, 88.38085
370.6886, 87.60981
371.1707, 85.99688
371.6529, 84.51205
372.1350, 83.05633
372.6171, 81.92358
373.0992, 81.55816
373.5813, 81.90654
374.0634, 82.18494
374.5456, 81.44964
375.0277, 79.64118
375.5098, 78.16202
375.9919, 77.15980
376.4740, 76.40205
376.9561, 75.90050
377.4383, 75.54443
377.9204, 75.10094
378.4025, 74.38361
378.8846, 73.51433
379.3667, 72.83167
379.8488, 72.37456
380.3310, 72.00773
380.8131, 71.67931
381.2952, 71.40867
381.7773, 71.22387
382.2594, 71.13454
382.7415, 71.12004
383.2237, 71.18502
383.7058, 71.32887
384.1879, 71.45478
384.6700, 71.59592
385.1521, 71.64320
385.6342, 71.35520
386.1164, 70.77966
386.5985, 70.53420
387.0806, 71.26204
387.5627, 72.53812
388.0448, 73.32650
388.5269, 73.46419
389.0091, 73.37952
389.4912, 73.31335
389.9733, 73.25921
390.4554, 73.19962
390.9375, 73.06264
391.4196, 72.98196
391.9018, 73.02818
392.3839, 73.21303
392.8660, 73.68163
393.3481, 74.62963
393.8302, 75.77728
394.3123, 76.56043
394.7945, 76.88866
395.2766, 77.19510
395.7587, 77.77401
396.2408, 78.40908
396.7229, 78.57920
397.2050, 78.11230
397.6872, 77.73243
398.1693, 78.36318
398.6514, 80.12283
399.1335, 81.45174
399.6156, 82.14252
400.0977, 82.50771
400.5798, 82.68983
401.0620, 82.72921
401.5441, 82.75240
402.0262, 82.89097
402.5083, 83.03394
402.9904, 82.58479
403.4725, 81.10477
403.9547, 79.67286
404.4368, 78.58058
404.9189, 77.61136
405.4010, 76.45995
405.8831, 75.04426
406.3652, 73.56465
406.8474, 72.32151
407.3295, 71.41833
407.8116, 70.48811
408.2937, 69.44923
408.7758, 68.46152
409.2579, 67.61329
409.7401, 66.89569
410.2222, 66.23693
410.7043, 65.56507
411.1864, 64.90675
411.6685, 64.47337
412.1506, 64.49468
412.6328, 64.47202
413.1149, 64.34140
413.5970, 64.12669
414.0791, 63.79780
414.5612, 63.35695
415.0433, 62.96892
415.5255, 62.95526
416.0076, 63.49422
416.4897, 63.78938
416.9718, 63.37647
417.4539, 63.06503
417.9360, 63.40456
418.4182, 64.23240
418.9003, 64.91334
419.3824, 64.94222
419.8645, 64.46321
420.3466, 64.09389
420.8287, 63.79607
421.3109, 63.70128
421.7930, 64.01746
422.2751, 64.48571
422.7572, 64.79239
423.2393, 64.82040
423.7214, 64.82219
424.2036, 65.07901
424.6857, 65.58244
425.1678, 66.17116
425.6499, 67.06364
426.1320, 67.68996
426.6141, 67.21464
427.0963, 65.82738
427.5784, 65.05891
428.0605, 66.07809
428.5426, 67.89299
429.0247, 69.00172
429.5068, 69.31451
429.9890, 69.26313
430.4711, 68.86320
430.9532, 68.36680
431.4353, 68.51726
431.9174, 69.75879
432.3995, 70.99165
432.8817, 71.60294
433.3638, 71.81159
433.8459, 72.10696
434.3280, 72.65366
434.8101, 73.22303
435.2922, 73.49306
435.7744, 73.39444
436.2565, 73.22536
436.7386, 72.80813
437.2207, 72.47165
437.7028, 72.60265
438.1849, 73.07455
438.6671, 72.98766
439.1492, 73.62782
439.6313, 74.03635
440.1134, 74.22572
440.5955, 73.53944
441.0776, 73.98387
441.5598, 73.97518
442.0418, 73.94787
442.5240, 74.55145
443.0061, 73.99254
443.4882, 74.58610
443.9703, 74.37286
444.4524, 75.25073
444.9345, 75.89700
445.4167, 76.32413
445.8988, 75.87559
446.3809, 76.55772
446.8630, 76.78675
447.3451, 76.99717
447.8272, 77.83848
448.3094, 78.77908
448.7915, 79.84864
449.2736, 80.76274
449.7557, 81.33111
450.2378, 80.95237
450.7199, 80.58244
451.2021, 81.06091
451.6842, 82.42981
452.1663, 83.81068
452.6484, 84.47744
453.1305, 84.56644
453.6126, 84.62878
454.0948, 84.66024
454.5769, 84.75782
455.0590, 85.15471
455.5411, 85.64446
456.0232, 85.81368
456.5053, 85.35328
456.9875, 84.84946
457.4696, 84.96899
457.9517, 85.53115
458.4338, 85.67004
458.9159, 85.02274
459.3980, 83.98061
459.8802, 83.05849
460.3623, 82.23629
460.8444, 81.59776
461.3265, 81.13139
461.8086, 80.87649
462.2907, 81.09874
462.7729, 81.67484
463.2550, 81.87910
463.7371, 81.13254
464.2192, 79.65450
464.7013, 78.69596
465.1834, 78.96860
465.6656, 78.81839
466.1477, 77.83907
466.6298, 76.40445
467.1119, 74.77527
467.5940, 73.07310
468.0761, 71.55139
468.5583, 70.54208
469.0404, 70.12009
469.5225, 69.68069
470.0046, 69.27623
470.4867, 68.79771
470.9688, 68.26133
471.4510, 67.61658
471.9331, 66.69530
472.4152, 65.37067
472.8973, 64.03580
473.3794, 63.52547
473.8615, 64.04984
474.3437, 64.50779
474.8258, 64.82368
475.3079, 64.89949
475.7900, 64.48662
476.2721, 63.69746
476.7542, 63.09616
477.2364, 63.13866
477.7185, 63.59118
478.2006, 64.04914
478.6827, 64.58476
479.1648, 64.63578
479.6469, 63.49731
480.1291, 61.87271
480.6112, 61.03695
481.0933, 61.21885
481.5754, 61.69697
482.0575, 62.40355
482.5396, 63.09294
483.0217, 63.27684
483.5038, 62.84962
483.9860, 62.08559
484.4681, 61.00508
484.9502, 61.54102
485.4323, 61.84533
485.9144, 61.93047
486.3965, 61.13997
486.8787, 61.48018
487.3608, 61.36725
487.8429, 61.23574
488.3250, 61.73509
488.8071, 61.07196
489.2892, 61.56130
489.7714, 61.59060
490.2535, 61.56923
490.7356, 62.19049
491.2177, 62.55449
491.6998, 62.23240
492.1819, 61.43743
492.6641, 60.70708
493.1462, 60.39054
493.6283, 60.34874
494.1104, 60.19119
494.5925, 59.39363
495.0746, 59.78306
495.5568, 59.94083
496.0389, 59.87945
496.5210, 58.94244
497.0031, 59.13613
497.4852, 58.87669
497.9673, 58.59866
498.4495, 58.95146
498.9316, 58.14180
499.4137, 58.52522
499.8958, 58.56218
500.3779, 58.98479
500.8600, 59.50289
501.3422, 59.48912
501.8243, 58.64984
502.3064, 57.85252
502.7885, 57.60495
503.2706, 57.66905
503.7527, 57.67461
504.2349, 57.54496
504.7170, 57.18638
505.1991, 56.45750
505.6812, 55.32494
506.1633, 54.37541
506.6454, 53.91429
507.1276, 53.27895
507.6097, 51.88610
508.0918, 50.25740
508.5739, 49.33892
509.0560, 49.45459
509.5381, 49.90662
510.0203, 49.55096
510.5024, 48.10124
510.9845, 46.82344
511.4666, 45.63629
511.9487, 44.70702
512.4308, 44.27950
512.9130, 44.13778
513.3951, 43.80324
513.8772, 42.94611
514.3593, 42.04161
514.8414, 42.16083
515.3235, 43.50624
515.8057, 44.31865
516.2878, 43.96271
516.7699, 43.15986
517.2520, 42.37907
517.7341, 41.66513
518.2162, 41.26107
518.6984, 41.46164
519.1805, 41.91586
519.6626, 42.26999
520.1447, 42.50203
520.6268, 42.41755
521.1089, 41.81796
521.5911, 40.96985
522.0732, 40.53170
522.5553, 40.65713
523.0374, 40.65360
523.5195, 40.12321
524.0016, 39.61477
524.4838, 39.75283
524.9659, 40.45302
525.4480, 41.07806
525.9301, 41.15298
526.4122, 40.79277
526.8943, 40.59679
527.3765, 40.83580
527.8586, 40.84720
528.3407, 40.31936
528.8228, 39.73182
529.3049, 39.44133
529.7870, 39.50246
530.2692, 39.80882
530.7513, 40.39436
531.2334, 41.16027
531.7155, 41.46755
532.1976, 41.11272
532.6797, 40.77147
533.1619, 40.78551
533.6440, 40.92994
534.1261, 41.00782
534.6082, 40.99712
535.0903, 40.86591
535.5724, 40.41484
536.0546, 39.86375
536.5367, 39.66856
537.0188, 39.88805
537.5009, 40.45722
537.9830, 41.53529
538.4651, 42.92307
538.9473, 43.53981
539.4294, 42.67562
539.9115, 42.01052
540.3936, 42.11733
540.8757, 42.62814
541.3578, 43.10765
541.8400, 43.46336
542.3221, 43.84862
542.8042, 44.42951
543.2863, 45.21012
543.7684, 45.93258
544.2505, 46.62175
544.7326, 47.20912
545.2147, 47.61279
545.6968, 47.94192
546.1790, 48.28746
546.6611, 48.67966
547.1432, 49.14923
547.6253, 49.70946
548.1074, 50.36638
548.5895, 51.21446
549.0717, 52.40708
549.5538, 53.46488
550.0359, 53.88972
550.5180, 54.04802
551.0001, 54.50055
551.4822, 55.40229
551.9644, 56.44117
552.4465, 57.25648
552.9286, 58.10487
553.4107, 59.63807
553.8928, 61.99477
554.3749, 64.50806
554.8571, 66.58873
555.3392, 68.25343
555.8213, 69.94770
556.3034, 71.46049
556.7855, 73.24976
557.2676, 75.47097
557.7498, 78.02588
558.2319, 80.84412
558.7140, 83.88448
559.1961, 86.96978
559.6782, 89.91932
560.1603, 92.71422
560.6425, 95.58730
561.1246, 98.47307
561.6067, 101.5142
562.0888, 104.4209
562.5709, 107.6453
563.0530, 111.8301
563.5352, 117.1390
564.0173, 122.8470
564.4994, 128.2626
564.9815, 133.5774
565.4636, 139.4523
565.9457, 146.0281
566.4279, 152.8519
566.9100, 159.3770
567.3921, 165.9997
567.8742, 173.9692
568.3563, 184.0566
568.8384, 194.1808
569.3206, 203.7666
569.8027, 212.9317
570.2848, 222.0339
570.7669, 230.9968
571.2490, 239.5364
571.7311, 247.5148
572.2133, 254.7626
572.6954, 259.1043
573.1775, 259.9955
573.6596, 258.4491
574.1417, 254.4332
574.6238, 248.2817
575.1060, 239.8226
575.5881, 229.2829
576.0702, 217.8859
576.5523, 206.3881
577.0344, 194.8546
577.5165, 183.3636
577.9987, 171.7419
578.4808, 160.9239
578.9629, 150.9680
579.4450, 142.4748
579.9271, 136.2787
580.4092, 132.6098
580.8914, 129.6826
581.3735, 126.6895
581.8556, 124.1862
582.3377, 122.9758
582.8198, 122.9439
583.3019, 123.1350
583.7841, 122.9618
584.2662, 122.7425
584.7483, 123.3619
585.2304, 125.3586
585.7125, 127.3617
586.1946, 129.0665
586.6768, 131.0513
587.1589, 133.5692
587.6410, 136.6767
