##NAMES=Gysinite-(Nd)
##RRUFFID=R100062
##IDEAL CHEMISTRY=Pb^2+^Nd^3+^(CO_3_)_2_(OH)&#183;H_2_O
##LOCALITY=Kasompi, 70 km west of Kambove, Katanga, Congo
##OWNER=RRUFF
##SOURCE=William W Pinch
##DESCRIPTION=Pink glassy granular crystals associated with green malachite
##STATUS=The identification of this mineral has been confirmed by single-crystal X-ray diffraction.
##URL=rruff.info/R100062
90.49219, 35.55470
90.97430, 35.59544
91.45642, 35.61110
91.93854, 35.51732
92.42065, 35.42371
92.90277, 35.63399
93.38489, 36.27871
93.86700, 36.73446
94.34912, 35.86798
94.83124, 33.92169
95.31335, 32.31509
95.79547, 32.16988
96.27759, 33.16029
96.75970, 33.93569
97.24182, 34.27580
97.72394, 34.35639
98.20605, 34.59715
98.68817, 35.02883
99.17029, 35.37417
99.65240, 35.34893
100.1345, 34.92177
100.6166, 34.58165
101.0988, 34.42351
101.5809, 34.43478
102.0630, 34.50116
102.5451, 34.62444
103.0272, 34.80046
103.5093, 35.02902
103.9915, 35.31087
104.4736, 35.64588
104.9557, 36.09904
105.4378, 36.75422
105.9199, 37.02586
106.4020, 36.68523
106.8842, 36.07471
107.3663, 35.80473
107.8484, 36.23057
108.3305, 36.58779
108.8126, 36.58724
109.2947, 35.83225
109.7769, 35.37983
110.2590, 35.43542
110.7411, 35.82946
111.2232, 36.03344
111.7053, 35.67371
112.1874, 35.37862
112.6696, 35.43335
113.1517, 36.28962
113.6338, 37.03964
114.1159, 37.54906
114.5980, 37.83587
115.0801, 38.04964
115.5623, 38.09956
116.0444, 38.14676
116.5265, 38.31503
117.0086, 38.75096
117.4907, 39.21553
117.9728, 39.78988
118.4550, 40.48692
118.9371, 40.70221
119.4192, 39.73624
119.9013, 38.22705
120.3834, 37.00268
120.8655, 36.25652
121.3477, 36.00414
121.8298, 36.42727
122.3119, 37.65592
122.7940, 38.88888
123.2761, 39.41293
123.7582, 39.50250
124.2404, 39.76878
124.7225, 40.39937
125.2046, 41.44082
125.6867, 43.03804
126.1688, 45.38497
126.6509, 47.88437
127.1331, 49.72813
127.6152, 51.06569
128.0973, 52.63971
128.5794, 55.00389
129.0615, 57.98338
129.5436, 61.08144
130.0258, 63.95071
130.5079, 67.15650
130.9900, 71.89059
131.4721, 78.11143
131.9542, 85.09644
132.4363, 92.05618
132.9185, 99.11848
133.4006, 107.1633
133.8827, 116.5257
134.3648, 126.9696
134.8469, 138.1246
135.3290, 149.8512
135.8112, 162.9646
136.2933, 178.2475
136.7754, 195.7995
137.2575, 214.8985
137.7396, 235.4937
138.2217, 257.2336
138.7039, 280.6492
139.1860, 306.1231
139.6681, 332.7381
140.1502, 360.0301
140.6323, 388.1982
141.1144, 415.4881
141.5966, 441.2363
142.0787, 465.1158
142.5608, 488.3319
143.0429, 511.0246
143.5250, 532.9319
144.0071, 553.0266
144.4893, 569.9105
144.9714, 586.9718
145.4535, 605.3909
145.9356, 625.2998
146.4177, 646.6920
146.8998, 669.6509
147.3820, 694.1390
147.8641, 720.9948
148.3462, 749.3231
148.8283, 780.5128
149.3104, 815.7761
149.7925, 857.7842
150.2747, 900.1822
150.7568, 942.1166
151.2389, 983.6240
151.7210, 1025.172
152.2031, 1068.167
152.6852, 1109.933
153.1674, 1149.281
153.6495, 1184.970
154.1316, 1219.092
154.6137, 1252.685
155.0958, 1285.807
155.5779, 1314.943
156.0601, 1336.609
156.5422, 1355.562
157.0243, 1375.608
157.5064, 1400.217
157.9885, 1423.406
158.4706, 1442.586
158.9528, 1457.053
159.4349, 1472.836
159.9170, 1492.027
160.3991, 1513.189
160.8812, 1534.660
161.3633, 1555.522
161.8455, 1576.945
162.3276, 1599.384
162.8097, 1622.492
163.2918, 1647.078
163.7739, 1673.620
164.2560, 1699.798
164.7382, 1714.195
165.2203, 1724.906
165.7024, 1736.624
166.1845, 1750.343
166.6666, 1766.996
167.1487, 1783.119
167.6309, 1797.147
168.1130, 1809.502
168.5951, 1820.795
169.0772, 1831.025
169.5593, 1840.653
170.0414, 1850.215
170.5236, 1860.221
171.0057, 1869.288
171.4878, 1876.120
171.9699, 1881.229
172.4520, 1886.033
172.9341, 1892.234
173.4163, 1898.306
173.8984, 1902.199
174.3805, 1902.518
174.8626, 1902.122
175.3447, 1903.780
175.8268, 1907.151
176.3090, 1910.760
176.7911, 1913.588
177.2732, 1915.952
177.7553, 1918.328
178.2374, 1920.781
178.7195, 1923.332
179.2017, 1926.049
179.6838, 1928.932
180.1659, 1931.815
180.6480, 1934.426
181.1301, 1936.944
181.6122, 1939.906
182.0944, 1943.802
182.5765, 1947.962
183.0586, 1951.272
183.5407, 1953.688
184.0228, 1955.876
184.5049, 1958.060
184.9871, 1960.400
185.4692, 1963.486
185.9513, 1968.456
186.4334, 1973.954
186.9155, 1976.245
187.3976, 1975.069
187.8798, 1973.621
188.3619, 1975.964
188.8440, 1981.429
189.3261, 1985.497
189.8082, 1985.835
190.2903, 1983.645
190.7725, 1983.258
191.2546, 1984.800
191.7367, 1987.438
192.2188, 1990.919
192.7009, 1995.169
193.1830, 1998.111
193.6652, 1998.208
194.1473, 1996.072
194.6294, 1995.755
195.1115, 1997.553
195.5936, 2000.150
196.0757, 2001.401
196.5579, 2001.214
197.0400, 2002.301
197.5221, 2006.721
198.0042, 2014.108
198.4863, 2018.481
198.9684, 2019.012
199.4506, 2018.350
199.9327, 2020.659
200.4148, 2026.264
200.8969, 2031.872
201.3790, 2035.710
201.8611, 2037.630
202.3433, 2041.810
202.8254, 2049.017
203.3075, 2057.216
203.7896, 2062.449
204.2717, 2064.070
204.7538, 2065.992
205.2360, 2070.272
205.7181, 2077.294
206.2002, 2082.737
206.6823, 2086.048
207.1644, 2088.429
207.6465, 2092.179
208.1287, 2097.547
208.6108, 2103.317
209.0929, 2109.399
209.5750, 2116.272
210.0571, 2120.742
210.5392, 2121.606
211.0214, 2121.283
211.5035, 2125.624
211.9856, 2136.723
212.4677, 2146.709
212.9498, 2151.170
213.4319, 2148.013
213.9141, 2148.330
214.3962, 2153.391
214.8783, 2161.217
215.3604, 2167.070
215.8425, 2170.271
216.3246, 2173.056
216.8067, 2176.360
217.2889, 2180.104
217.7710, 2184.458
218.2531, 2189.788
218.7352, 2195.464
219.2173, 2200.148
219.6994, 2203.700
220.1816, 2206.479
220.6637, 2208.455
221.1458, 2208.977
221.6279, 2210.709
222.1100, 2214.254
222.5921, 2218.856
223.0743, 2222.708
223.5564, 2225.899
224.0385, 2228.264
224.5206, 2229.815
225.0027, 2230.962
225.4848, 2230.179
225.9670, 2226.125
226.4491, 2220.608
226.9312, 2218.646
227.4133, 2222.366
227.8954, 2226.213
228.3775, 2227.236
228.8597, 2223.408
229.3418, 2221.782
229.8239, 2223.416
230.3060, 2226.932
230.7881, 2228.318
231.2702, 2225.921
231.7524, 2223.766
232.2345, 2224.041
232.7166, 2228.985
233.1987, 2230.838
233.6808, 2228.040
234.1629, 2222.541
234.6451, 2219.781
235.1272, 2222.060
235.6093, 2223.788
236.0914, 2222.412
236.5735, 2216.621
237.0556, 2210.815
237.5378, 2204.472
238.0199, 2198.359
238.5020, 2194.515
238.9841, 2194.027
239.4662, 2194.219
239.9483, 2194.047
240.4305, 2193.586
240.9126, 2192.554
241.3947, 2190.750
241.8768, 2188.391
242.3589, 2186.024
242.8410, 2183.618
243.3232, 2181.154
243.8053, 2178.704
244.2874, 2176.566
244.7695, 2173.628
245.2516, 2169.827
245.7337, 2165.234
246.2159, 2159.856
246.6980, 2152.945
247.1801, 2146.455
247.6622, 2141.234
248.1443, 2137.907
248.6264, 2134.083
249.1086, 2129.420
249.5907, 2124.434
250.0728, 2120.275
250.5549, 2117.551
251.0370, 2114.612
251.5191, 2110.659
252.0013, 2105.186
252.4834, 2100.447
252.9655, 2096.783
253.4476, 2093.636
253.9297, 2090.041
254.4118, 2085.969
254.8940, 2081.515
255.3761, 2076.735
255.8582, 2071.655
256.3403, 2065.997
256.8224, 2059.542
257.3046, 2052.696
257.7867, 2046.279
258.2688, 2040.396
258.7509, 2034.692
259.2330, 2029.205
259.7151, 2024.023
260.1973, 2018.454
260.6794, 2012.222
261.1615, 2006.045
261.6436, 2001.202
262.1257, 1998.077
262.6078, 1995.272
263.0900, 1992.529
263.5721, 1989.871
264.0542, 1986.514
264.5363, 1981.832
265.0184, 1977.104
265.5005, 1974.066
265.9827, 1973.423
266.4648, 1972.369
266.9469, 1969.824
267.4290, 1965.725
267.9111, 1962.965
268.3932, 1962.125
268.8754, 1961.734
269.3575, 1959.994
269.8396, 1956.452
270.3217, 1953.255
270.8038, 1951.313
271.2859, 1950.480
271.7681, 1947.549
272.2502, 1941.563
272.7323, 1935.493
273.2144, 1932.830
273.6965, 1934.200
274.1786, 1935.500
274.6608, 1935.848
275.1429, 1935.383
275.6250, 1935.279
276.1071, 1935.842
276.5892, 1935.917
277.0714, 1933.964
277.5535, 1929.641
278.0356, 1926.538
278.5177, 1925.709
278.9998, 1926.523
279.4819, 1926.093
279.9641, 1924.060
280.4462, 1922.350
280.9283, 1923.181
281.4104, 1926.693
281.8925, 1928.281
282.3746, 1926.605
282.8568, 1923.049
283.3389, 1921.540
283.8210, 1922.218
284.3031, 1923.746
284.7852, 1925.290
285.2673, 1926.827
285.7495, 1928.629
286.2316, 1930.822
286.7137, 1933.071
287.1958, 1934.536
287.6779, 1935.164
288.1600, 1935.849
288.6422, 1937.383
289.1243, 1939.584
289.6064, 1940.969
290.0885, 1941.195
290.5706, 1941.180
291.0527, 1943.171
291.5349, 1946.964
292.0170, 1949.295
292.4991, 1946.961
292.9812, 1941.514
293.4633, 1938.667
293.9454, 1938.917
294.4276, 1940.913
294.9097, 1943.763
295.3918, 1947.176
295.8739, 1949.508
296.3560, 1949.164
296.8381, 1947.224
297.3203, 1946.146
297.8024, 1945.989
298.2845, 1946.455
298.7666, 1947.359
299.2487, 1948.642
299.7308, 1950.189
300.2130, 1952.598
300.6951, 1954.998
301.1772, 1955.609
301.6593, 1954.452
302.1414, 1953.298
302.6235, 1953.615
303.1057, 1955.092
303.5878, 1957.126
304.0699, 1960.170
304.5520, 1963.210
305.0341, 1964.849
305.5162, 1965.232
305.9984, 1965.580
306.4805, 1966.839
306.9626, 1968.570
307.4447, 1970.102
307.9268, 1971.049
308.4089, 1971.987
308.8911, 1973.093
309.3732, 1974.486
309.8553, 1976.725
310.3374, 1980.933
310.8195, 1985.764
311.3016, 1989.794
311.7838, 1992.471
312.2659, 1994.855
312.7480, 1998.035
313.2301, 2001.483
313.7122, 2003.941
314.1943, 2003.825
314.6765, 2003.211
315.1586, 2003.568
315.6407, 2005.253
316.1228, 2007.448
316.6049, 2010.411
317.0870, 2013.550
317.5692, 2015.846
318.0513, 2015.600
318.5334, 2015.496
319.0155, 2017.333
319.4976, 2021.680
319.9797, 2024.696
320.4619, 2024.215
320.9440, 2021.999
321.4261, 2020.041
321.9082, 2018.413
322.3903, 2017.446
322.8724, 2017.794
323.3546, 2019.505
323.8367, 2020.082
324.3188, 2017.950
324.8009, 2015.156
325.2830, 2013.299
325.7651, 2013.198
326.2473, 2013.418
326.7294, 2013.989
327.2115, 2014.869
327.6936, 2015.568
328.1757, 2015.794
328.6578, 2016.061
329.1400, 2016.616
329.6221, 2017.285
330.1042, 2018.485
330.5863, 2021.001
331.0684, 2024.049
331.5505, 2025.232
332.0327, 2022.926
332.5148, 2020.606
332.9969, 2019.550
333.4790, 2019.966
333.9611, 2021.081
334.4432, 2023.284
334.9254, 2025.943
335.4075, 2027.988
335.8896, 2029.342
336.3717, 2030.262
336.8538, 2030.611
337.3359, 2030.271
337.8180, 2030.813
338.3001, 2032.259
338.7823, 2034.586
339.2644, 2038.089
339.7465, 2043.259
340.2286, 2047.619
340.7107, 2050.633
341.1928, 2052.347
341.6750, 2052.236
342.1571, 2049.578
342.6392, 2047.683
343.1213, 2050.347
343.6034, 2057.629
344.0855, 2062.598
344.5677, 2063.574
345.0498, 2062.060
345.5319, 2061.290
346.0140, 2061.253
346.4961, 2062.208
346.9782, 2065.333
347.4604, 2069.946
347.9425, 2071.906
348.4246, 2070.108
348.9067, 2067.945
349.3888, 2071.309
349.8709, 2079.238
350.3531, 2086.269
350.8352, 2089.463
351.3173, 2089.957
351.7994, 2089.361
352.2815, 2087.602
352.7636, 2086.357
353.2458, 2087.288
353.7279, 2089.929
354.2100, 2093.273
354.6921, 2096.894
355.1742, 2101.011
355.6563, 2106.706
356.1385, 2113.686
356.6206, 2119.367
357.1027, 2120.357
357.5848, 2119.618
358.0669, 2120.780
358.5490, 2125.868
359.0312, 2131.433
359.5133, 2135.081
359.9954, 2137.382
360.4775, 2140.188
360.9596, 2144.776
361.4417, 2149.893
361.9239, 2154.814
362.4060, 2159.518
362.8881, 2163.719
363.3702, 2167.480
363.8523, 2170.634
364.3344, 2172.923
364.8166, 2172.299
365.2987, 2172.590
365.7808, 2175.977
366.2629, 2183.128
366.7450, 2188.682
367.2271, 2189.980
367.7093, 2190.260
368.1914, 2192.367
368.6735, 2200.632
369.1556, 2206.263
369.6377, 2206.210
370.1198, 2201.402
370.6020, 2199.946
371.0841, 2204.224
371.5662, 2209.656
372.0483, 2213.787
372.5304, 2216.061
373.0125, 2218.187
373.4947, 2220.585
373.9768, 2222.690
374.4589, 2222.818
374.9410, 2219.508
375.4231, 2217.241
375.9052, 2218.207
376.3874, 2223.035
376.8695, 2226.207
377.3516, 2227.603
377.8337, 2227.614
378.3158, 2226.212
378.7979, 2223.065
379.2801, 2221.135
379.7622, 2221.811
380.2443, 2224.264
380.7264, 2224.696
381.2085, 2222.935
381.6906, 2220.228
382.1728, 2217.444
382.6549, 2214.549
383.1370, 2211.424
383.6191, 2207.746
384.1012, 2204.285
384.5833, 2203.037
385.0655, 2203.608
385.5476, 2203.085
386.0297, 2198.228
386.5118, 2191.509
386.9939, 2187.605
387.4760, 2187.184
387.9582, 2187.756
388.4403, 2187.220
388.9224, 2185.939
389.4045, 2184.673
389.8866, 2184.788
390.3687, 2184.322
390.8509, 2180.825
391.3330, 2174.604
391.8151, 2168.988
392.2972, 2166.684
392.7793, 2165.634
393.2614, 2163.784
393.7436, 2159.756
394.2257, 2156.100
394.7078, 2154.164
395.1899, 2153.478
395.6720, 2152.801
396.1541, 2152.598
396.6363, 2151.667
397.1184, 2149.099
397.6005, 2143.961
398.0826, 2139.920
398.5647, 2138.184
399.0468, 2137.626
399.5290, 2136.879
400.0111, 2135.454
400.4932, 2134.274
400.9753, 2133.530
401.4574, 2133.213
401.9395, 2133.077
402.4217, 2133.896
402.9038, 2134.048
403.3859, 2131.894
403.8680, 2124.789
404.3501, 2121.982
404.8322, 2125.930
405.3144, 2133.685
405.7965, 2137.181
406.2786, 2135.522
406.7607, 2132.644
407.2428, 2129.595
407.7249, 2126.291
408.2071, 2126.031
408.6892, 2129.612
409.1713, 2133.849
409.6534, 2134.297
410.1355, 2131.153
410.6176, 2128.522
411.0998, 2127.682
411.5819, 2128.073
412.0640, 2128.599
412.5461, 2129.241
413.0282, 2129.629
413.5103, 2129.153
413.9925, 2128.255
414.4746, 2127.924
414.9567, 2128.462
415.4388, 2129.181
415.9209, 2129.746
416.4030, 2129.963
416.8852, 2129.362
417.3673, 2126.464
417.8494, 2123.470
418.3315, 2122.524
418.8136, 2123.775
419.2957, 2124.938
419.7779, 2124.546
420.2600, 2123.511
420.7421, 2122.760
421.2242, 2122.551
421.7063, 2122.692
422.1884, 2123.483
422.6706, 2124.680
423.1527, 2125.356
423.6348, 2125.020
424.1169, 2124.369
424.5990, 2123.689
425.0811, 2122.947
425.5633, 2122.361
426.0454, 2121.793
426.5275, 2121.459
427.0096, 2121.680
427.4917, 2122.969
427.9738, 2124.019
428.4560, 2124.347
428.9381, 2124.016
429.4202, 2124.658
429.9023, 2126.850
430.3844, 2128.896
430.8665, 2129.152
431.3487, 2127.087
431.8308, 2126.548
432.3129, 2128.253
432.7950, 2131.079
433.2771, 2132.487
433.7592, 2132.378
434.2414, 2132.665
434.7235, 2134.544
435.2056, 2137.560
435.6877, 2140.017
436.1698, 2141.898
436.6519, 2143.195
437.1341, 2143.895
437.6162, 2143.981
438.0983, 2143.325
438.5804, 2141.460
439.0625, 2139.488
439.5446, 2138.272
440.0268, 2137.936
440.5089, 2138.904
440.9910, 2143.419
441.4731, 2148.207
441.9552, 2150.263
442.4373, 2148.929
442.9195, 2146.584
443.4016, 2143.289
443.8837, 2140.049
444.3658, 2138.081
444.8479, 2138.778
445.3300, 2139.773
445.8122, 2140.341
446.2943, 2140.516
446.7764, 2140.831
447.2585, 2141.238
447.7406, 2141.884
448.2227, 2142.888
448.7049, 2144.574
449.1870, 2145.959
449.6691, 2146.911
450.1512, 2147.618
450.6333, 2148.359
451.1154, 2149.167
451.5976, 2149.947
452.0797, 2150.718
452.5618, 2151.459
453.0439, 2151.744
453.5260, 2151.367
454.0081, 2151.143
454.4903, 2151.873
454.9724, 2153.533
455.4545, 2155.024
455.9366, 2156.221
456.4187, 2157.160
456.9008, 2157.668
457.3830, 2157.837
457.8651, 2158.310
458.3472, 2159.897
458.8293, 2161.846
459.3114, 2162.728
459.7935, 2162.536
460.2757, 2162.072
460.7578, 2161.312
461.2399, 2160.876
461.7220, 2161.828
462.2041, 2165.482
462.6862, 2168.797
463.1684, 2168.986
463.6505, 2167.301
464.1326, 2166.652
464.6147, 2168.897
465.0968, 2171.878
465.5789, 2174.769
466.0611, 2177.603
466.5432, 2179.431
467.0253, 2179.066
467.5074, 2178.103
467.9895, 2177.876
468.4716, 2179.670
468.9538, 2180.628
469.4359, 2180.264
469.9180, 2178.967
470.4001, 2177.938
470.8822, 2177.300
471.3643, 2176.797
471.8465, 2176.286
472.3286, 2175.746
472.8107, 2175.923
473.2928, 2177.168
473.7749, 2178.377
474.2570, 2177.826
474.7392, 2175.554
475.2213, 2174.557
475.7034, 2175.824
476.1855, 2178.331
476.6676, 2180.027
477.1497, 2180.976
477.6319, 2181.778
478.1140, 2182.804
478.5961, 2183.891
479.0782, 2184.647
479.5603, 2184.989
480.0424, 2185.544
480.5246, 2187.656
481.0067, 2190.062
481.4888, 2190.875
481.9709, 2187.029
482.4530, 2184.273
482.9352, 2187.109
483.4173, 2193.706
483.8994, 2198.286
484.3815, 2197.610
484.8636, 2195.524
485.3457, 2193.280
485.8279, 2190.244
486.3100, 2189.878
486.7921, 2195.896
487.2742, 2202.837
487.7563, 2205.735
488.2384, 2201.077
488.7206, 2198.542
489.2027, 2200.086
489.6848, 2204.396
490.1669, 2206.898
490.6490, 2207.455
491.1311, 2206.594
491.6133, 2203.661
492.0954, 2198.726
492.5775, 2196.991
493.0596, 2198.932
493.5417, 2202.184
494.0238, 2204.310
494.5060, 2205.536
494.9881, 2206.917
495.4702, 2208.937
495.9523, 2210.852
496.4344, 2211.018
496.9165, 2209.960
497.3987, 2209.656
497.8808, 2211.933
498.3629, 2215.040
498.8450, 2217.156
499.3271, 2218.098
499.8092, 2219.263
500.2914, 2222.583
500.7735, 2225.884
501.2556, 2227.145
501.7377, 2222.820
502.2198, 2220.022
502.7019, 2221.981
503.1841, 2226.666
503.6662, 2228.535
504.1483, 2222.846
504.6304, 2218.942
505.1125, 2220.274
505.5946, 2227.451
506.0768, 2232.020
506.5589, 2233.139
507.0410, 2232.905
507.5231, 2232.946
508.0052, 2233.358
508.4873, 2233.633
508.9695, 2233.849
509.4516, 2233.720
509.9337, 2232.031
510.4158, 2228.922
510.8979, 2227.169
511.3800, 2228.828
511.8622, 2232.374
512.3443, 2234.388
512.8264, 2234.901
513.3085, 2235.039
513.7906, 2235.388
514.2728, 2235.956
514.7549, 2236.809
515.2370, 2238.059
515.7191, 2239.300
516.2012, 2240.738
516.6833, 2241.913
517.1655, 2242.144
517.6476, 2239.063
518.1297, 2237.168
518.6118, 2238.905
519.0939, 2243.906
519.5760, 2247.603
520.0582, 2249.103
520.5403, 2249.453
521.0224, 2248.833
521.5045, 2246.512
521.9866, 2245.345
522.4688, 2245.628
522.9509, 2246.702
523.4330, 2248.056
523.9151, 2249.924
524.3972, 2250.485
524.8793, 2248.631
525.3615, 2245.811
525.8436, 2246.448
526.3257, 2250.488
526.8078, 2254.178
527.2899, 2255.141
527.7720, 2254.247
528.2542, 2253.276
528.7363, 2252.314
529.2184, 2251.531
529.7005, 2250.677
530.1826, 2250.241
530.6647, 2251.067
531.1469, 2254.404
531.6290, 2257.344
532.1111, 2257.028
532.5932, 2255.208
533.0753, 2255.459
533.5574, 2262.248
534.0396, 2267.955
534.5217, 2269.145
535.0038, 2265.349
535.4859, 2263.402
535.9680, 2265.352
536.4501, 2267.302
536.9323, 2266.677
537.4144, 2261.640
537.8965, 2259.189
538.3786, 2259.831
538.8607, 2262.574
539.3428, 2266.901
539.8250, 2273.171
540.3071, 2276.636
540.7892, 2274.974
541.2713, 2270.445
541.7534, 2268.645
542.2355, 2269.372
542.7177, 2270.368
543.1998, 2269.642
543.6819, 2268.494
544.1640, 2269.396
544.6461, 2272.642
545.1282, 2275.429
545.6104, 2274.957
546.0925, 2273.241
546.5746, 2272.562
547.0567, 2274.264
547.5388, 2276.049
548.0209, 2277.040
548.5031, 2277.551
548.9852, 2278.306
549.4673, 2280.156
549.9494, 2281.442
550.4315, 2281.445
550.9136, 2280.175
551.3958, 2279.789
551.8779, 2280.395
552.3600, 2281.725
552.8421, 2284.032
553.3242, 2287.577
553.8063, 2289.449
554.2885, 2289.216
554.7706, 2288.175
555.2527, 2287.882
555.7348, 2288.285
556.2169, 2289.117
556.6990, 2290.478
557.1812, 2291.983
557.6633, 2293.271
558.1454, 2294.279
558.6275, 2294.765
559.1096, 2294.410
559.5917, 2293.604
560.0739, 2292.191
560.5560, 2290.138
561.0381, 2289.408
561.5202, 2291.838
562.0023, 2295.277
562.4844, 2298.146
562.9666, 2299.999
563.4487, 2301.579
563.9308, 2302.667
564.4129, 2303.603
564.8950, 2304.991
565.3771, 2307.219
565.8593, 2308.904
566.3414, 2309.546
566.8235, 2309.396
567.3056, 2309.823
567.7877, 2310.947
568.2698, 2311.644
568.7520, 2310.835
569.2341, 2309.000
569.7162, 2307.912
570.1983, 2307.647
570.6804, 2308.020
571.1625, 2309.863
571.6447, 2312.000
572.1268, 2312.259
572.6089, 2309.147
573.0910, 2306.250
573.5731, 2306.534
574.0552, 2308.516
574.5374, 2309.602
575.0195, 2307.328
575.5016, 2305.703
575.9837, 2306.239
576.4658, 2308.842
576.9479, 2311.798
577.4301, 2316.803
577.9122, 2320.071
578.3943, 2319.221
578.8764, 2312.942
579.3585, 2310.174
579.8406, 2311.644
580.3228, 2314.990
580.8049, 2318.496
581.2870, 2322.043
581.7691, 2323.355
582.2512, 2321.134
582.7333, 2318.561
583.2155, 2321.368
583.6976, 2327.933
584.1797, 2333.370
584.6617, 2334.505
585.1439, 2334.051
585.6260, 2333.614
586.1081, 2333.441
586.5902, 2334.792
587.0723, 2340.773
