##NAMES=Gysinite-(Nd)
##RRUFFID=R100062
##IDEAL CHEMISTRY=Pb^2+^Nd^3+^(CO_3_)_2_(OH)&#183;H_2_O
##LOCALITY=Kasompi, 70 km west of Kambove, Katanga, Congo
##OWNER=RRUFF
##SOURCE=William W Pinch
##DESCRIPTION=Pink glassy granular crystals associated with green malachite
##STATUS=The identification of this mineral has been confirmed by single-crystal X-ray diffraction.
##URL=rruff.info/R100062
91.53320, 1600.218
92.01532, 1588.769
92.49744, 1580.443
92.97955, 1600.463
93.46167, 1625.643
93.94379, 1634.817
94.42590, 1637.149
94.90802, 1635.541
95.39014, 1628.832
95.87225, 1616.348
96.35437, 1602.697
96.83649, 1590.454
97.31860, 1579.458
97.80072, 1569.406
98.28284, 1558.355
98.76495, 1545.270
99.24707, 1532.912
99.72919, 1521.041
100.2113, 1510.860
100.6934, 1502.725
101.1755, 1496.115
101.6577, 1490.219
102.1398, 1484.130
102.6219, 1477.358
103.1040, 1472.701
103.5861, 1471.070
104.0682, 1469.880
104.5504, 1467.451
105.0325, 1463.589
105.5146, 1459.412
105.9967, 1456.290
106.4788, 1454.352
106.9609, 1452.897
107.4431, 1451.637
107.9252, 1450.810
108.4073, 1450.921
108.8894, 1452.298
109.3715, 1454.182
109.8536, 1455.334
110.3358, 1455.804
110.8179, 1455.705
111.3000, 1454.691
111.7821, 1452.890
112.2642, 1451.575
112.7463, 1451.484
113.2285, 1452.009
113.7106, 1452.658
114.1927, 1453.459
114.6748, 1454.052
115.1569, 1453.693
115.6390, 1451.706
116.1212, 1450.503
116.6033, 1451.129
117.0854, 1452.613
117.5675, 1453.966
118.0496, 1454.641
118.5317, 1454.903
119.0139, 1456.085
119.4960, 1460.518
119.9781, 1463.314
120.4602, 1461.927
120.9423, 1458.310
121.4244, 1455.995
121.9066, 1457.918
122.3887, 1464.534
122.8708, 1468.969
123.3529, 1470.289
123.8350, 1470.864
124.3171, 1471.577
124.7993, 1472.553
125.2814, 1473.564
125.7635, 1474.271
126.2456, 1474.510
126.7277, 1475.713
127.2098, 1479.067
127.6920, 1482.860
128.1741, 1485.097
128.6562, 1485.181
129.1383, 1484.618
129.6204, 1485.261
130.1025, 1486.948
130.5847, 1488.843
131.0668, 1490.471
131.5489, 1492.006
132.0310, 1494.190
132.5131, 1497.881
132.9952, 1501.499
133.4774, 1503.642
133.9595, 1504.304
134.4416, 1504.550
134.9237, 1505.162
135.4058, 1506.134
135.8879, 1507.646
136.3701, 1510.516
136.8522, 1513.483
137.3343, 1515.873
137.8164, 1517.529
138.2985, 1518.641
138.7806, 1519.464
139.2628, 1519.630
139.7449, 1520.226
140.2270, 1521.599
140.7091, 1523.255
141.1912, 1524.669
141.6733, 1525.598
142.1555, 1526.305
142.6376, 1527.706
143.1197, 1530.486
143.6018, 1533.216
144.0839, 1535.780
144.5660, 1538.182
145.0482, 1540.538
145.5303, 1542.971
146.0124, 1545.346
146.4945, 1546.724
146.9766, 1545.815
147.4587, 1545.375
147.9409, 1547.109
148.4230, 1550.577
148.9051, 1553.594
149.3872, 1554.276
149.8693, 1553.173
150.3514, 1553.747
150.8336, 1557.754
151.3157, 1562.418
151.7978, 1565.157
152.2799, 1565.742
152.7620, 1565.789
153.2441, 1566.178
153.7263, 1566.885
154.2084, 1567.983
154.6905, 1570.058
155.1726, 1572.463
155.6547, 1573.591
156.1368, 1572.697
156.6190, 1571.839
157.1011, 1572.307
157.5832, 1573.611
158.0653, 1574.809
158.5474, 1575.170
159.0295, 1574.778
159.5117, 1574.816
159.9938, 1575.619
160.4759, 1576.556
160.9580, 1577.286
161.4401, 1577.926
161.9222, 1578.839
162.4044, 1580.514
162.8865, 1583.250
163.3686, 1584.973
163.8507, 1584.932
164.3328, 1584.614
164.8149, 1584.570
165.2971, 1584.873
165.7792, 1585.368
166.2613, 1585.937
166.7434, 1586.850
167.2255, 1586.941
167.7076, 1585.098
168.1898, 1583.312
168.6719, 1583.333
169.1540, 1585.403
169.6361, 1588.036
170.1182, 1589.097
170.6003, 1587.744
171.0825, 1586.874
171.5646, 1586.749
172.0467, 1587.122
172.5288, 1587.851
173.0109, 1588.948
173.4930, 1590.087
173.9752, 1590.669
174.4573, 1590.677
174.9394, 1590.583
175.4215, 1589.949
175.9036, 1589.308
176.3857, 1590.039
176.8679, 1593.003
177.3500, 1596.789
177.8321, 1599.752
178.3142, 1601.993
178.7963, 1603.163
179.2784, 1602.324
179.7606, 1599.791
180.2427, 1598.211
180.7248, 1598.652
181.2069, 1600.084
181.6890, 1601.689
182.1711, 1603.430
182.6533, 1605.095
183.1354, 1606.480
183.6175, 1607.565
184.0996, 1608.551
184.5817, 1609.255
185.0638, 1610.023
185.5460, 1610.909
186.0281, 1611.948
186.5102, 1613.458
186.9923, 1616.205
187.4744, 1621.151
187.9565, 1624.699
188.4387, 1625.691
188.9208, 1625.765
189.4029, 1625.838
189.8850, 1626.243
190.3671, 1627.025
190.8492, 1628.255
191.3314, 1629.737
191.8135, 1632.121
192.2956, 1636.210
192.7777, 1640.706
193.2598, 1644.610
193.7419, 1647.502
194.2241, 1649.447
194.7062, 1650.593
195.1883, 1648.892
195.6704, 1648.824
196.1525, 1651.645
196.6346, 1655.772
197.1168, 1659.254
197.5989, 1661.215
198.0810, 1662.372
198.5631, 1664.847
199.0452, 1670.358
199.5273, 1674.844
200.0095, 1677.172
200.4916, 1678.120
200.9737, 1678.827
201.4558, 1679.686
201.9379, 1680.849
202.4200, 1682.819
202.9022, 1685.563
203.3843, 1688.872
203.8664, 1693.090
204.3485, 1697.890
204.8306, 1702.282
205.3127, 1705.713
205.7949, 1708.627
206.2770, 1712.087
206.7591, 1716.524
207.2412, 1720.584
207.7233, 1723.110
208.2054, 1724.378
208.6876, 1726.033
209.1697, 1728.715
209.6518, 1732.210
210.1339, 1736.182
210.6160, 1740.843
211.0981, 1745.285
211.5803, 1748.617
212.0624, 1750.833
212.5445, 1753.026
213.0266, 1755.346
213.5087, 1757.967
213.9908, 1761.371
214.4730, 1765.821
214.9551, 1769.919
215.4372, 1771.445
215.9193, 1769.773
216.4014, 1769.516
216.8836, 1773.502
217.3657, 1778.596
217.8478, 1782.910
218.3299, 1785.970
218.8120, 1788.333
219.2941, 1790.633
219.7763, 1792.811
220.2584, 1795.093
220.7405, 1797.571
221.2226, 1800.122
221.7047, 1802.692
222.1868, 1805.258
222.6690, 1807.784
223.1511, 1810.182
223.6332, 1812.324
224.1153, 1814.663
224.5974, 1817.165
225.0795, 1819.887
225.5617, 1823.326
226.0438, 1827.482
226.5259, 1831.314
227.0080, 1832.770
227.4901, 1829.705
227.9722, 1828.180
228.4544, 1829.237
228.9365, 1831.177
229.4186, 1832.690
229.9007, 1833.410
230.3828, 1833.882
230.8649, 1835.091
231.3471, 1838.063
231.8292, 1840.101
232.3113, 1840.001
232.7934, 1839.727
233.2755, 1841.198
233.7576, 1844.836
234.2398, 1849.291
234.7219, 1852.311
235.2040, 1853.257
235.6861, 1853.625
236.1682, 1852.440
236.6503, 1851.197
237.1325, 1851.510
237.6146, 1853.748
238.0967, 1856.696
238.5788, 1858.563
239.0609, 1858.857
239.5430, 1859.030
240.0252, 1858.973
240.5073, 1858.881
240.9894, 1858.827
241.4715, 1858.833
241.9536, 1859.173
242.4357, 1860.295
242.9179, 1862.369
243.4000, 1864.529
243.8821, 1867.509
244.3642, 1870.164
244.8463, 1870.927
245.3284, 1869.422
245.8106, 1867.255
246.2927, 1866.493
246.7748, 1867.225
247.2569, 1867.053
247.7390, 1864.691
248.2211, 1861.638
248.7033, 1859.599
249.1854, 1858.840
249.6675, 1858.976
250.1496, 1859.701
250.6317, 1861.001
251.1138, 1863.124
251.5960, 1867.720
252.0781, 1872.505
252.5602, 1874.149
253.0423, 1871.972
253.5244, 1868.839
254.0065, 1867.048
254.4887, 1866.241
254.9708, 1865.529
255.4529, 1864.908
255.9350, 1864.184
256.4171, 1862.860
256.8992, 1860.713
257.3813, 1858.939
257.8635, 1858.323
258.3456, 1858.668
258.8277, 1859.915
259.3098, 1862.582
259.7919, 1865.811
260.2740, 1868.481
260.7562, 1870.594
261.2383, 1872.081
261.7204, 1871.956
262.2025, 1871.388
262.6846, 1871.998
263.1667, 1874.811
263.6489, 1878.296
264.1310, 1880.306
264.6131, 1880.630
265.0952, 1880.385
265.5773, 1879.205
266.0594, 1878.059
266.5416, 1877.996
267.0237, 1879.461
267.5058, 1881.694
267.9879, 1883.776
268.4700, 1885.701
268.9521, 1887.546
269.4343, 1888.671
269.9164, 1890.109
270.3985, 1892.897
270.8806, 1897.366
271.3627, 1902.416
271.8448, 1906.815
272.3270, 1910.561
272.8091, 1913.719
273.2912, 1915.574
273.7733, 1917.263
274.2554, 1919.470
274.7375, 1922.321
275.2197, 1925.487
275.7018, 1928.735
276.1839, 1932.094
276.6660, 1935.196
277.1481, 1937.508
277.6302, 1939.879
278.1124, 1942.874
278.5945, 1946.462
279.0766, 1949.993
279.5587, 1952.453
280.0408, 1953.578
280.5229, 1956.152
281.0051, 1961.561
281.4872, 1967.476
281.9693, 1973.466
282.4514, 1979.225
282.9335, 1984.159
283.4156, 1986.987
283.8978, 1987.602
284.3799, 1991.315
284.8620, 2002.627
285.3441, 2012.586
285.8262, 2017.308
286.3083, 2018.234
286.7905, 2018.796
287.2726, 2021.381
287.7547, 2025.775
288.2368, 2029.975
288.7189, 2033.969
289.2010, 2037.737
289.6832, 2041.137
290.1653, 2044.325
290.6474, 2047.514
291.1295, 2050.775
291.6116, 2054.174
292.0938, 2057.989
292.5759, 2062.735
293.0580, 2067.161
293.5401, 2070.854
294.0222, 2074.213
294.5043, 2077.646
294.9865, 2081.345
295.4686, 2085.225
295.9507, 2089.057
296.4328, 2092.659
296.9149, 2096.567
297.3970, 2101.253
297.8792, 2105.989
298.3613, 2110.063
298.8434, 2113.290
299.3255, 2116.067
299.8076, 2118.986
300.2897, 2121.908
300.7719, 2125.327
301.2540, 2129.791
301.7361, 2134.288
302.2182, 2138.051
302.7003, 2141.028
303.1824, 2143.937
303.6646, 2147.904
304.1467, 2153.632
304.6288, 2157.747
305.1109, 2158.441
305.5930, 2159.216
306.0751, 2162.095
306.5573, 2166.722
307.0394, 2171.198
307.5215, 2173.568
308.0036, 2173.599
308.4857, 2175.181
308.9678, 2180.238
309.4500, 2185.019
309.9321, 2188.441
310.4142, 2190.766
310.8963, 2192.636
311.3784, 2194.418
311.8605, 2196.185
312.3427, 2198.494
312.8248, 2202.681
313.3069, 2205.844
313.7890, 2206.632
314.2711, 2206.372
314.7532, 2206.688
315.2354, 2208.371
315.7175, 2211.233
316.1996, 2214.988
316.6817, 2222.100
317.1638, 2225.995
317.6459, 2223.991
318.1281, 2219.933
318.6102, 2217.089
319.0923, 2216.528
319.5744, 2217.334
320.0565, 2218.097
320.5386, 2218.907
321.0208, 2219.434
321.5029, 2219.965
321.9850, 2220.023
322.4671, 2219.208
322.9492, 2217.524
323.4313, 2215.317
323.9135, 2212.622
324.3956, 2208.975
324.8777, 2207.259
325.3598, 2208.934
325.8419, 2211.170
326.3240, 2213.372
326.8062, 2215.270
327.2883, 2216.638
327.7704, 2217.372
328.2525, 2217.450
328.7346, 2216.457
329.2167, 2213.012
329.6989, 2210.037
330.1810, 2208.359
330.6631, 2207.580
331.1452, 2207.248
331.6273, 2207.229
332.1094, 2207.163
332.5916, 2205.741
333.0737, 2201.591
333.5558, 2198.476
334.0379, 2197.500
334.5200, 2197.445
335.0021, 2197.183
335.4843, 2196.347
335.9664, 2195.377
336.4485, 2195.081
336.9306, 2195.826
337.4127, 2196.109
337.8948, 2195.517
338.3770, 2194.629
338.8591, 2193.656
339.3412, 2192.667
339.8233, 2191.762
340.3055, 2191.135
340.7876, 2190.847
341.2697, 2190.179
341.7518, 2188.479
342.2339, 2187.042
342.7160, 2186.697
343.1982, 2187.037
343.6803, 2187.019
344.1624, 2185.785
344.6445, 2183.656
345.1266, 2182.281
345.6087, 2182.124
346.0909, 2182.015
346.5730, 2181.802
347.0551, 2181.341
347.5372, 2180.351
348.0193, 2178.615
348.5014, 2176.634
348.9836, 2175.263
349.4657, 2174.557
349.9478, 2174.308
350.4299, 2175.352
350.9120, 2176.287
351.3941, 2175.639
351.8763, 2173.190
352.3584, 2170.872
352.8405, 2171.160
353.3226, 2174.154
353.8047, 2175.929
354.2868, 2174.875
354.7690, 2173.594
355.2511, 2173.553
355.7332, 2174.688
356.2153, 2176.472
356.6974, 2179.621
357.1795, 2183.322
357.6617, 2183.658
358.1438, 2178.307
358.6259, 2174.398
359.1080, 2177.643
359.5901, 2184.578
360.0722, 2189.751
360.5544, 2190.871
361.0365, 2189.795
361.5186, 2188.932
362.0007, 2188.305
362.4828, 2187.698
362.9649, 2186.569
363.4471, 2185.704
363.9292, 2186.361
364.4113, 2189.112
364.8934, 2191.356
365.3755, 2190.565
365.8576, 2187.298
366.3398, 2184.621
366.8219, 2183.204
367.3040, 2182.646
367.7861, 2182.614
368.2682, 2183.066
368.7503, 2183.636
369.2325, 2184.521
369.7146, 2185.343
370.1967, 2185.265
370.6788, 2184.079
371.1609, 2182.895
371.6430, 2182.907
372.1252, 2183.632
372.6073, 2183.432
373.0894, 2181.686
373.5715, 2179.272
374.0536, 2176.302
374.5357, 2173.019
375.0179, 2170.993
375.5000, 2171.497
375.9821, 2173.308
376.4642, 2173.540
376.9463, 2171.919
377.4284, 2169.658
377.9106, 2166.863
378.3927, 2163.799
378.8748, 2160.744
379.3569, 2157.705
379.8390, 2155.248
380.3211, 2154.451
380.8033, 2155.827
381.2854, 2155.771
381.7675, 2152.498
382.2496, 2148.808
382.7317, 2147.211
383.2138, 2147.625
383.6960, 2147.954
384.1781, 2146.513
384.6602, 2143.471
385.1423, 2141.398
385.6244, 2141.300
386.1065, 2140.822
386.5887, 2138.806
387.0708, 2135.951
387.5529, 2133.429
388.0350, 2131.741
388.5171, 2130.678
388.9992, 2129.818
389.4814, 2130.223
389.9635, 2129.082
390.4456, 2124.686
390.9277, 2119.906
391.4098, 2117.276
391.8919, 2117.007
392.3741, 2117.363
392.8562, 2116.468
393.3383, 2114.035
393.8204, 2112.624
394.3025, 2113.988
394.7846, 2114.507
395.2668, 2112.060
395.7489, 2107.957
396.2310, 2104.745
396.7131, 2103.959
397.1952, 2104.915
397.6773, 2105.263
398.1595, 2104.848
398.6416, 2104.000
399.1237, 2102.978
399.6058, 2101.475
400.0879, 2098.740
400.5700, 2094.787
401.0522, 2091.106
401.5343, 2089.894
402.0164, 2091.771
402.4985, 2092.432
402.9806, 2090.681
403.4627, 2088.608
403.9449, 2087.237
404.4270, 2086.282
404.9091, 2084.822
405.3912, 2081.919
405.8733, 2078.267
406.3554, 2076.223
406.8376, 2076.422
407.3197, 2076.605
407.8018, 2076.088
408.2839, 2075.002
408.7660, 2073.414
409.2481, 2071.312
409.7303, 2068.804
410.2124, 2065.571
410.6945, 2061.727
411.1766, 2059.038
411.6587, 2058.634
412.1408, 2058.531
412.6230, 2056.184
413.1051, 2052.039
413.5872, 2049.528
414.0693, 2051.740
414.5514, 2055.866
415.0335, 2057.344
415.5157, 2055.774
415.9978, 2053.171
416.4799, 2050.553
416.9620, 2047.873
417.4441, 2044.957
417.9262, 2040.966
418.4084, 2037.839
418.8905, 2037.259
419.3726, 2038.421
419.8547, 2039.400
420.3368, 2039.654
420.8189, 2039.098
421.3011, 2037.285
421.7832, 2033.706
422.2653, 2031.155
422.7474, 2030.697
423.2295, 2030.886
423.7116, 2030.503
424.1938, 2029.477
424.6759, 2028.336
425.1580, 2027.411
425.6401, 2026.723
426.1222, 2026.687
426.6043, 2028.051
427.0865, 2029.070
427.5686, 2029.545
428.0507, 2029.326
428.5328, 2027.823
429.0149, 2024.857
429.4970, 2021.680
429.9792, 2020.709
430.4613, 2023.943
430.9434, 2024.942
431.4255, 2022.558
431.9076, 2019.379
432.3897, 2016.197
432.8719, 2013.459
433.3540, 2011.876
433.8361, 2012.249
434.3182, 2014.225
434.8003, 2015.126
435.2824, 2014.006
435.7646, 2013.267
436.2467, 2013.856
436.7288, 2014.922
437.2109, 2015.586
437.6930, 2015.573
438.1751, 2015.168
438.6573, 2014.539
439.1394, 2013.633
439.6215, 2013.297
440.1036, 2014.337
440.5857, 2015.179
441.0678, 2014.260
441.5500, 2012.146
442.0321, 2010.992
442.5142, 2012.799
442.9963, 2015.888
443.4784, 2016.817
443.9605, 2015.228
444.4427, 2014.336
444.9248, 2016.503
445.4069, 2019.988
445.8890, 2021.701
446.3711, 2021.095
446.8532, 2019.933
447.3354, 2019.136
447.8175, 2018.492
448.2996, 2017.392
448.7817, 2015.616
449.2638, 2013.930
449.7459, 2013.220
450.2281, 2013.556
450.7102, 2013.909
451.1923, 2014.057
451.6744, 2014.370
452.1565, 2015.492
452.6386, 2017.022
453.1208, 2017.656
453.6029, 2016.616
454.0850, 2014.578
454.5671, 2013.426
455.0492, 2014.111
455.5313, 2014.416
456.0135, 2013.846
456.4956, 2013.209
456.9777, 2013.274
457.4598, 2014.057
457.9419, 2014.931
458.4240, 2015.279
458.9062, 2015.098
459.3883, 2015.104
459.8704, 2015.062
460.3525, 2015.535
460.8346, 2017.027
461.3167, 2018.962
461.7989, 2020.683
462.2810, 2021.946
462.7631, 2022.793
463.2452, 2023.266
463.7273, 2023.342
464.2094, 2023.119
464.6916, 2022.182
465.1737, 2021.325
465.6558, 2020.737
466.1379, 2020.550
466.6200, 2021.169
467.1021, 2023.291
467.5843, 2026.138
468.0664, 2028.395
468.5485, 2030.164
469.0306, 2030.556
469.5127, 2027.997
469.9948, 2024.519
470.4770, 2023.548
470.9591, 2025.934
471.4412, 2028.096
471.9233, 2027.311
472.4054, 2025.337
472.8875, 2025.788
473.3697, 2029.432
473.8518, 2033.583
474.3339, 2035.974
474.8160, 2036.522
475.2981, 2036.481
475.7802, 2035.118
476.2624, 2033.941
476.7445, 2033.513
477.2266, 2033.751
477.7087, 2034.782
478.1908, 2036.681
478.6729, 2038.443
479.1551, 2038.018
479.6372, 2033.150
480.1193, 2031.484
480.6014, 2035.305
481.0835, 2039.806
481.5656, 2042.758
482.0478, 2044.073
482.5299, 2044.289
483.0120, 2043.629
483.4941, 2042.414
483.9762, 2041.949
484.4583, 2042.840
484.9405, 2043.268
485.4226, 2042.362
485.9047, 2041.263
486.3868, 2040.800
486.8689, 2041.098
487.3510, 2041.877
487.8332, 2043.121
488.3153, 2044.699
488.7974, 2045.945
489.2795, 2046.702
489.7616, 2047.443
490.2437, 2048.667
490.7259, 2050.001
491.2080, 2050.839
491.6901, 2050.886
492.1722, 2050.756
492.6543, 2050.730
493.1364, 2050.862
493.6186, 2051.396
494.1007, 2052.471
494.5828, 2053.631
495.0649, 2054.333
495.5470, 2054.522
496.0291, 2054.823
496.5113, 2056.040
496.9934, 2056.653
497.4755, 2054.919
497.9576, 2051.883
498.4397, 2050.362
498.9218, 2051.809
499.4040, 2054.610
499.8861, 2054.948
500.3682, 2049.667
500.8503, 2047.842
501.3324, 2052.035
501.8145, 2057.063
502.2967, 2059.743
502.7788, 2060.326
503.2609, 2060.982
503.7430, 2063.491
504.2251, 2066.921
504.7072, 2067.175
505.1894, 2062.113
505.6715, 2058.797
506.1536, 2060.608
506.6357, 2063.788
507.1178, 2065.546
507.5999, 2065.531
508.0821, 2064.999
508.5642, 2064.737
509.0463, 2064.684
509.5284, 2064.430
510.0105, 2063.728
510.4926, 2063.915
510.9748, 2066.412
511.4569, 2070.260
511.9390, 2073.200
512.4211, 2075.023
512.9032, 2076.051
513.3853, 2075.493
513.8674, 2074.480
514.3495, 2075.413
514.8317, 2078.820
515.3138, 2082.286
515.7959, 2083.194
516.2780, 2081.292
516.7601, 2080.561
517.2422, 2081.576
517.7244, 2082.900
518.2065, 2084.576
518.6886, 2086.090
519.1707, 2086.383
519.6528, 2085.180
520.1349, 2083.915
520.6171, 2084.985
521.0992, 2089.146
521.5813, 2092.631
522.0634, 2095.700
522.5455, 2097.777
523.0276, 2098.338
523.5098, 2097.796
523.9919, 2096.654
524.4740, 2094.794
524.9561, 2093.390
525.4382, 2094.678
525.9203, 2098.709
526.4025, 2101.793
526.8846, 2102.417
527.3667, 2102.678
527.8488, 2105.010
528.3309, 2109.013
528.8130, 2112.170
529.2952, 2112.938
529.7773, 2113.152
530.2594, 2114.830
530.7415, 2117.586
531.2236, 2119.279
531.7057, 2118.673
532.1879, 2117.382
532.6700, 2118.728
533.1521, 2125.033
533.6342, 2128.640
534.1163, 2126.970
534.5984, 2124.641
535.0806, 2124.656
535.5627, 2126.680
536.0448, 2128.944
536.5269, 2130.358
537.0090, 2131.203
537.4911, 2132.327
537.9733, 2133.953
538.4554, 2135.376
538.9375, 2135.793
539.4196, 2136.577
539.9017, 2139.090
540.3839, 2142.945
540.8660, 2146.235
541.3481, 2147.396
541.8302, 2147.375
542.3123, 2148.572
542.7944, 2151.240
543.2766, 2152.859
543.7587, 2151.505
544.2408, 2149.396
544.7229, 2150.097
545.2050, 2154.030
545.6871, 2156.986
546.1693, 2156.235
546.6514, 2154.592
547.1335, 2155.482
547.6156, 2158.759
548.0977, 2161.849
548.5798, 2163.161
549.0620, 2163.183
549.5441, 2163.578
550.0262, 2164.157
550.5083, 2165.380
550.9904, 2168.185
551.4725, 2170.897
551.9547, 2172.040
552.4368, 2171.794
552.9189, 2171.385
553.4010, 2171.679
553.8831, 2172.567
554.3652, 2173.612
554.8474, 2174.834
555.3295, 2176.183
555.8116, 2178.221
556.2937, 2180.002
556.7758, 2180.786
557.2579, 2180.553
557.7401, 2179.843
558.2222, 2177.826
558.7043, 2175.983
559.1864, 2177.682
559.6685, 2183.010
560.1506, 2187.501
560.6328, 2188.888
561.1149, 2188.170
561.5970, 2187.363
562.0791, 2186.418
562.5612, 2185.509
563.0433, 2183.442
563.5255, 2182.307
564.0076, 2185.132
564.4897, 2190.888
564.9718, 2195.075
565.4539, 2194.667
565.9360, 2191.116
566.4182, 2189.370
566.9003, 2190.619
567.3824, 2191.473
567.8645, 2191.086
568.3466, 2190.828
568.8287, 2191.767
569.3109, 2193.688
569.7930, 2195.496
570.2751, 2196.314
570.7572, 2196.816
571.2393, 2198.834
571.7214, 2202.584
572.2036, 2205.166
572.6857, 2205.642
573.1678, 2204.490
573.6499, 2201.635
574.1320, 2197.134
574.6141, 2194.011
575.0963, 2194.036
575.5784, 2195.022
576.0605, 2195.016
576.5426, 2194.297
577.0247, 2194.154
577.5068, 2195.218
577.9890, 2196.882
578.4711, 2198.030
578.9532, 2198.547
579.4353, 2198.823
579.9174, 2198.614
580.3995, 2198.454
580.8817, 2198.553
581.3638, 2198.902
581.8459, 2199.526
582.3280, 2200.471
582.8101, 2201.390
583.2922, 2201.799
583.7744, 2201.702
584.2565, 2200.776
584.7386, 2197.813
585.2207, 2195.667
585.7029, 2197.259
586.1850, 2201.161
586.6671, 2203.710
587.1492, 2203.506
587.6313, 2202.410
588.1135, 2201.677
