##NAMES=Hagendorfite
##RRUFFID=R160083
##IDEAL CHEMISTRY=Na_2_Mn^2+^(Fe^2+^Fe^3+^)(P^5+^O_4_)_3_
##LOCALITY=Palermo No. 1 mine, Groton, Grafton County, New Hampshire, USA
##OWNER=UAMM
##SOURCE=Rock Currier
##DESCRIPTION=Massive dark green crystals (Labeled originally as ferrohagendorfite).
##STATUS=The identification of this mineral has been confirmed only by single crystal X-ray diffraction.
##URL=rruff.info/R160083
##MEASURED CHEMISTRY=(Na_1.51_Ca_0.25_Mg_0.24_)_∑=2_(Mn_0.78_Fe^2+^_0.21_)_∑=0.99_Fe^2+^_2.00_(PO_4_)_3_
8.806445e+001, 1.668934e+003
8.854657e+001, 1.645781e+003
8.902869e+001, 1.637816e+003
8.951080e+001, 1.653716e+003
8.999292e+001, 1.680910e+003
9.047504e+001, 1.707339e+003
9.095715e+001, 1.730194e+003
9.143927e+001, 1.751103e+003
9.192139e+001, 1.772370e+003
9.240350e+001, 1.793925e+003
9.288562e+001, 1.815246e+003
9.336774e+001, 1.824443e+003
9.384985e+001, 1.809990e+003
9.433197e+001, 1.772269e+003
9.481409e+001, 1.734916e+003
9.529620e+001, 1.695276e+003
9.577832e+001, 1.661019e+003
9.626044e+001, 1.633246e+003
9.674255e+001, 1.610137e+003
9.722467e+001, 1.589734e+003
9.770679e+001, 1.572429e+003
9.818890e+001, 1.555203e+003
9.867102e+001, 1.536410e+003
9.915314e+001, 1.517602e+003
9.963525e+001, 1.499635e+003
1.001174e+002, 1.482759e+003
1.005995e+002, 1.466985e+003
1.010816e+002, 1.452546e+003
1.015637e+002, 1.439186e+003
1.020458e+002, 1.427208e+003
1.025280e+002, 1.415959e+003
1.030101e+002, 1.405745e+003
1.034922e+002, 1.397106e+003
1.039743e+002, 1.390472e+003
1.044564e+002, 1.385788e+003
1.049385e+002, 1.382638e+003
1.054207e+002, 1.384135e+003
1.059028e+002, 1.384025e+003
1.063849e+002, 1.378622e+003
1.068670e+002, 1.367935e+003
1.073491e+002, 1.354699e+003
1.078312e+002, 1.340467e+003
1.083134e+002, 1.325389e+003
1.087955e+002, 1.312358e+003
1.092776e+002, 1.302441e+003
1.097597e+002, 1.294539e+003
1.102418e+002, 1.287069e+003
1.107239e+002, 1.279671e+003
1.112061e+002, 1.273071e+003
1.116882e+002, 1.268054e+003
1.121703e+002, 1.264320e+003
1.126524e+002, 1.261071e+003
1.131345e+002, 1.258254e+003
1.136166e+002, 1.255784e+003
1.140988e+002, 1.252310e+003
1.145809e+002, 1.247035e+003
1.150630e+002, 1.241107e+003
1.155451e+002, 1.234965e+003
1.160272e+002, 1.228684e+003
1.165093e+002, 1.222467e+003
1.169915e+002, 1.216488e+003
1.174736e+002, 1.210649e+003
1.179557e+002, 1.205349e+003
1.184378e+002, 1.200203e+003
1.189199e+002, 1.195713e+003
1.194020e+002, 1.192348e+003
1.198842e+002, 1.190230e+003
1.203663e+002, 1.189004e+003
1.208484e+002, 1.187871e+003
1.213305e+002, 1.187722e+003
1.218126e+002, 1.186544e+003
1.222947e+002, 1.184190e+003
1.227769e+002, 1.180798e+003
1.232590e+002, 1.176318e+003
1.237411e+002, 1.170550e+003
1.242232e+002, 1.163960e+003
1.247053e+002, 1.158619e+003
1.251874e+002, 1.155042e+003
1.256696e+002, 1.151827e+003
1.261517e+002, 1.148256e+003
1.266338e+002, 1.144534e+003
1.271159e+002, 1.141534e+003
1.275980e+002, 1.140386e+003
1.280801e+002, 1.140256e+003
1.285623e+002, 1.138401e+003
1.290444e+002, 1.133564e+003
1.295265e+002, 1.127791e+003
1.300086e+002, 1.123067e+003
1.304907e+002, 1.119580e+003
1.309728e+002, 1.116277e+003
1.314550e+002, 1.112448e+003
1.319371e+002, 1.108369e+003
1.324192e+002, 1.104431e+003
1.329013e+002, 1.100795e+003
1.333834e+002, 1.097406e+003
1.338655e+002, 1.094068e+003
1.343477e+002, 1.090598e+003
1.348298e+002, 1.087504e+003
1.353119e+002, 1.085041e+003
1.357940e+002, 1.083065e+003
1.362761e+002, 1.081298e+003
1.367582e+002, 1.079466e+003
1.372404e+002, 1.077560e+003
1.377225e+002, 1.076334e+003
1.382046e+002, 1.077791e+003
1.386867e+002, 1.078182e+003
1.391688e+002, 1.075935e+003
1.396509e+002, 1.071350e+003
1.401331e+002, 1.065763e+003
1.406152e+002, 1.060338e+003
1.410973e+002, 1.054873e+003
1.415794e+002, 1.050657e+003
1.420615e+002, 1.048052e+003
1.425436e+002, 1.046129e+003
1.430258e+002, 1.044481e+003
1.435079e+002, 1.042977e+003
1.439900e+002, 1.041495e+003
1.444721e+002, 1.039865e+003
1.449542e+002, 1.038011e+003
1.454363e+002, 1.036160e+003
1.459185e+002, 1.034392e+003
1.464006e+002, 1.032585e+003
1.468827e+002, 1.030606e+003
1.473648e+002, 1.028416e+003
1.478469e+002, 1.026020e+003
1.483290e+002, 1.023272e+003
1.488112e+002, 1.020095e+003
1.492933e+002, 1.017163e+003
1.497754e+002, 1.014712e+003
1.502575e+002, 1.012692e+003
1.507396e+002, 1.010954e+003
1.512217e+002, 1.009541e+003
1.517039e+002, 1.008335e+003
1.521860e+002, 1.007250e+003
1.526681e+002, 1.006326e+003
1.531502e+002, 1.005233e+003
1.536323e+002, 1.003902e+003
1.541144e+002, 1.002359e+003
1.545966e+002, 9.999775e+002
1.550787e+002, 9.956844e+002
1.555608e+002, 9.910016e+002
1.560429e+002, 9.868718e+002
1.565250e+002, 9.834641e+002
1.570071e+002, 9.806693e+002
1.574893e+002, 9.783262e+002
1.579714e+002, 9.764122e+002
1.584535e+002, 9.750734e+002
1.589356e+002, 9.747631e+002
1.594177e+002, 9.747103e+002
1.598998e+002, 9.744293e+002
1.603820e+002, 9.737316e+002
1.608641e+002, 9.725800e+002
1.613462e+002, 9.708597e+002
1.618283e+002, 9.681732e+002
1.623104e+002, 9.654022e+002
1.627925e+002, 9.624179e+002
1.632747e+002, 9.594797e+002
1.637568e+002, 9.568450e+002
1.642389e+002, 9.546613e+002
1.647210e+002, 9.528536e+002
1.652031e+002, 9.511389e+002
1.656852e+002, 9.497314e+002
1.661674e+002, 9.481829e+002
1.666495e+002, 9.462435e+002
1.671316e+002, 9.441283e+002
1.676137e+002, 9.422036e+002
1.680958e+002, 9.406563e+002
1.685779e+002, 9.394857e+002
1.690601e+002, 9.386376e+002
1.695422e+002, 9.387514e+002
1.700243e+002, 9.384858e+002
1.705064e+002, 9.372465e+002
1.709885e+002, 9.351413e+002
1.714706e+002, 9.325491e+002
1.719528e+002, 9.294391e+002
1.724349e+002, 9.260885e+002
1.729170e+002, 9.235373e+002
1.733991e+002, 9.220253e+002
1.738812e+002, 9.210881e+002
1.743633e+002, 9.205938e+002
1.748455e+002, 9.205544e+002
1.753276e+002, 9.203215e+002
1.758097e+002, 9.193889e+002
1.762918e+002, 9.179915e+002
1.767739e+002, 9.165413e+002
1.772560e+002, 9.151924e+002
1.777382e+002, 9.137827e+002
1.782203e+002, 9.119890e+002
1.787024e+002, 9.096476e+002
1.791845e+002, 9.075004e+002
1.796666e+002, 9.061257e+002
1.801487e+002, 9.051420e+002
1.806309e+002, 9.040882e+002
1.811130e+002, 9.027392e+002
1.815951e+002, 9.012087e+002
1.820772e+002, 8.997991e+002
1.825593e+002, 8.986319e+002
1.830414e+002, 8.973873e+002
1.835236e+002, 8.955938e+002
1.840057e+002, 8.937230e+002
1.844878e+002, 8.925313e+002
1.849699e+002, 8.926404e+002
1.854520e+002, 8.937496e+002
1.859341e+002, 8.939220e+002
1.864163e+002, 8.922813e+002
1.868984e+002, 8.905829e+002
1.873805e+002, 8.893632e+002
1.878626e+002, 8.883601e+002
1.883447e+002, 8.870380e+002
1.888268e+002, 8.849380e+002
1.893090e+002, 8.821106e+002
1.897911e+002, 8.799987e+002
1.902732e+002, 8.790525e+002
1.907553e+002, 8.783672e+002
1.912374e+002, 8.778717e+002
1.917195e+002, 8.774612e+002
1.922017e+002, 8.769941e+002
1.926838e+002, 8.763718e+002
1.931659e+002, 8.755900e+002
1.936480e+002, 8.746298e+002
1.941301e+002, 8.731154e+002
1.946122e+002, 8.718145e+002
1.950944e+002, 8.711948e+002
1.955765e+002, 8.711309e+002
1.960586e+002, 8.711086e+002
1.965407e+002, 8.707045e+002
1.970228e+002, 8.698929e+002
1.975049e+002, 8.692237e+002
1.979871e+002, 8.689777e+002
1.984692e+002, 8.686216e+002
1.989513e+002, 8.676309e+002
1.994334e+002, 8.660676e+002
1.999155e+002, 8.646523e+002
2.003976e+002, 8.640085e+002
2.008798e+002, 8.641222e+002
2.013619e+002, 8.641720e+002
2.018440e+002, 8.640103e+002
2.023261e+002, 8.638542e+002
2.028082e+002, 8.641215e+002
2.032903e+002, 8.648690e+002
2.037725e+002, 8.651972e+002
2.042546e+002, 8.640888e+002
2.047367e+002, 8.619708e+002
2.052188e+002, 8.600474e+002
2.057009e+002, 8.581309e+002
2.061830e+002, 8.566964e+002
2.066652e+002, 8.567922e+002
2.071473e+002, 8.589037e+002
2.076294e+002, 8.606804e+002
2.081115e+002, 8.596610e+002
2.085936e+002, 8.573234e+002
2.090757e+002, 8.559941e+002
2.095579e+002, 8.571366e+002
2.100400e+002, 8.595611e+002
2.105221e+002, 8.608352e+002
2.110042e+002, 8.605771e+002
2.114863e+002, 8.599805e+002
2.119685e+002, 8.595381e+002
2.124506e+002, 8.591925e+002
2.129327e+002, 8.588481e+002
2.134148e+002, 8.583764e+002
2.138969e+002, 8.579103e+002
2.143790e+002, 8.579626e+002
2.148612e+002, 8.590883e+002
2.153433e+002, 8.597946e+002
2.158254e+002, 8.594048e+002
2.163075e+002, 8.583837e+002
2.167896e+002, 8.573728e+002
2.172717e+002, 8.567588e+002
2.177539e+002, 8.564083e+002
2.182360e+002, 8.557195e+002
2.187181e+002, 8.543927e+002
2.192002e+002, 8.531049e+002
2.196823e+002, 8.521513e+002
2.201644e+002, 8.513145e+002
2.206466e+002, 8.503061e+002
2.211287e+002, 8.489628e+002
2.216108e+002, 8.473075e+002
2.220929e+002, 8.454679e+002
2.225750e+002, 8.429051e+002
2.230571e+002, 8.407679e+002
2.235393e+002, 8.394698e+002
2.240214e+002, 8.386832e+002
2.245035e+002, 8.379648e+002
2.249856e+002, 8.370633e+002
2.254677e+002, 8.359965e+002
2.259498e+002, 8.348814e+002
2.264320e+002, 8.333054e+002
2.269141e+002, 8.321425e+002
2.273962e+002, 8.319100e+002
2.278783e+002, 8.321304e+002
2.283604e+002, 8.319895e+002
2.288425e+002, 8.309735e+002
2.293247e+002, 8.293220e+002
2.298068e+002, 8.284257e+002
2.302889e+002, 8.295284e+002
2.307710e+002, 8.299212e+002
2.312531e+002, 8.283242e+002
2.317352e+002, 8.257008e+002
2.322174e+002, 8.238093e+002
2.326995e+002, 8.236515e+002
2.331816e+002, 8.247981e+002
2.336637e+002, 8.253723e+002
2.341458e+002, 8.254283e+002
2.346279e+002, 8.249847e+002
2.351101e+002, 8.236647e+002
2.355922e+002, 8.218557e+002
2.360743e+002, 8.203412e+002
2.365564e+002, 8.195443e+002
2.370385e+002, 8.192297e+002
2.375206e+002, 8.186218e+002
2.380028e+002, 8.172127e+002
2.384849e+002, 8.163276e+002
2.389670e+002, 8.168455e+002
2.394491e+002, 8.182301e+002
2.399312e+002, 8.192652e+002
2.404133e+002, 8.193981e+002
2.408955e+002, 8.189398e+002
2.413776e+002, 8.186935e+002
2.418597e+002, 8.190309e+002
2.423418e+002, 8.187120e+002
2.428239e+002, 8.164473e+002
2.433060e+002, 8.130401e+002
2.437882e+002, 8.107959e+002
2.442703e+002, 8.108060e+002
2.447524e+002, 8.119841e+002
2.452345e+002, 8.126290e+002
2.457166e+002, 8.127670e+002
2.461987e+002, 8.124313e+002
2.466809e+002, 8.113956e+002
2.471630e+002, 8.098522e+002
2.476451e+002, 8.083778e+002
2.481272e+002, 8.070137e+002
2.486093e+002, 8.059844e+002
2.490914e+002, 8.056855e+002
2.495736e+002, 8.061395e+002
2.500557e+002, 8.063927e+002
2.505378e+002, 8.058916e+002
2.510199e+002, 8.047448e+002
2.515020e+002, 8.032929e+002
2.519841e+002, 8.012043e+002
2.524663e+002, 7.994025e+002
2.529484e+002, 7.987344e+002
2.534305e+002, 7.991029e+002
2.539126e+002, 7.996800e+002
2.543947e+002, 8.001748e+002
2.548768e+002, 8.005311e+002
2.553590e+002, 8.004034e+002
2.558411e+002, 7.994181e+002
2.563232e+002, 7.984043e+002
2.568053e+002, 7.980679e+002
2.572874e+002, 7.982280e+002
2.577695e+002, 7.982310e+002
2.582516e+002, 7.972726e+002
2.587338e+002, 7.956690e+002
2.592159e+002, 7.953577e+002
2.596980e+002, 7.976233e+002
2.601801e+002, 7.993616e+002
2.606622e+002, 7.984693e+002
2.611443e+002, 7.958671e+002
2.616265e+002, 7.936252e+002
2.621086e+002, 7.933019e+002
2.625907e+002, 7.943739e+002
2.630728e+002, 7.943116e+002
2.635549e+002, 7.920743e+002
2.640370e+002, 7.902947e+002
2.645192e+002, 7.904532e+002
2.650013e+002, 7.916539e+002
2.654834e+002, 7.924349e+002
2.659655e+002, 7.919430e+002
2.664476e+002, 7.905015e+002
2.669297e+002, 7.892111e+002
2.674119e+002, 7.880300e+002
2.678940e+002, 7.871153e+002
2.683761e+002, 7.865561e+002
2.688582e+002, 7.862311e+002
2.693403e+002, 7.859883e+002
2.698224e+002, 7.857548e+002
2.703046e+002, 7.855714e+002
2.707867e+002, 7.855869e+002
2.712688e+002, 7.860457e+002
2.717509e+002, 7.862626e+002
2.722330e+002, 7.859384e+002
2.727151e+002, 7.854188e+002
2.731973e+002, 7.850752e+002
2.736794e+002, 7.850602e+002
2.741615e+002, 7.851806e+002
2.746436e+002, 7.849603e+002
2.751257e+002, 7.839549e+002
2.756078e+002, 7.835006e+002
2.760900e+002, 7.842534e+002
2.765721e+002, 7.852303e+002
2.770542e+002, 7.856291e+002
2.775363e+002, 7.852145e+002
2.780184e+002, 7.843002e+002
2.785005e+002, 7.833785e+002
2.789827e+002, 7.824142e+002
2.794648e+002, 7.815244e+002
2.799469e+002, 7.808386e+002
2.804290e+002, 7.801309e+002
2.809111e+002, 7.792747e+002
2.813932e+002, 7.782395e+002
2.818754e+002, 7.770496e+002
2.823575e+002, 7.756520e+002
2.828396e+002, 7.737816e+002
2.833217e+002, 7.725157e+002
2.838038e+002, 7.724373e+002
2.842859e+002, 7.724036e+002
2.847681e+002, 7.716833e+002
2.852502e+002, 7.703326e+002
2.857323e+002, 7.689841e+002
2.862144e+002, 7.683666e+002
2.866965e+002, 7.687118e+002
2.871786e+002, 7.684290e+002
2.876608e+002, 7.672001e+002
2.881429e+002, 7.657045e+002
2.886250e+002, 7.639332e+002
2.891071e+002, 7.620891e+002
2.895892e+002, 7.606110e+002
2.900714e+002, 7.599342e+002
2.905535e+002, 7.600836e+002
2.910356e+002, 7.595872e+002
2.915177e+002, 7.579470e+002
2.919998e+002, 7.561998e+002
2.924819e+002, 7.544694e+002
2.929641e+002, 7.528444e+002
2.934462e+002, 7.514164e+002
2.939283e+002, 7.502360e+002
2.944104e+002, 7.492988e+002
2.948925e+002, 7.485266e+002
2.953746e+002, 7.479911e+002
2.958568e+002, 7.475530e+002
2.963389e+002, 7.474579e+002
2.968210e+002, 7.473746e+002
2.973031e+002, 7.467916e+002
2.977852e+002, 7.454507e+002
2.982673e+002, 7.436345e+002
2.987495e+002, 7.422043e+002
2.992316e+002, 7.416144e+002
2.997137e+002, 7.408405e+002
3.001958e+002, 7.396116e+002
3.006779e+002, 7.382814e+002
3.011600e+002, 7.371659e+002
3.016422e+002, 7.363738e+002
3.021243e+002, 7.358717e+002
3.026064e+002, 7.356281e+002
3.030885e+002, 7.359069e+002
3.035706e+002, 7.359782e+002
3.040527e+002, 7.360455e+002
3.045349e+002, 7.357971e+002
3.050170e+002, 7.348292e+002
3.054991e+002, 7.331586e+002
3.059812e+002, 7.313041e+002
3.064633e+002, 7.299072e+002
3.069454e+002, 7.291259e+002
3.074276e+002, 7.282947e+002
3.079097e+002, 7.274084e+002
3.083918e+002, 7.265011e+002
3.088739e+002, 7.255354e+002
3.093560e+002, 7.245510e+002
3.098381e+002, 7.236871e+002
3.103203e+002, 7.230817e+002
3.108024e+002, 7.227689e+002
3.112845e+002, 7.222618e+002
3.117666e+002, 7.210038e+002
3.122487e+002, 7.201449e+002
3.127308e+002, 7.206149e+002
3.132130e+002, 7.218009e+002
3.136951e+002, 7.223138e+002
3.141772e+002, 7.211940e+002
3.146593e+002, 7.187320e+002
3.151414e+002, 7.169893e+002
3.156235e+002, 7.162330e+002
3.161057e+002, 7.158764e+002
3.165878e+002, 7.161013e+002
3.170699e+002, 7.165941e+002
3.175520e+002, 7.170704e+002
3.180341e+002, 7.174063e+002
3.185162e+002, 7.174334e+002
3.189984e+002, 7.166939e+002
3.194805e+002, 7.138176e+002
3.199626e+002, 7.119838e+002
3.204447e+002, 7.119807e+002
3.209268e+002, 7.126111e+002
3.214089e+002, 7.127835e+002
3.218911e+002, 7.122111e+002
3.223732e+002, 7.113572e+002
3.228553e+002, 7.109276e+002
3.233374e+002, 7.112888e+002
3.238195e+002, 7.111653e+002
3.243016e+002, 7.100756e+002
3.247838e+002, 7.089496e+002
3.252659e+002, 7.084968e+002
3.257480e+002, 7.086672e+002
3.262301e+002, 7.088534e+002
3.267122e+002, 7.084562e+002
3.271943e+002, 7.074133e+002
3.276765e+002, 7.062737e+002
3.281586e+002, 7.045101e+002
3.286407e+002, 7.031749e+002
3.291228e+002, 7.028615e+002
3.296049e+002, 7.032942e+002
3.300870e+002, 7.038446e+002
3.305692e+002, 7.041072e+002
3.310513e+002, 7.041005e+002
3.315334e+002, 7.039738e+002
3.320155e+002, 7.035162e+002
3.324976e+002, 7.031749e+002
3.329797e+002, 7.032052e+002
3.334619e+002, 7.033336e+002
3.339440e+002, 7.032304e+002
3.344261e+002, 7.027491e+002
3.349082e+002, 7.019541e+002
3.353904e+002, 7.009689e+002
3.358725e+002, 6.996271e+002
3.363546e+002, 6.983718e+002
3.368367e+002, 6.971024e+002
3.373188e+002, 6.959931e+002
3.378009e+002, 6.951432e+002
3.382831e+002, 6.945955e+002
3.387652e+002, 6.944070e+002
3.392473e+002, 6.947714e+002
3.397294e+002, 6.961075e+002
3.402115e+002, 6.966581e+002
3.406936e+002, 6.959677e+002
3.411758e+002, 6.950067e+002
3.416579e+002, 6.940650e+002
3.421400e+002, 6.932496e+002
3.426221e+002, 6.926826e+002
3.431042e+002, 6.925146e+002
3.435863e+002, 6.927422e+002
3.440685e+002, 6.927393e+002
3.445506e+002, 6.923543e+002
3.450327e+002, 6.918606e+002
3.455148e+002, 6.913391e+002
3.459969e+002, 6.907375e+002
3.464790e+002, 6.898843e+002
3.469612e+002, 6.886379e+002
3.474433e+002, 6.872614e+002
3.479254e+002, 6.866541e+002
3.484075e+002, 6.876512e+002
3.488896e+002, 6.880543e+002
3.493717e+002, 6.872410e+002
3.498539e+002, 6.859544e+002
3.503360e+002, 6.847703e+002
3.508181e+002, 6.838856e+002
3.513002e+002, 6.832306e+002
3.517823e+002, 6.826741e+002
3.522644e+002, 6.821385e+002
3.527466e+002, 6.819758e+002
3.532287e+002, 6.830637e+002
3.537108e+002, 6.838218e+002
3.541929e+002, 6.830714e+002
3.546750e+002, 6.810453e+002
3.551571e+002, 6.790609e+002
3.556393e+002, 6.783648e+002
3.561214e+002, 6.789455e+002
3.566035e+002, 6.792742e+002
3.570856e+002, 6.792450e+002
3.575677e+002, 6.790659e+002
3.580498e+002, 6.788091e+002
3.585320e+002, 6.784675e+002
3.590141e+002, 6.779909e+002
3.594962e+002, 6.773027e+002
3.599783e+002, 6.765377e+002
3.604604e+002, 6.761504e+002
3.609425e+002, 6.764553e+002
3.614247e+002, 6.763818e+002
3.619068e+002, 6.751376e+002
3.623889e+002, 6.736508e+002
3.628710e+002, 6.728369e+002
3.633531e+002, 6.729583e+002
3.638352e+002, 6.733583e+002
3.643174e+002, 6.731155e+002
3.647995e+002, 6.721129e+002
3.652816e+002, 6.716882e+002
3.657637e+002, 6.728155e+002
3.662458e+002, 6.739241e+002
3.667279e+002, 6.739352e+002
3.672101e+002, 6.729225e+002
3.676922e+002, 6.716859e+002
3.681743e+002, 6.707988e+002
3.686564e+002, 6.701553e+002
3.691385e+002, 6.691765e+002
3.696206e+002, 6.674767e+002
3.701028e+002, 6.661553e+002
3.705849e+002, 6.662635e+002
3.710670e+002, 6.671279e+002
3.715491e+002, 6.675375e+002
3.720312e+002, 6.668606e+002
3.725133e+002, 6.657364e+002
3.729955e+002, 6.651616e+002
3.734776e+002, 6.652224e+002
3.739597e+002, 6.649718e+002
3.744418e+002, 6.635646e+002
3.749239e+002, 6.618983e+002
3.754060e+002, 6.612379e+002
3.758882e+002, 6.619299e+002
3.763703e+002, 6.625813e+002
3.768524e+002, 6.619699e+002
3.773345e+002, 6.604403e+002
3.778166e+002, 6.595153e+002
3.782987e+002, 6.598143e+002
3.787809e+002, 6.602943e+002
3.792630e+002, 6.596019e+002
3.797451e+002, 6.579008e+002
3.802272e+002, 6.565319e+002
3.807093e+002, 6.560477e+002
3.811914e+002, 6.560865e+002
3.816736e+002, 6.563484e+002
3.821557e+002, 6.568281e+002
3.826378e+002, 6.570086e+002
3.831199e+002, 6.562756e+002
3.836020e+002, 6.549186e+002
3.840841e+002, 6.542526e+002
3.845663e+002, 6.546777e+002
3.850484e+002, 6.554207e+002
3.855305e+002, 6.564016e+002
3.860126e+002, 6.573973e+002
3.864947e+002, 6.575816e+002
3.869768e+002, 6.564404e+002
3.874590e+002, 6.546588e+002
3.879411e+002, 6.537215e+002
3.884232e+002, 6.538119e+002
3.889053e+002, 6.539736e+002
3.893874e+002, 6.541322e+002
3.898695e+002, 6.542090e+002
3.903517e+002, 6.540851e+002
3.908338e+002, 6.537432e+002
3.913159e+002, 6.533256e+002
3.917980e+002, 6.530085e+002
3.922801e+002, 6.528293e+002
3.927622e+002, 6.522957e+002
3.932444e+002, 6.507720e+002
3.937265e+002, 6.495270e+002
3.942086e+002, 6.494006e+002
3.946907e+002, 6.501048e+002
3.951728e+002, 6.508864e+002
3.956549e+002, 6.513457e+002
3.961371e+002, 6.514534e+002
3.966192e+002, 6.510680e+002
3.971013e+002, 6.495663e+002
3.975834e+002, 6.483355e+002
3.980655e+002, 6.476184e+002
3.985476e+002, 6.471481e+002
3.990298e+002, 6.465659e+002
3.995119e+002, 6.458150e+002
3.999940e+002, 6.452697e+002
4.004761e+002, 6.455685e+002
4.009582e+002, 6.472715e+002
4.014403e+002, 6.478084e+002
4.019225e+002, 6.461720e+002
4.024046e+002, 6.444802e+002
4.028867e+002, 6.437245e+002
4.033688e+002, 6.437385e+002
4.038509e+002, 6.438646e+002
4.043330e+002, 6.436575e+002
4.048152e+002, 6.431781e+002
4.052973e+002, 6.427880e+002
4.057794e+002, 6.426020e+002
4.062615e+002, 6.423253e+002
4.067436e+002, 6.417056e+002
4.072257e+002, 6.410734e+002
4.077079e+002, 6.407496e+002
4.081900e+002, 6.408318e+002
4.086721e+002, 6.412167e+002
4.091542e+002, 6.419238e+002
4.096363e+002, 6.431176e+002
4.101184e+002, 6.437275e+002
4.106006e+002, 6.433387e+002
4.110827e+002, 6.425790e+002
