##NAMES=Haiweeite
##RRUFFID=R061051
##IDEAL CHEMISTRY=Ca(U^6+^O_2_)_2_Si_5_O_12_(OH)_2_&#183;6H_2_O
##LOCALITY=Teofoli Otoni, Minas Gerais, Brazil
##OWNER=RRUFF
##SOURCE=Michael Scott
##DESCRIPTION=Spherical aggregates of yellow acicular crystals with albite, uranophane, calcite, quartz, and muscovite
##STATUS=The identification of this mineral has been confirmed by single-crystal X-ray diffraction.
##URL=rruff.info/R061051
145.6288, 44226.36
146.1110, 44589.11
146.5931, 44899.54
147.0752, 45151.00
147.5573, 45382.98
148.0394, 45593.62
148.5215, 45782.16
149.0037, 45950.90
149.4858, 46101.27
149.9679, 46227.63
150.4500, 46330.96
150.9321, 46416.86
151.4142, 46470.73
151.8964, 46469.74
152.3785, 46440.05
152.8606, 46437.66
153.3427, 46510.76
153.8248, 46583.27
154.3069, 46623.31
154.7890, 46581.93
155.2712, 46575.87
155.7533, 46624.96
156.2354, 46724.54
156.7175, 46853.72
157.1996, 47022.60
157.6817, 47212.47
158.1639, 47411.56
158.6460, 47615.84
159.1281, 47826.76
159.6102, 48049.80
160.0923, 48280.67
160.5744, 48495.06
161.0566, 48668.28
161.5387, 48822.87
162.0208, 48979.02
162.5029, 49136.73
162.9850, 49298.10
163.4671, 49475.81
163.9493, 49669.05
164.4314, 49831.62
164.9135, 49915.20
165.3956, 49961.01
165.8777, 50022.86
166.3598, 50159.10
166.8420, 50296.64
167.3241, 50391.80
167.8062, 50442.50
168.2883, 50455.01
168.7704, 50395.79
169.2525, 50304.32
169.7346, 50253.96
170.2168, 50317.44
170.6989, 50422.90
171.1810, 50499.63
171.6631, 50529.64
172.1452, 50560.49
172.6273, 50646.51
173.1095, 50768.99
173.5916, 50875.35
174.0737, 50914.41
174.5558, 50924.60
175.0379, 50959.32
175.5201, 51034.58
176.0022, 51123.96
176.4843, 51191.47
176.9664, 51242.15
177.4485, 51306.13
177.9306, 51420.49
178.4128, 51560.86
178.8949, 51679.13
179.3770, 51748.25
179.8591, 51806.70
180.3412, 51918.88
180.8233, 52082.75
181.3055, 52250.54
181.7876, 52380.33
182.2697, 52482.54
182.7518, 52593.07
183.2339, 52724.79
183.7160, 52868.63
184.1982, 53002.36
184.6803, 53125.13
185.1624, 53245.58
185.6445, 53371.05
186.1266, 53500.45
186.6087, 53638.08
187.0908, 53804.18
187.5730, 53977.50
188.0551, 54078.63
188.5372, 54101.70
189.0193, 54089.16
189.5014, 54087.60
189.9835, 54095.99
190.4657, 54099.23
190.9478, 54094.77
191.4299, 54081.82
191.9120, 54052.26
192.3941, 54004.63
192.8762, 53946.99
193.3584, 53889.80
193.8405, 53833.81
194.3226, 53776.06
194.8047, 53717.31
195.2868, 53657.79
195.7689, 53594.92
196.2511, 53530.85
196.7332, 53459.96
197.2153, 53358.33
197.6974, 53219.15
198.1795, 53111.15
198.6616, 53084.88
199.1438, 53144.05
199.6259, 53189.01
200.1080, 53223.32
200.5901, 53232.27
201.0722, 53160.94
201.5543, 52987.16
202.0364, 52833.41
202.5186, 52782.52
203.0007, 52846.32
203.4828, 52891.71
203.9649, 52900.22
204.4470, 52885.79
204.9291, 52894.36
205.4113, 52930.80
205.8934, 52967.91
206.3755, 52987.13
206.8576, 52984.66
207.3397, 52982.41
207.8218, 52992.40
208.3040, 53002.53
208.7861, 52952.43
209.2682, 52819.56
209.7503, 52684.51
210.2324, 52610.92
210.7145, 52617.81
211.1967, 52624.39
211.6788, 52625.08
212.1609, 52620.41
212.6430, 52605.56
213.1251, 52580.70
213.6072, 52549.42
214.0894, 52509.76
214.5715, 52452.48
215.0536, 52413.58
215.5357, 52395.71
216.0178, 52398.32
216.4999, 52430.58
216.9820, 52499.58
217.4642, 52582.20
217.9463, 52660.26
218.4284, 52731.42
218.9105, 52795.83
219.3926, 52855.12
219.8747, 52907.86
220.3569, 52940.53
220.8390, 52951.05
221.3211, 52944.63
221.8032, 52923.74
222.2853, 52881.04
222.7674, 52844.75
223.2496, 52820.93
223.7317, 52810.63
224.2138, 52816.51
224.6959, 52851.65
225.1780, 52892.26
225.6601, 52907.78
226.1423, 52868.50
226.6244, 52866.49
227.1065, 52936.70
227.5886, 53089.84
228.0707, 53191.22
228.5528, 53217.16
229.0350, 53210.56
229.5171, 53223.02
229.9992, 53267.96
230.4813, 53303.97
230.9634, 53316.44
231.4455, 53299.90
231.9276, 53301.11
232.4098, 53329.71
232.8919, 53368.73
233.3740, 53394.30
233.8561, 53395.16
234.3382, 53405.10
234.8203, 53444.84
235.3025, 53529.98
235.7846, 53549.94
236.2667, 53467.65
236.7488, 53348.61
237.2309, 53282.30
237.7130, 53289.13
238.1952, 53316.97
238.6773, 53359.36
239.1594, 53424.13
239.6415, 53462.58
240.1236, 53458.48
240.6057, 53440.05
241.0879, 53454.41
241.5700, 53542.73
242.0521, 53593.08
242.5342, 53552.75
243.0163, 53382.71
243.4984, 53307.61
243.9806, 53363.86
244.4627, 53489.34
244.9448, 53594.22
245.4269, 53677.84
245.9090, 53736.42
246.3911, 53763.00
246.8732, 53747.04
247.3554, 53736.85
247.8375, 53731.51
248.3196, 53730.15
248.8017, 53733.24
249.2838, 53745.61
249.7659, 53754.48
250.2481, 53759.80
250.7302, 53766.90
251.2123, 53753.50
251.6944, 53716.61
252.1765, 53666.27
252.6586, 53612.71
253.1408, 53544.95
253.6229, 53501.50
254.1050, 53505.15
254.5871, 53574.40
255.0692, 53604.19
255.5513, 53579.32
256.0334, 53528.46
256.5156, 53489.84
256.9977, 53452.76
257.4798, 53448.56
257.9619, 53495.02
258.4440, 53605.14
258.9261, 53686.02
259.4083, 53718.16
259.8904, 53735.31
260.3725, 53793.64
260.8546, 53915.33
261.3367, 54026.01
261.8188, 54101.10
262.3010, 54136.75
262.7831, 54157.11
263.2652, 54156.20
263.7473, 54144.62
264.2294, 54137.64
264.7115, 54136.22
265.1937, 54136.64
265.6758, 54145.02
266.1579, 54165.85
266.6400, 54142.16
267.1221, 54054.06
267.6042, 53948.48
268.0864, 53900.29
268.5685, 53932.53
269.0506, 53952.29
269.5327, 53927.22
270.0148, 53855.32
270.4969, 53796.37
270.9791, 53758.26
271.4612, 53723.16
271.9433, 53659.44
272.4254, 53554.98
272.9075, 53477.51
273.3896, 53453.76
273.8718, 53483.72
274.3539, 53516.16
274.8360, 53550.30
275.3181, 53588.65
275.8002, 53637.07
276.2823, 53697.47
276.7645, 53751.71
277.2466, 53792.66
277.7287, 53820.59
278.2108, 53854.36
278.6929, 53900.10
279.1750, 53932.51
279.6572, 53908.05
280.1393, 53819.26
280.6214, 53754.92
281.1035, 53744.28
281.5856, 53779.68
282.0677, 53821.32
282.5499, 53873.18
283.0320, 53914.52
283.5141, 53911.90
283.9962, 53865.11
284.4783, 53840.46
284.9604, 53869.13
285.4425, 53933.57
285.9247, 53952.71
286.4068, 53922.19
286.8889, 53881.00
287.3710, 53871.04
287.8531, 53889.33
288.3352, 53895.71
288.8174, 53875.56
289.2995, 53838.93
289.7816, 53808.56
290.2637, 53784.02
290.7458, 53776.17
291.2279, 53809.78
291.7101, 53874.25
292.1922, 53911.96
292.6743, 53894.80
293.1564, 53855.34
293.6385, 53872.68
294.1206, 53945.86
294.6028, 54011.92
295.0849, 54009.86
295.5670, 53960.96
296.0491, 53931.30
296.5312, 53940.43
297.0133, 53971.80
297.4955, 53995.79
297.9776, 54015.72
298.4597, 54054.69
298.9418, 54139.34
299.4239, 54254.64
299.9060, 54369.76
300.3882, 54479.76
300.8703, 54582.23
301.3524, 54664.17
301.8345, 54728.90
302.3166, 54797.19
302.7987, 54890.88
303.2809, 54990.89
303.7630, 55070.93
304.2451, 55122.30
304.7272, 55155.14
305.2093, 55160.70
305.6914, 55149.88
306.1736, 55158.68
306.6557, 55241.37
307.1378, 55338.76
307.6199, 55391.29
308.1020, 55394.42
308.5841, 55347.52
309.0663, 55219.00
309.5484, 55040.82
310.0305, 54883.84
310.5126, 54803.50
310.9947, 54744.23
311.4768, 54663.38
311.9590, 54555.38
312.4411, 54440.09
312.9232, 54320.20
313.4053, 54202.60
313.8874, 54100.09
314.3695, 54036.28
314.8517, 53972.30
315.3337, 53878.31
315.8159, 53749.35
316.2980, 53634.08
316.7801, 53556.79
317.2622, 53503.11
317.7443, 53455.74
318.2264, 53422.28
318.7086, 53384.35
319.1907, 53323.83
319.6728, 53241.11
320.1549, 53188.51
320.6370, 53211.40
321.1191, 53256.69
321.6013, 53279.26
322.0834, 53243.31
322.5655, 53208.64
323.0476, 53193.79
323.5297, 53195.27
324.0118, 53180.05
324.4940, 53093.49
324.9761, 53018.12
325.4582, 53005.17
325.9403, 53163.91
326.4224, 53264.91
326.9045, 53261.24
327.3867, 53172.11
327.8688, 53101.16
328.3509, 53012.90
328.8330, 52972.96
329.3151, 53015.70
329.7972, 53275.61
330.2794, 53417.16
330.7615, 53382.75
331.2436, 53234.75
331.7257, 53143.21
332.2078, 53138.50
332.6899, 53151.52
333.1721, 53154.75
333.6542, 53137.58
334.1363, 53146.91
334.6184, 53209.77
335.1005, 53283.53
335.5826, 53282.63
336.0648, 53160.70
336.5469, 53065.93
337.0290, 53059.71
337.5111, 53156.71
337.9932, 53201.41
338.4753, 53172.55
338.9575, 53120.72
339.4396, 53117.02
339.9217, 53174.73
340.4038, 53210.68
340.8859, 53192.75
341.3680, 53128.55
341.8502, 53089.67
342.3323, 53081.74
342.8144, 53083.78
343.2965, 53076.35
343.7786, 53060.46
344.2607, 53047.81
344.7429, 53045.68
345.2250, 53048.97
345.7071, 53027.40
346.1892, 52978.79
346.6713, 52958.02
347.1534, 53037.05
347.6355, 53189.23
348.1176, 53289.21
348.5998, 53300.32
349.0819, 53272.36
349.5640, 53289.06
350.0461, 53343.45
350.5282, 53390.37
351.0103, 53385.15
351.4925, 53353.68
351.9746, 53348.69
352.4567, 53380.77
352.9388, 53422.14
353.4209, 53446.31
353.9030, 53456.95
354.3852, 53464.13
354.8673, 53486.50
355.3494, 53503.21
355.8315, 53487.53
356.3136, 53436.88
356.7957, 53383.56
357.2779, 53339.39
357.7600, 53311.85
358.2421, 53311.80
358.7242, 53383.83
359.2063, 53453.06
359.6884, 53460.77
360.1706, 53408.69
360.6527, 53370.29
361.1348, 53374.08
361.6169, 53409.15
362.0990, 53465.11
362.5811, 53577.43
363.0633, 53669.61
363.5454, 53710.71
364.0275, 53707.61
364.5096, 53697.00
364.9917, 53674.59
365.4738, 53656.41
365.9560, 53652.25
366.4381, 53675.82
366.9202, 53696.70
367.4023, 53712.05
367.8844, 53724.02
368.3665, 53736.75
368.8487, 53754.60
369.3308, 53771.04
369.8129, 53783.53
370.2950, 53789.96
370.7771, 53798.29
371.2592, 53800.00
371.7414, 53807.97
372.2235, 53843.63
372.7056, 53931.95
373.1877, 54001.29
373.6698, 54022.46
374.1519, 53992.59
374.6341, 54000.76
375.1162, 54067.63
375.5983, 54136.09
376.0804, 54144.67
376.5625, 54077.24
377.0446, 54022.82
377.5267, 54001.63
378.0089, 54004.90
378.4910, 53999.91
378.9731, 53988.00
379.4552, 53966.45
379.9373, 53932.47
380.4194, 53887.41
380.9016, 53839.57
381.3837, 53788.46
381.8658, 53741.19
382.3479, 53704.89
382.8300, 53681.23
383.3121, 53679.05
383.7943, 53726.20
384.2764, 53796.84
384.7585, 53817.20
385.2406, 53775.70
385.7227, 53729.14
386.2048, 53752.95
386.6870, 53818.73
387.1691, 53860.91
387.6512, 53811.46
388.1333, 53743.39
388.6154, 53743.39
389.0975, 53807.39
389.5797, 53875.55
390.0618, 53928.37
390.5439, 53954.04
391.0260, 53935.38
391.5081, 53836.07
391.9902, 53734.27
392.4724, 53678.45
392.9545, 53659.05
393.4366, 53638.27
393.9187, 53576.71
394.4008, 53528.64
394.8829, 53535.41
395.3651, 53639.55
395.8472, 53715.05
396.3293, 53706.48
396.8114, 53653.79
397.2935, 53621.31
397.7756, 53649.63
398.2578, 53669.36
398.7399, 53645.84
399.2220, 53558.14
399.7041, 53525.92
400.1862, 53594.31
400.6683, 53688.98
401.1505, 53744.22
401.6326, 53741.79
402.1147, 53728.43
402.5968, 53700.54
403.0789, 53664.27
403.5610, 53665.75
404.0432, 53724.58
404.5253, 53787.68
405.0074, 53821.87
405.4895, 53821.85
405.9716, 53815.11
406.4537, 53792.30
406.9359, 53776.67
407.4180, 53830.97
407.9001, 53964.92
408.3822, 54081.19
408.8643, 54123.53
409.3464, 54102.88
409.8285, 54103.62
410.3106, 54127.75
410.7928, 54163.09
411.2749, 54197.77
411.7570, 54233.07
412.2391, 54272.85
412.7212, 54318.43
413.2033, 54369.79
413.6855, 54433.61
414.1676, 54506.80
414.6497, 54567.13
415.1318, 54580.44
415.6139, 54575.39
416.0960, 54595.45
416.5782, 54662.82
417.0603, 54723.56
417.5424, 54723.34
418.0245, 54683.59
418.5066, 54653.51
418.9887, 54671.08
419.4709, 54692.58
419.9530, 54690.07
420.4351, 54658.44
420.9172, 54623.96
421.3993, 54587.01
421.8814, 54557.58
422.3636, 54546.05
422.8457, 54564.67
423.3278, 54593.06
423.8099, 54647.93
424.2920, 54724.80
424.7741, 54745.73
425.2563, 54653.14
425.7384, 54549.33
426.2205, 54487.80
426.7026, 54492.38
427.1847, 54494.21
427.6668, 54485.75
428.1490, 54476.10
428.6311, 54487.71
429.1132, 54531.09
429.5953, 54568.27
430.0774, 54579.31
430.5595, 54562.79
431.0417, 54571.07
431.5238, 54611.21
432.0059, 54656.87
432.4880, 54671.86
432.9701, 54656.73
433.4522, 54666.16
433.9344, 54731.25
434.4165, 54814.64
434.8986, 54809.96
435.3807, 54722.12
435.8628, 54647.92
436.3449, 54677.72
436.8271, 54768.90
437.3092, 54828.49
437.7913, 54841.62
438.2734, 54832.87
438.7555, 54810.20
439.2376, 54783.36
439.7197, 54774.12
440.2018, 54806.24
440.6840, 54849.21
441.1661, 54872.14
441.6482, 54874.31
442.1303, 54893.77
442.6124, 54980.01
443.0945, 55076.93
443.5767, 55132.84
444.0588, 55109.66
444.5409, 55075.86
445.0230, 55028.58
445.5051, 54981.35
445.9872, 54977.07
446.4694, 55093.86
446.9515, 55193.81
447.4336, 55211.91
447.9157, 55100.00
448.3978, 55058.92
448.8799, 55141.09
449.3621, 55260.48
449.8442, 55307.57
450.3263, 55237.16
450.8084, 55199.01
451.2905, 55237.65
451.7726, 55335.85
452.2548, 55374.65
452.7369, 55333.95
453.2190, 55293.79
453.7011, 55318.66
454.1832, 55407.38
454.6653, 55483.03
455.1475, 55543.06
455.6296, 55578.39
456.1117, 55561.59
456.5938, 55500.15
457.0759, 55445.48
457.5580, 55419.93
458.0402, 55418.99
458.5223, 55440.93
459.0044, 55486.04
459.4865, 55532.47
459.9686, 55573.46
460.4507, 55602.73
460.9329, 55609.02
461.4150, 55572.10
461.8971, 55537.68
462.3792, 55533.83
462.8613, 55555.36
463.3434, 55588.19
463.8256, 55634.38
464.3077, 55683.80
464.7898, 55733.67
465.2719, 55785.56
465.7540, 55827.39
466.2361, 55833.18
466.7183, 55837.99
467.2004, 55877.95
467.6825, 56007.30
468.1646, 56107.65
468.6467, 56155.23
469.1288, 56158.17
469.6110, 56172.88
470.0930, 56210.15
470.5752, 56239.30
471.0573, 56237.43
471.5394, 56190.41
472.0215, 56173.45
472.5036, 56191.18
472.9857, 56231.34
473.4679, 56293.14
473.9500, 56377.69
474.4321, 56415.75
474.9142, 56366.14
475.3963, 56262.58
475.8784, 56196.45
476.3606, 56168.58
476.8427, 56158.00
477.3248, 56161.78
477.8069, 56171.29
478.2890, 56163.31
478.7711, 56125.91
479.2533, 56100.39
479.7354, 56134.07
480.2175, 56207.58
480.6996, 56279.98
481.1817, 56328.56
481.6638, 56370.93
482.1460, 56416.10
482.6281, 56462.65
483.1102, 56505.96
483.5923, 56530.71
484.0744, 56555.08
484.5565, 56592.16
485.0387, 56661.71
485.5208, 56716.16
486.0029, 56745.47
486.4850, 56755.91
486.9671, 56762.64
487.4492, 56776.04
487.9314, 56771.63
488.4135, 56736.89
488.8956, 56670.13
489.3777, 56623.26
489.8598, 56602.21
490.3419, 56594.98
490.8241, 56592.83
491.3062, 56597.48
491.7883, 56600.69
492.2704, 56596.34
492.7525, 56598.77
493.2346, 56656.48
493.7168, 56761.43
494.1989, 56835.80
494.6810, 56806.87
495.1631, 56723.63
495.6452, 56676.54
496.1273, 56669.46
496.6095, 56683.31
497.0916, 56723.70
497.5737, 56768.27
498.0558, 56784.50
498.5379, 56727.75
499.0201, 56685.18
499.5022, 56725.34
499.9843, 56821.84
500.4664, 56898.21
500.9485, 56911.87
501.4306, 56914.04
501.9127, 56930.52
502.3948, 56971.29
502.8770, 56993.95
503.3591, 56967.61
503.8412, 56937.79
504.3233, 56944.27
504.8054, 57005.27
505.2875, 57066.27
505.7697, 57120.37
506.2518, 57168.82
506.7339, 57219.44
507.2160, 57276.13
507.6981, 57317.74
508.1802, 57320.14
508.6624, 57287.48
509.1445, 57303.33
509.6266, 57375.26
510.1087, 57459.79
510.5908, 57511.36
511.0729, 57537.07
511.5551, 57560.62
512.0372, 57591.08
512.5193, 57620.61
513.0014, 57638.75
513.4835, 57647.84
513.9656, 57654.11
514.4478, 57650.89
514.9299, 57652.49
515.4120, 57667.99
515.8941, 57697.27
516.3762, 57742.13
516.8583, 57823.64
517.3405, 57909.07
517.8226, 57968.32
518.3047, 57949.39
518.7868, 57956.34
519.2689, 58029.08
519.7510, 58140.00
520.2332, 58204.94
520.7153, 58197.61
521.1974, 58181.25
521.6795, 58175.52
522.1616, 58180.80
522.6437, 58198.52
523.1259, 58232.75
523.6080, 58271.76
524.0901, 58306.53
524.5722, 58337.52
525.0543, 58356.28
525.5364, 58355.11
526.0186, 58352.55
526.5007, 58392.15
526.9828, 58464.52
527.4649, 58522.02
527.9470, 58537.65
528.4291, 58523.46
528.9113, 58480.60
529.3934, 58410.52
529.8755, 58362.14
530.3576, 58388.64
530.8397, 58442.17
531.3218, 58476.05
531.8040, 58470.22
532.2861, 58458.05
532.7682, 58460.98
533.2503, 58464.98
533.7324, 58442.36
534.2145, 58333.77
534.6967, 58258.99
535.1788, 58260.89
535.6609, 58341.64
536.1430, 58396.63
536.6251, 58426.61
537.1072, 58430.02
537.5894, 58386.77
538.0715, 58279.35
538.5536, 58252.59
539.0357, 58332.88
539.5178, 58464.29
539.9999, 58563.00
540.4821, 58630.01
540.9642, 58698.81
541.4463, 58796.71
541.9284, 58892.72
542.4105, 58912.41
542.8926, 58866.26
543.3748, 58835.81
543.8569, 58906.51
544.3390, 59005.44
544.8211, 59050.29
545.3032, 59017.59
545.7853, 58985.22
546.2675, 58998.82
546.7495, 59032.45
547.2316, 59055.44
547.7137, 59031.91
548.1959, 59030.22
548.6780, 59083.21
549.1601, 59176.60
549.6422, 59239.97
550.1243, 59271.68
550.6064, 59275.90
551.0886, 59241.48
551.5707, 59157.01
552.0528, 59136.11
552.5349, 59199.66
553.0170, 59277.62
553.4991, 59297.63
553.9813, 59261.58
554.4634, 59202.60
554.9455, 59109.59
555.4276, 59028.34
555.9097, 59060.82
556.3918, 59179.51
556.8740, 59276.57
557.3561, 59275.85
557.8382, 59239.57
558.3203, 59230.45
558.8024, 59249.47
559.2845, 59271.45
559.7667, 59267.03
560.2488, 59270.22
560.7309, 59313.29
561.2130, 59440.58
561.6951, 59531.04
562.1772, 59529.27
562.6594, 59486.66
563.1415, 59480.50
563.6236, 59528.55
564.1057, 59584.74
564.5878, 59642.89
565.0699, 59701.24
565.5521, 59755.23
566.0342, 59802.95
566.5163, 59851.27
566.9984, 59907.77
567.4805, 59970.78
567.9626, 60023.54
568.4448, 60065.98
568.9269, 60100.67
569.4090, 60128.50
569.8911, 60151.31
570.3732, 60174.11
570.8553, 60198.28
571.3375, 60222.94
571.8196, 60251.64
572.3017, 60280.12
572.7838, 60297.17
573.2659, 60299.76
573.7480, 60288.08
574.2302, 60243.10
574.7123, 60163.05
575.1944, 60136.52
575.6765, 60244.63
576.1586, 60360.98
576.6407, 60414.00
577.1229, 60368.74
577.6050, 60339.80
578.0871, 60331.77
578.5692, 60337.39
579.0513, 60345.44
579.5334, 60355.54
580.0156, 60375.26
580.4977, 60401.80
580.9798, 60443.61
581.4619, 60547.55
581.9440, 60703.55
582.4261, 60816.88
582.9083, 60780.18
583.3904, 60682.75
583.8725, 60651.08
584.3546, 60692.21
584.8367, 60761.88
585.3188, 60852.17
585.8010, 60946.10
586.2831, 61028.43
586.7652, 61102.60
587.2473, 61152.39
587.7294, 61160.47
588.2115, 61144.23
588.6937, 61135.83
589.1758, 61146.85
589.6579, 61152.32
590.1400, 61145.80
590.6221, 61129.29
591.1042, 61117.90
591.5864, 61115.09
592.0685, 61107.95
592.5506, 61075.94
593.0327, 61025.09
593.5148, 61033.93
593.9969, 61113.51
594.4791, 61195.35
594.9612, 61197.03
595.4433, 61149.03
595.9254, 61119.53
596.4075, 61138.26
596.8896, 61157.10
597.3718, 61124.89
597.8539, 61064.43
598.3360, 61022.05
598.8181, 61034.93
599.3002, 61051.39
599.7823, 61047.48
600.2645, 61023.45
600.7466, 61005.82
601.2287, 60963.77
601.7108, 60960.95
602.1929, 61035.37
602.6750, 61209.72
603.1572, 61371.74
603.6393, 61534.04
604.1214, 61662.13
604.6035, 61694.79
605.0856, 61635.32
605.5677, 61622.46
606.0499, 61697.32
606.5320, 61802.21
607.0141, 61844.59
607.4962, 61838.70
607.9783, 61833.54
608.4604, 61846.08
608.9425, 61874.58
609.4246, 61928.00
609.9067, 62001.68
610.3889, 62060.14
610.8710, 62075.59
611.3531, 62080.15
611.8352, 62094.07
612.3173, 62127.09
612.7994, 62148.57
613.2816, 62164.84
613.7637, 62165.63
614.2458, 62134.94
614.7279, 62054.02
615.2100, 62005.79
615.6921, 62001.84
616.1743, 62034.24
616.6564, 62106.89
617.1385, 62217.70
617.6206, 62287.80
618.1027, 62248.93
618.5848, 62171.35
619.0670, 62207.32
619.5491, 62337.23
620.0312, 62436.28
620.5133, 62374.99
620.9954, 62278.43
621.4775, 62264.20
621.9597, 62356.72
622.4418, 62443.86
622.9239, 62490.72
623.4060, 62512.23
623.8881, 62520.87
624.3702, 62518.33
624.8524, 62499.12
625.3345, 62448.73
625.8166, 62390.09
626.2987, 62370.06
626.7808, 62400.95
627.2629, 62415.02
627.7451, 62392.19
628.2272, 62341.70
628.7093, 62282.16
629.1914, 62215.24
629.6735, 62160.04
630.1556, 62151.43
630.6378, 62153.50
631.1199, 62109.42
631.6020, 62017.71
632.0841, 61923.81
632.5662, 61849.00
633.0483, 61789.32
633.5305, 61740.72
634.0126, 61701.93
634.4947, 61678.66
634.9768, 61709.00
635.4589, 61738.76
635.9410, 61698.29
636.4232, 61542.60
636.9053, 61406.04
637.3874, 61307.96
637.8695, 61238.48
638.3516, 61180.14
638.8337, 61134.18
639.3159, 61064.72
639.7980, 60942.99
640.2801, 60789.42
640.7622, 60649.24
641.2443, 60523.04
641.7264, 60426.21
