##NAMES=Halotrichite
##RRUFFID=R060118
##IDEAL CHEMISTRY=Fe^2+^Al_2_(S^6+^O_4_)_4_&#183;22H_2_O
##LOCALITY=Alum Canyon, Patagonia Mountains, Arizona, USA
##OWNER=RRUFF
##SOURCE=University of Arizona Mineral Museum
##DESCRIPTION=Colorless acicular single crystals
##STATUS=The identification of this mineral has been made only by X-ray diffraction.
##URL=rruff.info/R060118
92.02539, 211.9348
92.50751, 221.5329
92.98962, 227.6076
93.47174, 223.7281
93.95386, 215.6232
94.43597, 206.8834
94.91809, 199.0900
95.40021, 192.2813
95.88232, 186.0042
96.36444, 181.3497
96.84656, 175.7252
97.32867, 167.9722
97.81078, 159.0478
98.29290, 150.5010
98.77502, 143.4500
99.25713, 137.7597
99.73925, 132.4226
100.2214, 127.3574
100.7035, 122.5962
101.1856, 118.0891
101.6677, 113.8302
102.1498, 109.9202
102.6320, 106.4754
103.1141, 103.4891
103.5962, 101.1092
104.0783, 99.48356
104.5604, 98.35877
105.0425, 97.64700
105.5247, 97.42635
106.0068, 97.18174
106.4889, 95.92841
106.9710, 93.63454
107.4531, 91.09519
107.9352, 88.48380
108.4173, 85.84373
108.8995, 83.40529
109.3816, 81.27675
109.8637, 79.38747
110.3458, 77.60213
110.8279, 75.86391
111.3100, 74.35533
111.7922, 73.34029
112.2743, 72.94229
112.7564, 72.66906
113.2385, 72.41210
113.7206, 72.18288
114.2027, 72.02105
114.6849, 71.95980
115.1670, 71.93288
115.6491, 71.71329
116.1312, 71.26123
116.6133, 70.61631
117.0954, 69.58939
117.5776, 68.40115
118.0597, 67.34539
118.5418, 66.61142
119.0239, 66.19874
119.5060, 66.13667
119.9881, 66.74754
120.4703, 67.33172
120.9524, 67.56797
121.4345, 67.48497
121.9166, 67.35866
122.3987, 67.51194
122.8808, 68.00843
123.3630, 67.92345
123.8451, 66.74928
124.3272, 65.25124
124.8093, 64.18925
125.2914, 63.70698
125.7735, 63.47369
126.2557, 63.09780
126.7378, 62.62056
127.2199, 62.33922
127.7020, 62.54741
128.1841, 63.07069
128.6662, 63.35718
129.1483, 63.30760
129.6305, 62.97703
130.1126, 62.35116
130.5947, 61.46569
131.0768, 60.61961
131.5589, 60.12022
132.0410, 60.02199
132.5232, 59.82746
133.0053, 59.50177
133.4874, 59.03838
133.9695, 58.31047
134.4516, 57.33203
134.9337, 56.36378
135.4159, 55.83165
135.8980, 56.04705
136.3801, 56.12939
136.8622, 56.06020
137.3443, 55.85126
137.8264, 55.44453
138.3086, 54.82845
138.7907, 54.12981
139.2728, 53.71278
139.7549, 54.08802
140.2370, 54.16163
140.7191, 53.70080
141.2013, 52.91307
141.6834, 52.04956
142.1655, 51.20604
142.6476, 50.44815
143.1297, 50.08198
143.6118, 50.45195
144.0939, 50.76735
144.5761, 50.70967
145.0582, 50.32164
145.5403, 49.76657
146.0224, 48.99196
146.5045, 48.17801
146.9866, 47.79412
147.4688, 48.25574
147.9509, 48.82753
148.4330, 48.67952
148.9151, 47.68075
149.3972, 46.78109
149.8793, 46.77205
150.3615, 47.16937
150.8436, 47.39598
151.3257, 47.17389
151.8078, 46.68958
152.2899, 46.36625
152.7720, 46.25240
153.2542, 46.22630
153.7363, 46.37939
154.2184, 46.55332
154.7005, 46.48827
155.1826, 45.96294
155.6647, 45.03315
156.1469, 44.28362
156.6290, 43.76414
157.1111, 43.41244
157.5932, 43.32422
158.0753, 43.39911
158.5574, 43.44354
159.0396, 43.28044
159.5217, 42.87401
160.0038, 42.59060
160.4859, 42.44818
160.9680, 42.39040
161.4501, 42.49239
161.9323, 42.69624
162.4144, 42.80548
162.8965, 42.59217
163.3786, 41.92913
163.8607, 41.49635
164.3428, 41.48401
164.8250, 41.55025
165.3071, 41.37060
165.7892, 40.91146
166.2713, 40.51539
166.7534, 40.68201
167.2355, 41.52539
167.7177, 42.06907
168.1998, 42.11045
168.6819, 41.83355
169.1640, 41.41768
169.6461, 40.86203
170.1282, 40.30935
170.6104, 39.94210
171.0925, 39.73600
171.5746, 39.60658
172.0567, 39.50460
172.5388, 39.45288
173.0209, 39.53355
173.5031, 39.81976
173.9852, 40.16821
174.4673, 40.55029
174.9494, 40.94239
175.4315, 41.10381
175.9136, 40.70168
176.3958, 39.76174
176.8779, 39.08819
177.3600, 38.99020
177.8421, 39.04200
178.3242, 39.02158
178.8063, 38.91348
179.2885, 38.79202
179.7706, 38.73443
180.2527, 38.75358
180.7348, 38.78232
181.2169, 38.91326
181.6990, 38.98199
182.1812, 38.87410
182.6633, 38.58278
183.1454, 38.20436
183.6275, 37.83942
184.1096, 37.36470
184.5917, 37.19794
185.0738, 37.57009
185.5560, 38.03570
186.0381, 38.29945
186.5202, 38.28160
187.0023, 38.08115
187.4844, 37.85527
187.9665, 37.48034
188.4487, 37.29641
188.9308, 37.48237
189.4129, 37.76333
189.8950, 37.88325
190.3771, 37.75767
190.8592, 37.48156
191.3414, 37.22107
191.8235, 36.89839
192.3056, 36.74347
192.7877, 36.96955
193.2698, 37.32624
193.7519, 37.45219
194.2341, 37.19671
194.7162, 36.74844
195.1983, 36.48017
195.6804, 36.38837
196.1625, 36.38832
196.6446, 36.59794
197.1268, 36.88251
197.6089, 36.87473
198.0910, 36.31913
198.5731, 35.63160
199.0552, 35.49228
199.5373, 35.96179
200.0195, 36.51175
200.5016, 36.90845
200.9837, 37.16195
201.4658, 37.32039
201.9479, 37.39776
202.4300, 37.37001
202.9122, 37.20520
203.3943, 36.88939
203.8764, 36.56685
204.3585, 36.33531
204.8406, 36.19397
205.3227, 36.12604
205.8048, 36.13960
206.2870, 36.22747
206.7691, 36.42804
207.2512, 36.74128
207.7333, 37.03128
208.2154, 37.16860
208.6975, 37.15043
209.1797, 36.99312
209.6618, 36.55664
210.1439, 36.07294
210.6260, 35.67217
211.1081, 35.37418
211.5902, 35.10619
212.0724, 34.71890
212.5545, 34.06952
213.0366, 33.75934
213.5187, 34.01454
214.0008, 34.45437
214.4829, 34.99041
214.9651, 35.54451
215.4472, 35.92319
215.9293, 35.74513
216.4114, 34.43224
216.8935, 33.78868
217.3756, 34.29375
217.8578, 35.01258
218.3399, 35.27273
218.8220, 34.94291
219.3041, 34.39122
219.7862, 34.19283
220.2683, 34.64387
220.7505, 34.88486
221.2326, 34.80686
221.7147, 34.61333
222.1968, 34.40611
222.6789, 34.22752
223.1610, 34.15112
223.6432, 34.32173
224.1253, 35.09584
224.6074, 35.31895
225.0895, 34.43251
225.5716, 33.31168
226.0537, 32.80357
226.5358, 33.09469
227.0180, 33.69735
227.5001, 33.94389
227.9822, 33.71706
228.4643, 33.46593
228.9464, 33.01681
229.4285, 32.64717
229.9107, 32.80920
230.3928, 33.62350
230.8749, 34.47949
231.3570, 34.47408
231.8391, 33.51023
232.3212, 32.80750
232.8034, 32.72251
233.2855, 32.93605
233.7676, 33.05970
234.2497, 33.02043
234.7318, 32.91537
235.2139, 32.81349
235.6961, 32.71727
236.1782, 32.71120
236.6603, 32.87108
237.1424, 33.11771
237.6245, 33.35881
238.1066, 33.60794
238.5888, 33.76877
239.0709, 33.72598
239.5530, 33.52154
240.0351, 33.23792
240.5172, 32.75799
240.9993, 32.24443
241.4815, 32.04728
241.9636, 32.27499
242.4457, 32.59193
242.9278, 32.78360
243.4099, 32.88090
243.8920, 32.93284
244.3742, 32.97884
244.8563, 32.99012
245.3384, 32.89212
245.8205, 32.65848
246.3026, 32.37062
246.7847, 32.11077
247.2668, 31.83095
247.7490, 31.42916
248.2311, 30.76389
248.7132, 29.99513
249.1953, 29.53457
249.6774, 29.52717
250.1595, 29.54660
250.6417, 29.33247
251.1238, 29.05421
251.6059, 28.97050
252.0880, 29.27972
252.5701, 29.75297
253.0522, 29.76570
253.5344, 29.02217
254.0165, 28.39345
254.4986, 28.24130
254.9807, 28.28787
255.4628, 28.21849
255.9449, 27.88407
256.4271, 27.41363
256.9092, 27.11371
257.3913, 27.08161
257.8734, 27.04539
258.3555, 26.92982
258.8376, 26.79356
259.3198, 26.70330
259.8019, 26.68620
260.2840, 26.69040
260.7661, 26.59497
261.2482, 26.30713
261.7303, 26.09804
262.2125, 25.97057
262.6946, 25.93224
263.1767, 26.02325
263.6588, 26.24788
264.1409, 26.51920
264.6230, 26.70409
265.1052, 26.86854
265.5873, 26.78700
266.0694, 26.22807
266.5515, 25.60971
267.0336, 25.19335
267.5157, 25.05662
267.9979, 25.16642
268.4800, 25.52732
268.9621, 26.41073
269.4442, 26.93377
269.9263, 27.04406
270.4084, 26.91254
270.8906, 26.51233
271.3727, 25.91363
271.8548, 25.36753
272.3369, 25.19551
272.8190, 25.52832
273.3011, 25.82074
273.7833, 26.12366
274.2654, 26.35492
274.7475, 26.50129
275.2296, 26.54231
275.7117, 26.41057
276.1938, 26.00002
276.6760, 25.21440
277.1581, 24.75808
277.6402, 24.71109
278.1223, 24.83185
278.6044, 25.13130
279.0865, 25.52476
279.5686, 25.80528
280.0508, 25.78869
280.5329, 25.46671
281.0150, 25.25613
281.4971, 25.21184
281.9792, 25.19725
282.4613, 25.19411
282.9435, 25.18195
283.4256, 25.11244
283.9077, 24.94160
284.3898, 24.69204
284.8719, 24.58162
285.3540, 24.71109
285.8362, 24.84164
286.3183, 24.88157
286.8004, 24.88242
287.2825, 24.95870
287.7646, 25.18070
288.2467, 25.48446
288.7289, 25.64378
289.2110, 25.46166
289.6931, 25.38853
290.1752, 25.67890
290.6573, 26.07100
291.1394, 26.13898
291.6216, 25.70362
292.1037, 25.03307
292.5858, 24.67377
293.0679, 24.73681
293.5500, 24.90204
294.0321, 25.24936
294.5143, 25.63728
294.9964, 25.93039
295.4785, 26.09254
295.9606, 26.11024
296.4427, 25.92169
296.9248, 25.37592
297.4070, 25.10949
297.8891, 25.30691
298.3712, 25.69523
298.8533, 26.09320
299.3354, 26.45640
299.8175, 26.73127
300.2997, 26.86416
300.7818, 26.83353
301.2639, 26.69321
301.7460, 26.20727
302.2281, 25.79784
302.7102, 25.88288
303.1924, 26.40325
303.6745, 26.82503
304.1566, 26.70570
304.6387, 26.07148
305.1208, 25.64713
305.6029, 25.48244
306.0851, 25.45098
306.5672, 25.61069
307.0493, 25.87597
307.5314, 25.96408
308.0135, 25.66664
308.4956, 25.10897
308.9778, 24.85230
309.4599, 25.12882
309.9420, 25.35881
310.4241, 25.26719
310.9062, 25.00725
311.3883, 24.90246
311.8705, 25.10814
312.3526, 25.46448
312.8347, 25.60885
313.3168, 25.48974
313.7989, 25.32905
314.2810, 25.09982
314.7632, 24.87692
315.2453, 24.78814
315.7274, 24.87471
316.2095, 25.00095
316.6916, 24.96487
317.1737, 24.70871
317.6559, 24.54990
318.1380, 24.63546
318.6201, 24.75652
319.1022, 24.64449
319.5843, 24.28455
320.0664, 24.01392
320.5485, 24.21883
321.0306, 24.94621
321.5128, 25.26668
321.9949, 24.85901
322.4770, 24.33067
322.9591, 24.05134
323.4412, 24.00833
323.9233, 24.01316
324.4055, 23.93738
324.8876, 23.80485
325.3697, 23.78471
325.8518, 23.95793
326.3339, 24.13624
326.8160, 24.26111
327.2982, 24.33938
327.7803, 24.40047
328.2624, 24.46664
328.7445, 24.50132
329.2266, 24.38846
329.7087, 24.02940
330.1909, 23.72337
330.6730, 23.51916
331.1551, 23.40114
331.6372, 23.34345
332.1193, 23.33817
332.6014, 23.41676
333.0836, 23.66819
333.5657, 24.24958
334.0478, 24.49148
334.5299, 24.11095
335.0120, 23.55343
335.4941, 23.14837
335.9763, 22.94736
336.4584, 22.86558
336.9405, 22.83867
337.4226, 22.87261
337.9047, 22.89651
338.3868, 22.91579
338.8690, 22.92168
339.3511, 22.87773
339.8332, 22.81096
340.3153, 22.80148
340.7974, 22.90461
341.2795, 23.10331
341.7617, 23.29053
342.2438, 23.51172
342.7259, 23.67087
343.2080, 23.81168
343.6901, 23.86182
344.1722, 23.65298
344.6544, 23.10911
345.1365, 22.42685
345.6186, 22.01435
346.1007, 22.02110
346.5828, 22.10720
347.0649, 22.42794
347.5471, 22.73627
348.0292, 22.77395
348.5113, 22.51136
348.9934, 22.14765
349.4755, 21.91351
349.9576, 21.82097
350.4398, 21.83053
350.9219, 21.95996
351.4040, 22.15613
351.8861, 22.50414
352.3682, 22.91345
352.8503, 23.12738
353.3325, 22.91747
353.8146, 22.32439
354.2967, 21.99158
354.7788, 22.19849
355.2609, 22.34531
355.7430, 22.25892
356.2252, 22.04917
356.7073, 21.91012
357.1894, 21.93647
357.6715, 22.00735
358.1536, 21.79873
358.6357, 20.94415
359.1179, 20.37137
359.5999, 20.13871
360.0821, 20.15722
360.5642, 20.46567
361.0463, 21.01747
361.5284, 21.56887
362.0105, 21.80671
362.4926, 21.65039
362.9748, 21.48459
363.4569, 21.27885
363.9390, 21.09289
364.4211, 20.97760
364.9032, 20.90703
365.3853, 20.81228
365.8675, 20.63558
366.3496, 20.38760
366.8317, 20.16210
367.3138, 19.83500
367.7959, 19.70716
368.2780, 19.98130
368.7602, 20.43199
369.2423, 20.81555
369.7244, 21.02997
370.2065, 21.07043
370.6886, 20.87173
371.1707, 20.26480
371.6529, 19.85181
372.1350, 19.84155
372.6171, 19.94809
373.0992, 19.96635
373.5813, 19.87966
374.0634, 19.84119
374.5456, 20.12319
375.0277, 20.75859
375.5098, 20.96984
375.9919, 20.34080
376.4740, 19.70660
376.9561, 19.39813
377.4383, 19.38024
377.9204, 19.56370
378.4025, 20.00186
378.8846, 20.54759
379.3667, 20.75219
379.8488, 20.47830
380.3310, 20.21714
380.8131, 20.27429
381.2952, 20.39811
381.7773, 20.27086
382.2594, 19.75366
382.7415, 19.24785
383.2237, 19.28838
383.7058, 19.87081
384.1879, 20.28116
384.6700, 20.28161
385.1521, 20.11248
385.6342, 19.97799
386.1164, 19.88133
386.5985, 19.81627
387.0806, 19.78395
387.5627, 19.78122
388.0448, 19.80799
388.5269, 19.87352
389.0091, 19.93776
389.4912, 19.99138
389.9733, 20.02137
390.4554, 19.98568
390.9375, 19.79327
391.4196, 19.60787
391.9018, 19.61289
392.3839, 19.78662
392.8660, 19.92218
393.3481, 19.90281
393.8302, 19.81903
394.3123, 19.88132
394.7945, 20.17774
395.2766, 20.33098
395.7587, 19.92596
396.2408, 19.34734
396.7229, 19.34208
397.2050, 19.89231
397.6872, 20.21084
398.1693, 20.41301
398.6514, 20.50509
399.1335, 20.15736
399.6156, 20.37756
400.0977, 20.37016
400.5798, 20.35342
401.0620, 20.65357
401.5441, 20.36980
402.0262, 20.66492
402.5083, 20.72895
402.9904, 20.89874
403.4725, 20.83952
403.9547, 20.84479
404.4368, 20.88021
404.9189, 20.92612
405.4010, 21.00675
405.8831, 21.12819
406.3652, 21.27009
406.8474, 21.40571
407.3295, 21.54283
407.8116, 21.64436
408.2937, 21.67303
408.7758, 21.70302
409.2579, 21.77651
409.7401, 21.88984
410.2222, 22.02688
410.7043, 22.18786
411.1864, 22.35754
411.6685, 22.40078
412.1506, 21.97404
412.6328, 21.85753
413.1149, 22.49458
413.5970, 23.34725
414.0791, 23.78055
414.5612, 23.58817
415.0433, 23.13509
415.5255, 22.99484
416.0076, 23.26791
416.4897, 23.50615
416.9718, 23.78868
417.4539, 23.93694
417.9360, 23.68090
418.4182, 23.16945
418.9003, 22.89716
419.3824, 23.32941
419.8645, 24.27437
420.3466, 24.88605
420.8287, 25.10029
421.3109, 25.09440
421.7930, 24.75847
422.2751, 24.33151
422.7572, 24.09838
423.2393, 24.15835
423.7214, 24.32014
424.2036, 24.44251
424.6857, 24.51960
425.1678, 24.36367
425.6499, 23.69244
426.1320, 23.08636
426.6141, 23.20967
427.0963, 23.95827
427.5784, 24.51256
428.0605, 24.36992
428.5426, 23.88982
429.0247, 23.63658
429.5068, 23.65017
429.9890, 23.65722
430.4711, 23.42384
430.9532, 23.07560
431.4353, 23.01068
431.9174, 23.46183
432.3995, 23.85233
432.8817, 23.89067
433.3638, 23.66042
433.8459, 23.01920
434.3280, 23.27186
434.8101, 23.40818
435.2922, 23.43441
435.7744, 23.02081
436.2565, 23.17516
436.7386, 23.10191
437.2207, 23.01932
437.7028, 23.25360
438.1849, 22.90398
438.6671, 23.06490
439.1492, 23.13899
439.6313, 23.32475
440.1134, 23.34362
440.5955, 22.91451
441.0776, 23.20477
441.5598, 23.37869
442.0418, 23.44252
442.5240, 23.06653
443.0061, 23.25847
443.4882, 23.22281
443.9703, 23.17781
444.4524, 23.44969
444.9345, 23.13767
445.4167, 23.40452
445.8988, 23.37808
446.3809, 23.72901
446.8630, 24.24124
447.3451, 24.56512
447.8272, 24.47650
448.3094, 24.13367
448.7915, 23.91700
449.2736, 23.82939
449.7557, 23.86173
450.2378, 24.19508
450.7199, 24.52566
451.2021, 24.59871
451.6842, 24.39840
452.1663, 24.16514
452.6484, 24.04654
453.1305, 24.04443
453.6126, 24.21729
454.0948, 24.66639
454.5769, 25.05286
455.0590, 25.07432
455.5411, 24.88333
456.0232, 24.72383
456.5053, 24.61939
456.9875, 24.60320
457.4696, 24.75585
457.9517, 25.03792
458.4338, 25.26956
458.9159, 25.38645
459.3980, 25.43840
459.8802, 25.51090
460.3623, 25.61824
460.8444, 25.63424
461.3265, 25.39543
461.8086, 25.15175
462.2907, 25.16384
462.7729, 25.41479
463.2550, 25.69511
463.7371, 25.87591
464.2192, 25.96095
464.7013, 25.97373
465.1834, 25.83498
465.6656, 25.73018
466.1477, 25.73845
466.6298, 25.76638
467.1119, 25.71021
467.5940, 25.54750
468.0761, 25.33247
468.5583, 25.13688
469.0404, 24.97630
469.5225, 24.72211
470.0046, 24.13462
470.4867, 23.70371
470.9688, 23.68211
471.4510, 23.89816
471.9331, 24.06799
472.4152, 24.05479
472.8973, 23.94781
473.3794, 23.94291
473.8615, 24.09717
474.3437, 24.10596
474.8258, 23.67638
475.3079, 23.27899
475.7900, 23.32238
476.2721, 23.72568
476.7542, 23.97920
477.2364, 23.52396
477.7185, 22.75018
478.2006, 22.72005
478.6827, 23.61389
479.1648, 24.16560
479.6469, 23.41677
480.1291, 22.04828
480.6112, 21.34162
481.0933, 21.57919
481.5754, 21.83626
482.0575, 21.52540
482.5396, 20.94514
483.0217, 20.67733
483.5038, 20.84549
483.9860, 21.14649
484.4681, 21.31293
484.9502, 21.33591
485.4323, 21.32328
485.9144, 21.32148
486.3965, 21.23823
486.8787, 20.98752
487.3608, 20.63537
487.8429, 20.28768
488.3250, 19.98597
488.8071, 19.73591
489.2892, 19.54465
489.7714, 19.38494
490.2535, 19.35814
490.7356, 19.64740
491.2177, 19.87716
491.6998, 19.88496
492.1819, 19.67282
492.6641, 19.23804
493.1462, 18.51302
493.6283, 17.71036
494.1104, 17.55447
494.5925, 18.39853
495.0746, 18.92936
495.5568, 18.43160
496.0389, 17.79472
496.5210, 17.69672
497.0031, 18.15678
497.4852, 18.62686
497.9673, 18.69253
498.4495, 18.47707
498.9316, 18.30038
499.4137, 18.16786
499.8958, 18.10230
500.3779, 18.17457
500.8600, 18.30375
501.3422, 18.32811
501.8243, 18.22935
502.3064, 18.04802
502.7885, 17.67986
503.2706, 17.27308
503.7527, 17.13120
504.2349, 17.32338
504.7170, 17.60157
505.1991, 17.72681
505.6812, 17.68956
506.1633, 17.67242
506.6454, 17.66285
507.1276, 17.68443
507.6097, 17.80821
508.0918, 17.95102
508.5739, 17.96789
509.0560, 17.80889
509.5381, 17.57684
510.0203, 17.44194
510.5024, 17.44800
510.9845, 17.40054
511.4666, 17.15104
511.9487, 16.99585
512.4308, 17.09572
512.9130, 17.37142
513.3951, 17.68410
513.8772, 17.99272
514.3593, 18.21691
514.8414, 18.13012
515.3235, 17.66435
515.8057, 17.42435
516.2878, 17.78186
516.7699, 18.17151
517.2520, 18.05351
517.7341, 17.49600
518.2162, 17.01772
518.6984, 16.87360
519.1805, 16.90423
519.6626, 16.89788
520.1447, 16.85904
520.6268, 16.92161
521.1089, 16.90808
521.5911, 17.27973
522.0732, 17.48932
522.5553, 17.54553
523.0374, 16.98902
523.5195, 17.22372
524.0016, 17.14133
524.4838, 17.04595
524.9659, 17.39200
525.4480, 16.92461
525.9301, 17.26367
526.4122, 17.28080
526.8943, 17.44527
527.3765, 17.29071
527.8586, 17.23468
528.3407, 17.49780
528.8228, 17.58420
529.3049, 17.39290
529.7870, 17.56674
530.2692, 17.08821
530.7513, 17.18214
531.2334, 17.52306
531.7155, 17.34781
532.1976, 17.63530
532.6797, 17.98515
533.1619, 18.13295
533.6440, 18.11380
534.1261, 17.87729
534.6082, 17.37494
535.0903, 16.98627
535.5724, 17.10209
536.0546, 17.47761
536.5367, 17.54770
537.0188, 17.22404
537.5009, 16.87223
537.9830, 16.76507
538.4651, 16.85773
538.9473, 16.88071
539.4294, 16.75767
539.9115, 16.66753
540.3936, 16.65438
540.8757, 16.70371
541.3578, 16.83905
541.8400, 17.04514
542.3221, 17.19555
542.8042, 17.12916
543.2863, 16.83855
543.7684, 16.79667
544.2505, 17.37475
544.7326, 17.75643
545.2147, 17.62368
545.6968, 17.30047
546.1790, 17.18092
546.6611, 17.35270
547.1432, 17.52897
547.6253, 17.33094
548.1074, 16.80372
548.5895, 16.48866
549.0717, 16.46120
549.5538, 16.52952
550.0359, 16.63910
550.5180, 16.75716
551.0001, 16.83429
551.4822, 16.86070
551.9644, 16.84898
552.4465, 16.78640
552.9286, 16.69508
553.4107, 16.62498
553.8928, 16.58630
554.3749, 16.53562
554.8571, 16.40493
555.3392, 16.20228
555.8213, 16.21557
556.3034, 16.78397
556.7855, 17.12365
557.2676, 16.80529
557.7498, 16.25928
558.2319, 16.01330
558.7140, 16.17922
559.1961, 16.49322
559.6782, 16.68709
560.1603, 16.75977
560.6425, 16.74106
561.1246, 16.53039
561.6067, 16.37707
562.0888, 16.36408
562.5709, 16.43809
563.0530, 16.57106
563.5352, 16.76056
564.0173, 16.89038
564.4994, 16.79384
564.9815, 16.55498
565.4636, 16.49728
565.9457, 16.70003
566.4279, 16.81435
566.9100, 16.52136
567.3921, 15.96837
567.8742, 15.68858
568.3563, 15.80294
568.8384, 15.98481
569.3206, 16.22977
569.8027, 16.42864
570.2848, 16.35997
570.7669, 16.04082
571.2490, 15.81541
571.7311, 16.01565
572.2133, 16.58572
572.6954, 16.90426
573.1775, 16.83831
573.6596, 16.68685
574.1417, 16.36791
574.6238, 16.06320
575.1060, 15.93981
575.5881, 16.00785
576.0702, 16.15001
576.5523, 16.31505
577.0344, 16.47263
577.5165, 16.47808
577.9987, 16.28550
578.4808, 16.14169
578.9629, 16.15434
579.4450, 16.27501
579.9271, 16.43822
580.4092, 16.64958
580.8914, 16.85593
581.3735, 17.10694
581.8556, 17.29917
582.3377, 17.26744
582.8198, 17.04169
583.3019, 16.82804
583.7841, 16.74084
584.2662, 16.75617
584.7483, 16.80725
585.2304, 16.88098
585.7125, 17.01842
586.1946, 17.32058
586.6768, 17.59406
587.1589, 17.68048
587.6410, 17.63453
588.1231, 17.64045
588.6052, 17.82688
589.0873, 18.05751
589.5695, 17.96748
