##NAMES=Halotrichite
##RRUFFID=R070673
##IDEAL CHEMISTRY=Fe^2+^Al_2_(S^6+^O_4_)_4_&#183;22H_2_O
##LOCALITY=Orphan mine, Grand Canyon, Coconino County, Arizona, USA
##OWNER=RRUFF
##SOURCE=Malcolm Alter
##DESCRIPTION=Loose aggregates of pale blue silky fibers
##STATUS=The identification of this mineral is confirmed by single-crystal X-ray diffraction and chemical analysis.
##URL=rruff.info/R070673
##MEASURED CHEMISTRY=(Fe_0.98_Ni_0.02_)_Σ=1_Al_2.00_(S_1.00_O_4_)_4_·22H_2_O; H_2_O estimated by difference
148.9055, 1853.083
149.3877, 1858.487
149.8698, 1828.309
150.3519, 1806.003
150.8340, 1795.108
151.3161, 1794.758
151.7982, 1795.430
152.2804, 1794.678
152.7625, 1795.850
153.2446, 1801.313
153.7267, 1826.441
154.2088, 1841.051
154.6909, 1835.391
155.1731, 1805.897
155.6552, 1778.108
156.1373, 1755.789
156.6194, 1738.014
157.1015, 1723.535
157.5836, 1717.756
158.0658, 1710.961
158.5479, 1696.688
159.0300, 1665.830
159.5121, 1646.394
159.9942, 1655.915
160.4763, 1683.784
160.9585, 1705.628
161.4406, 1711.702
161.9227, 1709.168
162.4048, 1702.290
162.8869, 1683.902
163.3690, 1670.566
163.8512, 1676.644
164.3333, 1698.370
164.8154, 1711.507
165.2975, 1696.566
165.7796, 1669.193
166.2617, 1646.241
166.7439, 1629.538
167.2260, 1622.089
167.7081, 1631.447
168.1902, 1658.903
168.6723, 1681.886
169.1544, 1682.012
169.6366, 1667.765
170.1187, 1653.968
170.6008, 1650.347
171.0829, 1649.164
171.5650, 1639.932
172.0471, 1617.802
172.5293, 1600.777
173.0114, 1612.768
173.4935, 1645.277
173.9756, 1670.345
174.4577, 1667.106
174.9398, 1647.484
175.4220, 1627.506
175.9041, 1607.404
176.3862, 1592.703
176.8683, 1593.039
177.3504, 1606.943
177.8326, 1621.986
178.3147, 1627.552
178.7968, 1626.982
179.2789, 1628.519
179.7610, 1639.589
180.2431, 1651.614
180.7253, 1646.440
181.2074, 1623.249
181.6895, 1600.001
182.1716, 1598.950
182.6537, 1614.821
183.1358, 1626.156
183.6179, 1619.370
184.1001, 1601.055
184.5822, 1590.330
185.0643, 1588.226
185.5464, 1590.462
186.0285, 1591.457
186.5106, 1591.467
186.9928, 1593.002
187.4749, 1599.036
187.9570, 1608.268
188.4391, 1614.512
188.9212, 1616.603
189.4033, 1616.201
189.8855, 1616.164
190.3676, 1616.469
190.8497, 1616.387
191.3318, 1613.919
191.8139, 1609.488
192.2960, 1609.604
192.7782, 1617.651
193.2603, 1629.581
193.7424, 1632.266
194.2245, 1624.548
194.7066, 1614.382
195.1887, 1606.217
195.6709, 1599.903
196.1530, 1604.137
196.6351, 1627.423
197.1172, 1664.889
197.5993, 1681.873
198.0814, 1675.083
198.5636, 1657.581
199.0457, 1642.861
199.5278, 1630.581
200.0099, 1622.958
200.4920, 1624.714
200.9741, 1636.158
201.4563, 1631.246
201.9384, 1602.956
202.4205, 1569.031
202.9026, 1562.390
203.3847, 1589.180
203.8668, 1617.234
204.3490, 1631.194
204.8311, 1628.677
205.3132, 1628.517
205.7953, 1632.329
206.2774, 1637.979
206.7595, 1639.365
207.2417, 1634.724
207.7238, 1630.550
208.2059, 1633.989
208.6880, 1650.488
209.1701, 1649.234
209.6522, 1619.352
210.1344, 1570.628
210.6165, 1548.833
211.0986, 1563.092
211.5807, 1586.378
212.0628, 1598.622
212.5449, 1597.516
213.0271, 1593.302
213.5092, 1586.398
213.9913, 1577.160
214.4734, 1571.156
214.9555, 1570.016
215.4376, 1569.782
215.9198, 1566.263
216.4019, 1557.953
216.8840, 1550.188
217.3661, 1544.193
217.8482, 1540.110
218.3303, 1535.735
218.8125, 1530.733
219.2946, 1525.734
219.7767, 1521.664
220.2588, 1518.949
220.7409, 1516.087
221.2230, 1511.509
221.7052, 1503.260
222.1873, 1503.105
222.6694, 1515.965
223.1515, 1533.807
223.6336, 1541.397
224.1157, 1534.087
224.5978, 1524.665
225.0800, 1517.377
225.5621, 1511.599
226.0442, 1510.416
226.5263, 1517.540
227.0084, 1528.212
227.4905, 1529.036
227.9727, 1513.101
228.4548, 1497.631
228.9369, 1492.049
229.4190, 1503.263
229.9011, 1508.621
230.3832, 1506.312
230.8654, 1479.310
231.3475, 1499.870
231.8296, 1510.602
232.3117, 1512.036
232.7938, 1476.320
233.2759, 1488.576
233.7581, 1481.606
234.2402, 1473.848
234.7223, 1492.855
235.2044, 1462.543
235.6865, 1481.125
236.1686, 1480.190
236.6508, 1488.187
237.1329, 1476.841
237.6150, 1471.470
238.0971, 1485.448
238.5792, 1488.713
239.0613, 1475.140
239.5435, 1483.705
240.0256, 1452.716
240.5077, 1456.437
240.9898, 1475.133
241.4719, 1462.533
241.9540, 1471.452
242.4362, 1472.175
242.9183, 1459.322
243.4004, 1456.386
243.8825, 1449.843
244.3646, 1447.783
244.8467, 1455.040
245.3289, 1458.252
245.8110, 1452.422
246.2931, 1434.862
246.7752, 1424.257
247.2573, 1423.774
247.7394, 1428.065
248.2216, 1429.314
248.7037, 1425.424
249.1858, 1422.154
249.6679, 1421.861
250.1500, 1426.220
250.6321, 1427.066
251.1143, 1424.999
251.5964, 1419.053
252.0785, 1405.992
252.5606, 1378.933
253.0427, 1356.403
253.5248, 1345.664
254.0070, 1349.905
254.4891, 1355.876
254.9712, 1364.053
255.4533, 1373.673
255.9354, 1383.973
256.4175, 1398.431
256.8997, 1407.538
257.3818, 1406.934
257.8639, 1394.628
258.3460, 1376.953
258.8281, 1347.995
259.3102, 1315.820
259.7924, 1303.653
260.2745, 1320.230
260.7566, 1340.863
261.2387, 1354.243
261.7208, 1360.065
262.2029, 1357.932
262.6851, 1343.718
263.1672, 1322.457
263.6493, 1312.742
264.1314, 1318.911
264.6135, 1327.737
265.0956, 1331.468
265.5778, 1328.784
266.0599, 1325.424
266.5420, 1321.721
267.0241, 1317.696
267.5062, 1313.245
267.9883, 1308.096
268.4705, 1303.148
268.9526, 1298.417
269.4347, 1293.213
269.9168, 1292.199
270.3989, 1298.284
270.8810, 1308.662
271.3632, 1309.731
271.8453, 1297.959
272.3274, 1285.910
272.8095, 1284.482
273.2916, 1296.276
273.7737, 1304.312
274.2559, 1305.423
274.7380, 1301.010
275.2201, 1297.903
275.7022, 1297.244
276.1843, 1294.533
276.6664, 1282.192
277.1486, 1257.995
277.6307, 1246.423
278.1128, 1256.788
278.5949, 1282.745
279.0770, 1294.971
279.5591, 1291.599
280.0413, 1281.810
280.5234, 1271.631
281.0055, 1260.838
281.4876, 1254.927
281.9697, 1256.798
282.4518, 1264.085
282.9340, 1265.469
283.4161, 1259.416
283.8982, 1255.459
284.3803, 1267.002
284.8624, 1293.342
285.3445, 1310.808
285.8266, 1309.240
286.3087, 1295.310
286.7909, 1294.252
287.2730, 1307.792
287.7551, 1321.521
288.2372, 1316.631
288.7193, 1295.851
289.2014, 1284.478
289.6836, 1295.119
290.1657, 1318.448
290.6478, 1328.255
291.1299, 1323.869
291.6120, 1313.344
292.0941, 1300.669
292.5763, 1287.174
293.0584, 1279.597
293.5405, 1282.049
294.0226, 1291.073
294.5047, 1300.646
294.9868, 1310.960
295.4690, 1319.078
295.9511, 1323.732
296.4332, 1324.352
296.9153, 1318.350
297.3974, 1296.643
297.8795, 1272.203
298.3617, 1270.271
298.8438, 1291.038
299.3259, 1314.536
299.8080, 1323.271
300.2901, 1321.410
300.7722, 1318.862
301.2544, 1320.121
301.7365, 1321.947
302.2186, 1318.499
302.7007, 1309.931
303.1828, 1303.190
303.6649, 1307.068
304.1471, 1316.482
304.6292, 1322.320
305.1113, 1320.145
305.5934, 1313.542
306.0755, 1301.519
306.5576, 1284.641
307.0398, 1276.421
307.5219, 1294.039
308.0040, 1324.532
308.4861, 1349.593
308.9682, 1362.876
309.4503, 1368.364
309.9325, 1366.706
310.4146, 1358.338
310.8967, 1350.284
311.3788, 1346.991
311.8609, 1346.233
312.3430, 1345.494
312.8252, 1342.587
313.3073, 1340.575
313.7894, 1343.090
314.2715, 1349.563
314.7536, 1352.410
315.2357, 1342.712
315.7179, 1329.965
316.2000, 1323.133
316.6821, 1329.870
317.1642, 1338.368
317.6463, 1346.689
318.1284, 1354.268
318.6106, 1355.008
319.0927, 1338.117
319.5748, 1318.056
320.0569, 1306.291
320.5390, 1314.641
321.0211, 1322.200
321.5033, 1325.468
321.9854, 1324.235
322.4675, 1316.575
322.9496, 1292.426
323.4317, 1267.431
323.9138, 1252.140
324.3960, 1255.672
324.8781, 1260.469
325.3602, 1264.674
325.8423, 1268.252
326.3244, 1271.631
326.8065, 1278.388
327.2887, 1282.509
327.7708, 1280.437
328.2529, 1259.283
328.7350, 1248.063
329.2171, 1252.234
329.6992, 1269.285
330.1814, 1284.025
330.6635, 1300.906
331.1456, 1311.192
331.6277, 1308.929
332.1098, 1284.049
332.5919, 1265.079
333.0741, 1256.759
333.5562, 1255.672
334.0383, 1245.558
334.5204, 1216.813
335.0025, 1194.367
335.4846, 1194.965
335.9668, 1228.530
336.4489, 1253.911
336.9310, 1268.639
337.4131, 1273.732
337.8952, 1269.295
338.3773, 1251.585
338.8595, 1235.549
339.3416, 1232.781
339.8237, 1246.013
340.3058, 1246.856
340.7879, 1230.172
341.2701, 1204.827
341.7522, 1187.595
342.2343, 1178.475
342.7164, 1177.563
343.1985, 1188.931
343.6806, 1211.407
344.1628, 1228.420
344.6449, 1239.337
345.1270, 1244.648
345.6091, 1244.375
346.0912, 1238.673
346.5733, 1230.201
347.0555, 1216.642
347.5376, 1200.976
348.0197, 1194.225
348.5018, 1198.093
348.9839, 1204.692
349.4660, 1203.155
349.9482, 1195.656
350.4303, 1190.732
350.9124, 1195.176
351.3945, 1203.775
351.8766, 1208.169
352.3587, 1207.740
352.8409, 1205.917
353.3230, 1207.313
353.8051, 1209.586
354.2872, 1208.053
354.7693, 1194.604
355.2514, 1180.240
355.7336, 1175.540
356.2157, 1180.768
356.6978, 1189.818
357.1799, 1203.431
357.6620, 1217.298
358.1441, 1226.080
358.6263, 1224.574
359.1084, 1220.190
359.5905, 1216.172
360.0726, 1212.601
360.5547, 1209.804
361.0368, 1208.539
361.5190, 1207.797
362.0011, 1206.685
362.4832, 1185.020
362.9653, 1207.302
363.4474, 1219.758
363.9295, 1222.914
364.4117, 1188.921
364.8938, 1202.899
365.3759, 1197.652
365.8580, 1191.617
366.3401, 1212.347
366.8222, 1183.757
367.3044, 1204.062
367.7865, 1204.849
368.2686, 1214.569
368.7507, 1204.946
369.2328, 1201.297
369.7149, 1216.998
370.1970, 1221.985
370.6791, 1210.135
371.1613, 1220.422
371.6434, 1191.437
372.1255, 1186.284
372.6076, 1186.900
373.0897, 1187.464
373.5718, 1185.906
374.0540, 1182.266
374.5361, 1175.432
375.0182, 1162.279
375.5003, 1149.189
375.9824, 1148.065
376.4645, 1161.855
376.9467, 1175.830
377.4288, 1184.621
377.9109, 1188.243
378.3930, 1191.186
378.8751, 1192.933
379.3572, 1195.506
379.8394, 1204.501
380.3215, 1219.514
380.8036, 1226.408
381.2857, 1215.698
381.7678, 1194.386
382.2499, 1183.605
382.7321, 1183.827
383.2142, 1188.337
383.6963, 1189.251
384.1784, 1189.026
384.6605, 1196.241
385.1426, 1219.554
385.6248, 1245.552
386.1069, 1252.796
386.5890, 1243.339
387.0711, 1232.909
387.5532, 1235.409
388.0353, 1242.974
388.5175, 1244.517
388.9996, 1234.055
389.4817, 1222.360
389.9638, 1215.628
390.4459, 1213.832
390.9280, 1217.111
391.4102, 1233.902
391.8923, 1250.574
392.3744, 1255.820
392.8565, 1242.385
393.3386, 1230.587
393.8207, 1228.113
394.3029, 1232.550
394.7850, 1239.495
395.2671, 1246.447
395.7492, 1256.698
396.2313, 1275.091
396.7134, 1308.432
397.1956, 1326.292
397.6777, 1310.506
398.1598, 1281.864
398.6419, 1265.444
399.1240, 1268.645
399.6061, 1276.647
400.0883, 1287.820
400.5704, 1302.392
401.0525, 1317.393
401.5346, 1335.727
402.0167, 1351.518
402.4988, 1358.797
402.9810, 1353.485
403.4631, 1349.730
403.9452, 1350.194
404.4273, 1353.938
404.9094, 1354.077
405.3915, 1347.432
405.8737, 1346.333
406.3558, 1363.383
406.8379, 1400.122
407.3200, 1428.781
407.8021, 1446.763
408.2842, 1455.191
408.7664, 1451.725
409.2485, 1436.359
409.7306, 1425.679
410.2127, 1433.221
410.6948, 1453.480
411.1769, 1465.440
411.6591, 1465.716
412.1412, 1467.302
412.6233, 1491.439
413.1054, 1530.513
413.5875, 1562.361
414.0696, 1572.819
414.5518, 1572.203
415.0339, 1570.255
415.5160, 1567.217
415.9981, 1566.395
416.4802, 1570.253
416.9623, 1577.750
417.4445, 1587.352
417.9266, 1599.946
418.4087, 1613.326
418.8908, 1630.445
419.3729, 1649.391
419.8550, 1658.684
420.3372, 1643.604
420.8193, 1623.388
421.3014, 1611.680
421.7835, 1617.134
422.2656, 1622.345
422.7477, 1622.410
423.2299, 1619.930
423.7120, 1622.261
424.1941, 1636.977
424.6762, 1650.546
425.1583, 1657.415
425.6404, 1653.229
426.1226, 1655.098
426.6047, 1669.989
427.0868, 1686.611
427.5689, 1686.539
428.0510, 1661.055
428.5331, 1638.341
429.0153, 1627.039
429.4974, 1626.955
429.9795, 1622.670
430.4616, 1613.145
430.9437, 1601.939
431.4258, 1591.248
431.9080, 1580.928
432.3901, 1576.235
432.8722, 1580.189
433.3543, 1588.912
433.8364, 1592.319
434.3185, 1590.554
434.8007, 1589.027
435.2828, 1593.528
435.7649, 1601.286
436.2470, 1604.955
436.7291, 1602.959
437.2112, 1598.260
437.6934, 1593.419
438.1755, 1588.427
438.6576, 1583.224
439.1397, 1572.661
439.6218, 1564.904
440.1039, 1570.547
440.5861, 1591.914
441.0682, 1610.397
441.5503, 1612.693
442.0324, 1607.239
442.5145, 1604.144
442.9966, 1608.783
443.4788, 1614.079
443.9609, 1615.994
444.4430, 1615.045
444.9251, 1618.903
445.4072, 1634.455
445.8893, 1651.602
446.3715, 1664.371
446.8536, 1667.630
447.3357, 1672.781
447.8178, 1682.619
448.2999, 1694.276
448.7820, 1699.609
449.2642, 1695.501
449.7463, 1690.012
450.2284, 1684.275
450.7105, 1676.308
451.1926, 1682.047
451.6747, 1707.287
452.1568, 1737.099
452.6389, 1748.924
453.1211, 1740.708
453.6032, 1737.643
454.0853, 1749.170
454.5674, 1771.018
455.0495, 1790.735
455.5316, 1808.636
456.0138, 1819.575
456.4959, 1814.884
456.9780, 1799.691
457.4601, 1788.454
457.9422, 1786.055
458.4243, 1785.444
458.9065, 1774.005
459.3886, 1756.314
459.8707, 1747.420
460.3528, 1764.623
460.8349, 1789.529
461.3170, 1806.647
461.7992, 1813.985
462.2813, 1814.911
462.7634, 1808.028
463.2455, 1796.533
463.7276, 1784.636
464.2097, 1768.218
464.6919, 1756.812
465.1740, 1756.931
465.6561, 1768.534
466.1382, 1774.016
466.6203, 1767.587
467.1024, 1757.079
467.5846, 1746.921
468.0667, 1733.414
468.5488, 1726.608
469.0309, 1730.340
469.5130, 1740.177
469.9951, 1745.235
470.4773, 1746.223
470.9594, 1740.548
471.4415, 1723.749
471.9236, 1694.388
472.4057, 1677.330
472.8878, 1675.375
473.3700, 1678.296
473.8521, 1675.383
474.3342, 1666.696
474.8163, 1651.713
475.2984, 1623.998
475.7805, 1594.274
476.2627, 1593.124
476.7448, 1617.714
477.2269, 1632.058
477.7090, 1595.026
478.1911, 1535.367
478.6732, 1497.307
479.1554, 1495.309
479.6375, 1501.027
480.1196, 1490.814
480.6017, 1472.585
481.0838, 1462.949
481.5659, 1481.429
482.0481, 1499.720
482.5302, 1503.397
483.0123, 1490.443
483.4944, 1470.650
483.9765, 1439.177
484.4586, 1405.686
484.9408, 1378.327
485.4229, 1358.207
485.9050, 1343.987
486.3871, 1337.172
486.8692, 1336.460
487.3513, 1336.959
487.8335, 1343.427
488.3156, 1343.335
488.7977, 1326.623
489.2798, 1287.552
489.7619, 1265.413
490.2440, 1265.340
490.7262, 1273.508
491.2083, 1267.671
491.6904, 1247.987
492.1725, 1232.509
492.6546, 1229.745
493.1367, 1234.913
493.6189, 1235.757
494.1010, 1232.382
494.5831, 1229.122
495.0652, 1231.875
495.5473, 1236.671
496.0294, 1236.620
496.5116, 1229.974
496.9937, 1218.925
497.4758, 1197.048
497.9579, 1171.727
498.4400, 1159.881
498.9221, 1187.789
499.4043, 1215.741
499.8864, 1217.606
500.3685, 1186.568
500.8506, 1165.903
501.3327, 1175.851
501.8148, 1195.104
502.2970, 1204.427
502.7791, 1192.004
503.2612, 1183.031
503.7433, 1182.261
504.2254, 1186.871
504.7076, 1184.257
505.1897, 1170.581
505.6718, 1157.152
506.1539, 1149.498
506.6360, 1148.219
507.1181, 1148.270
507.6003, 1149.830
508.0824, 1152.379
508.5645, 1156.697
509.0466, 1162.336
509.5287, 1163.925
510.0108, 1157.063
510.4930, 1146.740
510.9751, 1143.812
511.4572, 1147.600
511.9393, 1150.961
512.4214, 1146.952
512.9035, 1140.244
513.3856, 1136.541
513.8677, 1136.815
514.3499, 1140.235
514.8320, 1151.919
515.3141, 1165.614
515.7962, 1170.582
516.2783, 1155.277
516.7604, 1138.316
517.2426, 1124.213
517.7247, 1113.069
518.2068, 1111.016
518.6889, 1129.017
519.1710, 1149.065
519.6531, 1160.550
520.1353, 1160.711
520.6174, 1156.871
521.0995, 1145.786
521.5816, 1132.858
522.0637, 1133.080
522.5458, 1150.929
523.0280, 1162.709
523.5101, 1153.607
523.9922, 1128.079
524.4743, 1121.309
524.9564, 1135.166
525.4385, 1152.969
525.9207, 1157.454
526.4028, 1152.684
526.8849, 1150.626
527.3670, 1155.844
527.8491, 1161.827
528.3312, 1161.106
528.8134, 1155.332
529.2955, 1149.365
529.7776, 1148.583
530.2597, 1146.473
530.7418, 1135.194
531.2239, 1111.896
531.7061, 1098.023
532.1882, 1112.381
532.6703, 1133.614
533.1524, 1142.076
533.6345, 1121.153
534.1166, 1104.343
534.5988, 1096.684
535.0809, 1095.418
535.5630, 1090.506
536.0451, 1078.991
536.5272, 1069.352
537.0093, 1066.872
537.4915, 1072.690
537.9736, 1069.111
538.4557, 1053.004
538.9378, 1036.606
539.4199, 1038.174
539.9020, 1054.670
540.3842, 1062.811
540.8663, 1053.281
541.3484, 1036.904
541.8305, 1031.597
542.3126, 1035.184
542.7947, 1037.530
543.2769, 1031.010
543.7590, 1021.220
544.2411, 1012.006
544.7232, 1003.085
545.2053, 1000.117
545.6874, 1011.616
546.1696, 1028.118
546.6517, 1039.394
547.1338, 1042.587
547.6159, 1040.715
548.0980, 1030.661
548.5801, 1014.995
549.0623, 1004.544
549.5444, 999.9059
550.0265, 999.7487
550.5086, 1005.558
550.9907, 1019.775
551.4728, 1023.840
551.9550, 1014.592
552.4371, 1002.192
552.9192, 998.8100
553.4013, 1004.133
553.8834, 1010.505
554.3655, 1018.392
554.8477, 1023.555
555.3298, 1014.224
555.8119, 993.1826
556.2940, 975.7286
556.7761, 971.8992
557.2582, 976.2376
557.7404, 984.8340
558.2225, 998.0189
558.7046, 1007.799
559.1867, 1006.397
559.6688, 1000.848
560.1509, 998.3660
560.6331, 1003.624
561.1152, 1008.915
561.5973, 1012.552
562.0794, 1014.985
562.5615, 1018.045
563.0436, 1023.129
563.5258, 1026.944
564.0079, 1027.536
564.4900, 1024.244
564.9721, 1024.614
565.4542, 1029.433
565.9363, 1036.121
566.4185, 1044.513
566.9006, 1054.119
567.3827, 1055.432
567.8648, 1044.578
568.3469, 1028.387
568.8290, 1015.344
569.3112, 1005.959
569.7933, 1002.945
570.2754, 1012.825
570.7575, 1026.595
571.2396, 1035.318
571.7217, 1038.526
572.2039, 1040.850
572.6860, 1042.432
573.1681, 1045.376
573.6502, 1051.593
574.1323, 1065.172
574.6144, 1076.873
575.0966, 1086.039
575.5787, 1092.373
576.0608, 1094.896
576.5429, 1091.573
577.0250, 1087.680
577.5071, 1084.005
577.9893, 1080.682
578.4714, 1079.905
578.9535, 1081.594
579.4356, 1086.087
579.9177, 1095.897
580.3998, 1109.836
580.8820, 1118.256
581.3641, 1119.225
581.8462, 1117.573
582.3283, 1116.178
582.8104, 1116.697
583.2925, 1123.226
583.7747, 1146.584
584.2568, 1169.379
584.7389, 1176.484
585.2210, 1170.398
585.7031, 1164.977
586.1852, 1168.892
586.6674, 1172.945
587.1495, 1171.188
587.6316, 1159.098
588.1137, 1151.449
588.5958, 1148.947
589.0779, 1150.985
589.5601, 1157.273
590.0422, 1168.650
590.5243, 1181.870
591.0064, 1196.674
591.4885, 1212.799
591.9706, 1232.002
592.4528, 1254.948
592.9349, 1270.517
593.4170, 1267.742
593.8991, 1253.565
594.3812, 1245.057
594.8633, 1242.498
595.3455, 1247.563
595.8276, 1270.265
596.3097, 1298.356
596.7918, 1314.884
597.2739, 1307.052
597.7560, 1301.949
598.2382, 1315.223
598.7203, 1339.640
599.2024, 1361.368
599.6845, 1384.609
600.1666, 1397.073
600.6487, 1390.090
601.1309, 1364.464
601.6130, 1353.969
602.0951, 1364.037
602.5772, 1379.830
603.0593, 1392.666
603.5414, 1402.492
604.0236, 1411.647
604.5057, 1420.529
604.9878, 1427.738
605.4699, 1428.884
605.9520, 1425.947
606.4341, 1427.555
606.9163, 1439.536
607.3984, 1453.935
607.8805, 1460.483
608.3626, 1461.148
608.8447, 1463.080
609.3268, 1470.846
609.8090, 1480.292
610.2911, 1489.929
610.7732, 1500.287
611.2553, 1506.123
611.7374, 1502.940
612.2195, 1497.045
612.7017, 1493.669
613.1838, 1497.017
613.6659, 1493.550
614.1480, 1478.425
614.6301, 1459.721
615.1122, 1454.758
615.5944, 1464.800
616.0765, 1475.933
616.5586, 1484.302
617.0407, 1489.731
617.5228, 1487.829
618.0049, 1479.611
618.4871, 1478.217
618.9692, 1508.029
619.4513, 1543.065
619.9334, 1548.192
620.4155, 1514.906
620.8976, 1476.711
621.3798, 1444.961
621.8619, 1421.090
622.3440, 1406.841
622.8261, 1411.672
623.3082, 1415.405
623.7903, 1416.157
624.2725, 1413.844
624.7546, 1407.848
625.2367, 1397.296
625.7188, 1384.775
626.2009, 1368.422
626.6830, 1349.724
627.1652, 1346.699
627.6473, 1361.311
628.1294, 1375.287
628.6115, 1374.211
629.0936, 1360.934
629.5757, 1339.921
630.0579, 1309.225
630.5400, 1283.046
631.0221, 1275.065
631.5042, 1279.584
631.9863, 1288.027
632.4684, 1308.766
632.9506, 1320.867
633.4327, 1311.111
633.9148, 1285.466
634.3969, 1266.618
634.8790, 1258.002
635.3611, 1255.773
635.8433, 1262.162
636.3254, 1278.353
636.8075, 1280.031
637.2896, 1263.235
637.7717, 1242.970
638.2538, 1231.362
638.7360, 1227.645
639.2181, 1226.387
639.7002, 1227.962
640.1823, 1228.180
640.6644, 1221.457
641.1465, 1209.646
641.6287, 1196.474
642.1108, 1178.930
642.5929, 1165.170
