##NAMES=Hambergite
##RRUFFID=R050603
##IDEAL CHEMISTRY=Be_2_BO_3_(OH)
##LOCALITY=Momeik, Burma
##OWNER=RRUFF
##SOURCE=Bill Larson
##DESCRIPTION=Colorless fragment from a striated prismatic crystal
##STATUS=The identification of this mineral has been confirmed by X-ray diffraction.
##URL=rruff.info/R050603
91.11523, 46.16996
91.59735, 46.46712
92.07947, 46.19397
92.56158, 45.53251
93.04370, 45.05622
93.52582, 45.10775
94.00793, 45.56945
94.49006, 46.24071
94.97218, 47.15664
95.45429, 48.15459
95.93641, 49.11596
96.41853, 50.03408
96.90064, 50.63893
97.38276, 50.41671
97.86488, 49.48417
98.34699, 49.22711
98.82911, 50.08801
99.31123, 51.65336
99.79334, 52.45100
100.2755, 52.29389
100.7576, 51.99346
101.2397, 52.45819
101.7218, 53.98732
102.2039, 54.82998
102.6861, 54.39958
103.1682, 52.70980
103.6503, 51.58766
104.1324, 51.13020
104.6145, 51.12037
105.0966, 51.36968
105.5788, 52.17936
106.0609, 52.70916
106.5430, 52.57594
107.0251, 51.35745
107.5072, 51.03315
107.9893, 52.49913
108.4715, 54.63690
108.9536, 55.43485
109.4357, 53.39159
109.9178, 51.35254
110.3999, 50.12108
110.8820, 49.52419
111.3642, 50.02806
111.8463, 52.45574
112.3284, 56.10118
112.8105, 59.02073
113.2926, 60.60209
113.7747, 61.68592
114.2569, 62.68700
114.7390, 63.89265
115.2211, 64.78287
115.7032, 64.68151
116.1853, 63.91341
116.6674, 64.12534
117.1496, 66.35763
117.6317, 69.58914
118.1138, 72.94665
118.5959, 75.85758
119.0780, 79.12937
119.5602, 83.13927
120.0423, 87.90974
120.5244, 93.13963
121.0065, 98.34758
121.4886, 103.9873
121.9707, 110.6875
122.4529, 118.5236
122.9350, 127.5583
123.4171, 138.1680
123.8992, 150.4618
124.3813, 163.1116
124.8634, 178.8498
125.3456, 194.4673
125.8277, 202.6985
126.3098, 196.6049
126.7919, 181.8325
127.2740, 165.1234
127.7561, 146.0833
128.2383, 128.9247
128.7204, 119.3411
129.2025, 116.4817
129.6846, 115.8759
130.1667, 114.9695
130.6488, 114.2421
131.1310, 115.2433
131.6131, 118.3997
132.0952, 122.9133
132.5773, 127.5372
133.0594, 132.2922
133.5415, 137.1406
134.0237, 141.5008
134.5058, 145.5488
134.9879, 151.4590
135.4700, 159.4189
135.9521, 169.5755
136.4343, 182.0240
136.9164, 196.3443
137.3985, 214.9626
137.8806, 238.5448
138.3627, 266.5247
138.8448, 306.7456
139.3270, 366.2219
139.8091, 441.9013
140.2912, 500.8107
140.7733, 538.5199
141.2554, 568.2335
141.7375, 605.2433
142.2197, 657.4794
142.7018, 696.0334
143.1839, 709.2736
143.6660, 694.4973
144.1481, 695.4282
144.6302, 717.1819
145.1124, 750.3756
145.5945, 782.6765
146.0766, 810.2504
146.5587, 843.3729
147.0408, 884.8803
147.5230, 935.4990
148.0051, 990.7237
148.4872, 1044.686
148.9693, 1096.637
149.4514, 1153.941
149.9335, 1213.794
150.4157, 1281.771
150.8978, 1356.692
151.3799, 1433.935
151.8620, 1529.533
152.3441, 1621.754
152.8262, 1733.244
153.3084, 1906.125
153.7905, 2129.037
154.2726, 2420.033
154.7547, 2788.170
155.2368, 3224.566
155.7189, 3740.225
156.2011, 4216.976
156.6832, 4762.313
157.1653, 5637.424
157.6474, 7769.455
158.1295, 9626.532
158.6116, 10427.91
159.0938, 9677.572
159.5759, 8411.409
160.0580, 6468.636
160.5401, 4111.515
161.0222, 2243.239
161.5044, 1336.631
161.9865, 905.9681
162.4686, 628.2186
162.9507, 501.8750
163.4328, 424.9505
163.9149, 368.4479
164.3971, 329.8758
164.8792, 300.3512
165.3613, 278.7819
165.8434, 262.7697
166.3255, 250.0998
166.8076, 241.3462
167.2898, 234.7448
167.7719, 229.2477
168.2540, 224.8991
168.7361, 222.2109
169.2182, 221.8150
169.7003, 223.1291
170.1825, 225.4605
170.6646, 227.7994
171.1467, 231.5442
171.6288, 237.7298
172.1109, 246.2860
172.5931, 257.0996
173.0752, 269.3376
173.5573, 283.8260
174.0394, 302.0015
174.5215, 325.3002
175.0036, 352.0096
175.4858, 386.9482
175.9679, 431.0406
176.4500, 460.1547
176.9321, 447.8866
177.4142, 405.0214
177.8963, 356.5955
178.3785, 305.1263
178.8606, 256.5352
179.3427, 222.1668
179.8248, 202.2129
180.3069, 190.4692
180.7890, 183.2658
181.2712, 179.6894
181.7533, 176.9704
182.2354, 173.2970
182.7175, 169.6484
183.1996, 168.2328
183.6818, 169.1698
184.1639, 171.9026
184.6460, 175.1906
185.1281, 179.3833
185.6102, 186.5929
186.0923, 201.4597
186.5745, 220.5449
187.0566, 233.5225
187.5387, 240.7845
188.0208, 239.6508
188.5029, 221.5060
188.9850, 187.9312
189.4672, 157.2384
189.9493, 139.0459
190.4314, 131.7400
190.9135, 126.5728
191.3956, 123.4728
191.8777, 121.6596
192.3599, 119.9927
192.8420, 118.4789
193.3241, 117.1566
193.8062, 116.0114
194.2883, 115.0434
194.7704, 114.4570
195.2526, 114.3579
195.7347, 114.4550
196.2168, 114.1294
196.6989, 113.3314
197.1810, 112.6833
197.6632, 112.8311
198.1453, 113.7705
198.6274, 113.5716
199.1095, 111.7633
199.5916, 109.2857
200.0737, 108.1926
200.5559, 108.6403
201.0380, 109.4048
201.5201, 109.8779
202.0022, 110.0503
202.4843, 110.0882
202.9664, 109.8573
203.4486, 109.6480
203.9307, 110.2387
204.4128, 111.7887
204.8949, 113.4695
205.3770, 114.8553
205.8591, 115.9222
206.3413, 116.8596
206.8234, 117.6499
207.3055, 118.3345
207.7876, 118.9254
208.2697, 119.2743
208.7519, 119.9531
209.2340, 121.4690
209.7161, 124.1059
210.1982, 126.0574
210.6803, 126.9442
211.1624, 127.2475
211.6446, 128.3859
212.1267, 130.6652
212.6088, 133.0100
213.0909, 134.7412
213.5730, 135.5333
214.0551, 137.0156
214.5373, 139.4597
215.0194, 142.5609
215.5015, 145.4926
215.9836, 148.1390
216.4657, 150.8866
216.9478, 153.8580
217.4300, 156.8127
217.9121, 160.7434
218.3942, 165.5365
218.8763, 171.3428
219.3584, 178.6855
219.8405, 187.8515
220.3227, 197.9355
220.8048, 208.8867
221.2869, 221.9380
221.7690, 232.9618
222.2511, 243.5109
222.7333, 251.4209
223.2154, 249.4924
223.6975, 234.3808
224.1796, 215.0527
224.6617, 194.8445
225.1438, 171.6010
225.6260, 153.4113
226.1081, 141.5734
226.5902, 134.6671
227.0723, 129.1607
227.5544, 125.2147
228.0365, 122.3200
228.5187, 120.3012
229.0008, 119.3747
229.4829, 118.8342
229.9650, 118.8917
230.4471, 119.2594
230.9292, 119.0721
231.4114, 117.6928
231.8935, 116.7236
232.3756, 116.9545
232.8577, 118.9942
233.3398, 120.7375
233.8220, 121.7861
234.3041, 122.6674
234.7862, 124.7576
235.2683, 128.8132
235.7504, 132.8951
236.2325, 136.2995
236.7147, 138.9147
237.1968, 140.9553
237.6789, 142.1002
238.1610, 142.8062
238.6431, 144.0703
239.1252, 146.0896
239.6074, 148.3945
240.0895, 150.7830
240.5716, 153.0695
241.0537, 155.9254
241.5358, 159.4875
242.0179, 163.5537
242.5001, 167.6494
242.9822, 171.3128
243.4643, 175.7453
243.9464, 181.3181
244.4285, 188.0395
244.9106, 195.8431
245.3928, 204.2193
245.8749, 214.0116
246.3570, 226.5531
246.8391, 241.4509
247.3212, 259.7589
247.8034, 281.8998
248.2855, 308.2169
248.7676, 337.2489
249.2497, 368.8857
249.7318, 403.4874
250.2139, 443.7010
250.6961, 499.2070
251.1782, 543.0543
251.6603, 570.1833
252.1424, 582.2458
252.6245, 564.7147
253.1066, 502.4427
253.5888, 424.1440
254.0709, 365.7214
254.5530, 331.2128
255.0351, 308.4347
255.5172, 296.2946
255.9993, 295.6181
256.4815, 295.6913
256.9636, 295.7837
257.4457, 297.3972
257.9278, 302.2380
258.4099, 310.5603
258.8921, 321.6359
259.3742, 335.7628
259.8563, 352.8452
260.3384, 370.9727
260.8205, 390.0096
261.3026, 410.0159
261.7848, 430.8810
262.2669, 451.3687
262.7490, 475.3867
263.2311, 502.1252
263.7132, 532.0895
264.1953, 572.3902
264.6775, 623.3950
265.1596, 683.7982
265.6417, 752.8616
266.1238, 830.8114
266.6059, 914.9016
267.0880, 1000.235
267.5702, 1090.457
268.0523, 1206.074
268.5344, 1353.888
269.0165, 1516.444
269.4986, 1705.278
269.9807, 1952.692
270.4629, 2088.499
270.9450, 2082.716
271.4271, 1951.613
271.9092, 1739.044
272.3913, 1414.687
272.8734, 1094.890
273.3556, 855.6237
273.8377, 703.0575
274.3198, 591.4104
274.8019, 521.5641
275.2840, 485.2068
275.7661, 461.8309
276.2483, 453.6205
276.7304, 449.3987
277.2125, 444.0701
277.6946, 437.7422
278.1768, 427.6179
278.6589, 411.5800
279.1410, 394.2574
279.6231, 384.6294
280.1052, 382.8456
280.5873, 387.2436
281.0695, 396.9850
281.5516, 412.0823
282.0337, 432.8241
282.5158, 459.2365
282.9979, 491.2505
283.4800, 528.9939
283.9622, 572.5058
284.4443, 620.8502
284.9264, 675.0416
285.4085, 734.0941
285.8906, 795.5672
286.3727, 861.1041
286.8549, 923.0935
287.3370, 976.1306
287.8191, 1019.700
288.3012, 1042.931
288.7833, 1039.186
289.2654, 1012.010
289.7476, 970.8328
290.2297, 914.6703
290.7118, 852.3967
291.1939, 790.5681
291.6760, 730.1094
292.1581, 673.1174
292.6403, 619.8474
293.1224, 570.8681
293.6045, 526.0236
294.0866, 485.6824
294.5687, 449.6325
295.0508, 418.6139
295.5330, 391.9060
296.0151, 367.5784
296.4972, 344.6530
296.9793, 323.9893
297.4614, 307.9720
297.9435, 296.2173
298.4257, 286.9883
298.9078, 279.2394
299.3899, 273.1266
299.8720, 269.1424
300.3541, 267.2783
300.8362, 267.6644
301.3184, 270.7386
301.8005, 276.3066
302.2826, 283.4281
302.7647, 294.8906
303.2469, 306.5426
303.7290, 312.9083
304.2111, 313.3970
304.6932, 307.8635
305.1753, 292.9242
305.6574, 271.5307
306.1396, 251.2175
306.6217, 234.1414
307.1038, 220.6258
307.5859, 211.5779
308.0680, 207.1961
308.5501, 204.7251
309.0323, 202.3762
309.5144, 200.4943
309.9965, 199.6310
310.4786, 199.2176
310.9607, 200.4659
311.4428, 204.6592
311.9250, 211.7210
312.4071, 219.8800
312.8892, 227.6079
313.3713, 235.8902
313.8534, 245.8428
314.3355, 257.2162
314.8177, 270.8322
315.2998, 286.3092
315.7819, 303.9450
316.2640, 325.9453
316.7461, 357.8540
317.2282, 391.7210
317.7104, 423.0432
318.1925, 459.8706
318.6746, 480.4724
319.1567, 470.7325
319.6388, 438.3904
320.1209, 404.2461
320.6031, 365.9685
321.0852, 334.0987
321.5673, 315.2590
322.0494, 316.7697
322.5315, 316.1924
323.0136, 309.8627
323.4958, 298.4489
323.9779, 283.0313
324.4600, 257.5402
324.9421, 233.6637
325.4242, 215.3122
325.9064, 203.0510
326.3885, 194.0593
326.8706, 189.4344
327.3527, 187.4611
327.8348, 186.2542
328.3170, 186.4908
328.7991, 186.7027
329.2812, 186.4833
329.7633, 185.8003
330.2454, 185.8232
330.7275, 186.4461
331.2097, 187.8479
331.6918, 190.1106
332.1739, 192.8463
332.6560, 197.0967
333.1381, 202.7695
333.6202, 209.9549
334.1024, 219.0389
334.5845, 230.2210
335.0666, 242.8243
335.5487, 256.3329
336.0308, 269.9344
336.5129, 286.3376
336.9951, 305.7495
337.4772, 327.8481
337.9593, 354.3947
338.4414, 388.5399
338.9235, 418.4194
339.4056, 442.5140
339.8878, 461.7027
340.3699, 459.3079
340.8520, 431.3216
341.3341, 389.1776
341.8162, 342.8648
342.2983, 291.7278
342.7805, 247.3377
343.2626, 213.9715
343.7447, 190.4134
344.2268, 172.9428
344.7089, 161.8519
345.1910, 154.1193
345.6732, 147.4628
346.1553, 141.7941
346.6374, 137.2485
347.1195, 133.9879
347.6016, 131.6242
348.0837, 129.3591
348.5659, 127.1907
349.0480, 125.3958
349.5301, 124.4734
350.0122, 124.0694
350.4944, 123.2514
350.9765, 121.8199
351.4586, 120.2656
351.9407, 119.0788
352.4228, 118.2607
352.9049, 117.8134
353.3871, 117.9776
353.8692, 118.4102
354.3513, 118.6987
354.8334, 118.8225
355.3155, 118.7986
355.7976, 118.4593
356.2798, 118.0079
356.7619, 117.7704
357.2440, 118.1346
357.7261, 118.5501
358.2082, 118.5080
358.6903, 118.0856
359.1725, 117.8255
359.6546, 117.9805
360.1367, 118.4501
360.6188, 119.1619
361.1009, 120.1628
361.5830, 121.2866
362.0652, 122.5675
362.5473, 123.9249
363.0294, 125.1591
363.5115, 125.8316
363.9936, 126.6575
364.4757, 128.0673
364.9579, 130.3401
365.4400, 132.4761
365.9221, 134.3453
366.4042, 135.9617
366.8863, 137.3431
367.3684, 138.2603
367.8506, 139.1808
368.3327, 140.4665
368.8148, 142.2127
369.2969, 142.9651
369.7790, 141.9542
370.2611, 140.4970
370.7433, 139.4782
371.2254, 138.9507
371.7075, 138.7931
372.1896, 139.0382
372.6717, 139.6518
373.1538, 140.4000
373.6360, 140.8784
374.1181, 142.1363
374.6002, 144.7598
375.0823, 149.1036
375.5645, 153.5561
376.0466, 157.9215
376.5287, 162.5492
377.0108, 168.4903
377.4929, 176.1792
377.9750, 182.6405
378.4572, 186.9734
378.9393, 189.2114
379.4214, 189.2570
379.9035, 187.0229
380.3856, 182.9700
380.8677, 176.6222
381.3499, 168.2407
381.8320, 161.1993
382.3141, 155.9569
382.7962, 152.6690
383.2783, 152.0002
383.7604, 153.8647
384.2426, 156.6713
384.7247, 159.6315
385.2068, 162.7231
385.6889, 166.1188
386.1710, 169.8805
386.6531, 173.6468
387.1353, 176.5969
387.6174, 179.2223
388.0995, 182.8086
388.5816, 188.3421
389.0637, 194.9427
389.5458, 201.7097
390.0280, 208.6965
390.5101, 216.4351
390.9922, 224.8543
391.4743, 234.3546
391.9564, 245.4793
392.4385, 258.0602
392.9207, 272.6593
393.4028, 289.1297
393.8849, 307.6250
394.3670, 328.8533
394.8491, 352.5409
395.3312, 379.2475
395.8134, 409.4240
396.2955, 443.5262
396.7776, 480.1024
397.2597, 521.3800
397.7418, 563.7819
398.2239, 602.9501
398.7061, 651.3719
399.1882, 682.8027
399.6703, 690.9127
400.1524, 675.5374
400.6346, 642.9333
401.1167, 582.9848
401.5988, 515.0195
402.0809, 451.0266
402.5630, 388.1583
403.0451, 334.7380
403.5273, 292.7460
404.0094, 260.4476
404.4915, 234.0901
404.9736, 214.5650
405.4557, 198.7266
405.9378, 185.4047
406.4200, 174.6862
406.9021, 165.4753
407.3842, 157.8968
407.8663, 151.7417
408.3484, 147.1552
408.8305, 144.1497
409.3127, 141.1926
409.7948, 137.6321
410.2769, 133.9610
410.7590, 131.8281
411.2411, 131.2356
411.7232, 130.8497
412.2054, 129.5830
412.6875, 127.7130
413.1696, 125.9634
413.6517, 124.3119
414.1338, 123.1172
414.6159, 123.2010
415.0981, 124.1411
415.5802, 124.7926
416.0623, 123.9334
416.5444, 122.8691
417.0265, 122.8896
417.5086, 124.0266
417.9908, 125.8175
418.4729, 128.4094
418.9550, 131.3158
419.4371, 133.9938
419.9192, 136.5189
420.4013, 138.5484
420.8835, 139.7686
421.3656, 140.3535
421.8477, 140.8446
422.3298, 140.4278
422.8119, 140.7358
423.2940, 142.7812
423.7762, 147.3794
424.2583, 151.4397
424.7404, 153.7139
425.2225, 155.6085
425.7047, 158.7905
426.1868, 163.6838
426.6689, 169.2564
427.1510, 175.3882
427.6331, 182.0755
428.1152, 189.3933
428.5974, 196.9283
429.0795, 205.8677
429.5616, 217.1022
430.0437, 230.8521
430.5258, 245.7782
431.0079, 261.7874
431.4901, 278.8553
431.9722, 298.3233
432.4543, 320.7447
432.9364, 339.6029
433.4185, 354.0075
433.9006, 362.7123
434.3828, 357.8928
434.8649, 338.9713
435.3470, 313.7285
435.8291, 285.9350
436.3112, 257.0609
436.7933, 232.4229
437.2755, 213.2141
437.7576, 197.8992
438.2397, 185.7055
438.7218, 176.2388
439.2039, 168.1840
439.6860, 160.7651
440.1682, 154.3814
440.6503, 149.8578
441.1324, 147.2258
441.6145, 145.1648
442.0966, 143.1581
442.5787, 141.1921
443.0609, 139.2513
443.5430, 137.2131
444.0251, 135.3188
444.5072, 133.5860
444.9893, 132.0512
445.4714, 130.8206
445.9536, 130.0749
446.4357, 129.4952
446.9178, 128.9470
447.3999, 128.3959
447.8820, 127.9578
448.3641, 127.7249
448.8463, 127.5573
449.3284, 127.3127
449.8105, 127.0426
450.2926, 126.6168
450.7747, 126.0226
451.2569, 125.2535
451.7390, 124.2613
452.2211, 122.9570
452.7032, 121.6225
453.1853, 120.4041
453.6674, 119.2899
454.1496, 118.2493
454.6317, 117.2310
455.1138, 116.3847
455.5959, 115.9367
456.0780, 115.8724
456.5602, 116.1005
457.0423, 116.7701
457.5244, 117.5946
458.0065, 117.9357
458.4886, 117.8313
458.9707, 117.7209
459.4529, 117.9535
459.9350, 118.3820
460.4171, 118.6650
460.8992, 118.6014
461.3813, 118.9623
461.8634, 120.9504
462.3456, 123.6872
462.8277, 125.6465
463.3098, 125.3857
463.7919, 124.9440
464.2740, 125.6905
464.7561, 127.5193
465.2383, 128.5301
465.7204, 127.3177
466.2025, 125.6762
466.6846, 124.7289
467.1667, 125.0689
467.6488, 125.3518
468.1310, 125.4017
468.6131, 125.3772
469.0952, 125.5669
469.5773, 126.2881
470.0594, 126.7167
470.5415, 126.6455
471.0237, 126.0829
471.5058, 125.1595
471.9879, 123.5887
472.4700, 122.2969
472.9521, 122.1025
473.4342, 123.0560
473.9164, 124.1219
474.3985, 125.3690
474.8806, 126.3750
475.3627, 126.1365
475.8448, 124.7903
476.3270, 123.7546
476.8091, 123.8403
477.2912, 124.5646
477.7733, 124.9909
478.2554, 125.1386
478.7375, 125.3022
479.2197, 125.7345
479.7018, 126.3107
480.1839, 126.8675
480.6660, 127.3846
481.1481, 127.8384
481.6302, 128.2784
482.1124, 128.6339
482.5945, 128.7856
483.0766, 128.7234
483.5587, 128.4162
484.0408, 127.8015
484.5229, 126.8898
485.0051, 125.8923
485.4872, 124.9723
485.9693, 123.8846
486.4514, 122.4389
486.9335, 119.9060
487.4156, 118.2881
487.8978, 117.9852
488.3799, 118.3894
488.8620, 118.5588
489.3441, 118.4511
489.8262, 118.2104
490.3083, 117.8453
490.7905, 117.3709
491.2726, 116.8743
491.7547, 116.3258
492.2368, 115.8847
492.7189, 115.6119
493.2010, 115.5269
493.6832, 115.8712
494.1653, 116.7406
494.6474, 117.7578
495.1295, 118.6093
495.6116, 119.2444
496.0938, 119.4940
496.5759, 118.6912
497.0580, 117.9616
497.5401, 118.9079
498.0222, 121.2028
498.5044, 123.1306
498.9865, 123.1328
499.4686, 122.7563
499.9507, 123.3831
500.4328, 125.5535
500.9149, 127.3973
501.3971, 127.7781
501.8792, 127.7024
502.3613, 128.3343
502.8434, 130.8439
503.3255, 132.9695
503.8076, 134.1139
504.2898, 134.5150
504.7719, 135.3249
505.2540, 137.0278
505.7361, 138.4142
506.2182, 138.8266
506.7003, 138.0176
507.1825, 137.9984
507.6646, 139.1631
508.1467, 140.2762
508.6288, 139.9094
509.1109, 138.0693
509.5930, 135.7782
510.0752, 133.0638
510.5573, 130.2709
511.0394, 127.9303
511.5215, 126.0554
512.0037, 124.7319
512.4858, 124.5219
512.9679, 124.6673
513.4500, 123.8567
513.9321, 122.0663
514.4142, 120.5877
514.8964, 120.3978
515.3785, 120.9574
515.8606, 121.7146
516.3427, 122.6159
516.8248, 123.5589
517.3069, 124.3740
517.7891, 125.2185
518.2712, 126.3898
518.7533, 128.5381
519.2354, 130.4175
519.7175, 131.5450
520.1996, 131.9449
520.6818, 132.4128
521.1639, 132.5497
521.6460, 133.2527
522.1281, 135.1524
522.6102, 138.6057
523.0923, 141.9328
523.5745, 145.1515
524.0566, 148.1727
524.5387, 150.6085
525.0208, 152.4681
525.5029, 155.0268
525.9850, 158.7339
526.4672, 163.2983
526.9493, 168.1357
527.4314, 173.3295
527.9135, 179.1206
528.3956, 186.4070
528.8777, 194.2079
529.3599, 201.6227
529.8420, 208.7581
530.3241, 213.7063
530.8062, 215.7922
531.2883, 214.8311
531.7704, 210.5478
532.2526, 201.0274
532.7347, 190.5855
533.2168, 179.2727
533.6989, 167.9978
534.1810, 158.5787
534.6631, 152.4581
535.1453, 147.1270
535.6274, 141.9416
536.1095, 136.8084
536.5916, 132.9572
537.0737, 130.8010
537.5558, 129.2268
538.0380, 127.4446
538.5201, 125.3344
539.0022, 123.7467
539.4843, 122.7927
539.9664, 122.2595
540.4485, 122.0013
540.9307, 121.9759
541.4128, 121.8117
541.8949, 121.2957
542.3770, 120.6629
542.8591, 120.4239
543.3412, 120.4734
543.8234, 120.2519
544.3055, 118.9103
544.7876, 117.4312
545.2697, 116.9135
545.7518, 117.5317
546.2339, 118.1123
546.7161, 118.1938
547.1982, 117.9199
547.6803, 117.4087
548.1624, 116.0895
548.6445, 115.2957
549.1266, 115.5369
549.6088, 116.3788
550.0909, 116.9564
550.5730, 117.1987
551.0551, 117.2817
551.5372, 117.1229
552.0193, 116.7891
552.5015, 117.0704
552.9836, 118.1557
553.4657, 119.1929
553.9478, 119.4986
554.4299, 119.1566
554.9120, 119.0921
555.3942, 119.3977
555.8763, 119.7457
556.3584, 119.7431
556.8405, 119.4869
557.3226, 119.2103
557.8047, 118.9130
558.2869, 118.7232
558.7690, 118.8088
559.2511, 119.0977
559.7332, 119.4094
560.2154, 119.7916
560.6975, 120.0662
561.1796, 120.0944
561.6617, 119.8673
562.1439, 119.6866
562.6260, 119.4986
563.1081, 119.4665
563.5902, 119.6889
564.0723, 120.3111
564.5544, 120.8967
565.0366, 121.4997
565.5187, 122.0198
566.0008, 122.3195
566.4829, 122.3927
566.9650, 122.2478
567.4471, 121.7782
567.9293, 121.1927
568.4114, 121.0594
568.8935, 121.3530
569.3756, 121.7592
569.8577, 122.2667
570.3398, 122.7117
570.8220, 122.6172
571.3041, 122.0085
571.7862, 121.6275
572.2683, 122.1650
572.7504, 123.0974
573.2325, 123.9519
573.7147, 124.6876
574.1968, 125.1832
574.6789, 125.0051
575.1610, 124.6936
575.6431, 124.9468
576.1252, 126.8141
576.6074, 128.1120
577.0895, 128.1841
577.5716, 127.4566
578.0537, 127.5818
578.5358, 128.7891
579.0179, 130.3283
579.5001, 132.0216
579.9822, 133.8528
580.4643, 135.2149
580.9464, 136.0292
581.4285, 136.9065
581.9106, 138.3927
582.3928, 140.3842
582.8749, 142.5705
583.3570, 144.9626
583.8391, 147.3350
584.3212, 149.7922
584.8033, 152.0383
585.2855, 153.6061
585.7676, 154.8197
586.2497, 154.7722
586.7318, 152.6875
587.2139, 148.9630
587.6960, 144.7368
588.1782, 139.5279
588.6603, 134.5982
589.1424, 130.3580
589.6245, 126.7729
590.1066, 123.7106
