##NAMES=Hambergite
##RRUFFID=R050672
##IDEAL CHEMISTRY=Be_2_BO_3_(OH)
##LOCALITY=Anjanabonoina, Madagascar
##OWNER=RRUFF
##SOURCE=University of Arizona Mineral Museum
##DESCRIPTION=Pale gray prismatic crystal
##STATUS=The identification of this mineral has been confirmed by X-ray diffraction.
##URL=rruff.info/R050672
93.40265, 0.0000000E+00
93.88477, 7.270540
94.36688, 7.216790
94.84900, 7.264839
95.33112, 7.389705
95.81323, 7.473241
96.29535, 7.313409
96.77747, 7.030207
97.25958, 7.106512
97.74170, 7.623506
98.22382, 8.417255
98.70593, 9.127229
99.18805, 9.734737
99.67017, 10.54559
100.1523, 11.73511
100.6344, 13.29735
101.1165, 15.21972
101.5986, 17.54233
102.0807, 20.21441
102.5629, 22.99604
103.0450, 26.04755
103.5271, 28.91472
104.0092, 31.09601
104.4913, 32.36298
104.9734, 33.63370
105.4556, 35.12417
105.9377, 36.83690
106.4198, 38.43610
106.9019, 39.86049
107.3840, 41.20525
107.8661, 42.57090
108.3483, 44.12816
108.8304, 45.50991
109.3125, 46.57739
109.7946, 47.13859
110.2767, 47.92342
110.7588, 48.71737
111.2410, 49.76712
111.7231, 51.50484
112.2052, 54.99321
112.6873, 58.33262
113.1694, 60.78796
113.6515, 61.33575
114.1337, 62.59669
114.6158, 65.13622
115.0979, 68.67079
115.5800, 72.41283
116.0621, 75.77743
116.5442, 79.52773
117.0264, 84.06174
117.5085, 89.80968
117.9906, 96.09558
118.4727, 101.9868
118.9548, 107.8211
119.4369, 115.8117
119.9191, 126.2211
120.4012, 139.6576
120.8833, 156.5831
121.3654, 180.5991
121.8475, 205.7631
122.3296, 232.1055
122.8118, 259.6636
123.2939, 277.1358
123.7760, 274.5125
124.2581, 256.9595
124.7402, 232.6265
125.2223, 198.7210
125.7045, 163.1737
126.1866, 134.8790
126.6687, 114.7009
127.1508, 99.80977
127.6329, 88.48228
128.1150, 80.46933
128.5972, 74.54678
129.0793, 70.83037
129.5614, 68.72263
130.0435, 67.07460
130.5256, 65.74775
131.0077, 64.88388
131.4899, 64.47942
131.9720, 64.57450
132.4541, 65.68752
132.9362, 67.96700
133.4183, 71.26483
133.9004, 75.19301
134.3826, 79.06260
134.8647, 84.06581
135.3468, 92.40070
135.8289, 103.8464
136.3110, 119.7249
136.7931, 142.7363
137.2753, 172.9820
137.7574, 202.9888
138.2395, 233.5669
138.7216, 263.0182
139.2037, 282.0092
139.6858, 288.8599
140.1680, 289.9941
140.6501, 290.8495
141.1322, 290.8049
141.6143, 292.9001
142.0964, 298.1429
142.5785, 306.6309
143.0607, 315.5127
143.5428, 325.2139
144.0249, 334.9203
144.5070, 343.4968
144.9891, 349.6439
145.4712, 357.1075
145.9534, 366.8590
146.4355, 379.4269
146.9176, 392.5289
147.3997, 405.9898
147.8818, 420.0954
148.3639, 435.6386
148.8461, 452.1371
149.3282, 470.5261
149.8103, 490.5941
150.2924, 511.1741
150.7745, 535.6637
151.2566, 560.6186
151.7388, 589.2742
152.2209, 629.4617
152.7030, 673.0746
153.1851, 734.1328
153.6672, 817.2447
154.1493, 908.9608
154.6315, 1038.551
155.1136, 1220.970
155.5957, 1445.826
156.0778, 1676.594
156.5599, 2033.938
157.0420, 2316.380
157.5242, 2417.854
158.0063, 2220.610
158.4884, 1951.628
158.9705, 1593.344
159.4526, 1169.272
159.9347, 815.1096
160.4169, 580.5990
160.8990, 420.7350
161.3811, 302.9828
161.8632, 241.1223
162.3453, 199.0163
162.8274, 168.9066
163.3096, 150.0323
163.7917, 135.5695
164.2738, 124.4409
164.7559, 115.7259
165.2380, 108.5173
165.7201, 102.7219
166.2023, 98.17672
166.6844, 95.07632
167.1665, 93.41772
167.6486, 92.00638
168.1307, 90.01787
168.6128, 87.93115
169.0949, 86.37234
169.5771, 85.56819
170.0592, 85.39954
170.5413, 85.68227
171.0234, 86.37473
171.5055, 87.87019
171.9876, 91.20356
172.4698, 95.48759
172.9519, 99.14201
173.4340, 101.6600
173.9161, 103.0784
174.3982, 103.5663
174.8803, 103.2166
175.3625, 101.5164
175.8446, 97.57786
176.3267, 91.89931
176.8088, 85.71390
177.2909, 78.22520
177.7730, 71.06352
178.2552, 66.90959
178.7373, 66.46973
179.2194, 67.13564
179.7015, 66.43162
180.1836, 64.52676
180.6657, 62.10563
181.1479, 58.89942
181.6300, 55.50048
182.1121, 53.25431
182.5942, 52.51267
183.0763, 52.43908
183.5584, 52.04529
184.0406, 51.36553
184.5227, 50.64724
185.0048, 49.87354
185.4869, 49.16450
185.9690, 48.95950
186.4511, 49.52702
186.9333, 50.25937
187.4154, 49.95653
187.8975, 48.67656
188.3796, 47.47880
188.8617, 47.39344
189.3438, 48.12325
189.8260, 48.10829
190.3081, 46.83283
190.7902, 45.02924
191.2723, 44.33272
191.7544, 44.77053
192.2365, 45.38427
192.7187, 45.36324
193.2008, 44.79092
193.6829, 44.53047
194.1650, 44.78587
194.6471, 45.40105
195.1292, 45.99267
195.6114, 46.57078
196.0935, 47.04996
196.5756, 47.39277
197.0577, 47.59781
197.5398, 47.48775
198.0219, 46.82710
198.5041, 45.90032
198.9862, 45.90596
199.4683, 46.98013
199.9504, 48.30587
200.4325, 49.14218
200.9146, 49.44854
201.3968, 49.92772
201.8789, 50.81252
202.3610, 51.97008
202.8431, 52.70397
203.3252, 52.92324
203.8073, 52.99654
204.2895, 53.25895
204.7716, 53.74343
205.2537, 54.17577
205.7358, 54.46350
206.2179, 54.64589
206.7000, 55.05468
207.1822, 55.79644
207.6643, 56.49813
208.1464, 56.65677
208.6285, 56.05674
209.1106, 55.95965
209.5927, 56.76334
210.0749, 58.37711
210.5570, 59.70817
211.0391, 60.64327
211.5212, 61.48558
212.0033, 62.59071
212.4854, 64.09064
212.9676, 65.37334
213.4497, 66.28230
213.9318, 66.83178
214.4139, 67.19164
214.8960, 67.05620
215.3781, 67.21223
215.8603, 68.59699
216.3424, 71.63383
216.8245, 74.60121
217.3066, 77.15161
217.7887, 79.29697
218.2708, 81.26336
218.7529, 82.95302
219.2351, 84.63107
219.7172, 86.77208
220.1993, 90.12292
220.6814, 92.10716
221.1635, 92.09999
221.6456, 90.08820
222.1278, 86.96645
222.6099, 82.20194
223.0920, 76.90385
223.5741, 72.30338
224.0562, 68.46967
224.5383, 64.99980
225.0205, 61.70235
225.5026, 58.59135
225.9847, 56.25663
226.4668, 55.00524
226.9489, 54.21395
227.4310, 53.27760
227.9132, 52.07382
228.3953, 50.94194
228.8774, 49.89651
229.3595, 48.92090
229.8416, 48.33558
230.3237, 48.29423
230.8059, 48.47688
231.2880, 48.56722
231.7701, 48.50544
232.2522, 48.48761
232.7343, 48.66838
233.2164, 49.07407
233.6986, 48.82984
234.1807, 47.45725
234.6628, 45.92234
235.1449, 45.23410
235.6270, 45.82147
236.1091, 46.43262
236.5913, 46.92320
237.0734, 47.29488
237.5555, 47.26974
238.0376, 46.62660
238.5197, 45.81345
239.0018, 45.19158
239.4840, 44.51673
239.9661, 44.53912
240.4482, 45.71241
240.9303, 48.01968
241.4124, 49.37568
241.8945, 49.43093
242.3767, 48.91197
242.8588, 48.37355
243.3409, 47.53518
243.8230, 47.24096
244.3051, 47.83138
244.7872, 49.26959
245.2694, 50.19921
245.7515, 50.36334
246.2336, 50.30643
246.7157, 50.43895
247.1978, 50.69819
247.6799, 51.28865
248.1621, 52.33155
248.6442, 53.79715
249.1263, 55.12392
249.6084, 56.23143
250.0905, 57.31434
250.5726, 58.50138
251.0548, 59.74081
251.5369, 61.21920
252.0190, 63.05268
252.5011, 65.19503
252.9832, 67.06383
253.4653, 68.54294
253.9475, 69.92701
254.4296, 71.47346
254.9117, 73.43176
255.3938, 74.95902
255.8759, 75.78114
256.3580, 76.06277
256.8401, 76.71050
257.3223, 77.73322
257.8044, 79.10777
258.2865, 80.94850
258.7686, 83.61013
259.2507, 85.73463
259.7328, 87.07365
260.2150, 87.77621
260.6971, 88.50095
261.1792, 89.08971
261.6613, 89.97180
262.1434, 91.45040
262.6255, 93.66836
263.1077, 95.93062
263.5898, 97.84055
264.0719, 99.86048
264.5540, 103.4227
265.0361, 108.6670
265.5182, 115.2169
266.0004, 123.0189
266.4825, 132.0916
266.9646, 142.1452
267.4467, 153.2256
267.9288, 165.2492
268.4109, 178.0258
268.8931, 192.8545
269.3752, 205.5408
269.8573, 215.1671
270.3394, 222.9809
270.8215, 221.2756
271.3036, 207.9363
271.7858, 186.8170
272.2679, 165.3553
272.7500, 142.6748
273.2321, 122.6027
273.7142, 107.1778
274.1964, 96.71930
274.6785, 88.69173
275.1606, 83.62800
275.6427, 80.35322
276.1248, 76.78297
276.6069, 72.63743
277.0891, 69.62666
277.5712, 68.87120
278.0533, 70.40656
278.5354, 70.88522
279.0175, 69.97005
279.4996, 68.72137
279.9818, 68.63322
280.4639, 69.77911
280.9460, 71.37469
281.4281, 73.08771
281.9102, 74.97202
282.3923, 77.71095
282.8745, 81.43958
283.3566, 85.57510
283.8387, 89.40845
284.3208, 92.94316
284.8029, 96.74431
285.2850, 101.2930
285.7672, 106.2591
286.2493, 110.2267
286.7314, 113.1883
287.2135, 115.2075
287.6956, 116.2797
288.1777, 116.4198
288.6599, 115.8243
289.1420, 114.4737
289.6241, 112.4609
290.1062, 109.8749
290.5883, 106.6689
291.0704, 103.4216
291.5526, 100.7031
292.0347, 98.38048
292.5168, 95.68981
292.9989, 92.16734
293.4810, 88.53579
293.9631, 86.17706
294.4453, 85.05750
294.9274, 84.47350
295.4095, 84.16915
295.8916, 84.02605
296.3737, 83.56729
296.8558, 82.51961
297.3380, 81.55286
297.8201, 81.78371
298.3022, 83.07374
298.7843, 84.51497
299.2664, 85.04860
299.7485, 85.41133
300.2307, 87.40199
300.7128, 91.55197
301.1949, 96.15288
301.6770, 99.45241
302.1591, 101.6609
302.6412, 103.4180
303.1234, 105.8081
303.6055, 107.7094
304.0876, 107.5280
304.5697, 105.1141
305.0518, 101.0153
305.5339, 94.56765
306.0161, 86.78828
306.4982, 79.94069
306.9803, 75.32411
307.4624, 71.93597
307.9445, 68.87168
308.4266, 66.10253
308.9088, 63.85246
309.3909, 62.48387
309.8730, 61.67449
310.3551, 60.95243
310.8372, 59.95332
311.3193, 59.10859
311.8015, 58.77923
312.2836, 58.92758
312.7657, 59.24970
313.2478, 59.76146
313.7299, 60.27472
314.2120, 60.58633
314.6942, 60.31289
315.1763, 60.20990
315.6584, 60.84987
316.1405, 62.05618
316.6226, 63.11602
317.1047, 63.59257
317.5869, 63.89257
318.0690, 64.28152
318.5511, 64.76685
319.0332, 65.42519
319.5153, 66.18880
319.9974, 67.14398
320.4796, 68.46901
320.9617, 71.12306
321.4438, 73.46521
321.9259, 74.83640
322.4080, 75.30602
322.8901, 74.35280
323.3723, 70.76416
323.8544, 65.93983
324.3365, 61.86035
324.8186, 59.06885
325.3007, 56.95555
325.7828, 55.45162
326.2650, 54.62575
326.7471, 53.96174
327.2292, 53.53175
327.7113, 53.18880
328.1934, 52.79102
328.6755, 52.01360
329.1577, 51.53269
329.6398, 51.72902
330.1219, 52.59772
330.6040, 52.68069
331.0861, 51.07983
331.5682, 49.39228
332.0504, 48.70245
332.5325, 49.90256
333.0146, 50.68895
333.4967, 50.77639
333.9788, 50.30355
334.4609, 49.90995
334.9431, 49.60804
335.4252, 49.36212
335.9073, 49.18684
336.3894, 49.18278
336.8715, 48.93475
337.3536, 48.23462
337.8358, 47.41775
338.3179, 47.22866
338.8000, 47.84775
339.2821, 48.61251
339.7642, 49.36956
340.2463, 50.15444
340.7284, 50.41944
341.2105, 50.00021
341.6927, 49.35825
342.1748, 49.18493
342.6569, 49.55566
343.1390, 49.73132
343.6211, 49.37736
344.1032, 48.61117
344.5854, 48.19783
345.0675, 48.17298
345.5496, 48.31725
346.0317, 48.46100
346.5138, 48.60384
346.9959, 48.75626
347.4781, 48.98417
347.9602, 49.16110
348.4423, 48.87472
348.9244, 48.14406
349.4065, 47.52358
349.8886, 47.44772
350.3708, 47.79285
350.8529, 48.27171
351.3350, 48.92181
351.8171, 49.47422
352.2992, 49.43209
352.7813, 48.93780
353.2635, 48.52921
353.7456, 48.54698
354.2277, 48.80036
354.7098, 49.00280
355.1919, 49.12505
355.6740, 49.30830
356.1562, 49.77252
356.6383, 50.36879
357.1204, 50.84290
357.6025, 50.97915
358.0846, 51.02901
358.5667, 51.17794
359.0489, 51.42369
359.5310, 51.70621
360.0131, 52.06880
360.4952, 52.41802
360.9773, 52.65673
361.4594, 52.75269
361.9416, 52.74617
362.4237, 52.39879
362.9058, 51.91179
363.3879, 51.92110
363.8700, 53.32213
364.3521, 54.82252
364.8343, 55.61015
365.3164, 55.25337
365.7985, 54.96643
366.2806, 55.06341
366.7627, 55.39598
367.2448, 55.72441
367.7270, 56.28226
368.2091, 56.57717
368.6912, 56.38879
369.1733, 55.61391
369.6554, 54.90639
370.1375, 54.48190
370.6197, 54.02826
371.1018, 53.25140
371.5839, 51.63632
372.0660, 50.41398
372.5481, 49.86026
373.0302, 49.88731
373.5124, 49.82992
373.9945, 49.64092
374.4766, 49.42821
374.9587, 49.21777
375.4408, 48.91783
375.9229, 48.91849
376.4051, 49.37829
376.8872, 50.04541
377.3693, 50.33974
377.8514, 50.17503
378.3335, 49.96164
378.8156, 49.75664
379.2978, 49.55234
379.7799, 49.96083
380.2620, 51.11366
380.7441, 52.52473
381.2262, 53.61304
381.7083, 54.38422
382.1905, 55.13686
382.6726, 56.00179
383.1547, 56.88199
383.6368, 57.32085
384.1189, 57.31329
384.6010, 57.51662
385.0832, 58.80714
385.5653, 60.74361
386.0474, 62.04532
386.5295, 62.31105
387.0116, 62.21282
387.4937, 62.56216
387.9759, 63.27077
388.4580, 64.01552
388.9401, 64.36313
389.4222, 64.76744
389.9043, 65.73901
390.3864, 67.33345
390.8686, 69.42095
391.3507, 72.36067
391.8328, 75.64471
392.3149, 78.49761
392.7970, 79.95000
393.2791, 81.42394
393.7613, 83.75172
394.2434, 86.87582
394.7255, 90.14280
395.2076, 93.67589
395.6897, 97.01105
396.1718, 99.79774
396.6540, 101.7669
397.1361, 103.4945
397.6182, 105.4392
398.1003, 107.2388
398.5824, 108.0712
399.0645, 107.4289
399.5467, 106.1355
400.0288, 104.5523
400.5109, 102.9091
400.9930, 100.1477
401.4751, 95.36533
401.9572, 89.98225
402.4394, 85.44882
402.9215, 82.24664
403.4036, 79.09402
403.8857, 75.67915
404.3678, 72.07406
404.8499, 69.11940
405.3321, 66.99727
405.8142, 65.13947
406.2963, 63.05370
406.7784, 60.50650
407.2605, 59.08792
407.7426, 59.26376
408.2248, 60.13020
408.7069, 59.83063
409.1890, 58.27445
409.6711, 56.73817
410.1532, 55.77444
410.6353, 55.29752
411.1175, 54.85720
411.5996, 54.45924
412.0817, 54.07860
412.5638, 53.64930
413.0459, 53.21199
413.5280, 52.89053
414.0102, 52.73811
414.4923, 52.69369
414.9744, 52.81177
415.4565, 53.02368
415.9386, 52.96465
416.4207, 52.24717
416.9029, 51.19175
417.3850, 50.05849
417.8671, 48.75759
418.3492, 47.92402
418.8313, 48.34894
419.3134, 49.47455
419.7956, 50.41210
420.2777, 50.76022
420.7598, 50.86250
421.2419, 50.83168
421.7240, 50.68249
422.2061, 50.57710
422.6883, 50.64457
423.1704, 50.72817
423.6525, 50.71707
424.1346, 50.53774
424.6167, 50.33186
425.0988, 49.88970
425.5810, 49.42806
426.0631, 49.51880
426.5452, 51.24057
427.0273, 52.39322
427.5094, 52.01376
427.9915, 49.52912
428.4737, 48.45702
428.9558, 49.55783
429.4379, 51.30211
429.9200, 52.14158
430.4021, 51.81648
430.8842, 51.33889
431.3664, 50.69081
431.8485, 50.06453
432.3306, 50.48624
432.8127, 52.24265
433.2948, 53.71517
433.7769, 53.67888
434.2591, 52.24880
434.7412, 51.13024
435.2233, 50.44455
435.7054, 49.98928
436.1875, 49.40466
436.6696, 48.76049
437.1518, 48.46677
437.6339, 48.83774
438.1160, 49.55851
438.5981, 50.28207
439.0802, 50.97364
439.5623, 51.24177
440.0444, 50.29818
440.5266, 48.93270
441.0087, 48.24681
441.4908, 48.68629
441.9729, 49.28974
442.4550, 49.54206
442.9371, 49.46769
443.4193, 49.11185
443.9014, 47.84567
444.3835, 46.84439
444.8656, 47.02682
445.3477, 48.50964
445.8298, 49.43696
446.3120, 48.60188
446.7941, 47.39966
447.2762, 46.92379
447.7583, 48.15446
448.2404, 49.10746
448.7225, 49.45093
449.2047, 49.38291
449.6868, 49.48645
450.1689, 50.06027
450.6510, 50.40282
451.1331, 50.16444
451.6152, 49.18363
452.0974, 48.61259
452.5795, 48.55180
453.0616, 48.75637
453.5437, 49.06820
454.0258, 49.54911
454.5079, 49.65954
454.9901, 49.16540
455.4722, 48.31907
455.9543, 47.84722
456.4364, 47.76276
456.9185, 47.77094
457.4006, 47.56464
457.8828, 47.29430
458.3649, 47.55622
458.8470, 48.45449
459.3291, 49.43383
459.8112, 50.03281
460.2933, 50.24888
460.7755, 50.06367
461.2576, 49.21130
461.7397, 48.18549
462.2218, 47.29394
462.7039, 46.57231
463.1860, 46.22960
463.6682, 46.82616
464.1503, 47.56300
464.6324, 47.76192
465.1145, 47.15496
465.5966, 46.57076
466.0787, 46.33566
466.5609, 46.27000
467.0430, 46.14692
467.5251, 45.72299
468.0072, 45.44688
468.4893, 45.56684
468.9714, 46.04281
469.4536, 46.13940
469.9357, 45.38600
470.4178, 44.75492
470.8999, 44.83182
471.3820, 46.03551
471.8641, 46.86441
472.3463, 47.28028
472.8284, 47.35081
473.3105, 47.03091
473.7926, 46.18606
474.2747, 45.79229
474.7568, 46.48050
475.2390, 47.79423
475.7211, 47.47156
476.2032, 45.39041
476.6853, 43.47485
477.1674, 43.46679
477.6495, 44.80361
478.1317, 45.81551
478.6138, 46.26423
479.0959, 46.42652
479.5780, 46.62765
480.0601, 46.78014
480.5422, 46.67866
481.0244, 46.06446
481.5065, 45.28783
481.9886, 44.43704
482.4707, 43.57433
482.9528, 43.17777
483.4349, 44.07721
483.9171, 45.14804
484.3992, 45.48646
484.8813, 44.50077
485.3634, 43.75339
485.8455, 43.73154
486.3276, 44.12860
486.8098, 44.48931
487.2919, 45.02295
487.7740, 45.22885
488.2561, 44.84806
488.7382, 43.92925
489.2203, 43.42579
489.7025, 43.52405
490.1846, 43.75266
490.6667, 43.87034
491.1488, 43.89682
491.6309, 43.63474
492.1130, 42.92355
492.5952, 42.19069
493.0773, 42.18257
493.5594, 42.89390
494.0415, 43.45931
494.5236, 43.51038
495.0057, 43.27331
495.4879, 43.33855
495.9700, 43.68035
496.4521, 43.93554
496.9342, 43.49101
497.4163, 42.90650
497.8984, 43.23154
498.3806, 44.81073
498.8627, 46.26916
499.3448, 46.39648
499.8269, 45.78086
500.3090, 45.30680
500.7911, 45.56382
501.2733, 45.77385
501.7554, 45.40589
502.2375, 44.61345
502.7196, 44.26603
503.2017, 44.82557
503.6838, 45.66806
504.1660, 46.53283
504.6481, 47.52129
505.1302, 48.25038
505.6123, 48.63407
506.0944, 48.82220
506.5765, 48.99485
507.0587, 49.24485
507.5408, 49.20798
508.0229, 48.68281
508.5050, 47.88003
508.9871, 47.61033
509.4692, 47.96498
509.9514, 48.22748
510.4335, 47.74224
510.9156, 46.73566
511.3977, 46.65858
511.8798, 47.62514
512.3619, 48.77816
512.8441, 49.28077
513.3262, 49.32747
513.8083, 49.36227
514.2904, 49.53233
514.7725, 49.68280
515.2546, 49.60207
515.7368, 49.38079
516.2189, 49.25176
516.7010, 49.46456
517.1831, 49.68769
517.6652, 49.68376
518.1473, 49.42724
518.6295, 49.25390
519.1116, 49.17878
519.5937, 49.26882
520.0758, 49.57188
520.5579, 50.47462
521.0400, 51.06533
521.5222, 51.01775
522.0043, 50.78975
522.4864, 51.33831
522.9685, 53.22238
523.4506, 54.60065
523.9327, 54.83715
524.4149, 54.09197
524.8970, 53.32823
525.3791, 52.46577
525.8612, 51.99169
526.3433, 52.41377
526.8254, 53.58849
527.3076, 54.75582
527.7897, 55.85817
528.2718, 56.85140
528.7539, 57.77854
529.2360, 58.56133
529.7181, 59.03931
530.2003, 59.18377
530.6824, 58.96400
531.1645, 58.04241
531.6466, 56.66158
532.1287, 55.64825
532.6108, 56.02579
533.0930, 56.40294
533.5751, 55.75863
534.0572, 53.71014
534.5393, 52.20090
535.0214, 52.13887
535.5035, 52.51195
535.9857, 52.43025
536.4678, 51.48851
536.9499, 50.71276
537.4320, 50.25930
537.9141, 49.96861
538.3962, 49.39915
538.8784, 48.36601
539.3605, 47.62608
539.8426, 47.50097
540.3247, 47.91328
540.8068, 48.41914
541.2889, 49.02932
541.7711, 49.59755
542.2532, 50.15669
542.7353, 50.57827
543.2174, 50.30709
543.6995, 49.11131
544.1816, 47.97662
544.6638, 48.14278
545.1459, 49.04597
545.6280, 49.65340
546.1101, 49.08675
546.5922, 48.52345
547.0743, 48.81811
547.5565, 49.73608
548.0386, 50.39214
548.5207, 50.38520
549.0028, 50.14101
549.4849, 49.80343
549.9670, 49.32869
550.4492, 48.98964
550.9313, 48.76134
551.4134, 48.69415
551.8955, 48.84259
552.3776, 49.26943
552.8597, 49.77204
553.3419, 50.42981
553.8240, 51.05706
554.3061, 51.21202
554.7882, 50.86580
555.2703, 50.50732
555.7524, 50.37217
556.2346, 50.34115
556.7167, 49.95736
557.1988, 49.26374
557.6809, 48.86723
558.1630, 49.49408
558.6451, 50.57834
559.1273, 51.30026
559.6094, 51.52478
560.0915, 51.65360
560.5736, 51.94573
561.0557, 52.28910
561.5378, 52.55430
562.0200, 52.82481
562.5021, 52.87699
562.9842, 52.40348
563.4663, 51.64952
563.9484, 51.33978
564.4305, 51.83427
564.9127, 52.36663
565.3948, 52.70654
565.8769, 52.84777
566.3590, 53.16964
566.8411, 53.77691
567.3232, 54.33390
567.8054, 54.52700
568.2875, 54.35976
568.7696, 54.44870
569.2517, 54.86625
569.7338, 55.44505
570.2159, 56.11741
570.6981, 56.79350
571.1802, 57.16981
571.6623, 56.85703
572.1444, 56.57358
572.6265, 57.41856
573.1086, 58.99024
573.5908, 60.03135
574.0729, 59.22762
574.5550, 58.28287
575.0371, 58.34634
575.5192, 59.53083
576.0013, 60.50865
576.4835, 60.87670
576.9656, 60.99682
577.4477, 61.07557
577.9298, 60.89776
578.4119, 61.12137
578.8940, 61.90319
579.3762, 62.94145
579.8583, 63.89013
580.3404, 64.81006
580.8225, 65.33071
581.3046, 65.27926
581.7867, 64.85963
582.2689, 64.47780
582.7510, 64.14826
583.2331, 64.11576
583.7152, 64.93085
584.1973, 65.97318
584.6794, 66.08738
585.1616, 65.28004
585.6437, 64.32369
586.1258, 63.79757
586.6079, 63.35689
587.0900, 62.61933
587.5721, 61.33884
588.0542, 60.22223
588.5363, 59.68422
589.0184, 59.37670
589.5005, 58.86440
589.9827, 57.90989
590.4648, 56.96421
590.9469, 55.96209
591.4290, 55.01760
591.9111, 54.62563
