##NAMES=Hanksite
##RRUFFID=R050291
##IDEAL CHEMISTRY=KNa_22_(S^6+^O_4_)_9_(CO_3_)_2_Cl
##LOCALITY=Searles Lake, Trona, San Bernardino County, California, USA
##OWNER=RRUFF
##SOURCE=Marcus Origlieri
##DESCRIPTION=Pale yellow hexagonal prism with pyramidal terminations
##STATUS=The identification of this mineral has been confirmed by X-ray diffraction and chemical analysis
##URL=rruff.info/R050291
##MEASURED CHEMISTRY=K_1.00_(Na_21.65_K_0.35_)_Î£=22_(S_1.00_O_4_)_9_(CO_3_)_2_Cl_1.00_
141.0473, 440.6242
141.5294, 436.6024
142.0115, 433.9937
142.4937, 433.1393
142.9758, 432.7697
143.4579, 432.6586
143.9400, 432.9767
144.4221, 432.6361
144.9042, 431.3793
145.3864, 429.5995
145.8685, 427.9010
146.3506, 425.5986
146.8327, 424.2437
147.3148, 424.4703
147.7969, 427.1625
148.2791, 429.4363
148.7612, 431.4391
149.2433, 433.0242
149.7254, 433.8333
150.2075, 432.3257
150.6896, 431.3888
151.1718, 432.1374
151.6539, 436.2279
152.1360, 439.5733
152.6181, 441.9828
153.1002, 443.5890
153.5823, 444.7653
154.0645, 445.2556
154.5466, 445.5441
155.0287, 445.8388
155.5108, 445.6915
155.9929, 446.1083
156.4750, 447.7368
156.9572, 450.2042
157.4393, 451.9665
157.9214, 452.2660
158.4035, 452.0370
158.8856, 451.8658
159.3677, 452.6369
159.8499, 452.7268
160.3320, 451.2884
160.8141, 448.5829
161.2962, 446.1354
161.7783, 444.8608
162.2604, 443.9218
162.7426, 442.6278
163.2247, 439.1667
163.7068, 436.7099
164.1889, 437.5670
164.6710, 441.4623
165.1531, 444.4929
165.6353, 443.7943
166.1174, 441.5487
166.5995, 440.1043
167.0816, 440.9531
167.5637, 442.3761
168.0458, 443.2991
168.5280, 443.6926
169.0101, 444.0688
169.4922, 444.6463
169.9743, 445.4193
170.4564, 446.3799
170.9385, 448.3343
171.4207, 449.9951
171.9028, 449.5569
172.3849, 446.8329
172.8670, 444.8202
173.3491, 446.1074
173.8312, 449.7255
174.3134, 453.8404
174.7955, 457.8626
175.2776, 461.7892
175.7597, 465.7834
176.2418, 469.9640
176.7239, 473.5378
177.2061, 474.9528
177.6882, 475.1130
178.1703, 476.4342
178.6524, 481.7464
179.1345, 488.5836
179.6166, 492.5303
180.0988, 493.1133
180.5809, 492.2537
181.0630, 491.7504
181.5451, 491.5619
182.0272, 491.5454
182.5093, 492.1041
182.9915, 492.7595
183.4736, 492.1996
183.9557, 490.1584
184.4378, 487.5309
184.9199, 485.5287
185.4020, 484.0751
185.8842, 482.3682
186.3663, 479.9031
186.8484, 476.8171
187.3305, 473.5444
187.8126, 469.9184
188.2947, 466.5494
188.7769, 464.5681
189.2590, 463.9222
189.7411, 463.5208
190.2232, 463.0612
190.7053, 462.4398
191.1874, 460.8215
191.6696, 457.8712
192.1517, 454.3834
192.6338, 451.3550
193.1159, 448.7450
193.5980, 447.6125
194.0801, 449.9848
194.5623, 455.4313
195.0444, 457.2882
195.5265, 453.8837
196.0086, 448.1161
196.4907, 446.5785
196.9728, 449.7480
197.4550, 453.1016
197.9371, 453.6146
198.4192, 451.2340
198.9013, 449.4534
199.3834, 448.6375
199.8655, 448.5199
200.3477, 448.4089
200.8298, 448.2302
201.3119, 448.4120
201.7940, 449.6627
202.2761, 452.2067
202.7582, 453.1193
203.2404, 451.5788
203.7225, 448.6777
204.2046, 447.4328
204.6867, 448.0576
205.1688, 449.6128
205.6509, 451.8512
206.1331, 455.0278
206.6152, 457.2347
207.0973, 458.0446
207.5794, 457.9221
208.0615, 458.2378
208.5436, 459.0041
209.0258, 460.1782
209.5079, 461.9999
209.9900, 464.8170
210.4721, 466.4945
210.9542, 466.3990
211.4363, 465.2001
211.9185, 465.1891
212.4006, 466.6192
212.8827, 468.6940
213.3648, 471.1774
213.8469, 474.5567
214.3290, 476.6247
214.8112, 477.0007
215.2933, 475.9872
215.7754, 474.5602
216.2575, 472.4876
216.7396, 470.4252
217.2217, 468.8102
217.7038, 467.8185
218.1860, 466.6536
218.6681, 464.8718
219.1502, 462.9419
219.6323, 462.9502
220.1144, 466.1848
220.5965, 469.1580
221.0787, 469.6649
221.5608, 466.6256
222.0429, 464.1187
222.5250, 462.6472
223.0071, 461.8590
223.4892, 460.4032
223.9714, 457.6842
224.4535, 455.2267
224.9356, 453.7876
225.4177, 453.4291
225.8998, 454.0989
226.3819, 456.4454
226.8641, 459.7472
227.3462, 461.2724
227.8283, 459.9621
228.3104, 458.4850
228.7925, 458.3376
229.2746, 460.4647
229.7568, 461.6990
230.2389, 461.4181
230.7210, 460.2572
231.2031, 460.2963
231.6852, 462.0402
232.1673, 464.2248
232.6495, 466.3357
233.1316, 468.6998
233.6137, 470.1945
234.0958, 470.3468
234.5779, 469.6910
235.0600, 469.7737
235.5422, 471.0853
236.0243, 472.4322
236.5064, 473.1738
236.9885, 472.5802
237.4706, 473.0749
237.9527, 475.2443
238.4349, 478.3398
238.9170, 480.3815
239.3991, 480.5724
239.8812, 480.8977
240.3633, 482.1888
240.8454, 484.6982
241.3276, 487.5909
241.8097, 491.1076
242.2918, 494.8797
242.7739, 498.0025
243.2560, 499.9860
243.7381, 502.0840
244.2203, 504.8970
244.7024, 508.9724
245.1845, 512.1752
245.6666, 514.0939
246.1487, 515.3331
246.6308, 517.0270
247.1130, 519.0419
247.5951, 521.7635
248.0772, 525.6395
248.5593, 531.4928
249.0414, 535.5206
249.5235, 537.2268
250.0057, 537.4087
250.4878, 537.3432
250.9699, 536.9599
251.4520, 536.4478
251.9341, 535.9139
252.4162, 535.4327
252.8984, 534.5146
253.3805, 532.9608
253.8626, 531.1091
254.3447, 529.4639
254.8268, 527.9447
255.3089, 526.7535
255.7911, 526.0529
256.2732, 525.9234
256.7553, 525.6259
257.2374, 525.3389
257.7195, 524.7037
258.2017, 523.1754
258.6838, 520.2956
259.1659, 517.5635
259.6480, 515.4948
260.1301, 514.1632
260.6122, 511.9862
261.0944, 508.6963
261.5765, 504.8769
262.0586, 501.0429
262.5407, 497.0768
263.0228, 493.4759
263.5049, 490.5161
263.9871, 488.1382
264.4692, 485.3798
264.9513, 481.9581
265.4334, 478.5743
265.9155, 475.8708
266.3976, 474.0942
266.8798, 472.3289
267.3619, 470.4414
267.8440, 468.4308
268.3261, 466.3770
268.8082, 464.1672
269.2903, 462.1549
269.7725, 460.7116
270.2546, 459.9809
270.7367, 459.2397
271.2188, 458.4337
271.7009, 457.5408
272.1830, 456.3678
272.6652, 454.7809
273.1473, 453.2980
273.6294, 452.1562
274.1115, 451.3039
274.5936, 451.1780
275.0757, 451.8818
275.5579, 453.2844
276.0400, 455.4682
276.5221, 458.9144
277.0042, 461.1817
277.4863, 460.2837
277.9684, 455.9365
278.4506, 452.2502
278.9327, 449.4211
279.4148, 447.4890
279.8969, 446.8240
280.3790, 447.6024
280.8611, 448.4281
281.3433, 448.3907
281.8254, 447.5042
282.3075, 447.4188
282.7896, 448.4066
283.2717, 449.7175
283.7538, 450.3621
284.2360, 450.3535
284.7181, 449.4273
285.2002, 446.8660
285.6823, 442.9552
286.1644, 440.3151
286.6465, 439.0636
287.1287, 438.7262
287.6108, 438.7779
288.0929, 439.2195
288.5750, 440.1665
289.0571, 442.1270
289.5392, 444.6442
290.0214, 445.6732
290.5035, 445.0863
290.9856, 444.0694
291.4677, 443.8948
291.9498, 444.4255
292.4319, 444.7615
292.9141, 444.3325
293.3962, 443.6995
293.8783, 444.5060
294.3604, 446.7754
294.8425, 448.9475
295.3246, 449.5449
295.8068, 448.9394
296.2889, 448.3517
296.7710, 448.0812
297.2531, 447.9610
297.7352, 447.7432
298.2173, 447.4330
298.6995, 447.0597
299.1816, 446.5647
299.6637, 446.0252
300.1458, 445.4992
300.6279, 444.7758
301.1100, 444.5274
301.5922, 446.2560
302.0743, 449.4289
302.5564, 451.9008
303.0385, 451.8527
303.5206, 450.5043
304.0027, 449.5418
304.4849, 449.1839
304.9670, 449.2111
305.4491, 449.7057
305.9312, 450.4553
306.4133, 450.9518
306.8954, 450.5961
307.3776, 450.0602
307.8597, 450.1305
308.3418, 450.9172
308.8239, 451.6925
309.3060, 451.7865
309.7881, 451.5470
310.2703, 451.5159
310.7524, 452.1383
311.2345, 452.8904
311.7166, 453.7188
312.1987, 454.5760
312.6808, 454.5199
313.1630, 451.9185
313.6451, 448.5289
314.1272, 446.2176
314.6093, 445.9660
315.0914, 446.5938
315.5735, 448.1497
316.0557, 450.3625
316.5378, 451.8061
317.0199, 450.5756
317.5020, 449.0959
317.9841, 449.3122
318.4662, 453.4828
318.9484, 456.6511
319.4305, 456.4537
319.9126, 453.9485
320.3947, 451.9118
320.8768, 451.7220
321.3589, 451.7720
321.8411, 451.0121
322.3232, 448.3844
322.8053, 447.2580
323.2874, 449.7166
323.7695, 453.8040
324.2516, 456.4227
324.7338, 455.4338
325.2159, 454.4373
325.6980, 454.8023
326.1801, 457.1191
326.6622, 458.4006
327.1443, 457.1611
327.6265, 455.3576
328.1086, 454.9688
328.5907, 457.8257
329.0728, 460.0843
329.5549, 460.9800
330.0370, 460.5008
330.5192, 460.2530
331.0013, 460.5165
331.4834, 460.7765
331.9655, 460.6810
332.4476, 460.1220
332.9297, 459.3539
333.4119, 458.1277
333.8940, 456.6757
334.3761, 456.1465
334.8582, 457.0618
335.3403, 458.0757
335.8224, 458.5019
336.3046, 458.1677
336.7867, 457.6253
337.2688, 456.4759
337.7509, 455.4236
338.2330, 456.2896
338.7151, 459.9101
339.1973, 462.8010
339.6794, 463.4109
340.1615, 461.6277
340.6436, 459.8187
341.1257, 457.7070
341.6078, 456.2244
342.0899, 457.2431
342.5721, 461.0201
343.0542, 463.6161
343.5363, 463.4101
344.0184, 461.1329
344.5005, 460.0236
344.9826, 460.2195
345.4648, 460.6603
345.9469, 459.8997
346.4290, 458.2306
346.9111, 458.2603
347.3932, 461.1133
347.8753, 465.0339
348.3575, 466.5127
348.8396, 465.6923
349.3217, 464.3048
349.8038, 462.7841
350.2859, 461.5863
350.7680, 462.2339
351.2502, 465.3158
351.7323, 468.6383
352.2144, 469.6471
352.6965, 468.8148
353.1786, 467.5375
353.6607, 465.7978
354.1429, 464.3466
354.6250, 464.4066
355.1071, 466.0746
355.5892, 467.9004
356.0713, 468.9908
356.5534, 469.4812
357.0356, 469.5620
357.5177, 469.0480
357.9998, 468.3702
358.4819, 467.9238
358.9640, 467.6371
359.4461, 467.1116
359.9283, 465.5553
360.4104, 463.9779
360.8925, 463.2650
361.3746, 463.9672
361.8567, 464.9302
362.3388, 465.7461
362.8210, 466.4688
363.3031, 467.2449
363.7852, 468.3139
364.2673, 469.2842
364.7494, 469.8879
365.2315, 469.9276
365.7137, 470.2278
366.1958, 471.7186
366.6779, 473.2827
367.1600, 473.6192
367.6421, 470.3607
368.1242, 468.1641
368.6064, 468.6252
369.0885, 471.9413
369.5706, 473.8544
370.0527, 473.4433
370.5348, 472.3630
371.0169, 471.5760
371.4991, 470.3810
371.9812, 470.8141
372.4633, 474.2245
372.9454, 479.3316
373.4275, 481.3662
373.9096, 478.8986
374.3918, 475.8834
374.8739, 474.1557
375.3560, 473.9810
375.8381, 473.7614
376.3202, 473.3810
376.8023, 473.1045
377.2845, 473.5818
377.7666, 475.0613
378.2487, 475.8156
378.7308, 474.7049
379.2129, 472.2236
379.6950, 472.1206
380.1772, 474.7035
380.6593, 478.0555
381.1414, 481.0585
381.6235, 483.5562
382.1056, 484.0126
382.5877, 481.3268
383.0699, 477.5040
383.5520, 476.8147
384.0341, 478.9467
384.5162, 480.7750
384.9983, 479.5359
385.4804, 476.6725
385.9626, 475.3807
386.4447, 476.1156
386.9268, 477.6632
387.4089, 479.1834
387.8910, 480.5850
388.3731, 481.6277
388.8553, 482.2391
389.3374, 482.4228
389.8195, 481.8940
390.3016, 480.7203
390.7837, 479.8289
391.2658, 480.0142
391.7480, 480.7018
392.2301, 481.3077
392.7122, 481.7044
393.1943, 481.9581
393.6764, 482.1561
394.1585, 482.2482
394.6407, 482.0833
395.1228, 480.8770
395.6049, 479.9880
396.0870, 480.2437
396.5691, 482.1624
397.0512, 483.8501
397.5334, 485.3167
398.0155, 486.2437
398.4976, 486.2189
398.9797, 483.7657
399.4618, 481.8914
399.9439, 481.4349
400.4261, 482.3818
400.9082, 482.7376
401.3903, 481.7065
401.8724, 480.8251
402.3545, 481.0816
402.8366, 482.7892
403.3188, 485.1029
403.8009, 488.8265
404.2830, 492.7587
404.7651, 493.4391
405.2472, 489.7573
405.7293, 485.9718
406.2115, 483.6351
406.6936, 482.7760
407.1757, 483.3288
407.6578, 485.7466
408.1399, 488.3617
408.6220, 488.9177
409.1042, 487.4727
409.5863, 486.6793
410.0684, 487.5373
410.5505, 489.2559
411.0326, 489.8954
411.5147, 489.4885
411.9969, 488.9901
412.4790, 488.9822
412.9611, 489.3981
413.4432, 490.2187
413.9253, 491.5947
414.4074, 492.8100
414.8896, 492.8611
415.3717, 492.1487
415.8538, 491.6082
416.3359, 491.5300
416.8180, 491.9267
417.3001, 492.9700
417.7823, 494.6493
418.2644, 496.3415
418.7465, 498.4487
419.2286, 500.0729
419.7107, 500.2022
420.1928, 496.8889
420.6750, 494.3231
421.1571, 494.3855
421.6392, 496.4153
422.1213, 498.7129
422.6034, 501.8344
423.0855, 504.2599
423.5677, 505.0384
424.0498, 503.3377
424.5319, 502.7411
425.0140, 505.3125
425.4961, 508.2733
425.9782, 508.6754
426.4604, 503.1611
426.9425, 500.0992
427.4246, 501.6852
427.9067, 507.0899
428.3888, 510.2350
428.8709, 510.0500
429.3531, 509.4984
429.8352, 510.3105
430.3173, 512.7956
430.7994, 515.0648
431.2815, 517.1598
431.7636, 518.8580
432.2458, 519.1589
432.7279, 517.8842
433.2100, 518.1783
433.6921, 521.8163
434.1742, 527.7817
434.6563, 532.3770
435.1385, 535.6444
435.6206, 538.0976
436.1027, 539.7816
436.5848, 540.9969
437.0669, 542.3523
437.5490, 543.6363
438.0312, 545.9491
438.5133, 551.8785
438.9954, 560.0736
439.4775, 566.7694
439.9596, 568.4845
440.4417, 568.8329
440.9239, 570.8461
441.4060, 574.7055
441.8881, 579.6985
442.3702, 585.3766
442.8523, 591.9535
443.3344, 599.6851
443.8166, 608.8009
444.2987, 618.8780
444.7808, 629.3062
445.2629, 640.5255
445.7450, 653.9470
446.2271, 670.8461
446.7093, 688.7996
447.1914, 706.6790
447.6735, 723.8937
448.1556, 743.0782
448.6377, 765.0085
449.1198, 788.1862
449.6020, 811.0778
450.0841, 832.2880
450.5662, 855.5099
451.0483, 883.2591
451.5304, 913.4461
452.0125, 936.3667
452.4947, 952.0020
452.9768, 961.0338
453.4589, 963.3002
453.9410, 958.6764
454.4231, 949.9968
454.9052, 936.6801
455.3874, 921.1253
455.8695, 904.9070
456.3516, 888.3571
456.8337, 874.4476
457.3158, 863.9846
457.7979, 856.6467
458.2801, 853.2781
458.7622, 853.2864
459.2443, 852.3382
459.7264, 847.1935
460.2085, 839.4600
460.6906, 830.9767
461.1728, 821.8206
461.6549, 812.9577
462.1370, 804.6609
462.6191, 797.3286
463.1012, 791.7501
463.5833, 789.1993
464.0655, 787.5223
464.5476, 785.7764
465.0297, 784.0228
465.5118, 782.9525
465.9939, 784.9242
466.4760, 786.0513
466.9582, 784.1118
467.4403, 777.3020
467.9224, 770.2678
468.4045, 763.5956
468.8866, 756.6030
469.3687, 748.1759
469.8509, 738.2925
470.3330, 727.1954
470.8151, 714.3670
471.2972, 700.1149
471.7793, 687.9899
472.2614, 678.6339
472.7436, 669.3483
473.2257, 657.7147
473.7078, 643.6234
474.1899, 631.2586
474.6720, 620.9804
475.1541, 612.1292
475.6363, 603.6424
476.1184, 595.6399
476.6005, 588.9595
477.0826, 584.6688
477.5647, 581.4697
478.0468, 576.8439
478.5290, 570.9780
479.0111, 565.5706
479.4932, 562.6429
479.9753, 560.4927
480.4574, 557.0086
480.9395, 551.5194
481.4217, 545.6235
481.9038, 539.4576
482.3859, 533.7792
482.8680, 529.7996
483.3501, 528.8058
483.8322, 528.7068
484.3144, 529.2150
484.7965, 530.2076
485.2786, 530.4914
485.7607, 529.4238
486.2428, 527.9500
486.7249, 526.4623
487.2071, 524.6219
487.6892, 523.6184
488.1713, 524.2701
488.6534, 525.1955
489.1355, 524.0844
489.6176, 519.9174
490.0998, 516.7745
490.5819, 515.8908
491.0640, 516.7687
491.5461, 517.0224
492.0282, 516.6722
492.5103, 515.6516
492.9925, 513.2281
493.4746, 509.8672
493.9567, 508.2808
494.4388, 508.7854
494.9209, 510.2335
495.4030, 511.9877
495.8852, 513.6708
496.3673, 514.3273
496.8494, 512.6586
497.3315, 510.6784
497.8136, 510.5932
498.2957, 511.9638
498.7779, 513.0101
499.2600, 512.1196
499.7421, 511.0456
500.2242, 511.2917
500.7063, 513.5085
501.1884, 514.9264
501.6706, 514.0698
502.1527, 512.3023
502.6348, 511.0082
503.1169, 510.6668
503.5990, 510.4689
504.0811, 510.4571
504.5633, 510.5461
505.0454, 510.3568
505.5275, 509.6047
506.0096, 509.0817
506.4917, 509.2627
506.9738, 510.2601
507.4560, 510.5125
507.9381, 509.8722
508.4202, 508.8776
508.9023, 507.8217
509.3844, 506.7473
509.8665, 506.5022
510.3487, 507.4168
510.8308, 508.9124
511.3129, 509.9968
511.7950, 510.7859
512.2772, 511.8126
512.7593, 514.2177
513.2414, 516.5567
513.7235, 516.7516
514.2056, 514.8552
514.6877, 512.8743
515.1699, 511.5490
515.6520, 511.0040
516.1341, 511.5618
516.6162, 514.3098
517.0983, 516.1469
517.5804, 514.9227
518.0626, 512.3675
518.5447, 511.3217
519.0268, 514.3497
519.5089, 516.6533
519.9910, 516.7546
520.4731, 514.8410
520.9553, 513.8694
521.4374, 514.2337
521.9195, 514.9693
522.4016, 515.7678
522.8837, 516.8585
523.3658, 516.5958
523.8480, 514.5533
524.3301, 512.0505
524.8122, 510.8527
525.2943, 510.9095
525.7764, 511.3345
526.2585, 511.9357
526.7407, 512.7286
527.2228, 514.2022
527.7049, 516.1279
528.1870, 517.1357
528.6691, 515.1649
529.1512, 512.4675
529.6334, 511.8268
530.1155, 513.4746
530.5976, 515.5848
531.0797, 517.8982
531.5618, 519.7448
532.0439, 520.3495
532.5261, 518.0655
533.0082, 516.6164
533.4903, 517.7026
533.9724, 520.1840
534.4545, 521.6396
534.9366, 520.5938
535.4188, 519.9647
535.9009, 520.7247
536.3830, 522.8238
536.8651, 523.8115
537.3472, 523.4384
537.8293, 522.4743
538.3115, 521.0709
538.7936, 519.1135
539.2757, 518.6664
539.7578, 520.1585
540.2399, 522.2581
540.7220, 523.2384
541.2042, 523.2274
541.6863, 523.0338
542.1684, 522.8715
542.6505, 522.6816
543.1326, 522.2651
543.6147, 521.7085
544.0969, 521.3481
544.5790, 521.2328
545.0611, 521.4952
545.5432, 522.5880
546.0253, 524.6067
546.5074, 525.8979
546.9896, 524.9520
547.4717, 523.4320
547.9538, 522.6951
548.4359, 523.8773
548.9180, 524.6090
549.4001, 524.2315
549.8823, 523.4491
550.3644, 523.4965
550.8465, 524.8481
551.3286, 526.1703
551.8107, 527.2355
552.2928, 528.0206
552.7750, 528.3239
553.2571, 528.1432
553.7392, 527.5225
554.2213, 526.0844
554.7034, 524.0948
555.1855, 523.1725
555.6677, 523.4815
556.1498, 524.1816
556.6319, 524.3555
557.1140, 524.2616
557.5961, 524.4664
558.0782, 525.3077
558.5604, 526.1936
559.0425, 526.6008
559.5246, 526.6828
560.0067, 526.7788
560.4888, 527.0294
560.9709, 527.3208
561.4531, 527.6533
561.9352, 528.0248
562.4173, 528.2352
562.8994, 527.4495
563.3815, 527.1760
563.8636, 528.5476
564.3458, 533.3121
564.8279, 534.7123
565.3100, 531.4239
565.7921, 526.4690
566.2742, 523.6335
566.7563, 523.0275
567.2385, 523.4152
567.7206, 524.8790
568.2027, 526.7668
568.6848, 527.5938
569.1669, 527.4617
569.6490, 527.0334
570.1312, 526.2969
570.6133, 525.6434
571.0954, 525.8287
571.5775, 526.8113
572.0596, 527.7090
572.5417, 527.7032
573.0239, 527.5135
573.5060, 527.7496
573.9881, 528.5575
574.4702, 529.6945
574.9523, 532.0250
575.4344, 534.3228
575.9166, 534.9971
576.3987, 532.1437
576.8808, 530.0956
577.3629, 529.4385
577.8450, 529.8920
578.3271, 530.6318
578.8093, 531.8278
579.2914, 532.7747
579.7735, 533.0388
580.2556, 532.7328
580.7377, 532.7717
581.2198, 533.1569
581.7020, 533.8068
582.1841, 534.9421
582.6662, 536.2546
583.1483, 536.9757
583.6304, 536.9324
584.1125, 536.6156
584.5947, 536.8981
585.0768, 537.0779
585.5589, 536.0851
586.0410, 531.5418
586.5231, 528.0428
587.0052, 527.9838
587.4873, 530.4960
587.9694, 533.2173
588.4515, 537.1908
588.9337, 539.7732
589.4158, 539.6371
589.8979, 536.7611
590.3800, 535.5063
590.8621, 536.6678
591.3442, 538.0333
591.8264, 537.8832
592.3085, 536.0273
592.7906, 535.8789
593.2727, 537.9772
593.7548, 540.1609
594.2369, 539.1049
594.7191, 535.7997
595.2012, 534.2161
595.6833, 535.7701
596.1654, 538.4985
596.6475, 540.7155
597.1296, 542.4293
597.6118, 543.7133
598.0939, 544.0450
598.5760, 544.4609
599.0581, 545.9523
599.5402, 548.3088
600.0223, 549.7076
600.5045, 548.3293
600.9866, 547.1562
601.4687, 547.7365
601.9508, 550.6837
602.4329, 552.6432
602.9150, 553.0420
603.3972, 553.2299
603.8793, 554.2182
604.3614, 555.9677
604.8435, 559.0682
605.3256, 563.8417
605.8077, 569.3088
606.2899, 574.0981
606.7720, 578.2408
607.2541, 581.5950
607.7362, 583.0988
608.2183, 584.8387
608.7004, 589.4833
609.1826, 596.5185
609.6647, 603.9915
610.1468, 611.5013
610.6289, 618.8001
611.1110, 625.0322
611.5931, 630.1720
612.0753, 637.2985
612.5574, 647.9762
613.0395, 660.2223
613.5216, 672.9831
614.0037, 686.9189
614.4858, 700.0157
614.9680, 712.2540
615.4501, 723.6752
615.9322, 734.6330
616.4143, 745.1738
616.8964, 753.3964
617.3785, 758.3372
617.8607, 761.7677
618.3428, 765.6749
618.8249, 770.4521
619.3070, 777.7672
619.7891, 790.1435
620.2712, 804.1887
620.7534, 815.8778
621.2355, 826.0402
621.7176, 838.0104
622.1997, 855.4004
622.6818, 873.4793
623.1639, 889.2666
623.6461, 901.9378
624.1282, 916.4509
624.6103, 931.6447
625.0924, 950.2290
625.5745, 973.5889
626.0566, 1001.476
626.5388, 1036.100
627.0209, 1078.292
627.5030, 1125.210
627.9851, 1175.067
628.4672, 1227.116
628.9493, 1276.754
629.4315, 1327.365
629.9136, 1366.816
630.3957, 1376.230
630.8778, 1358.681
631.3599, 1322.870
631.8420, 1262.878
632.3242, 1194.503
632.8063, 1125.819
633.2884, 1058.372
633.7705, 995.8578
634.2526, 938.2234
634.7347, 887.1487
635.2169, 843.1130
635.6990, 806.7527
