##NAMES=Hanksite
##RRUFFID=R050291
##IDEAL CHEMISTRY=KNa_22_(S^6+^O_4_)_9_(CO_3_)_2_Cl
##LOCALITY=Searles Lake, Trona, San Bernardino County, California, USA
##OWNER=RRUFF
##SOURCE=Marcus Origlieri
##DESCRIPTION=Pale yellow hexagonal prism with pyramidal terminations
##STATUS=The identification of this mineral has been confirmed by X-ray diffraction and chemical analysis
##URL=rruff.info/R050291
##MEASURED CHEMISTRY=K_1.00_(Na_21.65_K_0.35_)_Î£=22_(S_1.00_O_4_)_9_(CO_3_)_2_Cl_1.00_
141.2172, 123.8290
141.6993, 123.4879
142.1814, 124.2022
142.6636, 125.6087
143.1457, 126.2751
143.6278, 125.3443
144.1099, 124.1951
144.5920, 124.0662
145.0741, 124.9611
145.5563, 126.0446
146.0384, 126.5507
146.5205, 126.3977
147.0026, 126.3626
147.4847, 126.8963
147.9668, 127.3793
148.4490, 127.3431
148.9311, 126.7254
149.4132, 125.9768
149.8953, 125.8211
150.3774, 126.6377
150.8595, 127.2962
151.3417, 127.3722
151.8238, 127.4569
152.3059, 128.2022
152.7880, 129.8126
153.2701, 131.7865
153.7522, 132.8332
154.2344, 132.1795
154.7165, 131.3363
155.1986, 129.7939
155.6807, 128.2326
156.1628, 127.6480
156.6449, 128.6127
157.1271, 130.6449
157.6092, 131.7574
158.0913, 131.5346
158.5734, 131.0825
159.0555, 130.4912
159.5376, 129.8706
160.0198, 129.5627
160.5019, 129.8974
160.9840, 130.6065
161.4661, 130.7153
161.9482, 129.8541
162.4303, 128.8158
162.9125, 127.9947
163.3946, 127.3934
163.8767, 127.1658
164.3588, 127.7347
164.8409, 128.6542
165.3230, 129.1795
165.8052, 129.1316
166.2873, 128.6880
166.7694, 127.9814
167.2515, 126.9019
167.7336, 125.9301
168.2157, 125.2731
168.6979, 124.8540
169.1800, 124.6270
169.6621, 124.6259
170.1442, 124.7677
170.6263, 124.8357
171.1084, 124.8836
171.5906, 124.7464
172.0727, 124.0720
172.5548, 123.2634
173.0369, 122.9309
173.5190, 123.5399
174.0011, 124.9381
174.4833, 125.8359
174.9654, 125.5721
175.4475, 125.4305
175.9296, 125.7790
176.4117, 126.4466
176.8938, 127.0786
177.3760, 127.3950
177.8581, 127.3828
178.3402, 127.5608
178.8223, 128.0099
179.3044, 128.5430
179.7865, 129.2915
180.2687, 130.1119
180.7508, 130.6120
181.2329, 130.3945
181.7150, 129.3657
182.1971, 128.7775
182.6792, 128.8782
183.1614, 129.1406
183.6435, 129.4525
184.1256, 129.7357
184.6077, 129.6485
185.0898, 128.7440
185.5719, 126.9629
186.0540, 125.6642
186.5362, 125.1429
187.0183, 124.9618
187.5004, 124.8677
187.9825, 124.8544
188.4646, 124.5872
188.9467, 123.4263
189.4289, 121.6446
189.9110, 120.3802
190.3931, 120.2247
190.8752, 120.6371
191.3573, 120.7856
191.8394, 120.5586
192.3216, 120.2159
192.8037, 119.9879
193.2858, 119.8106
193.7679, 119.5191
194.2500, 118.8589
194.7321, 118.0095
195.2143, 117.5582
195.6964, 117.6519
196.1785, 117.9748
196.6606, 118.4704
197.1427, 119.0342
197.6248, 119.4245
198.1070, 119.4069
198.5891, 119.0313
199.0712, 118.8028
199.5533, 118.7315
200.0354, 118.8235
200.5175, 119.3402
200.9997, 120.0359
201.4818, 120.3724
201.9639, 119.8003
202.4460, 118.2851
202.9281, 117.2533
203.4102, 116.9206
203.8924, 116.9289
204.3745, 117.2692
204.8566, 117.8876
205.3387, 118.7493
205.8208, 119.9292
206.3029, 121.5694
206.7851, 122.1810
207.2672, 120.7565
207.7493, 119.3661
208.2314, 118.8506
208.7135, 119.1360
209.1956, 119.6917
209.6778, 120.0618
210.1599, 120.2289
210.6420, 120.2990
211.1241, 119.8788
211.6062, 119.7112
212.0883, 120.4180
212.5705, 121.8584
213.0526, 123.2701
213.5347, 123.9813
214.0168, 123.8910
214.4989, 123.6908
214.9810, 123.2266
215.4632, 122.7799
215.9453, 122.6238
216.4274, 122.7412
216.9095, 122.7822
217.3916, 122.4211
217.8737, 121.6361
218.3559, 120.9187
218.8380, 119.9418
219.3201, 119.2456
219.8022, 119.5506
220.2843, 120.9085
220.7664, 122.2029
221.2486, 122.4436
221.7307, 121.8349
222.2128, 121.2875
222.6949, 120.8861
223.1770, 120.6243
223.6591, 120.5006
224.1413, 120.5153
224.6234, 120.6584
225.1055, 121.1161
225.5876, 121.6866
226.0697, 121.9671
226.5518, 121.6224
227.0340, 121.0474
227.5161, 120.8624
227.9982, 121.1709
228.4803, 121.5095
228.9624, 121.4778
229.4445, 121.3355
229.9267, 121.4850
230.4088, 122.2973
230.8909, 123.2946
231.3730, 123.4250
231.8551, 122.2672
232.3372, 121.3117
232.8194, 121.1580
233.3015, 121.5333
233.7836, 122.2696
234.2657, 123.4755
234.7478, 124.7225
235.2299, 124.8979
235.7121, 123.3053
236.1942, 122.0350
236.6763, 121.7627
237.1584, 122.0460
237.6405, 122.5002
238.1227, 122.9981
238.6048, 123.4436
239.0869, 123.5419
239.5690, 122.9463
240.0511, 122.6197
240.5332, 122.7027
241.0154, 123.1102
241.4975, 123.8410
241.9796, 124.8995
242.4617, 126.1097
242.9438, 127.0101
243.4259, 127.3985
243.9081, 127.7744
244.3902, 128.2982
244.8723, 128.7896
245.3544, 129.0313
245.8365, 128.9461
246.3186, 128.6927
246.8007, 128.6279
247.2829, 128.7954
247.7650, 129.1245
248.2471, 129.6881
248.7292, 130.3570
249.2113, 131.0854
249.6934, 131.8407
250.1756, 132.5012
250.6577, 132.8308
251.1398, 132.7410
251.6219, 132.3796
252.1040, 131.3612
252.5861, 130.2899
253.0683, 129.8224
253.5504, 130.1183
254.0325, 130.6694
254.5146, 130.6229
254.9967, 129.3941
255.4788, 128.6451
255.9610, 128.8116
256.4431, 129.2050
256.9252, 129.2563
257.4073, 128.8268
257.8894, 128.0850
258.3716, 127.2136
258.8537, 126.0609
259.3358, 125.2395
259.8179, 124.9646
260.3000, 124.8887
260.7821, 124.8210
261.2643, 124.7032
261.7464, 124.3508
262.2285, 123.4882
262.7106, 121.9416
263.1927, 120.7120
263.6748, 119.9005
264.1570, 119.3586
264.6391, 119.1514
265.1212, 119.2424
265.6033, 119.1138
266.0854, 118.0950
266.5675, 116.1577
267.0497, 115.0699
267.5318, 115.9410
268.0139, 116.9357
268.4960, 116.2455
268.9781, 113.8684
269.4602, 111.7111
269.9424, 111.4320
270.4245, 112.7485
270.9066, 113.1820
271.3887, 111.9364
271.8708, 110.3529
272.3529, 109.4130
272.8351, 109.0953
273.3172, 108.9934
273.7993, 109.0371
274.2814, 109.0561
274.7635, 108.5807
275.2456, 107.0157
275.7278, 105.6121
276.2099, 105.5176
276.6920, 106.5628
277.1741, 107.3469
277.6562, 107.1543
278.1383, 106.2951
278.6204, 105.4764
279.1025, 104.5512
279.5847, 103.9642
280.0668, 104.2385
280.5489, 105.2203
281.0310, 106.0051
281.5131, 106.3091
281.9952, 106.2042
282.4774, 105.8431
282.9595, 105.2005
283.4416, 104.4642
283.9237, 103.5447
284.4058, 102.5665
284.8879, 102.0930
285.3701, 102.4341
285.8522, 103.1115
286.3343, 103.7204
286.8164, 104.2590
287.2985, 104.5055
287.7806, 104.0145
288.2628, 103.0959
288.7449, 102.8859
289.2270, 103.9270
289.7091, 104.9875
290.1912, 104.8259
290.6733, 103.7725
291.1555, 103.0143
291.6376, 103.4756
292.1197, 104.5905
292.6018, 104.9393
293.0839, 104.1942
293.5660, 103.3023
294.0482, 102.9464
294.5303, 102.8899
295.0124, 102.6828
295.4945, 101.9093
295.9766, 101.0167
296.4587, 100.9435
296.9409, 101.9545
297.4230, 102.8773
297.9051, 102.9686
298.3872, 102.6638
298.8693, 102.4685
299.3514, 102.6079
299.8336, 102.7684
300.3157, 102.4496
300.7978, 101.5481
301.2799, 100.7779
301.7620, 100.4241
302.2441, 100.3304
302.7263, 100.3985
303.2084, 100.6226
303.6905, 100.9436
304.1726, 101.2646
304.6547, 101.5766
305.1368, 102.1291
305.6190, 103.4195
306.1011, 104.6072
306.5832, 105.0029
307.0653, 104.5759
307.5474, 103.8638
308.0295, 103.1238
308.5117, 102.3863
308.9938, 102.0748
309.4759, 102.7132
309.9580, 103.2253
310.4401, 102.7304
310.9222, 101.4582
311.4044, 100.3048
311.8865, 99.96161
312.3686, 100.2369
312.8507, 100.2490
313.3328, 99.79095
313.8149, 99.40991
314.2971, 99.35121
314.7792, 99.56412
315.2613, 100.0009
315.7434, 100.8248
316.2255, 101.7392
316.7076, 102.0200
317.1898, 101.4234
317.6719, 100.8731
318.1540, 100.9255
318.6361, 101.1836
319.1182, 101.1531
319.6003, 100.5776
320.0825, 99.97777
320.5646, 100.2151
321.0467, 101.4687
321.5288, 102.4108
322.0109, 102.2667
322.4930, 101.8515
322.9752, 101.8175
323.4573, 102.2713
323.9394, 102.8046
324.4215, 103.1719
324.9036, 103.3668
325.3857, 103.0233
325.8679, 101.4738
326.3500, 99.98296
326.8321, 99.53865
327.3142, 100.0257
327.7963, 100.6182
328.2784, 100.6579
328.7606, 100.3065
329.2427, 100.4189
329.7248, 101.3422
330.2069, 102.2063
330.6890, 102.5084
331.1711, 102.3773
331.6533, 102.0452
332.1354, 101.4381
332.6175, 100.7855
333.0996, 100.6258
333.5817, 101.1145
334.0638, 101.5924
334.5460, 101.5981
335.0281, 101.4513
335.5102, 101.5626
335.9923, 102.1574
336.4744, 102.7611
336.9565, 102.8248
337.4387, 102.3304
337.9208, 101.5631
338.4029, 100.0827
338.8850, 98.77478
339.3671, 98.66497
339.8492, 99.90871
340.3314, 101.2588
340.8135, 101.8801
341.2956, 101.8282
341.7777, 101.3291
342.2598, 100.0858
342.7419, 98.89117
343.2241, 98.31025
343.7062, 98.30489
344.1883, 98.79152
344.6704, 100.3189
345.1525, 102.2182
345.6346, 102.8156
346.1168, 101.6400
346.5989, 100.4111
347.0810, 100.7246
347.5631, 101.8215
348.0452, 102.3521
348.5273, 101.5288
349.0095, 100.3968
349.4916, 100.1900
349.9737, 100.9270
350.4558, 101.8037
350.9379, 102.7282
351.4200, 103.3840
351.9022, 103.2460
352.3843, 102.0295
352.8664, 100.7460
353.3485, 100.0409
353.8306, 99.82335
354.3127, 99.76107
354.7949, 99.81809
355.2770, 99.91054
355.7591, 99.92329
356.2412, 99.85833
356.7233, 99.80928
357.2054, 99.88350
357.6876, 99.97095
358.1697, 99.77541
358.6518, 99.19180
359.1339, 98.82522
359.6160, 99.47845
360.0981, 100.9011
360.5803, 101.7022
361.0624, 101.1583
361.5445, 100.3504
362.0266, 100.1997
362.5087, 100.6466
362.9908, 101.1204
363.4730, 101.3738
363.9551, 101.3820
364.4372, 101.0913
364.9193, 100.2065
365.4014, 99.53399
365.8835, 99.71822
366.3657, 100.3203
366.8478, 100.3608
367.3299, 99.44080
367.8120, 98.16855
368.2941, 97.47231
368.7762, 97.39716
369.2584, 97.62254
369.7405, 98.62831
370.2226, 99.61427
370.7047, 99.51977
371.1868, 98.30027
371.6689, 97.19530
372.1511, 97.38974
372.6332, 98.96278
373.1153, 100.0622
373.5974, 100.7034
374.0795, 100.9263
374.5616, 100.5771
375.0438, 99.81825
375.5259, 98.95677
376.0080, 98.11531
376.4901, 97.40569
376.9722, 97.25658
377.4543, 98.04054
377.9365, 98.88914
378.4186, 99.97526
378.9007, 100.9667
379.3828, 101.3976
379.8649, 101.1675
380.3470, 100.6723
380.8292, 100.4364
381.3113, 100.4506
381.7934, 100.8171
382.2755, 102.2782
382.7576, 103.4093
383.2397, 103.0316
383.7219, 101.4913
384.2040, 100.1476
384.6861, 100.1534
385.1682, 101.3788
385.6503, 101.7328
386.1324, 100.0252
386.6146, 98.73605
387.0967, 98.59794
387.5788, 99.02177
388.0609, 99.15827
388.5430, 98.65031
389.0251, 97.95158
389.5073, 98.05705
389.9894, 99.58195
390.4715, 100.6221
390.9536, 101.0151
391.4357, 101.0170
391.9178, 100.6113
392.4000, 99.90517
392.8821, 99.23323
393.3642, 98.90068
393.8463, 98.91154
394.3284, 99.15119
394.8105, 100.0792
395.2927, 100.6922
395.7748, 100.3080
396.2569, 99.45467
396.7390, 99.08377
397.2211, 99.79449
397.7032, 100.9881
398.1854, 101.2043
398.6675, 100.0305
399.1496, 99.13566
399.6317, 99.11589
400.1138, 99.47491
400.5959, 99.97591
401.0780, 100.5652
401.5602, 101.0265
402.0423, 101.0475
402.5244, 100.6814
403.0065, 100.5493
403.4886, 100.8747
403.9707, 101.2239
404.4529, 101.0404
404.9350, 100.5999
405.4171, 100.7313
405.8992, 102.6420
406.3813, 104.8913
406.8634, 104.8171
407.3456, 102.1353
407.8277, 99.73297
408.3098, 99.06541
408.7919, 99.55972
409.2740, 100.3162
409.7561, 101.5897
410.2383, 102.3218
410.7204, 101.2206
411.2025, 99.02766
411.6846, 98.03239
412.1667, 99.01904
412.6488, 100.7347
413.1310, 101.7660
413.6131, 102.1548
414.0952, 102.2439
414.5773, 101.8494
415.0594, 101.3427
415.5415, 100.9856
416.0237, 100.8151
416.5058, 100.9866
416.9879, 101.7929
417.4700, 102.9651
417.9521, 103.0374
418.4342, 100.8188
418.9164, 99.11900
419.3985, 98.94344
419.8806, 99.67735
420.3627, 100.5471
420.8448, 101.2987
421.3269, 101.8367
421.8091, 101.9638
422.2912, 101.3656
422.7733, 101.2888
423.2554, 102.1445
423.7375, 103.1182
424.2196, 103.7656
424.7018, 104.0929
425.1839, 104.3399
425.6660, 104.7147
426.1481, 105.1262
426.6302, 104.9130
427.1123, 102.7931
427.5945, 101.6557
428.0766, 102.5250
428.5587, 104.1816
429.0408, 105.4436
429.5229, 105.9424
430.0050, 106.0427
430.4872, 106.2416
430.9693, 106.5821
431.4514, 106.8376
431.9335, 106.6457
432.4156, 106.6988
432.8977, 107.3764
433.3799, 108.5394
433.8620, 109.8297
434.3441, 111.0787
434.8262, 112.2510
435.3083, 113.2625
435.7904, 114.1531
436.2726, 114.7563
436.7547, 114.5270
437.2368, 114.2433
437.7189, 114.7194
438.2010, 116.1488
438.6831, 117.6972
439.1653, 118.4212
439.6474, 118.5566
440.1295, 119.5414
440.6116, 122.0025
441.0937, 124.5501
441.5758, 125.5778
442.0580, 125.6330
442.5401, 126.4604
443.0222, 128.9584
443.5043, 132.1515
443.9864, 135.2800
444.4685, 138.3027
444.9507, 140.9161
445.4328, 142.6818
445.9149, 144.2589
446.3970, 147.1640
446.8791, 151.5396
447.3612, 156.4467
447.8434, 161.8268
448.3255, 167.5155
448.8076, 173.5173
449.2897, 179.8042
449.7718, 185.6917
450.2539, 190.2616
450.7361, 193.3979
451.2182, 198.6583
451.7003, 208.7959
452.1824, 217.7230
452.6645, 223.2076
453.1466, 226.0312
453.6288, 227.4374
454.1109, 227.9732
454.5930, 227.7772
455.0751, 227.0542
455.5572, 225.2829
456.0393, 224.0099
456.5215, 222.7658
457.0036, 222.3179
457.4857, 223.5844
457.9678, 226.1549
458.4499, 228.6433
458.9320, 229.8919
459.4142, 230.2014
459.8963, 231.5420
460.3784, 235.1753
460.8605, 237.5343
461.3426, 236.8154
461.8247, 235.0237
462.3069, 234.1327
462.7890, 234.6346
463.2711, 235.5288
463.7532, 235.8022
464.2353, 235.4995
464.7174, 235.2866
465.1996, 235.5219
465.6817, 235.3814
466.1638, 234.0648
466.6459, 231.9451
467.1280, 229.9338
467.6101, 228.4453
468.0923, 227.0956
468.5744, 225.6094
469.0565, 223.9507
469.5386, 221.9433
470.0207, 219.6746
470.5028, 216.8074
470.9850, 212.7604
471.4671, 207.5820
471.9492, 201.5046
472.4313, 193.9067
472.9134, 185.8047
473.3955, 178.1351
473.8777, 171.0415
474.3598, 164.4291
474.8419, 158.2953
475.3240, 152.6035
475.8061, 147.1376
476.2882, 141.7716
476.7704, 136.7252
477.2525, 131.6864
477.7346, 127.1618
478.2167, 123.9566
478.6988, 122.1962
479.1809, 121.1170
479.6631, 119.7555
480.1452, 118.0767
480.6273, 116.3311
481.1094, 114.3359
481.5915, 112.4696
482.0736, 110.8184
482.5558, 109.3916
483.0379, 108.1968
483.5200, 107.2416
484.0021, 106.4663
484.4842, 105.8068
484.9663, 105.3183
485.4485, 104.6654
485.9306, 103.4517
486.4127, 102.3455
486.8948, 101.8502
487.3769, 101.9023
487.8590, 102.0486
488.3412, 102.2449
488.8233, 102.2995
489.3054, 101.6526
489.7875, 100.2119
490.2696, 99.02098
490.7517, 98.79155
491.2339, 99.05967
491.7160, 98.83275
492.1981, 97.94211
492.6802, 97.05705
493.1623, 96.36410
493.6444, 95.88957
494.1266, 95.71831
494.6087, 95.85812
495.0908, 96.15009
495.5729, 96.50220
496.0550, 96.90779
496.5371, 97.07459
497.0193, 96.89197
497.5014, 96.64008
497.9835, 96.33043
498.4656, 96.02838
498.9477, 95.87318
499.4298, 95.89500
499.9120, 95.88818
500.3941, 95.50037
500.8762, 94.53119
501.3583, 93.97224
501.8404, 94.06319
502.3225, 94.32338
502.8047, 94.83804
503.2868, 95.36075
503.7689, 95.43755
504.2510, 94.79988
504.7331, 93.81717
505.2152, 93.12272
505.6974, 92.72544
506.1795, 92.56242
506.6616, 92.83095
507.1437, 93.13853
507.6258, 93.09413
508.1079, 92.78192
508.5901, 92.68484
509.0722, 93.46019
509.5543, 94.37620
510.0364, 94.13083
510.5185, 92.74106
511.0006, 91.60358
511.4828, 91.40147
511.9649, 91.82731
512.4470, 92.30960
512.9291, 92.97572
513.4112, 93.28978
513.8933, 92.79979
514.3754, 92.07790
514.8575, 91.68936
515.3397, 91.68639
515.8218, 91.91075
516.3039, 92.30011
516.7860, 92.78765
517.2681, 92.88593
517.7502, 91.97396
518.2324, 91.44862
518.7145, 91.86799
519.1966, 92.46737
519.6787, 92.43651
520.1608, 91.69903
520.6429, 90.85433
521.1251, 90.48555
521.6072, 90.58195
522.0893, 90.84588
522.5714, 91.55458
523.0535, 91.97818
523.5356, 91.77888
524.0178, 91.24120
524.4999, 90.64075
524.9820, 90.03294
525.4641, 89.50703
525.9462, 89.07536
526.4283, 88.77760
526.9105, 88.85100
527.3926, 89.43700
527.8747, 90.07108
528.3568, 90.37325
528.8389, 90.42584
529.3210, 90.52359
529.8032, 90.85589
530.2853, 91.05478
530.7674, 90.80598
531.2495, 90.30084
531.7316, 89.92703
532.2137, 89.79737
532.6959, 89.72200
533.1780, 89.40137
533.6601, 88.68489
534.1422, 88.70025
534.6243, 90.46471
535.1064, 91.73708
535.5886, 91.25456
536.0707, 89.85340
536.5528, 88.77748
537.0349, 88.53453
537.5170, 88.89655
537.9991, 89.71716
538.4813, 91.23906
538.9634, 91.94588
539.4455, 91.13993
539.9276, 90.17892
540.4097, 89.51622
540.8918, 89.18114
541.3740, 89.24133
541.8561, 89.87157
542.3382, 90.58982
542.8203, 90.83002
543.3024, 90.61769
543.7845, 90.10652
544.2667, 89.12828
544.7488, 88.26820
545.2309, 88.37526
545.7130, 89.32407
546.1951, 89.98055
546.6772, 90.09318
547.1594, 89.93896
547.6415, 89.44530
548.1236, 88.83505
548.6057, 88.72834
549.0878, 89.39754
549.5699, 90.29016
550.0521, 90.45227
550.5342, 89.50654
551.0163, 88.98138
551.4984, 89.28838
551.9805, 89.53300
552.4626, 89.14443
552.9448, 88.43508
553.4269, 88.07814
553.9090, 88.41421
554.3911, 89.01591
554.8732, 89.07042
555.3553, 88.46257
555.8375, 88.09922
556.3196, 88.16640
556.8017, 88.43462
557.2838, 88.96012
557.7659, 89.56549
558.2480, 89.72607
558.7302, 88.98315
559.2123, 88.04408
559.6944, 87.58405
560.1765, 87.54680
560.6586, 87.75707
561.1407, 88.23742
561.6229, 88.69090
562.1050, 88.69658
562.5871, 88.15691
563.0692, 87.85857
563.5513, 88.35001
564.0334, 88.54146
564.5156, 87.30543
564.9977, 85.49440
565.4798, 84.78423
565.9619, 85.82648
566.4440, 87.64337
566.9261, 88.69416
567.4083, 88.79774
567.8904, 88.86823
568.3725, 88.90749
568.8546, 88.90736
569.3367, 88.77914
569.8188, 88.63094
570.3010, 88.70848
570.7831, 89.16611
571.2652, 89.53883
571.7473, 89.04495
572.2294, 87.84281
572.7115, 87.31300
573.1937, 87.91997
573.6758, 88.61678
574.1579, 88.35583
574.6400, 87.42808
575.1221, 86.98297
575.6042, 87.50862
576.0864, 88.10505
576.5685, 88.40297
577.0506, 88.45739
577.5327, 88.29874
578.0148, 87.94983
578.4969, 87.56557
578.9791, 87.28459
579.4612, 87.09953
579.9433, 87.20786
580.4254, 88.10084
580.9075, 88.70926
581.3896, 88.57256
581.8718, 88.19482
582.3539, 88.17921
582.8360, 88.63669
583.3181, 89.13660
583.8002, 89.23090
584.2823, 88.97255
584.7645, 88.72380
585.2466, 88.43553
585.7287, 88.30573
586.2108, 88.60956
586.6929, 89.04790
587.1750, 89.11333
587.6572, 88.63560
588.1393, 88.37914
588.6214, 88.90483
589.1035, 89.74297
589.5856, 90.35707
590.0677, 90.67180
590.5499, 90.61186
591.0320, 90.04464
591.5141, 89.18949
591.9962, 88.87325
592.4783, 89.78329
592.9604, 90.27499
593.4426, 89.88915
593.9247, 89.44985
594.4068, 89.60598
594.8889, 90.25082
595.3710, 90.80574
595.8531, 90.82396
596.3353, 90.66460
596.8174, 91.39468
597.2995, 93.28886
597.7816, 94.42232
598.2637, 93.82800
598.7458, 92.90891
599.2280, 92.74725
599.7101, 93.29219
600.1922, 94.26955
600.6743, 96.20140
601.1564, 98.00522
601.6385, 98.44487
602.1207, 97.99263
602.6028, 98.10296
603.0849, 99.27544
603.5670, 100.9214
604.0491, 102.2771
604.5313, 103.2470
605.0134, 104.5283
605.4955, 106.3278
605.9776, 108.1605
606.4597, 109.8045
606.9418, 111.4278
607.4240, 113.1824
607.9061, 115.1266
608.3882, 117.3381
608.8703, 119.8242
609.3524, 122.5992
609.8345, 125.9903
610.3167, 130.1242
610.7988, 134.5502
611.2809, 138.9857
611.7630, 143.6204
612.2451, 148.6968
612.7272, 154.1922
613.2094, 160.2813
613.6915, 167.6967
614.1736, 175.4005
614.6557, 182.1290
615.1378, 187.8294
615.6199, 192.8522
616.1021, 197.4264
616.5842, 201.3823
617.0663, 204.0925
617.5484, 204.0276
618.0305, 205.3672
618.5126, 208.2891
618.9948, 212.3009
619.4769, 217.4151
619.9590, 223.3677
620.4411, 229.8991
620.9232, 237.1804
621.4053, 243.9388
621.8875, 248.0928
622.3696, 249.6660
622.8517, 250.2365
623.3338, 250.0849
623.8159, 248.8980
624.2980, 245.1498
624.7802, 240.0247
625.2623, 237.5424
625.7444, 238.3376
626.2265, 241.6250
626.7086, 247.2461
627.1907, 255.0504
627.6729, 265.5522
628.1550, 278.5144
628.6371, 291.9822
629.1192, 304.6403
629.6013, 316.1494
630.0834, 323.4029
630.5656, 326.7986
631.0477, 324.9346
631.5298, 315.9245
632.0119, 303.6403
632.4940, 290.3049
632.9761, 276.3264
633.4583, 261.6384
633.9404, 245.5683
634.4225, 229.2999
634.9046, 214.8564
635.3867, 202.0861
635.8688, 189.6169
