##NAMES=Hannebachite
##RRUFFID=R060572
##IDEAL CHEMISTRY=(CaS^4+^O_3_)_2_&#183;H_2_O
##LOCALITY=Hannebacher Ley, near Hannebach, Eifel, Germany
##OWNER=RRUFF
##SOURCE=Michael Scott
##DESCRIPTION=Colorless thin bladed crystals
##STATUS=The identification of this mineral is confirmed by single-crystal X-ray diffraction and chemical analysis.
##URL=rruff.info/R060572
##MEASURED CHEMISTRY=2Ca_1.00_S_1.00_O_3_Â·H_2_O; trace amounts of Fe; H_2_O estimated by difference
152.378, 14176.910
152.860, 14135.750
153.342, 14154.130
153.824, 14196.290
154.306, 14249.580
154.788, 14335.380
155.270, 14404.690
155.752, 14441.030
156.234, 14453.740
156.717, 14480.700
157.199, 14535.480
157.681, 14604.160
158.163, 14677.750
158.645, 14752.620
159.127, 14833.950
159.609, 14925.730
160.091, 15026.670
160.574, 15125.980
161.056, 15210.760
161.538, 15294.620
162.020, 15389.870
162.502, 15495.880
162.984, 15616.040
163.466, 15761.000
163.948, 15931.830
164.430, 16088.740
164.913, 16205.330
165.395, 16296.650
165.877, 16385.010
166.359, 16483.699
166.841, 16579.410
167.323, 16658.039
167.805, 16714.420
168.287, 16779.910
168.770, 16902.869
169.252, 17049.391
169.734, 17155.789
170.216, 17169.561
170.698, 17140.119
171.180, 17114.070
171.662, 17101.090
172.144, 17083.551
172.626, 17048.529
173.109, 16997.160
173.591, 16933.609
174.073, 16857.279
174.555, 16770.789
175.037, 16673.801
175.519, 16559.900
176.001, 16446.330
176.483, 16350.100
176.965, 16270.140
177.448, 16206.360
177.930, 16177.190
178.412, 16162.220
178.894, 16118.800
179.376, 16019.220
179.858, 15904.730
180.340, 15839.310
180.822, 15821.570
181.305, 15816.120
181.787, 15796.260
182.269, 15765.610
182.751, 15733.840
183.233, 15697.120
183.715, 15664.460
184.197, 15663.160
184.679, 15694.950
185.161, 15727.560
185.644, 15728.000
186.126, 15700.230
186.608, 15665.080
187.090, 15623.070
187.572, 15579.650
188.054, 15551.630
188.536, 15539.850
189.018, 15539.320
189.501, 15554.170
189.983, 15581.800
190.465, 15592.740
190.947, 15567.170
191.429, 15511.030
191.911, 15461.220
192.393, 15417.160
192.875, 15381.740
193.357, 15363.970
193.840, 15364.790
194.322, 15361.190
194.804, 15337.070
195.286, 15294.270
195.768, 15267.410
196.250, 15260.790
196.732, 15264.560
197.214, 15259.530
197.697, 15244.010
198.179, 15233.780
198.661, 15236.020
199.143, 15250.950
199.625, 15281.660
200.107, 15338.720
200.589, 15401.170
201.071, 15412.130
201.553, 15359.350
202.036, 15307.840
202.518, 15298.250
203.000, 15335.350
203.482, 15369.440
203.964, 15393.440
204.446, 15412.780
204.928, 15447.080
205.410, 15501.170
205.893, 15554.130
206.375, 15592.240
206.857, 15614.520
207.339, 15624.550
207.821, 15618.580
208.303, 15600.660
208.785, 15589.580
209.267, 15587.110
209.749, 15587.590
210.232, 15590.750
210.714, 15602.160
211.196, 15595.600
211.678, 15563.980
212.160, 15511.160
212.642, 15462.170
213.124, 15417.040
213.606, 15376.610
214.089, 15342.840
214.571, 15317.660
215.053, 15293.570
215.535, 15267.450
216.017, 15240.000
216.499, 15225.470
216.981, 15231.560
217.463, 15238.510
217.945, 15227.880
218.428, 15196.060
218.910, 15153.160
219.392, 15094.000
219.874, 15018.270
220.356, 14968.430
220.838, 14954.260
221.320, 14954.290
221.802, 14947.930
222.285, 14933.770
222.767, 14916.640
223.249, 14896.980
223.731, 14874.670
224.213, 14855.120
224.695, 14838.770
225.177, 14825.510
225.659, 14816.510
226.141, 14818.670
226.624, 14812.080
227.106, 14786.460
227.588, 14738.200
228.070, 14714.250
228.552, 14723.380
229.034, 14749.120
229.516, 14772.080
229.998, 14790.910
230.480, 14808.410
230.963, 14824.850
231.445, 14839.840
231.927, 14854.170
232.409, 14867.250
232.891, 14879.680
233.373, 14893.120
233.855, 14911.220
234.337, 14923.690
234.820, 14924.460
235.302, 14908.640
235.784, 14910.410
236.266, 14940.250
236.748, 14980.560
237.230, 15006.730
237.712, 15013.910
238.194, 15015.560
238.676, 15013.050
239.159, 15003.370
239.641, 15005.220
240.123, 15023.290
240.605, 15050.010
241.087, 15073.740
241.569, 15090.280
242.051, 15111.700
242.533, 15143.530
243.016, 15190.330
243.498, 15228.280
243.980, 15254.340
244.462, 15273.290
244.944, 15292.890
245.426, 15316.090
245.908, 15333.740
246.390, 15337.240
246.872, 15315.220
247.355, 15326.680
247.837, 15392.600
248.319, 15477.280
248.801, 15520.790
249.283, 15498.820
249.765, 15476.440
250.247, 15476.690
250.729, 15508.390
251.212, 15524.060
251.694, 15513.850
252.176, 15494.990
252.658, 15496.980
253.140, 15533.510
253.622, 15568.200
254.104, 15591.680
254.586, 15604.680
255.068, 15604.400
255.551, 15584.330
256.033, 15557.130
256.515, 15542.800
256.997, 15544.240
257.479, 15553.700
257.961, 15569.990
258.443, 15594.770
258.925, 15619.460
259.408, 15647.030
259.890, 15671.630
260.372, 15671.570
260.854, 15658.754
261.336, 15706.010
261.818, 15738.686
262.300, 15757.561
262.782, 15721.311
263.264, 15756.244
263.746, 15762.649
264.229, 15767.887
264.711, 15812.840
265.193, 15784.608
265.675, 15828.930
266.157, 15844.290
266.639, 15872.904
267.121, 15872.816
267.603, 15881.596
268.086, 15919.086
268.568, 15940.677
269.050, 15937.285
269.532, 15966.742
270.014, 15937.508
270.496, 15959.778
270.978, 16004.269
271.460, 15992.450
271.943, 16025.360
272.425, 16043.980
272.907, 16056.810
273.389, 16065.990
273.871, 16071.620
274.353, 16074.400
274.835, 16071.370
275.317, 16071.640
275.799, 16092.020
276.282, 16137.600
276.764, 16171.850
277.246, 16176.420
277.728, 16154.180
278.210, 16160.190
278.692, 16204.570
279.174, 16250.330
279.656, 16242.950
280.138, 16175.960
280.621, 16128.850
281.103, 16131.810
281.585, 16176.800
282.067, 16209.010
282.549, 16227.250
283.031, 16236.280
283.513, 16242.320
283.995, 16245.290
284.478, 16237.870
284.960, 16213.090
285.442, 16176.710
285.924, 16129.211
286.406, 16155.062
286.888, 16163.108
287.370, 16154.306
287.852, 16078.189
288.335, 16088.994
288.817, 16064.967
289.299, 16039.510
289.781, 16062.549
290.263, 15996.226
290.745, 16018.492
291.227, 16005.396
291.709, 16008.487
292.191, 15969.290
292.674, 15984.330
293.156, 15983.670
293.638, 15970.780
294.120, 15946.110
294.602, 15940.740
295.084, 15920.841
295.566, 15917.398
296.048, 15909.964
296.530, 15898.748
297.013, 15872.427
297.495, 15865.611
297.977, 15852.780
298.459, 15857.670
298.941, 15875.190
299.423, 15897.090
299.905, 15902.330
300.387, 15879.820
300.870, 15852.570
301.352, 15847.280
301.834, 15862.020
302.316, 15887.070
302.798, 15925.680
303.280, 15967.060
303.762, 15992.660
304.244, 15992.600
304.727, 15990.130
305.209, 16007.100
305.691, 16039.780
306.173, 16078.470
306.655, 16129.640
307.137, 16177.190
307.619, 16200.790
308.101, 16194.120
308.583, 16175.920
309.065, 16151.010
309.548, 16125.320
310.030, 16112.060
310.512, 16129.140
310.994, 16155.240
311.476, 16176.020
311.958, 16191.450
312.440, 16195.420
312.922, 16170.880
313.405, 16134.640
313.887, 16113.310
314.369, 16134.230
314.851, 16160.800
315.333, 16172.430
315.815, 16166.910
316.297, 16154.290
316.779, 16123.400
317.262, 16092.880
317.744, 16084.170
318.226, 16135.090
318.708, 16181.950
319.190, 16194.610
319.672, 16171.520
320.154, 16153.450
320.636, 16153.020
321.118, 16162.950
321.601, 16176.850
322.083, 16206.390
322.565, 16226.670
323.047, 16226.550
323.529, 16207.370
324.011, 16191.560
324.493, 16172.400
324.975, 16163.340
325.457, 16173.030
325.940, 16217.630
326.422, 16263.400
326.904, 16310.210
327.386, 16356.830
327.868, 16393.500
328.350, 16417.090
328.832, 16433.279
329.314, 16444.820
329.797, 16457.660
330.279, 16456.090
330.761, 16423.750
331.243, 16377.550
331.725, 16368.880
332.207, 16429.971
332.689, 16488.920
333.171, 16515.311
333.654, 16496.051
334.136, 16478.801
334.618, 16463.779
335.100, 16451.100
335.582, 16438.400
336.064, 16419.010
336.546, 16415.830
337.028, 16445.420
337.510, 16515.221
337.992, 16550.520
338.475, 16537.939
338.957, 16509.340
339.439, 16508.789
339.921, 16542.170
340.403, 16572.010
340.885, 16583.141
341.367, 16578.320
341.849, 16592.600
342.332, 16632.400
342.814, 16669.641
343.296, 16667.180
343.778, 16625.730
344.260, 16599.980
344.742, 16608.070
345.224, 16639.480
345.706, 16664.891
346.189, 16685.131
346.671, 16697.500
347.153, 16695.330
347.635, 16682.471
348.117, 16674.461
348.599, 16674.061
349.081, 16680.090
349.563, 16688.801
350.045, 16700.641
350.528, 16721.189
351.010, 16763.461
351.492, 16814.641
351.974, 16848.100
352.456, 16856.369
352.938, 16857.850
353.420, 16874.699
353.902, 16901.029
354.384, 16921.381
354.867, 16920.359
355.349, 16912.359
355.831, 16914.711
356.313, 16930.430
356.795, 16944.510
357.277, 16942.381
357.759, 16932.990
358.241, 16930.010
358.724, 16949.699
359.206, 16970.250
359.688, 16975.650
360.170, 16965.910
360.652, 16959.199
361.134, 16971.230
361.616, 16987.061
362.098, 16992.670
362.581, 16956.520
363.063, 16936.619
363.545, 16965.539
364.027, 17033.270
364.509, 17081.119
364.991, 17061.570
365.473, 17038.891
365.955, 17052.850
366.437, 17162.670
366.919, 17234.230
367.402, 17231.270
367.884, 17178.939
368.366, 17144.770
368.848, 17144.061
369.330, 17151.930
369.812, 17160.449
370.294, 17167.270
370.776, 17182.240
371.259, 17210.750
371.741, 17244.711
372.223, 17271.539
372.705, 17285.039
373.187, 17302.330
373.669, 17330.520
374.151, 17370.840
374.633, 17397.520
375.116, 17403.570
375.598, 17405.699
376.080, 17423.289
376.562, 17461.619
377.044, 17488.770
377.526, 17494.689
378.008, 17484.779
378.490, 17484.600
378.973, 17496.061
379.455, 17507.939
379.937, 17510.260
380.419, 17504.109
380.901, 17503.461
381.383, 17510.439
381.865, 17524.270
382.347, 17548.211
382.829, 17581.400
383.311, 17608.471
383.794, 17617.641
384.276, 17615.061
384.758, 17611.619
385.240, 17605.920
385.722, 17612.600
386.204, 17662.539
386.686, 17738.359
387.168, 17796.520
387.651, 17794.609
388.133, 17777.930
388.615, 17804.189
389.097, 17871.689
389.579, 17932.480
390.061, 17943.000
390.543, 17930.650
391.025, 17929.211
391.508, 17966.961
391.990, 17996.570
392.472, 17972.730
392.954, 17913.279
393.436, 17885.660
393.918, 17959.240
394.400, 18047.330
394.882, 18094.061
395.364, 18072.971
395.847, 18050.289
396.329, 18039.090
396.811, 18037.439
397.293, 18041.461
397.775, 18041.039
398.257, 18055.170
398.739, 18099.689
399.221, 18189.619
399.703, 18240.320
400.186, 18220.340
400.668, 18178.869
401.150, 18162.051
401.632, 18186.510
402.114, 18207.529
402.596, 18212.080
403.078, 18204.670
403.560, 18226.250
404.043, 18291.980
404.525, 18360.840
405.007, 18406.850
405.489, 18426.500
405.971, 18440.051
406.453, 18444.740
406.935, 18448.900
407.417, 18474.061
407.900, 18522.279
408.382, 18569.939
408.864, 18608.350
409.346, 18637.211
409.828, 18646.801
410.310, 18632.221
410.792, 18622.350
411.274, 18656.301
411.756, 18725.740
412.238, 18796.051
412.721, 18852.420
413.203, 18904.811
413.685, 18972.830
414.167, 19055.020
414.649, 19136.980
415.131, 19211.141
415.613, 19278.529
416.095, 19340.520
416.578, 19400.580
417.060, 19449.510
417.542, 19466.990
418.024, 19467.029
418.506, 19484.539
418.988, 19547.061
419.470, 19623.340
419.952, 19695.910
420.435, 19764.279
420.917, 19823.830
421.399, 19862.859
421.881, 19896.830
422.363, 19943.260
422.845, 20025.480
423.327, 20100.840
423.809, 20149.840
424.291, 20174.359
424.774, 20224.820
425.256, 20330.100
425.738, 20440.900
426.220, 20528.279
426.702, 20554.680
427.184, 20605.645
427.666, 20718.238
428.148, 20815.863
428.630, 20899.332
429.113, 20926.260
429.595, 21026.199
430.077, 21096.883
430.559, 21166.375
431.041, 21276.594
431.523, 21338.900
432.005, 21387.340
432.487, 21455.211
432.970, 21542.279
433.452, 21620.000
433.934, 21676.961
434.416, 21722.891
434.898, 21787.961
435.380, 21871.820
435.862, 21946.930
436.344, 21996.520
436.827, 22022.730
437.309, 22023.199
437.791, 21989.551
438.273, 21958.760
438.755, 21975.910
439.237, 22025.170
439.719, 22069.561
440.201, 22093.141
440.683, 22103.221
441.165, 22100.420
441.648, 22084.650
442.130, 22072.779
442.612, 22077.971
443.094, 22088.400
443.576, 22093.391
444.058, 22091.971
444.540, 22082.270
445.022, 22066.770
445.505, 22042.990
445.987, 22003.250
446.469, 21921.570
446.951, 21844.939
447.433, 21795.881
447.915, 21791.779
448.397, 21768.391
448.879, 21708.420
449.362, 21640.260
449.844, 21604.330
450.326, 21622.260
450.808, 21623.490
451.290, 21585.480
451.772, 21515.199
452.254, 21472.439
452.736, 21464.561
453.218, 21461.490
453.701, 21440.070
454.183, 21400.730
454.665, 21359.061
455.147, 21314.631
455.629, 21273.340
456.111, 21253.279
456.593, 21250.600
457.075, 21234.689
457.557, 21178.811
458.040, 21103.131
458.522, 21037.971
459.004, 20983.320
459.486, 20955.211
459.968, 20917.672
460.450, 20921.389
460.932, 20915.092
461.414, 20899.314
461.897, 20845.680
462.379, 20840.270
462.861, 20823.529
463.343, 20827.750
463.825, 20866.359
464.307, 20907.039
464.789, 20927.580
465.271, 20916.490
465.754, 20920.689
466.236, 20967.891
466.718, 21027.369
467.200, 21065.930
467.682, 21038.510
468.164, 21041.340
468.646, 21102.189
469.128, 21211.990
469.610, 21285.980
470.093, 21300.631
470.575, 21314.520
471.057, 21359.250
471.539, 21438.850
472.021, 21530.051
472.503, 21636.779
472.985, 21748.420
473.467, 21854.150
473.949, 21953.270
474.432, 22030.449
474.914, 22065.711
475.396, 22079.250
475.878, 22139.641
476.360, 22246.900
476.842, 22353.109
477.324, 22400.189
477.806, 22421.180
478.289, 22484.430
478.771, 22616.619
479.253, 22760.539
479.735, 22864.439
480.217, 22940.971
480.699, 23017.250
481.181, 23098.381
481.663, 23189.650
482.146, 23301.010
482.628, 23432.971
483.110, 23559.551
483.592, 23669.760
484.074, 23771.221
484.556, 23868.330
485.038, 23963.570
485.520, 24050.990
486.002, 24118.439
486.484, 24176.330
486.967, 24256.580
487.449, 24394.689
487.931, 24503.789
488.413, 24544.289
488.895, 24506.439
489.377, 24502.020
489.859, 24548.811
490.341, 24597.039
490.824, 24595.811
491.306, 24544.029
491.788, 24474.100
492.270, 24387.270
492.752, 24294.330
493.234, 24224.590
493.716, 24177.000
494.198, 24118.881
494.681, 24026.980
495.163, 23912.840
495.645, 23798.971
496.127, 23685.160
496.609, 23571.369
497.091, 23452.471
497.573, 23334.439
498.055, 23223.631
498.537, 23111.949
499.020, 23021.199
499.502, 22975.789
499.984, 22963.350
500.466, 22941.779
500.948, 22891.090
501.430, 22833.461
501.912, 22771.311
502.394, 22692.619
502.876, 22655.539
503.359, 22682.971
503.841, 22743.240
504.323, 22807.311
504.805, 22870.590
505.287, 22947.230
505.769, 23038.199
506.251, 23143.779
506.733, 23268.539
507.216, 23417.789
507.698, 23569.850
508.180, 23702.820
508.662, 23819.670
509.144, 23985.090
509.626, 24204.539
510.108, 24447.730
510.590, 24685.160
511.073, 24916.529
511.555, 25138.221
512.037, 25340.641
512.519, 25545.641
513.001, 25779.369
513.483, 26038.330
513.965, 26305.311
514.447, 26567.119
514.929, 26835.650
515.412, 27124.949
515.894, 27440.131
516.376, 27751.311
516.858, 28018.000
517.340, 28283.811
517.822, 28590.600
518.304, 29111.881
518.786, 29484.840
519.268, 29617.100
519.751, 29550.910
520.233, 29425.199
520.715, 29223.061
521.197, 28984.199
521.679, 28719.520
522.161, 28427.109
522.643, 28114.900
523.125, 27780.570
523.607, 27428.320
524.090, 27050.480
524.572, 26649.289
525.054, 26273.250
525.536, 25931.410
526.018, 25614.381
526.500, 25302.721
526.982, 24999.859
527.464, 24732.250
527.947, 24538.381
528.429, 24380.109
528.911, 24203.631
529.393, 24007.789
529.875, 23819.461
530.357, 23662.180
530.839, 23520.439
531.321, 23381.090
531.804, 23237.631
532.286, 23097.660
532.768, 22972.250
533.250, 22852.830
533.732, 22725.359
534.214, 22552.420
534.696, 22407.721
535.178, 22324.109
535.661, 22308.141
536.143, 22243.891
536.625, 22106.230
537.107, 21959.260
537.589, 21847.670
538.071, 21776.199
538.553, 21717.400
539.035, 21671.600
539.517, 21632.439
540.000, 21583.850
540.482, 21527.689
540.964, 21487.080
541.446, 21481.660
541.928, 21491.539
542.410, 21475.551
542.892, 21436.471
543.374, 21402.811
543.856, 21392.689
544.339, 21398.461
544.821, 21415.561
545.303, 21448.490
545.785, 21471.471
546.267, 21462.400
546.749, 21438.920
547.231, 21424.010
547.713, 21452.859
548.195, 21458.811
548.678, 21410.990
549.160, 21321.320
549.642, 21258.580
550.124, 21236.260
550.606, 21223.590
551.088, 21206.539
551.570, 21182.381
552.052, 21175.580
552.534, 21193.609
553.017, 21212.430
553.499, 21195.330
553.981, 21145.391
554.463, 21126.391
554.945, 21162.920
555.427, 21217.020
555.909, 21215.619
556.391, 21171.971
556.874, 21140.850
557.356, 21176.301
557.838, 21224.580
558.320, 21221.070
558.802, 21165.160
559.284, 21115.109
559.766, 21100.150
560.248, 21106.801
560.731, 21127.961
561.213, 21186.689
561.695, 21217.109
562.177, 21168.650
562.659, 21093.510
563.141, 21080.961
563.623, 21182.070
564.105, 21269.301
564.588, 21313.420
565.070, 21320.529
565.552, 21338.221
566.034, 21372.830
566.516, 21394.949
566.998, 21375.641
567.480, 21319.631
567.962, 21289.490
568.444, 21289.359
568.927, 21303.980
569.409, 21323.109
569.891, 21343.939
570.373, 21358.650
570.855, 21364.369
571.337, 21364.551
571.819, 21361.311
572.301, 21355.119
572.783, 21346.980
573.266, 21341.699
573.748, 21330.961
574.230, 21302.801
574.712, 21254.340
575.194, 21228.580
575.676, 21261.699
576.158, 21298.670
576.640, 21304.240
577.122, 21249.051
577.605, 21226.410
578.087, 21251.080
578.569, 21295.891
579.051, 21318.340
579.533, 21315.789
580.015, 21308.170
580.497, 21286.910
580.979, 21275.029
581.461, 21367.180
581.944, 21552.301
582.426, 21692.461
582.908, 21662.570
583.390, 21548.369
583.872, 21471.680
584.354, 21442.221
584.836, 21432.400
585.318, 21451.061
585.801, 21466.770
586.283, 21443.590
586.765, 21306.039
587.247, 21223.320
587.729, 21285.670
588.211, 21425.689
588.693, 21503.410
589.175, 21472.891
589.657, 21435.590
590.140, 21413.320
590.622, 21404.400
591.104, 21385.820
591.586, 21348.619
592.068, 21329.471
592.550, 21363.461
593.032, 21445.230
593.515, 21502.180
593.997, 21529.381
594.479, 21547.930
594.961, 21591.289
595.443, 21643.000
595.925, 21661.570
596.407, 21618.109
596.889, 21567.029
597.371, 21542.189
597.854, 21543.330
598.336, 21569.881
598.818, 21664.711
599.300, 21744.449
599.782, 21766.920
600.264, 21730.551
600.746, 21700.980
601.228, 21680.289
601.710, 21669.730
602.193, 21672.119
602.675, 21693.289
603.157, 21703.869
603.639, 21697.289
604.121, 21691.900
604.603, 21718.061
605.085, 21774.150
605.567, 21807.971
606.049, 21796.961
606.532, 21776.551
607.014, 21817.750
607.496, 21903.150
607.978, 21970.760
608.460, 21972.650
608.942, 21952.711
609.424, 21946.289
609.906, 21953.580
610.388, 21963.301
610.871, 21971.439
611.353, 21979.650
611.835, 21988.750
612.317, 21999.029
612.799, 22009.900
613.281, 22024.211
613.763, 22037.109
614.245, 22043.740
614.728, 22043.961
615.210, 22038.840
615.692, 22026.859
616.174, 22012.311
616.656, 22004.289
617.138, 22002.961
617.620, 22004.051
618.102, 22007.730
618.584, 22011.961
619.067, 22006.900
619.549, 21995.141
620.031, 21996.619
620.513, 22045.430
620.995, 22100.510
621.477, 22118.170
621.959, 22083.881
622.442, 22058.900
622.924, 22070.090
623.406, 22096.420
623.888, 22118.859
624.370, 22135.539
624.852, 22147.930
625.334, 22156.289
625.816, 22159.949
626.298, 22155.090
626.781, 22138.039
627.263, 22128.760
627.745, 22132.330
628.227, 22148.520
628.709, 22187.270
629.191, 22246.551
629.673, 22288.289
630.155, 22265.029
630.638, 22218.770
631.120, 22212.109
631.602, 22249.471
632.084, 22298.561
632.566, 22366.320
633.048, 22421.641
633.530, 22431.711
634.012, 22347.750
634.494, 22298.461
634.977, 22331.711
635.459, 22403.609
635.941, 22456.699
636.423, 22483.910
636.905, 22504.770
637.387, 22516.199
637.869, 22525.900
638.351, 22567.350
638.833, 22643.760
639.316, 22701.199
639.798, 22696.949
640.280, 22657.910
640.762, 22651.801
641.244, 22678.010
641.726, 22724.859
642.208, 22801.289
642.690, 22885.189
643.172, 22956.939
643.655, 23015.230
644.137, 23056.350
644.619, 23058.600
645.101, 23054.520
645.583, 23075.490
646.065, 23141.000
646.547, 23214.199
647.029, 23307.711
647.511, 23400.961
