##NAMES=Harmotome
##RRUFFID=R070015
##IDEAL CHEMISTRY=Ba_2_(Si_12_Al_4_)O_32_&#183;12H_2_O
##LOCALITY=Old Kilpatrick, Dumbartonshire, Scotland
##OWNER=RRUFF
##SOURCE=Michael Scott
##DESCRIPTION=Colorless blocky crystals
##STATUS=The identification of this mineral has been confirmed by X-ray diffraction and chemical analysis
##URL=rruff.info/R070015
##MEASURED CHEMISTRY=(Ba_1.98_Ti_0.02_)_Σ=2_(Si_11.67_Al_4.33_)O_32_·12H_2_OK_0.16_Na_0.11_Ca_0.01_; H_2_O estimated by difference
138.6662, 1897.286
139.1483, 1930.741
139.6304, 1974.460
140.1125, 2023.075
140.5946, 2072.748
141.0768, 2129.526
141.5589, 2199.063
142.0410, 2282.413
142.5231, 2373.975
143.0052, 2468.667
143.4873, 2568.747
143.9695, 2663.606
144.4516, 2741.005
144.9337, 2820.756
145.4158, 2921.087
145.8979, 3045.681
146.3800, 3175.891
146.8622, 3282.035
147.3443, 3351.223
147.8264, 3426.474
148.3085, 3525.813
148.7906, 3623.323
149.2727, 3700.918
149.7549, 3753.199
150.2370, 3786.851
150.7191, 3814.112
151.2012, 3839.252
151.6833, 3847.753
152.1654, 3827.722
152.6476, 3799.699
153.1297, 3782.069
153.6118, 3780.370
154.0939, 3784.896
154.5760, 3776.007
155.0581, 3743.226
155.5403, 3711.567
156.0224, 3676.350
156.5045, 3645.034
156.9866, 3626.603
157.4687, 3623.747
157.9508, 3628.970
158.4330, 3626.385
158.9151, 3601.080
159.3972, 3587.173
159.8793, 3586.893
160.3614, 3596.652
160.8435, 3615.594
161.3257, 3643.259
161.8078, 3674.347
162.2899, 3697.720
162.7720, 3692.606
163.2541, 3708.100
163.7362, 3761.567
164.2184, 3830.352
164.7005, 3888.812
165.1826, 3927.880
165.6647, 3955.997
166.1468, 3991.395
166.6289, 4045.106
167.1111, 4088.179
167.5932, 4110.982
168.0753, 4124.053
168.5574, 4138.673
169.0395, 4158.625
169.5216, 4184.349
170.0038, 4218.991
170.4859, 4273.777
170.9680, 4313.924
171.4501, 4324.871
171.9322, 4321.199
172.4143, 4324.642
172.8965, 4343.382
173.3786, 4365.821
173.8607, 4368.707
174.3428, 4345.146
174.8249, 4324.798
175.3070, 4311.425
175.7892, 4305.229
176.2713, 4310.046
176.7534, 4329.094
177.2355, 4350.536
177.7176, 4351.168
178.1997, 4327.436
178.6819, 4305.486
179.1640, 4291.419
179.6461, 4283.109
180.1282, 4278.756
180.6103, 4279.074
181.0924, 4279.282
181.5745, 4270.453
182.0567, 4252.091
182.5388, 4235.158
183.0209, 4224.694
183.5030, 4217.253
183.9851, 4206.818
184.4672, 4191.726
184.9494, 4174.532
185.4315, 4159.735
185.9136, 4147.660
186.3957, 4130.454
186.8778, 4096.279
187.3599, 4057.465
187.8421, 4038.692
188.3242, 4049.551
188.8063, 4065.648
189.2884, 4057.209
189.7705, 4027.604
190.2526, 3994.478
190.7348, 3962.193
191.2169, 3929.965
191.6990, 3895.356
192.1811, 3856.562
192.6632, 3820.052
193.1453, 3790.713
193.6275, 3767.870
194.1096, 3755.542
194.5917, 3770.962
195.0738, 3793.300
195.5559, 3782.753
196.0380, 3727.302
196.5202, 3666.591
197.0023, 3641.986
197.4844, 3642.103
197.9665, 3634.329
198.4486, 3603.659
198.9307, 3560.775
199.4129, 3522.678
199.8950, 3491.145
200.3771, 3460.302
200.8592, 3421.351
201.3413, 3379.132
201.8234, 3345.430
202.3056, 3331.737
202.7877, 3325.299
203.2698, 3308.615
203.7519, 3280.855
204.2340, 3246.082
204.7161, 3199.495
205.1983, 3148.416
205.6804, 3106.812
206.1625, 3083.952
206.6446, 3068.192
207.1267, 3044.271
207.6088, 3010.852
208.0910, 2978.536
208.5731, 2952.595
209.0552, 2931.974
209.5373, 2916.270
210.0194, 2910.892
210.5015, 2904.413
210.9837, 2880.038
211.4658, 2836.137
211.9479, 2798.374
212.4300, 2786.658
212.9121, 2784.977
213.3942, 2771.116
213.8764, 2738.521
214.3585, 2699.674
214.8406, 2663.130
215.3227, 2628.596
215.8048, 2602.773
216.2869, 2593.957
216.7691, 2591.988
217.2512, 2582.007
217.7333, 2559.218
218.2154, 2540.847
218.6975, 2546.961
219.1796, 2575.091
219.6618, 2593.520
220.1439, 2592.653
220.6260, 2576.869
221.1081, 2550.195
221.5902, 2510.914
222.0723, 2474.708
222.5545, 2451.737
223.0366, 2440.904
223.5187, 2438.500
224.0008, 2450.940
224.4829, 2462.352
224.9650, 2455.340
225.4472, 2430.385
225.9293, 2403.958
226.4114, 2384.040
226.8935, 2369.630
227.3756, 2358.116
227.8577, 2349.772
228.3399, 2343.194
228.8220, 2337.863
229.3041, 2333.448
229.7862, 2327.737
230.2683, 2315.805
230.7504, 2302.480
231.2325, 2300.151
231.7147, 2313.798
232.1968, 2327.595
232.6789, 2330.733
233.1610, 2324.444
233.6431, 2308.907
234.1252, 2273.064
234.6074, 2232.141
235.0895, 2210.850
235.5716, 2212.460
236.0537, 2218.886
236.5358, 2221.229
237.0179, 2219.287
237.5001, 2211.635
237.9822, 2188.561
238.4643, 2166.768
238.9464, 2167.475
239.4285, 2191.186
239.9106, 2214.721
240.3928, 2227.252
240.8749, 2230.169
241.3570, 2227.287
241.8391, 2215.594
242.3212, 2202.788
242.8033, 2196.320
243.2855, 2195.004
243.7676, 2189.327
244.2497, 2172.661
244.7318, 2151.701
245.2139, 2138.134
245.6960, 2132.139
246.1782, 2132.429
246.6603, 2141.878
247.1424, 2157.556
247.6245, 2172.610
248.1066, 2188.724
248.5887, 2196.575
249.0709, 2175.958
249.5530, 2122.813
250.0351, 2080.572
250.5172, 2070.897
250.9993, 2080.937
251.4814, 2089.163
251.9636, 2091.133
252.4457, 2090.758
252.9278, 2092.050
253.4099, 2094.910
253.8920, 2099.131
254.3741, 2109.205
254.8563, 2118.287
255.3384, 2116.188
255.8205, 2101.688
256.3026, 2087.390
256.7847, 2084.713
257.2668, 2093.834
257.7490, 2101.255
258.2311, 2109.622
258.7132, 2113.928
259.1953, 2106.795
259.6774, 2090.219
260.1595, 2077.245
260.6417, 2077.295
261.1238, 2088.067
261.6059, 2093.623
262.0880, 2089.728
262.5701, 2085.655
263.0522, 2083.318
263.5344, 2083.632
264.0165, 2090.929
264.4986, 2109.469
264.9807, 2131.872
265.4628, 2134.551
265.9449, 2100.064
266.4271, 2075.079
266.9092, 2075.950
267.3913, 2088.669
267.8734, 2094.173
268.3555, 2086.193
268.8376, 2072.322
269.3198, 2064.947
269.8019, 2069.508
270.2840, 2070.151
270.7661, 2065.991
271.2482, 2058.465
271.7303, 2047.532
272.2125, 2033.698
272.6946, 2019.077
273.1767, 2004.611
273.6588, 1987.802
274.1409, 1986.336
274.6230, 2017.461
275.1052, 2045.877
275.5873, 2050.104
276.0694, 2034.848
276.5515, 2019.557
277.0336, 2019.399
277.5157, 2033.380
277.9979, 2039.490
278.4800, 2029.403
278.9621, 2020.753
279.4442, 2020.532
279.9263, 2023.561
280.4084, 2021.224
280.8906, 2008.923
281.3727, 1989.878
281.8548, 1973.495
282.3369, 1955.559
282.8190, 1947.596
283.3011, 1955.513
283.7833, 1970.203
284.2654, 1985.406
284.7475, 1998.661
285.2296, 2008.591
285.7117, 2011.629
286.1938, 2003.521
286.6760, 2000.405
287.1581, 2009.291
287.6402, 2017.708
288.1223, 2016.628
288.6044, 2007.263
289.0865, 1999.089
289.5687, 2003.133
290.0508, 2019.956
290.5329, 2027.072
291.0150, 2016.572
291.4971, 2004.357
291.9792, 1995.799
292.4614, 1990.073
292.9435, 1985.161
293.4256, 1980.437
293.9077, 1975.353
294.3898, 1967.409
294.8719, 1953.720
295.3541, 1943.750
295.8362, 1943.529
296.3183, 1947.456
296.8004, 1949.929
297.2825, 1949.322
297.7646, 1946.645
298.2468, 1942.671
298.7289, 1937.261
299.2110, 1932.052
299.6931, 1926.465
300.1752, 1922.153
300.6573, 1921.311
301.1395, 1924.156
301.6216, 1926.454
302.1037, 1922.184
302.5858, 1914.414
303.0679, 1916.079
303.5500, 1932.527
304.0321, 1951.740
304.5143, 1963.778
304.9964, 1969.670
305.4785, 1971.969
305.9606, 1966.412
306.4427, 1960.135
306.9248, 1965.338
307.4070, 1983.145
307.8891, 1997.615
308.3712, 1996.385
308.8533, 1983.203
309.3354, 1974.677
309.8175, 1971.946
310.2997, 1973.120
310.7818, 1980.659
311.2639, 1991.827
311.7460, 1996.587
312.2281, 1988.714
312.7102, 1975.862
313.1924, 1977.384
313.6745, 2000.849
314.1566, 2018.198
314.6387, 2018.955
315.1208, 2012.772
315.6029, 2011.891
316.0851, 2018.907
316.5672, 2026.601
317.0493, 2025.967
317.5314, 2013.710
318.0135, 2007.338
318.4956, 2007.027
318.9778, 2011.861
319.4599, 2029.487
319.9420, 2053.390
320.4241, 2063.155
320.9062, 2041.405
321.3883, 1993.082
321.8705, 1968.147
322.3526, 1988.688
322.8347, 2008.111
323.3168, 2023.776
323.7989, 2032.652
324.2810, 2028.794
324.7632, 2010.036
325.2453, 1985.706
325.7274, 1975.204
326.2095, 1986.808
326.6916, 1994.153
327.1737, 1994.744
327.6559, 1991.968
328.1380, 1987.465
328.6201, 1981.600
329.1022, 1974.112
329.5843, 1963.292
330.0664, 1949.077
330.5486, 1940.418
331.0307, 1939.944
331.5128, 1942.251
331.9949, 1950.288
332.4770, 1958.690
332.9591, 1956.827
333.4413, 1935.899
333.9234, 1906.045
334.4055, 1887.456
334.8876, 1882.177
335.3697, 1878.997
335.8518, 1879.347
336.3340, 1876.484
336.8161, 1861.421
337.2982, 1830.928
337.7803, 1799.216
338.2624, 1773.432
338.7445, 1754.502
339.2267, 1748.211
339.7088, 1760.273
340.1909, 1776.635
340.6730, 1782.561
341.1551, 1779.288
341.6372, 1772.088
342.1194, 1759.215
342.6015, 1744.897
343.0836, 1733.806
343.5657, 1726.149
344.0478, 1720.082
344.5299, 1714.527
345.0121, 1709.574
345.4942, 1705.364
345.9763, 1702.907
346.4584, 1700.033
346.9405, 1693.803
347.4226, 1686.956
347.9048, 1686.372
348.3869, 1695.107
348.8690, 1705.527
349.3511, 1703.634
349.8332, 1681.096
350.3153, 1660.925
350.7975, 1635.255
351.2796, 1617.541
351.7617, 1625.729
352.2438, 1655.172
352.7259, 1679.928
353.2080, 1674.847
353.6902, 1639.840
354.1723, 1616.724
354.6544, 1609.569
355.1365, 1611.534
355.6186, 1631.148
356.1007, 1656.270
356.5829, 1669.190
357.0650, 1661.014
357.5471, 1643.423
358.0292, 1641.538
358.5113, 1663.763
358.9934, 1674.893
359.4756, 1657.295
359.9577, 1635.039
360.4398, 1623.724
360.9219, 1623.842
361.4040, 1623.814
361.8861, 1611.027
362.3683, 1589.348
362.8504, 1579.042
363.3325, 1584.203
363.8146, 1594.010
364.2967, 1602.831
364.7788, 1611.119
365.2610, 1619.579
365.7431, 1628.256
366.2252, 1637.273
366.7073, 1648.881
367.1894, 1662.071
367.6715, 1669.565
368.1537, 1668.057
368.6358, 1659.641
369.1179, 1645.789
369.6000, 1622.983
370.0821, 1608.868
370.5642, 1616.065
371.0464, 1630.903
371.5285, 1635.959
372.0106, 1629.003
372.4927, 1620.435
372.9748, 1619.685
373.4569, 1627.202
373.9391, 1635.672
374.4212, 1646.448
374.9033, 1656.561
375.3854, 1665.023
375.8675, 1672.100
376.3496, 1678.638
376.8318, 1685.076
377.3139, 1690.574
377.7960, 1693.011
378.2781, 1689.865
378.7602, 1688.304
379.2423, 1686.923
379.7245, 1688.195
380.2066, 1695.179
380.6887, 1707.092
381.1708, 1719.365
381.6529, 1727.952
382.1350, 1733.146
382.6172, 1738.874
383.0993, 1745.668
383.5814, 1752.093
384.0635, 1757.255
384.5456, 1761.853
385.0277, 1767.255
385.5099, 1774.544
385.9920, 1780.909
386.4741, 1780.149
386.9562, 1772.948
387.4383, 1773.998
387.9204, 1791.057
388.4026, 1812.864
388.8847, 1824.920
389.3668, 1827.610
389.8489, 1833.977
390.3310, 1851.379
390.8131, 1873.202
391.2953, 1893.339
391.7774, 1911.017
392.2595, 1921.762
392.7416, 1920.308
393.2237, 1909.644
393.7058, 1907.877
394.1880, 1914.365
394.6701, 1928.888
395.1522, 1958.281
395.6343, 1993.188
396.1164, 2020.281
396.5985, 2035.720
397.0807, 2047.464
397.5628, 2067.163
398.0449, 2098.896
398.5270, 2124.161
399.0091, 2141.199
399.4912, 2154.596
399.9734, 2164.301
400.4555, 2172.003
400.9376, 2180.236
401.4197, 2190.101
401.9018, 2202.380
402.3839, 2220.162
402.8660, 2246.033
403.3481, 2270.511
403.8303, 2292.428
404.3124, 2311.302
404.7945, 2324.264
405.2766, 2331.422
405.7587, 2340.567
406.2408, 2361.332
406.7230, 2389.158
407.2051, 2407.584
407.6872, 2413.271
408.1693, 2415.694
408.6514, 2418.606
409.1335, 2423.461
409.6157, 2434.637
410.0978, 2457.047
410.5799, 2481.129
411.0620, 2502.618
411.5441, 2521.043
412.0262, 2534.370
412.5084, 2541.479
412.9905, 2545.267
413.4726, 2549.764
413.9547, 2554.066
414.4368, 2562.225
414.9189, 2572.574
415.4011, 2588.138
415.8832, 2613.642
416.3653, 2646.529
416.8474, 2680.451
417.3295, 2712.170
417.8116, 2740.041
418.2938, 2755.331
418.7759, 2744.747
419.2580, 2743.259
419.7401, 2754.557
420.2222, 2776.080
420.7043, 2811.441
421.1865, 2858.642
421.6686, 2901.631
422.1507, 2922.629
422.6328, 2923.797
423.1149, 2926.220
423.5970, 2928.588
424.0792, 2935.867
424.5613, 2957.920
425.0434, 2985.268
425.5255, 3001.811
426.0076, 3001.885
426.4897, 2993.420
426.9719, 2981.308
427.4540, 2965.880
427.9361, 2946.496
428.4182, 2921.028
428.9003, 2897.671
429.3824, 2890.276
429.8646, 2903.073
430.3467, 2902.433
430.8288, 2879.487
431.3109, 2848.284
431.7930, 2812.800
432.2751, 2776.582
432.7573, 2747.053
433.2394, 2728.559
433.7215, 2718.439
434.2036, 2708.534
434.6857, 2699.660
435.1678, 2689.606
435.6500, 2672.790
436.1321, 2658.912
436.6142, 2657.656
437.0963, 2667.502
437.5784, 2676.792
438.0605, 2674.457
438.5427, 2663.252
439.0248, 2659.115
439.5069, 2664.322
439.9890, 2671.380
440.4711, 2672.888
440.9532, 2676.399
441.4354, 2694.534
441.9175, 2734.176
442.3996, 2767.054
442.8817, 2760.040
443.3638, 2731.633
443.8459, 2733.833
444.3281, 2779.201
444.8102, 2833.331
445.2923, 2864.563
445.7744, 2873.209
446.2565, 2893.767
446.7386, 2934.474
447.2208, 2978.031
447.7029, 3013.968
448.1850, 3048.128
448.6671, 3094.189
449.1492, 3156.901
449.6313, 3223.293
450.1135, 3269.769
450.5956, 3282.815
451.0777, 3318.133
451.5598, 3397.017
452.0419, 3476.216
452.5240, 3537.552
453.0062, 3585.107
453.4883, 3628.927
453.9704, 3672.103
454.4525, 3719.796
454.9346, 3783.076
455.4167, 3863.448
455.8989, 3949.604
456.3810, 4040.106
456.8631, 4134.955
457.3452, 4236.325
457.8273, 4343.644
458.3094, 4443.588
458.7916, 4526.442
459.2737, 4602.327
459.7558, 4682.399
460.2379, 4767.114
460.7200, 4852.777
461.2021, 4936.077
461.6843, 5020.675
462.1664, 5117.808
462.6485, 5241.881
463.1306, 5353.137
463.6127, 5432.603
464.0948, 5508.528
464.5770, 5608.859
465.0591, 5731.302
465.5412, 5850.711
466.0233, 5946.537
466.5054, 6021.634
466.9875, 6095.859
467.4697, 6168.161
467.9518, 6241.022
468.4339, 6320.098
468.9160, 6396.910
469.3981, 6463.284
469.8802, 6517.985
470.3624, 6567.445
470.8445, 6611.103
471.3266, 6653.428
471.8087, 6708.460
472.2908, 6778.825
472.7729, 6856.507
473.2551, 6942.864
473.7372, 7031.724
474.2193, 7103.025
474.7014, 7144.395
475.1835, 7188.125
475.6656, 7243.788
476.1478, 7310.369
476.6299, 7391.786
477.1120, 7486.722
477.5941, 7579.551
478.0762, 7653.154
478.5583, 7706.900
479.0405, 7765.718
479.5226, 7826.053
480.0047, 7895.813
480.4868, 7989.470
480.9689, 8087.347
481.4510, 8164.899
481.9332, 8216.104
482.4153, 8257.343
482.8974, 8310.574
483.3795, 8373.802
483.8616, 8422.009
484.3438, 8457.493
484.8259, 8469.964
485.3080, 8441.510
485.7901, 8386.865
486.2722, 8329.827
486.7543, 8272.687
487.2365, 8216.287
487.7186, 8171.020
488.2007, 8124.954
488.6828, 8050.705
489.1649, 7941.598
489.6470, 7816.957
490.1292, 7699.598
490.6113, 7591.950
491.0934, 7448.750
491.5755, 7240.667
492.0576, 7035.488
492.5397, 6852.187
493.0219, 6683.198
493.5040, 6522.458
493.9861, 6367.241
494.4682, 6204.098
494.9503, 6011.478
495.4324, 5787.268
495.9146, 5577.207
496.3967, 5387.657
496.8788, 5205.901
497.3609, 5023.772
497.8430, 4845.613
498.3251, 4678.857
498.8073, 4529.664
499.2894, 4384.141
499.7715, 4229.586
500.2536, 4071.969
500.7357, 3923.415
501.2178, 3787.412
501.6999, 3663.453
502.1820, 3552.639
502.6642, 3455.530
503.1463, 3360.363
503.6284, 3268.617
504.1105, 3177.775
504.5926, 3082.104
505.0747, 2989.473
505.5569, 2908.607
506.0390, 2842.336
506.5211, 2785.231
507.0032, 2733.700
507.4853, 2688.040
507.9674, 2636.241
508.4496, 2571.539
508.9317, 2511.828
509.4138, 2463.583
509.8959, 2425.072
510.3780, 2397.721
510.8601, 2385.659
511.3423, 2369.447
511.8244, 2329.393
512.3065, 2276.583
512.7886, 2234.847
513.2708, 2208.172
513.7529, 2187.123
514.2350, 2165.393
514.7171, 2142.821
515.1992, 2118.110
515.6813, 2081.402
516.1635, 2055.141
516.6456, 2050.714
517.1277, 2054.551
517.6098, 2057.429
518.0919, 2055.369
518.5740, 2042.028
519.0562, 2006.419
519.5383, 1953.352
520.0204, 1921.577
520.5025, 1918.145
520.9846, 1919.302
521.4667, 1919.688
521.9489, 1918.473
522.4310, 1915.374
522.9131, 1910.574
523.3952, 1901.187
523.8773, 1882.197
524.3594, 1859.452
524.8416, 1840.565
525.3237, 1826.066
525.8058, 1814.304
526.2879, 1804.167
526.7700, 1796.144
527.2521, 1791.997
527.7343, 1796.054
528.2164, 1797.873
528.6985, 1798.793
529.1806, 1796.431
529.6627, 1786.856
530.1448, 1772.239
530.6270, 1758.972
531.1091, 1750.793
531.5912, 1746.912
532.0733, 1747.456
532.5554, 1753.913
533.0375, 1753.492
533.5197, 1738.908
534.0018, 1721.010
534.4839, 1712.266
534.9660, 1711.257
535.4481, 1704.493
535.9302, 1673.720
536.4124, 1648.863
536.8945, 1664.070
537.3766, 1703.653
537.8587, 1724.217
538.3408, 1709.117
538.8229, 1679.201
539.3051, 1666.609
539.7872, 1679.452
540.2693, 1674.981
540.7514, 1627.812
541.2335, 1591.099
541.7156, 1591.328
542.1978, 1609.006
542.6799, 1612.109
543.1620, 1588.864
543.6441, 1564.616
544.1262, 1572.528
544.6083, 1604.478
545.0905, 1618.309
545.5726, 1606.812
546.0547, 1588.204
546.5368, 1573.957
547.0189, 1562.678
547.5010, 1548.482
547.9832, 1525.382
548.4653, 1508.325
548.9474, 1506.994
549.4295, 1510.292
549.9116, 1504.667
550.3937, 1490.347
550.8758, 1479.068
551.3579, 1480.919
551.8400, 1492.644
552.3221, 1500.793
552.8043, 1508.551
553.2864, 1504.971
553.7685, 1475.961
554.2506, 1442.970
554.7327, 1418.605
555.2148, 1403.650
555.6970, 1395.368
556.1791, 1395.200
556.6612, 1399.190
557.1433, 1406.195
557.6254, 1414.300
558.1075, 1413.781
558.5897, 1399.956
559.0718, 1381.137
559.5539, 1369.349
560.0360, 1366.096
560.5181, 1363.889
561.0002, 1365.152
561.4824, 1364.653
561.9645, 1360.921
562.4466, 1354.022
562.9287, 1342.927
563.4108, 1327.427
563.8929, 1312.621
564.3751, 1305.708
564.8572, 1305.363
565.3393, 1302.406
565.8214, 1295.961
566.3035, 1287.859
566.7856, 1277.658
567.2678, 1267.085
567.7499, 1260.548
568.2320, 1260.421
568.7141, 1259.143
569.1962, 1254.463
569.6783, 1247.759
570.1605, 1239.651
570.6426, 1230.640
571.1247, 1221.499
571.6068, 1212.599
572.0889, 1204.547
572.5710, 1198.844
573.0532, 1194.764
573.5353, 1195.345
574.0174, 1205.849
574.4995, 1216.468
574.9816, 1222.542
575.4637, 1224.036
575.9459, 1221.258
576.4280, 1210.669
576.9101, 1200.629
577.3922, 1201.494
577.8743, 1208.211
578.3564, 1206.609
578.8386, 1193.200
579.3207, 1177.829
579.8028, 1170.479
580.2849, 1171.004
580.7670, 1169.564
581.2491, 1161.010
581.7313, 1156.949
582.2134, 1163.893
582.6955, 1172.748
583.1776, 1175.294
583.6597, 1170.712
584.1418, 1163.544
584.6240, 1156.331
585.1061, 1149.135
585.5882, 1142.755
586.0703, 1137.188
586.5524, 1128.713
587.0345, 1114.465
587.5167, 1099.539
587.9988, 1090.649
588.4809, 1088.181
588.9630, 1091.130
589.4451, 1105.261
589.9272, 1118.682
590.4094, 1125.755
590.8915, 1128.559
591.3736, 1131.285
591.8557, 1135.114
592.3378, 1136.887
592.8199, 1129.506
593.3021, 1114.334
593.7842, 1113.560
594.2663, 1134.675
594.7484, 1147.802
595.2305, 1132.716
595.7126, 1104.720
596.1948, 1088.750
596.6769, 1086.382
597.1590, 1090.341
597.6411, 1107.897
598.1232, 1123.526
598.6053, 1118.999
599.0875, 1100.587
599.5696, 1088.400
600.0517, 1092.177
600.5338, 1104.698
601.0159, 1114.131
601.4980, 1120.671
601.9802, 1122.263
602.4623, 1114.035
602.9444, 1107.557
603.4265, 1109.142
603.9086, 1115.642
604.3907, 1123.100
604.8729, 1132.346
605.3550, 1136.959
605.8371, 1127.582
606.3192, 1114.278
606.8013, 1112.127
607.2834, 1121.284
607.7656, 1133.700
608.2477, 1145.387
608.7298, 1153.705
609.2119, 1149.939
609.6940, 1125.206
610.1761, 1108.938
610.6583, 1109.138
611.1404, 1111.367
611.6225, 1110.163
612.1046, 1106.104
612.5867, 1100.679
613.0688, 1093.474
613.5510, 1087.653
614.0331, 1085.375
614.5152, 1086.583
614.9973, 1093.357
615.4794, 1105.588
615.9615, 1113.965
616.4437, 1110.632
616.9258, 1099.289
617.4079, 1095.437
617.8900, 1108.469
618.3721, 1113.662
618.8542, 1098.459
619.3364, 1086.447
619.8185, 1100.192
620.3006, 1128.488
620.7827, 1140.651
621.2648, 1118.268
621.7469, 1086.701
622.2291, 1074.638
622.7112, 1077.583
623.1933, 1079.885
623.6754, 1078.913
624.1575, 1077.080
624.6396, 1076.199
625.1218, 1076.050
625.6039, 1075.399
626.0860, 1069.332
626.5681, 1069.635
627.0502, 1085.106
627.5323, 1100.178
628.0145, 1101.515
628.4966, 1092.632
628.9787, 1086.981
629.4608, 1093.023
629.9429, 1101.352
630.4250, 1096.605
630.9072, 1081.871
631.3893, 1075.225
631.8714, 1081.103
632.3535, 1087.734
632.8356, 1085.500
633.3177, 1075.970
