##NAMES=Harmotome
##RRUFFID=R070016
##IDEAL CHEMISTRY=Ba_2_(Si_12_Al_4_)O_32_&#183;12H_2_O
##LOCALITY=Idar-Oberstein, Germany
##OWNER=RRUFF
##SOURCE=Michael Scott
##DESCRIPTION=Colorless to milky-white prismatic crystals
##STATUS=The identification of this mineral has been made only by X-ray diffraction.
##URL=rruff.info/R070016
126.0751, 3649.085
126.5572, 3756.885
127.0393, 3909.597
127.5214, 4094.376
128.0035, 4283.451
128.4857, 4475.226
128.9678, 4666.259
129.4499, 4843.990
129.9320, 5009.498
130.4141, 5178.205
130.8962, 5374.451
131.3784, 5591.260
131.8605, 5776.047
132.3426, 5908.243
132.8247, 6000.279
133.3068, 6095.458
133.7889, 6197.079
134.2711, 6292.029
134.7532, 6362.862
135.2353, 6407.529
135.7174, 6446.734
136.1995, 6485.487
136.6816, 6523.854
137.1638, 6568.764
137.6459, 6624.554
138.1280, 6681.148
138.6101, 6716.831
139.0922, 6725.836
139.5743, 6731.859
140.0565, 6742.431
140.5386, 6753.353
141.0207, 6785.779
141.5028, 6848.564
141.9849, 6931.719
142.4670, 7000.708
142.9492, 7046.874
143.4313, 7090.226
143.9134, 7142.455
144.3955, 7208.436
144.8776, 7275.197
145.3597, 7342.911
145.8419, 7410.381
146.3240, 7476.857
146.8061, 7538.509
147.2882, 7601.448
147.7703, 7670.118
148.2524, 7753.902
148.7346, 7833.780
149.2167, 7910.898
149.6988, 7990.417
150.1809, 8044.625
150.6630, 8048.875
151.1452, 8035.285
151.6273, 8043.201
152.1094, 8099.012
152.5915, 8154.798
153.0736, 8198.819
153.5557, 8232.322
154.0379, 8248.197
154.5200, 8225.094
155.0021, 8184.072
155.4842, 8168.761
155.9663, 8216.311
156.4484, 8270.691
156.9306, 8305.149
157.4127, 8305.726
157.8948, 8299.414
158.3769, 8281.568
158.8590, 8258.714
159.3411, 8255.271
159.8233, 8294.949
160.3054, 8348.405
160.7875, 8394.631
161.2696, 8417.382
161.7517, 8441.436
162.2338, 8480.907
162.7160, 8534.137
163.1981, 8580.338
163.6802, 8601.992
164.1623, 8614.340
164.6444, 8633.618
165.1265, 8677.072
165.6087, 8721.065
166.0908, 8746.900
166.5729, 8752.677
167.0550, 8762.365
167.5371, 8789.666
168.0192, 8830.631
168.5014, 8879.089
168.9835, 8944.591
169.4656, 9009.367
169.9477, 9051.863
170.4298, 9064.956
170.9119, 9080.832
171.3941, 9135.879
171.8762, 9215.062
172.3583, 9281.886
172.8404, 9308.032
173.3225, 9313.226
173.8046, 9321.931
174.2868, 9338.868
174.7689, 9358.098
175.2510, 9370.110
175.7331, 9377.516
176.2152, 9391.973
176.6973, 9435.553
177.1795, 9490.295
177.6616, 9520.110
178.1437, 9507.838
178.6258, 9478.218
179.1079, 9462.390
179.5900, 9459.809
180.0722, 9465.314
180.5543, 9485.860
181.0364, 9512.910
181.5185, 9521.253
182.0006, 9499.472
182.4827, 9457.057
182.9649, 9406.614
183.4470, 9348.137
183.9291, 9291.168
184.4112, 9248.347
184.8933, 9216.797
185.3754, 9184.639
185.8576, 9149.483
186.3397, 9110.217
186.8218, 9061.268
187.3039, 9001.524
187.7860, 8938.167
188.2681, 8877.922
188.7503, 8821.225
189.2324, 8766.602
189.7145, 8717.205
190.1966, 8671.124
190.6787, 8616.960
191.1608, 8554.328
191.6430, 8484.525
192.1251, 8402.096
192.6072, 8306.729
193.0893, 8221.766
193.5714, 8165.763
194.0535, 8136.267
194.5357, 8098.499
195.0178, 8052.261
195.4999, 7995.476
195.9820, 7915.777
196.4641, 7809.412
196.9462, 7710.443
197.4284, 7645.453
197.9105, 7615.744
198.3926, 7576.444
198.8747, 7522.314
199.3568, 7456.706
199.8389, 7389.244
200.3211, 7320.656
200.8032, 7247.205
201.2853, 7160.193
201.7674, 7055.900
202.2495, 6972.940
202.7316, 6927.128
203.2138, 6905.096
203.6959, 6847.433
204.1780, 6745.683
204.6601, 6631.571
205.1422, 6528.578
205.6243, 6436.938
206.1065, 6355.614
206.5886, 6285.823
207.0707, 6227.123
207.5528, 6171.600
208.0349, 6121.454
208.5170, 6070.241
208.9992, 6010.348
209.4813, 5938.377
209.9634, 5868.532
210.4455, 5801.644
210.9276, 5738.379
211.4097, 5685.280
211.8919, 5643.298
212.3740, 5610.096
212.8561, 5584.812
213.3382, 5572.205
213.8203, 5554.219
214.3024, 5524.688
214.7846, 5482.627
215.2667, 5441.692
215.7488, 5400.100
216.2309, 5361.161
216.7130, 5330.463
217.1951, 5313.557
217.6773, 5292.140
218.1594, 5259.657
218.6415, 5213.717
219.1236, 5167.513
219.6057, 5118.057
220.0878, 5069.821
220.5700, 5030.395
221.0521, 4999.283
221.5342, 4977.452
222.0163, 4968.414
222.4984, 4979.747
222.9805, 4975.891
223.4627, 4952.279
223.9448, 4916.101
224.4269, 4880.425
224.9090, 4840.228
225.3911, 4808.694
225.8732, 4793.284
226.3554, 4804.167
226.8375, 4802.898
227.3196, 4784.326
227.8017, 4755.603
228.2838, 4733.396
228.7659, 4721.263
229.2481, 4710.427
229.7302, 4697.479
230.2123, 4682.577
230.6944, 4664.818
231.1765, 4642.010
231.6587, 4617.037
232.1408, 4598.024
232.6229, 4586.355
233.1050, 4578.946
233.5871, 4575.151
234.0692, 4578.663
234.5514, 4577.702
235.0335, 4570.512
235.5156, 4558.659
235.9977, 4547.358
236.4798, 4536.739
236.9619, 4526.322
237.4441, 4514.780
237.9262, 4496.792
238.4083, 4489.915
238.8904, 4503.079
239.3725, 4529.099
239.8546, 4533.006
240.3368, 4500.667
240.8189, 4464.365
241.3010, 4443.469
241.7831, 4445.561
242.2652, 4447.520
242.7473, 4447.175
243.2295, 4445.190
243.7116, 4446.098
244.1937, 4453.837
244.6758, 4459.430
245.1579, 4456.072
245.6400, 4436.979
246.1222, 4423.155
246.6043, 4417.755
247.0864, 4419.628
247.5685, 4420.941
248.0506, 4421.245
248.5327, 4421.568
249.0149, 4423.069
249.4970, 4427.946
249.9791, 4428.891
250.4612, 4422.538
250.9433, 4410.415
251.4254, 4407.662
251.9076, 4423.233
252.3897, 4436.164
252.8718, 4427.941
253.3539, 4382.516
253.8360, 4354.050
254.3181, 4354.483
254.8003, 4380.070
255.2824, 4397.047
255.7645, 4403.290
256.2466, 4403.953
256.7287, 4401.925
257.2108, 4395.050
257.6930, 4390.826
258.1751, 4390.171
258.6572, 4392.998
259.1393, 4399.892
259.6214, 4414.441
260.1035, 4427.322
260.5857, 4429.985
261.0678, 4418.126
261.5499, 4408.503
262.0320, 4405.138
262.5141, 4406.717
262.9962, 4399.851
263.4784, 4377.762
263.9605, 4358.431
264.4426, 4359.470
264.9247, 4390.488
265.4068, 4409.132
265.8889, 4404.449
266.3711, 4380.762
266.8532, 4371.587
267.3353, 4383.232
267.8174, 4397.308
268.2995, 4396.767
268.7816, 4376.182
269.2638, 4364.808
269.7459, 4373.008
270.2280, 4395.039
270.7101, 4393.340
271.1922, 4359.332
271.6743, 4321.458
272.1565, 4302.918
272.6386, 4305.383
273.1207, 4317.307
273.6028, 4342.156
274.0849, 4374.513
274.5670, 4385.626
275.0492, 4369.512
275.5313, 4349.533
276.0134, 4347.999
276.4955, 4367.438
276.9776, 4377.147
277.4597, 4367.491
277.9419, 4345.524
278.4240, 4339.776
278.9061, 4352.765
279.3882, 4371.412
279.8703, 4385.933
280.3524, 4396.330
280.8346, 4406.228
281.3167, 4417.621
281.7988, 4428.064
282.2809, 4430.826
282.7630, 4425.987
283.2451, 4412.891
283.7273, 4383.623
284.2094, 4339.972
284.6915, 4313.052
285.1736, 4312.325
285.6557, 4327.407
286.1378, 4331.948
286.6200, 4325.254
287.1021, 4318.747
287.5842, 4322.763
288.0663, 4335.625
288.5484, 4344.980
289.0305, 4347.348
289.5127, 4347.207
289.9948, 4356.527
290.4769, 4375.107
290.9590, 4389.292
291.4411, 4385.687
291.9232, 4368.495
292.4054, 4354.863
292.8875, 4347.259
293.3696, 4344.158
293.8517, 4345.819
294.3338, 4351.512
294.8159, 4354.051
295.2981, 4342.370
295.7802, 4323.620
296.2623, 4318.569
296.7444, 4333.452
297.2265, 4354.901
297.7086, 4367.184
298.1908, 4370.786
298.6729, 4368.817
299.1550, 4359.229
299.6371, 4345.995
300.1192, 4335.354
300.6013, 4327.108
301.0835, 4324.732
301.5656, 4334.870
302.0477, 4354.976
302.5298, 4376.210
303.0119, 4395.911
303.4940, 4413.214
303.9762, 4425.628
304.4583, 4431.381
304.9404, 4438.460
305.4225, 4457.404
305.9046, 4483.278
306.3867, 4504.965
306.8689, 4509.586
307.3510, 4510.874
307.8331, 4523.070
308.3152, 4548.615
308.7973, 4577.126
309.2794, 4603.276
309.7616, 4626.867
310.2437, 4647.926
310.7258, 4660.999
311.2079, 4674.923
311.6900, 4698.970
312.1721, 4734.945
312.6543, 4766.725
313.1364, 4783.193
313.6185, 4790.802
314.1006, 4797.908
314.5827, 4804.784
315.0648, 4814.331
315.5470, 4828.662
316.0291, 4847.817
316.5112, 4868.543
316.9933, 4905.445
317.4754, 4937.040
317.9576, 4941.153
318.4397, 4871.938
318.9218, 4811.287
319.4039, 4795.065
319.8860, 4823.486
320.3681, 4843.518
320.8503, 4829.918
321.3324, 4808.634
321.8145, 4800.122
322.2966, 4826.679
322.7787, 4846.673
323.2608, 4847.913
323.7430, 4832.171
324.2251, 4821.052
324.7072, 4820.164
325.1893, 4822.662
325.6714, 4824.414
326.1535, 4826.474
326.6357, 4826.246
327.1178, 4824.066
327.5999, 4819.624
328.0820, 4811.318
328.5641, 4795.833
329.0462, 4779.450
329.5284, 4765.034
330.0105, 4752.079
330.4926, 4742.102
330.9747, 4737.884
331.4568, 4736.482
331.9389, 4728.652
332.4211, 4710.603
332.9032, 4691.472
333.3853, 4675.243
333.8674, 4663.711
334.3495, 4649.878
334.8316, 4632.414
335.3138, 4613.322
335.7959, 4597.206
336.2780, 4585.614
336.7601, 4573.210
337.2422, 4557.734
337.7243, 4538.532
338.2065, 4521.173
338.6886, 4507.147
339.1707, 4492.397
339.6528, 4470.300
340.1349, 4439.250
340.6170, 4408.234
341.0992, 4377.352
341.5813, 4347.703
342.0634, 4330.759
342.5455, 4329.157
343.0276, 4331.370
343.5097, 4325.149
343.9919, 4310.523
344.4740, 4292.439
344.9561, 4270.473
345.4382, 4246.542
345.9203, 4225.678
346.4024, 4207.505
346.8846, 4195.678
347.3667, 4197.858
347.8488, 4210.254
348.3309, 4218.475
348.8130, 4220.165
349.2951, 4214.591
349.7773, 4196.636
350.2594, 4167.661
350.7415, 4139.697
351.2236, 4119.741
351.7057, 4106.701
352.1878, 4098.668
352.6700, 4095.357
353.1521, 4096.526
353.6342, 4106.287
354.1163, 4121.423
354.5984, 4131.630
355.0806, 4127.697
355.5627, 4117.589
356.0448, 4108.875
356.5269, 4102.477
357.0090, 4097.824
357.4911, 4096.502
357.9733, 4096.496
358.4554, 4094.205
358.9375, 4087.445
359.4196, 4078.397
359.9017, 4067.013
360.3839, 4052.859
360.8660, 4041.655
361.3481, 4042.186
361.8302, 4044.685
362.3123, 4038.192
362.7944, 3991.810
363.2766, 3962.506
363.7587, 3981.222
364.2408, 4048.316
364.7229, 4097.181
365.2050, 4098.601
365.6871, 4086.367
366.1693, 4084.903
366.6514, 4115.181
367.1335, 4135.534
367.6156, 4134.510
368.0977, 4116.110
368.5798, 4108.920
369.0620, 4119.829
369.5441, 4135.609
370.0262, 4150.936
370.5083, 4172.963
370.9904, 4181.128
371.4725, 4165.247
371.9547, 4137.915
372.4368, 4132.246
372.9189, 4156.990
373.4010, 4186.918
373.8831, 4213.539
374.3652, 4236.958
374.8474, 4255.301
375.3295, 4268.714
375.8116, 4276.851
376.2937, 4278.693
376.7758, 4273.576
377.2579, 4265.323
377.7401, 4251.572
378.2222, 4234.289
378.7043, 4232.218
379.1864, 4246.813
379.6685, 4270.445
380.1506, 4299.879
380.6328, 4333.911
381.1149, 4358.850
381.5970, 4369.143
382.0791, 4370.347
382.5612, 4374.225
383.0433, 4380.711
383.5255, 4387.434
384.0076, 4388.629
384.4897, 4388.954
384.9718, 4401.118
385.4539, 4431.174
385.9360, 4464.650
386.4182, 4487.273
386.9003, 4500.050
387.3824, 4506.860
387.8645, 4501.720
388.3466, 4495.864
388.8287, 4502.375
389.3109, 4523.892
389.7930, 4549.375
390.2751, 4570.528
390.7572, 4590.769
391.2393, 4615.264
391.7214, 4653.588
392.2036, 4690.802
392.6857, 4716.363
393.1678, 4729.839
393.6499, 4748.391
394.1320, 4783.422
394.6141, 4823.658
395.0963, 4859.175
395.5784, 4883.160
396.0605, 4907.363
396.5426, 4931.177
397.0247, 4955.949
397.5068, 4988.689
397.9890, 5042.158
398.4711, 5094.443
398.9532, 5135.119
399.4353, 5156.960
399.9174, 5178.977
400.3995, 5199.986
400.8817, 5221.355
401.3638, 5245.073
401.8459, 5268.025
402.3280, 5298.796
402.8101, 5343.840
403.2922, 5407.042
403.7744, 5453.892
404.2565, 5476.867
404.7386, 5494.725
405.2207, 5531.197
405.7028, 5589.012
406.1849, 5649.481
406.6671, 5711.038
407.1492, 5771.572
407.6313, 5817.796
408.1134, 5848.707
408.5955, 5875.578
409.0776, 5908.138
409.5598, 5945.032
410.0419, 5980.330
410.5240, 6013.208
411.0061, 6043.911
411.4882, 6073.539
411.9703, 6101.417
412.4525, 6124.678
412.9346, 6133.047
413.4167, 6138.229
413.8988, 6157.915
414.3809, 6193.762
414.8630, 6241.450
415.3452, 6301.823
415.8273, 6370.811
416.3094, 6440.283
416.7915, 6507.694
417.2736, 6573.972
417.7557, 6637.856
418.2379, 6700.123
418.7200, 6763.376
419.2021, 6834.444
419.6842, 6904.826
420.1663, 6967.400
420.6484, 7009.295
421.1306, 7057.147
421.6127, 7121.332
422.0948, 7196.593
422.5769, 7268.199
423.0590, 7340.923
423.5411, 7403.008
424.0233, 7446.736
424.5054, 7461.168
424.9875, 7484.215
425.4696, 7524.207
425.9517, 7568.281
426.4338, 7598.995
426.9160, 7607.653
427.3981, 7619.000
427.8802, 7644.830
428.3623, 7683.553
428.8444, 7689.915
429.3265, 7656.613
429.8087, 7607.069
430.2908, 7559.645
430.7729, 7515.557
431.2550, 7461.003
431.7371, 7388.928
432.2192, 7311.051
432.7014, 7257.437
433.1835, 7227.775
433.6656, 7202.484
434.1477, 7168.343
434.6298, 7129.609
435.1119, 7101.194
435.5941, 7084.896
436.0762, 7072.515
436.5583, 7052.987
437.0404, 7030.198
437.5225, 7013.558
438.0046, 7004.770
438.4868, 7005.302
438.9689, 7021.079
439.4510, 7050.567
439.9331, 7078.725
440.4152, 7089.686
440.8973, 7098.624
441.3795, 7120.735
441.8616, 7167.199
442.3437, 7214.266
442.8258, 7254.179
443.3079, 7287.353
443.7900, 7314.334
444.2722, 7315.936
444.7543, 7327.853
445.2364, 7365.388
445.7185, 7433.750
446.2006, 7509.857
446.6827, 7603.451
447.1649, 7698.852
447.6470, 7779.618
448.1291, 7831.877
448.6112, 7891.113
449.0933, 7960.397
449.5754, 8039.943
450.0576, 8136.758
450.5397, 8256.178
451.0218, 8382.448
451.5039, 8512.237
451.9860, 8649.528
452.4681, 8760.012
452.9503, 8832.978
453.4324, 8898.866
453.9145, 9015.914
454.3966, 9183.789
454.8787, 9350.172
455.3608, 9493.444
455.8430, 9620.527
456.3251, 9751.595
456.8072, 9886.091
457.2893, 10024.02
457.7714, 10156.64
458.2535, 10292.85
458.7357, 10448.40
459.2178, 10637.99
459.6999, 10833.37
460.1820, 11013.56
460.6641, 11182.50
461.1462, 11353.39
461.6284, 11531.29
462.1105, 11716.68
462.5926, 11912.84
463.0747, 12124.85
463.5568, 12331.92
464.0389, 12533.43
464.5211, 12722.63
465.0032, 12888.41
465.4853, 12994.89
465.9674, 13114.50
466.4495, 13266.82
466.9316, 13448.58
467.4138, 13623.60
467.8959, 13797.25
468.3780, 13958.42
468.8601, 14100.91
469.3422, 14220.07
469.8243, 14330.02
470.3065, 14422.02
470.7886, 14513.43
471.2707, 14638.24
471.7528, 14805.87
472.2349, 14959.30
472.7170, 15071.99
473.1992, 15155.57
473.6813, 15275.19
474.1634, 15433.99
474.6455, 15596.65
475.1276, 15725.80
475.6097, 15833.03
476.0919, 15955.00
476.5740, 16100.12
477.0561, 16260.10
477.5382, 16438.41
478.0203, 16625.77
478.5024, 16794.17
478.9846, 16902.79
479.4667, 17002.85
479.9488, 17142.60
480.4309, 17326.61
480.9130, 17514.74
481.3951, 17700.69
481.8773, 17872.16
482.3594, 18016.71
482.8415, 18116.48
483.3236, 18205.41
483.8057, 18293.09
484.2878, 18375.75
484.7700, 18441.29
485.2521, 18503.66
485.7342, 18534.20
486.2163, 18521.89
486.6984, 18462.23
487.1805, 18376.14
487.6627, 18260.81
488.1448, 18123.13
488.6269, 17970.52
489.1090, 17804.50
489.5911, 17615.78
490.0732, 17402.87
490.5554, 17164.88
491.0375, 16883.21
491.5196, 16551.92
492.0017, 16216.13
492.4838, 15908.80
492.9659, 15618.00
493.4481, 15287.93
493.9302, 14915.90
494.4123, 14513.50
494.8944, 14069.45
495.3765, 13607.42
495.8586, 13169.19
496.3408, 12776.97
496.8229, 12407.25
497.3050, 12032.95
497.7871, 11660.19
498.2692, 11302.29
498.7513, 10980.47
499.2335, 10670.62
499.7156, 10352.75
500.1977, 10012.40
500.6798, 9694.566
501.1619, 9422.356
501.6440, 9178.448
502.1262, 8934.903
502.6083, 8673.466
503.0904, 8432.595
503.5725, 8228.989
504.0546, 8057.215
504.5367, 7872.823
505.0189, 7664.981
505.5010, 7463.719
505.9831, 7284.614
506.4652, 7129.325
506.9473, 6992.960
507.4294, 6876.991
507.9116, 6776.508
508.3937, 6685.558
508.8758, 6603.706
509.3579, 6515.990
509.8400, 6408.446
510.3221, 6295.399
510.8043, 6211.635
511.2864, 6155.659
511.7685, 6099.853
512.2506, 6013.156
512.7327, 5919.195
513.2148, 5850.269
513.6970, 5817.422
514.1791, 5793.814
514.6612, 5769.621
515.1433, 5742.478
515.6254, 5708.198
516.1075, 5655.562
516.5897, 5605.096
517.0718, 5565.765
517.5539, 5537.479
518.0360, 5507.030
518.5181, 5469.005
519.0002, 5431.268
519.4824, 5398.360
519.9645, 5370.082
520.4466, 5346.822
520.9287, 5332.109
521.4108, 5319.397
521.8929, 5295.042
522.3751, 5254.788
522.8572, 5225.005
523.3393, 5218.212
523.8214, 5227.272
524.3035, 5223.794
524.7856, 5207.589
525.2678, 5184.783
525.7499, 5153.878
526.2320, 5120.387
526.7141, 5101.012
527.1962, 5101.151
527.6783, 5102.121
528.1605, 5080.766
528.6426, 5048.332
529.1247, 5024.945
529.6068, 5030.478
530.0889, 5037.398
530.5710, 5023.053
531.0532, 4992.478
531.5353, 4976.880
532.0174, 5010.787
532.4995, 5044.380
532.9816, 5047.670
533.4637, 4996.792
533.9459, 4963.740
534.4280, 4962.596
534.9101, 4972.692
535.3922, 4968.920
535.8743, 4944.172
536.3564, 4922.536
536.8386, 4909.471
537.3207, 4902.550
537.8028, 4889.913
538.2849, 4870.281
538.7670, 4853.043
539.2491, 4843.931
539.7313, 4842.045
540.2134, 4844.164
540.6955, 4850.656
541.1776, 4857.379
541.6597, 4863.476
542.1418, 4866.355
542.6240, 4859.380
543.1061, 4831.836
543.5882, 4805.427
544.0703, 4802.958
544.5524, 4816.367
545.0345, 4822.561
545.5167, 4804.510
545.9988, 4782.238
546.4809, 4764.741
546.9630, 4752.832
547.4451, 4746.885
547.9272, 4756.502
548.4094, 4766.145
548.8915, 4763.579
549.3736, 4740.865
549.8557, 4720.813
550.3378, 4707.375
550.8199, 4696.015
551.3021, 4675.039
551.7842, 4642.361
552.2663, 4609.854
552.7484, 4581.470
553.2305, 4556.952
553.7126, 4534.382
554.1948, 4513.551
554.6769, 4497.384
555.1590, 4492.410
555.6411, 4493.172
556.1232, 4487.867
556.6053, 4473.390
557.0875, 4456.850
557.5696, 4445.190
558.0517, 4435.534
558.5338, 4423.184
559.0159, 4398.529
559.4980, 4377.967
559.9802, 4371.485
560.4623, 4377.254
560.9444, 4380.635
561.4265, 4382.030
561.9086, 4377.408
562.3907, 4363.435
562.8729, 4334.229
563.3550, 4314.748
563.8371, 4310.755
564.3192, 4310.231
564.8013, 4297.375
565.2834, 4268.223
565.7656, 4248.719
566.2477, 4246.080
566.7298, 4253.005
567.2119, 4251.496
567.6940, 4242.141
568.1761, 4234.924
568.6583, 4237.063
569.1404, 4244.270
569.6225, 4252.529
570.1046, 4261.376
570.5867, 4260.540
571.0688, 4232.727
571.5510, 4195.669
572.0331, 4168.740
572.5152, 4158.410
572.9973, 4153.889
573.4794, 4153.483
573.9615, 4155.774
574.4437, 4158.413
574.9258, 4163.049
575.4079, 4165.795
575.8900, 4166.204
576.3721, 4164.216
576.8542, 4158.480
577.3364, 4146.240
577.8185, 4135.641
578.3006, 4131.443
578.7827, 4133.796
579.2648, 4141.740
579.7469, 4158.256
580.2291, 4169.391
580.7112, 4152.784
581.1933, 4115.495
581.6754, 4084.361
582.1575, 4066.948
582.6396, 4059.208
583.1218, 4061.829
583.6039, 4071.117
584.0860, 4076.637
584.5681, 4067.440
585.0502, 4057.521
585.5323, 4057.952
586.0145, 4069.265
586.4966, 4075.855
586.9787, 4065.440
587.4608, 4054.702
587.9429, 4055.401
588.4250, 4080.790
588.9072, 4090.958
589.3893, 4075.660
589.8714, 4053.561
590.3535, 4053.752
590.8356, 4082.449
591.3177, 4102.215
591.7999, 4100.871
592.2820, 4087.378
592.7641, 4091.149
593.2462, 4111.035
593.7283, 4120.700
594.2104, 4092.901
594.6926, 4048.968
595.1747, 4023.080
595.6568, 4016.908
596.1389, 4021.135
596.6210, 4040.863
597.1031, 4062.052
597.5853, 4068.698
598.0674, 4046.689
598.5495, 4029.744
599.0316, 4029.562
599.5137, 4040.053
599.9958, 4051.382
600.4780, 4070.572
600.9601, 4079.363
601.4423, 4067.165
601.9244, 4040.488
602.4065, 4039.573
602.8886, 4074.748
603.3707, 4103.833
603.8528, 4096.603
604.3350, 4057.758
604.8171, 4040.233
605.2992, 4046.230
605.7813, 4059.721
606.2634, 4065.801
606.7455, 4067.878
607.2277, 4075.422
607.7098, 4096.139
608.1919, 4108.897
608.6740, 4085.646
609.1561, 4044.113
609.6382, 4016.982
610.1204, 4019.980
610.6025, 4034.145
611.0846, 4061.519
611.5667, 4098.975
612.0488, 4117.215
612.5309, 4096.467
613.0131, 4079.059
613.4952, 4086.356
613.9773, 4124.288
614.4594, 4139.706
614.9415, 4127.017
615.4236, 4106.424
615.9058, 4096.747
616.3879, 4097.286
616.8700, 4102.259
617.3521, 4111.921
617.8342, 4122.395
618.3163, 4129.771
618.7985, 4134.001
619.2806, 4134.968
619.7627, 4130.729
620.2448, 4124.821
620.7269, 4116.498
621.2090, 4107.621
621.6912, 4106.152
622.1733, 4128.920
622.6554, 4147.476
623.1375, 4145.937
623.6196, 4118.218
624.1017, 4098.644
624.5839, 4088.648
