##NAMES=Harmotome
##RRUFFID=R070016
##IDEAL CHEMISTRY=Ba_2_(Si_12_Al_4_)O_32_&#183;12H_2_O
##LOCALITY=Idar-Oberstein, Germany
##OWNER=RRUFF
##SOURCE=Michael Scott
##DESCRIPTION=Colorless to milky-white prismatic crystals
##STATUS=The identification of this mineral has been made only by X-ray diffraction.
##URL=rruff.info/R070016
138.6662, 1272.746
139.1483, 1304.065
139.6304, 1340.316
140.1125, 1380.046
140.5946, 1423.199
141.0768, 1470.096
141.5589, 1521.599
142.0410, 1577.958
142.5231, 1638.437
143.0052, 1702.845
143.4873, 1772.167
143.9695, 1841.857
144.4516, 1912.513
144.9337, 1983.227
145.4158, 2054.870
145.8979, 2127.502
146.3800, 2197.812
146.8622, 2260.160
147.3443, 2309.997
147.8264, 2362.884
148.3085, 2426.089
148.7906, 2488.880
149.2727, 2545.811
149.7549, 2594.711
150.2370, 2633.865
150.7191, 2658.486
151.2012, 2656.188
151.6833, 2661.124
152.1654, 2681.382
152.6476, 2705.074
153.1297, 2722.839
153.6118, 2731.588
154.0939, 2733.806
154.5760, 2734.623
155.0581, 2736.818
155.5403, 2732.628
156.0224, 2710.916
156.5045, 2688.659
156.9866, 2684.315
157.4687, 2703.685
157.9508, 2734.644
158.4330, 2751.364
158.9151, 2733.789
159.3972, 2726.922
159.8793, 2733.693
160.3614, 2749.605
160.8435, 2770.001
161.3257, 2793.248
161.8078, 2821.096
162.2899, 2857.760
162.7720, 2911.923
163.2541, 2963.724
163.7362, 3011.005
164.2184, 3056.204
164.7005, 3102.686
165.1826, 3151.925
165.6647, 3201.300
166.1468, 3245.634
166.6289, 3282.651
167.1111, 3318.438
167.5932, 3356.338
168.0753, 3392.358
168.5574, 3419.379
169.0395, 3434.590
169.5216, 3445.352
170.0038, 3467.775
170.4859, 3511.298
170.9680, 3546.199
171.4501, 3563.618
171.9322, 3571.447
172.4143, 3579.549
172.8965, 3590.881
173.3786, 3605.187
173.8607, 3623.130
174.3428, 3647.078
174.8249, 3667.979
175.3070, 3684.404
175.7892, 3696.707
176.2713, 3704.178
176.7534, 3705.904
177.2355, 3705.719
177.7176, 3710.417
178.1997, 3720.607
178.6819, 3731.252
179.1640, 3744.971
179.6461, 3757.564
180.1282, 3759.917
180.6103, 3747.416
181.0924, 3731.260
181.5745, 3732.125
182.0567, 3752.120
182.5388, 3763.222
183.0209, 3748.201
183.5030, 3721.148
183.9851, 3707.669
184.4672, 3716.118
184.9494, 3731.376
185.4315, 3732.172
185.9136, 3719.200
186.3957, 3707.885
186.8778, 3705.507
187.3599, 3707.171
187.8421, 3704.690
188.3242, 3696.421
188.8063, 3684.108
189.2884, 3669.437
189.7705, 3652.670
190.2526, 3632.708
190.7348, 3601.917
191.2169, 3569.242
191.6990, 3552.576
192.1811, 3557.732
192.6632, 3568.552
193.1453, 3568.884
193.6275, 3560.920
194.1096, 3552.529
194.5917, 3548.442
195.0738, 3544.825
195.5559, 3534.914
196.0380, 3517.094
196.5202, 3496.025
197.0023, 3475.208
197.4844, 3454.341
197.9665, 3432.381
198.4486, 3408.291
198.9307, 3382.946
199.4129, 3357.195
199.8950, 3330.445
200.3771, 3305.386
200.8592, 3284.594
201.3413, 3266.967
201.8234, 3250.913
202.3056, 3244.255
202.7877, 3235.634
203.2698, 3204.164
203.7519, 3144.804
204.2340, 3086.500
204.7161, 3052.724
205.1983, 3033.525
205.6804, 3012.464
206.1625, 2984.563
206.6446, 2953.573
207.1267, 2924.244
207.6088, 2896.784
208.0910, 2869.429
208.5731, 2838.122
209.0552, 2807.234
209.5373, 2784.261
210.0194, 2775.494
210.5015, 2770.044
210.9837, 2754.670
211.4658, 2728.591
211.9479, 2704.413
212.4300, 2693.349
212.9121, 2685.220
213.3942, 2664.703
213.8764, 2623.812
214.3585, 2581.134
214.8406, 2555.108
215.3227, 2545.584
215.8048, 2538.307
216.2869, 2528.522
216.7691, 2517.886
217.2512, 2507.393
217.7333, 2495.770
218.2154, 2488.622
218.6975, 2495.697
219.1796, 2515.269
219.6618, 2524.513
220.1439, 2512.148
220.6260, 2489.895
221.1081, 2471.983
221.5902, 2459.151
222.0723, 2447.181
222.5545, 2432.711
223.0366, 2416.460
223.5187, 2402.337
224.0008, 2392.060
224.4829, 2383.457
224.9650, 2373.341
225.4472, 2361.736
225.9293, 2352.846
226.4114, 2355.001
226.8935, 2362.508
227.3756, 2353.476
227.8577, 2315.115
228.3399, 2277.214
228.8220, 2270.042
229.3041, 2288.373
229.7862, 2305.704
230.2683, 2310.336
230.7504, 2306.207
231.2325, 2301.270
231.7147, 2296.132
232.1968, 2290.330
232.6789, 2284.492
233.1610, 2277.959
233.6431, 2268.060
234.1252, 2248.377
234.6074, 2226.925
235.0895, 2216.870
235.5716, 2220.059
236.0537, 2226.112
236.5358, 2227.725
237.0179, 2227.212
237.5001, 2229.604
237.9822, 2237.802
238.4643, 2247.869
238.9464, 2255.724
239.4285, 2261.343
239.9106, 2266.572
240.3928, 2272.388
240.8749, 2278.425
241.3570, 2284.612
241.8391, 2294.558
242.3212, 2299.476
242.8033, 2288.391
243.2855, 2263.728
243.7676, 2243.835
244.2497, 2237.706
244.7318, 2239.667
245.2139, 2237.719
245.6960, 2229.243
246.1782, 2223.950
246.6603, 2231.886
247.1424, 2247.777
247.6245, 2254.983
248.1066, 2247.035
248.5887, 2230.680
249.0709, 2212.122
249.5530, 2188.975
250.0351, 2178.096
250.5172, 2196.103
250.9993, 2228.166
251.4814, 2247.945
251.9636, 2249.106
252.4457, 2241.339
252.9278, 2233.042
253.4099, 2224.080
253.8920, 2219.698
254.3741, 2224.493
254.8563, 2232.475
255.3384, 2236.365
255.8205, 2235.309
256.3026, 2234.780
256.7847, 2240.349
257.2668, 2251.886
257.7490, 2259.792
258.2311, 2262.022
258.7132, 2262.005
259.1953, 2261.484
259.6774, 2260.715
260.1595, 2259.920
260.6417, 2258.296
261.1238, 2257.013
261.6059, 2262.285
262.0880, 2283.375
262.5701, 2300.626
263.0522, 2302.656
263.5344, 2294.513
264.0165, 2288.965
264.4986, 2293.129
264.9807, 2301.845
265.4628, 2298.847
265.9449, 2272.182
266.4271, 2253.479
266.9092, 2256.404
267.3913, 2268.075
267.8734, 2269.890
268.3555, 2255.674
268.8376, 2235.586
269.3198, 2226.437
269.8019, 2237.839
270.2840, 2241.541
270.7661, 2231.464
271.2482, 2217.479
271.7303, 2204.915
272.2125, 2195.756
272.6946, 2194.145
273.1767, 2206.609
273.6588, 2238.865
274.1409, 2255.091
274.6230, 2243.274
275.1052, 2228.854
275.5873, 2225.823
276.0694, 2232.003
276.5515, 2236.855
277.0336, 2232.288
277.5157, 2218.751
277.9979, 2206.075
278.4800, 2188.683
278.9621, 2178.333
279.4442, 2183.659
279.9263, 2196.498
280.4084, 2204.334
280.8906, 2200.608
281.3727, 2188.871
281.8548, 2179.879
282.3369, 2174.086
282.8190, 2170.819
283.3011, 2168.878
283.7833, 2169.783
284.2654, 2176.763
284.7475, 2190.098
285.2296, 2204.468
285.7117, 2211.436
286.1938, 2208.943
286.6760, 2204.535
287.1581, 2194.741
287.6402, 2186.202
288.1223, 2184.515
288.6044, 2188.609
289.0865, 2191.645
289.5687, 2185.032
290.0508, 2168.255
290.5329, 2161.781
291.0150, 2174.363
291.4971, 2188.324
291.9792, 2200.076
292.4614, 2208.069
292.9435, 2209.387
293.4256, 2200.022
293.9077, 2184.386
294.3898, 2176.173
294.8719, 2177.392
295.3541, 2181.731
295.8362, 2188.537
296.3183, 2196.334
296.8004, 2203.712
297.2825, 2210.397
297.7646, 2216.112
298.2468, 2220.468
298.7289, 2223.421
299.2110, 2225.790
299.6931, 2230.293
300.1752, 2232.004
300.6573, 2222.977
301.1395, 2202.325
301.6216, 2188.025
302.1037, 2193.998
302.5858, 2216.590
303.0679, 2244.688
303.5500, 2282.107
304.0321, 2313.555
304.5143, 2320.473
304.9964, 2308.265
305.4785, 2297.586
305.9606, 2288.875
306.4427, 2288.220
306.9248, 2310.729
307.4070, 2358.186
307.8891, 2398.492
308.3712, 2405.990
308.8533, 2389.076
309.3354, 2384.261
309.8175, 2401.589
310.2997, 2421.597
310.7818, 2432.862
311.2639, 2437.667
311.7460, 2443.022
312.2281, 2451.681
312.7102, 2462.932
313.1924, 2476.136
313.6745, 2495.030
314.1566, 2507.274
314.6387, 2502.375
315.1208, 2492.970
315.6029, 2497.001
316.0851, 2517.993
316.5672, 2540.747
317.0493, 2547.045
317.5314, 2531.503
318.0135, 2521.245
318.4956, 2518.237
318.9778, 2518.331
319.4599, 2522.395
319.9420, 2528.071
320.4241, 2528.743
320.9062, 2518.755
321.3883, 2499.752
321.8705, 2488.505
322.3526, 2491.680
322.8347, 2495.237
323.3168, 2500.156
323.7989, 2503.138
324.2810, 2498.777
324.7632, 2485.030
325.2453, 2467.660
325.7274, 2458.719
326.2095, 2463.518
326.6916, 2465.092
327.1737, 2461.059
327.6559, 2455.022
328.1380, 2448.871
328.6201, 2442.955
329.1022, 2436.782
329.5843, 2429.092
330.0664, 2419.847
330.5486, 2414.422
331.0307, 2416.197
331.5128, 2417.714
331.9949, 2419.717
332.4770, 2418.906
332.9591, 2408.248
333.4413, 2380.293
333.9234, 2345.264
334.4055, 2323.179
334.8876, 2315.724
335.3697, 2313.678
335.8518, 2323.461
336.3340, 2331.573
336.8161, 2322.037
337.2982, 2290.182
337.7803, 2254.449
338.2624, 2225.860
338.7445, 2204.365
339.2267, 2189.450
339.7088, 2181.070
340.1909, 2179.266
340.6730, 2189.095
341.1551, 2208.844
341.6372, 2220.392
342.1194, 2217.084
342.6015, 2204.260
343.0836, 2184.367
343.5657, 2158.241
344.0478, 2135.238
344.5299, 2122.307
345.0121, 2118.135
345.4942, 2112.750
345.9763, 2106.591
346.4584, 2098.925
346.9405, 2088.017
347.4226, 2075.646
347.9048, 2065.640
348.3869, 2059.614
348.8690, 2054.474
349.3511, 2044.177
349.8332, 2021.795
350.3153, 2007.767
350.7975, 2003.851
351.2796, 2006.536
351.7617, 2019.146
352.2438, 2038.042
352.7259, 2049.975
353.2080, 2041.494
353.6902, 2012.568
354.1723, 1991.277
354.6544, 1975.954
355.1365, 1971.316
355.6186, 1989.304
356.1007, 2015.516
356.5829, 2029.869
357.0650, 2022.654
357.5471, 2003.456
358.0292, 1989.397
358.5113, 1979.973
358.9934, 1977.591
359.4756, 1994.700
359.9577, 2010.341
360.4398, 2009.302
360.9219, 1991.601
361.4040, 1971.253
361.8861, 1957.055
362.3683, 1948.865
362.8504, 1947.318
363.3325, 1955.170
363.8146, 1963.878
364.2967, 1969.859
364.7788, 1972.653
365.2610, 1969.949
365.7431, 1955.275
366.2252, 1941.362
366.7073, 1941.560
367.1894, 1954.474
367.6715, 1971.588
368.1537, 1993.896
368.6358, 2013.133
369.1179, 2010.345
369.6000, 1979.383
370.0821, 1955.680
370.5642, 1954.212
371.0464, 1962.707
371.5285, 1965.828
372.0106, 1961.530
372.4927, 1958.634
372.9748, 1966.302
373.4569, 1985.390
373.9391, 1997.518
374.4212, 1993.900
374.9033, 1993.821
375.3854, 2010.017
375.8675, 2033.783
376.3496, 2049.227
376.8318, 2048.753
377.3139, 2038.025
377.7960, 2029.345
378.2781, 2020.605
378.7602, 2018.319
379.2423, 2027.878
379.7245, 2038.865
380.2066, 2043.367
380.6887, 2041.757
381.1708, 2040.834
381.6529, 2047.855
382.1350, 2061.813
382.6172, 2069.852
383.0993, 2067.960
383.5814, 2066.568
384.0635, 2070.954
384.5456, 2077.962
385.0277, 2083.536
385.5099, 2086.554
385.9920, 2087.217
386.4741, 2083.317
386.9562, 2075.335
387.4383, 2074.079
387.9204, 2086.423
388.4026, 2101.365
388.8847, 2104.755
389.3668, 2097.054
389.8489, 2091.853
390.3310, 2093.913
390.8131, 2100.805
391.2953, 2110.161
391.7774, 2121.742
392.2595, 2134.990
392.7416, 2149.890
393.2237, 2166.117
393.7058, 2181.583
394.1880, 2199.182
394.6701, 2212.649
395.1522, 2218.970
395.6343, 2220.744
396.1164, 2219.754
396.5985, 2216.921
397.0807, 2216.095
397.5628, 2222.858
398.0449, 2238.992
398.5270, 2256.814
399.0091, 2279.957
399.4912, 2301.236
399.9734, 2315.693
400.4555, 2325.860
400.9376, 2337.889
401.4197, 2355.767
401.9018, 2377.056
402.3839, 2394.656
402.8660, 2407.069
403.3481, 2419.491
403.8303, 2433.968
404.3124, 2448.383
404.7945, 2461.110
405.2766, 2471.932
405.7587, 2481.385
406.2408, 2485.940
406.7230, 2489.077
407.2051, 2506.116
407.6872, 2543.289
408.1693, 2578.150
408.6514, 2591.471
409.1335, 2590.072
409.6157, 2592.457
410.0978, 2601.674
410.5799, 2614.352
411.0620, 2626.937
411.5441, 2641.238
412.0262, 2664.462
412.5084, 2700.658
412.9905, 2738.479
413.4726, 2758.698
413.9547, 2748.976
414.4368, 2755.703
414.9189, 2791.199
415.4011, 2832.640
415.8832, 2864.577
416.3653, 2889.219
416.8474, 2919.104
417.3295, 2963.766
417.8116, 3017.918
418.2938, 3056.664
418.7759, 3066.477
419.2580, 3082.603
419.7401, 3115.848
420.2222, 3152.456
420.7043, 3180.006
421.1865, 3196.995
421.6686, 3212.311
422.1507, 3235.170
422.6328, 3264.643
423.1149, 3291.207
423.5970, 3313.916
424.0792, 3335.074
424.5613, 3359.100
425.0434, 3381.895
425.5255, 3395.065
426.0076, 3391.747
426.4897, 3386.583
426.9719, 3393.482
427.4540, 3409.081
427.9361, 3422.358
428.4182, 3431.449
428.9003, 3433.039
429.3824, 3421.313
429.8646, 3394.361
430.3467, 3366.114
430.8288, 3330.515
431.3109, 3299.861
431.7930, 3287.887
432.2751, 3288.394
432.7573, 3282.528
433.2394, 3259.079
433.7215, 3223.904
434.2036, 3194.663
434.6857, 3171.153
435.1678, 3154.756
435.6500, 3151.483
436.1321, 3149.880
436.6142, 3139.792
437.0963, 3122.103
437.5784, 3106.934
438.0605, 3104.091
438.5427, 3110.957
439.0248, 3111.636
439.5069, 3101.557
439.9890, 3095.834
440.4711, 3098.635
440.9532, 3110.334
441.4354, 3136.255
441.9175, 3181.789
442.3996, 3221.439
442.8817, 3232.695
443.3638, 3224.538
443.8459, 3216.422
444.3281, 3209.955
444.8102, 3215.960
445.2923, 3247.835
445.7744, 3305.528
446.2565, 3356.331
446.7386, 3401.646
447.2208, 3438.167
447.7029, 3453.025
448.1850, 3460.542
448.6671, 3489.055
449.1492, 3548.634
449.6313, 3618.520
450.1135, 3662.906
450.5956, 3666.964
451.0777, 3691.703
451.5598, 3750.209
452.0419, 3815.530
452.5240, 3884.184
453.0062, 3950.208
453.4883, 4002.635
453.9704, 4032.383
454.4525, 4053.538
454.9346, 4094.958
455.4167, 4159.560
455.8989, 4223.735
456.3810, 4279.986
456.8631, 4335.800
457.3452, 4397.081
457.8273, 4463.919
458.3094, 4534.668
458.7916, 4612.851
459.2737, 4692.436
459.7558, 4764.819
460.2379, 4830.713
460.7200, 4897.938
461.2021, 4970.163
461.6843, 5047.180
462.1664, 5128.730
462.6485, 5220.329
463.1306, 5306.564
463.6127, 5392.759
464.0948, 5468.225
464.5770, 5516.072
465.0591, 5540.923
465.5412, 5567.360
466.0233, 5615.960
466.5054, 5682.969
466.9875, 5744.178
467.4697, 5796.213
467.9518, 5847.813
468.4339, 5907.905
468.9160, 5964.363
469.3981, 6005.883
469.8802, 6030.675
470.3624, 6046.337
470.8445, 6054.436
471.3266, 6058.084
471.8087, 6067.921
472.2908, 6086.023
472.7729, 6103.396
473.2551, 6111.193
473.7372, 6114.750
474.2193, 6130.530
474.7014, 6166.512
475.1835, 6202.241
475.6656, 6230.049
476.1478, 6253.143
476.6299, 6275.331
477.1120, 6297.558
477.5941, 6319.621
478.0762, 6339.928
478.5583, 6358.097
479.0405, 6389.341
479.5226, 6451.508
480.0047, 6506.396
480.4868, 6543.057
480.9689, 6570.296
481.4510, 6596.233
481.9332, 6623.751
482.4153, 6655.212
482.8974, 6702.611
483.3795, 6762.951
483.8616, 6789.532
484.3438, 6765.873
484.8259, 6735.858
485.3080, 6731.823
485.7901, 6740.250
486.2722, 6736.852
486.7543, 6716.435
487.2365, 6685.489
487.7186, 6651.451
488.2007, 6609.102
488.6828, 6542.138
489.1649, 6446.396
489.6470, 6347.139
490.1292, 6274.242
490.6113, 6231.597
491.0934, 6158.266
491.5755, 6035.029
492.0576, 5907.572
492.5397, 5791.015
493.0219, 5676.959
493.5040, 5552.593
493.9861, 5414.653
494.4682, 5270.316
494.9503, 5130.489
495.4324, 4995.322
495.9146, 4852.810
496.3967, 4695.846
496.8788, 4543.262
497.3609, 4403.727
497.8430, 4275.831
498.3251, 4158.324
498.8073, 4055.662
499.2894, 3954.128
499.7715, 3842.641
500.2536, 3725.259
500.7357, 3607.481
501.2178, 3490.503
501.6999, 3385.180
502.1820, 3304.480
502.6642, 3249.304
503.1463, 3189.685
503.6284, 3126.095
504.1105, 3058.817
504.5926, 2979.731
505.0747, 2900.885
505.5569, 2836.524
506.0390, 2790.730
506.5211, 2755.100
507.0032, 2724.035
507.4853, 2697.957
507.9674, 2655.603
508.4496, 2581.191
508.9317, 2516.566
509.4138, 2485.748
509.8959, 2473.017
510.3780, 2459.367
510.8601, 2441.625
511.3423, 2419.818
511.8244, 2389.900
512.3065, 2356.696
512.7886, 2330.934
513.2708, 2314.464
513.7529, 2301.820
514.2350, 2289.694
514.7171, 2277.757
515.1992, 2262.650
515.6813, 2239.051
516.1635, 2219.342
516.6456, 2209.200
517.1277, 2202.101
517.6098, 2191.993
518.0919, 2177.695
518.5740, 2161.205
519.0562, 2143.616
519.5383, 2125.287
520.0204, 2108.385
520.5025, 2090.504
520.9846, 2079.797
521.4667, 2085.403
521.9489, 2096.584
522.4310, 2105.358
522.9131, 2111.493
523.3952, 2108.171
523.8773, 2083.478
524.3594, 2051.423
524.8416, 2031.972
525.3237, 2025.853
525.8058, 2023.583
526.2879, 2019.743
526.7700, 2015.470
527.2521, 2014.431
527.7343, 2020.701
528.2164, 2024.410
528.6985, 2027.970
529.1806, 2027.060
529.6627, 2014.931
530.1448, 1995.189
530.6270, 1978.571
531.1091, 1971.434
531.5912, 1972.287
532.0733, 1980.871
532.5554, 1999.508
533.0375, 2008.066
533.5197, 1994.559
534.0018, 1977.218
534.4839, 1976.729
534.9660, 1990.714
535.4481, 1997.372
535.9302, 1983.578
536.4124, 1966.907
536.8945, 1960.261
537.3766, 1961.674
537.8587, 1965.831
538.3408, 1970.798
538.8229, 1975.961
539.3051, 1981.438
539.7872, 1989.877
540.2693, 1986.882
540.7514, 1959.710
541.2335, 1935.025
541.7156, 1923.413
542.1978, 1918.629
542.6799, 1909.014
543.1620, 1890.035
543.6441, 1874.633
544.1262, 1881.182
544.6083, 1904.480
545.0905, 1918.350
545.5726, 1919.225
546.0547, 1913.321
546.5368, 1902.003
547.0189, 1887.428
547.5010, 1878.839
547.9832, 1881.659
548.4653, 1882.166
548.9474, 1876.840
549.4295, 1867.324
549.9116, 1852.304
550.3937, 1833.756
550.8758, 1820.071
551.3579, 1819.100
551.8400, 1827.215
552.3221, 1827.674
552.8043, 1818.080
553.2864, 1806.478
553.7685, 1794.729
554.2506, 1781.327
554.7327, 1762.362
555.2148, 1739.161
555.6970, 1721.579
556.1791, 1714.408
556.6612, 1714.973
557.1433, 1725.540
557.6254, 1742.667
558.1075, 1750.168
558.5897, 1741.192
559.0718, 1723.871
559.5539, 1709.604
560.0360, 1698.619
560.5181, 1689.732
561.0002, 1681.905
561.4824, 1676.941
561.9645, 1680.074
562.4466, 1684.885
562.9287, 1681.089
563.4108, 1665.362
563.8929, 1646.570
564.3751, 1634.135
564.8572, 1627.563
565.3393, 1624.277
565.8214, 1625.575
566.3035, 1625.044
566.7856, 1617.521
567.2678, 1605.875
567.7499, 1597.758
568.2320, 1594.676
568.7141, 1591.852
569.1962, 1589.906
569.6783, 1586.275
570.1605, 1574.591
570.6426, 1557.818
571.1247, 1548.794
571.6068, 1556.757
572.0889, 1574.967
572.5710, 1584.230
573.0532, 1582.414
573.5353, 1578.302
574.0174, 1568.091
574.4995, 1560.708
574.9816, 1565.802
575.4637, 1578.491
575.9459, 1582.656
576.4280, 1566.989
576.9101, 1548.509
577.3922, 1542.363
577.8743, 1544.580
578.3564, 1544.027
578.8386, 1537.966
579.3207, 1534.403
579.8028, 1542.771
580.2849, 1562.752
580.7670, 1572.959
581.2491, 1569.497
581.7313, 1560.289
582.2134, 1540.854
582.6955, 1519.719
583.1776, 1502.636
583.6597, 1491.356
584.1418, 1487.750
584.6240, 1500.514
585.1061, 1518.660
585.5882, 1514.926
586.0703, 1489.583
586.5524, 1469.929
587.0345, 1466.159
587.5167, 1472.105
587.9988, 1480.286
588.4809, 1491.496
588.9630, 1500.810
589.4451, 1508.439
589.9272, 1513.804
590.4094, 1518.203
590.8915, 1519.642
591.3736, 1512.865
591.8557, 1496.957
592.3378, 1481.110
592.8199, 1478.043
593.3021, 1486.560
593.7842, 1490.408
594.2663, 1490.027
594.7484, 1482.982
595.2305, 1460.968
595.7126, 1435.534
596.1948, 1425.047
596.6769, 1431.373
597.1590, 1445.354
597.6411, 1477.218
598.1232, 1505.546
598.6053, 1504.612
599.0875, 1483.602
599.5696, 1472.964
600.0517, 1487.590
600.5338, 1512.483
601.0159, 1518.925
601.4980, 1501.731
601.9802, 1493.727
602.4623, 1503.348
602.9444, 1511.524
603.4265, 1507.430
603.9086, 1496.657
604.3907, 1488.047
604.8729, 1483.581
605.3550, 1479.969
605.8371, 1474.954
606.3192, 1469.886
606.8013, 1466.012
607.2834, 1463.782
607.7656, 1465.000
608.2477, 1471.203
608.7298, 1480.116
609.2119, 1485.590
609.6940, 1486.852
610.1761, 1486.382
610.6583, 1482.803
611.1404, 1478.906
611.6225, 1476.968
612.1046, 1475.477
612.5867, 1470.717
613.0688, 1460.140
613.5510, 1449.925
614.0331, 1443.973
614.5152, 1442.553
614.9973, 1449.043
615.4794, 1463.406
615.9615, 1474.315
616.4437, 1473.076
616.9258, 1462.453
617.4079, 1453.692
617.8900, 1447.126
618.3721, 1441.972
618.8542, 1435.461
619.3364, 1432.706
619.8185, 1438.702
620.3006, 1450.874
620.7827, 1463.777
621.2648, 1476.903
621.7469, 1484.522
622.2291, 1473.865
622.7112, 1451.640
623.1933, 1445.010
623.6754, 1459.803
624.1575, 1474.068
624.6396, 1470.364
625.1218, 1451.805
625.6039, 1436.342
626.0860, 1415.990
626.5681, 1409.981
627.0502, 1435.238
627.5323, 1461.693
628.0145, 1465.548
628.4966, 1451.724
628.9787, 1440.508
629.4608, 1443.538
629.9429, 1450.621
630.4250, 1444.575
630.9072, 1429.094
631.3893, 1426.917
631.8714, 1444.337
632.3535, 1461.353
632.8356, 1461.516
633.3177, 1447.603
633.7999, 1437.342
634.2820, 1431.689
634.7641, 1428.205
635.2462, 1427.823
635.7283, 1428.579
636.2104, 1427.860
636.6926, 1426.894
637.1747, 1431.314
