##NAMES=Hashemite
##RRUFFID=R100120
##IDEAL CHEMISTRY=BaCr^6+^O_4_
##LOCALITY=60 kilometers south east of Aman, West Central Jordan
##OWNER=RRUFF
##SOURCE=William W. Pinch
##DESCRIPTION=Doubly-terminated to tabular brown crystals with striations, associated with calcite and elongated yellow amorphous minerals.
##STATUS=The identification of this mineral has been confirmed by single-crystal X-ray diffraction.
##URL=rruff.info/R100120
91.03516, 14.18147
91.51727, 14.22707
91.99939, 14.27553
92.48151, 14.28488
92.96362, 14.13468
93.44574, 13.48463
93.92786, 12.65886
94.40997, 12.46000
94.89210, 13.07734
95.37421, 13.91814
95.85633, 14.03130
96.33845, 13.44928
96.82056, 12.81522
97.30268, 12.60614
97.78480, 12.77062
98.26691, 12.74500
98.74903, 12.39060
99.23115, 11.85820
99.71326, 11.59494
100.1954, 11.64366
100.6775, 11.80600
101.1596, 11.99342
101.6417, 12.25776
102.1239, 12.26105
102.6060, 11.84243
103.0881, 11.03793
103.5702, 10.56691
104.0523, 10.60384
104.5344, 10.75652
105.0166, 10.55989
105.4987, 9.684673
105.9808, 9.049701
106.4629, 8.883914
106.9450, 9.262707
107.4271, 9.787861
107.9093, 10.78534
108.3914, 11.81641
108.8735, 12.23267
109.3556, 11.50085
109.8377, 10.64216
110.3198, 9.903260
110.8020, 9.263103
111.2841, 8.793357
111.7662, 8.524570
112.2483, 8.426349
112.7304, 8.426317
113.2125, 8.629046
113.6947, 8.847775
114.1768, 9.000574
114.6589, 9.145494
115.1410, 9.136271
115.6231, 8.790951
116.1052, 8.218102
116.5874, 7.823026
117.0695, 7.770654
117.5516, 7.942797
118.0337, 8.250611
118.5158, 9.021822
118.9980, 9.610086
119.4801, 9.562742
119.9622, 8.939022
120.4443, 8.434671
120.9264, 8.767626
121.4085, 9.358767
121.8907, 9.494840
122.3728, 8.382611
122.8549, 7.020933
123.3370, 6.197890
123.8191, 5.942261
124.3012, 5.998118
124.7834, 6.445821
125.2655, 7.068312
125.7476, 7.401281
126.2297, 6.698316
126.7118, 5.733169
127.1939, 5.822937
127.6761, 7.216384
128.1582, 8.822987
128.6403, 9.299453
129.1224, 8.833517
129.6045, 8.331031
130.0867, 8.282244
130.5688, 8.600694
131.0509, 9.040716
131.5330, 9.633947
132.0151, 10.23213
132.4972, 10.53423
132.9794, 10.53972
133.4615, 10.52940
133.9436, 10.66077
134.4257, 10.93373
134.9078, 11.34668
135.3899, 11.95035
135.8721, 12.65762
136.3542, 13.18350
136.8363, 13.47063
137.3184, 13.83374
137.8005, 14.51496
138.2826, 15.54015
138.7648, 16.73109
139.2469, 18.00749
139.7290, 19.41804
140.2111, 21.32536
140.6932, 23.97036
141.1753, 26.69626
141.6575, 28.82976
142.1396, 30.22544
142.6217, 31.45758
143.1038, 32.50388
143.5859, 33.33818
144.0681, 34.82163
144.5502, 37.46019
145.0323, 40.30922
145.5144, 42.27077
145.9965, 42.74229
146.4786, 43.23492
146.9608, 44.15260
147.4429, 45.67900
147.9250, 46.88777
148.4071, 47.53881
148.8892, 47.96399
149.3713, 48.63790
149.8535, 49.67390
150.3356, 50.85711
150.8177, 52.13387
151.2998, 53.49074
151.7819, 54.96880
152.2640, 56.65437
152.7462, 58.45868
153.2283, 60.19019
153.7104, 61.92416
154.1925, 63.51559
154.6746, 64.91029
155.1567, 66.09811
155.6389, 67.06688
156.1210, 67.73874
156.6031, 68.18803
157.0852, 68.60744
157.5673, 68.95316
158.0495, 69.33401
158.5316, 69.81157
159.0137, 70.44640
159.4958, 71.10320
159.9779, 71.92565
160.4600, 72.78804
160.9422, 73.27998
161.4243, 72.58334
161.9064, 71.86023
162.3885, 71.91363
162.8706, 73.49033
163.3527, 75.22744
163.8349, 76.64877
164.3170, 77.78629
164.7991, 78.79309
165.2812, 79.59362
165.7633, 80.35921
166.2454, 81.24191
166.7276, 82.23603
167.2097, 83.40783
167.6918, 84.85227
168.1739, 86.53947
168.6560, 88.32732
169.1381, 90.24657
169.6203, 92.15151
170.1024, 93.28346
170.5845, 94.25582
171.0666, 94.89054
171.5487, 94.54850
172.0309, 93.31013
172.5130, 92.12571
172.9951, 91.87268
173.4772, 92.06996
173.9593, 91.96553
174.4414, 91.12054
174.9236, 89.91904
175.4057, 88.75269
175.8878, 87.61295
176.3699, 86.47722
176.8520, 85.14256
177.3341, 83.77470
177.8163, 82.73829
178.2984, 82.66994
178.7805, 82.86267
179.2626, 82.11562
179.7447, 80.36392
180.2268, 78.41516
180.7090, 76.97149
181.1911, 75.97935
181.6732, 75.31083
182.1553, 75.23860
182.6374, 75.40675
183.1195, 74.99483
183.6017, 73.91745
184.0838, 72.62731
184.5659, 71.56152
185.0480, 70.70494
185.5301, 69.93473
186.0123, 69.11402
186.4944, 68.32531
186.9765, 67.92474
187.4586, 67.98019
187.9407, 68.18836
188.4228, 68.15705
188.9050, 67.89970
189.3871, 67.53952
189.8692, 67.12074
190.3513, 66.65013
190.8334, 66.08477
191.3155, 65.35540
191.7977, 64.71374
192.2798, 64.71965
192.7619, 65.37154
193.2440, 65.88104
193.7261, 65.77383
194.2082, 65.10281
194.6904, 64.45504
195.1725, 63.85270
195.6546, 63.29815
196.1367, 62.78898
196.6188, 62.31401
197.1009, 61.97834
197.5831, 61.86772
198.0652, 61.97960
198.5473, 62.18160
199.0294, 62.56032
199.5115, 62.89354
199.9937, 62.64312
200.4758, 61.73759
200.9579, 60.73808
201.4400, 59.90017
201.9221, 59.21785
202.4042, 58.78667
202.8864, 58.67826
203.3685, 58.75452
203.8506, 58.64463
204.3327, 58.27504
204.8148, 58.01783
205.2969, 58.17229
205.7791, 58.83349
206.2612, 59.19458
206.7433, 59.14365
207.2254, 58.81828
207.7075, 58.54998
208.1896, 58.33783
208.6718, 58.18343
209.1539, 58.08793
209.6360, 58.05488
210.1181, 58.07898
210.6002, 58.19807
211.0823, 58.35476
211.5645, 58.36688
212.0466, 58.17801
212.5287, 57.98162
213.0108, 57.92407
213.4929, 58.09669
213.9750, 58.03894
214.4572, 57.65045
214.9393, 57.04798
215.4214, 56.52068
215.9035, 55.98475
216.3856, 55.69070
216.8678, 55.87096
217.3499, 56.77250
217.8320, 57.31535
218.3141, 57.30468
218.7962, 56.94126
219.2783, 56.88612
219.7605, 57.31276
220.2426, 57.72900
220.7247, 57.86828
221.2068, 57.65913
221.6889, 57.35801
222.1710, 56.89187
222.6532, 56.36100
223.1353, 56.11990
223.6174, 56.31174
224.0995, 56.55163
224.5816, 56.64412
225.0637, 56.53180
225.5459, 56.40570
226.0280, 56.19128
226.5101, 55.98429
226.9922, 56.12189
227.4743, 56.82690
227.9564, 57.52706
228.4386, 57.96035
228.9207, 58.07056
229.4028, 58.00353
229.8849, 57.59370
230.3670, 57.04825
230.8492, 57.00055
231.3313, 57.81796
231.8134, 58.57703
232.2955, 58.84890
232.7776, 58.43320
233.2597, 57.98180
233.7419, 57.48509
234.2240, 56.96022
234.7061, 56.44961
235.1882, 55.88860
235.6703, 55.44242
236.1524, 55.17476
236.6346, 55.09652
237.1167, 55.19282
237.5988, 55.54829
238.0809, 56.04676
238.5630, 56.43483
239.0451, 56.72904
239.5273, 56.88081
240.0094, 56.83531
240.4915, 56.45523
240.9736, 56.22717
241.4557, 56.14650
241.9378, 56.21516
242.4200, 56.47422
242.9021, 57.12646
243.3842, 57.65596
243.8663, 57.85074
244.3484, 57.60048
244.8306, 57.32802
245.3127, 56.95998
245.7948, 56.61028
246.2769, 56.52557
246.7590, 56.90044
247.2411, 57.20777
247.7233, 57.19824
248.2054, 56.68141
248.6875, 56.59041
249.1696, 57.13654
249.6517, 57.96690
250.1338, 58.53617
250.6160, 58.87348
251.0981, 58.88587
251.5802, 58.38499
252.0623, 57.12896
252.5444, 56.65536
253.0265, 57.37162
253.5087, 58.53973
253.9908, 59.04236
254.4729, 58.47184
254.9550, 58.07884
255.4371, 58.30194
255.9192, 59.25337
256.4014, 59.89442
256.8835, 60.19379
257.3656, 60.21295
257.8477, 59.92952
258.3298, 59.01344
258.8120, 58.55579
259.2941, 58.99769
259.7762, 60.42491
260.2583, 61.28193
260.7404, 61.37116
261.2225, 61.14374
261.7047, 61.05139
262.1868, 61.08169
262.6689, 61.30581
263.1510, 61.91088
263.6331, 62.86431
264.1152, 63.00003
264.5974, 61.89608
265.0795, 60.62392
265.5616, 60.33977
266.0437, 61.41873
266.5258, 62.19817
267.0079, 62.20481
267.4901, 61.58478
267.9722, 61.75095
268.4543, 63.05947
268.9364, 64.44901
269.4185, 64.95708
269.9006, 64.33173
270.3828, 63.93102
270.8649, 63.99028
271.3470, 64.42521
271.8291, 64.85484
272.3112, 65.29141
272.7933, 65.69932
273.2755, 66.06147
273.7576, 66.38517
274.2397, 66.59303
274.7218, 66.61677
275.2039, 66.54865
275.6860, 66.68698
276.1682, 67.07003
276.6503, 67.52047
277.1324, 67.96563
277.6145, 68.41113
278.0966, 68.73567
278.5787, 68.91298
279.0609, 68.98909
279.5430, 69.02881
280.0251, 69.01491
280.5072, 69.08410
280.9893, 69.35738
281.4715, 69.83184
281.9536, 70.22221
282.4357, 70.49734
282.9178, 70.72199
283.3999, 70.96883
283.8820, 71.23119
284.3642, 71.61356
284.8463, 72.26380
285.3284, 73.14321
285.8105, 73.74003
286.2926, 73.99686
286.7747, 74.15063
287.2569, 74.55388
287.7390, 75.19511
288.2211, 75.78976
288.7032, 76.09936
289.1853, 76.24864
289.6674, 76.88669
290.1496, 78.07725
290.6317, 79.35757
291.1138, 80.19365
291.5959, 80.64060
292.0780, 81.04945
292.5602, 81.54285
293.0423, 82.08025
293.5244, 82.50887
294.0065, 82.81934
294.4886, 83.21622
294.9707, 84.01949
295.4529, 85.10120
295.9350, 85.97507
296.4171, 86.47655
296.8992, 86.75037
297.3813, 86.90156
297.8634, 86.95809
298.3456, 87.26327
298.8277, 88.23829
299.3098, 89.64365
299.7919, 90.98022
300.2740, 92.17871
300.7561, 93.19026
301.2383, 93.74483
301.7204, 93.95933
302.2025, 94.32972
302.6846, 95.33421
303.1667, 96.64793
303.6488, 97.78736
304.1310, 98.62912
304.6131, 99.41402
305.0952, 100.2899
305.5773, 101.2780
306.0594, 102.4305
306.5415, 103.7912
307.0237, 105.3279
307.5058, 107.1188
307.9879, 109.2109
308.4700, 111.1977
308.9521, 112.6571
309.4343, 113.8156
309.9164, 115.1063
310.3985, 116.9188
310.8806, 118.8090
311.3627, 120.3070
311.8448, 121.3987
312.3270, 122.7550
312.8091, 125.0304
313.2912, 127.7190
313.7733, 130.2234
314.2554, 131.9145
314.7375, 133.7288
315.2197, 136.2082
315.7018, 139.3152
316.1839, 142.5226
316.6660, 145.6226
317.1481, 148.7249
317.6302, 151.8835
318.1124, 155.1726
318.5945, 158.4677
319.0766, 161.6824
319.5587, 164.8685
320.0408, 168.2508
320.5229, 171.3576
321.0051, 175.0579
321.4872, 179.9829
321.9693, 186.9831
322.4514, 193.6812
322.9335, 198.8945
323.4156, 203.5348
323.8978, 209.3600
324.3799, 217.3599
324.8620, 225.9942
325.3441, 234.5977
325.8262, 242.5914
326.3083, 251.9740
326.7905, 263.0331
327.2726, 275.5647
327.7547, 289.1547
328.2368, 303.0562
328.7189, 318.8795
329.2010, 336.8151
329.6832, 356.6396
330.1653, 379.1717
330.6474, 404.7484
331.1295, 432.7625
331.6116, 463.0022
332.0938, 495.3022
332.5759, 530.3275
333.0580, 568.6758
333.5401, 610.1617
334.0222, 650.6562
334.5043, 690.1746
334.9865, 729.1478
335.4686, 768.2379
335.9507, 807.8427
336.4328, 846.5957
336.9149, 883.9491
337.3970, 921.2186
337.8792, 960.2078
338.3613, 1001.315
338.8434, 1044.514
339.3255, 1089.882
339.8076, 1137.451
340.2898, 1188.141
340.7719, 1241.932
341.2540, 1299.618
341.7361, 1363.394
342.2182, 1432.053
342.7003, 1507.833
343.1825, 1590.929
343.6646, 1681.733
344.1467, 1777.209
344.6288, 1878.035
345.1109, 1984.198
345.5930, 2099.886
346.0752, 2222.909
346.5573, 2346.555
347.0394, 2473.159
347.5215, 2596.842
348.0036, 2710.448
348.4857, 2813.270
348.9679, 2900.082
349.4500, 2977.059
349.9321, 3036.195
350.4142, 3054.516
350.8963, 3027.574
351.3784, 2962.815
351.8606, 2860.051
352.3427, 2725.482
352.8248, 2579.010
353.3069, 2419.155
353.7890, 2260.690
354.2711, 2119.580
354.7533, 1997.371
355.2354, 1893.827
355.7175, 1812.999
356.1996, 1751.557
356.6817, 1703.703
357.1638, 1672.206
357.6460, 1649.648
358.1281, 1632.925
358.6102, 1621.443
359.0923, 1608.467
359.5744, 1593.969
360.0565, 1574.588
360.5387, 1547.153
361.0208, 1511.473
361.5029, 1466.559
361.9850, 1410.737
362.4671, 1345.289
362.9492, 1274.697
363.4314, 1196.485
363.9135, 1116.494
364.3956, 1037.283
364.8777, 957.3703
365.3598, 881.9589
365.8419, 811.8207
366.3241, 746.8616
366.8062, 687.4487
367.2883, 635.0016
367.7704, 586.7627
368.2526, 541.9203
368.7347, 500.1347
369.2168, 462.9826
369.6989, 431.3572
370.1810, 403.5615
370.6631, 377.9103
371.1453, 354.4607
371.6274, 333.0326
372.1095, 313.5077
372.5916, 295.8085
373.0737, 280.0865
373.5558, 266.5481
374.0380, 254.4744
374.5201, 243.3286
375.0022, 233.1626
375.4843, 224.0671
375.9664, 215.9386
376.4485, 208.9839
376.9307, 203.5386
377.4128, 199.7968
377.8949, 196.9412
378.3770, 194.8249
378.8591, 193.4271
379.3412, 192.1517
379.8234, 190.9426
380.3055, 190.0902
380.7876, 189.7520
381.2697, 189.9554
381.7518, 191.2307
382.2339, 193.7333
382.7161, 197.3647
383.1982, 201.7630
383.6803, 206.9151
384.1624, 213.6152
384.6445, 222.3952
385.1266, 233.1250
385.6088, 245.5168
386.0909, 259.4971
386.5730, 275.0848
387.0551, 293.2637
387.5372, 313.0252
388.0193, 331.8355
388.5015, 347.7567
388.9836, 362.1744
389.4657, 376.2621
389.9478, 390.0631
390.4299, 404.1835
390.9120, 418.6825
391.3942, 433.8892
391.8763, 450.0006
392.3584, 467.0145
392.8405, 485.0392
393.3226, 504.3208
393.8047, 524.7327
394.2869, 545.6952
394.7690, 567.7917
395.2511, 589.8206
395.7332, 610.6431
396.2154, 628.1775
396.6975, 648.4221
397.1796, 671.5656
397.6617, 698.6238
398.1438, 731.0244
398.6259, 771.7182
399.1081, 815.3132
399.5902, 860.9850
400.0723, 909.0817
400.5544, 956.9822
401.0365, 1006.673
401.5186, 1054.845
402.0008, 1099.949
402.4829, 1152.718
402.9650, 1183.512
403.4471, 1192.813
403.9292, 1177.525
404.4113, 1121.045
404.8935, 1010.369
405.3756, 888.0192
405.8577, 770.5427
406.3398, 656.8718
406.8219, 564.2893
407.3040, 494.3627
407.7862, 442.6520
408.2683, 403.6568
408.7504, 377.5261
409.2325, 358.9703
409.7146, 348.0005
410.1967, 342.9421
410.6789, 338.6359
411.1610, 335.1821
411.6431, 329.9941
412.1252, 320.7689
412.6073, 308.0775
413.0894, 293.0459
413.5716, 275.3699
414.0537, 257.3160
414.5358, 240.8655
415.0179, 226.3669
415.5000, 214.4000
415.9821, 205.9758
416.4643, 200.0299
416.9464, 195.7503
417.4285, 193.1400
417.9106, 191.5718
418.3927, 190.6317
418.8748, 190.4975
419.3570, 191.3942
419.8391, 193.5877
420.3212, 196.6382
420.8033, 200.4877
421.2854, 205.0894
421.7675, 210.2786
422.2497, 215.9996
422.7318, 222.3056
423.2139, 229.3655
423.6960, 237.9919
424.1781, 245.6034
424.6602, 252.4869
425.1424, 258.0122
425.6245, 261.2258
426.1066, 262.9386
426.5887, 261.3080
427.0709, 255.6033
427.5530, 245.8247
428.0351, 234.1281
428.5172, 219.4608
428.9993, 204.1200
429.4814, 189.4468
429.9636, 175.1896
430.4457, 162.5891
430.9278, 151.8372
431.4099, 142.7054
431.8920, 134.8480
432.3741, 128.2492
432.8563, 122.5222
433.3384, 117.5625
433.8205, 113.3230
434.3026, 109.6249
434.7847, 106.4427
435.2668, 103.8379
435.7490, 102.2044
436.2311, 101.2598
436.7132, 100.0264
437.1953, 98.10863
437.6774, 95.97655
438.1595, 94.17821
438.6417, 92.68181
439.1238, 91.35555
439.6059, 90.24850
440.0880, 89.20602
440.5701, 88.01143
441.0522, 86.59785
441.5344, 85.31393
442.0165, 84.46831
442.4986, 83.84740
442.9807, 83.19460
443.4628, 82.32214
443.9449, 81.50256
444.4271, 80.92423
444.9092, 80.52798
445.3913, 79.96926
445.8734, 79.15047
446.3555, 78.17068
446.8376, 77.08602
447.3198, 75.94778
447.8019, 74.59517
448.2840, 72.85650
448.7661, 70.98738
449.2482, 69.35732
449.7303, 68.14436
450.2125, 66.88048
450.6946, 65.35645
451.1767, 63.61420
451.6588, 62.39632
452.1409, 61.82194
452.6230, 61.47228
453.1052, 61.07731
453.5873, 60.62793
454.0694, 60.21299
454.5515, 59.84794
455.0337, 59.50299
455.5158, 59.11811
455.9979, 58.69598
456.4800, 58.32937
456.9621, 58.05188
457.4442, 57.85542
457.9264, 57.71463
458.4085, 57.63042
458.8906, 57.61898
459.3727, 57.78414
459.8548, 58.01020
460.3369, 58.14193
460.8191, 58.21456
461.3012, 58.02715
461.7833, 57.21380
462.2654, 56.02765
462.7475, 54.99834
463.2296, 54.39197
463.7118, 53.96321
464.1939, 53.63955
464.6760, 53.41430
465.1581, 53.09297
465.6402, 52.43793
466.1223, 51.77246
466.6045, 51.33323
467.0866, 51.62183
467.5687, 51.55315
468.0508, 50.75795
468.5329, 49.59613
469.0150, 48.87271
469.4972, 48.86387
469.9793, 48.88661
470.4614, 48.72247
470.9435, 48.35819
471.4256, 48.08845
471.9077, 47.94460
472.3899, 47.83443
472.8720, 47.70311
473.3541, 47.55630
473.8362, 47.27765
474.3183, 46.80872
474.8004, 46.26471
475.2826, 45.86024
475.7647, 45.59082
476.2468, 45.39501
476.7289, 45.30755
477.2110, 45.25769
477.6931, 45.05145
478.1753, 44.68733
478.6574, 44.35396
479.1395, 44.26488
479.6216, 44.28952
480.1037, 44.23074
480.5858, 44.00575
481.0680, 43.74644
481.5501, 43.59719
482.0322, 43.47933
482.5143, 43.22863
482.9964, 42.45991
483.4786, 41.82151
483.9607, 41.68859
484.4428, 42.12024
484.9249, 42.52785
485.4070, 42.86955
485.8892, 43.10231
486.3713, 43.18959
486.8534, 43.07715
487.3355, 42.89870
487.8176, 42.59388
488.2997, 42.24621
488.7819, 42.04779
489.2640, 42.08784
489.7461, 42.06355
490.2282, 41.80960
490.7103, 41.35309
491.1924, 41.25838
491.6746, 41.59799
492.1567, 41.99535
492.6388, 42.07275
493.1209, 41.87675
493.6030, 41.82701
494.0851, 42.00827
494.5673, 42.27022
495.0494, 42.47895
495.5315, 42.60372
496.0136, 42.52726
496.4957, 42.01242
496.9778, 41.37766
497.4600, 40.92413
497.9421, 40.65571
498.4242, 40.55433
498.9063, 40.69933
499.3884, 40.95350
499.8705, 41.23522
500.3527, 41.61528
500.8348, 41.79818
501.3169, 41.46502
501.7990, 40.92654
502.2811, 40.61897
502.7632, 40.70817
503.2454, 40.94566
503.7275, 41.44482
504.2096, 42.14680
504.6917, 42.40561
505.1738, 42.04773
505.6559, 41.48328
506.1381, 40.85476
506.6202, 40.05310
507.1023, 39.68132
507.5844, 39.86538
508.0665, 40.25291
508.5486, 40.32135
509.0308, 40.06017
509.5129, 39.98433
509.9950, 40.33829
510.4771, 40.84652
510.9592, 40.82778
511.4413, 40.33525
511.9235, 39.88850
512.4056, 39.92080
512.8877, 40.16607
513.3698, 40.15946
513.8519, 39.84264
514.3340, 39.64766
514.8162, 40.17617
515.2983, 40.90350
515.7804, 41.18345
516.2625, 40.43233
516.7446, 39.70058
517.2267, 39.41046
517.7089, 39.45430
518.1910, 39.57342
518.6731, 39.94026
519.1552, 40.16134
519.6373, 40.01912
520.1194, 39.46481
520.6016, 39.08794
521.0837, 38.94587
521.5658, 38.92041
522.0479, 38.97448
522.5300, 39.19490
523.0121, 39.13153
523.4943, 38.63243
523.9764, 38.00010
524.4585, 37.79677
524.9406, 38.03276
525.4227, 38.36612
525.9048, 38.77373
526.3870, 39.14567
526.8691, 39.21112
527.3513, 38.97643
527.8334, 38.55019
528.3155, 37.78042
528.7976, 36.94810
529.2797, 36.47041
529.7618, 36.41784
530.2440, 36.57520
530.7261, 37.03204
531.2082, 37.53319
531.6903, 37.74413
532.1724, 37.25093
532.6545, 36.77757
533.1367, 36.54512
533.6188, 36.51597
534.1009, 36.54188
534.5830, 36.61895
535.0651, 36.73529
535.5472, 36.92918
536.0294, 37.24257
536.5115, 37.33101
536.9936, 37.12283
537.4757, 36.79061
537.9578, 36.44453
538.4399, 36.06086
538.9221, 35.80744
539.4042, 35.72396
539.8863, 35.73332
540.3684, 35.66115
540.8505, 35.52398
541.3326, 35.53039
541.8148, 35.89856
542.2969, 36.38156
542.7790, 36.51325
543.2611, 36.32560
543.7432, 36.08275
544.2253, 35.88569
544.7075, 35.76565
545.1896, 35.82818
545.6717, 36.15326
546.1538, 36.28231
546.6359, 35.66032
547.1180, 34.86327
547.6002, 34.51175
548.0823, 35.49129
548.5644, 36.07290
549.0465, 35.63467
549.5286, 34.56123
550.0107, 33.98621
550.4929, 34.24815
550.9750, 34.49316
551.4571, 34.37915
551.9392, 33.90244
552.4213, 33.88214
552.9034, 34.45477
553.3856, 35.05463
553.8677, 35.20280
554.3498, 34.93261
554.8319, 34.64235
555.3140, 34.37180
555.7961, 34.08519
556.2783, 33.59554
556.7604, 33.03967
557.2425, 32.83732
557.7246, 33.44453
558.2067, 34.15766
558.6888, 34.14995
559.1710, 33.63541
559.6531, 33.33904
560.1352, 33.97346
560.6173, 34.64977
561.0994, 34.79699
561.5815, 34.30937
562.0637, 33.83456
562.5458, 33.49501
563.0279, 33.21581
563.5100, 32.92491
563.9921, 32.46025
564.4742, 32.29462
564.9564, 32.59940
565.4385, 33.08009
565.9206, 33.19414
566.4027, 32.85153
566.8848, 32.59258
567.3669, 32.60266
567.8491, 32.78990
568.3312, 32.87449
568.8133, 32.85827
569.2954, 32.78995
569.7775, 32.72342
570.2596, 32.61967
570.7418, 32.35600
571.2239, 31.91639
571.7060, 31.54706
572.1881, 31.43378
572.6702, 31.49199
573.1523, 31.65486
573.6345, 32.04597
574.1166, 32.28181
574.5987, 32.13288
575.0808, 31.75250
575.5629, 31.39085
576.0450, 30.91674
576.5272, 30.67656
577.0093, 30.86523
577.4914, 31.38898
577.9735, 31.60530
578.4556, 31.37199
578.9377, 31.12230
579.4199, 31.09648
579.9020, 31.30120
580.3841, 31.35255
580.8662, 31.22201
581.3483, 31.09238
581.8304, 31.22832
582.3126, 31.52968
582.7947, 31.65034
583.2768, 31.52269
583.7589, 31.20972
584.2410, 30.57526
584.7231, 29.82063
585.2053, 29.34454
585.6874, 29.58863
586.1696, 29.90164
586.6517, 29.84909
