##NAMES=Hastingsite
##RRUFFID=R070250
##IDEAL CHEMISTRY=NaCa_2_(Fe^2+^_4_Fe^3+^)(Si_6_Al_2_)O_22_(OH)_2_
##LOCALITY=unnamed quarry, Dmitrievka village, Mariupol' Massif (Oktyabr'skii), Azov Sea Region, Donetsk Oblast', Ukraine
##OWNER=RRUFF
##SOURCE=Michael Scott
##DESCRIPTION=Dark green to black crystals exhibiting typical amphibole cleavage
##STATUS=The identification of this mineral is confirmed by single-crystal X-ray diffraction and chemical analysis.
##URL=rruff.info/R070250
##MEASURED CHEMISTRY=([box]_0.38_Na_0.34_K_0.28_)_Σ=1_(Ca_1.70_Na_0.30_)_Σ=2_((Fe^2+^_2.99_Mg_0.81_Mn_0.07_)_Σ=3.87_(Fe^3+^_0.75_Ti_0.22_Al_0.16_)_Σ=1.13_)_Σ=5_(Si_6.33_Al_1.67_)O_22_((OH)_1.57_F_0.37_Cl_0.06_)_Σ=2_; (OH) estimated by difference
161.7148, 3204.443
162.1969, 3237.612
162.6790, 3277.634
163.1611, 3305.934
163.6432, 3303.918
164.1253, 3298.896
164.6075, 3307.125
165.0896, 3329.253
165.5717, 3349.520
166.0538, 3355.753
166.5359, 3355.175
167.0180, 3358.147
167.5002, 3371.773
167.9823, 3388.822
168.4644, 3404.257
168.9465, 3417.686
169.4286, 3429.667
169.9107, 3439.604
170.3929, 3448.297
170.8750, 3457.693
171.3571, 3471.103
171.8392, 3484.608
172.3213, 3492.343
172.8034, 3491.305
173.2856, 3491.724
173.7677, 3505.538
174.2498, 3529.629
174.7319, 3553.011
175.2140, 3573.570
175.6961, 3588.278
176.1783, 3590.672
176.6604, 3575.685
177.1425, 3555.033
177.6246, 3539.792
178.1067, 3530.351
178.5888, 3528.316
179.0710, 3538.708
179.5531, 3557.402
180.0352, 3576.057
180.5173, 3595.010
180.9994, 3610.388
181.4815, 3611.830
181.9637, 3599.799
182.4458, 3588.401
182.9279, 3590.660
183.4100, 3603.871
183.8921, 3617.748
184.3742, 3628.674
184.8564, 3638.709
185.3385, 3654.965
185.8206, 3678.377
186.3027, 3698.344
186.7848, 3698.667
187.2669, 3682.559
187.7491, 3674.894
188.2312, 3691.815
188.7133, 3724.187
189.1954, 3735.015
189.6775, 3720.679
190.1596, 3700.639
190.6418, 3702.136
191.1239, 3724.508
191.6060, 3740.840
192.0881, 3734.656
192.5702, 3709.550
193.0524, 3697.791
193.5345, 3701.133
194.0166, 3713.237
194.4987, 3726.012
194.9808, 3739.566
195.4629, 3752.246
195.9451, 3762.411
196.4272, 3770.265
196.9093, 3780.042
197.3914, 3792.535
197.8735, 3805.918
198.3556, 3817.179
198.8378, 3826.352
199.3199, 3833.034
199.8020, 3834.230
200.2841, 3828.998
200.7662, 3833.982
201.2483, 3854.616
201.7305, 3881.890
202.2126, 3891.503
202.6947, 3879.349
203.1768, 3864.858
203.6589, 3859.701
204.1410, 3865.038
204.6232, 3871.511
205.1053, 3877.427
205.5874, 3884.335
206.0695, 3899.556
206.5516, 3927.093
207.0337, 3952.430
207.5159, 3964.304
207.9980, 3959.487
208.4801, 3955.506
208.9622, 3954.338
209.4443, 3955.630
209.9264, 3957.842
210.4086, 3961.259
210.8907, 3965.032
211.3728, 3967.890
211.8549, 3968.671
212.3370, 3973.263
212.8191, 3985.767
213.3013, 4003.973
213.7834, 4007.392
214.2655, 3987.331
214.7476, 3966.435
215.2297, 3966.606
215.7118, 3997.164
216.1940, 4022.957
216.6761, 4037.185
217.1582, 4040.388
217.6403, 4041.586
218.1224, 4037.535
218.6045, 4035.775
219.0867, 4046.731
219.5688, 4081.294
220.0509, 4101.746
220.5330, 4094.035
221.0151, 4057.087
221.4972, 4040.698
221.9794, 4055.431
222.4615, 4078.748
222.9436, 4084.791
223.4257, 4061.417
223.9078, 4046.181
224.3899, 4051.420
224.8721, 4079.781
225.3542, 4093.762
225.8363, 4086.520
226.3184, 4071.522
226.8005, 4064.402
227.2827, 4067.374
227.7648, 4074.286
228.2469, 4084.671
228.7290, 4099.210
229.2111, 4111.990
229.6932, 4124.500
230.1754, 4133.898
230.6575, 4135.334
231.1396, 4122.343
231.6217, 4113.032
232.1038, 4114.983
232.5859, 4132.621
233.0681, 4136.208
233.5502, 4115.750
234.0323, 4088.440
234.5144, 4079.811
234.9965, 4098.783
235.4786, 4121.830
235.9608, 4144.701
236.4429, 4170.114
236.9250, 4180.152
237.4071, 4164.288
237.8892, 4139.503
238.3713, 4133.444
238.8535, 4155.149
239.3356, 4180.616
239.8177, 4203.874
240.2998, 4226.606
240.7819, 4240.470
241.2640, 4243.617
241.7462, 4239.201
242.2283, 4231.926
242.7104, 4218.790
243.1925, 4207.729
243.6746, 4201.447
244.1567, 4200.808
244.6389, 4201.889
245.1210, 4203.809
245.6031, 4207.935
246.0852, 4217.473
246.5673, 4236.384
247.0494, 4254.011
247.5316, 4267.284
248.0137, 4276.934
248.4958, 4278.956
248.9779, 4269.103
249.4600, 4253.992
249.9421, 4246.092
250.4243, 4247.310
250.9064, 4252.215
251.3885, 4259.470
251.8706, 4270.231
252.3527, 4279.913
252.8348, 4289.732
253.3170, 4297.731
253.7991, 4299.562
254.2812, 4292.796
254.7633, 4284.419
255.2454, 4275.394
255.7275, 4262.946
256.2097, 4261.561
256.6918, 4276.668
257.1739, 4299.117
257.6560, 4311.600
258.1381, 4310.149
258.6202, 4306.887
259.1024, 4305.879
259.5845, 4307.089
260.0666, 4311.272
260.5487, 4320.642
261.0308, 4331.287
261.5129, 4334.814
261.9951, 4326.533
262.4772, 4322.334
262.9593, 4330.464
263.4414, 4355.148
263.9235, 4372.070
264.4056, 4379.633
264.8878, 4381.079
265.3699, 4381.594
265.8520, 4380.438
266.3341, 4380.518
266.8162, 4384.206
267.2983, 4392.872
267.7805, 4394.796
268.2626, 4385.968
268.7447, 4374.852
269.2268, 4378.816
269.7089, 4403.322
270.1910, 4423.170
270.6732, 4424.864
271.1553, 4405.147
271.6374, 4401.579
272.1195, 4420.072
272.6016, 4446.056
273.0837, 4452.533
273.5659, 4434.862
274.0480, 4421.735
274.5301, 4428.298
275.0122, 4455.657
275.4943, 4467.159
275.9764, 4457.570
276.4586, 4441.974
276.9407, 4444.456
277.4228, 4466.933
277.9049, 4490.437
278.3870, 4509.677
278.8691, 4524.470
279.3513, 4527.977
279.8334, 4516.753
280.3155, 4503.106
280.7976, 4506.068
281.2798, 4526.415
281.7619, 4544.711
282.2440, 4553.588
282.7261, 4553.944
283.2082, 4551.333
283.6903, 4544.810
284.1725, 4538.803
284.6546, 4538.973
285.1367, 4545.172
285.6188, 4553.769
286.1009, 4565.343
286.5830, 4578.455
287.0652, 4586.759
287.5473, 4589.915
288.0294, 4589.859
288.5115, 4586.486
288.9936, 4580.526
289.4757, 4578.069
289.9579, 4581.879
290.4400, 4590.437
290.9221, 4601.801
291.4042, 4616.459
291.8863, 4627.799
292.3684, 4624.036
292.8506, 4609.502
293.3327, 4603.245
293.8148, 4615.338
294.2969, 4636.992
294.7790, 4651.952
295.2611, 4660.248
295.7433, 4665.087
296.2254, 4668.414
296.7075, 4670.500
297.1896, 4672.393
297.6717, 4676.791
298.1538, 4679.148
298.6360, 4667.752
299.1181, 4644.010
299.6002, 4625.783
300.0823, 4631.282
300.5644, 4651.370
301.0465, 4668.833
301.5287, 4678.530
302.0108, 4684.567
302.4929, 4690.393
302.9750, 4696.148
303.4571, 4702.311
303.9392, 4717.083
304.4214, 4730.180
304.9035, 4725.212
305.3856, 4687.459
305.8677, 4648.321
306.3498, 4636.212
306.8319, 4646.455
307.3141, 4662.512
307.7962, 4678.631
308.2783, 4693.855
308.7604, 4707.146
309.2425, 4717.124
309.7246, 4727.113
310.2068, 4740.526
310.6889, 4755.810
311.1710, 4769.084
311.6531, 4787.784
312.1352, 4798.118
312.6173, 4784.436
313.0995, 4733.181
313.5816, 4690.967
314.0637, 4683.151
314.5458, 4699.237
315.0279, 4719.215
315.5100, 4742.029
315.9922, 4761.743
316.4743, 4774.316
316.9564, 4777.771
317.4385, 4780.362
317.9206, 4785.486
318.4027, 4791.221
318.8849, 4794.878
319.3670, 4793.420
319.8491, 4791.799
320.3312, 4791.078
320.8133, 4790.917
321.2954, 4794.390
321.7776, 4807.000
322.2597, 4821.668
322.7418, 4830.855
323.2239, 4831.080
323.7060, 4828.117
324.1881, 4819.227
324.6703, 4802.979
325.1524, 4799.171
325.6345, 4825.793
326.1166, 4856.620
326.5987, 4870.612
327.0808, 4844.361
327.5630, 4828.792
328.0451, 4835.486
328.5272, 4862.982
329.0093, 4879.483
329.4914, 4881.069
329.9735, 4874.941
330.4557, 4864.184
330.9378, 4838.032
331.4199, 4826.750
331.9020, 4839.242
332.3841, 4869.453
332.8662, 4886.747
333.3484, 4883.053
333.8305, 4878.431
334.3126, 4885.447
334.7947, 4910.392
335.2768, 4926.995
335.7589, 4931.876
336.2411, 4928.823
336.7232, 4927.231
337.2053, 4927.493
337.6874, 4928.098
338.1695, 4929.443
338.6516, 4932.198
339.1338, 4927.370
339.6159, 4910.148
340.0980, 4892.788
340.5801, 4901.940
341.0622, 4941.431
341.5443, 4972.869
342.0265, 4974.901
342.5086, 4951.720
342.9907, 4945.316
343.4728, 4958.795
343.9549, 4977.095
344.4370, 4980.035
344.9192, 4969.263
345.4013, 4960.320
345.8834, 4957.384
346.3655, 4960.603
346.8476, 4973.635
347.3297, 4996.788
347.8119, 5019.354
348.2940, 5034.744
348.7761, 5041.785
349.2582, 5034.880
349.7403, 5001.216
350.2225, 4964.323
350.7046, 4963.787
351.1867, 4995.349
351.6688, 5026.208
352.1509, 5027.580
352.6331, 5014.507
353.1152, 5010.777
353.5973, 5026.559
354.0794, 5043.685
354.5615, 5040.017
355.0436, 5023.075
355.5258, 5015.742
356.0079, 5045.669
356.4900, 5082.349
356.9721, 5096.690
357.4542, 5078.150
357.9363, 5057.910
358.4185, 5048.611
358.9006, 5049.945
359.3827, 5061.371
359.8648, 5097.333
360.3469, 5131.721
360.8290, 5150.877
361.3112, 5152.556
361.7933, 5146.902
362.2754, 5131.364
362.7575, 5112.358
363.2396, 5096.790
363.7217, 5079.186
364.2039, 5072.407
364.6860, 5088.158
365.1681, 5126.780
365.6502, 5148.543
366.1323, 5132.955
366.6144, 5108.987
367.0966, 5096.554
367.5787, 5105.719
368.0608, 5115.179
368.5429, 5126.841
369.0250, 5138.806
369.5071, 5139.731
369.9893, 5113.038
370.4714, 5094.499
370.9535, 5105.538
371.4356, 5171.409
371.9177, 5207.542
372.3998, 5201.633
372.8820, 5171.126
373.3641, 5154.601
373.8462, 5155.892
374.3283, 5161.209
374.8104, 5164.268
375.2925, 5164.259
375.7747, 5174.093
376.2568, 5198.013
376.7389, 5223.538
377.2210, 5229.984
377.7031, 5215.593
378.1852, 5208.110
378.6674, 5220.753
379.1495, 5246.844
379.6316, 5255.931
380.1137, 5246.429
380.5958, 5233.596
381.0779, 5229.335
381.5601, 5233.336
382.0422, 5245.482
382.5243, 5270.258
383.0064, 5297.571
383.4885, 5310.027
383.9706, 5309.002
384.4528, 5303.825
384.9349, 5299.212
385.4170, 5295.006
385.8991, 5291.202
386.3812, 5288.236
386.8633, 5284.112
387.3455, 5273.125
387.8276, 5259.367
388.3097, 5252.082
388.7918, 5260.094
389.2739, 5273.919
389.7560, 5286.816
390.2382, 5298.302
390.7203, 5308.365
391.2024, 5318.965
391.6845, 5327.453
392.1666, 5330.867
392.6487, 5325.571
393.1309, 5317.384
393.6130, 5301.838
394.0951, 5280.957
394.5772, 5277.365
395.0593, 5319.825
395.5414, 5366.837
396.0236, 5392.013
396.5057, 5366.688
396.9878, 5349.145
397.4699, 5348.382
397.9520, 5359.763
398.4341, 5368.790
398.9163, 5377.267
399.3984, 5381.485
399.8805, 5379.484
400.3626, 5368.900
400.8447, 5358.527
401.3268, 5345.086
401.8090, 5334.303
402.2911, 5335.483
402.7732, 5353.437
403.2553, 5370.821
403.7374, 5383.337
404.2195, 5391.144
404.7017, 5397.302
405.1838, 5402.136
405.6659, 5404.443
406.1480, 5399.842
406.6301, 5388.053
407.1122, 5386.849
407.5944, 5402.890
408.0765, 5427.810
408.5586, 5442.352
409.0407, 5446.701
409.5228, 5445.335
410.0049, 5434.225
410.4871, 5419.528
410.9692, 5419.653
411.4513, 5438.026
411.9334, 5465.121
412.4155, 5501.096
412.8976, 5539.014
413.3798, 5558.042
413.8619, 5528.984
414.3440, 5488.245
414.8261, 5477.875
415.3082, 5498.612
415.7903, 5517.763
416.2725, 5509.418
416.7546, 5489.416
417.2367, 5475.216
417.7188, 5469.661
418.2009, 5474.284
418.6830, 5497.610
419.1652, 5533.979
419.6473, 5561.716
420.1294, 5570.282
420.6115, 5571.007
421.0937, 5569.035
421.5758, 5561.630
422.0579, 5558.985
422.5400, 5568.866
423.0221, 5582.960
423.5042, 5587.602
423.9864, 5567.319
424.4685, 5554.501
424.9506, 5559.340
425.4327, 5583.722
425.9148, 5600.506
426.3969, 5606.657
426.8791, 5608.679
427.3612, 5612.617
427.8433, 5620.615
428.3254, 5623.367
428.8075, 5617.814
429.2896, 5606.779
429.7718, 5598.734
430.2539, 5593.047
430.7360, 5593.267
431.2181, 5604.317
431.7002, 5625.253
432.1823, 5643.208
432.6645, 5658.276
433.1466, 5667.944
433.6287, 5664.519
434.1108, 5650.851
434.5929, 5641.236
435.0750, 5644.490
435.5572, 5654.294
436.0393, 5662.244
436.5214, 5668.106
437.0035, 5666.944
437.4856, 5644.222
437.9677, 5615.223
438.4499, 5602.643
438.9320, 5619.458
439.4141, 5641.716
439.8962, 5655.213
440.3783, 5661.082
440.8604, 5662.628
441.3426, 5653.132
441.8247, 5645.872
442.3068, 5651.305
442.7889, 5674.678
443.2710, 5690.762
443.7531, 5687.117
444.2353, 5674.964
444.7174, 5666.653
445.1995, 5666.964
445.6816, 5667.969
446.1637, 5666.750
446.6458, 5663.992
447.1280, 5667.558
447.6101, 5679.820
448.0922, 5695.863
448.5743, 5714.290
449.0564, 5739.962
449.5385, 5754.902
450.0207, 5756.016
450.5028, 5748.626
450.9849, 5742.354
451.4670, 5737.672
451.9491, 5731.832
452.4312, 5721.771
452.9134, 5708.901
453.3955, 5704.969
453.8776, 5710.776
454.3597, 5719.734
454.8418, 5724.320
455.3239, 5726.252
455.8061, 5733.673
456.2882, 5752.268
456.7703, 5771.278
457.2524, 5771.007
457.7345, 5756.170
458.2166, 5746.045
458.6988, 5760.442
459.1809, 5781.436
459.6630, 5786.861
460.1451, 5772.161
460.6272, 5759.524
461.1093, 5767.052
461.5915, 5783.598
462.0736, 5795.184
462.5557, 5791.211
463.0378, 5787.363
463.5199, 5788.825
464.0020, 5795.360
464.4842, 5804.552
464.9663, 5824.485
465.4484, 5840.521
465.9305, 5844.282
466.4126, 5824.966
466.8947, 5811.868
467.3769, 5805.494
467.8590, 5805.103
468.3411, 5810.074
468.8232, 5822.713
469.3053, 5836.191
469.7874, 5849.046
470.2696, 5861.290
470.7517, 5874.165
471.2338, 5889.128
471.7159, 5900.199
472.1980, 5898.730
472.6801, 5885.151
473.1623, 5878.832
473.6444, 5883.501
474.1265, 5894.488
474.6086, 5905.242
475.0907, 5915.667
475.5728, 5925.146
476.0550, 5938.878
476.5371, 5949.537
477.0192, 5938.935
477.5013, 5906.086
477.9834, 5879.207
478.4655, 5880.800
478.9477, 5901.264
479.4298, 5929.316
479.9119, 5977.998
480.3940, 6013.147
480.8761, 6004.589
481.3582, 5966.604
481.8404, 5940.271
482.3225, 5948.293
482.8046, 5963.333
483.2867, 5972.754
483.7688, 5972.981
484.2509, 5976.269
484.7331, 5987.207
485.2152, 5999.797
485.6973, 6008.107
486.1794, 6005.768
486.6615, 6010.552
487.1436, 6028.379
487.6258, 6055.420
488.1079, 6073.161
488.5900, 6079.431
489.0721, 6082.042
489.5542, 6086.140
490.0363, 6091.820
490.5185, 6088.931
491.0006, 6074.811
491.4827, 6060.220
491.9648, 6060.239
492.4470, 6072.842
492.9291, 6087.068
493.4112, 6097.472
493.8933, 6108.695
494.3754, 6133.322
494.8575, 6168.359
495.3397, 6193.503
495.8218, 6186.121
496.3039, 6166.635
496.7860, 6157.820
497.2681, 6165.033
497.7502, 6174.565
498.2324, 6179.819
498.7145, 6182.813
499.1966, 6186.394
499.6787, 6195.197
500.1608, 6200.822
500.6429, 6194.791
501.1251, 6178.747
501.6072, 6178.778
502.0893, 6212.160
502.5714, 6248.282
503.0535, 6273.958
503.5356, 6289.939
504.0178, 6291.990
504.4999, 6272.029
504.9820, 6245.483
505.4641, 6235.784
505.9462, 6245.055
506.4283, 6260.168
506.9105, 6277.859
507.3926, 6298.379
507.8747, 6327.600
508.3568, 6366.608
508.8389, 6395.339
509.3210, 6390.412
509.8032, 6364.096
510.2853, 6350.400
510.7674, 6354.558
511.2495, 6367.160
511.7316, 6383.917
512.2137, 6401.781
512.6959, 6414.339
513.1780, 6409.046
513.6601, 6405.931
514.1422, 6427.673
514.6243, 6468.603
515.1064, 6489.807
515.5886, 6449.716
516.0707, 6403.598
516.5528, 6387.444
517.0349, 6424.401
517.5170, 6452.008
517.9991, 6457.354
518.4813, 6452.794
518.9634, 6453.866
519.4455, 6465.795
519.9276, 6473.819
520.4097, 6470.967
520.8918, 6460.772
521.3740, 6470.709
521.8561, 6508.209
522.3382, 6541.218
522.8203, 6543.239
523.3024, 6516.671
523.7845, 6504.704
524.2667, 6511.794
524.7488, 6525.431
525.2309, 6529.812
525.7130, 6527.761
526.1951, 6528.728
526.6772, 6534.110
527.1594, 6545.956
527.6415, 6575.697
528.1236, 6617.205
528.6057, 6644.045
529.0878, 6622.439
529.5699, 6592.349
530.0521, 6588.921
530.5342, 6625.604
531.0163, 6647.811
531.4984, 6618.491
531.9805, 6574.417
532.4626, 6554.573
532.9448, 6590.481
533.4269, 6619.480
533.9090, 6634.405
534.3911, 6637.334
534.8732, 6634.471
535.3553, 6620.494
535.8375, 6610.771
536.3196, 6614.836
536.8017, 6633.880
537.2838, 6641.150
537.7659, 6634.442
538.2480, 6623.434
538.7302, 6616.354
539.2123, 6613.409
539.6944, 6617.530
540.1765, 6632.041
540.6586, 6648.927
541.1407, 6653.436
541.6229, 6649.896
542.1050, 6653.876
542.5871, 6685.526
543.0692, 6720.733
543.5513, 6736.951
544.0334, 6732.931
544.5156, 6723.265
544.9977, 6703.425
545.4798, 6687.268
545.9619, 6686.623
546.4440, 6716.738
546.9261, 6743.000
547.4083, 6763.392
547.8904, 6776.424
548.3725, 6779.117
548.8546, 6768.327
549.3367, 6751.778
549.8188, 6726.688
550.3010, 6695.130
550.7831, 6684.622
551.2652, 6700.787
551.7473, 6719.268
552.2294, 6721.146
552.7115, 6708.267
553.1937, 6698.227
553.6758, 6692.151
554.1579, 6690.040
554.6400, 6692.199
555.1221, 6698.387
555.6042, 6708.065
556.0864, 6724.433
556.5685, 6740.900
557.0506, 6755.084
557.5327, 6765.040
558.0148, 6763.071
558.4969, 6724.173
558.9791, 6688.170
559.4612, 6683.565
559.9433, 6720.224
560.4254, 6751.742
560.9075, 6772.408
561.3896, 6782.573
561.8718, 6782.900
562.3539, 6767.303
562.8360, 6751.254
563.3181, 6731.230
563.8002, 6713.768
564.2823, 6718.756
564.7645, 6752.291
565.2466, 6780.817
565.7287, 6791.301
566.2108, 6785.863
566.6929, 6771.790
567.1750, 6748.875
567.6572, 6724.580
568.1393, 6702.800
568.6214, 6684.858
569.1035, 6675.138
569.5856, 6675.462
570.0677, 6678.868
570.5499, 6680.904
571.0320, 6681.920
571.5141, 6682.504
571.9962, 6681.541
572.4783, 6681.500
572.9604, 6683.542
573.4426, 6687.421
573.9247, 6691.892
574.4068, 6697.496
574.8889, 6702.967
575.3710, 6708.270
575.8531, 6713.954
576.3353, 6716.381
576.8174, 6715.388
577.2995, 6711.342
577.7816, 6702.918
578.2637, 6689.345
578.7458, 6680.518
579.2280, 6678.667
579.7101, 6680.702
580.1922, 6678.937
580.6743, 6675.033
581.1564, 6678.373
581.6385, 6699.456
582.1207, 6726.958
582.6028, 6747.244
583.0849, 6760.407
583.5670, 6768.617
584.0491, 6776.223
584.5313, 6777.368
585.0134, 6763.476
585.4955, 6724.490
585.9776, 6699.583
586.4597, 6710.922
586.9418, 6736.526
587.4240, 6751.249
587.9061, 6745.604
588.3882, 6742.398
588.8703, 6742.314
589.3524, 6746.696
589.8345, 6763.293
590.3167, 6797.910
590.7988, 6822.301
591.2809, 6820.870
591.7630, 6798.492
592.2451, 6773.660
592.7272, 6745.645
593.2094, 6733.052
593.6915, 6768.130
594.1736, 6826.252
594.6557, 6860.032
595.1378, 6858.945
595.6199, 6842.925
596.1021, 6815.590
596.5842, 6785.541
597.0663, 6764.967
597.5485, 6761.693
598.0306, 6764.871
598.5127, 6769.148
598.9948, 6776.578
599.4769, 6796.809
599.9590, 6849.137
600.4412, 6891.540
600.9233, 6905.276
601.4054, 6887.468
601.8875, 6891.871
602.3696, 6928.736
602.8517, 6962.530
603.3339, 6956.142
603.8160, 6913.284
604.2981, 6882.812
604.7802, 6871.421
605.2623, 6869.795
605.7444, 6865.604
606.2266, 6861.678
606.7087, 6866.121
607.1908, 6891.315
607.6729, 6916.243
608.1550, 6922.009
608.6371, 6913.348
609.1193, 6905.850
609.6014, 6909.750
610.0835, 6912.836
610.5656, 6903.945
611.0477, 6878.103
611.5298, 6876.429
612.0120, 6917.190
612.4941, 6965.181
612.9762, 6997.831
613.4583, 7013.047
613.9404, 7017.194
614.4225, 7003.603
614.9047, 6991.129
615.3868, 7017.807
615.8689, 7079.421
616.3510, 7115.268
616.8331, 7098.191
617.3152, 7058.781
617.7974, 7040.586
618.2795, 7040.398
618.7616, 7044.563
619.2437, 7045.087
619.7258, 7047.472
620.2079, 7058.854
620.6901, 7079.334
621.1722, 7093.831
621.6543, 7086.357
622.1364, 7078.755
622.6185, 7086.621
623.1006, 7122.165
623.5828, 7148.096
624.0649, 7164.204
624.5470, 7170.887
625.0291, 7162.977
625.5112, 7133.907
625.9933, 7127.647
626.4755, 7157.969
626.9576, 7207.364
627.4397, 7245.265
627.9218, 7271.253
628.4039, 7282.153
628.8860, 7263.733
629.3682, 7235.913
629.8503, 7227.960
630.3324, 7237.476
630.8145, 7245.970
631.2966, 7237.843
631.7787, 7228.133
632.2609, 7227.286
632.7430, 7237.600
633.2251, 7253.103
633.7072, 7284.306
634.1893, 7312.864
634.6714, 7320.908
635.1536, 7287.347
635.6357, 7282.423
636.1178, 7321.957
636.5999, 7381.005
637.0820, 7416.841
637.5641, 7428.957
638.0463, 7421.745
638.5284, 7384.345
639.0105, 7339.214
639.4926, 7336.169
639.9747, 7369.166
640.4568, 7402.931
640.9390, 7415.410
641.4211, 7419.530
641.9032, 7427.735
642.3853, 7440.873
642.8674, 7450.917
643.3495, 7445.390
643.8317, 7441.842
644.3138, 7453.326
644.7959, 7492.534
645.2780, 7526.019
645.7601, 7557.771
646.2422, 7580.273
646.7244, 7580.899
647.2065, 7553.965
647.6886, 7533.921
648.1707, 7525.832
648.6528, 7529.138
649.1349, 7547.522
649.6171, 7578.793
650.0992, 7607.927
