##NAMES=Hastingsite
##RRUFFID=R070194
##IDEAL CHEMISTRY=NaCa_2_(Fe^2+^_4_Fe^3+^)(Si_6_Al_2_)O_22_(OH)_2_
##LOCALITY=Seglenge, Sweden
##OWNER=RRUFF
##SOURCE=California Institute of Technology
##DESCRIPTION=Black cleavage fragment
##STATUS=The identification of this mineral has been confirmed by X-ray diffraction and chemical analysis
##URL=rruff.info/R070194
##MEASURED CHEMISTRY=(Na_0.39_K_0.32_[box]_0.29_)_Σ=1_(Ca_1.75_Na_0.25_)_Σ=2_((Fe^2+^_3.52_Mg_0.34_Mn_0.12_)_Σ=3.98_(Fe^3+^_0.66_Ti_0.24_Al_0.12_)_Σ=1.02_)_Σ=5_(Si_6.28_Al_1.64_)O_22_((OH)_1.79_F_0.17_Cl_0.04_)_Σ=2_; (OH) estimated by difference
149.2722, 1166.490
149.7543, 1205.148
150.2365, 1251.088
150.7186, 1295.701
151.2007, 1334.092
151.6828, 1364.980
152.1649, 1385.942
152.6470, 1393.760
153.1292, 1393.364
153.6113, 1388.480
154.0934, 1379.315
154.5755, 1366.385
155.0576, 1347.185
155.5397, 1323.735
156.0219, 1305.047
156.5040, 1297.062
156.9861, 1292.287
157.4682, 1281.229
157.9503, 1262.588
158.4324, 1243.613
158.9146, 1227.378
159.3967, 1214.941
159.8788, 1210.597
160.3609, 1223.893
160.8430, 1242.800
161.3251, 1247.808
161.8073, 1234.926
162.2894, 1221.469
162.7715, 1221.707
163.2536, 1230.167
163.7357, 1237.534
164.2178, 1239.530
164.7000, 1238.764
165.1821, 1240.535
165.6642, 1246.283
166.1463, 1250.460
166.6284, 1247.732
167.1105, 1241.299
167.5927, 1236.393
168.0748, 1234.386
168.5569, 1235.464
169.0390, 1241.016
169.5211, 1253.544
170.0032, 1264.899
170.4854, 1270.848
170.9675, 1272.965
171.4496, 1273.261
171.9317, 1271.850
172.4138, 1269.534
172.8959, 1268.303
173.3781, 1268.361
173.8602, 1269.192
174.3423, 1271.383
174.8244, 1273.962
175.3065, 1275.729
175.7886, 1276.990
176.2708, 1276.553
176.7529, 1270.001
177.2350, 1252.435
177.7171, 1237.859
178.1992, 1231.006
178.6813, 1230.006
179.1634, 1233.488
179.6456, 1242.944
180.1277, 1254.486
180.6098, 1255.365
181.0919, 1237.270
181.5740, 1223.168
182.0561, 1222.439
182.5383, 1228.541
183.0204, 1233.282
183.5025, 1232.257
183.9846, 1228.059
184.4667, 1228.405
184.9488, 1236.127
185.4310, 1243.639
185.9131, 1250.141
186.3952, 1254.920
186.8773, 1256.504
187.3594, 1253.645
187.8415, 1248.788
188.3237, 1248.911
188.8058, 1258.192
189.2879, 1265.299
189.7700, 1266.994
190.2521, 1265.955
190.7342, 1264.469
191.2164, 1263.394
191.6985, 1263.305
192.1806, 1265.892
192.6627, 1273.231
193.1448, 1279.636
193.6269, 1284.954
194.1091, 1288.718
194.5912, 1290.516
195.0733, 1290.188
195.5554, 1287.829
196.0375, 1283.479
196.5196, 1276.046
197.0018, 1268.474
197.4839, 1256.271
197.9660, 1246.607
198.4481, 1248.684
198.9302, 1265.162
199.4123, 1286.115
199.8945, 1291.453
200.3766, 1268.380
200.8587, 1255.274
201.3408, 1260.741
201.8229, 1272.246
202.3050, 1281.133
202.7872, 1284.782
203.2693, 1284.955
203.7514, 1284.190
204.2335, 1281.841
204.7156, 1280.016
205.1977, 1277.578
205.6799, 1276.410
206.1620, 1279.724
206.6441, 1287.296
207.1262, 1293.991
207.6083, 1291.057
208.0904, 1270.969
208.5726, 1260.833
209.0547, 1268.217
209.5368, 1278.529
210.0189, 1283.894
210.5010, 1283.194
210.9831, 1279.830
211.4653, 1277.761
211.9474, 1277.765
212.4295, 1276.192
212.9116, 1270.944
213.3937, 1266.024
213.8758, 1262.162
214.3580, 1260.155
214.8401, 1261.753
215.3222, 1270.011
215.8043, 1286.884
216.2864, 1297.075
216.7685, 1294.459
217.2507, 1290.992
217.7328, 1291.362
218.2149, 1294.897
218.6970, 1297.853
219.1791, 1295.966
219.6612, 1288.847
220.1434, 1291.229
220.6255, 1317.796
221.1076, 1339.946
221.5897, 1349.698
222.0718, 1348.980
222.5539, 1342.562
223.0361, 1333.170
223.5182, 1321.089
224.0003, 1310.123
224.4824, 1296.538
224.9645, 1288.656
225.4466, 1291.570
225.9288, 1300.556
226.4109, 1309.138
226.8930, 1313.785
227.3751, 1314.745
227.8572, 1312.673
228.3393, 1302.138
228.8215, 1296.082
229.3036, 1301.493
229.7857, 1310.507
230.2678, 1313.141
230.7499, 1304.682
231.2320, 1290.476
231.7142, 1284.233
232.1963, 1292.842
232.6784, 1297.758
233.1605, 1292.107
233.6426, 1284.713
234.1247, 1285.605
234.6069, 1297.658
235.0890, 1311.695
235.5711, 1309.996
236.0532, 1282.074
236.5353, 1263.367
237.0174, 1258.879
237.4996, 1261.706
237.9817, 1269.561
238.4638, 1281.082
238.9459, 1292.907
239.4280, 1302.201
239.9101, 1310.615
240.3923, 1309.990
240.8744, 1286.275
241.3565, 1264.729
241.8386, 1260.138
242.3207, 1271.193
242.8028, 1284.812
243.2850, 1287.946
243.7671, 1279.504
244.2492, 1273.620
244.7313, 1270.829
245.2134, 1270.384
245.6955, 1274.459
246.1777, 1280.950
246.6598, 1284.845
247.1419, 1281.901
247.6240, 1272.909
248.1061, 1265.355
248.5882, 1261.180
249.0704, 1255.756
249.5525, 1245.645
250.0346, 1233.603
250.5167, 1223.840
250.9988, 1218.136
251.4809, 1216.604
251.9631, 1221.091
252.4452, 1237.538
252.9273, 1247.649
253.4094, 1241.151
253.8915, 1227.882
254.3736, 1218.588
254.8558, 1217.645
255.3379, 1220.089
255.8200, 1217.633
256.3021, 1208.802
256.7842, 1200.694
257.2664, 1193.845
257.7485, 1189.404
258.2306, 1189.017
258.7127, 1193.139
259.1948, 1198.955
259.6769, 1205.979
260.1591, 1214.607
260.6412, 1214.425
261.1233, 1194.320
261.6054, 1172.677
262.0875, 1164.037
262.5696, 1168.227
263.0518, 1173.047
263.5339, 1167.619
264.0160, 1154.362
264.4981, 1147.702
264.9802, 1150.872
265.4623, 1158.463
265.9445, 1169.021
266.4266, 1181.008
266.9087, 1188.823
267.3908, 1187.211
267.8729, 1180.119
268.3550, 1175.538
268.8372, 1173.730
269.3193, 1174.190
269.8014, 1179.945
270.2835, 1187.506
270.7656, 1190.231
271.2477, 1181.602
271.7299, 1171.378
272.2120, 1171.729
272.6941, 1182.963
273.1762, 1194.966
273.6583, 1205.649
274.1404, 1212.209
274.6226, 1209.251
275.1047, 1190.172
275.5868, 1173.099
276.0689, 1172.916
276.5510, 1185.801
277.0331, 1196.023
277.5153, 1197.726
277.9974, 1194.672
278.4795, 1192.889
278.9616, 1192.395
279.4437, 1192.594
279.9258, 1192.793
280.4080, 1193.663
280.8901, 1196.579
281.3722, 1201.991
281.8543, 1208.666
282.3364, 1216.426
282.8185, 1225.733
283.3007, 1229.694
283.7828, 1223.344
284.2649, 1213.951
284.7470, 1207.827
285.2291, 1205.480
285.7112, 1204.253
286.1934, 1201.684
286.6755, 1197.974
287.1576, 1197.896
287.6397, 1206.086
288.1218, 1213.082
288.6039, 1213.671
289.0861, 1209.279
289.5682, 1203.731
290.0503, 1198.841
290.5324, 1194.895
291.0145, 1193.318
291.4966, 1194.543
291.9788, 1197.384
292.4609, 1205.296
292.9430, 1213.453
293.4251, 1215.052
293.9072, 1207.796
294.3893, 1195.919
294.8715, 1186.935
295.3536, 1182.911
295.8357, 1177.990
296.3178, 1168.971
296.7999, 1161.422
297.2820, 1160.352
297.7642, 1165.617
298.2463, 1172.800
298.7284, 1177.674
299.2105, 1180.263
299.6926, 1180.219
300.1747, 1174.566
300.6569, 1169.337
301.1390, 1166.378
301.6211, 1165.470
302.1032, 1165.913
302.5853, 1167.462
303.0674, 1169.750
303.5495, 1170.916
304.0316, 1170.754
304.5138, 1169.621
304.9959, 1166.728
305.4780, 1163.396
305.9601, 1161.109
306.4422, 1160.439
306.9243, 1160.575
307.4065, 1160.456
307.8886, 1160.355
308.3707, 1158.976
308.8528, 1152.761
309.3349, 1147.553
309.8170, 1148.324
310.2992, 1154.969
310.7813, 1161.428
311.2634, 1162.472
311.7455, 1158.471
312.2276, 1152.819
312.7097, 1143.045
313.1919, 1135.737
313.6740, 1137.360
314.1561, 1144.568
314.6382, 1148.475
315.1203, 1141.530
315.6024, 1130.400
316.0846, 1128.603
316.5667, 1138.142
317.0488, 1145.112
317.5309, 1138.354
318.0130, 1125.452
318.4951, 1119.346
318.9773, 1124.392
319.4594, 1131.454
319.9415, 1135.649
320.4236, 1136.648
320.9057, 1131.665
321.3878, 1116.883
321.8700, 1100.270
322.3521, 1095.408
322.8342, 1103.318
323.3163, 1112.235
323.7984, 1120.397
324.2805, 1127.096
324.7627, 1131.211
325.2448, 1132.574
325.7269, 1132.270
326.2090, 1131.144
326.6911, 1129.101
327.1732, 1126.917
327.6554, 1124.272
328.1375, 1121.774
328.6196, 1120.154
329.1017, 1119.020
329.5838, 1116.757
330.0659, 1112.018
330.5481, 1106.090
331.0302, 1104.989
331.5123, 1115.622
331.9944, 1122.531
332.4765, 1122.815
332.9586, 1119.213
333.4408, 1113.916
333.9229, 1107.830
334.4050, 1101.866
334.8871, 1096.488
335.3692, 1088.401
335.8513, 1090.535
336.3335, 1115.787
336.8156, 1138.657
337.2977, 1145.103
337.7798, 1136.883
338.2619, 1123.657
338.7440, 1111.932
339.2262, 1101.885
339.7083, 1095.203
340.1904, 1093.054
340.6725, 1092.914
341.1546, 1096.026
341.6367, 1099.742
342.1189, 1100.071
342.6010, 1094.964
343.0831, 1088.675
343.5652, 1088.119
344.0473, 1094.186
344.5294, 1099.581
345.0116, 1100.720
345.4937, 1102.172
345.9758, 1109.273
346.4579, 1121.993
346.9400, 1131.839
347.4221, 1131.964
347.9043, 1125.163
348.3864, 1118.854
348.8685, 1113.627
349.3506, 1109.247
349.8327, 1105.368
350.3148, 1102.171
350.7970, 1100.447
351.2791, 1098.711
351.7612, 1099.786
352.2433, 1109.448
352.7254, 1125.439
353.2076, 1135.497
353.6897, 1132.699
354.1718, 1121.742
354.6539, 1114.708
355.1360, 1112.672
355.6181, 1111.274
356.1003, 1109.013
356.5824, 1107.136
357.0645, 1105.985
357.5466, 1105.930
358.0287, 1110.454
358.5108, 1125.276
358.9930, 1154.904
359.4751, 1168.658
359.9572, 1153.144
360.4393, 1137.523
360.9214, 1134.795
361.4035, 1142.217
361.8857, 1152.412
362.3678, 1161.483
362.8499, 1168.720
363.3320, 1170.976
363.8141, 1161.443
364.2962, 1158.099
364.7784, 1168.069
365.2605, 1181.233
365.7426, 1189.226
366.2247, 1190.252
366.7068, 1188.137
367.1889, 1185.643
367.6711, 1182.446
368.1532, 1184.874
368.6353, 1201.812
369.1174, 1213.787
369.5995, 1207.207
370.0816, 1188.490
370.5638, 1173.225
371.0459, 1169.717
371.5280, 1172.972
372.0101, 1176.152
372.4922, 1179.632
372.9743, 1179.255
373.4565, 1171.322
373.9386, 1159.494
374.4207, 1148.822
374.9028, 1138.734
375.3849, 1132.411
375.8670, 1134.034
376.3492, 1140.224
376.8313, 1144.501
377.3134, 1145.566
377.7955, 1144.593
378.2776, 1142.725
378.7597, 1139.883
379.2419, 1135.450
379.7240, 1124.520
380.2061, 1116.412
380.6882, 1121.226
381.1703, 1133.957
381.6524, 1139.841
382.1346, 1130.308
382.6167, 1110.598
383.0988, 1096.366
383.5809, 1091.431
384.0630, 1087.645
384.5451, 1081.673
385.0273, 1078.781
385.5094, 1087.022
385.9915, 1105.418
386.4736, 1121.907
386.9557, 1122.147
387.4378, 1104.924
387.9200, 1095.039
388.4021, 1100.373
388.8842, 1104.098
389.3663, 1100.550
389.8484, 1091.923
390.3305, 1081.385
390.8127, 1069.524
391.2948, 1058.311
391.7769, 1049.650
392.2590, 1043.162
392.7411, 1043.651
393.2232, 1057.433
393.7054, 1074.392
394.1875, 1086.789
394.6696, 1094.418
395.1517, 1094.653
395.6338, 1080.818
396.1159, 1060.631
396.5981, 1046.384
397.0802, 1039.228
397.5623, 1036.822
398.0444, 1039.039
398.5265, 1044.861
399.0086, 1048.457
399.4908, 1046.641
399.9729, 1046.164
400.4550, 1053.982
400.9371, 1063.850
401.4192, 1062.961
401.9013, 1047.010
402.3835, 1027.445
402.8656, 1021.556
403.3477, 1035.387
403.8298, 1045.034
404.3119, 1046.692
404.7940, 1048.392
405.2762, 1057.698
405.7583, 1070.651
406.2404, 1076.073
406.7225, 1065.703
407.2046, 1045.329
407.6867, 1035.979
408.1689, 1042.486
408.6510, 1050.383
409.1331, 1057.324
409.6152, 1064.161
410.0973, 1072.923
410.5794, 1083.488
411.0616, 1091.052
411.5437, 1090.650
412.0258, 1083.428
412.5079, 1073.735
412.9900, 1058.915
413.4721, 1048.778
413.9543, 1054.392
414.4364, 1069.336
414.9185, 1081.487
415.4006, 1089.521
415.8827, 1093.129
416.3648, 1089.593
416.8470, 1081.156
417.3291, 1074.783
417.8112, 1072.921
418.2933, 1073.675
418.7754, 1073.862
419.2575, 1072.001
419.7397, 1075.306
420.2218, 1090.212
420.7039, 1105.271
421.1860, 1112.039
421.6681, 1111.878
422.1502, 1111.035
422.6324, 1113.476
423.1145, 1118.553
423.5966, 1123.410
424.0787, 1127.241
424.5608, 1132.197
425.0429, 1141.576
425.5251, 1150.032
426.0072, 1152.552
426.4893, 1148.811
426.9714, 1142.967
427.4535, 1138.836
427.9356, 1136.195
428.4178, 1132.166
428.8999, 1124.417
429.3820, 1119.853
429.8641, 1125.987
430.3462, 1136.429
430.8283, 1141.222
431.3105, 1136.194
431.7926, 1129.065
432.2747, 1126.306
432.7568, 1126.769
433.2389, 1126.032
433.7210, 1122.565
434.2032, 1119.052
434.6853, 1119.436
435.1674, 1124.361
435.6495, 1125.819
436.1316, 1117.912
436.6137, 1111.351
437.0959, 1115.249
437.5780, 1125.958
438.0601, 1133.424
438.5422, 1132.356
439.0243, 1125.854
439.5064, 1122.246
439.9886, 1127.914
440.4707, 1124.701
440.9528, 1103.391
441.4349, 1081.480
441.9170, 1070.706
442.3991, 1070.342
442.8813, 1072.307
443.3634, 1070.599
443.8455, 1066.500
444.3276, 1064.365
444.8097, 1063.202
445.2918, 1066.862
445.7740, 1084.458
446.2561, 1103.716
446.7382, 1111.523
447.2203, 1105.153
447.7024, 1096.057
448.1845, 1092.297
448.6667, 1090.540
449.1488, 1080.923
449.6309, 1061.182
450.1130, 1047.196
450.5951, 1054.560
451.0772, 1080.308
451.5594, 1092.938
452.0415, 1081.318
452.5236, 1070.616
453.0057, 1069.498
453.4878, 1074.089
453.9699, 1080.420
454.4521, 1086.863
454.9342, 1090.641
455.4163, 1087.387
455.8984, 1075.282
456.3805, 1066.495
456.8626, 1063.018
457.3448, 1061.099
457.8269, 1059.625
458.3090, 1059.005
458.7911, 1060.206
459.2732, 1063.809
459.7553, 1068.543
460.2375, 1073.790
460.7196, 1079.602
461.2017, 1080.506
461.6838, 1071.911
462.1659, 1062.950
462.6480, 1061.592
463.1302, 1066.875
463.6123, 1074.587
464.0944, 1089.025
464.5765, 1101.188
465.0586, 1100.980
465.5407, 1090.907
466.0229, 1080.728
466.5050, 1074.336
466.9871, 1071.236
467.4692, 1070.530
467.9513, 1072.128
468.4334, 1076.828
468.9156, 1091.839
469.3977, 1103.689
469.8798, 1101.441
470.3619, 1088.347
470.8440, 1074.854
471.3261, 1067.260
471.8083, 1064.366
472.2904, 1062.663
472.7725, 1062.111
473.2546, 1062.912
473.7367, 1066.216
474.2188, 1070.143
474.7010, 1074.183
475.1831, 1078.020
475.6652, 1080.181
476.1473, 1078.636
476.6294, 1075.350
477.1115, 1073.986
477.5937, 1074.648
478.0758, 1074.207
478.5579, 1069.530
479.0400, 1064.057
479.5221, 1067.856
480.0042, 1087.746
480.4864, 1098.643
480.9685, 1085.529
481.4506, 1068.269
481.9327, 1066.288
482.4148, 1079.431
482.8969, 1094.903
483.3791, 1103.264
483.8612, 1105.867
484.3433, 1110.347
484.8254, 1117.078
485.3075, 1125.256
485.7896, 1139.568
486.2718, 1151.775
486.7539, 1153.538
487.2360, 1144.966
487.7181, 1134.984
488.2002, 1130.361
488.6823, 1129.692
489.1645, 1127.661
489.6466, 1123.185
490.1287, 1123.667
490.6108, 1135.211
491.0929, 1153.059
491.5750, 1167.150
492.0572, 1177.163
492.5393, 1184.568
493.0214, 1189.038
493.5035, 1191.526
493.9856, 1193.772
494.4677, 1195.539
494.9499, 1193.382
495.4320, 1183.396
495.9141, 1168.097
496.3962, 1163.945
496.8783, 1183.072
497.3604, 1196.568
497.8426, 1199.954
498.3247, 1198.058
498.8068, 1191.716
499.2889, 1182.912
499.7710, 1178.709
500.2531, 1187.087
500.7353, 1204.651
501.2174, 1220.490
501.6995, 1236.603
502.1816, 1241.528
502.6637, 1219.249
503.1458, 1189.392
503.6280, 1185.103
504.1101, 1213.987
504.5922, 1238.635
505.0743, 1242.590
505.5564, 1236.347
506.0385, 1228.539
506.5207, 1221.377
507.0028, 1219.864
507.4849, 1227.921
507.9670, 1243.452
508.4491, 1257.363
508.9312, 1272.639
509.4134, 1281.538
509.8955, 1278.075
510.3776, 1272.730
510.8597, 1273.151
511.3418, 1279.395
511.8239, 1287.152
512.3061, 1294.546
512.7882, 1300.452
513.2703, 1300.059
513.7524, 1291.667
514.2346, 1287.601
514.7167, 1294.609
515.1988, 1305.998
515.6809, 1313.310
516.1630, 1316.427
516.6451, 1317.651
517.1273, 1313.045
517.6094, 1310.263
518.0915, 1320.853
518.5736, 1340.936
519.0557, 1352.711
519.5378, 1345.594
520.0200, 1329.532
520.5021, 1329.083
520.9842, 1357.693
521.4663, 1376.295
521.9484, 1378.141
522.4305, 1377.511
522.9127, 1383.011
523.3948, 1392.427
523.8769, 1398.686
524.3590, 1398.099
524.8411, 1392.558
525.3232, 1382.477
525.8054, 1367.925
526.2875, 1360.708
526.7696, 1366.069
527.2517, 1375.644
527.7338, 1382.002
528.2159, 1385.317
528.6981, 1384.762
529.1802, 1376.412
529.6623, 1367.901
530.1444, 1365.232
530.6265, 1365.372
531.1086, 1362.590
531.5908, 1354.880
532.0729, 1343.324
532.5550, 1327.926
533.0371, 1306.328
533.5192, 1295.448
534.0013, 1305.797
534.4835, 1315.102
534.9656, 1314.612
535.4477, 1309.847
535.9298, 1309.785
536.4119, 1317.676
536.8940, 1323.835
537.3762, 1316.542
537.8583, 1300.177
538.3404, 1289.633
538.8225, 1287.345
539.3046, 1285.569
539.7867, 1277.985
540.2689, 1266.520
540.7510, 1260.916
541.2331, 1268.621
541.7152, 1271.270
542.1973, 1260.025
542.6794, 1245.403
543.1616, 1236.404
543.6437, 1234.412
544.1258, 1237.856
544.6079, 1246.976
545.0900, 1259.048
545.5721, 1261.397
546.0543, 1250.908
546.5364, 1239.203
547.0185, 1227.029
547.5006, 1216.383
547.9827, 1209.021
548.4648, 1204.856
548.9469, 1202.033
549.4290, 1201.748
549.9111, 1201.036
550.3932, 1195.183
550.8754, 1185.577
551.3575, 1178.164
551.8396, 1175.124
552.3217, 1176.214
552.8038, 1182.025
553.2859, 1196.752
553.7681, 1201.729
554.2502, 1187.540
554.7323, 1175.147
555.2144, 1173.858
555.6965, 1179.636
556.1786, 1187.764
556.6608, 1196.813
557.1429, 1199.785
557.6250, 1182.769
558.1071, 1149.245
558.5892, 1128.575
559.0714, 1125.743
559.5535, 1128.646
560.0356, 1131.649
560.5177, 1134.093
560.9998, 1134.414
561.4819, 1133.701
561.9641, 1128.956
562.4462, 1113.168
562.9283, 1096.579
563.4104, 1091.850
563.8925, 1098.536
564.3746, 1106.399
564.8568, 1108.331
565.3389, 1105.035
565.8210, 1097.752
566.3031, 1080.840
566.7852, 1074.262
567.2673, 1094.880
567.7495, 1116.124
568.2316, 1120.238
568.7137, 1109.410
569.1958, 1097.435
569.6779, 1088.335
570.1600, 1082.169
570.6422, 1080.913
571.1243, 1082.817
571.6064, 1081.326
572.0885, 1074.167
572.5706, 1065.801
573.0527, 1061.642
573.5349, 1062.128
574.0170, 1062.612
574.4991, 1062.070
574.9812, 1062.753
575.4633, 1068.486
575.9454, 1074.029
576.4276, 1072.032
576.9097, 1061.533
577.3918, 1050.857
577.8739, 1048.828
578.3560, 1052.642
578.8381, 1053.082
579.3203, 1049.911
579.8024, 1044.140
580.2845, 1035.247
580.7666, 1024.876
581.2487, 1015.746
581.7308, 1007.047
582.2130, 1002.111
582.6951, 1006.102
583.1772, 1009.799
583.6593, 1003.439
584.1414, 992.3526
584.6235, 990.9171
585.1057, 1005.860
585.5878, 1024.035
586.0699, 1021.287
586.5520, 994.8721
587.0341, 980.7451
587.5162, 987.0526
587.9984, 995.0137
588.4805, 993.4021
588.9626, 986.5393
589.4447, 981.1909
589.9268, 978.5522
590.4089, 976.6094
590.8911, 974.0013
591.3732, 971.7504
591.8553, 972.2717
592.3374, 974.9798
592.8195, 975.6560
593.3016, 971.2466
593.7838, 963.5701
594.2659, 958.0652
594.7480, 954.9661
595.2301, 953.5482
595.7122, 954.8261
596.1943, 956.8653
596.6765, 958.5389
597.1586, 960.2261
597.6407, 963.4372
598.1228, 970.4711
598.6049, 975.7503
599.0870, 971.1642
599.5692, 961.1517
600.0513, 958.6697
600.5334, 966.2336
601.0155, 973.6125
601.4976, 971.6716
601.9797, 961.8447
602.4619, 955.8854
602.9440, 958.6841
603.4261, 958.7079
603.9082, 950.1859
604.3903, 942.4903
604.8724, 944.4271
605.3546, 954.3301
605.8367, 962.9634
606.3188, 964.8510
606.8009, 962.8963
607.2830, 960.3621
607.7651, 957.5318
608.2473, 956.8394
608.7294, 959.0983
609.2115, 962.8397
609.6936, 966.7767
610.1757, 970.9166
610.6578, 975.0660
611.1400, 979.1132
611.6221, 983.2900
612.1042, 990.9222
612.5863, 996.6669
613.0684, 992.0685
613.5505, 978.4834
614.0327, 968.2105
614.5148, 972.7010
614.9969, 985.2879
615.4790, 988.3301
615.9611, 981.2869
616.4432, 977.1313
616.9254, 980.4536
617.4075, 986.4137
617.8896, 989.4422
618.3717, 989.4741
618.8538, 991.3992
619.3359, 998.6514
619.8181, 1004.069
620.3002, 1002.828
620.7823, 999.2159
621.2644, 998.2532
621.7465, 1001.072
622.2286, 1006.488
622.7108, 1014.564
623.1929, 1023.917
623.6750, 1028.990
624.1571, 1029.512
624.6392, 1026.912
625.1213, 1019.387
625.6035, 1011.444
626.0856, 1008.070
626.5677, 1008.984
627.0498, 1013.640
627.5319, 1025.916
628.0140, 1037.645
628.4962, 1045.151
628.9783, 1049.259
629.4604, 1051.147
629.9425, 1051.187
630.4246, 1048.947
630.9067, 1042.011
631.3889, 1032.754
631.8710, 1036.773
632.3531, 1058.975
632.8352, 1075.089
633.3173, 1074.747
633.7994, 1068.132
634.2816, 1065.041
634.7637, 1065.420
635.2458, 1070.538
635.7279, 1090.086
636.2100, 1104.499
636.6921, 1095.973
637.1743, 1077.619
637.6564, 1070.827
638.1385, 1080.137
638.6206, 1094.225
639.1027, 1102.268
639.5848, 1105.188
640.0670, 1108.030
640.5491, 1110.314
