##NAMES=Hastingsite
##RRUFFID=R070250
##IDEAL CHEMISTRY=NaCa_2_(Fe^2+^_4_Fe^3+^)(Si_6_Al_2_)O_22_(OH)_2_
##LOCALITY=unnamed quarry, Dmitrievka village, Mariupol' Massif (Oktyabr'skii), Azov Sea Region, Donetsk Oblast', Ukraine
##OWNER=RRUFF
##SOURCE=Michael Scott
##DESCRIPTION=Dark green to black crystals exhibiting typical amphibole cleavage
##STATUS=The identification of this mineral is confirmed by single-crystal X-ray diffraction and chemical analysis.
##URL=rruff.info/R070250
##MEASURED CHEMISTRY=([box]_0.38_Na_0.34_K_0.28_)_Σ=1_(Ca_1.70_Na_0.30_)_Σ=2_((Fe^2+^_2.99_Mg_0.81_Mn_0.07_)_Σ=3.87_(Fe^3+^_0.75_Ti_0.22_Al_0.16_)_Σ=1.13_)_Σ=5_(Si_6.33_Al_1.67_)O_22_((OH)_1.57_F_0.37_Cl_0.06_)_Σ=2_; (OH) estimated by difference
162.9636, 7915.450
163.4457, 7962.080
163.9278, 8032.091
164.4099, 8116.044
164.8920, 8197.291
165.3741, 8275.678
165.8563, 8351.198
166.3384, 8425.531
166.8205, 8497.110
167.3026, 8562.773
167.7847, 8623.747
168.2668, 8677.455
168.7490, 8717.598
169.2311, 8741.443
169.7132, 8757.543
170.1953, 8768.245
170.6774, 8775.328
171.1595, 8780.875
171.6417, 8783.145
172.1238, 8785.593
172.6059, 8800.269
173.0880, 8838.770
173.5701, 8865.459
174.0522, 8849.482
174.5344, 8815.902
175.0165, 8802.559
175.4986, 8834.479
175.9807, 8894.340
176.4628, 8933.393
176.9449, 8939.695
177.4271, 8946.551
177.9092, 8972.581
178.3913, 9005.577
178.8734, 9026.948
179.3555, 9022.968
179.8376, 9006.085
180.3197, 9015.888
180.8019, 9071.532
181.2840, 9120.424
181.7661, 9146.794
182.2482, 9157.928
182.7303, 9159.717
183.2124, 9151.687
183.6946, 9141.487
184.1767, 9153.226
184.6588, 9201.783
185.1409, 9246.842
185.6230, 9283.784
186.1051, 9309.777
186.5873, 9318.013
187.0694, 9302.280
187.5515, 9275.552
188.0336, 9275.218
188.5157, 9325.519
188.9978, 9360.255
189.4800, 9352.963
189.9621, 9330.372
190.4442, 9321.989
190.9263, 9341.871
191.4084, 9376.331
191.8905, 9391.600
192.3727, 9376.852
192.8548, 9361.014
193.3369, 9340.656
193.8190, 9325.504
194.3011, 9326.604
194.7832, 9348.511
195.2654, 9383.274
195.7475, 9415.861
196.2296, 9455.246
196.7117, 9473.984
197.1938, 9448.742
197.6759, 9415.782
198.1581, 9408.854
198.6402, 9438.915
199.1223, 9488.093
199.6044, 9524.660
200.0865, 9548.008
200.5686, 9558.038
201.0508, 9541.813
201.5329, 9522.871
202.0150, 9523.189
202.4971, 9547.612
202.9792, 9578.976
203.4613, 9588.203
203.9435, 9562.251
204.4256, 9543.009
204.9077, 9539.597
205.3898, 9537.564
205.8719, 9524.501
206.3540, 9499.150
206.8362, 9472.386
207.3183, 9460.094
207.8004, 9469.750
208.2825, 9475.371
208.7646, 9471.431
209.2467, 9468.002
209.7289, 9474.015
210.2110, 9488.677
210.6931, 9501.771
211.1752, 9499.086
211.6573, 9473.020
212.1395, 9459.454
212.6216, 9472.850
213.1037, 9485.599
213.5858, 9478.292
214.0679, 9454.881
214.5500, 9436.410
215.0322, 9445.837
215.5143, 9488.511
215.9964, 9523.618
216.4785, 9549.549
216.9606, 9569.726
217.4427, 9583.237
217.9249, 9591.664
218.4070, 9598.438
218.8891, 9606.290
219.3712, 9615.252
219.8533, 9624.015
220.3354, 9635.250
220.8176, 9643.562
221.2997, 9647.938
221.7818, 9648.178
222.2639, 9643.560
222.7460, 9632.713
223.2281, 9616.539
223.7103, 9605.709
224.1924, 9603.438
224.6745, 9603.607
225.1566, 9605.067
225.6387, 9608.100
226.1208, 9614.521
226.6030, 9626.183
227.0851, 9640.110
227.5672, 9642.710
228.0493, 9616.129
228.5314, 9602.708
229.0135, 9619.538
229.4957, 9648.808
229.9778, 9669.546
230.4599, 9672.116
230.9420, 9663.994
231.4241, 9664.299
231.9062, 9681.601
232.3884, 9692.499
232.8705, 9691.589
233.3526, 9685.361
233.8347, 9678.087
234.3168, 9671.418
234.7989, 9666.843
235.2811, 9667.467
235.7632, 9675.826
236.2453, 9683.518
236.7274, 9683.273
237.2095, 9686.648
237.6916, 9707.208
238.1738, 9744.994
238.6559, 9781.825
239.1380, 9790.511
239.6201, 9758.623
240.1022, 9744.977
240.5843, 9770.961
241.0665, 9799.742
241.5486, 9814.586
242.0307, 9814.766
242.5128, 9808.596
242.9949, 9801.935
243.4770, 9794.224
243.9592, 9792.897
244.4413, 9803.677
244.9234, 9815.929
245.4055, 9826.672
245.8876, 9835.742
246.3697, 9844.224
246.8519, 9855.904
247.3340, 9868.756
247.8161, 9862.242
248.2982, 9815.047
248.7803, 9776.808
249.2624, 9767.103
249.7446, 9776.313
250.2267, 9789.564
250.7088, 9800.717
251.1909, 9808.810
251.6730, 9808.174
252.1551, 9787.367
252.6373, 9782.003
253.1194, 9820.792
253.6015, 9872.059
254.0836, 9900.506
254.5657, 9891.541
255.0478, 9862.592
255.5300, 9836.920
256.0121, 9811.567
256.4942, 9801.374
256.9763, 9823.818
257.4584, 9855.814
257.9406, 9881.529
258.4227, 9897.551
258.9048, 9910.687
259.3869, 9930.993
259.8690, 9959.265
260.3511, 9976.472
260.8333, 9975.640
261.3154, 9964.634
261.7975, 9944.518
262.2796, 9916.777
262.7617, 9895.013
263.2438, 9892.705
263.7260, 9906.305
264.2081, 9914.624
264.6902, 9912.537
265.1723, 9909.489
265.6544, 9912.792
266.1365, 9920.939
266.6187, 9929.060
267.1008, 9937.485
267.5829, 9943.870
268.0650, 9939.438
268.5471, 9918.542
269.0292, 9904.663
269.5114, 9929.465
269.9935, 9971.300
270.4756, 9991.157
270.9577, 9959.309
271.4398, 9917.527
271.9219, 9919.608
272.4041, 9967.044
272.8862, 10007.59
273.3683, 10013.35
273.8504, 9995.977
274.3325, 9978.984
274.8146, 9959.173
275.2968, 9947.497
275.7789, 9960.454
276.2610, 9990.477
276.7431, 10003.47
277.2252, 9979.870
277.7073, 9944.166
278.1895, 9940.709
278.6716, 9976.321
279.1537, 10004.76
279.6358, 10001.56
280.1179, 9982.106
280.6000, 9974.301
281.0822, 9985.478
281.5643, 10000.96
282.0464, 10001.97
282.5285, 9986.958
283.0106, 9977.479
283.4927, 9981.445
283.9749, 9988.470
284.4570, 9988.133
284.9391, 9980.053
285.4212, 9971.943
285.9033, 9970.040
286.3854, 9974.422
286.8676, 9978.809
287.3497, 9985.789
287.8318, 9990.310
288.3139, 9989.474
288.7960, 9984.144
289.2781, 9975.808
289.7603, 9964.452
290.2424, 9952.092
290.7245, 9947.727
291.2066, 9953.923
291.6887, 9964.230
292.1708, 9988.679
292.6530, 10012.85
293.1351, 10014.48
293.6172, 9986.232
294.0993, 9946.115
294.5814, 9926.826
295.0635, 9946.132
295.5457, 9953.145
296.0278, 9930.467
296.5099, 9908.871
296.9920, 9915.075
297.4741, 9948.722
297.9562, 9986.935
298.4384, 10006.73
298.9205, 10006.44
299.4026, 9998.619
299.8847, 9964.304
300.3668, 9941.531
300.8489, 9954.483
301.3310, 9989.279
301.8131, 10015.91
302.2953, 10014.17
302.7774, 9988.882
303.2595, 9962.738
303.7416, 9921.642
304.2237, 9902.458
304.7058, 9929.495
305.1880, 9972.443
305.6701, 9998.353
306.1522, 9994.784
306.6343, 9975.656
307.1164, 9960.451
307.5985, 9946.688
308.0807, 9946.464
308.5628, 9975.541
309.0449, 10009.71
309.5270, 10039.34
310.0091, 10061.94
310.4912, 10071.69
310.9734, 10056.36
311.4555, 10018.97
311.9376, 9993.559
312.4197, 9985.711
312.9018, 9986.253
313.3839, 9994.742
313.8661, 10006.70
314.3482, 10009.84
314.8303, 9990.660
315.3124, 9962.765
315.7945, 9951.408
316.2766, 9958.942
316.7588, 9969.384
317.2409, 9975.558
317.7230, 9978.764
318.2051, 9981.354
318.6872, 9984.429
319.1693, 9985.412
319.6515, 9979.298
320.1336, 9968.419
320.6157, 9963.901
321.0978, 9971.237
321.5799, 9983.869
322.0620, 9991.555
322.5442, 9993.928
323.0263, 9995.435
323.5084, 9998.214
323.9905, 10000.46
324.4726, 9998.491
324.9547, 9991.730
325.4369, 9985.491
325.9190, 9983.951
326.4011, 9987.545
326.8832, 9998.764
327.3653, 10029.95
327.8474, 10057.25
328.3296, 10065.60
328.8117, 10058.48
329.2938, 10046.74
329.7759, 10035.68
330.2580, 10026.70
330.7401, 10026.64
331.2223, 10048.38
331.7044, 10063.10
332.1865, 10064.99
332.6686, 10059.72
333.1507, 10051.25
333.6328, 10041.43
334.1150, 10033.87
334.5971, 10034.29
335.0792, 10045.19
335.5613, 10057.58
336.0434, 10085.79
336.5255, 10102.89
337.0077, 10086.26
337.4898, 10044.02
337.9719, 10003.28
338.4540, 9985.162
338.9361, 9987.835
339.4182, 9995.834
339.9004, 10015.74
340.3825, 10031.00
340.8646, 10031.92
341.3467, 10027.73
341.8288, 10031.19
342.3109, 10048.12
342.7931, 10069.15
343.2752, 10081.68
343.7573, 10085.65
344.2394, 10080.54
344.7215, 10053.21
345.2036, 10027.23
345.6858, 10020.36
346.1679, 10033.47
346.6500, 10058.07
347.1321, 10102.51
347.6142, 10154.19
348.0963, 10173.05
348.5785, 10146.33
349.0606, 10114.29
349.5427, 10111.00
350.0248, 10128.09
350.5069, 10141.73
350.9890, 10141.69
351.4712, 10141.57
351.9533, 10157.43
352.4354, 10185.29
352.9175, 10202.34
353.3996, 10193.90
353.8817, 10172.56
354.3639, 10174.44
354.8460, 10215.87
355.3281, 10241.46
355.8102, 10224.41
356.2923, 10191.61
356.7744, 10176.39
357.2566, 10185.26
357.7387, 10201.20
358.2208, 10206.10
358.7029, 10199.20
359.1850, 10183.68
359.6671, 10146.18
360.1493, 10114.59
360.6314, 10105.73
361.1135, 10112.44
361.5956, 10117.70
362.0777, 10111.19
362.5598, 10096.77
363.0420, 10088.20
363.5241, 10085.53
364.0062, 10089.49
364.4883, 10108.45
364.9704, 10128.13
365.4525, 10136.38
365.9347, 10130.74
366.4168, 10117.67
366.8989, 10098.46
367.3810, 10071.34
367.8631, 10066.60
368.3452, 10099.77
368.8274, 10139.37
369.3095, 10176.55
369.7916, 10207.51
370.2737, 10223.10
370.7558, 10211.46
371.2379, 10188.24
371.7201, 10179.92
372.2022, 10187.69
372.6843, 10199.62
373.1664, 10214.52
373.6485, 10228.42
374.1306, 10235.13
374.6128, 10232.63
375.0949, 10229.50
375.5770, 10231.52
376.0591, 10235.80
376.5412, 10234.19
377.0233, 10223.92
377.5055, 10216.94
377.9876, 10228.35
378.4697, 10260.66
378.9518, 10280.88
379.4339, 10284.85
379.9160, 10279.97
380.3982, 10263.99
380.8803, 10242.15
381.3624, 10227.93
381.8445, 10229.17
382.3266, 10241.08
382.8087, 10249.22
383.2909, 10250.51
383.7730, 10251.69
384.2551, 10252.83
384.7372, 10253.99
385.2193, 10256.17
385.7014, 10258.96
386.1836, 10260.07
386.6657, 10257.84
387.1478, 10252.54
387.6299, 10238.86
388.1120, 10203.09
388.5941, 10174.88
389.0763, 10165.36
389.5584, 10169.06
390.0405, 10177.92
390.5226, 10189.45
391.0047, 10202.02
391.4868, 10212.27
391.9690, 10219.56
392.4511, 10231.51
392.9332, 10260.39
393.4153, 10284.81
393.8974, 10278.47
394.3795, 10241.75
394.8617, 10214.77
395.3438, 10220.73
395.8259, 10247.65
396.3080, 10282.20
396.7901, 10324.35
397.2722, 10352.73
397.7544, 10346.74
398.2365, 10313.56
398.7186, 10295.02
399.2007, 10309.49
399.6828, 10317.93
400.1649, 10293.28
400.6471, 10255.45
401.1292, 10242.52
401.6113, 10267.11
402.0934, 10302.04
402.5755, 10306.00
403.0576, 10264.23
403.5398, 10235.66
404.0219, 10213.43
404.5040, 10208.31
404.9861, 10244.36
405.4682, 10302.58
405.9503, 10336.00
406.4325, 10311.31
406.9146, 10248.12
407.3967, 10217.86
407.8788, 10238.11
408.3609, 10255.70
408.8430, 10255.08
409.3252, 10251.48
409.8073, 10261.15
410.2894, 10285.14
410.7715, 10302.88
411.2536, 10286.84
411.7357, 10246.27
412.2179, 10232.77
412.7000, 10259.67
413.1821, 10289.65
413.6642, 10294.22
414.1463, 10283.61
414.6284, 10277.55
415.1106, 10288.04
415.5927, 10293.80
416.0748, 10268.95
416.5569, 10225.38
417.0390, 10202.49
417.5211, 10216.04
418.0033, 10246.43
418.4854, 10264.68
418.9675, 10265.60
419.4496, 10271.58
419.9317, 10290.92
420.4138, 10309.23
420.8960, 10317.41
421.3781, 10315.90
421.8602, 10308.57
422.3423, 10297.47
422.8244, 10283.43
423.3065, 10269.52
423.7887, 10248.92
424.2708, 10239.86
424.7529, 10251.73
425.2350, 10269.66
425.7171, 10284.50
426.1992, 10293.56
426.6814, 10294.84
427.1635, 10282.31
427.6456, 10257.60
428.1277, 10242.91
428.6098, 10245.65
429.0919, 10244.12
429.5741, 10219.56
430.0562, 10185.63
430.5383, 10162.49
431.0204, 10155.47
431.5025, 10158.81
431.9846, 10172.82
432.4668, 10194.09
432.9489, 10212.23
433.4310, 10226.31
433.9131, 10230.29
434.3952, 10211.76
434.8773, 10167.33
435.3595, 10139.02
435.8416, 10133.03
436.3237, 10140.31
436.8058, 10167.13
437.2879, 10202.80
437.7701, 10221.04
438.2522, 10207.41
438.7343, 10174.73
439.2164, 10156.35
439.6985, 10166.88
440.1806, 10165.61
440.6628, 10148.17
441.1449, 10123.19
441.6270, 10089.78
442.1091, 10052.72
442.5912, 10024.25
443.0733, 10013.85
443.5555, 10019.26
444.0376, 10033.22
444.5197, 10058.43
445.0018, 10084.76
445.4839, 10121.19
445.9660, 10149.96
446.4482, 10147.61
446.9303, 10107.53
447.4124, 10066.33
447.8945, 10041.71
448.3766, 10032.73
448.8587, 10043.68
449.3409, 10076.91
449.8230, 10106.19
450.3051, 10110.91
450.7872, 10092.39
451.2693, 10071.32
451.7514, 10034.72
452.2336, 10010.73
452.7157, 10018.10
453.1978, 10040.27
453.6799, 10055.14
454.1620, 10056.10
454.6441, 10048.77
455.1263, 10037.78
455.6084, 10019.12
456.0905, 10019.51
456.5726, 10062.23
457.0547, 10100.76
457.5368, 10125.62
458.0190, 10135.83
458.5011, 10127.70
458.9832, 10096.62
459.4653, 10061.41
459.9474, 10052.25
460.4295, 10069.67
460.9117, 10079.57
461.3938, 10070.09
461.8759, 10058.72
462.3580, 10060.91
462.8401, 10074.80
463.3222, 10091.88
463.8044, 10115.54
464.2865, 10137.07
464.7686, 10145.71
465.2507, 10144.60
465.7328, 10148.63
466.2149, 10166.18
466.6971, 10185.17
467.1792, 10180.13
467.6613, 10126.96
468.1434, 10101.38
468.6255, 10122.62
469.1076, 10154.12
469.5898, 10178.72
470.0719, 10193.73
470.5540, 10199.84
471.0361, 10197.45
471.5182, 10186.85
472.0003, 10164.79
472.4825, 10120.34
472.9646, 10094.75
473.4467, 10115.93
473.9288, 10145.51
474.4109, 10159.57
474.8930, 10157.42
475.3752, 10152.08
475.8573, 10153.25
476.3394, 10155.07
476.8215, 10139.56
477.3036, 10106.15
477.7857, 10094.52
478.2679, 10132.02
478.7500, 10197.65
479.2321, 10242.17
479.7142, 10265.91
480.1963, 10272.44
480.6784, 10245.83
481.1606, 10213.37
481.6427, 10202.14
482.1248, 10211.66
482.6069, 10222.09
483.0890, 10217.31
483.5711, 10202.45
484.0533, 10207.13
484.5354, 10247.21
485.0175, 10281.20
485.4996, 10303.78
485.9817, 10318.38
486.4638, 10325.19
486.9460, 10325.49
487.4281, 10325.15
487.9102, 10331.05
488.3923, 10339.75
488.8744, 10336.15
489.3565, 10315.87
489.8387, 10309.28
490.3208, 10340.39
490.8029, 10390.77
491.2850, 10421.31
491.7671, 10427.28
492.2492, 10427.90
492.7314, 10422.33
493.2135, 10418.77
493.6956, 10430.07
494.1777, 10455.30
494.6598, 10479.86
495.1419, 10492.55
495.6241, 10495.00
496.1062, 10497.95
496.5883, 10504.31
497.0704, 10506.89
497.5525, 10503.00
498.0346, 10496.62
498.5168, 10487.81
498.9989, 10478.48
499.4810, 10476.18
499.9631, 10490.25
500.4452, 10516.20
500.9273, 10536.91
501.4095, 10551.57
501.8916, 10564.71
502.3737, 10580.52
502.8558, 10594.44
503.3379, 10597.86
503.8200, 10586.94
504.3022, 10581.15
504.7843, 10593.48
505.2664, 10611.49
505.7485, 10619.26
506.2306, 10616.91
506.7127, 10616.22
507.1949, 10625.73
507.6770, 10642.30
508.1591, 10651.89
508.6412, 10644.02
509.1233, 10644.71
509.6054, 10670.05
510.0876, 10692.74
510.5697, 10684.07
511.0518, 10650.02
511.5339, 10626.44
512.0161, 10645.08
512.4982, 10688.77
512.9803, 10706.95
513.4624, 10693.87
513.9445, 10690.83
514.4266, 10723.95
514.9088, 10763.65
515.3909, 10768.90
515.8730, 10737.00
516.3551, 10707.96
516.8372, 10693.73
517.3193, 10687.68
517.8015, 10684.03
518.2836, 10682.80
518.7657, 10686.78
519.2478, 10697.93
519.7299, 10712.92
520.2120, 10724.33
520.6942, 10734.81
521.1763, 10736.17
521.6584, 10722.00
522.1405, 10705.88
522.6226, 10693.80
523.1047, 10685.83
523.5869, 10679.52
524.0690, 10671.72
524.5511, 10668.89
525.0332, 10687.68
525.5153, 10727.88
525.9974, 10755.16
526.4796, 10761.64
526.9617, 10752.32
527.4438, 10725.10
527.9259, 10682.60
528.4080, 10649.26
528.8901, 10629.00
529.3723, 10618.25
529.8544, 10616.85
530.3365, 10623.01
530.8186, 10637.02
531.3007, 10658.55
531.7828, 10676.73
532.2650, 10673.58
532.7471, 10642.53
533.2292, 10631.41
533.7113, 10664.83
534.1934, 10690.18
534.6755, 10689.24
535.1577, 10671.81
535.6398, 10648.36
536.1219, 10620.43
536.6040, 10599.69
537.0861, 10601.08
537.5682, 10618.52
538.0504, 10637.35
538.5325, 10658.36
539.0146, 10659.45
539.4967, 10614.56
539.9788, 10537.25
540.4609, 10496.09
540.9431, 10517.96
541.4252, 10534.28
541.9073, 10527.83
542.3894, 10511.91
542.8715, 10495.96
543.3536, 10482.94
543.8358, 10475.85
544.3179, 10478.41
544.8000, 10487.49
545.2821, 10490.43
545.7642, 10488.90
546.2463, 10476.55
546.7285, 10441.11
547.2106, 10401.99
547.6926, 10372.99
548.1747, 10354.46
548.6569, 10340.87
549.1390, 10329.17
549.6211, 10321.88
550.1032, 10329.65
550.5853, 10346.45
551.0674, 10344.79
551.5496, 10312.11
552.0317, 10263.37
552.5138, 10220.57
552.9959, 10179.28
553.4780, 10159.77
553.9601, 10177.08
554.4423, 10196.67
554.9244, 10210.93
555.4065, 10216.39
555.8886, 10206.93
556.3707, 10179.91
556.8528, 10148.40
557.3350, 10126.39
557.8171, 10113.55
558.2992, 10109.17
558.7813, 10116.61
559.2634, 10121.46
559.7455, 10111.85
560.2277, 10092.51
560.7098, 10080.01
561.1919, 10082.38
561.6740, 10077.66
562.1561, 10054.52
562.6382, 10023.66
563.1204, 9991.118
563.6025, 9960.966
564.0846, 9943.491
564.5667, 9947.670
565.0488, 9967.439
565.5309, 9981.087
566.0131, 9993.945
566.4952, 9987.113
566.9773, 9932.775
567.4594, 9877.219
567.9415, 9849.647
568.4236, 9847.464
568.9058, 9851.953
569.3879, 9862.002
569.8700, 9869.207
570.3521, 9861.838
570.8342, 9844.079
571.3163, 9832.058
571.7985, 9831.506
572.2806, 9828.889
572.7627, 9804.422
573.2448, 9752.705
573.7269, 9730.177
574.2090, 9770.235
574.6912, 9797.819
575.1733, 9784.477
575.6554, 9754.063
576.1375, 9733.510
576.6196, 9728.711
577.1017, 9727.723
577.5839, 9719.407
578.0660, 9706.219
578.5481, 9696.760
579.0302, 9691.562
579.5123, 9686.199
579.9944, 9677.108
580.4766, 9668.091
580.9587, 9667.828
581.4408, 9678.612
581.9229, 9686.674
582.4050, 9688.508
582.8871, 9688.500
583.3693, 9690.673
583.8514, 9693.184
584.3335, 9689.884
584.8156, 9677.880
585.2977, 9665.397
585.7798, 9667.852
586.2620, 9687.117
586.7441, 9699.290
587.2262, 9702.339
587.7083, 9699.748
588.1904, 9697.030
588.6725, 9689.119
589.1547, 9664.259
589.6368, 9612.551
590.1189, 9565.824
590.6010, 9533.741
591.0831, 9518.240
591.5652, 9531.183
592.0474, 9567.170
592.5295, 9596.856
593.0116, 9600.407
593.4937, 9584.796
593.9758, 9570.434
594.4579, 9554.896
594.9401, 9546.557
595.4222, 9554.054
595.9043, 9561.813
596.3864, 9560.607
596.8685, 9553.505
597.3506, 9548.980
597.8328, 9550.297
598.3149, 9554.913
598.7970, 9565.237
599.2791, 9576.692
599.7612, 9574.083
600.2433, 9554.409
600.7255, 9536.352
601.2076, 9536.981
601.6897, 9553.253
602.1718, 9560.292
602.6539, 9552.831
603.1360, 9542.772
603.6182, 9525.056
604.1003, 9509.778
604.5824, 9504.223
605.0645, 9508.309
605.5466, 9519.652
606.0287, 9544.509
606.5109, 9565.564
606.9930, 9548.420
607.4751, 9498.800
607.9572, 9463.647
608.4393, 9456.065
608.9214, 9459.616
609.4036, 9460.028
609.8857, 9457.245
610.3678, 9448.135
610.8499, 9414.196
611.3320, 9397.880
611.8141, 9422.067
612.2963, 9460.361
612.7784, 9491.628
613.2605, 9510.108
613.7426, 9512.454
614.2247, 9488.368
614.7068, 9452.776
615.1890, 9449.211
615.6711, 9479.798
616.1532, 9491.974
616.6353, 9462.869
617.1174, 9424.005
617.5995, 9412.426
618.0817, 9428.799
618.5638, 9437.390
619.0459, 9428.349
619.5280, 9421.136
620.0101, 9423.349
620.4922, 9431.578
620.9744, 9446.915
621.4565, 9466.157
621.9386, 9472.437
622.4207, 9442.515
622.9028, 9390.914
623.3849, 9381.822
623.8671, 9424.838
624.3492, 9452.890
624.8313, 9436.229
625.3134, 9407.010
625.7955, 9406.180
626.2776, 9431.826
626.7598, 9450.680
627.2419, 9448.747
627.7240, 9449.185
628.2061, 9476.415
628.6882, 9508.172
629.1703, 9504.525
629.6525, 9460.549
630.1346, 9414.254
630.6167, 9405.015
631.0988, 9425.159
631.5809, 9429.744
632.0630, 9413.457
632.5452, 9403.103
633.0273, 9413.658
633.5094, 9426.818
633.9915, 9415.745
634.4736, 9382.355
634.9557, 9368.503
635.4379, 9409.024
635.9200, 9443.282
636.4021, 9427.611
636.8842, 9386.916
637.3663, 9358.024
637.8484, 9350.968
638.3306, 9359.422
638.8127, 9381.257
639.2948, 9412.429
639.7769, 9427.121
640.2590, 9422.734
640.7411, 9410.614
641.2233, 9387.896
641.7054, 9364.557
642.1875, 9350.905
642.6696, 9346.304
643.1517, 9343.950
643.6339, 9345.063
644.1160, 9345.277
644.5981, 9342.607
645.0802, 9337.322
645.5623, 9325.404
646.0444, 9308.509
646.5266, 9302.958
647.0087, 9330.133
647.4908, 9377.704
647.9729, 9378.639
648.4550, 9314.830
648.9371, 9278.956
649.4193, 9314.135
649.9014, 9364.168
650.3835, 9368.517
650.8656, 9335.131
651.3477, 9321.035
