##NAMES=Hastingsite
##RRUFFID=R070194
##IDEAL CHEMISTRY=NaCa_2_(Fe^2+^_4_Fe^3+^)(Si_6_Al_2_)O_22_(OH)_2_
##LOCALITY=Seglenge, Sweden
##OWNER=RRUFF
##SOURCE=California Institute of Technology
##DESCRIPTION=Black cleavage fragment
##STATUS=The identification of this mineral has been confirmed by X-ray diffraction and chemical analysis
##URL=rruff.info/R070194
##MEASURED CHEMISTRY=(Na_0.39_K_0.32_[box]_0.29_)_Σ=1_(Ca_1.75_Na_0.25_)_Σ=2_((Fe^2+^_3.52_Mg_0.34_Mn_0.12_)_Σ=3.98_(Fe^3+^_0.66_Ti_0.24_Al_0.12_)_Σ=1.02_)_Σ=5_(Si_6.28_Al_1.64_)O_22_((OH)_1.79_F_0.17_Cl_0.04_)_Σ=2_; (OH) estimated by difference
153.5565, 1331.922
154.0386, 1338.340
154.5207, 1345.585
155.0028, 1358.007
155.4849, 1369.325
155.9670, 1374.012
156.4492, 1361.752
156.9313, 1351.112
157.4134, 1349.171
157.8955, 1358.202
158.3776, 1365.011
158.8597, 1364.319
159.3419, 1359.552
159.8240, 1355.511
160.3061, 1350.514
160.7882, 1348.919
161.2703, 1354.586
161.7524, 1371.464
162.2346, 1385.206
162.7167, 1387.623
163.1988, 1382.373
163.6809, 1377.395
164.1630, 1376.312
164.6451, 1376.659
165.1273, 1376.256
165.6094, 1372.945
166.0915, 1371.826
166.5736, 1376.874
167.0557, 1386.937
167.5379, 1398.090
168.0200, 1411.419
168.5021, 1423.395
168.9842, 1429.915
169.4663, 1425.745
169.9484, 1419.971
170.4306, 1420.843
170.9127, 1427.577
171.3948, 1433.702
171.8769, 1435.607
172.3590, 1433.846
172.8411, 1429.129
173.3233, 1419.260
173.8054, 1407.992
174.2875, 1398.211
174.7696, 1389.860
175.2517, 1385.353
175.7338, 1389.585
176.2160, 1399.330
176.6981, 1407.493
177.1802, 1410.458
177.6623, 1410.110
178.1444, 1409.434
178.6265, 1408.678
179.1087, 1406.393
179.5908, 1398.628
180.0729, 1387.281
180.5550, 1379.075
181.0371, 1381.140
181.5192, 1388.632
182.0014, 1389.723
182.4835, 1382.414
182.9656, 1372.576
183.4477, 1367.539
183.9298, 1366.999
184.4119, 1368.219
184.8941, 1368.928
185.3762, 1369.963
185.8583, 1374.975
186.3404, 1385.715
186.8225, 1398.199
187.3046, 1404.045
187.7868, 1403.311
188.2689, 1404.362
188.7510, 1417.020
189.2331, 1438.520
189.7152, 1450.918
190.1973, 1449.088
190.6795, 1438.517
191.1616, 1430.207
191.6437, 1423.981
192.1258, 1422.419
192.6079, 1431.311
193.0900, 1449.958
193.5722, 1462.030
194.0543, 1462.432
194.5364, 1454.435
195.0185, 1450.054
195.5006, 1449.837
195.9827, 1450.689
196.4649, 1449.201
196.9470, 1445.180
197.4291, 1442.845
197.9112, 1443.848
198.3933, 1447.597
198.8754, 1449.657
199.3576, 1449.420
199.8397, 1449.203
200.3218, 1452.692
200.8039, 1460.703
201.2860, 1466.022
201.7681, 1464.395
202.2503, 1456.258
202.7324, 1458.090
203.2145, 1474.505
203.6966, 1492.399
204.1787, 1490.216
204.6608, 1461.977
205.1430, 1440.617
205.6251, 1441.503
206.1072, 1467.323
206.5893, 1478.769
207.0714, 1471.932
207.5535, 1455.563
208.0357, 1442.145
208.5178, 1430.403
208.9999, 1426.020
209.4820, 1434.397
209.9641, 1459.714
210.4462, 1473.891
210.9284, 1474.139
211.4105, 1465.494
211.8926, 1456.909
212.3747, 1446.600
212.8568, 1440.485
213.3389, 1443.484
213.8211, 1460.735
214.3032, 1467.549
214.7853, 1460.646
215.2674, 1444.671
215.7495, 1430.796
216.2316, 1417.927
216.7138, 1409.063
217.1959, 1406.442
217.6780, 1412.488
218.1601, 1417.364
218.6422, 1420.263
219.1243, 1421.846
219.6065, 1424.671
220.0886, 1430.732
220.5707, 1434.656
221.0528, 1432.550
221.5349, 1420.777
222.0170, 1412.349
222.4992, 1407.937
222.9813, 1407.393
223.4634, 1410.682
223.9455, 1420.757
224.4276, 1430.505
224.9097, 1434.970
225.3919, 1430.975
225.8740, 1429.813
226.3561, 1435.633
226.8382, 1445.763
227.3203, 1443.057
227.8024, 1416.634
228.2846, 1391.613
228.7667, 1386.632
229.2488, 1415.695
229.7309, 1434.275
230.2130, 1433.023
230.6951, 1415.299
231.1773, 1408.408
231.6594, 1417.499
232.1415, 1431.462
232.6236, 1443.131
233.1057, 1454.239
233.5878, 1459.033
234.0700, 1453.021
234.5521, 1437.773
235.0342, 1434.278
235.5163, 1451.565
235.9984, 1470.750
236.4805, 1475.289
236.9627, 1453.014
237.4448, 1440.769
237.9269, 1449.360
238.4090, 1477.579
238.8911, 1488.591
239.3732, 1471.647
239.8554, 1448.854
240.3375, 1439.568
240.8196, 1451.585
241.3017, 1462.250
241.7838, 1467.483
242.2659, 1467.287
242.7481, 1470.252
243.2302, 1479.949
243.7123, 1489.182
244.1944, 1490.893
244.6765, 1480.634
245.1586, 1471.061
245.6408, 1464.054
246.1229, 1459.577
246.6050, 1456.996
247.0871, 1456.459
247.5692, 1457.664
248.0513, 1460.886
248.5335, 1468.662
249.0156, 1473.450
249.4977, 1473.148
249.9798, 1467.641
250.4619, 1462.369
250.9440, 1456.395
251.4262, 1451.611
251.9083, 1450.485
252.3904, 1456.042
252.8725, 1458.957
253.3546, 1456.267
253.8367, 1447.797
254.3189, 1443.370
254.8010, 1446.030
255.2831, 1449.318
255.7652, 1445.851
256.2473, 1431.417
256.7295, 1419.897
257.2116, 1415.286
257.6937, 1417.687
258.1758, 1417.055
258.6579, 1411.032
259.1400, 1404.858
259.6222, 1404.420
260.1043, 1412.245
260.5864, 1419.445
261.0685, 1424.176
261.5506, 1426.375
262.0327, 1427.883
262.5149, 1428.611
262.9970, 1428.754
263.4791, 1428.284
263.9612, 1426.718
264.4433, 1426.187
264.9254, 1428.831
265.4076, 1434.322
265.8897, 1430.021
266.3718, 1409.874
266.8539, 1389.833
267.3360, 1388.812
267.8181, 1413.627
268.3003, 1432.889
268.7824, 1437.135
269.2645, 1427.715
269.7466, 1427.103
270.2287, 1438.335
270.7108, 1452.305
271.1930, 1459.894
271.6751, 1459.815
272.1572, 1458.879
272.6393, 1458.208
273.1214, 1457.868
273.6035, 1458.842
274.0857, 1461.679
274.5678, 1464.426
275.0499, 1464.112
275.5320, 1459.784
276.0141, 1459.429
276.4962, 1466.828
276.9784, 1479.943
277.4605, 1484.930
277.9426, 1480.076
278.4247, 1473.410
278.9068, 1473.019
279.3889, 1479.369
279.8711, 1484.865
280.3532, 1487.751
280.8353, 1488.548
281.3174, 1488.017
281.7995, 1485.217
282.2816, 1475.423
282.7638, 1487.501
283.2459, 1494.672
283.7280, 1497.200
284.2101, 1481.181
284.6922, 1489.113
285.1743, 1487.446
285.6565, 1485.385
286.1386, 1496.687
286.6207, 1491.107
287.1028, 1489.618
287.5849, 1487.412
288.0670, 1483.583
288.5492, 1479.604
289.0313, 1479.978
289.5134, 1484.804
289.9955, 1489.306
290.4776, 1487.341
290.9597, 1481.036
291.4419, 1481.392
291.9240, 1493.325
292.4061, 1509.051
292.8882, 1512.645
293.3703, 1504.612
293.8524, 1495.600
294.3346, 1494.127
294.8167, 1497.696
295.2988, 1498.826
295.7809, 1495.749
296.2630, 1490.672
296.7451, 1485.919
297.2273, 1481.656
297.7094, 1478.858
298.1915, 1478.397
298.6736, 1479.803
299.1557, 1481.981
299.6378, 1484.582
300.1200, 1488.422
300.6021, 1496.179
301.0842, 1506.652
301.5663, 1515.120
302.0484, 1518.571
302.5305, 1518.389
303.0127, 1516.049
303.4948, 1511.291
303.9769, 1505.939
304.4590, 1502.937
304.9411, 1500.883
305.4232, 1495.943
305.9054, 1481.034
306.3875, 1464.606
306.8696, 1455.701
307.3517, 1455.712
307.8338, 1461.001
308.3159, 1476.256
308.7981, 1494.618
309.2802, 1502.846
309.7623, 1482.354
310.2444, 1457.389
310.7265, 1448.479
311.2086, 1459.501
311.6908, 1470.168
312.1729, 1465.402
312.6550, 1453.465
313.1371, 1446.247
313.6192, 1451.078
314.1013, 1459.943
314.5835, 1471.174
315.0656, 1485.046
315.5477, 1492.855
316.0298, 1486.125
316.5119, 1472.944
316.9940, 1462.151
317.4762, 1458.671
317.9583, 1456.192
318.4404, 1451.915
318.9225, 1445.802
319.4046, 1441.507
319.8867, 1439.766
320.3689, 1440.468
320.8510, 1443.524
321.3331, 1454.183
321.8152, 1461.747
322.2973, 1462.778
322.7794, 1457.756
323.2616, 1452.485
323.7437, 1448.141
324.2258, 1443.666
324.7079, 1438.399
325.1900, 1426.012
325.6721, 1419.990
326.1543, 1425.585
326.6364, 1440.285
327.1185, 1449.787
327.6006, 1451.388
328.0827, 1449.807
328.5648, 1447.160
329.0470, 1444.433
329.5291, 1439.008
330.0112, 1428.020
330.4933, 1414.420
330.9754, 1407.051
331.4576, 1409.800
331.9397, 1413.925
332.4218, 1415.443
332.9039, 1411.227
333.3860, 1412.998
333.8681, 1424.344
334.3503, 1439.562
334.8324, 1447.229
335.3145, 1444.446
335.7966, 1440.317
336.2787, 1438.736
336.7608, 1440.746
337.2430, 1436.666
337.7251, 1423.317
338.2072, 1408.604
338.6893, 1404.552
339.1714, 1413.239
339.6535, 1422.732
340.1357, 1429.517
340.6178, 1433.809
341.0999, 1438.301
341.5820, 1443.772
342.0641, 1447.115
342.5462, 1443.476
343.0284, 1432.908
343.5105, 1424.334
343.9926, 1420.166
344.4747, 1419.692
344.9568, 1422.178
345.4389, 1427.965
345.9211, 1432.201
346.4032, 1428.046
346.8853, 1417.803
347.3674, 1413.161
347.8495, 1418.978
348.3316, 1428.458
348.8138, 1427.145
349.2959, 1416.358
349.7780, 1409.047
350.2601, 1419.554
350.7422, 1438.951
351.2243, 1448.620
351.7065, 1443.723
352.1886, 1433.668
352.6707, 1429.218
353.1528, 1428.444
353.6349, 1425.225
354.1170, 1411.555
354.5992, 1395.825
355.0813, 1387.881
355.5634, 1389.621
356.0455, 1394.034
356.5276, 1396.963
357.0097, 1398.975
357.4919, 1401.000
357.9740, 1404.584
358.4561, 1407.507
358.9382, 1408.248
359.4203, 1406.686
359.9024, 1404.048
360.3846, 1399.023
360.8667, 1393.936
361.3488, 1391.224
361.8309, 1397.446
362.3130, 1400.586
362.7951, 1392.296
363.2773, 1374.109
363.7594, 1363.872
364.2415, 1374.959
364.7236, 1390.229
365.2057, 1398.577
365.6878, 1388.818
366.1700, 1382.910
366.6521, 1386.961
367.1342, 1397.772
367.6163, 1402.271
368.0984, 1392.787
368.5805, 1382.816
369.0627, 1377.716
369.5448, 1380.195
370.0269, 1382.458
370.5090, 1385.101
370.9911, 1387.312
371.4732, 1387.434
371.9554, 1384.834
372.4375, 1381.171
372.9196, 1376.605
373.4017, 1370.760
373.8838, 1366.494
374.3659, 1364.574
374.8481, 1363.093
375.3302, 1358.015
375.8123, 1346.719
376.2944, 1343.536
376.7765, 1356.256
377.2586, 1381.468
377.7408, 1389.356
378.2229, 1376.618
378.7050, 1361.054
379.1871, 1361.894
379.6692, 1377.978
380.1513, 1383.010
380.6335, 1367.488
381.1156, 1343.402
381.5977, 1339.993
382.0798, 1356.427
382.5619, 1372.080
383.0440, 1369.733
383.5262, 1356.073
384.0083, 1350.535
384.4904, 1357.117
384.9725, 1366.131
385.4546, 1365.667
385.9367, 1357.925
386.4189, 1349.793
386.9010, 1343.342
387.3831, 1339.008
387.8652, 1338.404
388.3473, 1341.851
388.8294, 1344.528
389.3116, 1341.803
389.7937, 1336.335
390.2758, 1331.707
390.7579, 1331.441
391.2400, 1330.647
391.7221, 1325.295
392.2043, 1316.061
392.6864, 1308.556
393.1685, 1305.445
393.6506, 1304.988
394.1327, 1305.871
394.6148, 1308.440
395.0970, 1311.498
395.5791, 1314.938
396.0612, 1318.693
396.5433, 1322.476
397.0254, 1330.368
397.5075, 1334.834
397.9897, 1331.761
398.4718, 1314.930
398.9539, 1304.217
399.4360, 1301.711
399.9181, 1304.625
400.4002, 1309.337
400.8824, 1318.014
401.3645, 1325.217
401.8466, 1328.655
402.3287, 1328.064
402.8108, 1332.340
403.2929, 1346.282
403.7751, 1357.821
404.2572, 1353.515
404.7393, 1328.369
405.2214, 1309.488
405.7035, 1301.894
406.1856, 1303.241
406.6678, 1307.625
407.1499, 1315.774
407.6320, 1322.143
408.1141, 1318.821
408.5962, 1307.866
409.0783, 1312.183
409.5605, 1337.343
410.0426, 1367.031
410.5247, 1375.744
411.0068, 1366.474
411.4889, 1356.576
411.9710, 1353.219
412.4532, 1355.007
412.9353, 1362.303
413.4174, 1375.407
413.8995, 1384.166
414.3816, 1372.726
414.8637, 1352.539
415.3459, 1342.646
415.8280, 1356.960
416.3101, 1375.985
416.7922, 1384.086
417.2743, 1383.351
417.7564, 1384.138
418.2386, 1394.839
418.7207, 1407.198
419.2028, 1414.318
419.6849, 1412.089
420.1670, 1411.114
420.6491, 1417.035
421.1313, 1426.346
421.6134, 1432.691
422.0955, 1428.774
422.5776, 1427.120
423.0597, 1433.017
423.5418, 1448.669
424.0240, 1461.515
424.5061, 1472.930
424.9882, 1480.144
425.4703, 1480.239
425.9524, 1467.038
426.4345, 1456.682
426.9167, 1451.098
427.3988, 1449.970
427.8809, 1452.899
428.3630, 1463.370
428.8451, 1471.028
429.3272, 1467.861
429.8094, 1451.488
430.2915, 1439.695
430.7736, 1432.798
431.2557, 1431.557
431.7378, 1440.902
432.2199, 1461.372
432.7021, 1477.156
433.1842, 1480.113
433.6663, 1473.066
434.1484, 1466.100
434.6305, 1459.265
435.1126, 1452.196
435.5948, 1443.479
436.0769, 1434.256
436.5590, 1427.543
437.0411, 1424.412
437.5232, 1423.894
438.0053, 1427.165
438.4875, 1432.882
438.9696, 1435.629
439.4517, 1432.230
439.9338, 1424.340
440.4159, 1412.068
440.8980, 1393.786
441.3802, 1377.983
441.8623, 1369.054
442.3444, 1365.139
442.8265, 1363.586
443.3086, 1365.522
443.7907, 1367.836
444.2729, 1369.775
444.7550, 1371.283
445.2371, 1371.680
445.7192, 1372.878
446.2013, 1371.645
446.6834, 1365.539
447.1656, 1346.111
447.6477, 1334.331
448.1298, 1335.584
448.6119, 1344.310
449.0940, 1344.249
449.5761, 1328.910
450.0583, 1317.272
450.5404, 1318.617
451.0225, 1334.751
451.5046, 1344.350
451.9867, 1345.438
452.4688, 1343.981
452.9510, 1347.464
453.4331, 1355.951
453.9152, 1363.790
454.3973, 1370.017
454.8794, 1374.272
455.3615, 1374.402
455.8437, 1370.548
456.3258, 1366.840
456.8079, 1367.188
457.2900, 1369.650
457.7721, 1369.429
458.2542, 1365.043
458.7364, 1361.321
459.2185, 1364.824
459.7006, 1372.551
460.1827, 1378.126
460.6648, 1376.579
461.1469, 1373.462
461.6291, 1373.819
462.1112, 1377.475
462.5933, 1378.175
463.0754, 1369.679
463.5575, 1358.992
464.0396, 1351.840
464.5218, 1354.294
465.0039, 1353.828
465.4860, 1341.740
465.9681, 1324.750
466.4502, 1320.491
466.9323, 1349.338
467.4145, 1371.268
467.8966, 1370.795
468.3787, 1340.916
468.8608, 1327.460
469.3429, 1337.743
469.8250, 1356.223
470.3072, 1368.198
470.7893, 1373.372
471.2714, 1372.463
471.7535, 1363.161
472.2356, 1349.066
472.7177, 1343.638
473.1999, 1347.750
473.6820, 1352.221
474.1641, 1347.092
474.6462, 1336.466
475.1284, 1342.707
475.6105, 1370.105
476.0926, 1399.015
476.5747, 1403.312
477.0568, 1390.736
477.5389, 1381.024
478.0211, 1384.374
478.5032, 1392.115
478.9853, 1394.239
479.4674, 1392.023
479.9495, 1393.555
480.4316, 1410.676
480.9138, 1429.175
481.3959, 1436.032
481.8780, 1422.735
482.3601, 1413.075
482.8422, 1418.605
483.3243, 1432.043
483.8065, 1442.040
484.2886, 1444.570
484.7707, 1445.425
485.2528, 1444.560
485.7349, 1441.951
486.2170, 1444.035
486.6992, 1454.940
487.1813, 1466.156
487.6634, 1471.646
488.1455, 1468.401
488.6276, 1468.670
489.1097, 1474.730
489.5919, 1483.063
490.0740, 1484.425
490.5561, 1477.416
491.0382, 1475.951
491.5203, 1489.220
492.0024, 1513.055
492.4846, 1528.289
492.9667, 1534.699
493.4488, 1536.130
493.9309, 1532.738
494.4130, 1527.033
494.8951, 1525.069
495.3773, 1528.476
495.8594, 1535.331
496.3415, 1546.522
496.8236, 1559.866
497.3057, 1569.782
497.7878, 1567.488
498.2700, 1565.541
498.7521, 1574.554
499.2342, 1595.934
499.7163, 1613.644
500.1984, 1620.747
500.6805, 1622.030
501.1627, 1621.346
501.6448, 1615.655
502.1269, 1612.358
502.6090, 1612.396
503.0911, 1615.279
503.5732, 1619.890
504.0554, 1626.858
504.5375, 1634.622
505.0196, 1642.900
505.5017, 1651.794
505.9838, 1659.678
506.4659, 1666.037
506.9481, 1672.523
507.4302, 1682.113
507.9123, 1694.860
508.3944, 1702.196
508.8765, 1700.536
509.3586, 1695.984
509.8408, 1700.380
510.3229, 1712.753
510.8050, 1726.171
511.2871, 1738.617
511.7692, 1748.970
512.2513, 1755.634
512.7335, 1758.587
513.2156, 1757.702
513.6977, 1745.082
514.1798, 1731.561
514.6619, 1730.371
515.1440, 1757.528
515.6262, 1781.758
516.1083, 1785.858
516.5904, 1777.302
517.0725, 1775.139
517.5546, 1785.640
518.0367, 1801.288
518.5189, 1822.683
519.0010, 1852.806
519.4831, 1869.327
519.9652, 1863.307
520.4473, 1852.498
520.9294, 1852.755
521.4116, 1868.291
521.8937, 1880.587
522.3758, 1887.440
522.8579, 1889.947
523.3400, 1889.218
523.8221, 1884.913
524.3043, 1882.847
524.7864, 1886.374
525.2685, 1894.276
525.7506, 1903.891
526.2327, 1915.360
526.7148, 1925.012
527.1970, 1931.397
527.6791, 1933.521
528.1612, 1928.507
528.6433, 1911.559
529.1254, 1895.897
529.6075, 1896.806
530.0897, 1906.050
530.5718, 1906.499
531.0539, 1878.285
531.5360, 1851.635
532.0181, 1843.671
532.5002, 1856.106
532.9824, 1860.507
533.4645, 1841.979
533.9466, 1821.854
534.4287, 1813.703
534.9108, 1827.740
535.3929, 1834.318
535.8751, 1829.723
536.3572, 1819.822
536.8393, 1815.707
537.3214, 1818.885
537.8035, 1820.922
538.2856, 1819.116
538.7678, 1814.054
539.2499, 1807.819
539.7320, 1800.346
540.2141, 1793.271
540.6962, 1789.584
541.1783, 1787.089
541.6605, 1779.725
542.1426, 1765.746
542.6247, 1751.260
543.1068, 1740.604
543.5889, 1733.573
544.0710, 1729.819
544.5532, 1733.459
545.0353, 1736.409
545.5174, 1732.805
545.9995, 1724.158
546.4816, 1718.733
546.9637, 1726.147
547.4459, 1731.447
547.9280, 1725.144
548.4101, 1698.510
548.8922, 1685.477
549.3743, 1695.390
549.8564, 1711.088
550.3386, 1713.777
550.8207, 1699.123
551.3028, 1685.290
551.7849, 1674.544
552.2670, 1667.048
552.7491, 1666.122
553.2313, 1672.179
553.7134, 1673.476
554.1955, 1658.873
554.6776, 1635.043
555.1597, 1621.585
555.6418, 1619.098
556.1240, 1618.809
556.6061, 1614.903
557.0882, 1608.092
557.5703, 1599.134
558.0524, 1586.957
558.5345, 1575.065
559.0167, 1564.027
559.4988, 1554.893
559.9809, 1549.880
560.4630, 1554.010
560.9451, 1557.936
561.4272, 1560.310
561.9094, 1560.943
562.3915, 1554.084
562.8736, 1531.648
563.3557, 1510.474
563.8378, 1501.042
564.3199, 1508.266
564.8021, 1509.317
565.2842, 1502.639
565.7663, 1492.067
566.2484, 1481.857
566.7305, 1471.969
567.2126, 1465.653
567.6948, 1465.861
568.1769, 1467.857
568.6590, 1461.646
569.1411, 1448.421
569.6232, 1435.342
570.1053, 1425.504
570.5875, 1418.634
571.0696, 1416.757
571.5517, 1420.414
572.0338, 1419.074
572.5159, 1401.616
572.9980, 1379.338
573.4802, 1362.645
573.9623, 1356.536
574.4444, 1352.477
574.9265, 1348.804
575.4086, 1346.526
575.8907, 1348.221
576.3729, 1358.342
576.8550, 1364.782
577.3371, 1362.636
577.8192, 1353.186
578.3013, 1350.993
578.7834, 1358.425
579.2656, 1363.751
579.7477, 1355.521
580.2298, 1336.538
580.7119, 1326.703
581.1940, 1328.711
581.6761, 1332.618
582.1583, 1323.811
582.6404, 1308.932
583.1225, 1302.754
583.6046, 1317.451
584.0867, 1333.201
584.5688, 1336.130
585.0510, 1328.547
585.5331, 1316.912
586.0152, 1295.105
586.4973, 1277.391
586.9794, 1271.595
587.4615, 1279.639
587.9437, 1286.453
588.4258, 1292.132
588.9079, 1295.638
589.3900, 1295.542
589.8721, 1289.303
590.3542, 1287.613
590.8364, 1292.330
591.3185, 1299.536
591.8006, 1303.762
592.2827, 1305.041
592.7648, 1302.818
593.2469, 1294.386
593.7291, 1284.770
594.2112, 1285.638
594.6933, 1295.143
595.1754, 1303.594
595.6575, 1304.526
596.1396, 1301.760
596.6218, 1297.726
597.1039, 1292.474
597.5860, 1289.909
598.0681, 1293.488
598.5502, 1299.683
599.0323, 1305.806
599.5145, 1314.870
599.9966, 1318.778
600.4787, 1314.964
600.9608, 1306.630
601.4429, 1298.641
601.9250, 1290.352
602.4072, 1283.755
602.8893, 1279.332
603.3714, 1276.930
603.8535, 1275.477
604.3356, 1274.763
604.8177, 1277.561
605.2999, 1289.895
605.7820, 1306.874
606.2641, 1312.250
606.7462, 1304.958
607.2283, 1297.712
607.7104, 1304.982
608.1926, 1317.123
608.6747, 1320.888
609.1568, 1307.478
609.6389, 1296.030
610.1210, 1297.463
610.6031, 1306.104
611.0853, 1312.730
611.5674, 1314.699
612.0495, 1315.461
612.5316, 1314.871
613.0137, 1313.365
613.4958, 1314.156
613.9780, 1318.413
614.4601, 1322.277
614.9422, 1323.698
615.4243, 1322.723
615.9064, 1320.870
616.3885, 1317.776
616.8707, 1316.016
617.3528, 1319.289
617.8349, 1325.786
618.3170, 1331.295
618.7991, 1335.175
619.2813, 1337.176
619.7634, 1334.118
620.2455, 1329.536
620.7276, 1329.388
621.2097, 1342.499
621.6918, 1353.912
622.1740, 1357.189
622.6561, 1353.559
623.1382, 1349.784
623.6203, 1343.743
624.1024, 1340.811
624.5845, 1343.688
625.0667, 1353.033
625.5488, 1360.594
626.0309, 1366.684
626.5130, 1370.319
626.9951, 1367.966
627.4772, 1360.699
627.9594, 1362.029
628.4415, 1374.828
628.9236, 1390.469
629.4057, 1397.218
629.8878, 1398.739
630.3699, 1403.476
630.8521, 1419.003
631.3342, 1433.270
631.8163, 1438.142
632.2984, 1435.014
632.7805, 1427.384
633.2626, 1402.332
633.7448, 1386.406
634.2269, 1395.739
634.7090, 1431.265
635.1911, 1453.528
635.6732, 1453.721
636.1553, 1452.820
636.6375, 1465.746
637.1196, 1495.956
637.6017, 1510.378
638.0838, 1505.534
638.5659, 1495.110
639.0480, 1494.723
639.5302, 1502.234
640.0123, 1509.203
640.4944, 1513.767
640.9765, 1517.027
641.4586, 1517.718
641.9407, 1518.220
642.4229, 1523.494
642.9050, 1540.292
643.3871, 1557.811
643.8692, 1571.869
644.3513, 1582.431
644.8334, 1590.621
