##NAMES=Hatchite
##RRUFFID=R100058
##IDEAL CHEMISTRY=Ag^1+^Pb^2+^Tl^1+^As^3+^_2_S^2-^_5_
##LOCALITY=Lengenbach quarry, Binnental, Canton Wallis, Switzerland
##OWNER=RRUFF
##SOURCE=William W Pinch
##DESCRIPTION=Black euhedral crystal embedded in white dolomite with red realgar
##STATUS=The identification of this mineral has been confirmed by single-crystal X-ray diffraction.
##URL=rruff.info/R100058
92.49744, 1664.658
92.97955, 1686.877
93.46167, 1714.959
93.94379, 1724.844
94.42590, 1725.659
94.90802, 1721.757
95.39014, 1713.329
95.87225, 1699.808
96.35437, 1685.208
96.83649, 1671.314
97.31860, 1658.817
97.80072, 1648.504
98.28284, 1639.200
98.76495, 1629.242
99.24707, 1618.659
99.72919, 1605.534
100.2113, 1594.703
100.6934, 1586.716
101.1755, 1581.445
101.6577, 1578.721
102.1398, 1578.441
102.6219, 1580.665
103.1040, 1584.602
103.5861, 1590.238
104.0682, 1596.736
104.5504, 1603.322
105.0325, 1609.920
105.5146, 1617.337
105.9967, 1626.529
106.4788, 1637.952
106.9609, 1649.810
107.4431, 1661.692
107.9252, 1674.007
108.4073, 1687.035
108.8894, 1700.610
109.3715, 1715.546
109.8536, 1733.281
110.3358, 1754.102
110.8179, 1775.731
111.3000, 1796.817
111.7821, 1817.500
112.2642, 1839.098
112.7463, 1861.936
113.2285, 1886.233
113.7106, 1912.300
114.1927, 1940.283
114.6748, 1969.525
115.1569, 1998.129
115.6390, 2024.578
116.1212, 2055.298
116.6033, 2092.406
117.0854, 2134.010
117.5675, 2178.657
118.0496, 2225.873
118.5317, 2275.606
119.0139, 2327.171
119.4960, 2384.649
119.9781, 2439.448
120.4602, 2490.156
120.9423, 2537.284
121.4244, 2581.729
121.9066, 2624.263
122.3887, 2665.023
122.8708, 2702.387
123.3529, 2733.181
123.8350, 2764.375
124.3171, 2798.988
124.7993, 2837.238
125.2814, 2877.245
125.7635, 2917.076
126.2456, 2956.400
126.7277, 2999.556
127.2098, 3049.403
127.6920, 3101.792
128.1741, 3152.387
128.6562, 3199.727
129.1383, 3246.911
129.6204, 3298.441
130.1025, 3353.839
130.5847, 3409.095
131.0668, 3462.234
131.5489, 3513.881
132.0310, 3565.944
132.5131, 3618.944
132.9952, 3673.246
133.4774, 3728.776
133.9595, 3785.559
134.4416, 3844.023
134.9237, 3905.731
135.4058, 3971.889
135.8879, 4035.000
136.3701, 4097.837
136.8522, 4154.339
137.3343, 4204.287
137.8164, 4247.222
138.2985, 4275.060
138.7806, 4276.136
139.2628, 4254.132
139.7449, 4191.367
140.2270, 4084.358
140.7091, 3945.158
141.1912, 3778.981
141.6733, 3589.073
142.1555, 3381.324
142.6376, 3178.889
143.1197, 2973.219
143.6018, 2783.356
144.0839, 2611.466
144.5660, 2456.831
145.0482, 2317.938
145.5303, 2194.277
146.0124, 2085.851
146.4945, 1990.127
146.9766, 1906.824
147.4587, 1833.279
147.9409, 1770.198
148.4230, 1716.670
148.9051, 1669.150
149.3872, 1625.319
149.8693, 1586.270
150.3514, 1551.809
150.8336, 1522.443
151.3157, 1497.398
151.7978, 1476.493
152.2799, 1459.880
152.7620, 1445.461
153.2441, 1432.445
153.7263, 1420.492
154.2084, 1409.027
154.6905, 1397.479
155.1726, 1386.450
155.6547, 1377.408
156.1368, 1371.242
156.6190, 1365.647
157.1011, 1358.627
157.5832, 1351.127
158.0653, 1344.956
158.5474, 1341.550
159.0295, 1340.733
159.5117, 1340.235
159.9938, 1340.684
160.4759, 1340.807
160.9580, 1339.523
161.4401, 1337.406
161.9222, 1335.970
162.4044, 1336.893
162.8865, 1340.851
163.3686, 1343.165
163.8507, 1342.463
164.3328, 1341.438
164.8149, 1341.654
165.2971, 1342.936
165.7792, 1343.833
166.2613, 1342.647
166.7434, 1338.855
167.2255, 1334.106
167.7076, 1327.889
168.1898, 1321.209
168.6719, 1314.957
169.1540, 1309.235
169.6361, 1303.344
170.1182, 1296.166
170.6003, 1286.885
171.0825, 1278.402
171.5646, 1270.393
172.0467, 1263.446
172.5288, 1259.069
173.0109, 1258.058
173.4930, 1257.512
173.9752, 1251.403
174.4573, 1238.780
174.9394, 1228.521
175.4215, 1224.155
175.9036, 1223.968
176.3857, 1224.277
176.8679, 1224.158
177.3500, 1224.034
177.8321, 1224.304
178.3142, 1224.905
178.7963, 1226.147
179.2784, 1228.110
179.7606, 1230.832
180.2427, 1234.557
180.7248, 1239.915
181.2069, 1245.906
181.6890, 1251.774
182.1711, 1257.502
182.6533, 1262.781
183.1354, 1267.552
183.6175, 1271.928
184.0996, 1274.929
184.5817, 1276.542
185.0638, 1276.459
185.5460, 1274.378
186.0281, 1270.224
186.5102, 1263.984
186.9923, 1255.693
187.4744, 1245.503
187.9565, 1232.545
188.4387, 1215.636
188.9208, 1196.970
189.4029, 1178.019
189.8850, 1159.166
190.3671, 1140.212
190.8492, 1120.264
191.3314, 1098.103
191.8135, 1077.242
192.2956, 1057.708
192.7777, 1039.547
193.2598, 1022.953
193.7419, 1008.029
194.2241, 994.4319
194.7062, 981.3651
195.1883, 968.6037
195.6704, 956.6934
196.1525, 945.9003
196.6346, 935.9218
197.1168, 926.2938
197.5989, 916.7928
198.0810, 907.7591
198.5631, 900.2950
199.0452, 895.3491
199.5273, 890.5696
200.0095, 885.5154
200.4916, 880.4133
200.9737, 875.5241
201.4558, 870.8729
201.9379, 866.6448
202.4200, 863.3470
202.9022, 861.0946
203.3843, 859.3005
203.8664, 857.7933
204.3485, 856.5926
204.8306, 855.7916
205.3127, 855.5056
205.7949, 855.5881
206.2770, 855.7649
206.7591, 856.3088
207.2412, 856.3957
207.7233, 854.9110
208.2054, 852.2139
208.6876, 850.6311
209.1697, 851.5029
209.6518, 853.7756
210.1339, 855.5813
210.6160, 856.5508
211.0981, 857.9074
211.5803, 861.0575
212.0624, 866.0012
212.5445, 870.4085
213.0266, 872.8810
213.5087, 874.7437
213.9908, 877.1364
214.4730, 880.2042
214.9551, 883.8330
215.4372, 888.0621
215.9193, 893.0543
216.4014, 897.7526
216.8836, 900.6424
217.3657, 903.8516
217.8478, 909.3084
218.3299, 917.4880
218.8120, 926.4720
219.2941, 933.3517
219.7763, 937.2374
220.2584, 941.9356
220.7405, 948.2272
221.2226, 955.4616
221.7047, 963.5823
222.1868, 972.5105
222.6690, 981.5571
223.1511, 989.5231
223.6332, 995.8338
224.1153, 1002.440
224.5974, 1008.870
225.0795, 1015.981
225.5617, 1024.597
226.0438, 1034.888
226.5259, 1046.138
227.0080, 1057.121
227.4901, 1067.400
227.9722, 1078.171
228.4544, 1089.470
228.9365, 1101.182
229.4186, 1113.057
229.9007, 1125.031
230.3828, 1137.340
230.8649, 1150.252
231.3471, 1163.894
231.8292, 1178.181
232.3113, 1193.817
232.7934, 1209.590
233.2755, 1224.420
233.7576, 1237.985
234.2398, 1251.146
234.7219, 1265.094
235.2040, 1280.142
235.6861, 1295.643
236.1682, 1311.372
236.6503, 1327.650
237.1325, 1345.118
237.6146, 1363.798
238.0967, 1382.572
238.5788, 1399.671
239.0609, 1414.008
239.5430, 1428.895
240.0252, 1444.066
240.5073, 1459.927
240.9894, 1476.962
241.4715, 1495.361
241.9536, 1514.258
242.4357, 1532.169
242.9179, 1548.042
243.4000, 1567.798
243.8821, 1599.178
244.3642, 1631.348
244.8463, 1650.368
245.3284, 1653.060
245.8106, 1651.368
246.2927, 1659.751
246.7748, 1678.617
247.2569, 1695.788
247.7390, 1708.395
248.2211, 1718.924
248.7033, 1730.421
249.1854, 1743.452
249.6675, 1756.669
250.1496, 1768.760
250.6317, 1779.939
251.1138, 1790.828
251.5960, 1802.343
252.0781, 1813.338
252.5602, 1821.910
253.0423, 1827.461
253.5244, 1832.804
254.0065, 1841.194
254.4887, 1851.387
254.9708, 1859.811
255.4529, 1864.602
255.9350, 1867.502
256.4171, 1870.906
256.8992, 1875.051
257.3813, 1878.942
257.8635, 1882.213
258.3456, 1884.721
258.8277, 1885.952
259.3098, 1885.351
259.7919, 1883.607
260.2740, 1881.603
260.7562, 1879.316
261.2383, 1876.826
261.7204, 1875.085
262.2025, 1872.908
262.6846, 1868.375
263.1667, 1860.014
263.6489, 1850.178
264.1310, 1842.017
264.6131, 1835.719
265.0952, 1830.283
265.5773, 1824.915
266.0594, 1820.397
266.5416, 1818.014
267.0237, 1818.680
267.5058, 1820.082
267.9879, 1818.193
268.4700, 1811.727
268.9521, 1808.051
269.4343, 1812.654
269.9164, 1819.595
270.3985, 1824.157
270.8806, 1825.029
271.3627, 1825.336
271.8448, 1828.952
272.3270, 1836.328
272.8091, 1844.719
273.2912, 1853.804
273.7733, 1863.556
274.2554, 1874.019
274.7375, 1885.258
275.2197, 1897.230
275.7018, 1909.907
276.1839, 1923.157
276.6660, 1937.584
277.1481, 1952.972
277.6302, 1969.880
278.1124, 1988.943
278.5945, 2010.083
279.0766, 2032.074
279.5587, 2053.761
280.0408, 2075.132
280.5229, 2096.817
281.0051, 2116.759
281.4872, 2138.939
281.9693, 2166.360
282.4514, 2197.890
282.9335, 2229.793
283.4156, 2258.273
283.8978, 2283.210
284.3799, 2310.455
284.8620, 2341.373
285.3441, 2373.477
285.8262, 2406.313
286.3083, 2439.632
286.7905, 2473.014
287.2726, 2505.578
287.7547, 2537.726
288.2368, 2572.981
288.7189, 2614.500
289.2010, 2655.598
289.6832, 2694.379
290.1653, 2731.398
290.6474, 2767.723
291.1295, 2803.612
291.6116, 2839.353
292.0938, 2876.032
292.5759, 2915.006
293.0580, 2952.753
293.5401, 2987.760
294.0222, 3021.660
294.5043, 3056.240
294.9865, 3092.370
295.4686, 3129.089
295.9507, 3164.014
296.4328, 3196.312
296.9149, 3228.090
297.3970, 3260.465
297.8792, 3292.020
298.3613, 3321.243
298.8434, 3347.804
299.3255, 3372.523
299.8076, 3396.743
300.2897, 3420.725
300.7719, 3443.516
301.2540, 3465.295
301.7361, 3485.956
302.2182, 3504.945
302.7003, 3522.445
303.1824, 3540.134
303.6646, 3560.941
304.1467, 3587.016
304.6288, 3607.959
305.1109, 3622.038
305.5930, 3632.998
306.0751, 3641.082
306.5573, 3647.199
307.0394, 3653.353
307.5215, 3661.806
308.0036, 3673.003
308.4857, 3680.484
308.9678, 3680.978
309.4500, 3680.798
309.9321, 3681.844
310.4142, 3683.586
310.8963, 3684.809
311.3784, 3684.866
311.8605, 3683.600
312.3427, 3679.746
312.8248, 3669.432
313.3069, 3660.956
313.7890, 3656.010
314.2711, 3653.676
314.7532, 3652.933
315.2354, 3653.366
315.7175, 3654.489
316.1996, 3654.903
316.6817, 3654.272
317.1638, 3653.425
317.6459, 3650.010
318.1281, 3647.728
318.6102, 3650.033
319.0923, 3657.960
319.5744, 3669.839
320.0565, 3682.867
320.5386, 3696.234
321.0208, 3712.844
321.5029, 3734.957
321.9850, 3758.116
322.4671, 3778.763
322.9492, 3797.059
323.4313, 3816.420
323.9135, 3841.333
324.3956, 3873.110
324.8777, 3903.648
325.3598, 3929.778
325.8419, 3957.650
326.3240, 3990.799
326.8062, 4028.082
327.2883, 4066.148
327.7704, 4102.562
328.2525, 4137.415
328.7346, 4173.447
329.2167, 4211.819
329.6989, 4250.439
330.1810, 4290.022
330.6631, 4329.342
331.1452, 4366.208
331.6273, 4399.338
332.1094, 4429.828
332.5916, 4460.814
333.0737, 4491.366
333.5558, 4524.288
334.0379, 4562.488
334.5200, 4601.722
335.0021, 4637.139
335.4843, 4667.383
335.9664, 4695.558
336.4485, 4726.912
336.9306, 4763.531
337.4127, 4797.197
337.8948, 4825.968
338.3770, 4852.635
338.8591, 4878.133
339.3412, 4902.955
339.8233, 4927.602
340.3055, 4953.430
340.7876, 4980.751
341.2697, 5004.892
341.7518, 5020.811
342.2339, 5038.308
342.7160, 5062.119
343.1982, 5090.654
343.6803, 5119.450
344.1624, 5144.431
344.6445, 5167.422
345.1266, 5198.045
345.6087, 5240.201
346.0909, 5284.121
346.5730, 5325.828
347.0551, 5367.384
347.5372, 5411.006
348.0193, 5458.083
348.5014, 5507.597
348.9836, 5558.493
349.4657, 5610.647
349.9478, 5663.875
350.4299, 5715.534
350.9120, 5770.000
351.3941, 5831.263
351.8763, 5899.860
352.3584, 5972.063
352.8405, 6042.249
353.3226, 6110.438
353.8047, 6185.747
354.2868, 6270.545
354.7690, 6362.385
355.2511, 6457.749
355.7332, 6557.834
356.2153, 6666.078
356.6974, 6785.016
357.1795, 6914.029
357.6617, 7050.468
358.1438, 7191.881
358.6259, 7344.695
359.1080, 7510.279
359.5901, 7688.041
360.0722, 7879.582
360.5544, 8084.271
361.0365, 8303.855
361.5186, 8544.606
362.0007, 8806.139
362.4828, 9084.250
362.9649, 9384.453
363.4471, 9698.520
363.9292, 10019.71
364.4113, 10349.04
364.8934, 10680.54
365.3755, 11014.50
365.8576, 11348.76
366.3398, 11672.81
366.8219, 11991.12
367.3040, 12289.29
367.7861, 12555.20
368.2682, 12790.97
368.7503, 13003.66
369.2325, 13195.61
369.7146, 13367.56
370.1967, 13518.10
370.6788, 13646.14
371.1609, 13761.50
371.6430, 13864.46
372.1252, 13959.88
372.6073, 14061.87
373.0894, 14179.33
373.5715, 14298.00
374.0536, 14406.23
374.5357, 14504.63
375.0179, 14599.58
375.5000, 14692.32
375.9821, 14783.56
376.4642, 14875.65
376.9463, 14967.50
377.4284, 15061.59
377.9106, 15155.51
378.3927, 15252.68
378.8748, 15359.30
379.3569, 15477.20
379.8390, 15603.63
380.3211, 15739.77
380.8033, 15889.61
381.2854, 16022.90
381.7675, 16159.66
382.2496, 16262.57
382.7317, 16316.04
383.2138, 16312.43
383.6960, 16233.04
384.1781, 16069.03
384.6602, 15817.03
385.1423, 15425.38
385.6244, 14889.93
386.1065, 14250.03
386.5887, 13491.32
387.0708, 12644.45
387.5529, 11739.11
388.0350, 10784.04
388.5171, 9812.169
388.9992, 8890.168
389.4814, 8011.355
389.9635, 7207.700
390.4456, 6479.606
390.9277, 5824.132
391.4098, 5241.655
391.8919, 4731.713
392.3741, 4283.345
392.8562, 3889.481
393.3383, 3551.590
393.8204, 3248.260
394.3025, 2985.853
394.7846, 2748.083
395.2668, 2532.609
395.7489, 2336.799
396.2310, 2157.620
396.7131, 1993.194
397.1952, 1843.531
397.6773, 1707.819
398.1595, 1587.045
398.6416, 1479.801
399.1237, 1386.382
399.6058, 1303.928
400.0879, 1230.693
400.5700, 1165.950
401.0522, 1108.708
401.5343, 1057.696
402.0164, 1013.614
402.4985, 973.1423
402.9806, 937.0007
403.4627, 904.1011
403.9449, 874.4176
404.4270, 847.6436
404.9091, 823.1954
405.3912, 801.0025
405.8733, 780.6910
406.3554, 761.3716
406.8376, 742.9412
407.3197, 725.4178
407.8018, 708.8205
408.2839, 693.1146
408.7660, 678.5524
409.2481, 665.1019
409.7303, 652.5408
410.2124, 640.5267
410.6945, 629.0964
411.1766, 618.4792
411.6587, 608.9581
412.1408, 599.9457
412.6230, 590.9250
413.1051, 581.9106
413.5872, 572.9863
414.0693, 563.8863
414.5514, 554.9991
415.0335, 547.2590
415.5157, 540.8219
415.9978, 534.3150
416.4799, 526.5400
416.9620, 518.0832
417.4441, 510.7662
417.9262, 505.3131
418.4084, 500.1182
418.8905, 494.0903
419.3726, 487.6242
419.8547, 481.8112
420.3368, 477.0714
420.8189, 472.9585
421.3011, 468.8120
421.7832, 464.5763
422.2653, 460.5706
422.7474, 457.1062
423.2295, 453.7057
423.7116, 449.8817
424.1938, 445.6455
424.6759, 441.3513
425.1580, 437.2325
425.6401, 433.2943
426.1222, 429.5013
426.6043, 425.7807
427.0865, 422.2614
427.5686, 418.8513
428.0507, 415.6847
428.5328, 413.0945
429.0149, 411.1818
429.4970, 409.4393
429.9792, 406.8702
430.4613, 402.6313
430.9434, 399.4035
431.4255, 397.9797
431.9076, 396.6791
432.3897, 394.4395
432.8719, 391.4105
433.3540, 388.3957
433.8361, 386.0034
434.3182, 384.1933
434.8003, 382.6760
435.2824, 381.7741
435.7646, 380.6815
436.2467, 379.3814
436.7288, 377.7390
437.2109, 375.4431
437.6930, 372.3851
438.1751, 369.2716
438.6573, 367.0618
439.1394, 365.8277
439.6215, 364.4956
440.1036, 362.7785
440.5857, 361.0932
441.0678, 359.6042
441.5500, 358.3421
442.0321, 357.4008
442.5142, 357.1374
442.9963, 357.0987
443.4784, 356.4494
443.9605, 355.1508
444.4427, 353.4952
444.9248, 351.2127
445.4069, 348.8834
445.8890, 347.5467
446.3711, 347.5210
446.8532, 347.7031
447.3354, 347.6924
447.8175, 347.4304
448.2996, 346.7665
448.7817, 345.6565
449.2638, 344.2068
449.7459, 342.3619
450.2281, 340.0876
450.7102, 338.4561
451.1923, 337.8567
451.6744, 337.5977
452.1565, 337.3822
452.6386, 337.1586
453.1208, 336.8635
453.6029, 336.4600
454.0850, 335.9727
454.5671, 335.4730
455.0492, 335.2441
455.5313, 334.5863
456.0135, 332.9380
456.4956, 331.2308
456.9777, 330.2545
457.4598, 330.0706
457.9419, 330.1720
458.4240, 330.0777
458.9062, 329.7841
459.3883, 329.6734
459.8704, 330.2721
460.3525, 330.4443
460.8346, 329.5438
461.3167, 328.2273
461.7989, 327.2812
462.2810, 326.9995
462.7631, 327.2263
463.2452, 328.0645
463.7273, 329.8378
464.2094, 330.2241
464.6916, 327.4124
465.1737, 324.5535
465.6558, 323.5903
466.1379, 324.2002
466.6200, 324.9313
467.1021, 324.9640
467.5843, 324.6196
468.0664, 324.5609
468.5485, 324.8292
469.0306, 325.1058
469.5127, 325.4668
469.9948, 325.6022
470.4770, 324.8946
470.9591, 322.9807
471.4412, 321.5322
471.9233, 321.9404
472.4054, 323.2459
472.8875, 323.4606
473.3697, 322.1638
473.8518, 320.9474
474.3339, 321.4898
474.8160, 323.7524
475.2981, 324.7156
475.7802, 323.2350
476.2624, 321.6931
476.7445, 321.2793
477.2266, 321.5380
477.7087, 321.5659
478.1908, 321.0020
478.6729, 320.0774
479.1551, 319.1687
479.6372, 318.0480
480.1193, 317.5151
480.6014, 318.0674
481.0835, 318.6752
481.5656, 318.6257
482.0478, 318.1208
482.5299, 317.8696
483.0120, 318.3870
483.4941, 319.4162
483.9762, 320.0125
484.4583, 320.2318
484.9405, 319.8712
485.4226, 318.5681
485.9047, 316.9458
486.3868, 315.2931
486.8689, 313.7214
487.3510, 312.5907
487.8332, 312.4956
488.3153, 313.1786
488.7974, 313.3598
489.2795, 312.9056
489.7616, 312.1612
490.2437, 311.0621
490.7259, 309.8670
491.2080, 309.0154
491.6901, 308.7782
492.1722, 308.5231
492.6543, 307.6725
493.1364, 306.4359
493.6186, 305.4716
494.1007, 304.9879
494.5828, 304.6049
495.0649, 303.9541
495.5470, 303.0227
496.0291, 301.6807
496.5113, 299.2525
496.9934, 297.0308
497.4755, 295.9621
497.9576, 295.7054
498.4397, 295.4136
498.9218, 294.6937
499.4040, 293.6247
499.8861, 292.3650
500.3682, 290.7088
500.8503, 289.2584
501.3324, 287.8560
501.8145, 286.7580
502.2967, 286.5830
502.7788, 286.9130
503.2609, 286.4315
503.7430, 283.9944
504.2251, 280.3048
504.7072, 278.2954
505.1894, 278.9240
505.6715, 279.0179
506.1536, 277.3840
506.6357, 275.1632
507.1178, 273.1109
507.5999, 271.3482
508.0821, 269.8113
508.5642, 268.3923
509.0463, 267.1664
509.5284, 266.4591
510.0105, 266.4216
510.4926, 266.3219
510.9748, 265.6192
511.4569, 264.5580
511.9390, 263.7655
512.4211, 263.5648
512.9032, 263.1052
513.3853, 261.5424
513.8674, 259.5570
514.3495, 258.4867
514.8317, 258.6176
515.3138, 258.9688
515.7959, 258.5114
516.2780, 257.1660
516.7601, 256.1601
517.2422, 255.7586
517.7244, 255.3357
518.2065, 254.7619
518.6886, 254.0088
519.1707, 253.0025
519.6528, 251.7331
520.1349, 250.3652
520.6171, 249.0893
521.0992, 247.8041
521.5813, 247.0353
522.0634, 247.5468
522.5455, 247.8278
523.0276, 247.0765
523.5098, 245.7376
523.9919, 244.6629
524.4740, 244.2217
524.9561, 244.2024
525.4382, 244.5905
525.9203, 245.4046
526.4025, 245.2415
526.8846, 243.1810
527.3667, 240.8306
527.8488, 239.8899
528.3309, 240.1339
528.8130, 240.1192
529.2952, 239.1309
529.7773, 237.9305
530.2594, 237.3133
530.7415, 237.1468
531.2236, 236.6721
531.7057, 235.4609
532.1879, 234.0444
532.6700, 233.5098
533.1521, 234.5602
533.6342, 234.8753
534.1163, 233.8646
534.5984, 232.5773
535.0806, 231.6093
535.5627, 230.9661
536.0448, 230.4329
536.5269, 229.8772
537.0090, 229.3521
537.4911, 229.0359
537.9733, 228.9934
538.4554, 229.0161
538.9375, 229.1028
539.4196, 229.2238
539.9017, 229.5675
540.3839, 229.9882
540.8660, 229.9146
541.3481, 228.6345
541.8302, 226.8063
542.3123, 225.9723
542.7944, 226.2317
543.2766, 226.6324
543.7587, 226.8446
544.2408, 226.9851
544.7229, 227.3402
545.2050, 227.9929
545.6871, 228.1695
546.1693, 226.9309
546.6514, 225.5011
547.1335, 225.4114
547.6156, 226.5760
548.0977, 227.7727
548.5798, 228.2952
549.0620, 228.2519
549.5441, 228.0097
550.0262, 227.4379
550.5083, 226.8217
550.9904, 225.8157
551.4725, 225.0246
551.9547, 225.0577
552.4368, 225.7858
552.9189, 226.5631
553.4010, 226.9037
553.8831, 226.9243
554.3652, 227.1416
554.8474, 227.7744
555.3295, 228.0515
555.8116, 227.1521
556.2937, 226.2611
556.7758, 226.5174
557.2579, 227.8673
557.7401, 228.8475
558.2222, 228.2127
558.7043, 226.8122
559.1864, 226.0804
559.6685, 226.0614
560.1506, 226.3522
560.6328, 226.8466
561.1149, 227.4457
561.5970, 227.9594
562.0791, 228.4144
562.5612, 228.7184
563.0433, 228.8203
563.5255, 228.7878
564.0076, 228.5675
564.4897, 228.2421
564.9718, 228.0955
565.4539, 228.3309
565.9360, 228.8076
566.4182, 229.0444
566.9003, 228.9236
567.3824, 228.7842
567.8645, 228.3485
568.3466, 228.1578
568.8287, 227.5722
569.3109, 227.3783
569.7930, 230.3771
570.2751, 240.5146
570.7572, 252.6516
571.2393, 254.5508
571.7214, 245.2992
572.2036, 236.9060
572.6857, 233.0092
573.1678, 231.8072
573.6499, 231.4472
574.1320, 231.9020
574.6141, 232.3567
575.0963, 232.4298
575.5784, 232.5396
576.0605, 233.3663
576.5426, 234.5922
577.0247, 235.0169
577.5068, 234.0230
577.9890, 232.4043
578.4711, 231.6456
578.9532, 232.0528
579.4353, 232.5905
579.9174, 233.4920
580.3995, 234.2784
580.8817, 234.6293
581.3638, 234.7074
581.8459, 234.8565
582.3280, 235.2481
582.8101, 235.7033
583.2922, 235.8980
583.7744, 235.8071
584.2565, 235.8301
584.7386, 236.1412
585.2207, 236.3988
585.7029, 236.1981
586.1850, 235.7577
586.6671, 235.6649
587.1492, 236.2690
587.6313, 236.9758
588.1135, 237.4111
588.5956, 237.6144
589.0777, 237.6051
