##NAMES=Hauerite
##RRUFFID=R070438
##IDEAL CHEMISTRY=Mn^2+^(S_2_)^2-^
##LOCALITY=Machov, Poland
##OWNER=RRUFF
##SOURCE=Michael Scott
##DESCRIPTION=Unconsolidated reddish brown platy fragments, sample was used to make ICDD pattern
##STATUS=The identification of this mineral is confirmed by single-crystal X-ray diffraction and chemical analysis.
##URL=rruff.info/R070438
##MEASURED CHEMISTRY=Mn_1.00_S_2.00_
109.4584, 125.6505
109.9405, 124.3874
110.4226, 124.6126
110.9047, 127.3111
111.3868, 132.2542
111.8690, 138.9927
112.3511, 148.1734
112.8332, 156.9839
113.3153, 162.5911
113.7974, 165.4997
114.2795, 170.4008
114.7617, 180.2595
115.2438, 192.3308
115.7259, 203.2107
116.2080, 212.2693
116.6901, 220.9218
117.1722, 229.9141
117.6544, 239.0805
118.1365, 250.2495
118.6186, 266.2471
119.1007, 283.7018
119.5828, 299.4436
120.0649, 311.8488
120.5471, 324.3586
121.0292, 342.8959
121.5113, 369.7762
121.9934, 396.1627
122.4755, 417.0410
122.9576, 437.2465
123.4398, 461.5065
123.9219, 492.0619
124.4040, 527.0316
124.8861, 561.8477
125.3682, 597.3508
125.8503, 631.6540
126.3325, 661.0518
126.8146, 690.2974
127.2967, 725.8165
127.7788, 771.2359
128.2609, 823.9351
128.7430, 871.5640
129.2252, 909.2462
129.7073, 947.4271
130.1894, 987.2303
130.6715, 1028.776
131.1536, 1072.159
131.6357, 1117.745
132.1179, 1164.985
132.6000, 1209.539
133.0821, 1253.859
133.5642, 1292.594
134.0463, 1320.288
134.5284, 1341.699
135.0106, 1364.501
135.4927, 1393.569
135.9748, 1428.759
136.4569, 1468.302
136.9390, 1514.247
137.4211, 1561.834
137.9033, 1608.731
138.3854, 1656.058
138.8675, 1706.920
139.3496, 1763.435
139.8317, 1825.767
140.3138, 1893.362
140.7960, 1962.501
141.2781, 2038.800
141.7602, 2126.466
142.2423, 2223.719
142.7244, 2324.263
143.2065, 2424.168
143.6887, 2522.988
144.1708, 2622.773
144.6529, 2723.297
145.1350, 2824.435
145.6171, 2925.514
146.0992, 3026.808
146.5814, 3130.472
147.0635, 3240.020
147.5456, 3354.959
148.0277, 3460.083
148.5098, 3554.083
148.9919, 3639.469
149.4741, 3719.103
149.9562, 3793.393
150.4383, 3858.537
150.9204, 3911.211
151.4025, 3950.739
151.8846, 3983.371
152.3668, 4003.385
152.8489, 4020.222
153.3310, 4051.690
153.8131, 4100.036
154.2952, 4128.860
154.7773, 4099.325
155.2595, 4022.403
155.7416, 3946.432
156.2237, 3868.464
156.7058, 3800.061
157.1879, 3756.329
157.6700, 3739.617
158.1522, 3736.587
158.6343, 3740.683
159.1164, 3751.153
159.5985, 3767.807
160.0806, 3791.800
160.5627, 3821.498
161.0449, 3855.288
161.5270, 3893.738
162.0091, 3933.445
162.4912, 3973.289
162.9733, 4012.503
163.4554, 4050.054
163.9376, 4082.603
164.4197, 4113.855
164.9018, 4151.211
165.3839, 4196.844
165.8660, 4242.263
166.3481, 4282.194
166.8303, 4318.358
167.3124, 4353.479
167.7945, 4390.720
168.2766, 4427.099
168.7587, 4455.955
169.2408, 4475.976
169.7230, 4491.278
170.2051, 4500.788
170.6872, 4507.917
171.1693, 4518.219
171.6514, 4535.212
172.1335, 4556.595
172.6157, 4576.027
173.0978, 4591.063
173.5799, 4609.345
174.0620, 4637.297
174.5441, 4669.835
175.0262, 4699.467
175.5084, 4723.005
175.9905, 4741.200
176.4726, 4755.806
176.9547, 4764.771
177.4368, 4773.827
177.9189, 4784.966
178.4010, 4797.540
178.8832, 4810.251
179.3653, 4821.686
179.8474, 4833.757
180.3295, 4853.079
180.8116, 4884.680
181.2937, 4914.786
181.7759, 4940.306
182.2580, 4961.812
182.7401, 4979.090
183.2222, 4991.159
183.7043, 5000.395
184.1864, 5014.338
184.6686, 5037.712
185.1507, 5057.228
185.6328, 5068.510
186.1149, 5074.947
186.5970, 5079.229
187.0791, 5081.722
187.5613, 5085.271
188.0434, 5099.085
188.5255, 5132.838
189.0076, 5159.855
189.4897, 5171.585
189.9718, 5175.876
190.4540, 5180.576
190.9361, 5189.022
191.4182, 5199.895
191.9003, 5209.424
192.3824, 5213.806
192.8645, 5224.206
193.3467, 5243.975
193.8288, 5268.837
194.3109, 5296.347
194.7930, 5325.652
195.2751, 5353.796
195.7572, 5373.080
196.2394, 5375.919
196.7215, 5384.414
197.2036, 5402.386
197.6857, 5425.631
198.1678, 5449.430
198.6499, 5472.391
199.1321, 5498.348
199.6142, 5536.347
200.0963, 5597.862
200.5784, 5648.311
201.0605, 5673.507
201.5426, 5695.489
202.0248, 5730.917
202.5069, 5784.496
202.9890, 5848.652
203.4711, 5911.174
203.9532, 5968.410
204.4353, 6032.386
204.9175, 6104.985
205.3996, 6182.448
205.8817, 6262.784
206.3638, 6345.432
206.8459, 6430.434
207.3280, 6518.452
207.8102, 6608.595
208.2923, 6702.760
208.7744, 6785.750
209.2565, 6883.496
209.7386, 7016.492
210.2207, 7183.494
210.7029, 7364.820
211.1850, 7536.043
211.6671, 7688.144
212.1492, 7860.690
212.6313, 8060.583
213.1134, 8272.218
213.5956, 8488.976
214.0777, 8709.627
214.5598, 8935.921
215.0419, 9167.793
215.5240, 9402.458
216.0061, 9658.486
216.4883, 9945.619
216.9704, 10245.86
217.4525, 10574.79
217.9346, 10915.68
218.4167, 11231.60
218.8988, 11490.90
219.3810, 11692.58
219.8631, 11873.34
220.3452, 11991.97
220.8273, 12129.54
221.3094, 12307.65
221.7915, 12522.07
222.2737, 12761.42
222.7558, 13017.17
223.2379, 13290.89
223.7200, 13576.81
224.2021, 13909.14
224.6842, 14216.63
225.1664, 14484.53
225.6485, 14719.32
226.1306, 14934.17
226.6127, 15137.13
227.0948, 15322.41
227.5770, 15467.29
228.0591, 15586.14
228.5412, 15636.05
229.0233, 15576.93
229.5054, 15462.42
229.9875, 15347.27
230.4697, 15255.42
230.9518, 15184.38
231.4339, 15126.32
231.9160, 15073.37
232.3981, 15051.29
232.8802, 15061.84
233.3624, 15099.73
233.8445, 15154.53
234.3266, 15223.85
234.8087, 15325.24
235.2908, 15490.47
235.7729, 15736.38
236.2551, 16011.63
236.7372, 16296.27
237.2193, 16616.57
237.7014, 16992.82
238.1835, 17428.22
238.6656, 17913.68
239.1478, 18441.58
239.6299, 19014.38
240.1120, 19626.61
240.5941, 20292.71
241.0762, 20985.68
241.5583, 21722.67
242.0405, 22489.30
242.5226, 23230.91
243.0047, 23923.37
243.4868, 24577.82
243.9689, 25057.15
244.4510, 25331.19
244.9332, 25438.65
245.4153, 25405.71
245.8974, 25218.54
246.3795, 24838.64
246.8616, 24209.20
247.3437, 23348.75
247.8259, 22459.58
248.3080, 21510.34
248.7901, 20568.84
249.2722, 19631.36
249.7543, 18716.38
250.2364, 17857.01
250.7186, 17064.53
251.2007, 16337.74
251.6828, 15667.86
252.1649, 15047.03
252.6470, 14501.30
253.1291, 14065.59
253.6113, 13689.13
254.0934, 13325.21
254.5755, 12960.89
255.0576, 12589.06
255.5397, 12196.64
256.0219, 11784.13
256.5040, 11352.21
256.9861, 10853.26
257.4682, 10363.25
257.9503, 9937.444
258.4324, 9588.970
258.9146, 9282.032
259.3967, 8976.824
259.8788, 8671.666
260.3609, 8396.104
260.8430, 8150.803
261.3251, 7942.883
261.8073, 7782.359
262.2894, 7667.218
262.7715, 7564.984
263.2536, 7451.652
263.7357, 7330.302
264.2178, 7220.730
264.7000, 7127.560
265.1821, 7043.170
265.6642, 6960.019
266.1463, 6879.319
266.6284, 6807.131
267.1105, 6753.380
267.5927, 6708.743
268.0748, 6650.506
268.5569, 6572.919
269.0390, 6499.102
269.5211, 6448.971
270.0032, 6413.578
270.4854, 6378.551
270.9675, 6335.837
271.4496, 6295.597
271.9317, 6274.607
272.4138, 6273.600
272.8959, 6263.910
273.3781, 6223.255
273.8602, 6168.619
274.3423, 6133.368
274.8244, 6126.005
275.3065, 6125.342
275.7886, 6120.818
276.2708, 6112.116
276.7529, 6096.747
277.2350, 6071.276
277.7171, 6042.096
278.1992, 6017.783
278.6813, 5996.277
279.1635, 5985.794
279.6456, 6000.392
280.1277, 6025.552
280.6098, 6034.847
281.0919, 6021.312
281.5740, 5998.973
282.0562, 5983.589
282.5383, 5975.847
283.0204, 5967.268
283.5025, 5953.563
283.9846, 5940.772
284.4667, 5932.966
284.9489, 5930.851
285.4310, 5937.750
285.9131, 5962.372
286.3952, 6002.814
286.8773, 6007.810
287.3594, 5939.894
287.8416, 5876.228
288.3237, 5858.456
288.8058, 5875.721
289.2879, 5896.351
289.7700, 5903.152
290.2521, 5899.461
290.7343, 5899.026
291.2164, 5908.024
291.6985, 5912.469
292.1806, 5907.560
292.6627, 5897.909
293.1448, 5888.121
293.6270, 5879.925
294.1091, 5874.590
294.5912, 5875.240
295.0733, 5891.563
295.5554, 5894.699
296.0375, 5870.823
296.5197, 5844.732
297.0018, 5835.107
297.4839, 5843.041
297.9660, 5856.896
298.4481, 5864.824
298.9302, 5865.824
299.4124, 5867.845
299.8945, 5874.373
300.3766, 5878.438
300.8587, 5874.700
301.3408, 5866.617
301.8229, 5861.279
302.3050, 5863.262
302.7871, 5871.833
303.2693, 5884.365
303.7514, 5911.132
304.2335, 5925.819
304.7156, 5913.156
305.1977, 5891.346
305.6798, 5881.253
306.1620, 5890.891
306.6441, 5908.463
307.1262, 5914.165
307.6083, 5904.660
308.0904, 5895.625
308.5725, 5885.548
309.0547, 5879.880
309.5368, 5886.036
310.0189, 5903.215
310.5010, 5918.291
310.9831, 5916.997
311.4652, 5901.208
311.9474, 5891.572
312.4295, 5890.275
312.9116, 5894.688
313.3937, 5906.528
313.8758, 5922.455
314.3579, 5933.407
314.8401, 5932.008
315.3222, 5924.599
315.8043, 5922.671
316.2864, 5927.107
316.7685, 5932.044
317.2506, 5936.920
317.7328, 5939.236
318.2149, 5933.028
318.6970, 5909.443
319.1791, 5891.654
319.6612, 5905.762
320.1433, 5943.465
320.6255, 5966.046
321.1076, 5956.290
321.5897, 5932.144
322.0718, 5922.302
322.5539, 5928.242
323.0360, 5934.398
323.5182, 5936.353
324.0003, 5936.110
324.4824, 5933.209
324.9645, 5927.657
325.4466, 5930.077
325.9287, 5955.833
326.4109, 6008.189
326.8930, 6031.748
327.3751, 5999.432
327.8572, 5964.433
328.3393, 5958.049
328.8214, 5974.522
329.3036, 5992.239
329.7857, 5998.700
330.2678, 5996.455
330.7499, 5996.841
331.2320, 6005.564
331.7141, 6009.830
332.1963, 6002.799
332.6784, 5993.188
333.1605, 5992.123
333.6426, 6002.414
334.1247, 6015.564
334.6068, 6017.167
335.0890, 5997.070
335.5711, 5993.532
336.0532, 6021.747
336.5353, 6051.034
337.0174, 6066.742
337.4995, 6069.199
337.9817, 6065.333
338.4638, 6059.321
338.9459, 6051.669
339.4280, 6047.516
339.9101, 6052.581
340.3922, 6052.436
340.8744, 6035.997
341.3565, 6014.980
341.8386, 6005.293
342.3207, 6013.996
342.8028, 6030.452
343.2849, 6039.694
343.7671, 6041.198
344.2492, 6039.260
344.7313, 6035.490
345.2134, 6027.687
345.6955, 6011.539
346.1776, 5987.253
346.6598, 5966.036
347.1419, 5953.858
347.6240, 5950.123
348.1061, 5956.281
348.5882, 5976.805
349.0703, 5993.639
349.5525, 5984.006
350.0346, 5958.155
350.5167, 5947.321
350.9988, 5971.901
351.4809, 6001.610
351.9630, 6010.128
352.4452, 6000.899
352.9273, 5992.627
353.4094, 5994.419
353.8915, 6002.223
354.3736, 6005.803
354.8557, 6006.123
355.3379, 6001.674
355.8200, 5984.711
356.3021, 5966.116
356.7842, 5963.206
357.2663, 5978.449
357.7484, 5992.779
358.2306, 5981.723
358.7127, 5935.553
359.1948, 5920.056
359.6769, 5961.153
360.1590, 6002.378
360.6411, 6019.599
361.1233, 6017.046
361.6054, 6007.729
362.0875, 5998.932
362.5696, 5990.193
363.0517, 5979.283
363.5338, 5961.083
364.0160, 5949.348
364.4981, 5950.688
364.9802, 5955.254
365.4623, 5950.818
365.9444, 5936.447
366.4265, 5927.550
366.9087, 5949.894
367.3908, 6007.125
367.8729, 6035.809
368.3550, 6014.763
368.8371, 5986.167
369.3192, 5963.616
369.8014, 5950.478
370.2835, 5954.890
370.7656, 5990.149
371.2477, 6037.313
371.7298, 6065.191
372.2119, 6072.892
372.6941, 6068.526
373.1762, 6044.078
373.6583, 6016.386
374.1404, 6014.268
374.6225, 6048.073
375.1046, 6073.197
375.5868, 6055.966
376.0689, 6015.414
376.5510, 5987.342
377.0331, 5978.603
377.5152, 5986.338
377.9973, 6013.094
378.4795, 6061.495
378.9616, 6093.458
379.4437, 6101.556
379.9258, 6099.286
380.4079, 6087.916
380.8900, 6072.141
381.3722, 6062.973
381.8543, 6066.664
382.3364, 6079.905
382.8185, 6093.004
383.3006, 6111.804
383.7827, 6121.994
384.2649, 6119.020
384.7470, 6110.249
385.2291, 6099.936
385.7112, 6089.719
386.1933, 6080.845
386.6754, 6073.180
387.1576, 6066.202
387.6397, 6071.766
388.1218, 6108.623
388.6039, 6136.262
389.0860, 6135.455
389.5681, 6118.583
390.0503, 6105.527
390.5324, 6105.270
391.0145, 6110.641
391.4966, 6107.950
391.9787, 6095.406
392.4608, 6092.928
392.9430, 6115.745
393.4251, 6141.641
393.9072, 6145.895
394.3893, 6128.626
394.8714, 6117.275
395.3535, 6132.572
395.8357, 6159.835
396.3178, 6175.135
396.7999, 6176.158
397.2820, 6169.375
397.7641, 6156.732
398.2462, 6139.759
398.7284, 6126.615
399.2105, 6119.252
399.6926, 6113.542
400.1747, 6100.331
400.6568, 6089.478
401.1389, 6103.543
401.6211, 6150.228
402.1032, 6203.865
402.5853, 6226.481
403.0674, 6207.475
403.5495, 6187.335
404.0316, 6162.132
404.5138, 6139.377
404.9959, 6119.510
405.4780, 6105.198
405.9601, 6103.417
406.4422, 6120.377
406.9243, 6148.949
407.4065, 6163.135
407.8886, 6156.807
408.3707, 6148.272
408.8528, 6141.017
409.3349, 6133.164
409.8170, 6119.538
410.2992, 6100.518
410.7813, 6089.009
411.2634, 6103.286
411.7455, 6136.854
412.2276, 6154.547
412.7097, 6149.611
413.1919, 6139.461
413.6740, 6131.762
414.1561, 6127.682
414.6382, 6131.357
415.1203, 6150.085
415.6024, 6168.793
416.0846, 6173.800
416.5667, 6169.470
417.0488, 6170.642
417.5309, 6183.620
418.0130, 6199.129
418.4951, 6202.722
418.9773, 6189.907
419.4594, 6179.867
419.9415, 6171.396
420.4236, 6167.454
420.9057, 6172.277
421.3878, 6183.744
421.8700, 6194.917
422.3521, 6201.047
422.8342, 6204.128
423.3163, 6213.248
423.7984, 6237.226
424.2805, 6253.278
424.7627, 6252.665
425.2448, 6248.262
425.7269, 6252.402
426.2090, 6265.792
426.6911, 6277.468
427.1732, 6275.036
427.6554, 6259.893
428.1375, 6248.292
428.6196, 6238.484
429.1017, 6235.819
429.5838, 6250.885
430.0659, 6272.567
430.5481, 6282.738
431.0302, 6271.915
431.5123, 6260.125
431.9944, 6265.668
432.4765, 6284.322
432.9586, 6301.690
433.4408, 6314.655
433.9229, 6323.510
434.4050, 6328.000
434.8871, 6327.726
435.3692, 6326.156
435.8513, 6319.207
436.3335, 6314.840
436.8156, 6319.535
437.2977, 6330.862
437.7798, 6343.250
438.2619, 6354.180
438.7440, 6362.180
439.2262, 6362.429
439.7083, 6343.528
440.1904, 6337.654
440.6725, 6358.091
441.1546, 6379.658
441.6367, 6381.147
442.1189, 6366.878
442.6010, 6359.937
443.0831, 6382.126
443.5652, 6423.444
444.0473, 6442.690
444.5294, 6431.164
445.0116, 6421.962
445.4937, 6431.084
445.9758, 6447.071
446.4579, 6455.731
446.9400, 6452.957
447.4221, 6461.728
447.9043, 6511.212
448.3864, 6579.323
448.8685, 6615.281
449.3506, 6610.652
449.8327, 6600.106
450.3148, 6609.165
450.7970, 6636.866
451.2791, 6667.124
451.7612, 6694.078
452.2433, 6730.026
452.7254, 6784.875
453.2076, 6848.970
453.6897, 6910.201
454.1718, 6964.638
454.6539, 7012.057
455.1360, 7048.810
455.6181, 7068.649
456.1003, 7112.962
456.5824, 7200.426
457.0645, 7294.134
457.5466, 7385.856
458.0287, 7475.947
458.5108, 7563.547
458.9930, 7646.417
459.4751, 7736.589
459.9572, 7856.553
460.4393, 8006.326
460.9214, 8151.587
461.4035, 8275.346
461.8857, 8407.662
462.3678, 8573.485
462.8499, 8769.964
463.3320, 8989.951
463.8141, 9241.171
464.2962, 9508.755
464.7784, 9774.749
465.2605, 10043.69
465.7426, 10332.86
466.2247, 10648.23
466.7068, 10991.99
467.1889, 11362.22
467.6711, 11756.62
468.1532, 12190.66
468.6353, 12663.97
469.1174, 13176.66
469.5995, 13724.73
470.0816, 14310.12
470.5638, 14928.67
471.0459, 15579.26
471.5280, 16266.51
472.0101, 17023.38
472.4922, 17856.87
472.9743, 18728.20
473.4565, 19636.70
473.9386, 20573.55
474.4207, 21530.20
474.9028, 22507.29
475.3849, 23526.02
475.8670, 24580.99
476.3492, 25690.04
476.8313, 26906.82
477.3134, 28230.81
477.7955, 29585.17
478.2776, 30934.42
478.7597, 32284.78
479.2419, 33665.49
479.7240, 35057.31
480.2061, 36493.19
480.6882, 37988.35
481.1703, 39523.71
481.6524, 41083.45
482.1346, 42668.92
482.6167, 44285.82
483.0988, 45956.54
483.5809, 47657.43
484.0630, 49302.64
484.5451, 50961.61
485.0273, 52441.38
485.5094, 53788.95
485.9915, 54922.99
486.4736, 55782.61
486.9557, 56359.60
487.4378, 56653.20
487.9200, 56682.98
488.4021, 56429.23
488.8842, 55832.63
489.3663, 54893.08
489.8484, 53608.08
490.3305, 51892.89
490.8127, 49855.38
491.2948, 47756.89
491.7769, 45571.04
492.2590, 43393.09
492.7411, 41226.51
493.2232, 39119.55
493.7054, 37120.37
494.1875, 35244.64
494.6696, 33485.54
495.1517, 31840.75
495.6338, 30311.76
496.1159, 28862.42
496.5981, 27467.87
497.0802, 26210.17
497.5623, 25120.48
498.0444, 24141.00
498.5265, 23243.45
499.0086, 22415.53
499.4908, 21637.59
499.9729, 20894.19
500.4550, 20186.42
500.9371, 19530.36
501.4192, 18925.96
501.9013, 18370.81
502.3835, 17869.64
502.8656, 17414.02
503.3477, 16991.33
503.8298, 16607.42
504.3119, 16237.69
504.7940, 15869.70
505.2762, 15514.08
505.7583, 15186.14
506.2404, 14886.41
506.7225, 14616.07
507.2046, 14375.79
507.6867, 14162.31
508.1689, 13964.37
508.6510, 13793.13
509.1331, 13620.45
509.6152, 13433.95
510.0973, 13253.81
510.5794, 13099.21
511.0616, 12967.71
511.5437, 12840.15
512.0258, 12699.33
512.5079, 12554.98
512.9901, 12436.42
513.4722, 12349.15
513.9543, 12258.69
514.4364, 12151.60
514.9185, 12036.88
515.4006, 11927.34
515.8828, 11823.61
516.3649, 11715.53
516.8470, 11587.96
517.3291, 11463.36
517.8112, 11370.01
518.2933, 11300.43
518.7755, 11215.95
519.2576, 11094.54
519.7397, 10954.94
520.2218, 10843.59
520.7039, 10784.78
521.1860, 10707.12
521.6682, 10596.29
522.1503, 10482.54
522.6324, 10379.93
523.1145, 10287.58
523.5966, 10201.78
524.0787, 10121.42
524.5609, 10043.43
525.0430, 9963.344
525.5251, 9881.160
526.0072, 9797.395
526.4893, 9713.623
526.9714, 9625.759
527.4536, 9527.669
527.9357, 9420.449
528.4178, 9314.812
528.8999, 9215.062
529.3820, 9114.296
529.8641, 9003.434
530.3463, 8889.283
530.8284, 8784.736
531.3105, 8693.864
531.7926, 8617.440
532.2747, 8563.199
532.7568, 8542.158
533.2390, 8472.422
533.7211, 8304.907
534.2032, 8142.982
534.6853, 8018.521
535.1674, 7918.102
535.6495, 7823.335
536.1317, 7729.149
536.6138, 7634.691
537.0959, 7536.343
537.5780, 7437.131
538.0601, 7346.288
538.5422, 7264.941
539.0244, 7195.023
539.5065, 7139.281
539.9886, 7096.895
540.4707, 7064.048
540.9528, 7058.657
541.4349, 7036.924
541.9171, 6970.891
542.3992, 6896.987
542.8813, 6851.497
543.3634, 6835.920
543.8455, 6829.187
544.3276, 6816.687
544.8098, 6797.278
545.2919, 6762.067
545.7740, 6699.517
546.2561, 6653.061
546.7382, 6648.858
547.2203, 6654.019
547.7025, 6642.418
548.1846, 6614.490
548.6666, 6588.479
549.1487, 6571.263
549.6309, 6560.818
550.1130, 6561.826
550.5951, 6569.498
551.0772, 6560.775
551.5593, 6523.971
552.0414, 6479.127
552.5236, 6459.891
553.0057, 6477.637
553.4878, 6482.417
553.9699, 6466.730
554.4520, 6448.101
554.9341, 6428.943
555.4163, 6412.905
555.8984, 6407.180
556.3805, 6414.738
556.8626, 6422.515
557.3447, 6410.384
557.8268, 6381.827
558.3090, 6367.213
558.7911, 6373.329
559.2732, 6380.327
559.7553, 6371.197
560.2374, 6353.673
560.7195, 6352.977
561.2017, 6383.927
561.6838, 6406.049
562.1659, 6404.876
562.6480, 6389.748
563.1301, 6361.490
563.6122, 6326.505
564.0944, 6308.343
564.5765, 6327.741
565.0586, 6370.708
565.5407, 6376.571
566.0228, 6318.197
566.5049, 6291.459
566.9871, 6353.968
567.4692, 6420.096
567.9513, 6429.023
568.4334, 6390.394
568.9155, 6359.997
569.3976, 6370.277
569.8798, 6390.865
570.3619, 6390.934
570.8440, 6375.269
571.3261, 6358.779
571.8082, 6345.657
572.2903, 6336.278
572.7725, 6330.765
573.2546, 6328.729
573.7367, 6334.393
574.2188, 6353.992
574.7009, 6373.521
575.1830, 6393.937
575.6652, 6410.142
576.1473, 6415.390
576.6294, 6408.798
577.1115, 6398.070
577.5936, 6389.150
578.0757, 6381.689
578.5579, 6373.278
579.0400, 6363.174
579.5221, 6358.839
580.0042, 6365.350
580.4863, 6378.187
580.9684, 6390.170
581.4506, 6403.402
581.9327, 6408.353
582.4148, 6396.316
582.8969, 6382.228
583.3790, 6374.314
583.8611, 6372.497
584.3433, 6375.896
584.8254, 6384.198
585.3075, 6393.042
585.7896, 6395.493
586.2717, 6391.178
586.7538, 6382.956
587.2360, 6362.192
587.7181, 6352.021
588.2002, 6382.862
588.6823, 6428.356
589.1644, 6442.178
589.6465, 6406.680
590.1287, 6370.151
590.6108, 6358.280
591.0929, 6357.067
591.5750, 6346.326
592.0571, 6326.608
592.5392, 6314.730
593.0214, 6322.875
593.5035, 6343.879
593.9856, 6356.420
594.4677, 6360.756
594.9498, 6355.856
595.4319, 6327.979
595.9141, 6303.253
596.3962, 6296.205
596.8783, 6302.821
597.3604, 6311.900
597.8425, 6320.144
598.3246, 6327.927
598.8068, 6339.699
599.2889, 6350.958
599.7710, 6347.290
600.2531, 6325.849
600.7352, 6301.528
601.2173, 6284.986
601.6995, 6276.910
602.1816, 6283.210
602.6637, 6326.476
603.1458, 6353.081
603.6279, 6345.510
604.1100, 6330.797
604.5922, 6331.265
605.0743, 6344.568
605.5564, 6352.421
606.0385, 6343.271
