##NAMES=Hauerite
##RRUFFID=R070506
##IDEAL CHEMISTRY=Mn^2+^(S_2_)^2-^
##LOCALITY=Destricella mine, Raddusa, Catania Province, Italy
##OWNER=RRUFF
##SOURCE=James Shigley
##DESCRIPTION=Metallic brownish-gray octahedral crystal
##STATUS=The identification of this mineral is confirmed by single-crystal X-ray diffraction and chemical analysis.
##URL=rruff.info/R070506
##MEASURED CHEMISTRY=Mn_1.00_S_2.00_
148.7090, 5406.345
149.1911, 5443.676
149.6732, 5485.563
150.1554, 5541.014
150.6375, 5596.728
151.1196, 5638.997
151.6017, 5645.629
152.0838, 5661.443
152.5659, 5695.092
153.0481, 5750.288
153.5302, 5810.210
154.0123, 5884.811
154.4944, 5961.279
154.9765, 6021.990
155.4586, 6046.259
155.9408, 6069.987
156.4229, 6104.986
156.9050, 6129.638
157.3871, 6133.041
157.8692, 6138.505
158.3513, 6150.058
158.8335, 6169.515
159.3156, 6215.588
159.7977, 6257.883
160.2798, 6279.829
160.7619, 6266.600
161.2440, 6249.239
161.7262, 6231.241
162.2083, 6214.800
162.6904, 6209.635
163.1725, 6238.531
163.6546, 6270.713
164.1367, 6281.715
164.6189, 6243.485
165.1010, 6200.681
165.5831, 6172.762
166.0652, 6159.252
166.5473, 6151.536
167.0294, 6149.183
167.5116, 6148.675
167.9937, 6145.903
168.4758, 6134.589
168.9579, 6123.267
169.4400, 6115.668
169.9221, 6111.271
170.4043, 6115.831
170.8864, 6140.595
171.3685, 6176.643
171.8506, 6208.044
172.3327, 6227.146
172.8148, 6237.670
173.2970, 6242.622
173.7791, 6242.021
174.2612, 6237.508
174.7433, 6228.060
175.2254, 6215.502
175.7076, 6204.910
176.1897, 6200.420
176.6718, 6199.578
177.1539, 6198.996
177.6360, 6198.553
178.1181, 6197.677
178.6003, 6194.377
179.0824, 6189.323
179.5645, 6186.574
180.0466, 6192.946
180.5287, 6203.599
181.0108, 6207.499
181.4930, 6199.835
181.9751, 6186.352
182.4572, 6174.878
182.9393, 6165.269
183.4214, 6158.465
183.9035, 6156.865
184.3857, 6158.966
184.8678, 6159.715
185.3499, 6154.962
185.8320, 6148.439
186.3141, 6151.173
186.7962, 6164.011
187.2784, 6177.017
187.7605, 6179.119
188.2426, 6171.469
188.7247, 6161.322
189.2068, 6145.878
189.6889, 6129.229
190.1711, 6130.868
190.6532, 6153.905
191.1353, 6183.098
191.6174, 6195.735
192.0995, 6192.423
192.5816, 6190.798
193.0638, 6201.920
193.5459, 6223.724
194.0280, 6239.164
194.5101, 6247.772
194.9922, 6250.543
195.4743, 6246.703
195.9565, 6235.886
196.4386, 6227.283
196.9207, 6226.729
197.4028, 6234.149
197.8849, 6243.648
198.3671, 6256.669
198.8492, 6269.774
199.3313, 6273.451
199.8134, 6266.113
200.2955, 6258.049
200.7776, 6256.337
201.2598, 6261.365
201.7419, 6263.556
202.2240, 6257.797
202.7061, 6250.138
203.1882, 6266.288
203.6703, 6313.467
204.1525, 6360.354
204.6346, 6382.215
205.1167, 6375.419
205.5988, 6366.882
206.0809, 6358.933
206.5630, 6352.469
207.0452, 6354.722
207.5273, 6369.324
208.0094, 6384.470
208.4915, 6386.588
208.9736, 6370.317
209.4557, 6365.847
209.9379, 6381.930
210.4200, 6417.129
210.9021, 6451.605
211.3842, 6489.272
211.8663, 6520.085
212.3484, 6528.523
212.8306, 6505.059
213.3127, 6492.021
213.7948, 6503.358
214.2769, 6540.140
214.7590, 6565.423
215.2411, 6573.468
215.7233, 6577.026
216.2054, 6594.327
216.6875, 6633.349
217.1696, 6664.172
217.6517, 6675.217
218.1338, 6662.680
218.6160, 6660.268
219.0981, 6673.530
219.5802, 6691.568
220.0623, 6698.139
220.5444, 6691.887
221.0265, 6676.715
221.5087, 6649.305
221.9908, 6601.913
222.4729, 6576.786
222.9550, 6581.557
223.4371, 6603.446
223.9192, 6619.399
224.4014, 6626.502
224.8835, 6632.963
225.3656, 6643.191
225.8477, 6661.902
226.3298, 6668.628
226.8119, 6655.000
227.2941, 6632.925
227.7762, 6632.016
228.2583, 6668.396
228.7404, 6698.720
229.2225, 6700.592
229.7046, 6654.413
230.1868, 6628.187
230.6689, 6631.056
231.1510, 6651.748
231.6331, 6659.093
232.1152, 6647.007
232.5974, 6630.575
233.0795, 6615.674
233.5616, 6600.229
234.0437, 6592.049
234.5258, 6592.795
235.0079, 6601.270
235.4901, 6614.073
235.9722, 6638.047
236.4543, 6657.567
236.9364, 6662.102
237.4185, 6637.763
237.9006, 6629.639
238.3828, 6646.596
238.8649, 6681.894
239.3470, 6706.952
239.8291, 6717.152
240.3112, 6722.326
240.7933, 6726.158
241.2755, 6721.156
241.7576, 6730.832
242.2397, 6762.625
242.7218, 6811.455
243.2039, 6851.858
243.6860, 6888.756
244.1682, 6910.750
244.6503, 6906.691
245.1324, 6857.391
245.6145, 6824.275
246.0966, 6819.663
246.5787, 6838.215
247.0609, 6842.655
247.5430, 6825.775
248.0251, 6804.107
248.5072, 6790.004
248.9893, 6791.251
249.4714, 6782.616
249.9536, 6754.703
250.4357, 6711.427
250.9178, 6689.369
251.3999, 6698.783
251.8820, 6716.445
252.3641, 6725.273
252.8463, 6721.007
253.3284, 6717.609
253.8105, 6717.760
254.2926, 6720.860
254.7747, 6721.218
255.2568, 6720.309
255.7390, 6714.853
256.2211, 6701.294
256.7032, 6676.170
257.1853, 6651.109
257.6674, 6624.541
258.1495, 6597.811
258.6317, 6589.613
259.1138, 6609.173
259.5959, 6634.126
260.0780, 6645.753
260.5601, 6640.084
261.0422, 6630.980
261.5244, 6618.172
262.0065, 6602.483
262.4886, 6596.834
262.9707, 6608.156
263.4528, 6618.545
263.9349, 6608.214
264.4171, 6562.829
264.8992, 6540.029
265.3813, 6558.289
265.8634, 6611.485
266.3455, 6635.365
266.8276, 6618.628
267.3098, 6593.355
267.7919, 6587.971
268.2740, 6608.267
268.7561, 6628.484
269.2382, 6646.846
269.7203, 6662.008
270.2025, 6658.792
270.6846, 6628.728
271.1667, 6598.063
271.6488, 6593.073
272.1309, 6620.927
272.6130, 6640.243
273.0952, 6638.049
273.5773, 6620.191
274.0594, 6629.036
274.5415, 6674.205
275.0236, 6720.132
275.5057, 6732.982
275.9879, 6708.638
276.4700, 6680.151
276.9521, 6651.638
277.4342, 6624.072
277.9163, 6600.990
278.3984, 6581.396
278.8806, 6569.890
279.3627, 6570.633
279.8448, 6583.762
280.3269, 6607.921
280.8090, 6650.346
281.2911, 6701.107
281.7733, 6721.197
282.2554, 6706.948
282.7375, 6679.439
283.2196, 6649.179
283.7017, 6616.113
284.1838, 6601.518
284.6660, 6615.112
285.1481, 6646.429
285.6302, 6665.650
286.1123, 6672.188
286.5944, 6672.107
287.0765, 6669.272
287.5587, 6663.837
288.0408, 6656.049
288.5229, 6644.059
289.0050, 6631.628
289.4871, 6626.769
289.9692, 6629.479
290.4514, 6639.622
290.9335, 6665.397
291.4156, 6702.006
291.8977, 6721.331
292.3798, 6715.200
292.8619, 6693.589
293.3441, 6671.049
293.8262, 6647.684
294.3083, 6632.071
294.7904, 6634.290
295.2726, 6649.641
295.7547, 6663.374
296.2368, 6672.988
296.7189, 6679.648
297.2010, 6684.804
297.6831, 6688.449
298.1653, 6690.433
298.6474, 6689.746
299.1295, 6687.390
299.6116, 6685.280
300.0937, 6683.428
300.5758, 6682.638
301.0580, 6687.382
301.5401, 6695.514
302.0222, 6697.601
302.5043, 6679.223
302.9864, 6653.132
303.4685, 6640.547
303.9507, 6646.893
304.4328, 6660.352
304.9149, 6672.279
305.3970, 6682.120
305.8791, 6688.339
306.3612, 6682.671
306.8434, 6675.996
307.3255, 6683.423
307.8076, 6710.282
308.2897, 6737.519
308.7718, 6746.290
309.2539, 6743.354
309.7361, 6743.788
310.2182, 6759.233
310.7003, 6778.667
311.1824, 6792.059
311.6645, 6797.330
312.1466, 6801.646
312.6288, 6810.503
313.1109, 6821.248
313.5930, 6829.600
314.0751, 6838.771
314.5572, 6841.554
315.0393, 6828.902
315.5215, 6797.574
316.0036, 6773.355
316.4857, 6777.455
316.9678, 6793.243
317.4499, 6798.851
317.9320, 6764.499
318.4142, 6737.722
318.8963, 6745.500
319.3784, 6791.619
319.8605, 6832.223
320.3426, 6847.651
320.8247, 6852.343
321.3069, 6860.788
321.7890, 6884.327
322.2711, 6904.214
322.7532, 6911.386
323.2353, 6905.375
323.7174, 6905.660
324.1996, 6927.338
324.6817, 6950.557
325.1638, 6959.604
325.6459, 6930.022
326.1280, 6910.791
326.6101, 6919.743
327.0923, 6954.042
327.5744, 6966.522
328.0565, 6929.131
328.5386, 6886.810
329.0207, 6866.253
329.5028, 6882.180
329.9850, 6901.872
330.4671, 6932.242
330.9492, 6967.971
331.4313, 6980.433
331.9134, 6946.201
332.3955, 6913.254
332.8777, 6909.363
333.3598, 6963.917
333.8419, 6987.628
334.3240, 6958.974
334.8061, 6901.235
335.2882, 6883.471
335.7704, 6923.614
336.2525, 6972.342
336.7346, 7010.741
337.2167, 7039.994
337.6988, 7050.771
338.1809, 7035.162
338.6631, 7007.921
339.1452, 6999.896
339.6273, 7016.688
340.1094, 7032.849
340.5915, 7038.418
341.0736, 7032.945
341.5558, 7024.365
342.0379, 7012.089
342.5200, 6998.080
343.0021, 6982.765
343.4842, 6965.854
343.9663, 6955.304
344.4485, 6954.490
344.9306, 6962.866
345.4127, 6979.504
345.8948, 7006.251
346.3769, 7031.585
346.8590, 7037.010
347.3412, 7026.178
347.8233, 7026.281
348.3054, 7053.076
348.7875, 7092.546
349.2696, 7107.562
349.7517, 7098.070
350.2339, 7087.304
350.7160, 7100.916
351.1981, 7128.576
351.6802, 7142.918
352.1623, 7129.111
352.6444, 7108.307
353.1266, 7108.820
353.6087, 7128.027
354.0908, 7152.470
354.5729, 7181.317
355.0550, 7207.104
355.5371, 7218.740
356.0193, 7211.394
356.5014, 7196.167
356.9835, 7176.087
357.4656, 7155.118
357.9477, 7143.632
358.4298, 7158.623
358.9120, 7178.685
359.3941, 7185.899
359.8762, 7175.752
360.3583, 7162.727
360.8404, 7151.286
361.3225, 7142.654
361.8047, 7138.496
362.2868, 7131.946
362.7689, 7135.985
363.2510, 7163.806
363.7331, 7220.327
364.2152, 7263.502
364.6974, 7269.674
365.1795, 7260.035
365.6616, 7256.279
366.1437, 7278.928
366.6258, 7291.091
367.1079, 7273.903
367.5901, 7227.531
368.0722, 7204.010
368.5543, 7232.982
369.0364, 7271.328
369.5185, 7289.790
370.0006, 7264.343
370.4828, 7251.040
370.9649, 7259.744
371.4470, 7285.168
371.9291, 7301.418
372.4112, 7297.537
372.8933, 7297.623
373.3755, 7316.213
373.8576, 7367.943
374.3397, 7400.399
374.8218, 7404.668
375.3039, 7393.190
375.7861, 7394.178
376.2682, 7412.038
376.7503, 7429.296
377.2324, 7439.178
377.7145, 7441.437
378.1967, 7436.989
378.6788, 7422.289
379.1609, 7408.718
379.6430, 7418.223
380.1251, 7452.618
380.6072, 7473.804
381.0894, 7461.478
381.5715, 7426.241
382.0536, 7413.954
382.5357, 7426.450
383.0178, 7445.437
383.4999, 7456.079
383.9821, 7459.011
384.4642, 7455.541
384.9463, 7439.606
385.4284, 7424.353
385.9105, 7439.310
386.3926, 7479.717
386.8748, 7510.005
387.3569, 7491.496
387.8390, 7450.520
388.3211, 7430.908
388.8032, 7445.875
389.2853, 7467.871
389.7675, 7475.054
390.2496, 7470.462
390.7317, 7461.306
391.2138, 7449.407
391.6959, 7435.930
392.1780, 7420.795
392.6602, 7403.592
393.1423, 7388.892
393.6244, 7379.621
394.1065, 7374.052
394.5886, 7369.868
395.0707, 7362.267
395.5529, 7359.805
396.0350, 7369.640
396.5171, 7391.568
396.9992, 7406.633
397.4813, 7403.713
397.9634, 7396.085
398.4456, 7392.929
398.9277, 7403.630
399.4098, 7409.033
399.8919, 7401.958
400.3740, 7386.566
400.8561, 7381.500
401.3383, 7402.417
401.8204, 7417.201
402.3025, 7408.540
402.7846, 7353.814
403.2667, 7332.103
403.7488, 7360.253
404.2310, 7410.371
404.7131, 7432.003
405.1952, 7415.257
405.6773, 7397.222
406.1594, 7389.801
406.6415, 7392.960
407.1237, 7397.830
407.6058, 7404.677
408.0879, 7412.121
408.5700, 7418.353
409.0521, 7423.271
409.5342, 7429.357
410.0164, 7438.708
410.4985, 7448.347
410.9806, 7447.887
411.4627, 7437.256
411.9448, 7428.721
412.4269, 7432.393
412.9091, 7445.287
413.3912, 7460.108
413.8733, 7477.647
414.3554, 7492.133
414.8375, 7494.773
415.3196, 7488.312
415.8018, 7480.744
416.2839, 7476.867
416.7660, 7473.875
417.2481, 7467.363
417.7302, 7456.499
418.2123, 7449.760
418.6945, 7428.467
419.1766, 7462.516
419.6587, 7483.358
420.1408, 7491.706
420.6229, 7450.131
421.1050, 7473.021
421.5872, 7470.076
422.0693, 7466.072
422.5514, 7498.034
423.0335, 7463.721
423.5156, 7495.112
423.9977, 7500.276
424.4799, 7517.444
424.9620, 7508.618
425.4441, 7507.820
425.9262, 7533.024
426.4083, 7543.831
426.8904, 7532.013
427.3726, 7549.944
427.8547, 7514.723
428.3368, 7526.143
428.8189, 7557.687
429.3010, 7547.175
429.7831, 7565.581
430.2653, 7572.974
430.7474, 7530.315
431.2295, 7574.700
431.7116, 7581.442
432.1937, 7549.532
432.6758, 7590.935
433.1580, 7564.354
433.6401, 7562.039
434.1222, 7577.985
434.6043, 7574.894
435.0864, 7601.818
435.5685, 7599.826
436.0507, 7595.252
436.5328, 7601.952
437.0149, 7576.703
437.4970, 7610.724
437.9791, 7604.259
438.4612, 7617.919
438.9434, 7636.141
439.4255, 7619.435
439.9076, 7639.706
440.3897, 7602.634
440.8718, 7613.542
441.3539, 7619.285
441.8361, 7655.696
442.3182, 7618.904
442.8003, 7628.479
443.2824, 7657.798
443.7645, 7659.492
444.2466, 7672.736
444.7288, 7651.787
445.2109, 7662.960
445.6930, 7676.318
446.1751, 7680.827
446.6572, 7680.875
447.1393, 7677.896
447.6215, 7656.016
448.1036, 7647.210
448.5857, 7666.296
449.0678, 7718.268
449.5499, 7746.627
450.0320, 7737.351
450.5142, 7718.841
450.9963, 7714.709
451.4784, 7730.353
451.9605, 7746.544
452.4426, 7763.389
452.9247, 7778.296
453.4069, 7780.446
453.8890, 7766.147
454.3711, 7757.384
454.8532, 7768.733
455.3353, 7798.481
455.8174, 7826.478
456.2996, 7852.724
456.7817, 7874.345
457.2638, 7885.990
457.7459, 7889.178
458.2281, 7890.921
458.7102, 7892.517
459.1923, 7894.746
459.6744, 7899.250
460.1565, 7905.959
460.6386, 7913.095
461.1208, 7919.266
461.6029, 7925.870
462.0850, 7935.100
462.5671, 7949.561
463.0492, 7962.952
463.5313, 7969.333
464.0135, 7972.803
464.4956, 7980.996
464.9777, 8000.845
465.4598, 8022.524
465.9419, 8042.254
466.4240, 8059.819
466.9062, 8075.906
467.3883, 8083.458
467.8704, 8093.041
468.3525, 8113.276
468.8346, 8144.529
469.3167, 8185.065
469.7989, 8242.562
470.2810, 8308.319
470.7631, 8352.163
471.2452, 8364.125
471.7273, 8372.975
472.2094, 8390.535
472.6916, 8417.032
473.1737, 8450.782
473.6558, 8492.774
474.1379, 8540.493
474.6200, 8595.907
475.1021, 8658.477
475.5843, 8710.628
476.0664, 8741.614
476.5485, 8763.938
477.0306, 8802.908
477.5127, 8858.211
477.9948, 8925.046
478.4770, 9006.651
478.9591, 9095.503
479.4412, 9179.935
479.9233, 9258.220
480.4054, 9332.024
480.8875, 9395.447
481.3697, 9456.127
481.8518, 9526.788
482.3339, 9626.667
482.8160, 9725.291
483.2981, 9808.153
483.7802, 9875.521
484.2624, 9932.877
484.7445, 9986.922
485.2266, 10029.39
485.7087, 10055.00
486.1908, 10057.16
486.6729, 10050.50
487.1551, 10029.96
487.6372, 10002.67
488.1193, 9984.601
488.6014, 9992.542
489.0835, 9981.655
489.5656, 9938.146
490.0478, 9862.512
490.5299, 9764.658
491.0120, 9634.109
491.4941, 9507.319
491.9762, 9419.942
492.4583, 9372.362
492.9405, 9322.681
493.4226, 9266.029
493.9047, 9200.727
494.3868, 9110.386
494.8689, 9001.267
495.3510, 8910.985
495.8332, 8879.701
496.3153, 8873.480
496.7974, 8833.373
497.2795, 8756.010
497.7616, 8685.703
498.2437, 8666.525
498.7259, 8668.983
499.2080, 8656.097
499.6901, 8608.433
500.1722, 8554.315
500.6543, 8499.646
501.1364, 8448.367
501.6186, 8410.133
502.1007, 8395.221
502.5828, 8388.305
503.0649, 8382.411
503.5470, 8374.977
504.0291, 8379.088
504.5113, 8409.392
504.9934, 8441.257
505.4755, 8451.500
505.9576, 8431.221
506.4397, 8408.786
506.9218, 8383.528
507.4040, 8360.217
507.8861, 8358.648
508.3682, 8383.648
508.8503, 8406.321
509.3324, 8407.553
509.8145, 8390.413
510.2967, 8382.135
510.7788, 8383.204
511.2609, 8391.223
511.7430, 8412.224
512.2252, 8438.790
512.7073, 8448.334
513.1894, 8424.724
513.6715, 8394.056
514.1536, 8383.423
514.6357, 8389.392
515.1179, 8400.050
515.6000, 8417.806
516.0821, 8431.882
516.5642, 8430.282
517.0463, 8407.638
517.5284, 8396.283
518.0106, 8423.956
518.4927, 8460.427
518.9748, 8475.823
519.4569, 8434.185
519.9390, 8409.757
520.4211, 8420.926
520.9033, 8455.955
521.3854, 8470.747
521.8675, 8455.571
522.3496, 8436.273
522.8317, 8420.727
523.3138, 8408.124
523.7960, 8410.550
524.2781, 8431.887
524.7602, 8458.166
525.2423, 8478.269
525.7244, 8491.846
526.2065, 8490.274
526.6887, 8465.313
527.1708, 8434.050
527.6529, 8427.645
528.1350, 8442.134
528.6171, 8459.084
529.0992, 8468.576
529.5814, 8474.412
530.0635, 8480.967
530.5456, 8488.363
531.0277, 8494.668
531.5098, 8502.233
531.9919, 8505.987
532.4741, 8500.524
532.9562, 8466.542
533.4383, 8444.817
533.9204, 8452.070
534.4025, 8479.139
534.8846, 8502.242
535.3668, 8523.089
535.8489, 8536.300
536.3310, 8540.745
536.8131, 8536.475
537.2952, 8522.604
537.7773, 8490.980
538.2595, 8464.492
538.7416, 8467.388
539.2237, 8504.008
539.7058, 8526.577
540.1879, 8527.732
540.6700, 8517.479
541.1522, 8511.990
541.6343, 8510.640
542.1164, 8509.338
542.5985, 8503.976
543.0806, 8498.080
543.5627, 8494.719
544.0449, 8494.249
544.5270, 8503.058
545.0091, 8534.564
545.4912, 8572.916
545.9733, 8603.528
546.4554, 8625.616
546.9376, 8634.130
547.4197, 8614.788
547.9018, 8583.626
548.3839, 8564.324
548.8660, 8570.341
549.3481, 8579.459
549.8303, 8589.271
550.3124, 8599.353
550.7945, 8605.209
551.2766, 8609.645
551.7587, 8605.986
552.2408, 8584.351
552.7230, 8536.767
553.2051, 8524.622
553.6872, 8558.348
554.1693, 8601.969
554.6514, 8603.128
555.1335, 8566.789
555.6157, 8546.543
556.0978, 8564.273
556.5799, 8594.983
557.0620, 8594.296
557.5441, 8569.019
558.0262, 8549.690
558.5084, 8563.030
558.9905, 8585.532
559.4726, 8598.711
559.9547, 8601.317
560.4368, 8590.006
560.9189, 8538.889
561.4011, 8486.421
561.8832, 8465.765
562.3653, 8521.519
562.8474, 8562.409
563.3295, 8566.109
563.8116, 8549.385
564.2938, 8543.199
564.7759, 8551.105
565.2580, 8564.243
565.7401, 8585.777
566.2222, 8613.459
566.7043, 8612.225
567.1865, 8575.383
567.6686, 8535.104
568.1507, 8514.176
568.6328, 8510.908
569.1149, 8516.093
569.5970, 8530.938
570.0792, 8545.040
570.5613, 8542.770
571.0434, 8530.146
571.5255, 8521.007
572.0076, 8520.168
572.4897, 8525.226
572.9719, 8539.968
573.4540, 8560.589
573.9361, 8572.367
574.4182, 8556.338
574.9003, 8540.290
575.3824, 8542.176
575.8646, 8570.096
576.3467, 8584.306
576.8288, 8577.301
577.3109, 8558.854
577.7930, 8533.687
578.2751, 8491.267
578.7573, 8469.841
579.2394, 8479.553
579.7215, 8505.513
580.2036, 8516.695
580.6857, 8512.040
581.1678, 8506.568
581.6500, 8508.911
582.1321, 8513.968
582.6142, 8502.023
583.0963, 8474.564
583.5784, 8453.554
584.0605, 8462.624
584.5427, 8484.731
585.0248, 8497.245
585.5069, 8495.940
585.9890, 8490.394
586.4711, 8479.026
586.9532, 8469.360
587.4354, 8470.217
587.9175, 8495.391
588.3996, 8518.200
588.8817, 8533.579
589.3638, 8542.082
589.8459, 8546.551
590.3281, 8546.965
590.8102, 8542.426
591.2923, 8529.324
591.7744, 8507.474
592.2565, 8500.271
592.7386, 8510.612
593.2208, 8525.062
593.7029, 8530.795
594.1850, 8529.705
594.6671, 8537.506
595.1492, 8559.087
595.6313, 8578.241
596.1135, 8569.359
596.5956, 8543.494
597.0777, 8525.091
597.5598, 8525.837
598.0419, 8535.774
598.5240, 8552.645
599.0062, 8574.079
599.4883, 8591.752
599.9704, 8601.795
600.4525, 8608.277
600.9346, 8613.455
601.4167, 8618.230
601.8989, 8615.896
602.3810, 8598.436
602.8631, 8581.724
603.3452, 8578.867
603.8273, 8594.156
604.3094, 8605.178
604.7916, 8609.609
605.2737, 8610.170
605.7558, 8606.013
606.2379, 8598.670
606.7200, 8608.654
607.2021, 8658.453
607.6843, 8715.851
608.1664, 8721.303
608.6485, 8684.103
609.1306, 8649.140
609.6127, 8641.269
610.0948, 8649.348
610.5770, 8670.853
611.0591, 8707.289
611.5412, 8731.665
612.0233, 8726.479
612.5054, 8710.409
612.9875, 8697.563
613.4697, 8693.304
613.9518, 8685.920
614.4339, 8671.891
614.9160, 8656.885
615.3981, 8649.029
615.8802, 8647.316
616.3624, 8658.876
616.8445, 8693.813
617.3266, 8737.971
617.8087, 8741.798
618.2908, 8707.145
618.7729, 8675.833
619.2551, 8680.399
619.7372, 8701.660
620.2193, 8705.643
620.7014, 8690.910
621.1835, 8681.462
621.6656, 8701.969
622.1478, 8731.079
622.6299, 8748.533
623.1120, 8745.815
623.5941, 8741.519
624.0762, 8740.657
624.5583, 8740.971
625.0405, 8738.973
625.5226, 8731.566
626.0047, 8727.405
626.4868, 8729.971
626.9689, 8736.058
627.4510, 8730.655
627.9332, 8709.645
628.4153, 8699.896
628.8974, 8723.774
629.3795, 8768.894
629.8616, 8788.481
630.3438, 8782.610
630.8259, 8765.853
631.3080, 8742.043
631.7901, 8717.310
632.2722, 8699.152
632.7543, 8688.358
633.2365, 8687.154
633.7186, 8707.133
634.2007, 8733.306
634.6828, 8748.804
635.1649, 8754.065
635.6470, 8743.456
636.1292, 8700.104
636.6113, 8643.436
637.0934, 8619.722
637.5755, 8639.389
638.0576, 8668.295
638.5397, 8703.145
639.0219, 8738.830
639.5040, 8741.684
639.9861, 8709.389
640.4682, 8678.807
640.9503, 8682.996
641.4324, 8706.125
641.9146, 8710.345
642.3967, 8692.300
642.8788, 8675.466
643.3609, 8679.547
643.8430, 8694.107
644.3251, 8707.998
644.8073, 8719.528
645.2894, 8728.236
