##NAMES=Hauerite
##RRUFFID=R070506
##IDEAL CHEMISTRY=Mn^2+^(S_2_)^2-^
##LOCALITY=Destricella mine, Raddusa, Catania Province, Italy
##OWNER=RRUFF
##SOURCE=James Shigley
##DESCRIPTION=Metallic brownish-gray octahedral crystal
##STATUS=The identification of this mineral is confirmed by single-crystal X-ray diffraction and chemical analysis.
##URL=rruff.info/R070506
##MEASURED CHEMISTRY=Mn_1.00_S_2.00_
146.4701, 9769.624
146.9522, 10096.77
147.4343, 10381.99
147.9164, 10659.79
148.3985, 10959.58
148.8806, 11256.07
149.3628, 11515.52
149.8449, 11718.44
150.3270, 11879.76
150.8091, 12052.25
151.2912, 12277.33
151.7733, 12445.49
152.2555, 12504.83
152.7376, 12503.47
153.2197, 12508.25
153.7018, 12561.29
154.1839, 12645.84
154.6660, 12678.15
155.1481, 12601.66
155.6303, 12541.23
156.1124, 12530.98
156.5945, 12554.41
157.0766, 12584.10
157.5587, 12601.64
158.0408, 12611.19
158.5230, 12644.55
159.0051, 12700.04
159.4872, 12786.33
159.9693, 12912.74
160.4514, 13014.93
160.9335, 13081.67
161.4157, 13131.71
161.8978, 13166.44
162.3799, 13200.82
162.8620, 13239.97
163.3441, 13274.82
163.8262, 13304.38
164.3084, 13329.58
164.7905, 13352.94
165.2726, 13377.36
165.7547, 13403.11
166.2368, 13416.29
166.7189, 13412.96
167.2011, 13405.07
167.6832, 13393.77
168.1653, 13381.36
168.6474, 13372.50
169.1295, 13372.23
169.6116, 13380.66
170.0938, 13370.18
170.5759, 13334.57
171.0580, 13290.01
171.5401, 13235.41
172.0222, 13175.34
172.5043, 13115.45
172.9865, 13057.43
173.4686, 13000.76
173.9507, 12973.28
174.4328, 12997.54
174.9149, 13021.44
175.3970, 13021.29
175.8792, 13004.73
176.3613, 12996.01
176.8434, 13015.32
177.3255, 13062.58
177.8076, 13082.54
178.2897, 13046.67
178.7719, 13016.96
179.2540, 13018.28
179.7361, 13045.26
180.2182, 13081.44
180.7003, 13117.10
181.1824, 13152.46
181.6646, 13167.33
182.1467, 13134.60
182.6288, 13113.50
183.1109, 13140.46
183.5930, 13200.77
184.0751, 13251.11
184.5573, 13257.91
185.0394, 13222.57
185.5215, 13209.13
186.0036, 13219.03
186.4857, 13243.06
186.9678, 13291.09
187.4500, 13352.50
187.9321, 13398.02
188.4142, 13404.67
188.8963, 13375.14
189.3784, 13370.22
189.8605, 13402.24
190.3427, 13439.91
190.8248, 13474.50
191.3069, 13505.00
191.7890, 13531.05
192.2711, 13551.33
192.7532, 13566.68
193.2354, 13587.66
193.7175, 13614.76
194.1996, 13645.52
194.6817, 13681.28
195.1638, 13720.29
195.6459, 13758.25
196.1281, 13792.20
196.6102, 13822.91
197.0923, 13856.00
197.5744, 13884.26
198.0565, 13921.86
198.5386, 13970.89
199.0208, 14033.16
199.5029, 14115.22
199.9850, 14225.86
200.4671, 14356.71
200.9492, 14461.19
201.4313, 14524.23
201.9135, 14584.38
202.3956, 14645.66
202.8777, 14712.41
203.3598, 14793.86
203.8419, 14894.81
204.3240, 15013.22
204.8061, 15142.07
205.2883, 15289.38
205.7704, 15436.08
206.2525, 15568.94
206.7346, 15697.83
207.2167, 15841.46
207.6988, 16007.66
208.1810, 16193.28
208.6631, 16386.37
209.1452, 16590.92
209.6273, 16796.13
210.1094, 16987.96
210.5915, 17180.80
211.0737, 17396.40
211.5558, 17642.08
212.0379, 17917.24
212.5200, 18224.30
213.0021, 18591.22
213.4842, 18942.60
213.9664, 19253.91
214.4485, 19546.50
214.9306, 19850.58
215.4127, 20175.96
215.8948, 20517.35
216.3769, 20867.66
216.8591, 21226.41
217.3412, 21593.56
217.8233, 21979.61
218.3054, 22369.09
218.7875, 22748.10
219.2696, 23114.27
219.7518, 23459.85
220.2339, 23768.28
220.7160, 23991.13
221.1981, 24275.42
221.6802, 24671.22
222.1623, 25108.67
222.6445, 25523.88
223.1266, 25902.61
223.6087, 26259.35
224.0908, 26614.36
224.5729, 26977.91
225.0550, 27308.97
225.5372, 27643.84
226.0193, 27925.00
226.5014, 28100.86
226.9835, 28166.46
227.4656, 28168.72
227.9477, 28159.63
228.4298, 28145.65
228.9120, 28081.81
229.3941, 27942.54
229.8762, 27778.65
230.3583, 27611.57
230.8404, 27447.78
231.3225, 27293.94
231.8047, 27155.58
232.2868, 27031.73
232.7689, 26930.45
233.2510, 26835.15
233.7331, 26771.58
234.2152, 26749.09
234.6974, 26768.30
235.1795, 26829.31
235.6616, 26935.19
236.1437, 27086.68
236.6258, 27244.11
237.1079, 27374.34
237.5901, 27543.34
238.0722, 27775.27
238.5543, 28063.52
239.0364, 28395.20
239.5185, 28767.20
240.0006, 29173.03
240.4828, 29571.97
240.9649, 29999.42
241.4470, 30379.67
241.9291, 30707.11
242.4112, 30977.55
242.8933, 31188.49
243.3755, 31341.56
243.8576, 31427.44
244.3397, 31416.38
244.8218, 31296.04
245.3039, 31077.76
245.7860, 30754.84
246.2682, 30339.08
246.7503, 29822.73
247.2324, 29203.45
247.7145, 28530.83
248.1966, 27920.71
248.6787, 27424.66
249.1609, 26897.79
249.6430, 26271.53
250.1251, 25649.81
250.6072, 25122.26
251.0893, 24706.86
251.5714, 24351.56
252.0535, 23982.23
252.5357, 23580.76
253.0178, 23207.01
253.4999, 22903.62
253.9820, 22592.14
254.4641, 22230.62
254.9462, 21814.05
255.4284, 21360.56
255.9105, 20875.76
256.3926, 20346.12
256.8747, 19867.12
257.3568, 19472.34
257.8390, 19103.11
258.3211, 18732.29
258.8032, 18365.59
259.2853, 18026.00
259.7674, 17733.64
260.2495, 17486.73
260.7317, 17258.71
261.2138, 17052.48
261.6959, 16863.04
262.1780, 16679.86
262.6601, 16511.87
263.1422, 16380.26
263.6244, 16308.00
264.1065, 16273.70
264.5886, 16201.59
265.0707, 16064.79
265.5528, 15942.17
266.0349, 15879.65
266.5170, 15838.91
266.9991, 15771.63
267.4813, 15654.45
267.9634, 15515.09
268.4455, 15400.35
268.9276, 15316.36
269.4097, 15232.11
269.8918, 15144.01
270.3740, 15046.56
270.8561, 14931.12
271.3382, 14793.96
271.8203, 14648.52
272.3024, 14507.51
272.7845, 14370.77
273.2667, 14227.75
273.7488, 14065.83
274.2309, 13906.76
274.7130, 13769.03
275.1951, 13652.95
275.6772, 13554.46
276.1594, 13485.89
276.6415, 13435.88
277.1236, 13358.41
277.6057, 13232.82
278.0878, 13102.97
278.5699, 13013.46
279.0521, 12958.33
279.5342, 12906.88
280.0163, 12850.48
280.4984, 12790.55
280.9805, 12726.66
281.4626, 12657.56
281.9448, 12593.58
282.4269, 12541.49
282.9090, 12501.85
283.3911, 12474.91
283.8732, 12477.05
284.3553, 12480.18
284.8375, 12458.69
285.3196, 12414.50
285.8017, 12366.87
286.2838, 12325.03
286.7659, 12289.36
287.2480, 12258.75
287.7302, 12237.90
288.2123, 12216.49
288.6944, 12186.58
289.1765, 12152.92
289.6586, 12127.81
290.1407, 12117.61
290.6229, 12114.82
291.1050, 12102.12
291.5871, 12076.34
292.0692, 12047.19
292.5513, 12006.46
293.0334, 11967.21
293.5156, 11946.67
293.9977, 11948.54
294.4798, 11958.77
294.9619, 11957.46
295.4440, 11935.19
295.9261, 11929.08
296.4083, 11962.55
296.8904, 11992.15
297.3725, 11983.96
297.8546, 11941.74
298.3367, 11895.04
298.8188, 11870.41
299.3010, 11868.98
299.7831, 11864.08
300.2652, 11843.24
300.7473, 11831.98
301.2294, 11849.02
301.7115, 11879.76
302.1937, 11896.76
302.6758, 11882.18
303.1579, 11846.35
303.6400, 11830.64
304.1221, 11855.86
304.6042, 11869.86
305.0864, 11861.98
305.5685, 11841.72
306.0506, 11814.54
306.5327, 11782.69
307.0148, 11754.33
307.4969, 11744.27
307.9791, 11758.60
308.4612, 11769.07
308.9433, 11776.37
309.4254, 11775.29
309.9075, 11756.21
310.3896, 11721.36
310.8718, 11689.67
311.3539, 11679.88
311.8360, 11689.91
312.3181, 11697.65
312.8002, 11702.58
313.2823, 11703.93
313.7644, 11699.88
314.2466, 11692.21
314.7287, 11685.61
315.2108, 11683.44
315.6929, 11683.03
316.1750, 11679.93
316.6571, 11674.07
317.1393, 11665.40
317.6214, 11650.76
318.1035, 11634.03
318.5856, 11622.48
319.0677, 11619.09
319.5498, 11617.76
320.0320, 11609.25
320.5141, 11597.15
320.9962, 11602.09
321.4783, 11640.25
321.9604, 11686.83
322.4425, 11690.54
322.9247, 11637.47
323.4068, 11603.11
323.8889, 11630.20
324.3710, 11680.24
324.8531, 11698.67
325.3352, 11674.30
325.8174, 11635.25
326.2995, 11609.91
326.7816, 11600.83
327.2637, 11596.91
327.7458, 11593.75
328.2279, 11599.32
328.7101, 11629.73
329.1922, 11675.73
329.6743, 11707.18
330.1564, 11701.95
330.6385, 11664.88
331.1206, 11635.85
331.6028, 11615.07
332.0849, 11602.10
332.5670, 11604.84
333.0491, 11612.65
333.5312, 11611.68
334.0133, 11596.69
334.4955, 11574.90
334.9776, 11558.58
335.4597, 11544.37
335.9418, 11544.35
336.4239, 11569.38
336.9060, 11598.91
337.3882, 11625.11
337.8703, 11644.50
338.3524, 11651.54
338.8345, 11633.54
339.3166, 11590.55
339.7987, 11570.69
340.2809, 11593.34
340.7630, 11613.75
341.2451, 11613.25
341.7272, 11596.63
342.2093, 11572.19
342.6914, 11538.25
343.1736, 11504.06
343.6557, 11489.34
344.1378, 11497.46
344.6199, 11503.82
345.1020, 11494.67
345.5841, 11480.49
346.0663, 11475.28
346.5484, 11482.90
347.0305, 11489.96
347.5126, 11486.39
347.9947, 11475.08
348.4768, 11466.03
348.9590, 11463.20
349.4411, 11459.11
349.9232, 11440.80
350.4053, 11408.22
350.8874, 11384.70
351.3695, 11381.50
351.8517, 11384.57
352.3338, 11383.43
352.8159, 11376.78
353.2980, 11362.70
353.7801, 11337.01
354.2622, 11301.94
354.7444, 11284.84
355.2265, 11297.05
355.7086, 11310.12
356.1907, 11319.02
356.6728, 11322.76
357.1549, 11318.15
357.6371, 11303.93
358.1192, 11286.63
358.6013, 11279.78
359.0834, 11292.75
359.5655, 11298.86
360.0476, 11285.85
360.5298, 11276.38
361.0119, 11293.29
361.4940, 11331.74
361.9761, 11363.02
362.4582, 11358.67
362.9403, 11320.24
363.4224, 11288.36
363.9045, 11257.09
364.3867, 11242.16
364.8688, 11258.70
365.3509, 11290.56
365.8330, 11315.43
366.3151, 11324.63
366.7972, 11321.35
367.2794, 11305.85
367.7615, 11276.19
368.2436, 11253.72
368.7257, 11245.19
369.2078, 11246.71
369.6899, 11254.77
370.1721, 11269.59
370.6542, 11285.63
371.1363, 11302.19
371.6184, 11317.55
372.1005, 11326.88
372.5826, 11328.82
373.0648, 11330.06
373.5469, 11338.67
374.0290, 11353.27
374.5111, 11357.49
374.9932, 11333.06
375.4753, 11314.44
375.9575, 11333.08
376.4396, 11375.01
376.9217, 11396.67
377.4038, 11373.92
377.8859, 11328.21
378.3680, 11315.12
378.8502, 11369.22
379.3323, 11410.63
379.8144, 11439.49
380.2965, 11454.32
380.7786, 11448.29
381.2607, 11423.63
381.7429, 11394.32
382.2250, 11374.01
382.7071, 11362.78
383.1892, 11359.49
383.6713, 11386.64
384.1534, 11397.26
384.6356, 11360.03
385.1177, 11301.09
385.5998, 11264.20
386.0819, 11272.81
386.5640, 11304.36
387.0461, 11319.38
387.5283, 11316.52
388.0104, 11303.09
388.4925, 11266.01
388.9746, 11230.16
389.4567, 11220.94
389.9388, 11239.86
390.4210, 11253.82
390.9031, 11234.79
391.3852, 11198.00
391.8673, 11180.57
392.3494, 11189.59
392.8315, 11197.54
393.3137, 11174.68
393.7958, 11130.61
394.2779, 11118.46
394.7600, 11174.72
395.2421, 11229.69
395.7242, 11247.69
396.2064, 11235.68
396.6885, 11206.50
397.1706, 11163.83
397.6527, 11117.03
398.1348, 11084.09
398.6169, 11069.60
399.0991, 11062.58
399.5812, 11070.55
400.0633, 11079.92
400.5454, 11081.85
401.0275, 11076.03
401.5096, 11066.99
401.9918, 11058.81
402.4739, 11050.73
402.9560, 11033.68
403.4381, 10994.41
403.9202, 10965.46
404.4023, 10957.00
404.8845, 10960.26
405.3666, 10966.87
405.8487, 10974.44
406.3308, 10981.26
406.8129, 10985.22
407.2950, 10986.32
407.7772, 10985.16
408.2593, 10976.86
408.7414, 10973.35
409.2235, 10992.79
409.7056, 11028.31
410.1877, 11046.81
410.6699, 11021.18
411.1520, 10982.87
411.6341, 10970.69
412.1162, 10982.52
412.5983, 10987.27
413.0804, 10966.11
413.5625, 10929.31
414.0446, 10908.22
414.5268, 10908.87
415.0089, 10910.84
415.4910, 10908.19
415.9731, 10906.14
416.4552, 10913.54
416.9373, 10930.29
417.4195, 10944.26
417.9016, 10942.19
418.3837, 10922.59
418.8658, 10907.16
419.3479, 10898.59
419.8300, 10891.43
420.3122, 10879.86
420.7943, 10870.31
421.2764, 10876.49
421.7585, 10905.58
422.2406, 10936.85
422.7227, 10926.81
423.2049, 10864.62
423.6870, 10838.14
424.1691, 10899.33
424.6512, 10963.79
425.1333, 10961.35
425.6154, 10902.71
426.0976, 10857.91
426.5797, 10875.68
427.0618, 10920.02
427.5439, 10932.66
428.0260, 10912.26
428.5081, 10898.45
428.9903, 10917.58
429.4724, 10954.55
429.9545, 10964.62
430.4366, 10931.85
430.9187, 10905.15
431.4008, 10905.59
431.8830, 10914.89
432.3651, 10907.40
432.8472, 10880.02
433.3293, 10854.88
433.8114, 10856.72
434.2935, 10888.81
434.7757, 10900.25
435.2578, 10854.90
435.7399, 10829.36
436.2220, 10863.20
436.7041, 10921.94
437.1862, 10956.10
437.6684, 10945.59
438.1505, 10915.16
438.6326, 10900.36
439.1147, 10902.33
439.5968, 10910.93
440.0789, 10929.34
440.5611, 10949.61
441.0432, 10966.78
441.5253, 10981.20
442.0074, 10994.42
442.4895, 11017.78
442.9716, 11033.87
443.4538, 11005.68
443.9359, 10938.47
444.4180, 10894.39
444.9001, 10896.37
445.3822, 10944.83
445.8643, 11061.99
446.3465, 11311.70
446.8286, 11459.40
447.3107, 11381.46
447.7928, 11238.10
448.2749, 11170.33
448.7570, 11189.70
449.2392, 11238.00
449.7213, 11269.94
450.2034, 11287.80
450.6855, 11318.26
451.1676, 11373.74
451.6497, 11425.59
452.1319, 11461.69
452.6140, 11496.65
453.0961, 11546.54
453.5782, 11614.76
454.0603, 11688.33
454.5424, 11754.36
455.0246, 11813.74
455.5067, 11870.22
455.9888, 11916.28
456.4709, 11974.99
456.9530, 12068.61
457.4352, 12185.66
457.9173, 12304.66
458.3994, 12413.64
458.8815, 12532.57
459.3636, 12676.20
459.8457, 12839.60
460.3279, 13013.67
460.8100, 13194.16
461.2921, 13385.09
461.7742, 13591.08
462.2563, 13813.77
462.7384, 14044.16
463.2205, 14258.81
463.7026, 14501.75
464.1848, 14801.62
464.6669, 15143.63
465.1490, 15500.41
465.6311, 15855.04
466.1132, 16221.05
466.5953, 16627.07
467.0775, 17073.05
467.5596, 17552.51
468.0417, 18057.96
468.5238, 18609.04
469.0059, 19220.40
469.4880, 19888.01
469.9702, 20600.46
470.4523, 21368.96
470.9344, 22172.38
471.4165, 22974.28
471.8986, 23773.15
472.3807, 24637.50
472.8629, 25595.80
473.3450, 26631.81
473.8271, 27706.95
474.3092, 28831.51
474.7913, 29948.17
475.2734, 31005.63
475.7556, 32085.30
476.2377, 33262.42
476.7198, 34532.23
477.2019, 35840.20
477.6840, 37149.34
478.1661, 38458.99
478.6483, 39785.43
479.1304, 41140.16
479.6125, 42487.50
480.0946, 43813.73
480.5767, 45131.13
481.0588, 46447.67
481.5410, 47757.03
482.0231, 49046.46
482.5052, 50334.21
482.9873, 51588.66
483.4694, 52739.37
483.9515, 53781.54
484.4337, 54714.41
484.9158, 55580.92
485.3979, 56309.03
485.8800, 56804.80
486.3621, 57075.63
486.8442, 57096.57
487.3264, 56856.58
487.8085, 56364.73
488.2906, 55624.55
488.7727, 54639.73
489.2548, 53408.29
489.7369, 51907.51
490.2191, 50152.43
490.7012, 48376.38
491.1833, 46570.98
491.6654, 44739.94
492.1475, 42826.91
492.6296, 40911.91
493.1118, 39063.34
493.5939, 37291.52
494.0760, 35629.54
494.5581, 34130.09
495.0402, 32781.65
495.5223, 31480.62
496.0045, 30216.03
496.4866, 29040.33
496.9687, 28011.39
497.4508, 27098.27
497.9329, 26251.30
498.4150, 25475.04
498.8972, 24738.74
499.3793, 24025.40
499.8614, 23345.79
500.3435, 22717.69
500.8256, 22143.69
501.3077, 21614.87
501.7899, 21121.83
502.2720, 20666.82
502.7541, 20233.83
503.2362, 19800.46
503.7183, 19417.50
504.2004, 19125.24
504.6826, 18869.54
505.1647, 18591.94
505.6468, 18280.38
506.1289, 17977.00
506.6110, 17724.07
507.0931, 17516.77
507.5753, 17318.97
508.0574, 17131.23
508.5395, 16951.47
509.0216, 16779.15
509.5037, 16614.04
509.9858, 16461.18
510.4680, 16329.64
510.9501, 16190.29
511.4322, 16005.86
511.9143, 15815.44
512.3964, 15687.73
512.8785, 15628.20
513.3607, 15575.76
513.8428, 15480.06
514.3249, 15344.12
514.8070, 15201.50
515.2891, 15029.30
515.7712, 14880.78
516.2534, 14776.82
516.7355, 14689.48
517.2176, 14598.21
517.6997, 14497.59
518.1818, 14384.35
518.6639, 14241.46
519.1461, 14082.74
519.6282, 13966.31
520.1103, 13901.38
520.5924, 13842.91
521.0745, 13779.34
521.5566, 13702.74
522.0388, 13595.02
522.5209, 13440.82
523.0030, 13302.35
523.4851, 13207.29
523.9672, 13133.49
524.4493, 13060.64
524.9315, 12985.37
525.4136, 12907.85
525.8957, 12828.12
526.3778, 12746.16
526.8599, 12660.04
527.3420, 12563.42
527.8242, 12473.19
528.3063, 12401.02
528.7884, 12327.05
529.2705, 12233.28
529.7526, 12122.11
530.2347, 12013.88
530.7169, 11923.66
531.1990, 11842.67
531.6811, 11756.44
532.1632, 11665.14
532.6453, 11562.40
533.1274, 11438.79
533.6096, 11312.95
534.0917, 11219.07
534.5738, 11162.38
535.0559, 11106.83
535.5380, 11050.41
536.0201, 10992.43
536.5022, 10933.72
536.9843, 10872.84
537.4664, 10804.05
537.9485, 10723.28
538.4307, 10642.94
538.9128, 10593.46
539.3949, 10587.20
539.8770, 10557.20
540.3591, 10473.96
540.8412, 10392.70
541.3234, 10344.06
541.8055, 10320.06
542.2876, 10300.08
542.7697, 10280.08
543.2518, 10257.88
543.7339, 10229.90
544.2161, 10198.23
544.6982, 10167.99
545.1803, 10140.29
545.6624, 10116.97
546.1445, 10101.52
546.6266, 10094.78
547.1088, 10080.10
547.5909, 10056.15
548.0730, 10026.46
548.5551, 9984.279
549.0372, 9940.540
549.5193, 9904.963
550.0015, 9880.524
550.4836, 9869.051
550.9657, 9878.814
551.4478, 9905.211
551.9299, 9922.111
552.4120, 9931.387
552.8942, 9921.822
553.3763, 9873.698
553.8584, 9809.399
554.3405, 9773.943
554.8226, 9777.371
555.3047, 9778.605
555.7869, 9762.852
556.2690, 9740.615
556.7511, 9721.089
557.2332, 9705.047
557.7153, 9690.261
558.1974, 9675.278
558.6796, 9660.744
559.1617, 9648.849
559.6438, 9642.137
560.1259, 9632.243
560.6080, 9620.922
561.0901, 9603.855
561.5723, 9572.326
562.0544, 9532.245
562.5365, 9501.271
563.0186, 9486.182
563.5007, 9484.271
563.9828, 9500.012
564.4650, 9527.709
564.9471, 9545.860
565.4292, 9548.214
565.9113, 9541.040
566.3934, 9530.646
566.8755, 9516.834
567.3577, 9500.932
567.8398, 9477.348
568.3219, 9458.370
568.8040, 9449.819
569.2861, 9446.489
569.7682, 9440.604
570.2504, 9431.064
570.7325, 9425.935
571.2146, 9441.237
571.6967, 9469.549
572.1788, 9469.386
572.6609, 9433.279
573.1431, 9403.456
573.6252, 9407.513
574.1073, 9424.449
574.5894, 9410.854
575.0715, 9355.628
575.5536, 9313.247
576.0358, 9299.878
576.5179, 9300.473
577.0000, 9306.598
577.4821, 9316.006
577.9642, 9328.141
578.4464, 9343.205
578.9285, 9356.021
579.4106, 9353.225
579.8927, 9329.798
580.3748, 9314.349
580.8569, 9310.297
581.3391, 9313.642
581.8212, 9329.042
582.3033, 9348.800
582.7854, 9355.488
583.2675, 9343.766
583.7496, 9320.129
584.2318, 9274.688
584.7139, 9224.434
585.1960, 9209.212
585.6781, 9232.956
586.1602, 9252.367
586.6423, 9227.631
587.1245, 9166.581
587.6066, 9130.444
588.0887, 9128.652
588.5708, 9138.145
589.0529, 9175.009
589.5350, 9206.604
590.0172, 9203.564
590.4993, 9169.498
590.9814, 9133.644
591.4635, 9107.332
591.9456, 9093.183
592.4277, 9104.074
592.9099, 9134.524
593.3920, 9145.856
593.8741, 9122.442
594.3562, 9089.763
594.8383, 9079.811
595.3204, 9096.375
595.8026, 9106.673
596.2847, 9112.556
596.7668, 9110.754
597.2489, 9093.686
597.7310, 9071.528
598.2131, 9053.077
598.6953, 9041.530
599.1774, 9041.972
599.6595, 9071.438
600.1416, 9117.215
600.6237, 9127.779
601.1058, 9098.835
601.5880, 9069.548
602.0701, 9056.896
602.5522, 9054.002
603.0343, 9049.740
603.5164, 9045.127
603.9985, 9035.714
604.4807, 9013.675
604.9628, 8993.889
605.4449, 8988.088
605.9270, 8990.615
606.4091, 8987.750
606.8912, 8974.041
607.3734, 8961.610
607.8555, 8973.836
608.3376, 9009.496
608.8197, 9020.260
609.3018, 8993.942
609.7839, 8968.330
610.2661, 8964.060
610.7482, 8974.646
611.2303, 8987.932
611.7124, 9009.684
612.1945, 9017.944
612.6766, 8992.119
613.1588, 8960.742
613.6409, 8946.480
614.1230, 8950.100
614.6051, 8968.687
615.0872, 9002.113
615.5693, 9037.394
616.0515, 9045.065
616.5336, 9019.505
617.0157, 9003.764
617.4978, 9000.323
617.9799, 9008.863
618.4620, 9046.969
618.9442, 9093.784
619.4263, 9102.229
619.9084, 9039.750
620.3905, 8991.354
620.8726, 9012.472
621.3547, 9060.270
621.8369, 9083.348
622.3190, 9078.546
622.8011, 9068.277
623.2832, 9066.982
623.7653, 9071.979
624.2474, 9076.256
624.7296, 9080.465
625.2117, 9081.989
625.6938, 9082.109
626.1759, 9077.633
626.6580, 9063.802
627.1401, 9044.327
627.6223, 9028.598
628.1044, 9016.722
628.5865, 9012.670
629.0686, 9027.971
629.5507, 9048.736
630.0328, 9051.330
630.5150, 9034.308
630.9971, 9014.792
631.4792, 9005.556
631.9613, 9004.096
632.4434, 9001.677
632.9255, 9000.586
633.4077, 8992.354
633.8898, 8967.313
634.3719, 8942.854
634.8539, 8928.536
635.3361, 8923.482
635.8182, 8924.901
636.3003, 8940.438
636.7824, 8949.556
637.2645, 8928.275
637.7466, 8894.485
638.2288, 8880.150
638.7109, 8889.397
639.1930, 8904.096
639.6751, 8909.928
640.1572, 8909.260
640.6393, 8915.617
641.1215, 8939.580
641.6036, 8944.631
642.0857, 8909.141
642.5678, 8867.463
643.0499, 8836.551
