##NAMES=Hausmannite
##RRUFFID=R040091
##IDEAL CHEMISTRY=Mn^2+^Mn^3+^_2_O_4_
##LOCALITY=Germany
##OWNER=RRUFF
##SOURCE=University of Arizona Mineral Museum
##DESCRIPTION=Mass of black octahedral crystals
##STATUS=The identification of this mineral has been confirmed by X-ray diffraction and chemical analysis
##URL=rruff.info/R040091
##MEASURED CHEMISTRY=(Mn^2+^_0.96_Zn_0.02_Mg_0.02_)Mn^3+^_2.00_O_4_
102.8268, 117.6351
103.3090, 114.8050
103.7911, 113.5847
104.2732, 114.8936
104.7553, 117.3923
105.2374, 119.6101
105.7195, 122.0535
106.2017, 122.4061
106.6838, 117.1525
107.1659, 108.0684
107.6480, 103.1537
108.1301, 107.7532
108.6122, 115.3788
109.0944, 116.3936
109.5765, 108.6387
110.0586, 100.4334
110.5407, 98.76496
111.0228, 103.7745
111.5049, 109.8244
111.9871, 116.2230
112.4692, 121.8724
112.9513, 125.1211
113.4334, 124.7528
113.9155, 123.9179
114.3976, 127.7299
114.8798, 138.1487
115.3619, 146.3511
115.8440, 150.0075
116.3261, 149.6659
116.8082, 144.4956
117.2903, 132.6864
117.7725, 118.0141
118.2546, 109.5939
118.7367, 111.0142
119.2188, 112.4315
119.7009, 109.0687
120.1830, 104.1883
120.6652, 102.1515
121.1473, 105.7821
121.6294, 113.9471
122.1115, 121.1075
122.5936, 126.4372
123.0757, 131.5627
123.5579, 136.1351
124.0400, 140.8615
124.5221, 146.4033
125.0042, 152.4287
125.4863, 159.0954
125.9684, 173.6257
126.4506, 207.7932
126.9327, 239.2914
127.4148, 261.1324
127.8969, 275.0899
128.3790, 287.4583
128.8611, 303.9778
129.3432, 325.7157
129.8254, 342.3763
130.3075, 356.4426
130.7896, 364.0540
131.2717, 363.2095
131.7538, 354.1086
132.2359, 337.7926
132.7181, 314.4923
133.2002, 281.0278
133.6823, 252.5268
134.1644, 227.7196
134.6465, 207.7133
135.1286, 194.3036
135.6108, 187.0823
136.0929, 182.8632
136.5750, 177.6006
137.0571, 169.1260
137.5392, 166.5926
138.0213, 175.8124
138.5035, 186.8827
138.9856, 191.0053
139.4677, 186.6329
139.9498, 180.0043
140.4319, 179.7885
140.9140, 189.3244
141.3962, 198.8549
141.8783, 207.5998
142.3604, 216.5031
142.8425, 227.3840
143.3246, 240.7852
143.8067, 254.0578
144.2889, 262.5351
144.7710, 264.1448
145.2531, 266.5811
145.7352, 270.5991
146.2173, 272.5307
146.6994, 271.9809
147.1816, 272.4070
147.6637, 271.1508
148.1458, 261.6125
148.6279, 240.5409
149.1100, 224.6905
149.5921, 221.8361
150.0743, 225.9828
150.5564, 226.0016
151.0385, 217.6162
151.5206, 205.2507
152.0027, 196.6914
152.4848, 192.2424
152.9670, 188.7293
153.4491, 184.3501
153.9312, 179.8838
154.4133, 177.5279
154.8954, 178.3823
155.3775, 181.2916
155.8597, 184.5013
156.3418, 188.7793
156.8239, 191.2323
157.3060, 189.5462
157.7881, 184.5815
158.2702, 179.4642
158.7524, 174.6621
159.2345, 171.0851
159.7166, 169.9724
160.1987, 171.9173
160.6808, 174.4106
161.1629, 176.6948
161.6451, 178.5708
162.1272, 178.3026
162.6093, 173.9573
163.0914, 168.2537
163.5735, 165.1169
164.0556, 165.3040
164.5378, 166.2073
165.0199, 166.2406
165.5020, 165.4413
165.9841, 163.7333
166.4662, 160.2356
166.9483, 156.4395
167.4305, 154.0477
167.9126, 153.3452
168.3947, 153.5932
168.8768, 154.7233
169.3589, 156.7599
169.8410, 157.7543
170.3232, 156.3505
170.8053, 153.8900
171.2874, 151.6379
171.7695, 149.6254
172.2516, 148.1929
172.7337, 148.4073
173.2159, 150.5136
173.6980, 150.9295
174.1801, 147.0395
174.6622, 141.4293
175.1443, 136.1380
175.6264, 131.1619
176.1086, 127.6045
176.5907, 127.5061
177.0728, 131.4364
177.5549, 134.2794
178.0370, 132.6548
178.5191, 129.9090
179.0013, 129.1362
179.4834, 131.3814
179.9655, 134.1228
180.4476, 133.9901
180.9297, 130.4264
181.4118, 127.4504
181.8940, 127.4587
182.3761, 128.1019
182.8582, 127.1912
183.3403, 123.8720
183.8224, 120.5693
184.3046, 121.2255
184.7867, 127.0128
185.2688, 130.4212
185.7509, 125.8530
186.2330, 119.6206
186.7151, 116.7144
187.1973, 118.6689
187.6794, 121.8951
188.1615, 121.5623
188.6436, 116.8016
189.1257, 112.7985
189.6078, 111.9035
190.0900, 111.8720
190.5721, 110.9092
191.0542, 108.4689
191.5363, 106.1848
192.0184, 106.6736
192.5005, 110.7789
192.9827, 113.4717
193.4648, 111.5537
193.9469, 108.8511
194.4290, 108.1854
194.9111, 110.2630
195.3932, 113.0923
195.8754, 114.1102
196.3575, 112.9050
196.8396, 112.0737
197.3217, 113.7643
197.8038, 115.0800
198.2859, 113.2781
198.7681, 107.7493
199.2502, 102.1320
199.7323, 101.5790
200.2144, 107.3106
200.6965, 110.7350
201.1786, 106.3040
201.6608, 101.3025
202.1429, 100.7058
202.6250, 105.3064
203.1071, 111.0669
203.5892, 113.8322
204.0713, 113.4040
204.5535, 111.5584
205.0356, 106.7362
205.5177, 101.8132
205.9998, 98.28468
206.4819, 96.36228
206.9640, 95.76052
207.4462, 96.67329
207.9283, 99.29044
208.4104, 101.2425
208.8925, 102.1111
209.3746, 102.2091
209.8567, 101.1522
210.3388, 99.09856
210.8210, 97.51249
211.3031, 98.37302
211.7852, 101.7934
212.2673, 103.6484
212.7494, 102.5781
213.2315, 100.5028
213.7137, 97.70601
214.1958, 94.56797
214.6779, 92.72661
215.1600, 94.61978
215.6421, 100.0512
216.1242, 103.2101
216.6064, 102.1374
217.0885, 100.1822
217.5706, 98.92767
218.0527, 98.44692
218.5348, 98.63170
219.0169, 100.2786
219.4991, 103.0160
219.9812, 103.2534
220.4633, 98.68544
220.9454, 94.31317
221.4275, 92.63896
221.9096, 93.38937
222.3918, 95.57616
222.8739, 100.3836
223.3560, 106.6660
223.8381, 108.2957
224.3202, 102.4602
224.8023, 96.23714
225.2845, 93.66039
225.7666, 93.70483
226.2487, 94.07612
226.7308, 92.98059
227.2129, 91.38986
227.6950, 92.76521
228.1772, 99.22910
228.6593, 104.0746
229.1414, 101.8949
229.6235, 95.86635
230.1056, 91.39829
230.5877, 91.25581
231.0699, 93.71648
231.5520, 95.68040
232.0341, 97.07038
232.5162, 98.18481
232.9983, 99.75632
233.4804, 101.0386
233.9626, 100.6819
234.4447, 97.03136
234.9268, 92.84269
235.4089, 92.64112
235.8910, 97.23582
236.3731, 100.6541
236.8553, 98.03911
237.3374, 93.31301
237.8195, 91.71165
238.3016, 95.54012
238.7837, 100.4502
239.2658, 101.6706
239.7480, 99.16531
240.2301, 97.18222
240.7122, 97.93062
241.1943, 99.84957
241.6764, 100.6505
242.1585, 99.84430
242.6407, 98.80459
243.1228, 98.52820
243.6049, 98.93380
244.0870, 99.47642
244.5691, 100.0509
245.0512, 100.6101
245.5334, 101.2835
246.0155, 102.2835
246.4976, 102.4934
246.9797, 100.6456
247.4618, 97.47057
247.9439, 95.04893
248.4261, 93.91555
248.9082, 93.78168
249.3903, 94.60527
249.8724, 96.47604
250.3545, 97.80383
250.8366, 97.70468
251.3188, 96.75613
251.8009, 95.82852
252.2830, 95.02615
252.7651, 94.55534
253.2472, 94.92062
253.7293, 96.12393
254.2115, 96.82561
254.6936, 96.08612
255.1757, 95.07195
255.6578, 95.24113
256.1399, 96.78223
256.6220, 98.64911
257.1042, 99.93958
257.5863, 100.6159
258.0684, 101.3511
258.5505, 102.5833
259.0326, 103.5656
259.5147, 103.7844
259.9969, 103.2303
260.4790, 102.0381
260.9611, 100.0726
261.4432, 97.46208
261.9253, 95.79092
262.4074, 95.03902
262.8896, 95.11895
263.3717, 96.81266
263.8538, 99.41165
264.3359, 100.8792
264.8180, 99.84324
265.3001, 97.03186
265.7823, 96.08054
266.2644, 97.92688
266.7465, 100.2046
267.2286, 103.4117
267.7107, 106.5110
268.1928, 107.6381
268.6750, 105.9296
269.1571, 102.6691
269.6392, 100.9357
270.1213, 100.5030
270.6034, 102.1644
271.0855, 108.8338
271.5677, 116.1313
272.0498, 119.0420
272.5319, 116.4491
273.0140, 112.1508
273.4961, 112.1494
273.9782, 119.7719
274.4604, 124.1688
274.9425, 123.0240
275.4246, 120.9426
275.9067, 120.4946
276.3888, 122.0780
276.8709, 124.9382
277.3531, 128.3487
277.8352, 132.2764
278.3173, 136.9562
278.7994, 141.7661
279.2815, 147.8943
279.7636, 157.2334
280.2458, 168.4157
280.7279, 177.9488
281.2100, 182.3971
281.6921, 182.7801
282.1742, 189.2975
282.6563, 207.8448
283.1385, 225.4805
283.6206, 238.5502
284.1027, 248.6384
284.5848, 257.6805
285.0669, 266.1717
285.5490, 275.1552
286.0312, 287.9969
286.5133, 308.0877
286.9954, 323.8903
287.4775, 331.3120
287.9596, 333.9178
288.4417, 334.2928
288.9239, 333.1017
289.4060, 330.3441
289.8881, 326.5570
290.3702, 322.0200
290.8523, 313.6705
291.3344, 298.1488
291.8166, 280.4403
292.2987, 264.1042
292.7808, 249.4330
293.2629, 235.3656
293.7450, 221.2816
294.2271, 207.2648
294.7093, 192.7373
295.1914, 175.4332
295.6735, 161.4894
296.1556, 157.7388
296.6377, 162.2054
297.1198, 165.8746
297.6020, 164.5630
298.0841, 160.5782
298.5662, 157.4849
299.0483, 155.5484
299.5304, 153.9079
300.0125, 151.8273
300.4947, 149.5440
300.9768, 147.9163
301.4589, 147.1582
301.9410, 146.9976
302.4231, 147.0849
302.9052, 147.5173
303.3874, 148.8712
303.8695, 151.5482
304.3516, 155.3203
304.8337, 159.3896
305.3158, 163.4660
305.7979, 168.1727
306.2801, 173.9038
306.7622, 180.3874
307.2443, 187.0908
307.7264, 193.7657
308.2085, 200.8779
308.6906, 209.1010
309.1728, 218.4587
309.6549, 229.3004
310.1370, 243.3901
310.6191, 257.9195
311.1012, 270.3793
311.5833, 280.5431
312.0655, 289.8702
312.5476, 299.7788
313.0297, 310.2670
313.5118, 321.3855
313.9939, 331.4653
314.4760, 343.7003
314.9582, 362.4749
315.4403, 384.6837
315.9224, 403.1219
316.4045, 412.8596
316.8866, 414.8956
317.3687, 415.6984
317.8509, 416.3917
318.3330, 414.0207
318.8151, 406.8416
319.2972, 397.0120
319.7793, 387.4365
320.2614, 379.3447
320.7436, 370.3557
321.2257, 355.5591
321.7078, 332.9397
322.1899, 311.3088
322.6720, 290.1873
323.1541, 271.8792
323.6363, 259.1870
324.1184, 252.0499
324.6005, 246.1832
325.0826, 237.5569
325.5647, 226.4717
326.0468, 217.2343
326.5290, 211.2074
327.0111, 205.6473
327.4932, 198.3141
327.9753, 189.8275
328.4574, 182.1318
328.9395, 175.5525
329.4217, 170.4511
329.9038, 167.9616
330.3859, 168.3907
330.8680, 169.0250
331.3501, 168.8368
331.8322, 167.5353
332.3144, 164.3903
332.7965, 156.5000
333.2786, 150.4558
333.7607, 152.5237
334.2428, 160.2295
334.7249, 165.3634
335.2070, 164.4554
335.6891, 160.3127
336.1713, 158.4373
336.6534, 159.8763
337.1355, 160.2907
337.6176, 157.8032
338.0997, 154.5199
338.5818, 152.3585
339.0640, 151.7470
339.5461, 152.6653
340.0282, 155.3950
340.5103, 160.4948
340.9924, 163.8313
341.4745, 164.4856
341.9567, 164.5738
342.4388, 164.8810
342.9209, 165.3978
343.4030, 165.6753
343.8851, 165.2845
344.3672, 164.7159
344.8494, 166.5213
345.3315, 174.1933
345.8136, 179.3322
346.2957, 179.1589
346.7778, 176.9837
347.2599, 175.7975
347.7421, 176.5692
348.2242, 178.8835
348.7063, 182.4741
349.1884, 187.6881
349.6705, 192.4895
350.1526, 196.0670
350.6348, 199.7152
351.1169, 203.6521
351.5990, 208.1416
352.0811, 213.9606
352.5632, 222.9598
353.0453, 233.8311
353.5275, 241.2198
354.0096, 243.3932
354.4917, 246.6936
354.9738, 255.4556
355.4559, 267.8991
355.9380, 281.7964
356.4202, 298.1128
356.9023, 313.9897
357.3844, 325.3560
357.8665, 333.2416
358.3486, 344.2285
358.8307, 361.1762
359.3129, 382.1652
359.7950, 404.1028
360.2771, 426.8521
360.7592, 450.3177
361.2413, 472.7984
361.7234, 496.6611
362.2056, 525.7458
362.6877, 560.5895
363.1698, 596.8478
363.6519, 630.3165
364.1340, 660.9341
364.6161, 688.9197
365.0983, 705.0572
365.5804, 728.2451
366.0625, 774.0431
366.5446, 832.8365
367.0267, 882.7020
367.5089, 910.8487
367.9910, 925.2031
368.4731, 952.9561
368.9552, 1008.885
369.4373, 1054.072
369.9194, 1080.133
370.4016, 1097.831
370.8837, 1116.219
371.3658, 1136.932
371.8479, 1154.796
372.3300, 1164.301
372.8121, 1165.320
373.2943, 1161.187
373.7764, 1154.803
374.2585, 1138.919
374.7406, 1110.548
375.2227, 1070.920
375.7048, 1022.546
376.1870, 963.5690
376.6691, 898.6377
377.1512, 835.0334
377.6333, 772.6058
378.1154, 711.3574
378.5975, 649.2859
379.0797, 589.7819
379.5618, 538.1531
380.0439, 494.7241
380.5260, 457.9982
381.0081, 429.5857
381.4902, 406.6676
381.9724, 383.8211
382.4545, 359.6559
382.9366, 335.4948
383.4187, 312.6582
383.9008, 291.1314
384.3829, 271.4382
384.8651, 253.7655
385.3472, 237.7203
385.8293, 222.5026
386.3114, 208.6324
386.7935, 198.0761
387.2756, 192.3272
387.7578, 190.0610
388.2399, 185.6824
388.7220, 176.8340
389.2041, 169.2033
389.6862, 162.9630
390.1683, 158.3282
390.6505, 156.3110
391.1326, 156.7755
391.6147, 157.1375
392.0968, 153.9609
392.5789, 146.8863
393.0610, 140.9611
393.5432, 136.0072
394.0253, 132.7565
394.5074, 132.6540
394.9895, 134.3863
395.4716, 134.9941
395.9537, 133.1564
396.4359, 129.5495
396.9180, 124.0905
397.4001, 116.6403
397.8822, 111.8959
398.3643, 113.3560
398.8464, 117.3880
399.3286, 117.4908
399.8107, 112.5146
400.2928, 107.7843
400.7749, 105.0296
401.2570, 103.8404
401.7391, 104.0913
402.2213, 105.7105
402.7034, 107.4130
403.1855, 108.0567
403.6676, 107.6013
404.1497, 106.1865
404.6318, 102.1910
405.1140, 99.07180
405.5961, 98.90698
406.0782, 100.4421
406.5603, 101.3602
407.0424, 100.5764
407.5245, 98.91143
408.0067, 98.34010
408.4888, 99.89129
408.9709, 100.2276
409.4530, 97.75188
409.9351, 95.20799
410.4172, 94.57013
410.8994, 95.65334
411.3815, 96.68355
411.8636, 96.03899
412.3457, 94.20542
412.8278, 93.43823
413.3099, 94.32837
413.7921, 94.77521
414.2742, 93.57197
414.7563, 91.30151
415.2384, 88.37847
415.7205, 84.26367
416.2026, 80.89229
416.6848, 80.51904
417.1669, 82.06329
417.6490, 81.78523
418.1311, 78.15625
418.6132, 74.82285
419.0953, 76.93127
419.5775, 85.89765
420.0596, 91.46272
420.5417, 92.14652
421.0238, 90.36895
421.5059, 85.65719
421.9880, 79.62327
422.4702, 76.55737
422.9523, 79.28853
423.4344, 85.60428
423.9165, 87.81168
424.3986, 82.16244
424.8807, 78.23635
425.3629, 77.47140
425.8450, 78.00200
426.3271, 78.43494
426.8092, 78.58729
427.2913, 79.14436
427.7734, 81.65924
428.2556, 85.66123
428.7377, 85.82336
429.2198, 79.64236
429.7019, 74.34658
430.1840, 74.82148
430.6661, 78.16825
431.1483, 80.24766
431.6304, 79.95060
432.1125, 78.43787
432.5946, 75.79156
433.0767, 72.56939
433.5588, 71.01688
434.0410, 72.00975
434.5231, 73.96324
435.0052, 74.68040
435.4873, 73.76263
435.9694, 74.51222
436.4515, 79.76241
436.9337, 84.44034
437.4158, 84.34594
437.8979, 80.76465
438.3800, 77.79082
438.8621, 77.76754
439.3442, 79.81680
439.8264, 81.08961
440.3085, 80.52071
440.7906, 81.02509
441.2727, 84.95160
441.7548, 88.31390
442.2369, 87.56258
442.7191, 82.88301
443.2012, 77.71960
443.6833, 74.48026
444.1654, 73.10632
444.6475, 73.84247
445.1296, 77.79429
445.6118, 81.02409
446.0939, 80.91270
446.5760, 79.06207
447.0581, 77.35949
447.5402, 75.77041
448.0223, 75.12403
448.5045, 76.83338
448.9866, 79.76281
449.4687, 81.21498
449.9508, 80.48299
450.4329, 79.11941
450.9150, 78.45947
451.3972, 78.46294
451.8793, 80.41768
452.3614, 87.27553
452.8435, 92.87075
453.3256, 93.98016
453.8077, 92.09141
454.2899, 89.65830
454.7720, 87.75806
455.2541, 86.52110
455.7362, 86.37389
456.2183, 87.85461
456.7004, 88.79523
457.1826, 87.79549
457.6647, 87.35130
458.1468, 89.94006
458.6289, 94.30775
459.1110, 96.36518
459.5931, 91.87012
460.0753, 85.27822
460.5574, 85.70461
461.0395, 93.55263
461.5216, 99.86404
462.0037, 100.3457
462.4858, 98.24830
462.9680, 99.10158
463.4501, 103.4960
463.9322, 107.5747
464.4143, 109.9548
464.8964, 111.6875
465.3785, 113.7123
465.8607, 116.1426
466.3428, 118.7539
466.8249, 121.3021
467.3070, 123.9430
467.7891, 127.7346
468.2712, 133.9498
468.7534, 139.7292
469.2355, 143.8327
469.7176, 148.0131
470.1997, 154.4909
470.6818, 163.2872
471.1639, 171.8158
471.6461, 176.9243
472.1282, 179.0780
472.6103, 183.3086
473.0924, 191.6166
473.5745, 197.7703
474.0566, 195.5558
474.5388, 189.9001
475.0209, 188.1146
475.5030, 193.2054
475.9851, 197.9544
476.4672, 196.6639
476.9493, 191.9492
477.4315, 189.4348
477.9136, 190.3636
478.3957, 192.3067
478.8778, 193.1004
479.3599, 192.7646
479.8420, 190.6809
480.3242, 186.0170
480.8063, 180.8357
481.2884, 175.7003
481.7705, 170.5293
482.2526, 164.7714
482.7347, 158.3322
483.2169, 152.4667
483.6990, 149.6210
484.1811, 150.4539
484.6632, 149.0506
485.1453, 143.7163
485.6274, 137.9365
486.1096, 133.6167
486.5917, 130.2523
487.0738, 126.7741
487.5559, 122.9396
488.0380, 118.7208
488.5201, 113.1989
489.0023, 107.0809
489.4844, 103.6908
489.9665, 104.4230
490.4486, 106.4539
490.9307, 106.2306
491.4128, 103.0628
491.8950, 101.1972
492.3771, 102.4231
492.8592, 103.1573
493.3413, 100.5699
493.8234, 96.35302
494.3055, 94.04417
494.7877, 95.27782
495.2698, 98.15909
495.7519, 99.11328
496.2340, 97.53089
496.7161, 96.49915
497.1982, 97.70285
497.6804, 97.97125
498.1625, 94.23963
498.6446, 88.18324
499.1267, 84.51504
499.6088, 86.22493
500.0909, 90.01422
500.5730, 93.13029
501.0551, 95.30058
501.5373, 94.26736
502.0194, 88.40063
502.5015, 81.40418
502.9836, 78.43591
503.4657, 80.48965
503.9478, 82.60113
504.4300, 84.58825
504.9121, 86.68749
505.3942, 90.08306
505.8763, 93.56956
506.3584, 94.34889
506.8405, 90.96374
507.3227, 85.80343
507.8048, 83.65946
508.2869, 85.28797
508.7690, 87.00306
509.2511, 90.19099
509.7332, 91.62892
510.2154, 87.74090
510.6975, 80.61485
511.1796, 76.32053
511.6617, 78.80142
512.1439, 83.41248
512.6260, 85.32963
513.1081, 84.92086
513.5902, 83.74238
514.0723, 82.04307
514.5544, 80.59350
515.0366, 80.56188
515.5187, 82.40965
516.0008, 83.71692
516.4829, 83.31071
516.9650, 83.54447
517.4471, 87.07664
517.9293, 91.77352
518.4114, 93.49947
518.8935, 90.44310
519.3756, 84.97598
519.8577, 80.55601
520.3398, 77.11079
520.8220, 75.38853
521.3041, 76.04996
521.7862, 77.79374
522.2683, 80.53065
522.7504, 83.64696
523.2325, 85.58085
523.7147, 85.22811
524.1968, 84.44964
524.6789, 85.61867
525.1610, 87.56704
525.6431, 86.24348
526.1252, 80.30853
526.6074, 74.21851
527.0895, 73.51046
527.5716, 79.21452
528.0537, 81.57950
528.5358, 77.65224
529.0179, 74.22549
529.5001, 73.54314
529.9822, 74.50714
530.4643, 75.77137
530.9464, 76.86059
531.4285, 77.59096
531.9106, 77.42216
532.3928, 76.45532
532.8749, 76.51378
533.3570, 78.07652
533.8391, 79.78213
534.3212, 81.05235
534.8033, 81.84122
535.2855, 81.91891
535.7676, 80.69082
536.2497, 79.83419
536.7318, 80.58173
537.2139, 81.96967
537.6960, 82.54250
538.1782, 82.13334
538.6603, 81.72488
539.1424, 82.24625
539.6245, 83.53513
540.1066, 83.89310
540.5887, 81.94544
541.0709, 81.10986
541.5530, 82.60149
542.0351, 84.86196
542.5172, 86.90075
542.9993, 88.45152
543.4814, 89.22823
543.9636, 88.85580
544.4457, 87.60640
544.9278, 85.74118
545.4099, 83.21600
545.8920, 81.34453
546.3741, 80.53944
546.8563, 80.95199
547.3384, 83.44382
547.8205, 89.64963
548.3026, 93.04288
548.7847, 90.89722
549.2668, 87.38027
549.7490, 84.45027
550.2311, 82.68198
550.7132, 82.95181
551.1953, 85.93399
551.6774, 90.08939
552.1595, 91.87233
552.6417, 90.74749
553.1238, 90.05832
553.6059, 90.91709
554.0880, 91.52263
554.5701, 89.57980
555.0522, 86.26499
555.5344, 85.58624
556.0165, 91.69071
556.4986, 97.57944
556.9807, 95.97530
557.4628, 90.30930
557.9449, 89.53006
558.4271, 96.14442
558.9092, 103.6335
559.3913, 104.4385
559.8734, 97.94944
560.3555, 92.87681
560.8376, 88.54815
561.3198, 86.54732
561.8019, 89.78170
562.2840, 94.22290
562.7661, 94.72900
563.2482, 90.34360
563.7303, 86.00150
564.2125, 86.77580
564.6946, 90.89968
565.1767, 92.84734
565.6588, 92.14458
566.1409, 91.86508
566.6230, 94.22530
567.1052, 97.73725
567.5873, 98.09402
568.0694, 93.03893
568.5515, 90.46440
569.0336, 93.61660
569.5157, 97.82193
569.9979, 99.34387
570.4800, 98.76115
570.9621, 99.01738
571.4442, 102.0435
571.9263, 105.9734
572.4084, 106.4226
572.8906, 102.8096
573.3727, 99.50517
573.8548, 96.28979
574.3369, 94.75693
574.8190, 97.26793
575.3011, 102.5680
575.7833, 106.3569
576.2654, 106.9735
576.7475, 106.5501
577.2296, 106.6963
577.7117, 106.5849
578.1938, 103.8698
578.6760, 98.27459
579.1581, 93.51789
579.6402, 93.81371
580.1223, 98.98112
580.6044, 101.7962
581.0865, 100.5492
581.5686, 99.55067
582.0507, 100.6493
582.5328, 101.8490
583.0150, 100.5334
583.4971, 96.60722
583.9792, 94.11707
584.4613, 97.38074
584.9434, 102.5951
585.4255, 103.3499
585.9077, 100.1080
586.3898, 98.26859
586.8719, 100.6757
587.3540, 104.3415
587.8361, 103.3897
588.3182, 94.51553
588.8004, 90.50742
589.2825, 94.79028
589.7646, 99.84664
590.2467, 103.0177
590.7288, 104.5635
591.2109, 105.2805
591.6931, 105.4399
592.1752, 105.0415
592.6573, 103.4766
593.1394, 101.2176
593.6215, 100.7500
594.1036, 102.6254
594.5858, 104.6613
595.0679, 105.5756
595.5500, 105.5127
596.0321, 104.9661
596.5142, 102.9420
596.9963, 102.0985
597.4785, 103.5669
597.9606, 105.7872
598.4427, 107.5556
598.9248, 108.8963
599.4069, 110.6635
