##NAMES=Hausmannite
##RRUFFID=R110179
##IDEAL CHEMISTRY=Mn^2+^Mn^3+^_2_O_4_
##LOCALITY=Cumbria, England
##OWNER=RRUFF
##SOURCE=Smithsonian
##DESCRIPTION=Druse of sharp black octahedra
##STATUS=The identification of this mineral has been confirmed by single-crystal X-ray diffraction.
##URL=rruff.info/R110179
172.4520, 104.0385
172.9341, 106.5057
173.4163, 108.0411
173.8984, 105.7629
174.3805, 101.8596
174.8626, 100.0219
175.3447, 103.8713
175.8268, 109.2410
176.3090, 110.5674
176.7911, 107.7942
177.2732, 105.7634
177.7553, 110.1237
178.2374, 117.9813
178.7195, 123.2306
179.2017, 121.2937
179.6838, 116.1614
180.1659, 113.7313
180.6480, 114.0691
181.1301, 115.9675
181.6122, 119.1824
182.0944, 123.2195
182.5765, 126.3552
183.0586, 127.1046
183.5407, 126.5786
184.0228, 127.5245
184.5049, 130.2331
184.9871, 132.9273
185.4692, 132.9025
185.9513, 130.6755
186.4334, 129.0249
186.9155, 129.7047
187.3976, 132.0190
187.8798, 133.7931
188.3619, 134.9866
188.8440, 135.5115
189.3261, 135.1028
189.8082, 133.7992
190.2903, 132.0886
190.7725, 129.9096
191.2546, 127.3947
191.7367, 125.4676
192.2188, 124.1344
192.7009, 123.4197
193.1830, 123.4551
193.6652, 124.2315
194.1473, 125.4862
194.6294, 128.0072
195.1115, 131.5204
195.5936, 131.8278
196.0757, 127.8541
196.5579, 122.0675
197.0400, 119.3433
197.5221, 119.9057
198.0042, 120.9973
198.4863, 120.8638
198.9684, 119.4799
199.4506, 119.2863
199.9327, 120.7749
200.4148, 123.1081
200.8969, 124.5063
201.3790, 124.9137
201.8611, 124.7927
202.3433, 124.1068
202.8254, 122.7372
203.3075, 122.4177
203.7896, 123.8059
204.2717, 125.8573
204.7538, 125.4089
205.2360, 121.6948
205.7181, 118.3061
206.2002, 117.8601
206.6823, 121.0043
207.1644, 122.6731
207.6465, 121.8880
208.1287, 119.6905
208.6108, 119.3004
209.0929, 121.1752
209.5750, 123.5821
210.0571, 125.6979
210.5392, 127.7308
211.0214, 128.4937
211.5035, 127.5071
211.9856, 125.3134
212.4677, 123.8124
212.9498, 123.2826
213.4319, 122.8208
213.9140, 121.6858
214.3962, 119.4276
214.8783, 118.1063
215.3604, 117.9551
215.8425, 118.8610
216.3246, 120.7079
216.8067, 124.3951
217.2889, 127.3332
217.7710, 127.5787
218.2531, 123.8301
218.7352, 121.2849
219.2173, 120.6792
219.6994, 121.5951
220.1816, 121.9359
220.6637, 121.0475
221.1458, 120.7044
221.6279, 122.5960
222.1100, 128.8034
222.5921, 131.5533
223.0743, 128.8263
223.5564, 122.1138
224.0385, 118.2921
224.5206, 118.1503
225.0027, 119.7379
225.4848, 122.4893
225.9670, 128.2609
226.4491, 130.4696
226.9312, 127.2497
227.4133, 119.9743
227.8954, 115.0305
228.3775, 112.9302
228.8597, 112.5305
229.3418, 113.4275
229.8239, 116.4592
230.3060, 118.8572
230.7881, 120.4687
231.2702, 121.2945
231.7524, 121.0697
232.2345, 118.8341
232.7166, 116.9034
233.1987, 116.8615
233.6808, 120.0678
234.1629, 122.1298
234.6451, 122.5585
235.1272, 121.6261
235.6093, 120.3894
236.0914, 118.1630
236.5735, 116.5680
237.0556, 116.6978
237.5378, 119.7342
238.0199, 121.9561
238.5020, 123.2808
238.9841, 123.6681
239.4662, 122.6428
239.9483, 118.7720
240.4305, 115.4507
240.9126, 114.7524
241.3947, 118.6672
241.8768, 120.7755
242.3589, 120.2297
242.8410, 117.7294
243.3232, 115.5816
243.8053, 113.3889
244.2874, 112.1171
244.7695, 112.5626
245.2516, 116.3052
245.7337, 118.0618
246.2159, 116.3872
246.6980, 112.7825
247.1801, 112.4006
247.6622, 117.4965
248.1443, 122.3965
248.6264, 124.1200
249.1086, 120.7776
249.5907, 118.8221
250.0728, 118.5655
250.5549, 119.6931
251.0370, 121.5995
251.5191, 125.2509
252.0013, 128.1591
252.4834, 129.1614
252.9655, 127.6016
253.4476, 125.6968
253.9297, 122.7377
254.4118, 119.7533
254.8940, 119.2020
255.3761, 122.2373
255.8582, 125.6785
256.3403, 128.3867
256.8224, 130.5322
257.3046, 131.2930
257.7867, 130.2530
258.2688, 128.0889
258.7509, 125.9773
259.2330, 123.6973
259.7151, 121.9567
260.1973, 121.0745
260.6794, 121.1957
261.1615, 121.6832
261.6436, 122.8830
262.1257, 124.1474
262.6078, 124.0520
263.0900, 121.6014
263.5721, 120.2281
264.0542, 121.8229
264.5363, 127.3092
265.0184, 129.4027
265.5005, 126.9275
265.9827, 122.5113
266.4648, 120.0015
266.9469, 120.1301
267.4290, 120.0805
267.9111, 118.8187
268.3932, 116.2341
268.8754, 114.2632
269.3575, 112.8177
269.8396, 112.1124
270.3217, 112.8538
270.8038, 115.6637
271.2859, 117.4356
271.7681, 116.8712
272.2502, 114.0878
272.7323, 112.6545
273.2144, 112.9315
273.6965, 113.8781
274.1786, 114.4756
274.6608, 114.7135
275.1429, 114.6525
275.6250, 114.1381
276.1071, 113.2913
276.5892, 113.1557
277.0714, 113.9501
277.5535, 114.8374
278.0356, 114.8865
278.5177, 113.9823
278.9998, 113.4861
279.4819, 113.8969
279.9641, 114.8829
280.4462, 114.8024
280.9283, 113.4159
281.4104, 111.9872
281.8925, 111.4798
282.3746, 111.8985
282.8568, 112.8875
283.3389, 114.6198
283.8210, 116.7066
284.3031, 118.0618
284.7852, 118.6538
285.2673, 118.8460
285.7495, 118.5590
286.2316, 117.8842
286.7137, 118.1664
287.1958, 119.8694
287.6779, 122.1753
288.1600, 123.4197
288.6422, 123.5929
289.1243, 123.3530
289.6064, 122.8386
290.0885, 122.1661
290.5706, 122.1219
291.0527, 122.9626
291.5349, 123.9842
292.0170, 123.7126
292.4991, 122.2971
292.9812, 121.4088
293.4633, 122.4392
293.9454, 124.7588
294.4276, 126.5345
294.9097, 127.7258
295.3918, 128.0453
295.8739, 126.7434
296.3560, 124.0908
296.8381, 121.2986
297.3203, 118.1941
297.8024, 115.5030
298.2845, 115.1053
298.7666, 117.2078
299.2487, 119.8837
299.7308, 121.4070
300.2130, 121.9833
300.6951, 122.1775
301.1772, 121.9878
301.6593, 121.6609
302.1414, 121.3775
302.6235, 121.1496
303.1057, 121.4137
303.5878, 122.9998
304.0699, 125.2948
304.5520, 127.1588
305.0341, 128.3369
305.5162, 128.8200
305.9984, 127.6920
306.4805, 125.3440
306.9626, 124.3858
307.4447, 128.1307
307.9268, 133.8695
308.4089, 137.9706
308.8911, 138.8666
309.3732, 138.8715
309.8553, 139.4218
310.3374, 140.5169
310.8195, 142.1827
311.3016, 144.9857
311.7838, 148.0587
312.2659, 150.7119
312.7480, 152.8626
313.2301, 154.4121
313.7122, 154.2468
314.1943, 153.4419
314.6765, 154.2711
315.1586, 159.1429
315.6407, 164.9779
316.1228, 169.9963
316.6049, 173.8851
317.0870, 177.2101
317.5692, 180.1649
318.0513, 182.6963
318.5334, 184.7065
319.0155, 185.0769
319.4976, 185.8549
319.9797, 188.8507
320.4619, 194.5458
320.9440, 197.6938
321.4261, 194.7434
321.9082, 189.3579
322.3903, 185.0097
322.8724, 184.8190
323.3546, 183.3359
323.8367, 178.1017
324.3188, 169.2904
324.8009, 162.2952
325.2830, 159.4356
325.7651, 157.8272
326.2473, 155.6177
326.7294, 152.3575
327.2115, 148.8206
327.6936, 144.5649
328.1757, 139.9267
328.6578, 136.3774
329.1400, 134.6196
329.6221, 133.3738
330.1042, 132.1078
330.5863, 130.8492
331.0684, 129.5004
331.5505, 127.7825
332.0327, 126.0295
332.5148, 125.0746
332.9969, 125.7262
333.4790, 126.0719
333.9611, 125.2820
334.4432, 122.8439
334.9254, 121.4202
335.4075, 121.7622
335.8896, 122.4944
336.3717, 121.4140
336.8538, 117.3423
337.3359, 114.3609
337.8180, 113.9051
338.3001, 115.9239
338.7823, 117.2693
339.2644, 117.7968
339.7465, 117.9180
340.2286, 118.1811
340.7107, 118.7644
341.1928, 118.2939
341.6750, 116.0141
342.1571, 112.6442
342.6392, 111.2221
343.1213, 111.9491
343.6034, 113.4794
344.0855, 115.2020
344.5677, 117.0709
345.0498, 118.1892
345.5319, 118.3106
346.0140, 117.8484
346.4961, 117.4006
346.9782, 116.9795
347.4604, 116.9072
347.9425, 117.9199
348.4246, 119.5181
348.9067, 119.5590
349.3888, 117.6866
349.8709, 115.4708
350.3531, 114.8815
350.8352, 115.5902
351.3173, 116.3760
351.7994, 116.8868
352.2815, 117.0914
352.7636, 116.6125
353.2458, 115.4520
353.7279, 114.7696
354.2100, 116.3751
354.6921, 119.0056
355.1742, 120.3926
355.6563, 118.9753
356.1385, 116.9669
356.6206, 116.1209
357.1027, 116.4132
357.5848, 117.7153
358.0669, 120.6777
358.5490, 124.2506
359.0312, 127.5331
359.5133, 130.5784
359.9954, 132.8615
360.4775, 133.6450
360.9596, 133.4575
361.4417, 133.4084
361.9239, 133.2832
362.4060, 133.9295
362.8881, 136.5291
363.3702, 141.9225
363.8523, 145.3439
364.3344, 143.1877
364.8166, 138.9617
365.2987, 136.6493
365.7808, 139.0510
366.2629, 141.6466
366.7450, 143.3167
367.2271, 144.0300
367.7093, 144.5424
368.1914, 144.6840
368.6735, 144.8104
369.1556, 145.1631
369.6377, 146.7608
370.1198, 147.2974
370.6020, 146.3998
371.0841, 144.3370
371.5662, 141.9724
372.0483, 138.4081
372.5304, 135.6667
373.0125, 134.8214
373.4947, 136.9046
373.9768, 137.9935
374.4589, 138.1745
374.9410, 137.3050
375.4231, 134.9277
375.9052, 130.4203
376.3874, 126.0743
376.8695, 122.3728
377.3516, 119.2978
377.8337, 118.1887
378.3158, 119.8095
378.7979, 121.2548
379.2801, 118.9726
379.7622, 112.7148
380.2443, 107.8457
380.7264, 105.6124
381.2085, 105.1950
381.6906, 104.4692
382.1728, 103.4296
382.6549, 102.4467
383.1370, 102.0118
383.6191, 101.8941
384.1012, 101.0457
384.5833, 99.16285
385.0655, 97.17155
385.5476, 96.50791
386.0297, 96.84477
386.5118, 97.03465
386.9939, 96.16734
387.4760, 94.96693
387.9582, 94.59621
388.4403, 95.08279
388.9224, 95.64269
389.4045, 95.49261
389.8866, 95.05237
390.3687, 94.97714
390.8509, 96.37045
391.3330, 97.23477
391.8151, 95.41590
392.2972, 91.61082
392.7793, 88.62913
393.2614, 88.75150
393.7436, 89.66084
394.2257, 89.59672
394.7078, 87.73322
395.1899, 86.16553
395.6720, 85.66145
396.1541, 85.91557
396.6363, 86.43761
397.1184, 88.26936
397.6005, 89.26949
398.0826, 88.02065
398.5647, 83.99180
399.0468, 81.83786
399.5290, 84.02353
400.0111, 87.12795
400.4932, 88.37301
400.9753, 85.44706
401.4574, 83.78552
401.9395, 84.56669
402.4217, 87.12984
402.9038, 88.34526
403.3859, 87.83968
403.8680, 86.53434
404.3501, 84.59971
404.8322, 81.52060
405.3144, 79.70312
405.7965, 79.33855
406.2786, 80.02668
406.7607, 81.44219
407.2428, 83.82191
407.7249, 85.63380
408.2071, 86.28369
408.6892, 85.91039
409.1713, 85.30884
409.6534, 84.46670
410.1355, 83.44233
410.6176, 81.84146
411.0998, 79.91019
411.5819, 79.42595
412.0640, 81.37052
412.5461, 83.83325
413.0282, 83.09966
413.5103, 79.72295
413.9925, 76.96121
414.4746, 77.31837
414.9567, 79.28146
415.4388, 80.59082
415.9209, 81.06508
416.4030, 81.02850
416.8852, 80.50742
417.3673, 79.70403
417.8494, 78.94817
418.3315, 78.33530
418.8136, 77.83269
419.2957, 77.23530
419.7779, 76.63476
420.2600, 76.58638
420.7421, 78.33826
421.2242, 80.13940
421.7063, 80.56318
422.1884, 78.44104
422.6706, 76.70377
423.1527, 76.28036
423.6348, 76.68690
424.1169, 77.00306
424.5990, 76.78780
425.0811, 76.75854
425.5633, 77.25388
426.0454, 78.39885
426.5275, 79.17751
427.0096, 79.48949
427.4917, 79.51831
427.9738, 79.41756
428.4560, 79.23165
428.9381, 78.76951
429.4202, 77.72160
429.9023, 76.44688
430.3844, 76.34035
430.8665, 77.86731
431.3487, 79.24097
431.8308, 79.36732
432.3129, 78.16035
432.7950, 77.54243
433.2771, 77.62778
433.7592, 78.05744
434.2414, 78.74242
434.7235, 79.58975
435.2056, 79.33549
435.6877, 76.86623
436.1698, 73.54943
436.6519, 72.46813
437.1341, 73.53557
437.6162, 75.03467
438.0983, 75.59581
438.5804, 75.76092
439.0625, 76.53871
439.5446, 78.22815
440.0268, 80.09345
440.5089, 82.02599
440.9910, 83.63911
441.4731, 84.12418
441.9552, 82.16592
442.4373, 79.72617
442.9195, 77.83253
443.4016, 76.53835
443.8837, 75.90663
444.3658, 76.59016
444.8479, 77.59663
445.3300, 78.14529
445.8122, 77.92526
446.2943, 77.45035
446.7764, 76.88380
447.2585, 76.12766
447.7406, 74.92486
448.2227, 71.49020
448.7049, 69.39722
449.1870, 70.27316
449.6691, 74.95967
450.1512, 77.37619
450.6333, 76.27052
451.1154, 74.23484
451.5976, 73.81210
452.0797, 75.57052
452.5618, 77.10409
453.0439, 78.19133
453.5260, 78.73972
454.0081, 78.12652
454.4903, 76.07978
454.9724, 74.64340
455.4545, 75.58122
455.9366, 78.41810
456.4187, 79.76364
456.9008, 79.40740
457.3830, 78.07870
457.8651, 75.64288
458.3472, 72.75777
458.8293, 71.83212
459.3114, 74.81306
459.7935, 78.90850
460.2757, 80.48683
460.7578, 79.94692
461.2399, 79.36747
461.7220, 80.76749
462.2041, 82.33584
462.6862, 81.88357
463.1684, 78.47639
463.6505, 75.89523
464.1326, 77.06641
464.6147, 79.92883
465.0968, 81.83804
465.5789, 81.02280
466.0611, 80.10706
466.5432, 79.60336
467.0253, 79.57121
467.5074, 80.33937
467.9895, 83.12993
468.4716, 85.77785
468.9538, 87.17464
469.4359, 86.50577
469.9180, 86.38062
470.4001, 87.20901
470.8822, 88.29570
471.3643, 88.66142
471.8465, 88.31370
472.3286, 87.10014
472.8107, 84.36311
473.2928, 80.68615
473.7749, 79.72096
474.2570, 81.91695
474.7392, 84.50581
475.2213, 85.24255
475.7034, 84.43171
476.1855, 84.30993
476.6676, 85.30650
477.1497, 86.35342
477.6319, 85.46199
478.1140, 83.30193
478.5961, 82.07887
479.0782, 83.85228
479.5603, 86.38451
480.0424, 86.91038
480.5246, 85.63777
481.0067, 84.25587
481.4888, 83.28394
481.9709, 82.97224
482.4530, 83.83165
482.9352, 86.77723
483.4173, 88.83358
483.8994, 88.11674
484.3815, 85.92475
484.8636, 84.24362
485.3457, 83.61241
485.8279, 83.44637
486.3100, 83.84900
486.7921, 84.81274
487.2742, 85.28477
487.7563, 84.95509
488.2384, 84.45594
488.7206, 84.11103
489.2027, 83.89956
489.6848, 83.95618
490.1669, 84.48193
490.6490, 85.06236
491.1311, 84.99619
491.6133, 84.20912
492.0954, 83.28284
492.5775, 82.32168
493.0596, 81.37493
493.5417, 80.39007
494.0238, 79.35435
494.5060, 79.04415
494.9881, 80.74447
495.4702, 83.57460
495.9523, 85.20860
496.4344, 85.12974
496.9165, 84.79128
497.3987, 86.02853
497.8808, 88.01328
498.3629, 89.15902
498.8450, 88.70004
499.3271, 87.28671
499.8092, 84.55601
500.2914, 80.88293
500.7735, 78.48653
501.2556, 78.70728
501.7377, 80.04855
502.2198, 81.96225
502.7019, 85.29798
503.1841, 86.83614
503.6662, 84.14778
504.1483, 80.30652
504.6304, 78.98303
505.1125, 82.14795
505.5946, 84.64904
506.0768, 85.58694
506.5589, 85.24146
507.0410, 84.94704
507.5231, 84.58824
508.0052, 84.59931
508.4873, 85.70512
508.9695, 87.91181
509.4516, 87.92771
509.9337, 85.27361
510.4158, 82.34959
510.8979, 82.45024
511.3800, 84.85371
511.8622, 86.16238
512.3443, 84.83347
512.8264, 82.94484
513.3085, 83.80782
513.7906, 86.64870
514.2728, 88.69157
514.7549, 87.18697
515.2370, 84.98246
515.7191, 85.00552
516.2012, 87.62437
516.6833, 89.27476
517.1655, 87.29167
517.6476, 84.16753
518.1297, 82.02922
518.6118, 81.73257
519.0939, 81.92876
519.5760, 82.91721
520.0582, 84.23719
520.5403, 84.77592
521.0224, 83.58151
521.5045, 82.94899
521.9866, 83.77834
522.4688, 86.06890
522.9509, 87.28970
523.4330, 87.11916
523.9151, 86.64562
524.3972, 86.68381
524.8793, 87.24336
525.3615, 87.94739
525.8436, 88.88224
526.3257, 89.63172
526.8078, 89.29520
527.2899, 88.11521
527.7720, 87.25026
528.2542, 87.24865
528.7363, 87.74312
529.2184, 88.21326
529.7005, 88.71170
530.1826, 89.54772
530.6647, 91.22181
531.1469, 93.12536
531.6290, 95.02119
532.1111, 97.10659
532.5932, 97.95455
533.0753, 95.49593
533.5574, 92.17241
534.0396, 90.55665
534.5217, 92.15492
535.0038, 94.22924
535.4859, 96.88249
535.9680, 99.76970
536.4501, 101.8218
536.9323, 102.8219
537.4144, 103.3521
537.8965, 103.5734
538.3786, 103.4846
538.8607, 102.9590
539.3428, 101.7144
539.8250, 100.9128
540.3071, 102.0799
540.7892, 104.9470
541.2713, 107.0078
541.7534, 107.6990
542.2355, 107.9546
542.7177, 109.7049
543.1998, 112.2386
543.6819, 113.2331
544.1640, 109.2761
544.6461, 104.9355
545.1282, 105.2331
545.6104, 109.4567
546.0925, 113.1108
546.5746, 113.2686
547.0567, 112.4753
547.5388, 112.3415
548.0209, 113.1312
548.5031, 114.4722
548.9852, 116.7705
549.4673, 119.3617
549.9494, 121.5616
550.4315, 123.4008
550.9136, 124.7429
551.3958, 125.2607
551.8779, 125.3511
552.3600, 126.3594
552.8421, 128.6760
553.3242, 130.5382
553.8063, 130.8857
554.2885, 130.0056
554.7706, 130.2368
555.2527, 131.6365
555.7348, 133.5387
556.2169, 135.9144
556.6990, 138.3187
557.1812, 139.5381
557.6633, 139.2157
558.1454, 138.3381
558.6275, 137.4786
559.1096, 136.7873
559.5917, 136.5103
560.0739, 136.9223
560.5560, 137.6126
561.0381, 138.5033
561.5202, 139.5327
562.0023, 140.4779
562.4844, 142.0722
562.9666, 142.8892
563.4487, 141.8758
563.9308, 138.4160
564.4129, 136.3288
564.8950, 136.4149
565.3771, 136.9960
565.8593, 136.6565
566.3414, 135.1653
566.8235, 133.6048
567.3056, 131.8138
567.7877, 130.3808
568.2698, 130.9733
568.7520, 133.4258
569.2341, 134.7907
569.7162, 133.2911
570.1983, 130.4696
570.6804, 129.0850
571.1625, 129.0064
571.6447, 129.2528
572.1268, 129.4529
572.6089, 129.5147
573.0910, 129.4120
573.5731, 129.1761
574.0552, 128.4980
574.5374, 126.7179
575.0195, 124.6801
575.5016, 123.1672
575.9837, 121.6847
576.4658, 121.5597
576.9479, 124.4679
577.4301, 128.4411
577.9122, 129.3513
578.3943, 125.1758
578.8764, 122.0637
579.3585, 122.3182
579.8406, 125.1959
580.3228, 125.0409
580.8049, 121.4074
581.2870, 117.6332
581.7691, 116.0186
582.2512, 116.1359
582.7333, 116.2411
583.2155, 116.2277
583.6975, 116.3003
584.1796, 117.5286
584.6617, 118.7764
585.1439, 117.9217
585.6260, 113.1007
586.1081, 108.3970
586.5902, 106.4585
587.0723, 106.3826
587.5544, 106.4489
588.0366, 105.7320
588.5187, 105.4982
589.0008, 106.2082
589.4829, 107.8548
589.9650, 109.8611
590.4471, 112.7522
590.9293, 115.3264
591.4114, 117.0493
591.8935, 117.9220
592.3756, 117.8781
592.8577, 116.7016
593.3398, 115.1857
593.8220, 113.9063
594.3041, 112.9192
594.7862, 112.7872
595.2683, 113.8260
595.7504, 115.1885
596.2325, 116.1076
596.7147, 116.5008
597.1968, 116.1464
597.6789, 113.9423
598.1610, 111.8019
598.6431, 111.2290
599.1252, 111.9799
599.6074, 112.8542
600.0895, 113.7854
600.5716, 114.4345
601.0537, 114.5162
601.5358, 113.8188
602.0179, 113.4647
602.5001, 113.3438
602.9822, 113.6924
603.4643, 114.7727
603.9464, 116.8138
604.4285, 118.6942
604.9106, 120.2861
605.3928, 121.8399
605.8749, 124.1174
606.3570, 127.0037
606.8391, 128.8439
607.3212, 128.8577
607.8033, 127.9237
608.2855, 126.5432
608.7676, 125.1637
609.2497, 125.3901
609.7318, 129.9196
610.2139, 135.0842
610.6960, 137.7666
611.1782, 137.8974
611.6603, 138.0974
612.1424, 139.4005
612.6245, 140.9857
613.1066, 142.2757
613.5887, 142.7773
614.0709, 144.1406
614.5530, 147.1089
615.0351, 150.2907
615.5172, 151.9673
615.9993, 151.5397
616.4814, 152.6459
616.9636, 156.4139
617.4457, 161.0360
617.9278, 162.5370
618.4099, 161.2558
618.8920, 160.7260
619.3741, 162.8510
619.8563, 166.2412
620.3384, 169.2066
620.8205, 171.7029
621.3026, 173.5135
621.7847, 173.1802
622.2668, 173.0782
622.7490, 175.5898
623.2311, 181.2595
623.7132, 185.4910
624.1953, 185.4449
624.6774, 184.6494
625.1595, 185.6710
625.6417, 190.3089
626.1238, 193.1772
626.6059, 193.2855
627.0880, 192.6838
627.5701, 194.3194
628.0522, 198.4661
628.5344, 202.1760
629.0165, 204.7051
629.4986, 206.6589
629.9807, 209.0859
630.4628, 211.9710
630.9449, 215.1481
631.4271, 218.2859
631.9092, 221.8613
632.3913, 226.7562
632.8734, 232.7649
633.3555, 238.4412
633.8376, 241.9123
634.3198, 245.7786
634.8019, 252.1404
635.2840, 261.9727
635.7661, 270.2244
636.2482, 274.6334
636.7303, 278.8276
637.2125, 285.3221
637.6946, 294.8709
638.1767, 304.7683
638.6588, 315.1046
639.1409, 325.4158
639.6230, 334.3379
640.1052, 342.0729
640.5873, 351.3026
641.0694, 362.9477
641.5515, 375.8409
642.0336, 387.3023
642.5157, 398.2368
642.9979, 411.5539
643.4800, 429.0630
643.9621, 449.0141
644.4442, 470.5636
644.9263, 493.5505
645.4084, 516.8840
645.8906, 538.9750
646.3727, 562.2073
646.8548, 587.5432
647.3369, 614.7020
647.8190, 644.7972
648.3011, 678.0021
648.7833, 713.5328
649.2654, 749.8342
649.7475, 787.1033
650.2296, 829.0984
650.7117, 876.5817
651.1938, 926.9847
651.6760, 976.1721
652.1581, 1025.276
652.6402, 1076.459
653.1223, 1130.951
653.6044, 1186.420
654.0865, 1243.533
654.5687, 1300.793
655.0508, 1355.561
655.5329, 1406.417
656.0150, 1455.829
656.4971, 1506.105
656.9792, 1556.187
657.4614, 1601.055
657.9435, 1643.170
658.4256, 1676.656
658.9077, 1699.602
659.3898, 1712.078
659.8719, 1716.240
660.3541, 1712.410
660.8362, 1698.836
661.3183, 1673.387
661.8004, 1637.061
662.2825, 1591.970
662.7646, 1538.122
663.2468, 1477.752
663.7289, 1409.862
664.2110, 1337.819
664.6931, 1265.719
665.1752, 1193.747
665.6573, 1123.254
666.1395, 1052.600
666.6216, 983.9579
667.1037, 919.9976
667.5858, 862.3229
668.0679, 807.7727
668.5500, 756.4911
669.0322, 709.0634
669.5143, 664.2165
669.9964, 624.1879
670.4785, 587.2759
670.9606, 553.3266
671.4427, 522.0742
