##NAMES=Hausmannite
##RRUFFID=R110179
##IDEAL CHEMISTRY=Mn^2+^Mn^3+^_2_O_4_
##LOCALITY=Cumbria, England
##OWNER=RRUFF
##SOURCE=Smithsonian
##DESCRIPTION=Druse of sharp black octahedra
##STATUS=The identification of this mineral has been confirmed by single-crystal X-ray diffraction.
##URL=rruff.info/R110179
163.9210, 64.80082
164.4031, 64.87596
164.8853, 64.86634
165.3674, 64.73336
165.8495, 64.30872
166.3316, 63.41463
166.8137, 62.66246
167.2958, 62.80278
167.7780, 63.62188
168.2601, 64.36337
168.7422, 64.53587
169.2243, 64.30508
169.7064, 64.33578
170.1885, 64.76303
170.6707, 65.41092
171.1528, 66.27324
171.6349, 67.27463
172.1170, 68.13304
172.5991, 68.63451
173.0812, 68.77219
173.5634, 68.70631
174.0455, 68.60350
174.5276, 68.12222
175.0097, 66.77383
175.4918, 64.74348
175.9739, 62.81358
176.4561, 61.98948
176.9382, 62.77670
177.4203, 62.92672
177.9024, 61.63227
178.3845, 60.39848
178.8666, 60.27635
179.3488, 61.25648
179.8309, 62.40597
180.3130, 62.38294
180.7951, 60.33578
181.2772, 59.01681
181.7593, 58.65701
182.2415, 58.76564
182.7236, 59.14177
183.2057, 59.68882
183.6878, 60.20115
184.1699, 60.34435
184.6520, 59.79250
185.1342, 59.51354
185.6163, 60.00663
186.0984, 60.57726
186.5805, 60.30556
187.0626, 58.87453
187.5447, 57.08488
188.0269, 56.36120
188.5090, 56.90201
188.9911, 57.42578
189.4732, 57.71767
189.9553, 57.80280
190.4374, 57.66771
190.9196, 57.23320
191.4017, 56.73924
191.8838, 56.58978
192.3659, 56.81285
192.8480, 56.93262
193.3301, 56.54461
193.8123, 55.83026
194.2944, 55.49201
194.7765, 55.87751
195.2586, 56.50567
195.7407, 56.93672
196.2228, 57.17095
196.7050, 57.12812
197.1871, 56.57908
197.6692, 55.55569
198.1513, 54.78164
198.6334, 54.53284
199.1155, 54.48534
199.5977, 54.44571
200.0798, 54.39602
200.5619, 54.35651
201.0440, 54.36115
201.5261, 54.42333
202.0082, 54.44131
202.4904, 54.44843
202.9725, 54.37139
203.4546, 54.04873
203.9367, 53.51469
204.4188, 53.06484
204.9009, 53.16862
205.3831, 54.14555
205.8652, 54.68177
206.3473, 54.48932
206.8294, 54.07288
207.3115, 53.66917
207.7936, 53.33817
208.2758, 53.03212
208.7579, 52.65045
209.2400, 51.97981
209.7221, 51.74401
210.2042, 52.15887
210.6863, 52.77301
211.1685, 53.40562
211.6506, 53.96745
212.1327, 54.32180
212.6148, 54.23829
213.0969, 53.36113
213.5790, 52.78635
214.0612, 52.77524
214.5433, 52.88236
215.0254, 52.67213
215.5075, 52.06787
215.9896, 51.42633
216.4717, 51.26553
216.9539, 51.82174
217.4360, 52.36162
217.9181, 53.09720
218.4002, 53.70210
218.8823, 53.73232
219.3644, 53.07547
219.8466, 52.24372
220.3287, 51.96796
220.8108, 52.36021
221.2929, 52.64261
221.7750, 52.51973
222.2571, 52.30679
222.7393, 52.56989
223.2214, 53.52226
223.7035, 54.37347
224.1856, 53.78306
224.6677, 51.87333
225.1498, 50.47298
225.6320, 50.18093
226.1141, 50.65386
226.5962, 51.59903
227.0783, 53.27691
227.5604, 54.51418
228.0425, 53.57833
228.5247, 51.00373
229.0068, 48.90400
229.4889, 48.22385
229.9710, 48.58278
230.4531, 49.24749
230.9352, 50.34249
231.4174, 51.32590
231.8995, 51.79409
232.3816, 51.84381
232.8637, 51.68266
233.3458, 51.21428
233.8279, 50.59235
234.3101, 50.35291
234.7922, 50.70864
235.2743, 51.12400
235.7564, 51.32932
236.2385, 51.36512
236.7206, 51.29285
237.2028, 51.00988
237.6849, 50.63685
238.1670, 50.75368
238.6491, 51.80440
239.1312, 52.68456
239.6133, 52.96592
240.0955, 52.79867
240.5776, 52.40738
241.0597, 51.82353
241.5418, 51.14568
242.0239, 50.91461
242.5060, 51.66813
242.9882, 52.12569
243.4703, 51.78258
243.9524, 50.96417
244.4345, 50.09077
244.9166, 49.35057
245.3987, 48.80059
245.8809, 48.77144
246.3630, 49.96363
246.8451, 50.77364
247.3272, 50.47456
247.8093, 49.73397
248.2914, 49.50031
248.7736, 50.33044
249.2557, 51.86720
249.7378, 52.63844
250.2199, 51.90352
250.7020, 51.26489
251.1841, 50.88722
251.6663, 50.73238
252.1484, 50.82881
252.6305, 51.19884
253.1126, 51.66497
253.5947, 51.66489
254.0768, 50.69784
254.5590, 49.82764
255.0411, 48.94111
255.5232, 48.24945
256.0053, 48.05631
256.4874, 48.48813
256.9695, 49.28345
257.4517, 49.81047
257.9338, 49.87479
258.4159, 49.87026
258.8980, 49.73580
259.3801, 49.56144
259.8622, 49.46568
260.3444, 49.48643
260.8265, 49.52563
261.3086, 49.39096
261.7907, 48.83524
262.2728, 48.49996
262.7549, 48.75032
263.2371, 49.04962
263.7192, 48.64880
264.2013, 47.38063
264.6834, 46.05143
265.1655, 45.92512
265.6476, 47.74298
266.1298, 49.02776
266.6119, 49.38220
267.0940, 49.38311
267.5761, 49.59336
268.0582, 50.11814
268.5403, 50.62682
269.0225, 50.71335
269.5046, 50.25573
269.9867, 49.86523
270.4688, 49.34111
270.9509, 49.02319
271.4330, 49.37057
271.9152, 50.39622
272.3973, 51.44921
272.8794, 51.83093
273.3615, 51.48484
273.8436, 51.59200
274.3257, 52.60834
274.8079, 53.77662
275.2900, 54.48963
275.7721, 54.72981
276.2542, 54.80084
276.7363, 54.80430
277.2184, 54.82728
277.7006, 55.30842
278.1827, 56.62032
278.6648, 58.09272
279.1469, 59.17513
279.6290, 59.92210
280.1111, 60.85115
280.5933, 62.31571
281.0754, 64.20216
281.5575, 65.98804
282.0396, 67.29256
282.5217, 68.94589
283.0038, 71.54781
283.4860, 74.98877
283.9681, 78.73819
284.4502, 82.62936
284.9323, 86.64520
285.4144, 90.76272
285.8965, 95.07426
286.3787, 99.26212
286.8608, 103.3122
287.3429, 107.1252
287.8250, 110.4880
288.3071, 113.5411
288.7892, 115.7439
289.2714, 116.5087
289.7535, 115.8887
290.2356, 114.0807
290.7177, 110.7568
291.1998, 106.3006
291.6819, 101.6063
292.1641, 96.72549
292.6462, 91.91610
293.1283, 87.30961
293.6104, 82.91145
294.0925, 79.05606
294.5746, 75.92818
295.0568, 73.43966
295.5389, 71.55756
296.0210, 70.46033
296.5031, 69.43178
296.9852, 67.76715
297.4673, 65.66241
297.9495, 63.59518
298.4316, 61.45986
298.9137, 59.55629
299.3958, 58.40339
299.8779, 58.09381
300.3600, 58.14458
300.8422, 58.57592
301.3243, 59.10845
301.8064, 59.20601
302.2885, 58.49665
302.7706, 57.55285
303.2527, 56.95345
303.7349, 56.69756
304.2170, 56.78619
304.6991, 57.48125
305.1812, 58.40905
305.6633, 59.05989
306.1454, 59.32261
306.6276, 59.42299
307.1097, 59.32137
307.5918, 59.05998
308.0739, 59.47146
308.5560, 61.28282
309.0381, 63.50139
309.5203, 64.92186
310.0024, 65.44918
310.4845, 65.92931
310.9666, 66.87829
311.4487, 68.24987
311.9308, 69.83733
312.4130, 71.65857
312.8951, 73.60381
313.3772, 75.60184
313.8593, 77.63999
314.3414, 79.56543
314.8235, 81.06371
315.3057, 82.40421
315.7878, 84.40447
316.2699, 87.35573
316.7520, 90.40812
317.2341, 93.19413
317.7162, 95.61941
318.1984, 97.36916
318.6805, 98.25481
319.1626, 98.42551
319.6447, 97.93410
320.1268, 96.64033
320.6089, 95.40829
321.0911, 95.45655
321.5732, 95.64098
322.0553, 94.15582
322.5374, 89.97717
323.0195, 85.11313
323.5016, 81.77140
323.9838, 79.94496
324.4659, 77.90096
324.9480, 74.61870
325.4301, 71.06918
325.9122, 68.49345
326.3943, 67.05549
326.8765, 65.94730
327.3586, 64.64719
327.8407, 63.18525
328.3228, 61.72706
328.8049, 60.20556
329.2870, 58.86116
329.7692, 57.95959
330.2513, 57.46888
330.7334, 57.08030
331.2155, 56.71558
331.6976, 56.34297
332.1797, 55.84310
332.6619, 55.13105
333.1440, 54.49684
333.6261, 54.32013
334.1082, 54.41781
334.5903, 54.34928
335.0724, 53.68287
335.5546, 52.93082
336.0367, 52.90430
336.5188, 53.68578
337.0009, 54.33369
337.4830, 54.19084
337.9651, 53.58462
338.4473, 53.13262
338.9294, 52.91752
339.4115, 52.83997
339.8936, 52.83713
340.3757, 52.90899
340.8578, 53.09536
341.3400, 53.56392
341.8221, 53.98550
342.3042, 53.78060
342.7863, 52.80260
343.2684, 52.03630
343.7505, 52.01633
344.2327, 52.56096
344.7148, 53.30597
345.1969, 54.25808
345.6790, 55.17146
346.1611, 55.74998
346.6432, 56.04131
347.1254, 56.17105
347.6075, 55.81871
348.0896, 55.49237
348.5717, 56.03532
349.0538, 57.55634
349.5359, 58.92562
350.0181, 59.14153
350.5002, 58.48120
350.9823, 58.30901
351.4644, 59.00419
351.9465, 59.94446
352.4286, 60.73456
352.9108, 61.40892
353.3929, 62.14007
353.8750, 62.98009
354.3571, 63.95980
354.8392, 65.16541
355.3214, 66.67976
355.8035, 68.18883
356.2856, 69.51911
356.7677, 70.77529
357.2498, 72.07185
357.7319, 73.40749
358.2141, 74.98882
358.6962, 77.17919
359.1783, 80.04369
359.6604, 83.08727
360.1425, 86.53319
360.6246, 89.98030
361.1068, 92.93410
361.5889, 95.40808
362.0710, 97.85863
362.5531, 100.6344
363.0352, 103.7650
363.5173, 107.1343
363.9995, 111.5006
364.4816, 115.3593
364.9637, 117.5215
365.4458, 118.5612
365.9279, 120.0318
366.4100, 122.8004
366.8922, 126.3965
367.3743, 129.2427
367.8564, 130.9450
368.3385, 132.5220
368.8206, 133.9991
369.3027, 135.4610
369.7849, 137.2244
370.2670, 139.3233
370.7491, 141.0833
371.2312, 141.5226
371.7133, 140.1814
372.1954, 138.7511
372.6776, 137.2372
373.1597, 135.6457
373.6418, 134.1751
374.1239, 132.6826
374.6060, 130.7167
375.0881, 127.9011
375.5703, 124.2505
376.0524, 119.9855
376.5345, 114.5426
377.0166, 109.1248
377.4987, 103.6215
377.9808, 98.39002
378.4630, 94.06828
378.9451, 90.95782
379.4272, 88.43825
379.9093, 84.96496
380.3914, 79.32858
380.8735, 74.75655
381.3557, 71.81251
381.8378, 69.52964
382.3199, 67.19988
382.8020, 64.71046
383.2841, 62.40411
383.7662, 60.75622
384.2484, 59.90646
384.7305, 58.68809
385.2126, 56.46708
385.6947, 54.47472
386.1768, 53.23467
386.6589, 52.51808
387.1411, 51.79840
387.6232, 50.72601
388.1053, 49.46366
388.5874, 48.63752
389.0695, 48.51573
389.5516, 48.33573
390.0338, 47.86259
390.5159, 47.29049
390.9980, 46.84576
391.4801, 46.58596
391.9622, 46.27346
392.4443, 45.48800
392.9265, 44.14274
393.4086, 43.19036
393.8907, 43.09376
394.3728, 43.10918
394.8549, 42.78025
395.3370, 42.17309
395.8192, 41.61584
396.3013, 41.35854
396.7834, 41.30987
397.2655, 41.18985
397.7476, 41.01794
398.2297, 40.72339
398.7119, 39.95339
399.1940, 39.13226
399.6761, 38.93595
400.1582, 39.79305
400.6403, 40.73555
401.1224, 40.57499
401.6046, 39.39241
402.0867, 38.63967
402.5688, 38.99464
403.0509, 39.69261
403.5330, 39.83270
404.0151, 39.41429
404.4973, 38.82518
404.9794, 37.97998
405.4615, 37.14502
405.9436, 36.90215
406.4257, 37.38597
406.9078, 37.90931
407.3900, 37.83992
407.8721, 37.30890
408.3542, 37.04036
408.8363, 37.30889
409.3184, 37.65068
409.8005, 37.87886
410.2827, 37.95372
410.7648, 37.63214
411.2469, 36.66534
411.7290, 35.52557
412.2111, 35.45019
412.6932, 37.07491
413.1754, 38.01783
413.6575, 37.28284
414.1396, 35.98603
414.6217, 35.31062
415.1038, 35.44544
415.5859, 35.83158
416.0681, 35.93545
416.5502, 35.73114
417.0323, 35.48815
417.5144, 35.16840
417.9965, 34.85631
418.4786, 34.55066
418.9608, 34.28205
419.4429, 34.05604
419.9250, 33.86581
420.4071, 33.80919
420.8892, 34.20260
421.3713, 35.85027
421.8535, 36.69303
422.3356, 36.14286
422.8177, 35.20083
423.2998, 34.54449
423.7819, 34.30798
424.2640, 34.34120
424.7462, 34.56304
425.2283, 35.01040
425.7104, 35.09764
426.1925, 34.26609
426.6746, 33.67573
427.1567, 33.77844
427.6389, 34.30858
428.1210, 34.89553
428.6031, 35.39918
429.0852, 35.72348
429.5673, 35.56435
430.0494, 34.70868
430.5316, 34.13875
431.0137, 34.35791
431.4958, 34.76210
431.9779, 35.01200
432.4600, 35.07494
432.9421, 35.05938
433.4243, 34.99858
433.9064, 34.91708
434.3885, 34.96649
434.8706, 35.26646
435.3527, 35.43292
435.8348, 35.08522
436.3170, 34.46022
436.7991, 33.92096
437.2812, 33.49242
437.7633, 33.26828
438.2454, 33.36872
438.7275, 33.77036
439.2097, 34.34380
439.6918, 35.12424
440.1739, 35.93620
440.6560, 36.60027
441.1381, 37.17694
441.6202, 37.29191
442.1024, 36.47534
442.5845, 35.34249
443.0666, 34.52125
443.5487, 34.08352
444.0308, 33.98332
444.5129, 34.26526
444.9951, 34.87268
445.4772, 35.26134
445.9593, 35.42913
446.4414, 35.41793
446.9235, 35.21305
447.4056, 34.84404
447.8878, 34.20018
448.3699, 33.26100
448.8520, 32.48453
449.3341, 32.64779
449.8162, 34.30988
450.2983, 35.32341
450.7805, 35.20021
451.2626, 34.98070
451.7447, 35.25113
452.2268, 35.89477
452.7089, 36.49020
453.1910, 36.76495
453.6732, 36.75191
454.1553, 36.54055
454.6374, 35.81124
455.1195, 35.44688
455.6016, 35.83178
456.0837, 36.42899
456.5659, 36.84976
457.0480, 37.00206
457.5301, 36.92292
458.0122, 36.37740
458.4943, 35.38907
458.9764, 35.40681
459.4586, 37.19178
459.9407, 38.91945
460.4228, 39.49461
460.9049, 39.39063
461.3870, 39.48005
461.8691, 40.21753
462.3513, 41.02021
462.8334, 40.93197
463.3155, 40.00668
463.7976, 39.72591
464.2797, 40.86850
464.7618, 42.47453
465.2440, 43.30070
465.7261, 43.34720
466.2082, 43.36734
466.6903, 43.35081
467.1724, 43.58412
467.6545, 44.61251
468.1367, 46.41820
468.6188, 48.17167
469.1009, 49.29161
469.5830, 49.90369
470.0651, 50.68478
470.5472, 51.83570
471.0294, 52.87125
471.5115, 53.69407
471.9936, 54.32255
472.4757, 54.65523
472.9578, 54.70361
473.4399, 54.85824
473.9221, 55.65070
474.4042, 57.27518
474.8863, 58.39817
475.3684, 58.83895
475.8505, 59.04636
476.3326, 59.15213
476.8148, 59.14225
477.2969, 58.93202
477.7790, 58.47613
478.2611, 57.89614
478.7432, 57.50781
479.2253, 57.50494
479.7075, 57.14244
480.1896, 56.05349
480.6717, 54.82118
481.1538, 53.67010
481.6359, 52.64804
482.1180, 51.78813
482.6002, 51.19848
483.0823, 50.76311
483.5644, 50.12761
484.0465, 49.25127
484.5286, 48.33368
485.0107, 47.46701
485.4929, 46.60240
485.9750, 45.64044
486.4571, 44.53975
486.9392, 43.54044
487.4213, 42.81213
487.9034, 42.28632
488.3856, 41.83192
488.8677, 41.42974
489.3498, 41.06069
489.8319, 40.71688
490.3140, 40.39620
490.7961, 40.07366
491.2783, 39.85048
491.7604, 39.51612
492.2425, 38.92758
492.7246, 38.16755
493.2067, 37.25092
493.6888, 36.18392
494.1710, 35.37175
494.6531, 35.53797
495.1352, 37.20826
495.6173, 38.19456
496.0994, 38.12117
496.5815, 37.83524
497.0637, 37.70971
497.5458, 37.69621
498.0279, 37.65126
498.5100, 37.51461
498.9921, 37.18663
499.4742, 36.26417
499.9564, 34.22954
500.4385, 32.93447
500.9206, 33.06562
501.4027, 33.66424
501.8848, 34.46474
502.3669, 35.29046
502.8491, 35.64771
503.3312, 34.82594
503.8133, 33.37624
504.2954, 32.93937
504.7775, 33.75356
505.2596, 34.45335
505.7418, 34.26659
506.2239, 33.67849
506.7060, 33.34886
507.1881, 33.30725
507.6702, 33.54427
508.1523, 34.51782
508.6345, 35.61835
509.1166, 35.58548
509.5987, 34.22922
510.0808, 32.89869
510.5629, 32.78556
511.0450, 33.75023
511.5272, 34.08025
512.0093, 32.94817
512.4914, 32.25189
512.9735, 33.11096
513.4556, 34.49107
513.9377, 34.86597
514.4199, 33.89117
514.9020, 32.63810
515.3841, 32.55178
515.8662, 33.91839
516.3483, 34.48065
516.8304, 33.41646
517.3126, 32.39704
517.7947, 31.83236
518.2768, 31.62107
518.7589, 31.61489
519.2410, 31.76447
519.7231, 31.95867
520.2053, 31.97969
520.6874, 31.79964
521.1695, 31.89360
521.6516, 32.60205
522.1337, 33.23620
522.6158, 33.26252
523.0980, 32.84915
523.5801, 32.47400
524.0622, 32.31797
524.5443, 32.25959
525.0264, 32.22538
525.5085, 32.19683
525.9907, 32.03993
526.4728, 31.66404
526.9549, 31.23457
527.4370, 30.98011
527.9191, 30.89621
528.4012, 30.98178
528.8834, 31.29845
529.3655, 31.73248
529.8476, 32.29801
530.3297, 32.92053
530.8118, 33.46989
531.2939, 33.89503
531.7761, 34.08771
532.2582, 33.70715
532.7403, 32.07735
533.2224, 31.13502
533.7045, 31.05675
534.1866, 31.44842
534.6688, 32.31518
535.1509, 33.46299
535.6330, 34.49149
536.1151, 35.17149
536.5972, 35.51340
537.0793, 35.51641
537.5615, 35.13049
538.0436, 34.59881
538.5257, 33.67561
539.0078, 32.89296
539.4899, 32.83085
539.9720, 33.46380
540.4542, 34.04182
540.9363, 34.08297
541.4184, 33.91291
541.9005, 34.17790
542.3826, 34.84986
542.8647, 34.94073
543.3469, 33.67974
543.8290, 31.76893
544.3111, 31.10935
544.7932, 32.25163
545.2753, 33.14231
545.7574, 33.38207
546.2396, 33.34143
546.7217, 33.24287
547.2038, 33.15552
547.6859, 33.16468
548.1680, 33.34194
548.6501, 33.64022
549.1323, 33.85018
549.6144, 33.92947
550.0965, 33.98778
550.5786, 33.96167
551.0607, 33.97945
551.5428, 34.21462
552.0250, 34.61969
552.5071, 34.90606
552.9892, 34.74091
553.4713, 34.34320
553.9534, 34.38100
554.4355, 34.92279
554.9177, 35.58517
555.3998, 36.45556
555.8819, 37.18412
556.3640, 37.26183
556.8461, 36.59898
557.3282, 35.96196
557.8104, 35.56732
558.2925, 35.39933
558.7746, 35.47933
559.2567, 35.78924
559.7388, 36.23281
560.2209, 36.78213
560.7031, 37.38245
561.1852, 37.86295
561.6673, 38.39819
562.1494, 38.54620
562.6315, 37.89824
563.1136, 37.17628
563.5958, 36.94167
564.0779, 37.14508
564.5600, 37.39734
565.0421, 37.42625
565.5242, 37.29606
566.0063, 37.17176
566.4885, 36.94649
566.9706, 37.04245
567.4527, 38.10760
567.9348, 39.11513
568.4169, 39.21889
568.8990, 38.49730
569.3812, 37.81254
569.8633, 37.60694
570.3454, 37.70651
570.8275, 37.98037
571.3096, 38.40077
571.7917, 38.59868
572.2739, 38.36476
572.7560, 37.91454
573.2381, 37.63168
573.7202, 37.55686
574.2023, 37.47070
574.6844, 37.11036
575.1666, 36.94274
575.6487, 37.60762
576.1308, 38.73493
576.6129, 39.25507
577.0950, 38.57872
577.5771, 37.37492
578.0593, 37.25922
578.5414, 38.94612
579.0235, 39.76392
579.5056, 38.73037
579.9877, 37.58965
580.4698, 37.07853
580.9520, 37.07618
581.4341, 37.19220
581.9162, 37.28220
582.3983, 37.35371
582.8804, 37.54284
583.3625, 37.80165
583.8447, 37.49899
584.3268, 36.25526
584.8089, 34.94988
585.2910, 34.61235
585.7731, 35.13762
586.2552, 35.43398
586.7374, 35.17051
587.2195, 34.90527
587.7016, 34.80092
588.1837, 34.92462
588.6658, 35.50788
589.1479, 36.58699
589.6301, 37.68985
590.1122, 38.21701
590.5943, 38.10109
591.0764, 38.04366
591.5585, 38.15725
592.0406, 38.19559
592.5228, 37.95729
593.0049, 37.68064
593.4870, 37.68818
593.9691, 38.05513
594.4512, 38.47970
594.9333, 38.75525
595.4155, 38.86146
595.8976, 38.62336
596.3797, 37.93110
596.8618, 37.34557
597.3439, 37.20508
597.8260, 37.40401
598.3082, 37.66732
598.7903, 38.08443
599.2724, 38.34087
599.7545, 38.14960
600.2366, 37.86294
600.7188, 37.83366
601.2009, 38.09277
601.6830, 38.55107
602.1651, 39.17459
602.6472, 39.89102
603.1293, 40.42761
603.6115, 40.69293
604.0936, 40.94095
604.5757, 41.20081
605.0578, 41.43974
605.5399, 41.70017
606.0220, 41.92718
606.5042, 41.92276
606.9863, 41.39066
607.4684, 40.85052
607.9505, 41.37931
608.4326, 42.94098
608.9147, 43.98915
609.3969, 43.96082
609.8790, 43.59259
610.3611, 43.69501
610.8432, 44.22214
611.3253, 44.60427
611.8074, 44.50721
612.2896, 44.53864
612.7717, 45.17681
613.2538, 46.11531
613.7359, 46.76576
614.2180, 46.97618
614.7001, 47.17971
615.1823, 48.00031
615.6644, 49.51047
616.1465, 50.07476
616.6286, 48.63462
617.1107, 47.70419
617.5928, 48.14118
618.0750, 49.23626
618.5571, 50.43917
619.0392, 51.60613
619.5213, 52.40417
620.0034, 52.12266
620.4855, 51.40273
620.9677, 51.93561
621.4498, 53.83627
621.9319, 55.40004
622.4140, 55.61589
622.8961, 55.17168
623.3782, 55.65472
623.8604, 57.56311
624.3425, 58.70894
624.8246, 57.90742
625.3067, 57.09583
625.7888, 57.78923
626.2709, 59.54837
626.7531, 61.05432
627.2352, 61.64556
627.7173, 61.87904
628.1994, 62.84426
628.6815, 64.74596
629.1636, 66.22849
629.6458, 66.80634
630.1279, 67.48627
630.6100, 69.00705
631.0921, 70.90654
631.5742, 72.21924
632.0563, 72.37761
632.5385, 72.92266
633.0206, 75.48286
633.5027, 79.08105
633.9848, 81.66525
634.4669, 82.95551
634.9490, 84.16669
635.4312, 86.21033
635.9133, 88.88562
636.3954, 91.26866
636.8775, 92.81194
637.3596, 94.78596
637.8417, 97.34061
638.3239, 100.2373
638.8060, 103.3667
639.2881, 106.6899
639.7702, 110.1275
640.2523, 113.5942
640.7344, 117.2462
641.2166, 121.2863
641.6987, 125.7217
642.1808, 130.7996
642.6629, 136.8810
643.1450, 143.1546
643.6271, 148.5912
644.1093, 153.5637
644.5914, 159.4487
645.0735, 166.3990
645.5556, 174.2998
646.0377, 183.3186
646.5198, 193.1679
647.0020, 203.2893
647.4841, 213.5996
647.9662, 224.6162
648.4483, 236.7722
648.9304, 249.9978
649.4125, 264.3779
649.8947, 279.6546
650.3768, 296.4608
650.8589, 315.1596
651.3410, 335.0580
651.8231, 355.5486
652.3052, 376.7347
652.7874, 399.4412
653.2695, 424.1924
653.7516, 450.5570
654.2337, 478.3499
654.7158, 507.2811
655.1979, 536.3331
655.6801, 565.4151
656.1622, 593.4199
656.6443, 619.6970
657.1264, 644.3259
657.6085, 664.1352
658.0906, 679.7253
658.5728, 690.5077
659.0549, 697.1074
659.5370, 698.4927
660.0191, 693.5235
660.5012, 682.1386
660.9833, 665.2293
661.4655, 642.7943
661.9476, 615.7728
662.4297, 587.2979
662.9118, 557.2940
