##NAMES=Hausmannite
##RRUFFID=R040090
##IDEAL CHEMISTRY=Mn^2+^Mn^3+^_2_O_4_
##LOCALITY=Ã–hrenstock, Ilmenau, near Thuringia, Germany
##OWNER=RRUFF
##SOURCE=University of Arizona Mineral Museum
##DESCRIPTION=Mass of black octahedral crystals
##STATUS=The identification of this mineral has been confirmed by X-ray diffraction and chemical analysis
##URL=rruff.info/R040090
##MEASURED CHEMISTRY=(Mn^2+^_0.71_Zn_0.28_)Mn^3+^_2.00_O_4_
106.6838, 135.0207
107.1659, 135.0925
107.6480, 134.9823
108.1301, 134.4140
108.6122, 133.6939
109.0944, 133.4554
109.5765, 134.0429
110.0586, 134.0868
110.5407, 131.7182
111.0228, 126.8428
111.5049, 123.2613
111.9871, 122.5281
112.4692, 123.9259
112.9513, 127.0063
113.4334, 131.9373
113.9155, 137.9976
114.3976, 144.8772
114.8798, 153.4436
115.3619, 159.7809
115.8440, 161.9257
116.3261, 161.4744
116.8082, 159.0641
117.2903, 153.8834
117.7725, 148.4169
118.2546, 149.2583
118.7367, 161.2008
119.2188, 170.6977
119.7009, 171.9747
120.1830, 169.0487
120.6652, 167.0454
121.1473, 168.8804
121.6294, 173.8166
122.1115, 178.2692
122.5936, 182.0088
123.0757, 185.4100
123.5579, 188.8357
124.0400, 192.0037
124.5221, 193.9441
125.0042, 192.9845
125.4863, 189.3146
125.9684, 193.1561
126.4506, 211.4357
126.9327, 231.3298
127.4148, 251.9609
127.8969, 271.7403
128.3790, 288.3628
128.8611, 299.0783
129.3432, 302.7520
129.8254, 309.7204
130.3075, 319.5433
130.7896, 332.5966
131.2717, 350.9131
131.7538, 373.3000
132.2359, 396.2618
132.7181, 416.2803
133.2002, 433.4176
133.6823, 446.8633
134.1644, 459.4290
134.6465, 467.0529
135.1286, 465.6089
135.6108, 455.5634
136.0929, 441.8000
136.5750, 429.5665
137.0571, 417.3132
137.5392, 412.7168
138.0213, 425.8283
138.5035, 439.7914
138.9856, 440.2503
139.4677, 424.5663
139.9498, 401.6447
140.4319, 383.5210
140.9140, 371.7787
141.3962, 362.2794
141.8783, 354.5321
142.3604, 349.2446
142.8425, 345.3971
143.3246, 342.5997
143.8067, 345.4072
144.2889, 363.3324
144.7710, 403.3454
145.2531, 439.4081
145.7352, 463.2401
146.2173, 476.2578
146.6994, 487.9181
147.1816, 507.2718
147.6637, 526.6843
148.1458, 531.3546
148.6279, 519.1229
149.1100, 507.3119
149.5921, 500.1934
150.0743, 496.0162
150.5564, 492.3572
151.0385, 489.0782
151.5206, 484.3487
152.0027, 474.3736
152.4848, 458.5110
152.9670, 441.0321
153.4491, 420.9442
153.9312, 400.1426
154.4133, 384.2418
154.8954, 376.7985
155.3775, 373.0624
155.8597, 363.6400
156.3418, 345.6151
156.8239, 330.7088
157.3060, 326.8031
157.7881, 331.4348
158.2702, 335.0978
158.7524, 334.7372
159.2345, 331.1996
159.7166, 325.4768
160.1987, 315.5457
160.6808, 308.8999
161.1629, 312.9485
161.6451, 325.8663
162.1272, 336.0086
162.6093, 339.8754
163.0914, 338.0907
163.5735, 332.2841
164.0556, 321.5680
164.5378, 309.7849
165.0199, 300.3732
165.5020, 293.0914
165.9841, 283.9163
166.4662, 268.7760
166.9483, 253.0282
167.4305, 242.8326
167.9126, 239.3908
168.3947, 239.3503
168.8768, 241.1678
169.3589, 244.8871
169.8410, 246.7799
170.3232, 244.1993
170.8053, 239.8217
171.2874, 236.4098
171.7695, 234.4104
172.2516, 233.1065
172.7337, 232.3125
173.2159, 232.1549
173.6980, 230.6105
174.1801, 224.8713
174.6622, 218.4299
175.1443, 215.0372
175.6264, 215.9879
176.1086, 217.8917
176.5907, 216.7938
177.0728, 212.2792
177.5549, 207.9548
178.0370, 204.4912
178.5191, 202.1437
179.0013, 201.8368
179.4834, 204.3485
179.9655, 206.6925
180.4476, 204.7926
180.9297, 197.9255
181.4118, 191.3301
181.8940, 187.2483
182.3761, 183.9137
182.8582, 179.5010
183.3403, 173.1791
183.8224, 167.7091
184.3046, 167.7214
184.7867, 174.6673
185.2688, 179.2317
185.7509, 176.6742
186.2330, 171.4559
186.7151, 166.1695
187.1973, 161.2701
187.6794, 157.3503
188.1615, 155.7766
188.6436, 157.3369
189.1257, 157.4091
189.6078, 153.0708
190.0900, 147.6170
190.5721, 143.0399
191.0542, 139.8174
191.5363, 137.7601
192.0184, 136.4911
192.5005, 135.8475
192.9827, 136.8042
193.4648, 142.9466
193.9469, 148.8845
194.4290, 150.1142
194.9111, 145.4581
195.3932, 139.1795
195.8754, 136.4244
196.3575, 137.7335
196.8396, 139.6564
197.3217, 142.0268
197.8038, 144.3931
198.2859, 146.8465
198.7681, 149.4300
199.2502, 151.0183
199.7323, 149.5388
200.2144, 144.2105
200.6965, 140.5615
201.1786, 141.6003
201.6608, 143.5992
202.1429, 144.6177
202.6250, 144.2958
203.1071, 143.0099
203.5892, 140.4842
204.0713, 136.2879
204.5535, 134.0816
205.0356, 138.1931
205.5177, 141.9709
205.9998, 140.5019
206.4819, 133.3997
206.9640, 125.6525
207.4462, 122.5764
207.9283, 124.5971
208.4104, 126.4204
208.8925, 127.7218
209.3746, 128.2479
209.8567, 127.1514
210.3388, 124.6071
210.8210, 122.6351
211.3031, 124.2218
211.7852, 129.5628
212.2673, 131.6025
212.7494, 126.2440
213.2315, 120.2324
213.7137, 117.4648
214.1958, 117.8883
214.6779, 119.3115
215.1600, 120.6456
215.6421, 121.8421
216.1242, 121.0986
216.6064, 116.3960
217.0885, 111.6906
217.5706, 109.1068
218.0527, 108.5075
218.5348, 108.8223
219.0169, 110.0283
219.4991, 111.8724
219.9812, 111.8643
220.4633, 108.2000
220.9454, 104.8290
221.4275, 104.1202
221.9096, 105.5442
222.3918, 107.3529
222.8739, 109.2674
223.3560, 110.9077
223.8381, 110.0163
224.3202, 104.6141
224.8023, 99.79086
225.2845, 98.84602
225.7666, 100.5428
226.2487, 102.1008
226.7308, 101.7306
227.2129, 100.1899
227.6950, 99.73360
228.1772, 100.8743
228.6593, 102.0249
229.1414, 102.9845
229.6235, 103.3175
230.1056, 101.9030
230.5877, 96.25150
231.0699, 89.65426
231.5520, 89.33543
232.0341, 97.46351
232.5162, 105.1554
232.9983, 106.7887
233.4804, 105.2937
233.9626, 104.3396
234.4447, 105.4550
234.9268, 107.1741
235.4089, 107.6487
235.8910, 106.8375
236.3731, 105.0082
236.8553, 100.7529
237.3374, 96.08513
237.8195, 93.55991
238.3016, 93.88927
238.7837, 96.08866
239.2658, 100.2545
239.7480, 106.4426
240.2301, 110.7524
240.7122, 110.9942
241.1943, 108.7056
241.6764, 105.9842
242.1585, 102.5316
242.6407, 99.72832
243.1228, 99.17525
243.6049, 100.5077
244.0870, 100.9865
244.5691, 98.90713
245.0512, 96.40598
245.5334, 96.96307
246.0155, 101.4581
246.4976, 104.9941
246.9797, 104.2315
247.4618, 100.3933
247.9439, 97.00333
248.4261, 94.96268
248.9082, 93.74052
249.3903, 92.53201
249.8724, 91.25279
250.3545, 90.65462
250.8366, 91.34946
251.3188, 92.82923
251.8009, 94.38669
252.2830, 95.97878
252.7651, 97.20129
253.2472, 97.37106
253.7293, 96.50517
254.2115, 95.78707
254.6936, 95.42422
255.1757, 95.31475
255.6578, 95.45304
256.1399, 95.83891
256.6220, 96.16895
257.1042, 96.23375
257.5863, 95.99722
258.0684, 95.32504
258.5505, 93.67006
259.0326, 91.98474
259.5147, 90.90377
259.9969, 90.44808
260.4790, 90.49120
260.9611, 91.16095
261.4432, 92.32910
261.9253, 92.40550
262.4074, 89.80592
262.8896, 87.80120
263.3717, 88.35983
263.8538, 90.77891
264.3359, 93.01921
264.8180, 93.91696
265.3001, 93.76258
265.7823, 93.93604
266.2644, 93.82596
266.7465, 94.68559
267.2286, 98.83252
267.7107, 103.6679
268.1928, 104.6116
268.6750, 99.57118
269.1571, 91.37267
269.6392, 86.82084
270.1213, 89.44559
270.6034, 91.65215
271.0855, 93.69941
271.5677, 95.17374
272.0498, 95.12074
272.5319, 93.45348
273.0140, 91.79655
273.4961, 93.06197
273.9782, 100.8947
274.4604, 103.0876
274.9425, 94.11237
275.4246, 84.59583
275.9067, 82.24557
276.3888, 87.01821
276.8709, 92.97923
277.3531, 93.57915
277.8352, 87.44069
278.3173, 84.66248
278.7994, 88.13543
279.2815, 92.12775
279.7636, 95.34069
280.2458, 97.40296
280.7279, 98.00601
281.2100, 96.66454
281.6921, 93.62347
282.1742, 91.29060
282.6563, 89.35709
283.1385, 88.64754
283.6206, 90.43984
284.1027, 93.24111
284.5848, 94.75601
285.0669, 93.55810
285.5490, 91.10050
286.0312, 91.36491
286.5133, 96.05251
286.9954, 99.44118
287.4775, 99.55640
287.9596, 98.01490
288.4417, 95.84245
288.9239, 93.24409
289.4060, 90.90714
289.8881, 89.58208
290.3702, 89.26737
290.8523, 90.01900
291.3344, 92.83979
291.8166, 96.00591
292.2987, 98.09299
292.7808, 99.01348
293.2629, 99.87723
293.7450, 101.8655
294.2271, 104.6098
294.7093, 106.2796
295.1914, 106.4672
295.6735, 105.7433
296.1556, 103.7124
296.6377, 100.8476
297.1198, 99.73195
297.6020, 102.6950
298.0841, 107.5453
298.5662, 110.8694
299.0483, 112.3966
299.5304, 113.0429
300.0125, 112.7602
300.4947, 112.0718
300.9768, 112.8389
301.4589, 116.0933
301.9410, 120.2001
302.4231, 124.4957
302.9052, 128.7929
303.3874, 131.8807
303.8695, 132.5742
304.3516, 132.0434
304.8337, 134.1872
305.3158, 141.0229
305.7979, 147.1788
306.2801, 150.4347
306.7622, 152.0269
307.2443, 153.8062
307.7264, 156.3406
308.2085, 159.8581
308.6906, 164.7816
309.1728, 171.9146
309.6549, 179.0731
310.1370, 186.0342
310.6191, 193.1378
311.1012, 200.6779
311.5833, 208.7023
312.0655, 217.1799
312.5476, 226.3575
313.0297, 236.8924
313.5118, 244.0500
313.9939, 242.8368
314.4760, 243.6497
314.9582, 252.6296
315.4403, 267.3897
315.9224, 281.8024
316.4045, 291.9712
316.8866, 298.1483
317.3687, 301.8615
317.8509, 300.0842
318.3330, 299.6816
318.8151, 304.4480
319.2972, 310.1601
319.7793, 311.9499
320.2614, 307.8594
320.7436, 299.8684
321.2257, 291.2183
321.7078, 281.7936
322.1899, 272.1591
322.6720, 261.2381
323.1541, 250.9430
323.6363, 243.3544
324.1184, 238.4355
324.6005, 233.0382
325.0826, 223.2686
325.5647, 209.6661
326.0468, 199.5113
326.5290, 195.4026
327.0111, 191.9686
327.4932, 184.5556
327.9753, 174.6163
328.4574, 166.7404
328.9395, 162.9109
329.4217, 162.3123
329.9038, 164.8597
330.3859, 171.0761
330.8680, 175.8623
331.3501, 176.2511
331.8322, 172.8453
332.3144, 167.2738
332.7965, 155.9639
333.2786, 147.2693
333.7607, 149.2646
334.2428, 158.7121
334.7249, 164.7165
335.2070, 162.4784
335.6891, 156.3319
336.1713, 155.1556
336.6534, 161.3853
337.1355, 165.0000
337.6176, 161.0368
338.0997, 155.3077
338.5818, 154.8825
339.0640, 160.6886
339.5461, 167.2069
340.0282, 168.3466
340.5103, 162.7885
340.9924, 159.9379
341.4745, 159.8820
341.9567, 161.9432
342.4388, 167.5445
342.9209, 175.0349
343.4030, 180.9646
343.8851, 183.0479
344.3672, 182.0518
344.8494, 181.6932
345.3315, 183.1131
345.8136, 183.5568
346.2957, 180.3871
346.7778, 177.2709
347.2599, 178.0855
347.7421, 183.9703
348.2242, 192.5668
348.7063, 201.0056
349.1884, 209.5099
349.6705, 216.8875
350.1526, 221.6553
350.6348, 226.4106
351.1169, 232.3942
351.5990, 239.6221
352.0811, 247.5612
352.5632, 256.0839
353.0453, 265.0778
353.5275, 273.9930
354.0096, 282.6739
354.4917, 291.7362
354.9738, 300.2447
355.4559, 309.5494
355.9380, 322.2702
356.4202, 340.1383
356.9023, 360.1777
357.3844, 379.9460
357.8665, 399.5755
358.3486, 420.2489
358.8307, 442.9146
359.3129, 466.3273
359.7950, 487.9037
360.2771, 506.3100
360.7592, 527.2342
361.2413, 553.8402
361.7234, 582.8831
362.2056, 609.9029
362.6877, 634.3584
363.1698, 659.5479
363.6519, 688.8773
364.1340, 722.9762
364.6161, 756.4946
365.0983, 786.7867
365.5804, 819.4117
366.0625, 858.1096
366.5446, 900.9335
367.0267, 943.4546
367.5089, 983.4222
367.9910, 1021.267
368.4731, 1058.239
368.9552, 1092.190
369.4373, 1128.660
369.9194, 1171.297
370.4016, 1214.262
370.8837, 1253.239
371.3658, 1287.107
371.8479, 1317.073
372.3300, 1344.887
372.8121, 1370.668
373.2943, 1391.069
373.7764, 1404.384
374.2585, 1413.594
374.7406, 1424.265
375.2227, 1432.728
375.7048, 1429.849
376.1870, 1409.423
376.6691, 1376.475
377.1512, 1338.406
377.6333, 1295.044
378.1154, 1247.896
378.5975, 1198.217
379.0797, 1144.200
379.5618, 1083.478
380.0439, 1012.984
380.5260, 943.0422
381.0081, 876.4938
381.4902, 813.7372
381.9724, 755.3384
382.4545, 701.2554
382.9366, 650.6132
383.4187, 602.0408
383.9008, 555.0496
384.3829, 514.0966
384.8651, 481.7156
385.3472, 452.9759
385.8293, 425.7168
386.3114, 399.6702
386.7935, 375.2468
387.2756, 352.6942
387.7578, 331.8737
388.2399, 312.0832
388.7220, 291.9116
389.2041, 275.2628
389.6862, 264.8195
390.1683, 256.5334
390.6505, 246.6229
391.1326, 234.3890
391.6147, 221.9352
392.0968, 211.0717
392.5789, 201.6548
393.0610, 196.0027
393.5432, 198.3025
394.0253, 199.3171
394.5074, 193.2772
394.9895, 182.5803
395.4716, 172.8525
395.9537, 166.9230
396.4359, 162.8888
396.9180, 157.6997
397.4001, 151.2729
397.8822, 146.4530
398.3643, 145.7144
398.8464, 146.1846
399.3286, 142.8234
399.8107, 134.6812
400.2928, 126.2219
400.7749, 116.9597
401.2570, 109.1851
401.7391, 107.6374
402.2213, 112.9749
402.7034, 119.1793
403.1855, 120.5199
403.6676, 116.6223
404.1497, 112.2456
404.6318, 104.6530
405.1140, 99.48618
405.5961, 100.9953
406.0782, 106.1240
406.5603, 109.5224
407.0424, 108.7000
407.5245, 105.1885
408.0067, 102.3509
408.4888, 100.6139
408.9709, 98.61214
409.4530, 95.81370
409.9351, 93.09475
410.4172, 90.65269
410.8994, 88.71066
411.3815, 87.90929
411.8636, 89.45145
412.3457, 92.58881
412.8278, 94.22093
413.3099, 94.25386
413.7921, 92.99477
414.2742, 88.80058
414.7563, 83.94700
415.2384, 81.85747
415.7205, 84.47219
416.2026, 86.98705
416.6848, 85.30804
417.1669, 80.74265
417.6490, 76.95883
418.1311, 74.80835
418.6132, 73.93665
419.0953, 73.94010
419.5775, 74.85924
420.0596, 76.80061
420.5417, 82.30450
421.0238, 86.64011
421.5059, 85.46446
421.9880, 80.42133
422.4702, 76.79292
422.9523, 77.87965
423.4344, 81.81373
423.9165, 82.05444
424.3986, 74.60475
424.8807, 69.78974
425.3629, 69.76265
425.8450, 71.40405
426.3271, 72.31092
426.8092, 72.21209
427.2913, 72.46083
427.7734, 75.40179
428.2556, 80.43709
428.7377, 80.96264
429.2198, 74.44505
429.7019, 68.16777
430.1840, 66.09660
430.6661, 66.53970
431.1483, 67.32336
431.6304, 68.39629
432.1125, 68.78040
432.5946, 66.95903
433.0767, 63.63835
433.5588, 61.27288
434.0410, 60.42846
434.5231, 61.06960
435.0052, 63.71411
435.4873, 68.92441
435.9694, 72.20603
436.4515, 71.12140
436.9337, 69.93964
437.4158, 72.82525
437.8979, 78.11610
438.3800, 80.40652
438.8621, 76.35090
439.3442, 68.29877
439.8264, 63.72165
440.3085, 64.68633
440.7906, 65.75826
441.2727, 66.99591
441.7548, 67.86108
442.2369, 67.83187
442.7191, 66.95993
443.2012, 65.81972
443.6833, 64.45405
444.1654, 63.13668
444.6475, 63.79995
445.1296, 67.59377
445.6118, 70.42059
446.0939, 69.32948
446.5760, 66.28207
447.0581, 63.76330
447.5402, 62.15267
448.0223, 61.04463
448.5045, 60.07804
448.9866, 59.43002
449.4687, 59.40399
449.9508, 60.04650
450.4329, 61.64364
450.9150, 64.87879
451.3972, 70.06550
451.8793, 73.24756
452.3614, 72.64172
452.8435, 71.99961
453.3256, 73.50764
453.8077, 75.98586
454.2899, 77.36956
454.7720, 76.74114
455.2541, 74.55520
455.7362, 71.05100
456.2183, 64.66792
456.7004, 61.71152
457.1826, 66.66505
457.6647, 71.62415
458.1468, 72.63383
458.6289, 70.34514
459.1110, 67.44722
459.5931, 64.69032
460.0753, 62.75999
460.5574, 63.65992
461.0395, 67.58571
461.5216, 70.11658
462.0037, 68.53408
462.4858, 65.59319
462.9680, 66.18903
463.4501, 71.16201
463.9322, 75.19581
464.4143, 77.20934
464.8964, 77.32227
465.3785, 74.35873
465.8607, 68.98263
466.3428, 64.97314
466.8249, 65.26991
467.3070, 69.11765
467.7891, 71.76198
468.2712, 72.17582
468.7534, 72.60782
469.2355, 73.32397
469.7176, 74.10492
470.1997, 74.95108
470.6818, 75.75626
471.1639, 76.04271
471.6461, 74.75634
472.1282, 72.19084
472.6103, 71.56910
473.0924, 73.74852
473.5745, 76.02566
474.0566, 77.24480
474.5388, 77.57918
475.0209, 77.17032
475.5030, 76.11796
475.9851, 74.13813
476.4672, 69.81687
476.9493, 64.63582
477.4315, 61.86155
477.9136, 62.21945
478.3957, 64.15501
478.8778, 66.26565
479.3599, 68.56628
479.8420, 70.86393
480.3242, 75.12032
480.8063, 77.18914
481.2884, 73.53780
481.7705, 67.62386
482.2526, 64.41077
482.7347, 65.60922
483.2169, 68.68265
483.6990, 70.04913
484.1811, 69.43646
484.6632, 69.25757
485.1453, 69.86665
485.6274, 70.60036
486.1096, 71.61336
486.5917, 72.44534
487.0738, 71.98718
487.5559, 69.14622
488.0380, 66.00640
488.5201, 64.23415
489.0023, 63.82862
489.4844, 65.04306
489.9665, 68.19903
490.4486, 72.09229
490.9307, 75.49509
491.4128, 78.45351
491.8950, 80.19244
492.3771, 79.69316
492.8592, 79.00174
493.3413, 79.30252
493.8234, 80.13239
494.3055, 80.47822
494.7877, 79.87502
495.2698, 78.72842
495.7519, 77.71410
496.2340, 76.78259
496.7161, 76.16709
497.1982, 76.38950
497.6804, 76.41908
498.1625, 75.47023
498.6446, 73.88646
499.1267, 72.63168
499.6088, 72.10153
500.0909, 72.08335
500.5730, 72.69923
501.0551, 73.75951
501.5373, 73.77708
502.0194, 71.76223
502.5015, 69.90694
502.9836, 71.79005
503.4657, 78.88352
503.9478, 82.88083
504.4300, 81.23416
504.9121, 78.67261
505.3942, 77.28257
505.8763, 77.09408
506.3584, 78.09618
506.8405, 80.35188
507.3227, 82.55455
507.8048, 81.48754
508.2869, 75.63797
508.7690, 72.64239
509.2511, 76.73085
509.7332, 80.23664
510.2154, 77.06701
510.6975, 69.84072
511.1796, 66.47115
511.6617, 72.80086
512.1439, 81.30145
512.6260, 83.27081
513.1081, 79.89729
513.5902, 76.81176
514.0723, 75.63084
514.5544, 75.96062
515.0366, 77.64407
515.5187, 81.36777
516.0008, 83.22947
516.4829, 80.89986
516.9650, 79.07695
517.4471, 81.73319
517.9293, 86.21597
518.4114, 87.06070
518.8935, 81.85721
519.3756, 74.31264
519.8577, 70.70407
520.3398, 71.69946
520.8220, 72.02393
521.3041, 70.19697
521.7862, 69.03970
522.2683, 71.15223
522.7504, 75.10203
523.2325, 77.26991
523.7147, 75.45713
524.1968, 73.12077
524.6789, 73.35789
525.1610, 75.29957
525.6431, 76.55075
526.1252, 76.46178
526.6074, 75.71193
527.0895, 75.12883
527.5716, 74.84306
528.0537, 73.55171
528.5358, 69.30885
529.0179, 66.42221
529.5001, 67.17379
529.9822, 69.66563
530.4643, 71.76273
530.9464, 72.70822
531.4285, 72.22982
531.9106, 69.14725
532.3928, 63.70984
532.8749, 60.12397
533.3570, 58.48882
533.8391, 58.99880
534.3212, 63.51585
534.8033, 69.95616
535.2855, 73.99645
535.7676, 74.25556
536.2497, 73.92150
536.7318, 74.97118
537.2139, 76.09329
537.6960, 74.88215
538.1782, 71.22552
538.6603, 67.68585
539.1424, 66.38454
539.6245, 67.20423
540.1066, 69.04734
540.5887, 73.32455
541.0709, 76.51080
541.5530, 77.41071
542.0351, 77.51040
542.5172, 78.35126
542.9993, 79.96892
543.4814, 80.76302
543.9636, 79.08916
544.4457, 75.90215
544.9278, 72.87347
545.4099, 69.97827
545.8920, 68.68716
546.3741, 70.15608
546.8563, 73.12159
547.3384, 74.97024
547.8205, 75.36284
548.3026, 75.80539
548.7847, 76.63791
549.2668, 77.42332
549.7490, 77.93302
550.2311, 78.12857
550.7132, 77.85831
551.1953, 76.96430
551.6774, 76.01289
552.1595, 76.53049
552.6417, 79.00169
553.1238, 80.32734
553.6059, 78.71638
554.0880, 77.45050
554.5701, 79.37267
555.0522, 83.49278
555.5344, 86.56832
556.0165, 88.28580
556.4986, 87.93214
556.9807, 82.57239
557.4628, 74.96236
557.9449, 72.20080
558.4271, 76.26693
558.9092, 82.39771
559.3913, 85.41840
559.8734, 85.17654
560.3555, 83.83899
560.8376, 78.96565
561.3198, 75.83078
561.8019, 77.50659
562.2840, 80.46510
562.7661, 80.38680
563.2482, 76.41520
563.7303, 72.05914
564.2125, 69.84086
564.6946, 69.64859
565.1767, 71.73243
565.6588, 76.31967
566.1409, 80.83841
566.6230, 84.40421
567.1052, 86.64802
567.5873, 86.11257
568.0694, 80.72300
568.5515, 77.70922
569.0336, 79.79762
569.5157, 83.16220
569.9979, 85.00768
570.4800, 85.55790
570.9621, 86.64563
571.4442, 89.53542
571.9263, 92.68459
572.4084, 91.90248
572.8906, 86.19900
573.3727, 83.45899
573.8548, 86.41582
574.3369, 90.77117
574.8190, 93.67255
575.3011, 95.27313
575.7833, 96.02472
576.2654, 95.66631
576.7475, 94.85420
577.2296, 93.71540
577.7117, 92.46683
578.1938, 91.26878
578.6760, 90.22408
579.1581, 90.01791
579.6402, 91.59927
580.1223, 94.88889
580.6044, 96.71738
581.0865, 96.56164
581.5686, 95.68776
582.0507, 94.04470
582.5328, 92.12054
583.0150, 90.26079
583.4971, 88.53294
583.9792, 87.06505
584.4613, 85.35987
584.9434, 84.25723
585.4255, 85.54134
585.9077, 88.93352
586.3898, 92.06640
586.8719, 93.92575
587.3540, 94.80119
587.8361, 95.14983
588.3182, 94.77913
588.8004, 94.40704
589.2825, 93.84972
589.7646, 93.48308
590.2467, 93.65055
590.7288, 94.06831
591.2109, 94.40263
591.6931, 94.56511
592.1752, 94.15064
592.6573, 91.61033
593.1394, 87.85268
593.6215, 87.90939
594.1036, 93.08350
594.5858, 97.61454
595.0679, 97.30425
595.5500, 93.53815
596.0321, 91.68967
596.5142, 92.61710
596.9963, 93.77887
597.4785, 95.32021
597.9606, 96.56248
598.4427, 96.91328
598.9248, 96.44460
599.4069, 95.48441
599.8890, 94.09424
600.3712, 92.74973
600.8533, 92.60876
601.3354, 93.76263
601.8175, 94.78479
602.2996, 95.48904
