##NAMES=Hausmannite
##RRUFFID=R060512
##IDEAL CHEMISTRY=Mn^2+^Mn^3+^_2_O_4_
##LOCALITY=N'Chwaning II mine, Kalahari manganese field, northern Cape Province, Republic of South Africa
##OWNER=RRUFF
##SOURCE=Michael Scott
##DESCRIPTION=Group of black pseudo-octahedra with striations parallel to the (001) plane
##STATUS=The identification of this mineral has been confirmed by X-ray diffraction and chemical analysis
##URL=rruff.info/R060512
##MEASURED CHEMISTRY=Mn^2+^_0.99_Mn^3+^_1.98_O_4_
100.315, 240.655
100.797, 238.696
101.279, 236.889
101.761, 235.941
102.243, 235.922
102.726, 235.173
103.208, 231.876
103.690, 227.927
104.172, 227.154
104.654, 231.482
105.136, 236.565
105.618, 236.094
106.100, 230.020
106.582, 224.952
107.064, 225.269
107.547, 229.532
108.029, 231.510
108.511, 226.916
108.993, 222.450
109.475, 225.238
109.957, 235.969
110.439, 249.407
110.921, 260.653
111.404, 269.581
111.886, 282.512
112.368, 302.422
112.850, 326.716
113.332, 355.108
113.814, 388.447
114.296, 420.958
114.778, 444.105
115.260, 455.291
115.743, 467.072
116.225, 485.273
116.707, 504.558
117.189, 522.342
117.671, 538.808
118.153, 549.367
118.635, 543.022
119.117, 510.325
119.600, 478.293
120.082, 452.465
120.564, 430.902
121.046, 410.988
121.528, 391.013
122.010, 372.782
122.492, 362.733
122.974, 362.619
123.456, 370.145
123.939, 384.481
124.421, 405.511
124.903, 433.763
125.385, 469.703
125.867, 512.936
126.349, 558.058
126.831, 603.175
127.313, 652.622
127.796, 707.673
128.278, 767.734
128.760, 832.766
129.242, 903.025
129.724, 979.091
130.206, 1050.172
130.688, 1114.944
131.170, 1177.240
131.652, 1246.770
132.135, 1317.199
132.617, 1370.635
133.099, 1391.106
133.581, 1375.136
134.063, 1346.597
134.545, 1302.680
135.027, 1251.353
135.509, 1193.766
135.992, 1131.677
136.474, 1069.214
136.956, 1009.618
137.438, 952.227
137.920, 907.447
138.402, 878.889
138.884, 859.178
139.366, 843.208
139.848, 830.370
140.331, 823.204
140.813, 825.745
141.295, 841.564
141.777, 853.550
142.259, 856.854
142.741, 858.515
143.223, 863.925
143.705, 874.098
144.188, 889.891
144.670, 914.023
145.152, 947.688
145.634, 981.244
146.116, 1015.083
146.598, 1047.540
147.080, 1077.335
147.562, 1104.733
148.044, 1127.390
148.527, 1139.478
149.009, 1140.738
149.491, 1143.541
149.973, 1154.493
150.455, 1168.489
150.937, 1176.066
151.419, 1174.145
151.901, 1167.729
152.383, 1163.562
152.866, 1161.886
153.348, 1158.193
153.830, 1153.332
154.312, 1145.290
154.794, 1127.181
155.276, 1093.263
155.758, 1055.696
156.240, 1029.469
156.723, 1014.544
157.205, 1003.275
157.687, 992.223
158.169, 981.852
158.651, 974.087
159.133, 970.489
159.615, 968.472
160.097, 963.373
160.579, 954.576
161.062, 950.239
161.544, 960.955
162.026, 983.287
162.508, 995.104
162.990, 985.607
163.472, 968.698
163.954, 958.002
164.436, 954.031
164.919, 953.391
165.401, 952.603
165.883, 952.050
166.365, 957.835
166.847, 976.215
167.329, 997.482
167.811, 1013.046
168.293, 1022.203
168.775, 1029.720
169.258, 1039.322
169.740, 1051.010
170.222, 1063.050
170.704, 1078.235
171.186, 1090.853
171.668, 1096.647
172.150, 1095.122
172.632, 1089.417
173.115, 1082.157
173.597, 1073.382
174.079, 1062.346
174.561, 1047.907
175.043, 1031.518
175.525, 1012.810
176.007, 991.758
176.489, 972.442
176.971, 959.139
177.454, 952.288
177.936, 947.197
178.418, 943.161
178.900, 940.738
179.382, 941.231
179.864, 944.680
180.346, 948.166
180.828, 947.935
181.311, 943.247
181.793, 940.126
182.275, 941.169
182.757, 943.109
183.239, 944.364
183.721, 944.659
184.203, 944.441
184.685, 945.704
185.167, 949.783
185.650, 947.116
186.132, 923.636
186.614, 901.547
187.096, 895.759
187.578, 907.321
188.060, 921.886
188.542, 922.505
189.024, 905.983
189.507, 893.213
189.989, 890.775
190.471, 889.903
190.953, 886.225
191.435, 879.253
191.917, 871.409
192.399, 865.165
192.881, 860.748
193.363, 856.803
193.846, 851.199
194.328, 847.624
194.810, 849.111
195.292, 855.421
195.774, 862.803
196.256, 868.114
196.738, 871.661
197.220, 871.461
197.702, 863.169
198.185, 854.151
198.667, 846.924
199.149, 841.954
199.631, 839.238
200.113, 839.155
200.595, 842.052
201.077, 845.230
201.559, 849.855
202.042, 853.747
202.524, 855.054
203.006, 854.295
203.488, 854.019
203.970, 857.777
204.452, 866.458
204.934, 871.063
205.416, 868.491
205.898, 864.037
206.381, 859.420
206.863, 854.716
207.345, 849.371
207.827, 841.240
208.309, 829.886
208.791, 825.747
209.273, 837.762
209.755, 848.873
210.238, 851.539
210.720, 847.358
211.202, 842.044
211.684, 839.970
212.166, 841.030
212.648, 842.011
213.130, 843.341
213.612, 844.055
214.094, 844.073
214.577, 843.245
215.059, 841.132
215.541, 836.582
216.023, 830.185
216.505, 827.278
216.987, 831.060
217.469, 834.521
217.951, 834.262
218.434, 831.980
218.916, 831.001
219.398, 833.828
219.880, 839.458
220.362, 843.209
220.844, 844.206
221.326, 844.518
221.808, 845.462
222.290, 846.197
222.773, 845.250
223.255, 841.381
223.737, 835.758
224.219, 831.717
224.701, 828.768
225.183, 828.558
225.665, 834.990
226.147, 842.949
226.629, 845.762
227.112, 839.627
227.594, 828.693
228.076, 821.760
228.558, 820.750
229.040, 819.046
229.522, 811.435
230.004, 803.489
230.486, 801.503
230.969, 808.360
231.451, 818.820
231.933, 825.339
232.415, 827.551
232.897, 826.981
233.379, 819.366
233.861, 811.674
234.343, 810.141
234.825, 816.730
235.307, 825.886
235.790, 830.720
236.272, 830.523
236.754, 831.931
237.236, 841.197
237.718, 849.439
238.200, 848.930
238.682, 838.484
239.165, 826.043
239.647, 816.216
240.129, 809.066
240.611, 811.956
241.093, 836.826
241.575, 862.240
242.057, 870.347
242.539, 861.278
243.021, 849.529
243.503, 844.403
243.986, 845.124
244.468, 847.910
244.950, 854.897
245.432, 860.016
245.914, 856.470
246.396, 845.994
246.878, 838.315
247.361, 840.467
247.843, 849.106
248.325, 855.194
248.807, 857.297
249.289, 858.461
249.771, 862.466
250.253, 867.776
250.735, 869.539
251.217, 862.286
251.699, 851.738
252.182, 847.027
252.664, 849.144
253.146, 853.611
253.628, 859.097
254.110, 864.590
254.592, 867.539
255.074, 864.822
255.556, 861.039
256.039, 861.125
256.521, 865.076
257.003, 869.529
257.485, 873.312
257.967, 875.969
258.449, 876.722
258.931, 873.956
259.413, 871.164
259.896, 870.473
260.378, 871.687
260.860, 873.802
261.342, 876.293
261.824, 879.607
262.306, 885.108
262.788, 894.877
263.270, 902.494
263.752, 904.191
264.235, 902.045
264.717, 900.391
265.199, 900.638
265.681, 902.060
266.163, 903.266
266.645, 903.668
267.127, 905.592
267.609, 909.062
268.091, 914.466
268.574, 923.862
269.056, 937.720
269.538, 950.840
270.020, 955.782
270.502, 948.288
270.984, 947.161
271.466, 953.634
271.948, 965.697
272.431, 983.930
272.913, 1007.436
273.395, 1031.430
273.877, 1051.625
274.359, 1067.437
274.841, 1083.998
275.323, 1095.451
275.805, 1112.948
276.288, 1143.222
276.770, 1184.217
277.252, 1228.956
277.734, 1272.679
278.216, 1316.140
278.698, 1368.145
279.180, 1434.062
279.662, 1502.261
280.144, 1570.925
280.626, 1640.604
281.109, 1711.494
281.591, 1783.515
282.073, 1858.976
282.555, 1943.830
283.037, 2045.050
283.519, 2147.291
284.001, 2250.993
284.483, 2354.067
284.966, 2456.820
285.448, 2558.224
285.930, 2656.120
286.412, 2748.964
286.894, 2846.987
287.376, 2911.503
287.858, 2932.717
288.340, 2929.678
288.823, 2911.642
289.305, 2879.232
289.787, 2827.196
290.269, 2744.974
290.751, 2630.874
291.233, 2521.269
291.715, 2414.731
292.197, 2315.612
292.679, 2225.930
293.162, 2144.967
293.644, 2069.953
294.126, 1997.952
294.608, 1931.111
295.090, 1879.296
295.572, 1847.994
296.054, 1820.281
296.536, 1784.849
297.018, 1749.019
297.501, 1722.798
297.983, 1709.064
298.465, 1706.799
298.947, 1718.280
299.429, 1745.145
299.911, 1769.704
300.393, 1781.678
300.875, 1790.250
301.358, 1805.071
301.840, 1826.468
302.322, 1855.958
302.804, 1898.031
303.286, 1950.061
303.768, 1999.948
304.250, 2042.285
304.732, 2086.029
305.215, 2141.568
305.697, 2208.066
306.179, 2284.088
306.661, 2373.793
307.143, 2471.544
307.625, 2567.522
308.107, 2659.413
308.589, 2759.526
309.071, 2881.568
309.553, 3027.398
310.036, 3162.885
310.518, 3259.469
311.000, 3368.937
311.482, 3534.102
311.964, 3746.629
312.446, 3966.170
312.928, 4167.660
313.410, 4354.137
313.893, 4543.936
314.375, 4748.981
314.857, 4944.350
315.339, 5123.533
315.821, 5289.023
316.303, 5447.717
316.785, 5601.807
317.267, 5742.999
317.750, 5855.967
318.232, 5951.946
318.714, 5994.234
319.196, 5981.306
319.678, 5920.559
320.160, 5812.470
320.642, 5659.938
321.124, 5469.026
321.606, 5242.224
322.089, 4971.180
322.571, 4709.903
323.053, 4460.242
323.535, 4217.005
324.017, 3975.246
324.499, 3739.174
324.981, 3517.935
325.463, 3318.807
325.945, 3137.945
326.428, 2964.962
326.910, 2792.672
327.392, 2643.408
327.874, 2530.942
328.356, 2438.539
328.838, 2349.298
329.320, 2256.723
329.802, 2169.015
330.284, 2099.257
330.767, 2048.790
331.249, 1997.982
331.731, 1938.994
332.213, 1880.709
332.695, 1830.831
333.177, 1790.017
333.659, 1752.283
334.142, 1713.112
334.624, 1674.654
335.106, 1643.983
335.588, 1623.461
336.070, 1606.137
336.552, 1585.100
337.034, 1561.611
337.516, 1542.250
337.998, 1533.002
338.480, 1524.875
338.963, 1506.204
339.445, 1479.007
339.927, 1460.326
340.409, 1462.955
340.891, 1480.337
341.373, 1484.099
341.855, 1462.583
342.337, 1444.007
342.819, 1437.467
343.302, 1438.020
343.784, 1438.220
344.266, 1435.538
344.748, 1432.971
345.230, 1435.937
345.712, 1449.971
346.194, 1456.980
346.677, 1451.080
347.159, 1443.364
347.641, 1440.811
348.123, 1443.654
348.605, 1448.319
349.087, 1451.805
349.569, 1454.136
350.051, 1456.823
350.533, 1461.736
351.016, 1464.803
351.498, 1464.194
351.980, 1461.411
352.462, 1457.370
352.944, 1451.769
353.426, 1448.528
353.908, 1457.651
354.390, 1484.075
354.872, 1505.446
355.355, 1511.655
355.837, 1513.642
356.319, 1516.570
356.801, 1521.363
357.283, 1530.975
357.765, 1550.067
358.247, 1576.536
358.729, 1600.523
359.211, 1619.157
359.694, 1638.829
360.176, 1668.377
360.658, 1703.931
361.140, 1733.405
361.622, 1748.783
362.104, 1759.881
362.586, 1773.885
363.069, 1791.383
363.551, 1817.640
364.033, 1860.230
364.515, 1909.938
364.997, 1937.308
365.479, 1933.546
365.961, 1925.944
366.443, 1917.058
366.925, 1910.479
367.408, 1914.400
367.890, 1930.479
368.372, 1947.023
368.854, 1947.815
369.336, 1927.264
369.818, 1909.780
370.300, 1898.679
370.782, 1887.248
371.264, 1871.362
371.747, 1852.102
372.229, 1833.870
372.711, 1820.584
373.193, 1809.710
373.675, 1787.504
374.157, 1747.499
374.639, 1705.527
375.121, 1661.743
375.603, 1619.303
376.086, 1581.244
376.568, 1548.564
377.050, 1518.951
377.532, 1489.901
378.014, 1461.309
378.496, 1434.722
378.978, 1412.059
379.460, 1389.441
379.943, 1362.776
380.425, 1333.310
380.907, 1307.188
381.389, 1290.677
381.871, 1277.514
382.353, 1255.285
382.835, 1222.927
383.317, 1195.417
383.799, 1183.072
384.282, 1181.290
384.764, 1174.991
385.246, 1160.477
385.728, 1147.290
386.210, 1141.045
386.692, 1138.421
387.174, 1134.157
387.656, 1126.753
388.138, 1116.436
388.621, 1102.738
389.103, 1082.902
389.585, 1069.500
390.067, 1065.650
390.549, 1064.934
391.031, 1066.468
391.513, 1068.208
391.996, 1065.699
392.478, 1055.386
392.960, 1039.291
393.442, 1027.391
393.924, 1020.367
394.406, 1016.945
394.888, 1019.516
395.370, 1023.701
395.852, 1026.607
396.335, 1027.294
396.817, 1024.092
397.299, 1012.312
397.781, 992.061
398.263, 978.879
398.745, 977.141
399.227, 978.503
399.709, 977.483
400.191, 974.890
400.674, 973.136
401.156, 976.600
401.638, 978.998
402.120, 968.807
402.602, 947.225
403.084, 933.704
403.566, 939.767
404.048, 957.049
404.530, 966.771
405.013, 968.675
405.495, 965.737
405.977, 953.519
406.459, 939.437
406.941, 932.814
407.423, 934.838
407.905, 939.742
408.387, 942.117
408.870, 941.885
409.352, 940.193
409.834, 934.486
410.316, 930.262
410.798, 931.197
411.280, 934.196
411.762, 933.797
412.244, 927.432
412.727, 919.188
413.209, 917.547
413.691, 925.038
414.173, 930.518
414.655, 929.081
415.137, 927.944
415.619, 932.776
416.101, 942.428
416.583, 949.742
417.065, 947.790
417.548, 940.631
418.030, 938.775
418.512, 943.451
418.994, 946.674
419.476, 942.286
419.958, 934.080
420.440, 930.906
420.922, 935.958
421.405, 940.612
421.887, 938.790
422.369, 934.278
422.851, 934.605
423.333, 941.678
423.815, 950.249
424.297, 954.199
424.779, 952.568
425.262, 951.262
425.744, 950.436
426.226, 949.736
426.708, 947.693
427.190, 945.822
427.672, 947.750
428.154, 955.650
428.636, 965.994
429.118, 969.893
429.601, 963.863
430.083, 959.998
430.565, 964.348
431.047, 967.658
431.529, 961.500
432.011, 947.300
432.493, 936.300
432.975, 938.921
433.457, 950.537
433.940, 957.582
434.422, 958.904
434.904, 960.607
435.386, 969.500
435.868, 979.536
436.350, 977.652
436.832, 955.599
437.314, 936.513
437.797, 935.402
438.279, 943.951
438.761, 946.747
439.243, 940.180
439.725, 932.958
440.207, 934.835
440.689, 947.341
441.171, 958.294
441.654, 971.438
442.136, 979.435
442.618, 974.863
443.100, 964.152
443.582, 958.637
444.064, 963.572
444.546, 973.386
445.028, 975.590
445.510, 965.060
445.992, 964.530
446.475, 990.251
446.957, 1015.056
447.439, 1022.886
447.921, 1016.259
448.403, 1008.668
448.885, 1006.492
449.367, 1008.553
449.849, 1013.692
450.332, 1022.064
450.814, 1030.052
451.296, 1035.327
451.778, 1039.758
452.260, 1047.676
452.742, 1061.054
453.224, 1071.875
453.706, 1075.680
454.189, 1076.897
454.671, 1079.493
455.153, 1084.368
455.635, 1092.316
456.117, 1104.307
456.599, 1120.129
457.081, 1135.826
457.563, 1151.828
458.045, 1167.307
458.528, 1181.980
459.010, 1196.064
459.492, 1208.320
459.974, 1218.849
460.456, 1232.142
460.938, 1254.652
461.420, 1286.425
461.902, 1316.987
462.384, 1345.893
462.867, 1373.659
463.349, 1396.289
463.831, 1418.434
464.313, 1450.253
464.795, 1499.453
465.277, 1551.859
465.759, 1596.407
466.241, 1634.450
466.724, 1669.176
467.206, 1700.705
467.688, 1733.031
468.170, 1771.475
468.652, 1817.094
469.134, 1865.664
469.616, 1922.340
470.098, 1976.583
470.581, 2025.041
471.063, 2066.614
471.545, 2100.804
472.027, 2127.105
472.509, 2146.235
472.991, 2158.250
473.473, 2159.914
473.955, 2164.077
474.437, 2179.419
474.919, 2191.501
475.402, 2193.423
475.884, 2185.216
476.366, 2169.352
476.848, 2145.454
477.330, 2115.634
477.812, 2083.243
478.294, 2048.167
478.776, 2008.775
479.259, 1961.803
479.741, 1913.108
480.223, 1876.390
480.705, 1856.548
481.187, 1827.655
481.669, 1774.914
482.151, 1718.140
482.633, 1673.712
483.116, 1642.297
483.598, 1617.598
484.080, 1596.514
484.562, 1577.350
485.044, 1552.342
485.526, 1516.018
486.008, 1483.163
486.490, 1456.672
486.972, 1433.273
487.455, 1411.256
487.937, 1390.024
488.419, 1368.711
488.901, 1344.641
489.383, 1320.088
489.865, 1303.928
490.347, 1298.077
490.829, 1289.516
491.311, 1267.645
491.794, 1241.124
492.276, 1228.848
492.758, 1237.647
493.240, 1242.590
493.722, 1232.111
494.204, 1215.108
494.686, 1202.027
495.168, 1193.857
495.651, 1185.749
496.133, 1173.620
496.615, 1158.092
497.097, 1145.589
497.579, 1137.885
498.061, 1130.937
498.543, 1125.696
499.025, 1120.024
499.508, 1110.259
499.990, 1096.691
500.472, 1085.963
500.954, 1086.881
501.436, 1095.906
501.918, 1097.824
502.400, 1091.141
502.882, 1082.201
503.364, 1073.931
503.846, 1065.701
504.329, 1055.241
504.811, 1038.903
505.293, 1028.840
505.775, 1036.093
506.257, 1048.864
506.739, 1051.359
507.221, 1042.318
507.703, 1031.821
508.186, 1028.171
508.668, 1030.647
509.150, 1032.349
509.632, 1034.577
510.114, 1034.054
510.596, 1029.488
511.078, 1022.693
511.560, 1013.849
512.042, 1003.617
512.525, 995.602
513.007, 994.546
513.489, 998.245
513.971, 998.258
514.453, 993.476
514.935, 990.512
515.417, 995.688
515.899, 1003.444
516.382, 1000.841
516.864, 982.182
517.346, 967.734
517.828, 965.561
518.310, 969.651
518.792, 974.523
519.274, 979.303
519.756, 985.074
520.239, 993.258
520.721, 1002.488
521.203, 1004.482
521.685, 991.172
522.167, 984.604
522.649, 995.742
523.131, 1008.137
523.613, 1007.455
524.096, 993.983
524.578, 980.672
525.060, 976.966
525.542, 979.313
526.024, 979.781
526.506, 978.220
526.988, 980.289
527.470, 991.158
527.952, 1004.494
528.435, 1006.521
528.917, 994.065
529.399, 983.004
529.881, 974.523
530.363, 968.975
530.845, 967.971
531.327, 970.289
531.809, 972.625
532.291, 973.057
532.774, 972.288
533.256, 971.867
533.738, 971.362
534.220, 972.655
534.702, 978.318
535.184, 983.771
535.666, 984.176
536.148, 981.453
536.630, 983.432
537.113, 998.866
537.595, 1015.678
538.077, 1017.787
538.559, 1009.079
539.041, 1007.031
539.523, 1018.199
540.005, 1034.359
540.487, 1044.732
540.969, 1047.846
541.452, 1050.998
541.934, 1053.749
542.416, 1056.969
542.898, 1059.899
543.380, 1063.896
543.862, 1072.246
544.344, 1086.146
544.826, 1099.911
545.309, 1104.450
545.791, 1100.174
546.273, 1100.725
546.755, 1109.082
547.237, 1118.218
547.719, 1123.727
548.201, 1126.663
548.683, 1128.944
549.166, 1128.942
549.648, 1131.354
550.130, 1140.054
550.612, 1151.694
551.094, 1161.609
551.576, 1169.061
552.058, 1176.373
552.540, 1185.821
553.023, 1196.893
553.505, 1204.532
553.987, 1206.937
554.469, 1208.607
554.951, 1207.117
555.433, 1207.522
555.915, 1216.218
556.397, 1232.677
556.879, 1247.035
557.362, 1250.032
557.844, 1248.120
558.326, 1253.499
558.808, 1265.947
559.290, 1276.864
559.772, 1282.625
560.254, 1284.826
560.736, 1286.114
561.218, 1285.969
561.701, 1286.232
562.183, 1285.501
562.665, 1286.523
563.147, 1294.030
563.629, 1303.979
564.111, 1307.519
564.593, 1300.278
565.075, 1288.763
565.557, 1284.463
566.040, 1287.749
566.522, 1284.710
567.004, 1269.667
567.486, 1255.403
567.968, 1253.423
568.450, 1259.239
568.932, 1262.167
569.414, 1261.467
569.896, 1256.778
570.379, 1243.523
570.861, 1228.086
571.343, 1220.631
571.825, 1222.248
572.307, 1225.322
572.789, 1222.869
573.271, 1215.952
573.753, 1213.517
574.236, 1219.681
574.718, 1222.832
575.200, 1217.778
575.682, 1211.060
576.164, 1208.323
576.646, 1209.555
577.128, 1209.457
577.610, 1203.868
578.093, 1196.247
578.575, 1190.873
579.057, 1187.514
579.539, 1184.505
580.021, 1181.208
580.503, 1177.960
580.985, 1175.384
581.467, 1173.860
581.950, 1171.561
582.432, 1167.610
582.914, 1163.939
583.396, 1161.434
583.878, 1159.593
584.360, 1157.173
584.842, 1153.708
585.324, 1151.579
585.806, 1155.818
586.289, 1164.032
586.771, 1163.609
587.253, 1151.573
587.735, 1142.377
588.217, 1146.344
588.699, 1159.025
589.181, 1166.128
589.663, 1164.533
590.145, 1163.924
590.628, 1167.130
591.110, 1170.840
591.592, 1172.659
592.074, 1172.549
592.556, 1171.399
593.038, 1169.659
593.520, 1167.508
594.002, 1165.131
594.484, 1162.421
594.967, 1160.215
595.449, 1157.926
595.931, 1157.211
596.413, 1159.174
596.895, 1163.730
597.377, 1171.293
597.859, 1184.663
598.341, 1197.904
598.823, 1207.704
599.306, 1216.029
599.788, 1225.826
600.270, 1237.485
600.752, 1249.072
601.234, 1258.808
601.716, 1266.955
602.198, 1275.272
602.680, 1283.721
603.162, 1292.389
603.645, 1299.601
604.127, 1308.407
604.609, 1323.065
605.091, 1342.893
605.573, 1359.456
606.055, 1366.721
606.537, 1371.733
607.019, 1380.303
607.502, 1391.640
607.984, 1403.018
608.466, 1413.583
608.948, 1424.934
609.430, 1439.664
609.912, 1458.343
610.394, 1473.526
610.876, 1480.813
611.359, 1490.689
611.841, 1509.593
612.323, 1530.261
612.805, 1543.723
613.287, 1548.634
613.769, 1554.847
614.251, 1567.973
614.733, 1586.010
615.216, 1607.246
615.698, 1631.085
616.180, 1655.356
616.662, 1679.197
617.144, 1701.725
617.626, 1721.035
618.108, 1736.391
618.590, 1750.853
619.072, 1760.376
619.555, 1773.435
620.037, 1793.767
620.519, 1819.041
621.001, 1847.276
621.483, 1878.213
621.965, 1906.391
622.447, 1922.833
622.929, 1934.398
623.411, 1955.659
623.894, 1987.383
624.376, 2023.052
624.858, 2060.081
625.340, 2097.348
625.822, 2132.542
626.304, 2162.998
626.786, 2197.132
627.268, 2233.656
627.750, 2274.720
628.233, 2324.375
628.715, 2378.497
629.197, 2429.974
629.679, 2475.889
630.161, 2521.252
630.643, 2568.790
631.125, 2619.586
631.607, 2677.387
632.089, 2742.404
632.572, 2813.050
633.054, 2889.125
633.536, 2968.750
634.018, 3046.020
