##NAMES=Hausmannite
##RRUFFID=R040090
##IDEAL CHEMISTRY=Mn^2+^Mn^3+^_2_O_4_
##LOCALITY=Ã–hrenstock, Ilmenau, near Thuringia, Germany
##OWNER=RRUFF
##SOURCE=University of Arizona Mineral Museum
##DESCRIPTION=Mass of black octahedral crystals
##STATUS=The identification of this mineral has been confirmed by X-ray diffraction and chemical analysis
##URL=rruff.info/R040090
##MEASURED CHEMISTRY=(Mn^2+^_0.71_Zn_0.28_)Mn^3+^_2.00_O_4_
104.6907, 49.28213
105.1728, 49.92135
105.6550, 40.65191
106.1371, 33.50071
106.6192, 33.18392
107.1013, 46.37286
107.5834, 54.48726
108.0655, 54.49040
108.5477, 48.50011
109.0298, 45.46298
109.5119, 48.32502
109.9940, 52.09114
110.4761, 54.27203
110.9582, 53.92599
111.4403, 52.88453
111.9225, 50.38001
112.4046, 46.46431
112.8867, 44.88832
113.3688, 48.73238
113.8509, 54.33013
114.3330, 58.27187
114.8152, 57.34692
115.2973, 56.50102
115.7794, 57.80892
116.2615, 61.85199
116.7436, 66.32127
117.2257, 70.89098
117.7079, 75.20335
118.1900, 78.55774
118.6721, 80.34888
119.1542, 81.23142
119.6363, 81.18890
120.1184, 78.27000
120.6006, 77.58736
121.0827, 84.93655
121.5648, 98.55202
122.0469, 110.6616
122.5290, 116.2471
123.0111, 117.3934
123.4933, 116.8573
123.9754, 114.0232
124.4575, 110.8642
124.9396, 109.5780
125.4217, 110.1891
125.9038, 111.9417
126.3860, 114.0873
126.8681, 115.4051
127.3502, 115.5820
127.8323, 115.5576
128.3144, 115.0069
128.7965, 112.4901
129.2787, 107.3904
129.7608, 102.5923
130.2429, 103.7316
130.7250, 110.0166
131.2071, 113.6338
131.6892, 106.9565
132.1714, 92.12766
132.6535, 83.67866
133.1356, 84.61512
133.6177, 91.14123
134.0998, 93.50244
134.5819, 91.15251
135.0640, 88.74093
135.5462, 91.22060
136.0283, 99.14503
136.5104, 103.6467
136.9925, 101.7547
137.4746, 94.40664
137.9567, 90.87301
138.4389, 91.84119
138.9210, 94.77681
139.4031, 97.10995
139.8852, 99.10886
140.3673, 99.83929
140.8494, 98.82510
141.3316, 95.73375
141.8137, 93.00696
142.2958, 90.65500
142.7779, 88.61303
143.2600, 86.51379
143.7421, 83.47108
144.2243, 81.77285
144.7064, 82.50191
145.1885, 87.22842
145.6706, 91.38738
146.1527, 95.73434
146.6348, 99.65677
147.1170, 100.4528
147.5991, 96.20774
148.0812, 90.55440
148.5633, 85.47108
149.0454, 78.67494
149.5275, 75.15968
150.0097, 77.54838
150.4918, 85.90179
150.9739, 89.79575
151.4560, 84.52876
151.9381, 77.12555
152.4202, 73.06915
152.9024, 75.48251
153.3845, 78.55029
153.8666, 81.72083
154.3487, 85.34407
154.8308, 86.74547
155.3129, 83.93754
155.7950, 79.16197
156.2772, 75.29146
156.7593, 72.38423
157.2414, 70.88087
157.7235, 71.42708
158.2056, 75.44539
158.6877, 78.12299
159.1699, 77.01181
159.6520, 73.64046
160.1341, 71.27711
160.6162, 72.24931
161.0983, 73.76115
161.5804, 74.03576
162.0626, 71.65454
162.5447, 69.50021
163.0268, 69.04726
163.5089, 69.90833
163.9910, 70.51165
164.4731, 69.30955
164.9553, 67.87749
165.4374, 67.63204
165.9195, 70.62637
166.4016, 73.59561
166.8837, 74.27843
167.3658, 72.84650
167.8480, 71.61265
168.3301, 72.26591
168.8122, 73.89238
169.2943, 75.26447
169.7764, 76.53625
170.2585, 76.96372
170.7407, 75.14750
171.2228, 70.80636
171.7049, 67.25919
172.1870, 67.86852
172.6691, 71.20592
173.1512, 74.24233
173.6334, 75.51144
174.1155, 75.71309
174.5976, 75.49699
175.0797, 74.77940
175.5618, 74.23024
176.0439, 74.61356
176.5260, 75.76532
177.0082, 77.08588
177.4903, 79.05905
177.9724, 80.86372
178.4545, 80.62725
178.9366, 77.37801
179.4187, 73.42770
179.9009, 72.19230
180.3830, 73.33968
180.8651, 74.52268
181.3472, 73.71941
181.8293, 71.61635
182.3114, 70.13000
182.7936, 69.65599
183.2757, 70.02293
183.7578, 71.62506
184.2399, 74.44250
184.7220, 76.33447
185.2041, 74.18655
185.6863, 68.95137
186.1684, 65.42478
186.6505, 65.74783
187.1326, 68.52763
187.6147, 69.88948
188.0968, 69.73750
188.5790, 68.97398
189.0611, 68.32449
189.5432, 67.81316
190.0253, 67.69904
190.5074, 68.20097
190.9895, 69.20982
191.4717, 70.35435
191.9538, 71.78349
192.4359, 72.89256
192.9180, 72.66844
193.4001, 71.08916
193.8822, 69.40972
194.3644, 68.03574
194.8465, 66.97600
195.3286, 66.60031
195.8107, 67.22055
196.2928, 67.95760
196.7749, 66.73820
197.2570, 63.25161
197.7392, 60.53444
198.2213, 60.63426
198.7034, 63.68588
199.1855, 66.25427
199.6676, 68.16766
200.1497, 69.50678
200.6319, 70.40154
201.1140, 70.80738
201.5961, 70.95656
202.0782, 71.17166
202.5603, 71.58429
203.0424, 70.82188
203.5246, 68.20905
204.0067, 64.55070
204.4888, 62.88481
204.9709, 63.71314
205.4530, 65.12849
205.9352, 65.66914
206.4173, 65.08913
206.8994, 64.85980
207.3815, 65.34891
207.8636, 66.38413
208.3457, 66.73531
208.8279, 65.95365
209.3100, 65.40682
209.7921, 66.86418
210.2742, 71.51204
210.7563, 73.90257
211.2384, 72.30047
211.7206, 67.01194
212.2027, 63.12755
212.6848, 60.70034
213.1669, 59.58840
213.6490, 59.94550
214.1311, 62.41179
214.6133, 64.54692
215.0954, 65.78075
215.5775, 66.07197
216.0596, 66.18770
216.5417, 66.42197
217.0238, 66.14773
217.5059, 64.14492
217.9881, 58.93632
218.4702, 55.38779
218.9523, 55.52167
219.4344, 60.22719
219.9165, 62.27253
220.3986, 60.46114
220.8808, 57.04441
221.3629, 55.42953
221.8450, 56.48973
222.3271, 57.68574
222.8092, 58.27994
223.2913, 58.22837
223.7735, 57.58969
224.2556, 55.74000
224.7377, 53.68640
225.2198, 53.53107
225.7019, 56.68862
226.1840, 59.31973
226.6662, 59.88916
227.1483, 57.51615
227.6304, 55.51958
228.1125, 53.71077
228.5946, 52.32872
229.0767, 51.94955
229.5589, 53.03170
230.0410, 54.41464
230.5231, 55.57766
231.0052, 56.13143
231.4873, 57.41707
231.9694, 60.00166
232.4516, 63.20889
232.9337, 65.15170
233.4158, 65.44011
233.8979, 65.04675
234.3800, 64.36739
234.8621, 63.27119
235.3443, 62.18778
235.8264, 61.22087
236.3085, 60.26988
236.7906, 58.91064
237.2727, 56.66706
237.7548, 54.66402
238.2369, 53.53896
238.7191, 53.83541
239.2012, 53.86723
239.6833, 53.14286
240.1654, 52.04263
240.6475, 52.42887
241.1296, 55.31768
241.6118, 58.37858
242.0939, 60.30818
242.5760, 60.97701
243.0581, 60.71515
243.5402, 59.07898
244.0223, 56.43409
244.5045, 54.64886
244.9866, 53.80318
245.4687, 53.71543
245.9508, 54.50930
246.4329, 57.28958
246.9150, 58.58963
247.3972, 57.42288
247.8793, 54.25323
248.3614, 52.38036
248.8435, 52.11346
249.3256, 52.76545
249.8077, 54.02807
250.2899, 56.56724
250.7720, 58.27358
251.2541, 58.65719
251.7362, 57.87142
252.2183, 57.32365
252.7004, 56.92013
253.1826, 56.88186
253.6647, 57.41606
254.1468, 58.73036
254.6289, 60.21986
255.1110, 62.14701
255.5931, 64.37660
256.0753, 65.13275
256.5574, 63.88549
257.0395, 61.92121
257.5216, 60.13748
258.0037, 58.26572
258.4858, 57.26348
258.9680, 57.61517
259.4501, 59.15628
259.9322, 59.90204
260.4143, 59.64583
260.8964, 58.91281
261.3785, 58.00815
261.8607, 56.64631
262.3428, 55.92575
262.8249, 56.23577
263.3070, 57.44918
263.7891, 58.17608
264.2712, 58.31304
264.7534, 58.12210
265.2355, 57.69754
265.7176, 56.81804
266.1997, 56.42181
266.6818, 56.72066
267.1639, 57.66879
267.6461, 58.94872
268.1282, 60.85133
268.6103, 62.52175
269.0924, 63.06337
269.5745, 62.14400
270.0566, 61.40585
270.5387, 61.19624
271.0208, 61.44101
271.5030, 61.50198
271.9851, 61.28812
272.4672, 61.09678
272.9493, 61.18908
273.4314, 61.58625
273.9135, 62.16325
274.3957, 63.01006
274.8778, 64.03196
275.3599, 64.50796
275.8420, 64.23797
276.3241, 64.00691
276.8062, 65.10508
277.2884, 67.89045
277.7705, 68.51565
278.2526, 65.41033
278.7347, 59.61625
279.2168, 55.96677
279.6989, 54.59525
280.1811, 54.74533
280.6632, 56.50471
281.1453, 59.98520
281.6274, 61.72759
282.1095, 60.13419
282.5916, 56.56530
283.0738, 56.75773
283.5559, 61.32841
284.0380, 66.05945
284.5201, 66.46810
285.0022, 62.82364
285.4843, 60.98846
285.9665, 63.01063
286.4486, 67.10735
286.9307, 67.57916
287.4128, 64.13113
287.8949, 60.50430
288.3770, 60.21560
288.8592, 62.78719
289.3413, 64.97948
289.8234, 66.19941
290.3055, 66.62051
290.7876, 66.17969
291.2697, 64.87251
291.7519, 64.08476
292.2340, 65.53706
292.7161, 68.61680
293.1982, 70.64642
293.6803, 70.76144
294.1624, 70.04733
294.6446, 70.42847
295.1267, 71.84724
295.6088, 73.55654
296.0909, 74.95444
296.5730, 76.19765
297.0551, 77.83233
297.5373, 80.07201
298.0194, 82.52236
298.5015, 84.89502
298.9836, 87.09293
299.4657, 88.63345
299.9478, 88.46895
300.4300, 87.50768
300.9121, 87.35668
301.3942, 88.33954
301.8763, 90.14042
302.3584, 92.51122
302.8405, 95.43358
303.3227, 98.72976
303.8048, 102.9637
304.2869, 107.2955
304.7690, 110.3507
305.2511, 111.1367
305.7332, 112.5314
306.2154, 117.7486
306.6975, 125.7786
307.1796, 133.8953
307.6617, 141.3305
308.1438, 147.6069
308.6259, 151.9292
309.1081, 153.4472
309.5901, 155.3825
310.0723, 160.3379
310.5544, 167.3999
311.0365, 174.6105
311.5186, 181.7778
312.0007, 188.3809
312.4828, 193.5622
312.9650, 196.7779
313.4471, 200.7169
313.9292, 208.2068
314.4113, 217.1729
314.8934, 224.1974
315.3755, 226.6472
315.8577, 227.7776
316.3398, 229.2142
316.8219, 231.1734
317.3040, 233.0900
317.7861, 235.5149
318.2682, 237.5677
318.7504, 238.1142
319.2325, 236.5068
319.7146, 233.5966
320.1967, 229.5875
320.6788, 224.4301
321.1609, 218.6641
321.6431, 211.8024
322.1252, 204.6370
322.6073, 197.9660
323.0894, 192.3333
323.5715, 186.8170
324.0536, 181.7656
324.5358, 177.3444
325.0179, 170.8548
325.5000, 158.4758
325.9821, 145.8048
326.4642, 137.1272
326.9464, 137.4053
327.4285, 136.4857
327.9106, 132.2858
328.3927, 125.0448
328.8748, 119.5237
329.3569, 116.6123
329.8391, 114.7675
330.3212, 113.0226
330.8033, 111.0082
331.2854, 109.6801
331.7675, 109.3249
332.2496, 109.7816
332.7318, 110.2188
333.2139, 110.8941
333.6960, 111.2283
334.1781, 110.8136
334.6602, 109.2229
335.1423, 107.9820
335.6245, 107.4104
336.1066, 107.1475
336.5887, 105.8334
337.0708, 102.6470
337.5529, 100.3182
338.0350, 100.9015
338.5172, 105.3612
338.9993, 107.1252
339.4814, 104.9314
339.9635, 101.2063
340.4456, 101.0240
340.9277, 104.9634
341.4099, 109.1606
341.8920, 111.8896
342.3741, 113.1453
342.8562, 114.4888
343.3383, 116.0356
343.8204, 117.3575
344.3026, 117.4957
344.7847, 116.5007
345.2668, 116.1020
345.7489, 117.6059
346.2310, 120.3417
346.7131, 121.2927
347.1953, 120.2654
347.6774, 118.9872
348.1595, 119.3740
348.6416, 121.1245
349.1237, 123.0991
349.6058, 124.9273
350.0880, 126.7117
350.5700, 128.3110
351.0522, 129.7528
351.5343, 132.1173
352.0164, 136.8557
352.4985, 143.0997
352.9806, 149.1427
353.4627, 154.0803
353.9449, 159.1173
354.4270, 166.1241
354.9091, 174.6156
355.3912, 182.3658
355.8733, 186.7900
356.3554, 190.0715
356.8376, 194.8610
357.3197, 202.5776
357.8018, 210.2177
358.2839, 214.5691
358.7660, 217.1697
359.2481, 221.9910
359.7303, 232.0528
360.2124, 244.1066
360.6945, 256.5738
361.1766, 269.5822
361.6587, 281.6937
362.1408, 291.0018
362.6230, 299.2118
363.1051, 308.9751
363.5872, 322.4187
364.0693, 336.4374
364.5514, 350.1156
365.0335, 363.7424
365.5157, 375.5718
365.9978, 383.9211
366.4799, 390.8805
366.9620, 398.7112
367.4441, 405.2021
367.9262, 415.0524
368.4084, 431.7173
368.8905, 455.6313
369.3726, 472.5277
369.8547, 478.0467
370.3368, 479.7414
370.8189, 482.8910
371.3011, 488.1499
371.7832, 493.9310
372.2653, 501.5169
372.7474, 509.7488
373.2295, 512.4620
373.7116, 507.0777
374.1938, 500.6654
374.6759, 498.1969
375.1580, 501.9381
375.6401, 500.5970
376.1222, 492.9310
376.6043, 480.4637
377.0865, 465.3959
377.5686, 447.4824
378.0507, 428.9601
378.5328, 411.5239
379.0149, 395.0225
379.4970, 375.8701
379.9792, 353.4147
380.4613, 330.4005
380.9434, 311.9500
381.4255, 297.4530
381.9076, 282.6616
382.3897, 265.2068
382.8719, 246.2947
383.3540, 229.6013
383.8361, 215.0099
384.3182, 202.0843
384.8003, 190.2000
385.2824, 179.6066
385.7646, 171.1826
386.2467, 166.5628
386.7288, 162.6574
387.2109, 155.0170
387.6930, 144.1764
388.1751, 134.0176
388.6573, 127.1962
389.1394, 122.2368
389.6215, 117.5382
390.1036, 112.5567
390.5857, 108.2550
391.0678, 105.4397
391.5499, 103.7655
392.0320, 102.3775
392.5142, 101.7450
392.9963, 100.6857
393.4784, 98.09052
393.9605, 93.26648
394.4426, 89.45258
394.9247, 89.31973
395.4069, 90.30853
395.8890, 89.18771
396.3711, 81.50747
396.8532, 75.33346
397.3353, 73.79907
397.8174, 77.40147
398.2996, 79.19743
398.7817, 78.45724
399.2638, 75.85737
399.7459, 71.66779
400.2280, 61.47208
400.7101, 56.08455
401.1923, 58.42921
401.6744, 66.63058
402.1565, 72.00420
402.6386, 74.23788
403.1207, 74.12959
403.6028, 71.29688
404.0850, 64.09245
404.5671, 60.25696
405.0492, 60.76537
405.5313, 63.82491
406.0134, 66.52837
406.4955, 69.03564
406.9777, 70.07817
407.4598, 68.48428
407.9419, 64.56617
408.4240, 61.84608
408.9061, 60.38145
409.3882, 59.85582
409.8704, 60.12374
410.3525, 61.12071
410.8346, 62.50409
411.3167, 64.72918
411.7988, 66.86701
412.2809, 66.63529
412.7631, 64.24540
413.2452, 61.85676
413.7273, 61.45347
414.2094, 62.05534
414.6915, 62.15749
415.1736, 61.52805
415.6558, 60.15630
416.1379, 56.95161
416.6200, 52.89788
417.1021, 50.53342
417.5842, 52.78762
418.0663, 56.02193
418.5485, 57.23093
419.0306, 55.71886
419.5127, 54.98451
419.9948, 58.24594
420.4769, 62.54411
420.9590, 64.42254
421.4412, 60.29441
421.9233, 56.37264
422.4054, 54.77158
422.8875, 55.44989
423.3696, 55.41610
423.8517, 52.53670
424.3339, 50.05369
424.8160, 49.93029
425.2981, 55.20597
425.7802, 58.37946
426.2623, 58.06131
426.7444, 55.69672
427.2266, 55.47056
427.7087, 59.43351
428.1908, 61.98112
428.6729, 60.19121
429.1550, 53.01960
429.6371, 48.84945
430.1193, 48.27250
430.6014, 49.77461
431.0835, 52.33598
431.5656, 56.26040
432.0477, 57.52404
432.5298, 53.48986
433.0119, 46.32627
433.4940, 44.48030
433.9762, 48.19198
434.4583, 52.86543
434.9404, 54.42788
435.4225, 53.86157
435.9046, 54.52206
436.3867, 57.48949
436.8689, 60.76299
437.3510, 61.90809
437.8331, 61.27209
438.3152, 60.00760
438.7973, 57.89439
439.2794, 55.92747
439.7616, 55.38609
440.2437, 56.51256
440.7258, 57.60537
441.2079, 57.72480
441.6900, 57.18597
442.1721, 56.37193
442.6543, 55.10329
443.1364, 53.87946
443.6185, 52.41587
444.1006, 50.92293
444.5827, 50.83723
445.0648, 54.97020
445.5470, 58.82793
446.0291, 59.87885
446.5112, 55.46651
446.9933, 51.89616
447.4754, 49.47392
447.9576, 47.95209
448.4397, 46.75362
448.9218, 45.33298
449.4039, 45.14862
449.8860, 47.12940
450.3681, 51.49279
450.8503, 54.13122
451.3324, 54.36563
451.8145, 54.07941
452.2966, 55.36441
452.7787, 58.47501
453.2608, 60.83439
453.7430, 61.97758
454.2251, 62.10171
454.7072, 61.54926
455.1893, 60.31015
455.6714, 58.93487
456.1535, 57.65039
456.6357, 56.50845
457.1178, 55.67603
457.5999, 55.20955
458.0820, 54.87095
458.5641, 54.35575
459.0462, 53.77517
459.5284, 53.39215
460.0105, 52.76516
460.4926, 52.77201
460.9747, 55.16798
461.4568, 59.59480
461.9389, 62.33162
462.4211, 59.20929
462.9032, 54.71879
463.3853, 52.71047
463.8674, 55.46059
464.3495, 58.33887
464.8316, 60.81695
465.3138, 62.45641
465.7959, 62.35887
466.2780, 58.08884
466.7601, 54.20843
467.2422, 52.30439
467.7243, 52.74608
468.2065, 52.94287
468.6886, 52.53401
469.1707, 52.21074
469.6528, 52.64414
470.1349, 54.11524
470.6170, 55.66046
471.0992, 57.31356
471.5813, 58.89775
472.0634, 59.72939
472.5455, 59.74902
473.0276, 59.37672
473.5097, 58.43970
473.9918, 57.08718
474.4739, 57.05585
474.9561, 58.58335
475.4382, 60.69167
475.9203, 62.85270
476.4024, 64.72510
476.8845, 64.94073
477.3666, 61.71691
477.8488, 57.57558
478.3309, 55.63744
478.8130, 55.76270
479.2951, 56.98486
479.7772, 60.01588
480.2593, 63.13655
480.7415, 64.61742
481.2236, 63.81173
481.7057, 62.24151
482.1878, 59.57407
482.6699, 56.77425
483.1520, 55.42648
483.6342, 57.75571
484.1163, 59.84480
484.5984, 60.08888
485.0805, 58.26009
485.5626, 57.54298
486.0447, 58.71997
486.5269, 60.47182
487.0090, 62.11053
487.4911, 64.17089
487.9732, 64.87267
488.4553, 63.57534
488.9374, 61.22533
489.4196, 59.79166
489.9017, 59.32986
490.3838, 59.59483
490.8659, 60.89499
491.3480, 63.01777
491.8301, 63.78720
492.3123, 63.02214
492.7944, 62.15377
493.2765, 63.11733
493.7586, 65.24897
494.2407, 66.00579
494.7228, 64.27941
495.2050, 61.88721
495.6871, 61.11145
496.1692, 61.58596
496.6513, 62.14089
497.1334, 61.98944
497.6155, 61.74060
498.0977, 62.09254
498.5798, 63.17699
499.0619, 63.88297
499.5440, 62.99203
500.0261, 61.75696
500.5082, 61.37004
500.9904, 63.70975
501.4725, 65.14896
501.9546, 64.24380
502.4367, 61.67255
502.9188, 60.31161
503.4009, 60.85787
503.8831, 61.92031
504.3652, 63.08273
504.8473, 64.38762
505.3294, 65.56476
505.8115, 66.62594
506.2936, 67.52392
506.7758, 68.31342
507.2579, 69.06400
507.7400, 69.05470
508.2221, 67.84588
508.7042, 66.05093
509.1863, 65.09290
509.6685, 64.96863
510.1506, 65.56813
510.6327, 68.01374
511.1148, 70.93233
511.5969, 70.64243
512.0790, 66.53442
512.5612, 62.76140
513.0433, 63.90583
513.5254, 67.60350
514.0075, 70.19656
514.4896, 69.41682
514.9717, 68.19742
515.4539, 67.90523
515.9360, 68.45509
516.4181, 69.54128
516.9002, 73.06961
517.3823, 75.48237
517.8644, 74.32384
518.3466, 67.19408
518.8287, 63.44957
519.3108, 66.88692
519.7929, 71.79250
520.2750, 72.10780
520.7571, 64.65510
521.2393, 59.15374
521.7214, 57.07835
522.2035, 57.91170
522.6856, 60.40606
523.1677, 65.13523
523.6498, 68.80321
524.1320, 68.80608
524.6141, 65.72900
525.0962, 64.48677
525.5783, 65.31391
526.0604, 67.01558
526.5425, 69.19608
527.0247, 71.24684
527.5068, 71.54202
527.9889, 68.69432
528.4710, 65.12363
528.9531, 62.84488
529.4352, 61.75643
529.9174, 61.46130
530.3995, 62.14304
530.8816, 63.27572
531.3637, 64.64080
531.8458, 66.25438
532.3279, 67.73881
532.8101, 69.72137
533.2922, 71.14817
533.7743, 71.03777
534.2564, 67.30871
534.7385, 64.65001
535.2206, 63.52370
535.7027, 63.60273
536.1848, 64.09824
536.6669, 65.45150
537.1490, 66.12477
537.6312, 64.71990
538.1133, 61.37669
538.5954, 62.24440
539.0775, 68.11970
539.5596, 74.45129
540.0417, 76.92242
540.5239, 76.07353
541.0060, 73.87403
541.4881, 70.02462
541.9702, 66.54864
542.4523, 66.39030
542.9344, 68.72762
543.4166, 71.26328
543.8987, 73.07232
544.3808, 74.48005
544.8629, 75.76389
545.3450, 76.92215
545.8271, 77.62695
546.3093, 77.42863
546.7914, 76.92794
547.2735, 76.53986
547.7556, 76.42632
548.2377, 76.26247
548.7198, 75.55933
549.2020, 74.94121
549.6841, 75.47870
550.1662, 77.94594
550.6483, 80.16171
551.1304, 81.85654
551.6125, 82.92972
552.0947, 82.19835
552.5768, 79.14919
553.0589, 76.57383
553.5410, 76.91525
554.0231, 79.65948
554.5052, 81.50799
554.9874, 82.18510
555.4695, 82.02074
555.9516, 80.42464
556.4337, 78.25953
556.9158, 77.68307
557.3979, 80.65506
557.8801, 84.20942
558.3622, 85.75598
558.8443, 85.78349
559.3264, 85.92736
559.8085, 87.48166
560.2906, 88.88660
560.7728, 89.12616
561.2549, 87.80399
561.7370, 86.87354
562.2191, 87.39238
562.7012, 87.90212
563.1833, 87.05864
563.6655, 83.08752
564.1476, 81.59928
564.6297, 84.23317
565.1118, 88.86566
565.5939, 90.23573
566.0760, 87.73346
566.5582, 85.47337
567.0403, 85.13060
567.5224, 86.30975
568.0045, 87.60710
568.4866, 89.01325
568.9688, 90.37907
569.4509, 91.45942
569.9330, 92.43663
570.4151, 93.90995
570.8972, 96.29344
571.3793, 97.93754
571.8615, 96.27607
572.3436, 93.35609
572.8257, 92.27275
573.3078, 96.59744
573.7899, 100.4042
574.2720, 101.4588
574.7542, 100.0723
575.2363, 98.12831
575.7184, 94.22447
576.2005, 91.41947
576.6826, 91.07220
577.1647, 93.65175
577.6469, 96.40627
578.1290, 99.74599
578.6111, 102.4520
579.0932, 102.7671
579.5753, 100.5845
580.0574, 99.64352
580.5396, 100.9432
581.0217, 103.0134
581.5038, 103.1602
581.9859, 101.7314
582.4680, 100.3575
582.9501, 100.3249
583.4323, 100.4769
583.9144, 99.25511
584.3965, 96.78522
584.8786, 94.54866
585.3607, 93.23342
585.8428, 92.55986
586.3250, 92.40226
586.8071, 93.02891
587.2892, 93.43156
587.7713, 92.88924
588.2534, 92.27020
588.7355, 92.61726
589.2177, 94.66172
589.6998, 96.42549
590.1819, 97.71884
590.6640, 98.54330
591.1461, 98.62435
591.6282, 97.70354
592.1104, 97.40842
592.5925, 99.18855
593.0746, 102.3963
593.5567, 103.5364
594.0388, 102.5377
594.5209, 101.0785
595.0031, 100.7072
595.4852, 100.8205
595.9673, 100.0622
596.4494, 97.51595
596.9315, 96.11916
597.4136, 99.24667
597.8958, 104.5010
598.3779, 108.3306
598.8600, 107.8986
599.3421, 107.7365
599.8242, 109.8391
600.3063, 113.6794
