##NAMES=Hauyne
##RRUFFID=R050606
##IDEAL CHEMISTRY=Na_3_Ca(Si_3_Al_3_)O_12_(S^6+^O_4_)
##LOCALITY=Ariccia, near Rome, Italy
##OWNER=RRUFF
##SOURCE=University of Arizona Mineral Museum
##DESCRIPTION=Blue crystal embedded in calcite
##STATUS=The identification of this mineral has been confirmed only by X-ray diffraction
##URL=rruff.info/R050606
92.06543, 265.9822
92.54755, 262.0121
93.02966, 262.3272
93.51178, 268.0298
93.99390, 272.0937
94.47601, 273.7617
94.95813, 273.6859
95.44025, 272.9579
95.92236, 272.3901
96.40448, 271.9046
96.88660, 271.4880
97.36871, 271.4225
97.85082, 271.4297
98.33294, 271.2718
98.81506, 270.7650
99.29717, 269.7473
99.77929, 269.4753
100.2614, 269.9645
100.7435, 270.0177
101.2256, 268.6461
101.7078, 266.5732
102.1899, 265.6088
102.6720, 266.5227
103.1541, 268.0746
103.6362, 268.9518
104.1183, 269.1596
104.6005, 269.3648
105.0826, 270.3326
105.5647, 272.2384
106.0468, 273.4674
106.5289, 272.7370
107.0110, 271.7167
107.4931, 271.4094
107.9753, 272.0927
108.4574, 273.3287
108.9395, 274.2976
109.4216, 274.9975
109.9037, 275.3414
110.3858, 275.2546
110.8680, 274.8750
111.3501, 274.2368
111.8322, 273.3310
112.3143, 272.2820
112.7964, 271.9243
113.2785, 272.9036
113.7607, 273.8155
114.2428, 274.4318
114.7249, 274.7112
115.2070, 274.6182
115.6891, 274.0936
116.1712, 273.1069
116.6534, 272.0229
117.1355, 270.7977
117.6176, 269.5070
118.0997, 268.1239
118.5818, 266.6287
119.0639, 265.2809
119.5461, 264.4892
120.0282, 264.0814
120.5103, 263.5642
120.9924, 262.6458
121.4745, 261.5220
121.9566, 260.7094
122.4388, 260.5411
122.9209, 260.2283
123.4030, 259.2922
123.8851, 257.8095
124.3672, 256.0244
124.8493, 253.8363
125.3315, 251.1523
125.8136, 249.3284
126.2957, 249.5291
126.7778, 249.8625
127.2599, 249.6157
127.7420, 248.6881
128.2242, 247.3581
128.7063, 245.9697
129.1884, 244.4529
129.6705, 243.0119
130.1526, 241.7273
130.6347, 240.4518
131.1169, 239.0178
131.5990, 237.3844
132.0811, 235.7165
132.5632, 234.3859
133.0453, 233.7269
133.5274, 233.0109
134.0096, 232.1045
134.4917, 231.1423
134.9738, 230.3283
135.4559, 229.7650
135.9380, 229.3917
136.4201, 229.0061
136.9023, 228.5898
137.3844, 228.1922
137.8665, 227.7009
138.3486, 227.1900
138.8307, 227.0742
139.3128, 227.9571
139.7950, 229.2259
140.2771, 229.4785
140.7592, 228.0326
141.2413, 226.1707
141.7234, 225.2635
142.2055, 225.4913
142.6877, 225.7606
143.1698, 225.3558
143.6519, 224.6736
144.1340, 224.1270
144.6161, 223.8012
145.0982, 223.7520
145.5803, 224.2365
146.0625, 225.8410
146.5446, 227.0128
147.0267, 227.0685
147.5088, 226.4200
147.9909, 225.6603
148.4730, 225.1102
148.9552, 224.7780
149.4373, 224.8361
149.9194, 226.0709
150.4015, 226.9884
150.8836, 227.0034
151.3657, 226.3443
151.8479, 225.6181
152.3300, 225.3814
152.8121, 225.7421
153.2942, 225.9189
153.7763, 225.9496
154.2584, 225.8176
154.7406, 225.3668
155.2227, 224.6644
155.7048, 224.0483
156.1869, 223.9353
156.6690, 224.5641
157.1511, 224.8212
157.6333, 224.2204
158.1154, 223.5245
158.5975, 223.6135
159.0796, 224.6988
159.5617, 225.8779
160.0438, 225.7876
160.5260, 224.3746
161.0081, 223.1799
161.4902, 222.4426
161.9723, 222.1634
162.4544, 222.4614
162.9365, 223.5707
163.4187, 224.8560
163.9008, 225.6579
164.3829, 226.0085
164.8650, 226.0164
165.3471, 225.5843
165.8292, 224.7823
166.3113, 224.0674
166.7935, 223.4814
167.2756, 223.0813
167.7577, 222.9170
168.2398, 222.9840
168.7219, 223.1645
169.2040, 223.3941
169.6862, 223.6956
170.1683, 223.8818
170.6504, 223.7371
171.1325, 223.5871
171.6146, 223.7768
172.0967, 224.3199
172.5789, 224.7282
173.0610, 224.0996
173.5431, 221.5172
174.0252, 220.0366
174.5073, 220.5564
174.9894, 221.6054
175.4716, 222.1194
175.9537, 221.7592
176.4358, 220.9167
176.9179, 220.3923
177.4000, 220.6316
177.8821, 220.5832
178.3643, 219.9414
178.8464, 219.1349
179.3285, 218.5868
179.8106, 218.4694
180.2927, 218.6792
180.7748, 218.9477
181.2570, 219.7619
181.7391, 220.0371
182.2212, 219.0804
182.7033, 217.6059
183.1854, 216.8604
183.6675, 217.5512
184.1497, 219.0146
184.6318, 219.0008
185.1139, 216.4848
185.5960, 214.4202
186.0781, 214.2658
186.5602, 215.4404
187.0423, 216.2816
187.5245, 215.9691
188.0066, 214.8421
188.4887, 213.8063
188.9708, 212.8179
189.4529, 211.9920
189.9350, 211.4252
190.4172, 211.1074
190.8993, 210.9276
191.3814, 210.9574
191.8635, 211.0316
192.3456, 210.9553
192.8277, 210.7556
193.3099, 210.3074
193.7920, 209.3521
194.2741, 207.8033
194.7562, 206.3821
195.2383, 205.4568
195.7204, 204.7796
196.2026, 204.1749
196.6847, 203.5888
197.1668, 203.0785
197.6489, 202.8375
198.1310, 203.1063
198.6131, 202.9373
199.0953, 201.8397
199.5774, 200.3323
200.0595, 198.7597
200.5416, 197.2144
201.0237, 195.8497
201.5058, 195.0994
201.9880, 195.5070
202.4701, 195.5476
202.9522, 194.5574
203.4343, 193.2873
203.9164, 192.5937
204.3985, 192.8812
204.8807, 193.7109
205.3628, 193.7491
205.8449, 192.3264
206.3270, 190.9041
206.8091, 189.5757
207.2912, 188.3627
207.7733, 187.2516
208.2555, 186.2389
208.7376, 185.3526
209.2197, 184.7015
209.7018, 184.6476
210.1839, 184.4310
210.6660, 183.8224
211.1482, 183.0393
211.6303, 182.4513
212.1124, 182.2748
212.5945, 182.3237
213.0766, 181.7938
213.5587, 179.9368
214.0409, 178.4294
214.5230, 177.7709
215.0051, 177.6708
215.4872, 177.6675
215.9693, 177.5840
216.4514, 177.3469
216.9336, 176.6344
217.4157, 175.1209
217.8978, 173.6708
218.3799, 172.5253
218.8620, 171.6517
219.3441, 170.9668
219.8263, 170.4583
220.3084, 170.1021
220.7905, 169.8322
221.2726, 169.7509
221.7547, 169.5759
222.2368, 169.0560
222.7190, 168.2874
223.2011, 167.6790
223.6832, 167.4768
224.1653, 167.4812
224.6474, 167.2642
225.1295, 166.7119
225.6117, 166.2114
226.0938, 166.2289
226.5759, 166.6644
227.0580, 166.6224
227.5401, 165.4594
228.0222, 163.8706
228.5043, 162.7329
228.9865, 162.1471
229.4686, 161.7967
229.9507, 161.5694
230.4328, 161.4633
230.9149, 161.0502
231.3970, 159.7602
231.8792, 158.4359
232.3613, 157.8459
232.8434, 158.1157
233.3255, 158.6585
233.8076, 159.0611
234.2897, 159.3531
234.7719, 159.1565
235.2540, 157.8494
235.7361, 156.3609
236.2182, 155.2650
236.7003, 154.6383
237.1824, 154.1938
237.6646, 153.5849
238.1467, 152.7413
238.6288, 152.1141
239.1109, 152.1906
239.5930, 152.1964
240.0751, 151.5733
240.5573, 150.3181
241.0394, 148.9995
241.5215, 148.3456
242.0036, 148.5624
242.4857, 148.5943
242.9678, 148.3719
243.4500, 147.9676
243.9321, 147.2829
244.4142, 146.3791
244.8963, 145.5178
245.3784, 145.0599
245.8605, 145.1974
246.3427, 145.0332
246.8248, 144.3610
247.3069, 143.5871
247.7890, 142.9515
248.2711, 142.4326
248.7532, 141.8202
249.2354, 140.8545
249.7175, 139.4275
250.1996, 138.1168
250.6817, 136.6975
251.1638, 135.5702
251.6459, 135.0186
252.1281, 134.9796
252.6102, 135.1805
253.0923, 135.4098
253.5744, 135.7457
254.0565, 135.5764
254.5386, 134.5162
255.0208, 133.4024
255.5029, 132.5993
255.9850, 132.0901
256.4671, 131.6557
256.9492, 131.0974
257.4313, 130.3928
257.9135, 129.8466
258.3956, 129.6684
258.8777, 129.4121
259.3598, 128.7279
259.8419, 127.7657
260.3240, 127.0008
260.8062, 126.8215
261.2883, 127.2244
261.7704, 127.4509
262.2525, 127.8423
262.7346, 127.7791
263.2167, 126.5558
263.6989, 124.6082
264.1810, 123.1425
264.6631, 123.0102
265.1452, 124.0182
265.6273, 124.4154
266.1094, 123.9272
266.5916, 123.2706
267.0737, 122.5000
267.5558, 121.7451
268.0379, 121.3259
268.5200, 121.4804
269.0021, 122.0348
269.4843, 122.2501
269.9664, 121.8574
270.4485, 121.5299
270.9306, 121.5004
271.4127, 121.6871
271.8948, 121.9238
272.3770, 122.1412
272.8591, 122.3572
273.3412, 122.6530
273.8233, 123.1573
274.3054, 123.4745
274.7875, 123.3651
275.2697, 122.9980
275.7518, 122.6922
276.2339, 122.5662
276.7160, 122.5259
277.1981, 122.3639
277.6802, 122.0235
278.1623, 121.8247
278.6444, 121.9150
279.1266, 122.1922
279.6087, 122.5511
280.0908, 123.0152
280.5729, 123.3696
281.0550, 123.2220
281.5371, 122.5854
282.0193, 121.9619
282.5014, 121.3519
282.9835, 120.8703
283.4656, 120.8318
283.9477, 121.3823
284.4298, 121.8468
284.9120, 121.2481
285.3941, 119.7596
285.8762, 118.7270
286.3583, 118.7693
286.8404, 119.2522
287.3225, 119.3691
287.8047, 119.0123
288.2868, 118.6473
288.7689, 118.7945
289.2510, 119.2613
289.7331, 119.3504
290.2152, 118.6103
290.6974, 117.6465
291.1795, 117.1615
291.6616, 117.1848
292.1437, 117.0977
292.6258, 116.3744
293.1079, 115.2916
293.5901, 114.5146
294.0722, 114.2392
294.5543, 114.1407
295.0364, 113.9664
295.5185, 113.7207
296.0006, 113.5072
296.4828, 113.4497
296.9649, 113.3987
297.4470, 113.0648
297.9291, 112.2823
298.4112, 111.5848
298.8933, 111.4922
299.3755, 111.8882
299.8576, 112.0322
300.3397, 111.5635
300.8218, 110.8519
301.3039, 110.4416
301.7860, 110.3790
302.2682, 110.2745
302.7503, 109.7398
303.2324, 108.9577
303.7145, 108.6390
304.1966, 109.1672
304.6787, 109.8031
305.1609, 109.7218
305.6430, 109.0045
306.1251, 108.2437
306.6072, 107.7072
307.0893, 107.3060
307.5714, 106.7555
308.0536, 105.8797
308.5357, 105.2673
309.0178, 105.6343
309.4999, 106.6867
309.9820, 107.7057
310.4641, 108.5651
310.9463, 109.2149
311.4284, 109.4680
311.9105, 109.2402
312.3926, 109.0651
312.8747, 109.4743
313.3568, 110.1405
313.8390, 110.4490
314.3211, 110.0254
314.8032, 109.4699
315.2853, 109.5385
315.7674, 110.2475
316.2495, 110.6841
316.7317, 110.2368
317.2138, 109.3687
317.6959, 108.7829
318.1780, 108.5487
318.6601, 108.5427
319.1422, 108.8488
319.6243, 109.3920
320.1064, 109.6300
320.5886, 109.3218
321.0707, 108.6996
321.5528, 108.0021
322.0349, 107.2041
322.5170, 106.5982
322.9991, 106.6853
323.4813, 107.1042
323.9634, 106.6353
324.4455, 104.6661
324.9276, 102.6379
325.4097, 102.2865
325.8918, 103.2691
326.3740, 103.9673
326.8561, 103.4930
327.3382, 102.4979
327.8203, 102.1451
328.3024, 102.6637
328.7845, 103.0603
329.2667, 102.2222
329.7488, 100.6839
330.2309, 99.79274
330.7130, 100.3416
331.1951, 101.2596
331.6772, 101.4843
332.1594, 101.0243
332.6415, 100.3941
333.1236, 99.66546
333.6057, 99.04430
334.0878, 98.95145
334.5699, 99.72904
335.0521, 100.4311
335.5342, 100.1743
336.0163, 99.23794
336.4984, 98.89592
336.9805, 99.79797
337.4626, 101.2000
337.9448, 101.9322
338.4269, 101.9547
338.9090, 101.8622
339.3911, 101.8468
339.8732, 101.8850
340.3553, 101.9045
340.8375, 101.8669
341.3196, 101.9113
341.8017, 102.2839
342.2838, 102.9466
342.7659, 103.4727
343.2480, 103.8731
343.7302, 104.0466
344.2123, 103.7011
344.6944, 102.8302
345.1765, 102.1188
345.6586, 102.0879
346.1407, 102.6942
346.6229, 103.3242
347.1050, 104.1308
347.5871, 104.8156
348.0692, 104.9549
348.5513, 104.7450
349.0334, 105.0645
349.5156, 106.5706
349.9977, 108.6198
350.4798, 109.3477
350.9619, 108.1023
351.4440, 107.1174
351.9261, 107.2791
352.4083, 108.1178
352.8904, 108.9096
353.3725, 109.4465
353.8546, 109.8093
354.3367, 110.0604
354.8188, 110.1181
355.3010, 110.4251
355.7831, 111.4204
356.2652, 112.4328
356.7473, 112.6742
357.2294, 112.1270
357.7115, 111.6665
358.1937, 112.1485
358.6758, 113.6256
359.1579, 114.4758
359.6400, 113.9210
360.1221, 113.5580
360.6042, 114.4946
361.0863, 116.2936
361.5685, 117.7269
362.0506, 118.0964
362.5327, 117.6090
363.0148, 117.0877
363.4969, 116.2359
363.9790, 115.7210
364.4612, 115.8422
364.9433, 116.2733
365.4254, 116.6415
365.9075, 116.8220
366.3896, 116.8897
366.8717, 116.9511
367.3539, 116.9454
367.8360, 117.0904
368.3181, 117.4783
368.8002, 117.9333
369.2823, 118.3785
369.7644, 118.7835
370.2466, 119.1009
370.7287, 119.2570
371.2108, 119.2269
371.6929, 119.4834
372.1750, 120.4132
372.6571, 121.1951
373.1393, 121.4571
373.6214, 121.4242
374.1035, 121.5362
374.5856, 122.0473
375.0677, 122.7870
375.5498, 123.2199
376.0320, 123.3977
376.5141, 123.1253
376.9962, 121.7391
377.4783, 120.3124
377.9604, 119.8739
378.4425, 120.6331
378.9247, 121.9319
379.4068, 122.9281
379.8889, 123.5799
380.3710, 124.0673
380.8531, 124.5752
381.3352, 124.7527
381.8174, 124.0994
382.2995, 122.9188
382.7816, 122.0584
383.2637, 122.2375
383.7458, 123.2906
384.2279, 124.0893
384.7101, 124.5691
385.1922, 124.8649
385.6743, 125.0228
386.1564, 125.0515
386.6385, 124.9655
387.1206, 124.7716
387.6028, 124.4545
388.0849, 123.8817
388.5670, 122.9278
389.0491, 122.3309
389.5312, 122.6640
390.0133, 123.1317
390.4955, 123.1749
390.9776, 122.7720
391.4597, 122.3478
391.9418, 122.1506
392.4239, 122.1881
392.9060, 122.6069
393.3882, 123.7450
393.8703, 124.6734
394.3524, 124.4367
394.8345, 123.5666
395.3166, 123.2411
395.7987, 124.2234
396.2809, 125.7056
396.7630, 126.5140
397.2451, 126.6062
397.7272, 126.7757
398.2093, 127.3785
398.6914, 128.2800
399.1736, 129.2829
399.6557, 130.4661
400.1378, 131.4973
400.6199, 131.9370
401.1020, 132.0689
401.5841, 132.7136
402.0662, 134.1388
402.5483, 135.8648
403.0305, 137.2451
403.5126, 138.3077
403.9947, 139.7901
404.4768, 142.1766
404.9589, 144.8053
405.4410, 147.0400
405.9232, 148.8645
406.4053, 150.6132
406.8874, 152.4671
407.3695, 154.4247
407.8516, 156.5335
408.3337, 158.7812
408.8159, 161.1594
409.2980, 163.4646
409.7801, 165.9546
410.2622, 169.1799
410.7443, 173.3764
411.2264, 177.9398
411.7086, 181.9065
412.1907, 184.8818
412.6728, 188.2030
413.1549, 191.8733
413.6370, 195.8732
414.1191, 200.3334
414.6013, 205.1558
415.0834, 209.9868
415.5655, 214.5022
416.0476, 218.7597
416.5297, 223.4732
417.0118, 229.0776
417.4940, 234.6304
417.9761, 239.9710
418.4582, 245.1908
418.9403, 250.2536
419.4224, 255.1913
419.9045, 260.2205
420.3867, 265.8028
420.8688, 272.0776
421.3509, 278.4728
421.8330, 284.6222
422.3151, 291.1312
422.7972, 298.4983
423.2794, 306.5504
423.7615, 314.6410
424.2436, 322.1488
424.7257, 329.2308
425.2078, 336.9932
425.6899, 345.3117
426.1721, 354.5890
426.6542, 365.3514
427.1363, 376.9035
427.6184, 388.5587
428.1005, 400.1546
428.5826, 411.5579
429.0648, 422.3670
429.5469, 432.6320
430.0290, 443.2602
430.5111, 454.9152
430.9932, 466.3774
431.4753, 477.0965
431.9575, 486.9559
432.4396, 495.0241
432.9217, 500.4800
433.4038, 503.9568
433.8859, 506.5454
434.3680, 508.3156
434.8502, 508.9583
435.3323, 508.4101
435.8144, 506.4064
436.2965, 502.6540
436.7786, 496.6499
437.2607, 489.6450
437.7429, 482.4536
438.2250, 474.7701
438.7071, 465.5772
439.1892, 454.3890
439.6713, 442.6194
440.1534, 432.3939
440.6356, 424.1459
441.1177, 415.4653
441.5998, 406.0152
442.0819, 396.3059
442.5640, 386.6839
443.0461, 377.2067
443.5282, 367.6436
444.0103, 357.7962
444.4925, 347.8836
444.9746, 339.2631
445.4567, 333.2025
445.9388, 326.9162
446.4209, 319.8735
446.9030, 312.6425
447.3852, 305.7035
447.8673, 299.2277
448.3494, 293.0249
448.8315, 286.7516
449.3136, 280.1844
449.7957, 274.6893
450.2779, 271.2559
450.7600, 267.9055
451.2421, 264.0842
451.7242, 259.8347
452.2063, 255.2075
452.6884, 250.1179
453.1706, 245.0513
453.6527, 241.5019
454.1348, 240.2053
454.6169, 238.1482
455.0990, 233.6611
455.5811, 228.7454
456.0633, 224.7672
456.5454, 221.8497
457.0275, 219.1578
457.5096, 216.0090
457.9917, 212.5842
458.4738, 209.5510
458.9560, 207.0945
459.4381, 204.6031
459.9202, 201.5345
460.4023, 198.1630
460.8844, 194.9697
461.3665, 192.0451
461.8487, 189.3207
462.3308, 186.7453
462.8129, 184.3261
463.2950, 182.1125
463.7771, 180.1281
464.2592, 178.2949
464.7414, 176.4912
465.2235, 174.7045
465.7056, 172.9966
466.1877, 171.2577
466.6698, 169.6704
467.1519, 168.5871
467.6341, 167.8592
468.1162, 166.8645
468.5983, 165.1963
469.0804, 162.9617
469.5625, 160.7121
470.0446, 158.2297
470.5268, 156.0171
471.0089, 154.3913
471.4910, 152.8975
471.9731, 150.9677
472.4552, 148.5813
472.9373, 146.3462
473.4195, 144.9568
473.9016, 144.4713
474.3837, 144.0670
474.8658, 144.2260
475.3479, 143.9018
475.8300, 142.6400
476.3122, 140.7731
476.7943, 138.6335
477.2764, 136.3008
477.7585, 134.1614
478.2406, 132.9689
478.7227, 132.8691
479.2049, 132.4257
479.6870, 131.1586
480.1691, 129.6959
480.6512, 128.3092
481.1333, 127.0819
481.6154, 126.3264
482.0976, 126.6757
482.5797, 127.3763
483.0618, 127.2285
483.5439, 126.2097
484.0260, 124.8182
484.5081, 123.0092
484.9902, 121.1746
485.4724, 120.1983
485.9545, 120.4441
486.4366, 120.4195
486.9187, 119.2680
487.4008, 117.7016
487.8829, 116.8551
488.3651, 116.8470
488.8472, 116.6286
489.3293, 115.1616
489.8114, 112.4528
490.2935, 110.6331
490.7756, 110.3064
491.2578, 109.9922
491.7399, 109.5288
492.2220, 108.7478
492.7041, 107.2097
493.1862, 104.8403
493.6683, 102.4453
494.1505, 101.3357
494.6326, 102.0093
495.1147, 102.0056
495.5968, 100.5071
496.0789, 99.11975
496.5610, 98.51085
497.0432, 98.43668
497.5253, 98.35003
498.0074, 97.95914
498.4895, 97.46335
498.9716, 97.39677
499.4537, 97.92738
499.9359, 97.76844
500.4180, 95.91651
500.9001, 93.89285
501.3822, 93.03027
501.8643, 93.25065
502.3464, 93.56310
502.8286, 93.57310
503.3107, 93.36097
503.7928, 92.95083
504.2749, 92.34701
504.7570, 91.92490
505.2391, 91.97559
505.7213, 92.27644
506.2034, 92.22286
506.6855, 91.66753
507.1676, 91.15405
507.6497, 90.84225
508.1318, 90.63721
508.6140, 90.40101
509.0961, 90.13187
509.5782, 90.01732
510.0603, 90.28812
510.5424, 90.90150
511.0245, 90.93649
511.5067, 89.66087
511.9888, 88.69173
512.4709, 88.49036
512.9530, 88.62914
513.4351, 88.66270
513.9172, 88.46497
514.3994, 88.16426
514.8815, 87.93094
515.3636, 87.77994
515.8457, 87.46510
516.3278, 86.73316
516.8099, 86.18271
517.2921, 86.14442
517.7742, 86.40047
518.2563, 86.67809
518.7384, 86.96336
519.2205, 86.99383
519.7026, 86.22734
520.1848, 84.81001
520.6669, 83.91354
521.1490, 83.87307
521.6311, 84.22507
522.1132, 84.71793
522.5953, 85.28622
523.0775, 85.45198
523.5596, 84.60969
524.0417, 83.80746
524.5238, 83.99937
525.0059, 84.84954
525.4880, 85.31205
525.9702, 84.92164
526.4523, 84.22195
526.9344, 84.18633
527.4165, 85.30028
527.8986, 85.79568
528.3807, 85.00757
528.8629, 84.27312
529.3450, 84.58222
529.8271, 85.53553
530.3092, 86.03142
530.7913, 85.40348
531.2734, 84.21089
531.7556, 83.91267
532.2377, 84.95369
532.7198, 85.62993
533.2019, 85.39258
533.6840, 84.97437
534.1661, 84.70532
534.6483, 84.60556
535.1304, 84.61015
535.6125, 84.73420
536.0946, 84.90600
536.5767, 84.89741
537.0588, 84.68427
537.5410, 84.80628
538.0231, 85.53383
538.5052, 86.65855
538.9873, 88.01622
539.4694, 89.73953
539.9515, 90.79469
540.4337, 90.28859
540.9158, 89.39301
541.3979, 89.32243
541.8800, 90.03671
542.3621, 90.81191
542.8442, 91.21333
543.3264, 91.33257
543.8085, 91.47849
544.2906, 91.56734
544.7726, 91.80973
545.2548, 92.48995
545.7369, 93.10596
546.2190, 93.27128
546.7011, 93.00359
547.1832, 92.55005
547.6653, 92.09421
548.1475, 91.60378
548.6296, 90.92933
549.1117, 89.97913
549.5938, 89.09021
550.0759, 88.23569
550.5580, 87.56712
551.0402, 87.35057
551.5223, 87.56507
552.0044, 87.61407
552.4865, 87.02741
552.9686, 86.09535
553.4507, 85.24227
553.9329, 84.48560
554.4150, 84.06374
554.8971, 84.28910
555.3792, 84.78250
555.8613, 84.47192
556.3434, 82.91337
556.8256, 81.82169
557.3077, 81.76987
557.7898, 82.14859
558.2719, 82.60889
558.7540, 83.00471
559.2361, 83.04830
559.7183, 82.49988
560.2004, 81.52422
560.6825, 80.76684
561.1646, 80.00684
561.6467, 79.90203
562.1288, 81.25949
562.6110, 82.62003
563.0931, 82.85134
563.5752, 82.02007
564.0573, 81.02248
564.5394, 80.39899
565.0215, 80.09793
565.5037, 80.01604
565.9858, 80.17097
566.4679, 80.44656
566.9500, 80.92733
567.4321, 81.39926
567.9142, 81.58089
568.3964, 81.45858
568.8785, 81.26272
569.3606, 81.05534
569.8427, 80.82055
570.3248, 80.47033
570.8069, 80.05287
571.2891, 79.76866
571.7712, 79.72110
572.2533, 79.90166
572.7354, 80.30367
573.2175, 81.17321
573.6996, 81.83022
574.1818, 82.14049
574.6639, 82.37346
575.1460, 82.88277
575.6281, 83.45886
576.1102, 83.43240
576.5923, 82.28366
577.0745, 80.73679
577.5566, 80.57800
578.0387, 82.14327
578.5208, 83.24824
579.0029, 83.16596
579.4850, 82.80798
579.9672, 82.93804
580.4493, 83.42540
580.9314, 83.68250
581.4135, 83.32873
581.8956, 82.79191
582.3777, 82.40534
582.8599, 82.17662
583.3420, 82.18521
583.8241, 82.50033
584.3062, 82.86044
584.7883, 82.89099
585.2704, 82.49249
585.7526, 82.24914
586.2347, 82.06161
586.7168, 82.12025
587.1989, 82.68564
587.6810, 83.49772
588.1631, 84.09609
588.6453, 84.32385
589.1274, 84.52708
589.6095, 85.39433
590.0916, 87.09309
