##NAMES=Hauyne
##RRUFFID=R070557
##IDEAL CHEMISTRY=Na_3_Ca(Si_3_Al_3_)O_12_(S^6+^O_4_)
##LOCALITY=Badakhshan, Afghanistan
##OWNER=RRUFF
##SOURCE=Farooq Hashmi
##DESCRIPTION=Sky blue fragment
##STATUS=The identification of this mineral is confirmed by single-crystal X-ray diffraction and chemical analysis.
##URL=rruff.info/R070557
##MEASURED CHEMISTRY=Na_3.00_(Ca_0.84_Na_0.16_)_Σ=1_(Si_3.05_Al_2.95_)O_12_((SO_4_)_0.89_Cl_0.11_)_Σ=1_
135.1555, 12573.81
135.6376, 12699.04
136.1197, 12776.15
136.6018, 12850.67
137.0839, 12969.33
137.5661, 13135.58
138.0482, 13283.40
138.5303, 13395.17
139.0124, 13472.88
139.4945, 13526.37
139.9766, 13540.26
140.4588, 13554.27
140.9409, 13640.89
141.4230, 13828.37
141.9051, 13996.57
142.3872, 14081.52
142.8693, 14043.84
143.3515, 14063.79
143.8336, 14156.51
144.3157, 14307.85
144.7978, 14435.23
145.2799, 14452.78
145.7620, 14469.96
146.2442, 14467.61
146.7263, 14415.97
147.2084, 14400.35
147.6905, 14450.40
148.1726, 14575.17
148.6548, 14637.41
149.1369, 14607.37
149.6190, 14535.18
150.1011, 14479.01
150.5832, 14447.35
151.0653, 14422.46
151.5475, 14402.60
152.0296, 14406.74
152.5117, 14382.02
152.9938, 14315.88
153.4759, 14221.27
153.9580, 14130.79
154.4402, 14027.79
154.9223, 13942.04
155.4044, 13887.74
155.8865, 13904.03
156.3686, 13909.38
156.8507, 13890.33
157.3329, 13847.68
157.8150, 13801.11
158.2971, 13739.80
158.7792, 13681.64
159.2613, 13643.17
159.7434, 13657.39
160.2256, 13665.75
160.7077, 13640.40
161.1898, 13565.61
161.6719, 13507.52
162.1540, 13493.19
162.6361, 13508.03
163.1183, 13524.72
163.6004, 13539.78
164.0825, 13550.01
164.5646, 13552.24
165.0467, 13534.40
165.5288, 13523.99
166.0110, 13539.25
166.4931, 13575.37
166.9752, 13607.65
167.4573, 13629.23
167.9394, 13638.95
168.4215, 13635.52
168.9037, 13598.53
169.3858, 13562.41
169.8679, 13551.15
170.3500, 13566.42
170.8321, 13587.59
171.3142, 13601.06
171.7964, 13610.89
172.2785, 13624.63
172.7606, 13663.51
173.2427, 13699.90
173.7248, 13701.55
174.2069, 13653.13
174.6891, 13600.71
175.1712, 13591.20
175.6533, 13614.96
176.1354, 13634.67
176.6175, 13611.00
177.0996, 13571.17
177.5818, 13558.99
178.0639, 13600.00
178.5460, 13659.26
179.0281, 13694.31
179.5102, 13705.78
179.9923, 13708.29
180.4745, 13703.45
180.9566, 13697.58
181.4387, 13707.12
181.9208, 13760.57
182.4029, 13828.53
182.8850, 13854.08
183.3672, 13832.17
183.8493, 13788.47
184.3314, 13744.82
184.8135, 13702.38
185.2956, 13669.23
185.7777, 13645.61
186.2599, 13634.48
186.7420, 13649.64
187.2241, 13702.30
187.7062, 13765.51
188.1883, 13796.17
188.6705, 13795.05
189.1526, 13770.95
189.6347, 13713.69
190.1168, 13631.98
190.5989, 13575.72
191.0810, 13560.66
191.5632, 13575.72
192.0453, 13593.59
192.5274, 13615.31
193.0095, 13633.46
193.4916, 13637.33
193.9737, 13627.64
194.4559, 13621.06
194.9380, 13632.96
195.4201, 13657.97
195.9022, 13647.27
196.3843, 13593.86
196.8664, 13522.71
197.3486, 13467.75
197.8307, 13429.14
198.3128, 13408.35
198.7949, 13411.75
199.2770, 13439.28
199.7591, 13464.21
200.2413, 13485.63
200.7234, 13502.01
201.2055, 13509.93
201.6876, 13508.74
202.1697, 13499.78
202.6518, 13480.62
203.1340, 13449.55
203.6161, 13422.55
204.0982, 13402.72
204.5803, 13388.81
205.0624, 13375.97
205.5445, 13366.40
206.0267, 13352.54
206.5088, 13324.33
206.9909, 13278.55
207.4730, 13234.95
207.9551, 13198.48
208.4372, 13169.30
208.9194, 13145.22
209.4015, 13128.93
209.8836, 13114.68
210.3657, 13095.04
210.8478, 13070.88
211.3299, 13039.87
211.8121, 12996.28
212.2942, 12933.35
212.7763, 12894.07
213.2584, 12887.18
213.7405, 12898.91
214.2226, 12896.47
214.7048, 12877.65
215.1869, 12850.24
215.6690, 12811.25
216.1511, 12747.58
216.6332, 12719.40
217.1153, 12744.05
217.5975, 12808.80
218.0796, 12845.93
218.5617, 12848.26
219.0438, 12834.73
219.5259, 12817.39
220.0080, 12791.87
220.4902, 12772.89
220.9723, 12765.82
221.4544, 12770.26
221.9365, 12765.01
222.4186, 12745.64
222.9007, 12722.10
223.3829, 12705.88
223.8650, 12699.92
224.3471, 12695.86
224.8292, 12692.37
225.3113, 12690.09
225.7934, 12686.11
226.2756, 12677.74
226.7577, 12670.17
227.2398, 12674.98
227.7219, 12707.06
228.2040, 12725.34
228.6861, 12708.29
229.1683, 12629.41
229.6504, 12590.14
230.1325, 12606.74
230.6146, 12658.31
231.0967, 12693.39
231.5789, 12708.45
232.0610, 12711.20
232.5431, 12703.16
233.0252, 12675.51
233.5073, 12656.04
233.9894, 12645.84
234.4716, 12644.98
234.9537, 12655.04
235.4358, 12688.04
235.9179, 12717.54
236.4000, 12721.05
236.8821, 12671.47
237.3643, 12650.62
237.8464, 12680.95
238.3285, 12759.79
238.8106, 12810.04
239.2927, 12817.13
239.7748, 12809.89
240.2570, 12816.28
240.7391, 12845.92
241.2212, 12871.48
241.7033, 12883.30
242.1854, 12877.50
242.6675, 12893.57
243.1497, 12944.18
243.6318, 13007.22
244.1139, 13055.26
244.5960, 13088.25
245.0781, 13106.88
245.5602, 13107.08
246.0424, 13080.03
246.5245, 13068.36
247.0066, 13075.93
247.4887, 13096.64
247.9708, 13119.12
248.4529, 13140.33
248.9351, 13167.80
249.4172, 13205.74
249.8993, 13260.76
250.3814, 13309.52
250.8635, 13346.62
251.3456, 13378.30
251.8278, 13424.63
252.3099, 13500.12
252.7920, 13567.46
253.2741, 13605.66
253.7562, 13602.34
254.2383, 13597.01
254.7205, 13588.25
255.2026, 13578.69
255.6847, 13582.72
256.1668, 13607.16
256.6489, 13635.41
257.1310, 13661.51
257.6132, 13699.65
258.0953, 13699.88
258.5774, 13644.22
259.0595, 13539.60
259.5416, 13457.85
260.0237, 13409.51
260.5059, 13371.55
260.9880, 13323.01
261.4701, 13256.98
261.9522, 13200.27
262.4343, 13160.43
262.9164, 13137.34
263.3986, 13114.26
263.8807, 13093.52
264.3628, 13069.32
264.8449, 13032.47
265.3270, 12973.64
265.8091, 12925.47
266.2913, 12900.63
266.7734, 12901.72
267.2555, 12882.25
267.7376, 12834.04
268.2197, 12774.58
268.7018, 12725.53
269.1840, 12688.03
269.6661, 12658.17
270.1482, 12637.31
270.6303, 12627.16
271.1124, 12610.54
271.5945, 12583.05
272.0767, 12555.09
272.5588, 12546.18
273.0409, 12562.51
273.5230, 12578.83
274.0051, 12587.88
274.4872, 12591.09
274.9694, 12575.02
275.4515, 12531.06
275.9336, 12477.16
276.4157, 12449.98
276.8978, 12453.37
277.3799, 12467.06
277.8621, 12482.99
278.3442, 12501.23
278.8263, 12517.21
279.3084, 12530.15
279.7905, 12540.11
280.2726, 12550.84
280.7548, 12564.80
281.2369, 12565.23
281.7190, 12528.70
282.2011, 12452.93
282.6832, 12414.87
283.1653, 12434.84
283.6475, 12486.30
284.1296, 12501.03
284.6117, 12475.94
285.0938, 12439.28
285.5759, 12409.38
286.0580, 12386.32
286.5402, 12363.45
287.0223, 12338.36
287.5044, 12315.01
287.9865, 12306.05
288.4686, 12312.74
288.9507, 12322.07
289.4329, 12322.13
289.9150, 12314.34
290.3971, 12311.61
290.8792, 12319.96
291.3614, 12332.24
291.8435, 12328.89
292.3256, 12309.06
292.8077, 12286.91
293.2898, 12281.33
293.7719, 12286.73
294.2541, 12274.53
294.7362, 12227.25
295.2183, 12163.75
295.7004, 12121.80
296.1825, 12101.56
296.6646, 12093.17
297.1468, 12095.63
297.6289, 12104.38
298.1110, 12103.24
298.5931, 12078.35
299.0752, 12045.51
299.5573, 12036.45
300.0395, 12051.46
300.5216, 12066.93
301.0037, 12054.75
301.4858, 12026.01
301.9679, 12008.12
302.4500, 12022.10
302.9322, 12047.45
303.4143, 12052.03
303.8964, 12035.83
304.3785, 12020.48
304.8606, 12031.29
305.3427, 12055.94
305.8249, 12070.36
306.3070, 12059.81
306.7891, 12036.55
307.2712, 12009.64
307.7533, 11978.48
308.2354, 11954.76
308.7176, 11953.95
309.1997, 11965.37
309.6818, 11971.60
310.1639, 11948.04
310.6460, 11926.76
311.1281, 11942.14
311.6103, 11996.78
312.0924, 12048.02
312.5745, 12074.13
313.0566, 12078.86
313.5387, 12067.19
314.0208, 12021.74
314.5030, 11975.54
314.9851, 11953.60
315.4672, 11959.89
315.9493, 11965.00
316.4314, 11952.74
316.9135, 11931.65
317.3957, 11912.34
317.8778, 11898.05
318.3599, 11887.38
318.8420, 11879.30
319.3241, 11873.52
319.8062, 11871.35
320.2884, 11868.10
320.7705, 11869.40
321.2526, 11882.33
321.7347, 11933.45
322.2168, 11974.17
322.6989, 11979.12
323.1811, 11937.92
323.6632, 11907.35
324.1453, 11906.61
324.6274, 11920.58
325.1095, 11931.02
325.5916, 11947.17
326.0738, 11948.72
326.5559, 11924.70
327.0380, 11866.31
327.5201, 11819.91
328.0022, 11795.93
328.4843, 11784.25
328.9665, 11771.85
329.4486, 11747.22
329.9307, 11733.45
330.4128, 11739.15
330.8949, 11771.81
331.3770, 11794.00
331.8592, 11801.29
332.3413, 11800.12
332.8234, 11797.75
333.3055, 11790.53
333.7876, 11786.56
334.2697, 11787.49
334.7519, 11793.28
335.2340, 11803.19
335.7161, 11818.72
336.1982, 11836.66
336.6803, 11853.71
337.1624, 11871.88
337.6446, 11884.12
338.1267, 11884.95
338.6088, 11872.37
339.0909, 11876.98
339.5730, 11906.17
340.0551, 11941.48
340.5373, 11960.82
341.0194, 11962.01
341.5015, 11956.27
341.9836, 11943.37
342.4657, 11924.40
342.9478, 11916.40
343.4300, 11920.75
343.9121, 11933.44
344.3942, 11949.27
344.8763, 11968.34
345.3584, 11995.51
345.8405, 12038.05
346.3227, 12090.91
346.8048, 12128.32
347.2869, 12149.06
347.7690, 12162.79
348.2511, 12176.36
348.7332, 12190.56
349.2154, 12212.31
349.6975, 12250.13
350.1796, 12294.99
350.6617, 12325.36
351.1438, 12340.97
351.6259, 12348.73
352.1081, 12352.99
352.5902, 12354.48
353.0723, 12354.79
353.5544, 12345.85
354.0365, 12341.18
354.5186, 12369.65
355.0008, 12430.12
355.4829, 12480.57
355.9650, 12485.34
356.4471, 12460.34
356.9292, 12428.88
357.4113, 12375.90
357.8935, 12339.49
358.3756, 12368.12
358.8577, 12455.45
359.3398, 12532.02
359.8219, 12549.75
360.3040, 12539.26
360.7862, 12531.89
361.2683, 12534.77
361.7504, 12545.66
362.2325, 12567.15
362.7146, 12597.60
363.1967, 12625.69
363.6789, 12640.50
364.1610, 12654.17
364.6431, 12675.70
365.1252, 12720.20
365.6073, 12757.66
366.0894, 12773.22
366.5716, 12771.82
367.0537, 12778.76
367.5358, 12807.27
368.0179, 12839.27
368.5000, 12865.09
368.9821, 12896.81
369.4643, 12907.07
369.9464, 12867.79
370.4285, 12799.49
370.9106, 12782.57
371.3927, 12874.15
371.8748, 12965.05
372.3570, 13007.04
372.8391, 12974.76
373.3212, 12939.60
373.8033, 12891.18
374.2855, 12843.11
374.7676, 12833.13
375.2497, 12881.22
375.7318, 12934.07
376.2139, 12967.71
376.6960, 12974.79
377.1782, 12990.05
377.6603, 13015.17
378.1424, 12980.86
378.6245, 13078.54
379.1066, 13140.48
379.5887, 13168.62
380.0709, 13061.68
380.5530, 13129.16
381.0351, 13126.74
381.5172, 13121.46
381.9993, 13213.49
382.4814, 13126.19
382.9636, 13216.69
383.4457, 13236.21
383.9278, 13288.21
384.4099, 13269.88
384.8920, 13273.27
385.3741, 13347.01
385.8563, 13381.81
386.3384, 13355.38
386.8205, 13409.45
387.3026, 13319.69
387.7847, 13356.14
388.2668, 13447.04
388.7490, 13424.15
389.2311, 13479.51
389.7132, 13505.06
390.1953, 13395.18
390.6774, 13520.83
391.1595, 13544.62
391.6417, 13463.83
392.1238, 13503.44
392.6059, 13494.04
393.0880, 13470.65
393.5701, 13455.64
394.0522, 13458.61
394.5344, 13476.04
395.0165, 13504.88
395.4986, 13556.52
395.9807, 13605.64
396.4628, 13632.58
396.9449, 13644.71
397.4271, 13679.66
397.9092, 13777.01
398.3913, 13879.15
398.8734, 13953.23
399.3555, 13978.27
399.8376, 13996.43
400.3198, 14007.90
400.8019, 14014.47
401.2840, 14021.89
401.7661, 14021.46
402.2482, 14030.71
402.7303, 14057.62
403.2125, 14111.25
403.6946, 14165.22
404.1767, 14226.39
404.6588, 14285.92
405.1409, 14320.56
405.6230, 14314.59
406.1052, 14321.60
406.5873, 14367.11
407.0694, 14457.31
407.5515, 14525.70
408.0336, 14563.89
408.5157, 14596.79
408.9979, 14658.77
409.4800, 14751.11
409.9621, 14854.03
410.4442, 14967.53
410.9263, 15086.16
411.4084, 15187.78
411.8906, 15270.04
412.3727, 15346.43
412.8548, 15425.72
413.3369, 15508.91
413.8190, 15599.25
414.3011, 15703.52
414.7833, 15811.63
415.2654, 15905.91
415.7475, 15987.41
416.2296, 16070.37
416.7117, 16151.08
417.1938, 16243.15
417.6760, 16371.14
418.1581, 16563.02
418.6402, 16760.60
419.1223, 16910.65
419.6044, 17026.36
420.0865, 17156.70
420.5687, 17336.67
421.0508, 17532.15
421.5329, 17715.34
422.0150, 17876.20
422.4971, 18039.27
422.9792, 18228.55
423.4614, 18424.96
423.9435, 18595.31
424.4256, 18682.76
424.9077, 18788.07
425.3898, 18957.52
425.8719, 19222.78
426.3541, 19461.07
426.8362, 19662.18
427.3183, 19838.76
427.8004, 20006.19
428.2825, 20143.49
428.7646, 20306.90
429.2468, 20517.03
429.7289, 20778.03
430.2110, 21014.74
430.6931, 21221.54
431.1752, 21412.88
431.6573, 21596.09
432.1395, 21765.79
432.6216, 21958.31
433.1037, 22190.40
433.5858, 22445.18
434.0679, 22668.37
434.5500, 22857.01
435.0322, 23028.09
435.5143, 23182.73
435.9964, 23325.89
436.4785, 23484.97
436.9606, 23669.85
437.4427, 23858.38
437.9249, 24017.72
438.4070, 24152.34
438.8891, 24274.71
439.3712, 24405.13
439.8533, 24524.47
440.3354, 24598.45
440.8176, 24617.13
441.2997, 24627.34
441.7818, 24680.67
442.2639, 24750.02
442.7460, 24787.16
443.2281, 24730.29
443.7103, 24669.31
444.1924, 24662.99
444.6745, 24715.53
445.1566, 24761.79
445.6387, 24793.34
446.1208, 24800.49
446.6030, 24774.28
447.0851, 24683.14
447.5672, 24591.01
448.0493, 24511.70
448.5314, 24443.02
449.0135, 24365.85
449.4957, 24269.96
449.9778, 24174.20
450.4599, 24089.40
450.9420, 24030.71
451.4241, 23954.26
451.9063, 23852.81
452.3884, 23735.88
452.8705, 23626.49
453.3526, 23525.07
453.8347, 23429.21
454.3168, 23344.13
454.7990, 23269.94
455.2811, 23177.16
455.7632, 23063.25
456.2453, 22935.20
456.7274, 22792.80
457.2096, 22637.66
457.6917, 22505.78
458.1738, 22420.21
458.6559, 22360.57
459.1380, 22282.93
459.6201, 22188.57
460.1023, 22079.67
460.5844, 21946.36
461.0665, 21802.62
461.5486, 21676.35
462.0307, 21582.84
462.5128, 21493.84
462.9950, 21392.96
463.4771, 21278.41
463.9592, 21149.28
464.4413, 20986.88
464.9234, 20819.80
465.4055, 20667.47
465.8877, 20533.88
466.3698, 20406.17
466.8519, 20290.36
467.3340, 20176.15
467.8161, 20050.80
468.2982, 19901.83
468.7804, 19752.93
469.2625, 19608.70
469.7446, 19470.63
470.2267, 19333.86
470.7088, 19194.12
471.1909, 19061.27
471.6731, 18943.68
472.1552, 18852.80
472.6373, 18748.61
473.1194, 18618.36
473.6015, 18472.41
474.0836, 18351.66
474.5658, 18258.45
475.0479, 18178.96
475.5300, 18108.59
476.0121, 18045.96
476.4942, 17978.93
476.9763, 17906.29
477.4585, 17827.98
477.9406, 17729.40
478.4227, 17618.81
478.9048, 17538.78
479.3869, 17544.30
479.8690, 17576.49
480.3512, 17546.95
480.8333, 17452.11
481.3154, 17350.67
481.7975, 17290.79
482.2796, 17248.27
482.7617, 17192.08
483.2439, 17087.68
483.7260, 16991.54
484.2081, 16938.20
484.6902, 16918.34
485.1723, 16887.00
485.6544, 16819.53
486.1366, 16745.62
486.6187, 16681.10
487.1008, 16636.22
487.5829, 16586.16
488.0650, 16523.54
488.5471, 16456.74
489.0293, 16401.13
489.5114, 16367.89
489.9935, 16327.44
490.4756, 16267.45
490.9577, 16188.24
491.4398, 16123.32
491.9220, 16078.19
492.4041, 16035.06
492.8862, 15970.36
493.3683, 15883.35
493.8504, 15814.47
494.3326, 15776.85
494.8147, 15756.10
495.2968, 15716.04
495.7789, 15659.30
496.2610, 15610.97
496.7431, 15599.86
497.2253, 15605.47
497.7074, 15585.63
498.1895, 15527.64
498.6716, 15477.14
499.1537, 15483.64
499.6358, 15521.24
500.1180, 15544.69
500.6001, 15523.97
501.0822, 15492.54
501.5643, 15464.38
502.0464, 15439.98
502.5285, 15422.50
503.0107, 15410.55
503.4928, 15406.76
503.9749, 15412.92
504.4570, 15455.74
504.9391, 15475.37
505.4212, 15464.37
505.9034, 15429.09
506.3855, 15384.53
506.8676, 15318.42
507.3497, 15265.08
507.8318, 15239.07
508.3139, 15242.65
508.7961, 15259.58
509.2782, 15294.75
509.7603, 15334.01
510.2424, 15360.63
510.7245, 15374.78
511.2066, 15382.76
511.6888, 15382.43
512.1709, 15379.49
512.6530, 15385.02
513.1351, 15398.56
513.6172, 15418.60
514.0994, 15446.68
514.5815, 15478.87
515.0636, 15514.00
515.5457, 15557.77
516.0278, 15584.55
516.5099, 15554.10
516.9921, 15496.57
517.4742, 15466.50
517.9563, 15509.17
518.4384, 15562.59
518.9205, 15602.33
519.4026, 15627.02
519.8848, 15647.72
520.3669, 15663.57
520.8490, 15678.91
521.3311, 15696.17
521.8132, 15707.19
522.2953, 15735.13
522.7775, 15786.14
523.2596, 15854.22
523.7417, 15920.19
524.2238, 15981.81
524.7059, 16047.67
525.1880, 16119.12
525.6702, 16195.23
526.1523, 16284.62
526.6344, 16384.78
527.1165, 16502.98
527.5986, 16651.05
528.0807, 16824.18
528.5629, 17002.99
529.0450, 17182.03
529.5271, 17361.40
530.0092, 17533.04
530.4913, 17699.87
530.9734, 17880.54
531.4556, 18087.04
531.9377, 18310.13
532.4198, 18539.02
532.9019, 18763.77
533.3840, 19017.57
533.8661, 19303.06
534.3483, 19626.96
534.8304, 19996.78
535.3125, 20461.38
535.7946, 20924.83
536.2767, 21366.96
536.7589, 21785.34
537.2410, 22219.75
537.7231, 22669.43
538.2052, 23130.58
538.6873, 23588.51
539.1694, 24021.79
539.6516, 24551.96
540.1337, 25214.09
540.6158, 25924.53
541.0979, 26545.58
541.5800, 27077.46
542.0621, 27586.73
542.5443, 28106.50
543.0264, 28631.65
543.5085, 29170.32
543.9906, 29726.70
544.4727, 30238.45
544.9548, 30687.17
545.4370, 31053.78
545.9191, 31311.27
546.4012, 31450.13
546.8833, 31485.83
547.3654, 31437.46
547.8475, 31291.59
548.3297, 31020.30
548.8118, 30600.73
549.2939, 30058.10
549.7760, 29383.27
550.2581, 28551.83
550.7402, 27708.16
551.2224, 26840.51
551.7045, 25973.95
552.1866, 25123.28
552.6687, 24276.22
553.1508, 23477.29
553.6329, 22727.18
554.1151, 22032.79
554.5972, 21397.86
555.0793, 20825.16
555.5614, 20289.18
556.0435, 19769.29
556.5256, 19275.63
557.0078, 18845.48
557.4899, 18479.03
557.9720, 18167.88
558.4541, 17906.29
558.9362, 17689.28
559.4183, 17513.32
559.9005, 17390.37
560.3826, 17286.87
560.8647, 17185.28
561.3468, 17085.40
561.8289, 16987.98
562.3110, 16881.85
562.7932, 16788.03
563.2753, 16717.23
563.7574, 16672.93
564.2395, 16639.99
564.7216, 16621.49
565.2037, 16609.90
565.6859, 16602.54
566.1680, 16612.51
566.6501, 16588.86
567.1322, 16505.54
567.6143, 16394.22
568.0964, 16357.16
568.5786, 16401.89
569.0607, 16458.39
569.5428, 16483.08
570.0249, 16487.26
570.5070, 16521.39
570.9891, 16589.40
571.4713, 16648.75
571.9534, 16646.39
572.4355, 16608.74
572.9176, 16581.95
573.3997, 16581.08
573.8818, 16593.81
574.3640, 16626.88
574.8461, 16669.41
575.3282, 16691.04
575.8103, 16650.27
576.2924, 16613.58
576.7745, 16614.77
577.2567, 16668.23
577.7388, 16709.03
578.2209, 16720.78
578.7030, 16732.74
579.1851, 16775.66
579.6672, 16870.11
580.1494, 16933.06
580.6315, 16945.14
581.1136, 16927.87
581.5957, 16936.21
582.0778, 16970.85
582.5599, 17005.05
583.0421, 17024.07
583.5242, 17032.44
584.0063, 17043.05
584.4884, 17056.04
584.9705, 17068.07
585.4526, 17090.20
585.9348, 17105.20
586.4169, 17085.55
586.8990, 16998.19
587.3811, 16918.87
587.8632, 16896.86
588.3453, 16909.80
588.8275, 16909.84
589.3096, 16859.68
589.7917, 16819.28
590.2738, 16817.30
590.7559, 16857.26
591.2380, 16869.38
591.7202, 16836.99
592.2023, 16799.30
592.6844, 16788.41
593.1665, 16811.20
593.6486, 16818.47
594.1307, 16802.38
594.6129, 16777.71
595.0950, 16768.99
595.5771, 16774.98
596.0592, 16784.01
596.5413, 16786.08
597.0234, 16790.78
597.5056, 16813.68
597.9877, 16853.35
598.4698, 16899.30
598.9519, 16964.48
599.4340, 17021.24
599.9161, 17034.30
600.3983, 16964.87
600.8804, 16937.46
601.3625, 17015.86
601.8446, 17147.92
602.3267, 17263.02
602.8088, 17358.85
603.2910, 17434.06
603.7731, 17476.45
604.2552, 17495.73
604.7373, 17544.35
605.2194, 17625.82
605.7015, 17725.23
606.1837, 17847.58
606.6658, 17988.49
607.1479, 18084.17
607.6300, 18127.72
608.1121, 18154.69
608.5942, 18186.08
609.0764, 18230.32
609.5585, 18310.23
610.0406, 18465.81
610.5227, 18613.32
611.0048, 18677.28
611.4869, 18680.46
611.9691, 18686.89
612.4512, 18713.50
612.9333, 18756.32
613.4154, 18823.11
613.8975, 18921.73
614.3796, 18988.54
614.8618, 19009.01
615.3439, 19007.66
615.8260, 18998.70
616.3081, 18977.75
616.7902, 18965.33
617.2723, 18968.26
617.7545, 18972.27
618.2366, 18942.98
618.7187, 18881.86
619.2008, 18837.72
619.6829, 18847.00
620.1650, 18875.03
620.6472, 18854.43
621.1293, 18790.49
621.6114, 18726.61
622.0935, 18708.38
622.5756, 18693.72
623.0577, 18639.25
623.5399, 18525.68
624.0220, 18417.21
624.5041, 18341.02
624.9862, 18278.35
625.4683, 18207.55
625.9504, 18120.49
626.4326, 18032.72
626.9147, 17941.78
627.3968, 17851.88
627.8789, 17775.84
628.3610, 17714.13
628.8431, 17668.51
629.3253, 17649.21
629.8074, 17650.20
630.2895, 17628.55
630.7716, 17583.47
