##NAMES=Hauyne
##RRUFFID=R070557
##IDEAL CHEMISTRY=Na_3_Ca(Si_3_Al_3_)O_12_(S^6+^O_4_)
##LOCALITY=Badakhshan, Afghanistan
##OWNER=RRUFF
##SOURCE=Farooq Hashmi
##DESCRIPTION=Sky blue fragment
##STATUS=The identification of this mineral is confirmed by single-crystal X-ray diffraction and chemical analysis.
##URL=rruff.info/R070557
##MEASURED CHEMISTRY=Na_3.00_(Ca_0.84_Na_0.16_)_Σ=1_(Si_3.05_Al_2.95_)O_12_((SO_4_)_0.89_Cl_0.11_)_Σ=1_
151.4228, 1612.021
151.9049, 1630.999
152.3870, 1655.536
152.8692, 1684.517
153.3513, 1716.872
153.8334, 1748.369
154.3155, 1764.784
154.7976, 1752.532
155.2797, 1746.484
155.7619, 1753.582
156.2440, 1764.889
156.7261, 1772.645
157.2082, 1773.788
157.6903, 1769.188
158.1724, 1760.308
158.6546, 1730.702
159.1367, 1718.026
159.6188, 1738.509
160.1009, 1771.401
160.5830, 1793.321
161.0651, 1793.023
161.5473, 1776.372
162.0294, 1763.013
162.5115, 1753.401
162.9936, 1746.471
163.4757, 1744.564
163.9578, 1744.490
164.4400, 1741.132
164.9221, 1731.448
165.4042, 1717.783
165.8863, 1711.050
166.3684, 1715.573
166.8505, 1721.747
167.3327, 1728.835
167.8148, 1736.397
168.2969, 1744.451
168.7790, 1753.279
169.2611, 1762.142
169.7432, 1765.974
170.2254, 1754.759
170.7075, 1750.047
171.1896, 1766.151
171.6717, 1791.655
172.1538, 1804.588
172.6359, 1790.704
173.1181, 1754.273
173.6002, 1729.540
174.0823, 1715.953
174.5644, 1712.075
175.0465, 1725.537
175.5286, 1748.698
176.0108, 1766.160
176.4929, 1768.133
176.9750, 1756.263
177.4571, 1746.262
177.9392, 1736.689
178.4213, 1730.000
178.9035, 1728.998
179.3856, 1731.630
179.8677, 1733.222
180.3498, 1730.622
180.8319, 1724.237
181.3140, 1719.559
181.7962, 1712.188
182.2783, 1710.339
182.7604, 1723.089
183.2425, 1744.501
183.7246, 1759.207
184.2067, 1756.167
184.6889, 1736.880
185.1710, 1723.889
185.6531, 1714.534
186.1352, 1712.200
186.6173, 1722.438
187.0994, 1741.408
187.5816, 1759.479
188.0637, 1770.809
188.5458, 1775.519
189.0279, 1775.775
189.5100, 1765.307
189.9921, 1757.652
190.4743, 1762.284
190.9564, 1774.765
191.4385, 1782.123
191.9206, 1774.707
192.4027, 1753.768
192.8848, 1740.936
193.3670, 1744.554
193.8491, 1746.050
194.3312, 1734.083
194.8133, 1713.267
195.2954, 1697.801
195.7775, 1698.508
196.2597, 1713.445
196.7418, 1715.054
197.2239, 1687.294
197.7060, 1665.297
198.1881, 1666.394
198.6702, 1684.604
199.1524, 1703.107
199.6345, 1710.585
200.1166, 1708.518
200.5987, 1716.241
201.0808, 1757.986
201.5629, 1782.460
202.0451, 1757.083
202.5272, 1698.689
203.0093, 1648.934
203.4914, 1634.573
203.9735, 1650.914
204.4556, 1656.128
204.9378, 1634.593
205.4199, 1620.874
205.9020, 1632.931
206.3841, 1661.308
206.8662, 1685.892
207.3483, 1695.277
207.8305, 1690.702
208.3126, 1680.270
208.7947, 1657.552
209.2768, 1637.121
209.7589, 1620.988
210.2410, 1609.969
210.7232, 1606.139
211.2053, 1611.563
211.6874, 1623.766
212.1695, 1629.333
212.6516, 1630.120
213.1337, 1623.083
213.6159, 1597.386
214.0980, 1564.797
214.5801, 1545.743
215.0622, 1551.986
215.5443, 1576.364
216.0264, 1588.702
216.5086, 1571.777
216.9907, 1563.143
217.4728, 1579.005
217.9549, 1604.149
218.4370, 1614.660
218.9191, 1598.351
219.4013, 1565.146
219.8834, 1547.523
220.3655, 1563.797
220.8476, 1575.149
221.3297, 1576.669
221.8118, 1572.325
222.2940, 1566.415
222.7761, 1560.776
223.2582, 1555.546
223.7403, 1551.107
224.2224, 1547.879
224.7046, 1545.046
225.1867, 1541.020
225.6688, 1538.052
226.1509, 1539.619
226.6330, 1546.873
227.1151, 1556.092
227.5973, 1559.330
228.0794, 1550.163
228.5615, 1544.490
229.0436, 1544.983
229.5257, 1547.572
230.0078, 1549.417
230.4900, 1549.500
230.9721, 1547.601
231.4542, 1542.749
231.9363, 1530.625
232.4184, 1523.838
232.9005, 1525.539
233.3827, 1529.756
233.8648, 1533.128
234.3469, 1534.601
234.8290, 1533.995
235.3111, 1530.778
235.7932, 1523.765
236.2754, 1516.965
236.7575, 1508.395
237.2396, 1501.403
237.7217, 1496.958
238.2038, 1495.688
238.6859, 1498.792
239.1681, 1509.996
239.6502, 1533.763
240.1323, 1547.407
240.6144, 1541.329
241.0965, 1533.231
241.5786, 1531.263
242.0608, 1535.083
242.5429, 1539.171
243.0250, 1538.408
243.5071, 1532.466
243.9892, 1525.410
244.4713, 1516.208
244.9535, 1506.754
245.4356, 1495.659
245.9177, 1484.574
246.3998, 1477.770
246.8819, 1479.980
247.3640, 1490.290
247.8462, 1497.231
248.3283, 1497.459
248.8104, 1498.496
249.2925, 1503.312
249.7746, 1511.096
250.2567, 1520.713
250.7389, 1535.017
251.2210, 1549.970
251.7031, 1548.592
252.1852, 1520.057
252.6673, 1495.146
253.1494, 1490.200
253.6316, 1496.349
254.1137, 1500.345
254.5958, 1495.909
255.0779, 1486.686
255.5600, 1478.725
256.0421, 1471.292
256.5243, 1467.424
257.0064, 1472.849
257.4885, 1481.257
257.9706, 1485.076
258.4527, 1480.821
258.9348, 1473.668
259.4170, 1469.284
259.8991, 1467.735
260.3812, 1468.156
260.8633, 1473.601
261.3454, 1478.901
261.8275, 1476.401
262.3097, 1462.070
262.7918, 1447.646
263.2739, 1442.841
263.7560, 1446.618
264.2381, 1451.778
264.7202, 1458.216
265.2024, 1462.372
265.6845, 1458.121
266.1666, 1442.858
266.6487, 1429.981
267.1308, 1429.079
267.6129, 1435.604
268.0951, 1437.772
268.5772, 1431.726
269.0593, 1422.132
269.5414, 1413.921
270.0235, 1405.896
270.5056, 1404.878
270.9878, 1420.506
271.4699, 1441.249
271.9520, 1450.968
272.4341, 1446.194
272.9162, 1435.343
273.3983, 1427.393
273.8805, 1423.004
274.3626, 1417.392
274.8447, 1408.597
275.3268, 1399.563
275.8089, 1390.622
276.2910, 1382.620
276.7732, 1380.893
277.2553, 1392.448
277.7374, 1419.160
278.2195, 1430.825
278.7016, 1416.157
279.1837, 1398.952
279.6659, 1389.704
280.1480, 1387.781
280.6301, 1388.713
281.1122, 1389.794
281.5943, 1390.918
282.0764, 1390.966
282.5586, 1390.161
283.0407, 1388.090
283.5228, 1387.415
284.0049, 1384.845
284.4870, 1372.901
284.9691, 1347.226
285.4513, 1315.022
285.9334, 1300.364
286.4155, 1320.686
286.8976, 1334.852
287.3797, 1337.047
287.8618, 1332.992
288.3440, 1327.204
288.8261, 1321.335
289.3082, 1315.954
289.7903, 1312.295
290.2724, 1311.530
290.7545, 1309.428
291.2367, 1303.151
291.7188, 1297.397
292.2009, 1296.206
292.6830, 1299.522
293.1651, 1302.778
293.6472, 1300.525
294.1294, 1292.160
294.6115, 1285.948
295.0936, 1284.020
295.5757, 1282.612
296.0578, 1282.741
296.5399, 1282.511
297.0221, 1275.983
297.5042, 1252.913
297.9863, 1219.118
298.4684, 1199.626
298.9505, 1199.519
299.4326, 1203.600
299.9148, 1205.474
300.3969, 1204.868
300.8790, 1200.519
301.3611, 1186.964
301.8432, 1172.824
302.3253, 1172.278
302.8075, 1186.584
303.2896, 1200.411
303.7717, 1207.793
304.2538, 1208.396
304.7359, 1201.816
305.2180, 1182.515
305.7002, 1164.027
306.1823, 1156.563
306.6644, 1157.808
307.1465, 1159.505
307.6286, 1158.989
308.1107, 1156.535
308.5929, 1152.178
309.0750, 1144.792
309.5571, 1138.853
310.0392, 1137.629
310.5213, 1137.853
311.0034, 1133.747
311.4856, 1123.816
311.9677, 1113.811
312.4498, 1112.008
312.9319, 1123.680
313.4140, 1127.236
313.8961, 1111.835
314.3783, 1096.690
314.8604, 1099.944
315.3425, 1119.223
315.8246, 1135.230
316.3067, 1130.044
316.7888, 1102.331
317.2710, 1082.037
317.7531, 1069.772
318.2352, 1063.565
318.7173, 1068.755
319.1994, 1078.969
319.6815, 1082.828
320.1637, 1072.949
320.6458, 1053.855
321.1279, 1042.833
321.6100, 1044.528
322.0921, 1047.401
322.5742, 1050.461
323.0564, 1053.123
323.5385, 1056.372
324.0206, 1060.515
324.5027, 1060.888
324.9848, 1046.600
325.4669, 1012.284
325.9491, 991.5048
326.4312, 999.8511
326.9133, 1016.242
327.3954, 1029.894
327.8775, 1039.697
328.3596, 1046.241
328.8418, 1049.084
329.3239, 1048.808
329.8060, 1048.837
330.2881, 1051.521
330.7702, 1050.334
331.2523, 1035.543
331.7345, 1012.110
332.2166, 995.2714
332.6987, 995.8795
333.1808, 1002.106
333.6629, 997.6482
334.1451, 982.3510
334.6272, 971.8818
335.1093, 978.3254
335.5914, 996.3298
336.0735, 1004.901
336.5556, 996.4586
337.0378, 987.6941
337.5199, 984.9091
338.0020, 987.2220
338.4841, 993.9651
338.9662, 1005.560
339.4483, 1018.558
339.9305, 1025.973
340.4126, 1025.177
340.8947, 1023.078
341.3768, 1018.166
341.8589, 1013.103
342.3410, 1010.883
342.8232, 1011.613
343.3053, 1012.065
343.7874, 1007.639
344.2695, 995.7455
344.7516, 994.1915
345.2337, 1015.374
345.7159, 1034.052
346.1980, 1038.988
346.6801, 1033.972
347.1622, 1028.633
347.6443, 1029.076
348.1265, 1034.017
348.6086, 1038.455
349.0907, 1042.909
349.5728, 1045.773
350.0549, 1044.839
350.5370, 1043.116
351.0192, 1044.353
351.5013, 1050.060
351.9834, 1056.121
352.4655, 1056.769
352.9476, 1051.874
353.4297, 1048.693
353.9119, 1049.722
354.3940, 1052.190
354.8761, 1051.886
355.3582, 1048.849
355.8403, 1050.174
356.3224, 1063.831
356.8046, 1082.831
357.2867, 1095.126
357.7688, 1099.095
358.2509, 1097.291
358.7330, 1088.736
359.2151, 1074.589
359.6973, 1068.109
360.1794, 1077.593
360.6615, 1087.877
361.1436, 1088.178
361.6257, 1081.437
362.1078, 1077.446
362.5900, 1081.625
363.0721, 1091.219
363.5542, 1097.349
364.0363, 1099.044
364.5184, 1098.410
365.0005, 1093.047
365.4827, 1086.752
365.9648, 1083.565
366.4469, 1084.279
366.9290, 1086.376
367.4111, 1085.742
367.8932, 1079.870
368.3754, 1081.489
368.8575, 1101.086
369.3396, 1118.510
369.8217, 1126.271
370.3038, 1125.048
370.7859, 1117.617
371.2681, 1102.398
371.7502, 1084.004
372.2323, 1080.370
372.7144, 1098.931
373.1965, 1113.569
373.6786, 1109.583
374.1608, 1097.519
374.6429, 1087.525
375.1250, 1080.921
375.6071, 1079.395
376.0892, 1088.232
376.5714, 1104.983
377.0535, 1116.549
377.5356, 1120.051
378.0177, 1116.215
378.4998, 1100.375
378.9819, 1071.119
379.4641, 1054.865
379.9462, 1068.721
380.4283, 1091.457
380.9104, 1101.039
381.3925, 1096.394
381.8746, 1090.830
382.3568, 1095.058
382.8389, 1108.452
383.3210, 1115.502
383.8031, 1109.981
384.2852, 1106.351
384.7673, 1109.945
385.2495, 1117.482
385.7316, 1124.664
386.2137, 1129.700
386.6958, 1132.400
387.1779, 1131.531
387.6600, 1123.726
388.1422, 1120.525
388.6243, 1127.678
389.1064, 1135.151
389.5885, 1136.448
390.0706, 1104.948
390.5527, 1138.871
391.0349, 1158.542
391.5170, 1164.726
391.9991, 1117.032
392.4812, 1138.911
392.9633, 1132.908
393.4454, 1125.763
393.9276, 1157.434
394.4097, 1117.576
394.8918, 1148.632
395.3739, 1151.380
395.8560, 1167.084
396.3381, 1154.734
396.8203, 1151.049
397.3024, 1175.427
397.7845, 1184.266
398.2666, 1168.687
398.7487, 1185.214
399.2308, 1144.376
399.7130, 1153.878
400.1951, 1185.097
400.6772, 1160.166
401.1593, 1158.553
401.6414, 1161.913
402.1235, 1176.926
402.6057, 1203.262
403.0878, 1216.994
403.5699, 1203.372
404.0520, 1193.792
404.5341, 1193.703
405.0162, 1201.694
405.4984, 1217.366
405.9805, 1240.655
406.4626, 1265.737
406.9447, 1281.873
407.4268, 1286.527
407.9089, 1294.709
408.3911, 1309.953
408.8732, 1328.142
409.3553, 1347.491
409.8374, 1367.750
410.3195, 1387.964
410.8016, 1407.431
411.2838, 1426.524
411.7659, 1447.163
412.2480, 1469.942
412.7301, 1489.078
413.2122, 1496.500
413.6943, 1498.665
414.1765, 1516.117
414.6586, 1561.253
415.1407, 1604.885
415.6228, 1633.315
416.1049, 1651.986
416.5870, 1668.119
417.0692, 1683.761
417.5513, 1702.889
418.0334, 1732.016
418.5155, 1775.997
418.9976, 1813.988
419.4797, 1847.046
419.9619, 1874.237
420.4440, 1887.122
420.9261, 1893.619
421.4082, 1912.401
421.8903, 1957.107
422.3724, 2019.319
422.8546, 2071.550
423.3367, 2112.080
423.8188, 2146.434
424.3009, 2167.138
424.7830, 2187.807
425.2651, 2221.536
425.7473, 2270.635
426.2294, 2322.100
426.7115, 2365.007
427.1936, 2402.094
427.6757, 2442.828
428.1578, 2489.197
428.6400, 2536.462
429.1221, 2580.944
429.6042, 2623.105
430.0863, 2664.822
430.5684, 2710.603
431.0505, 2752.015
431.5327, 2778.288
432.0148, 2796.823
432.4969, 2826.272
432.9790, 2874.794
433.4611, 2932.265
433.9432, 2978.466
434.4254, 3010.227
434.9075, 3035.627
435.3896, 3049.853
435.8717, 3062.578
436.3538, 3081.186
436.8359, 3104.217
437.3181, 3124.111
437.8002, 3134.857
438.2823, 3138.135
438.7644, 3140.032
439.2465, 3136.282
439.7286, 3141.099
440.2108, 3175.873
440.6929, 3214.286
441.1750, 3225.341
441.6571, 3198.602
442.1392, 3169.750
442.6213, 3168.132
443.1035, 3183.769
443.5856, 3190.126
444.0677, 3181.827
444.5498, 3167.509
445.0319, 3156.148
445.5140, 3147.838
445.9962, 3130.036
446.4783, 3091.144
446.9604, 3054.528
447.4425, 3033.140
447.9246, 3022.001
448.4067, 3010.889
448.8889, 2995.405
449.3710, 2976.978
449.8531, 2959.164
450.3352, 2944.076
450.8173, 2924.465
451.2994, 2894.324
451.7816, 2864.869
452.2637, 2846.312
452.7458, 2835.024
453.2279, 2816.044
453.7100, 2772.879
454.1921, 2718.384
454.6743, 2686.171
455.1564, 2679.910
455.6385, 2676.314
456.1206, 2670.577
456.6027, 2658.260
457.0848, 2631.205
457.5670, 2582.979
458.0491, 2539.250
458.5312, 2513.161
459.0133, 2496.878
459.4954, 2482.336
459.9775, 2467.511
460.4597, 2448.718
460.9418, 2422.237
461.4239, 2388.067
461.9060, 2351.900
462.3881, 2312.823
462.8702, 2272.431
463.3524, 2226.523
463.8345, 2181.363
464.3166, 2144.765
464.7987, 2119.312
465.2808, 2100.438
465.7629, 2085.253
466.2451, 2074.851
466.7272, 2051.495
467.2093, 2002.961
467.6914, 1955.224
468.1735, 1926.642
468.6556, 1911.839
469.1378, 1895.850
469.6199, 1876.353
470.1020, 1851.307
470.5841, 1815.403
471.0662, 1771.171
471.5483, 1729.018
472.0305, 1691.299
472.5126, 1661.705
472.9947, 1648.546
473.4768, 1665.822
473.9589, 1665.903
474.4410, 1633.228
474.9232, 1596.268
475.4053, 1574.615
475.8874, 1565.389
476.3695, 1554.411
476.8516, 1531.927
477.3337, 1502.385
477.8159, 1480.647
478.2980, 1470.246
478.7801, 1459.009
479.2622, 1443.453
479.7443, 1426.577
480.2264, 1409.311
480.7086, 1391.993
481.1907, 1377.239
481.6728, 1371.461
482.1549, 1367.769
482.6370, 1350.149
483.1191, 1317.166
483.6013, 1288.649
484.0834, 1277.202
484.5655, 1279.307
485.0476, 1280.434
485.5297, 1283.538
486.0118, 1281.929
486.4940, 1272.058
486.9761, 1258.196
487.4582, 1243.899
487.9403, 1230.180
488.4224, 1217.033
488.9045, 1204.135
489.3867, 1191.587
489.8688, 1183.153
490.3509, 1182.653
490.8330, 1180.318
491.3151, 1172.210
491.7972, 1161.175
492.2794, 1149.704
492.7615, 1137.996
493.2436, 1128.819
493.7257, 1125.569
494.2078, 1126.741
494.6899, 1129.185
495.1721, 1133.169
495.6542, 1133.100
496.1363, 1121.857
496.6184, 1100.318
497.1005, 1088.139
497.5826, 1093.297
498.0648, 1098.035
498.5469, 1097.153
499.0290, 1091.949
499.5111, 1084.652
499.9932, 1075.899
500.4753, 1064.506
500.9575, 1047.945
501.4396, 1025.041
501.9217, 1005.114
502.4038, 987.0926
502.8859, 973.7224
503.3680, 971.0101
503.8502, 972.1930
504.3323, 963.6402
504.8144, 935.4697
505.2965, 909.3480
505.7786, 909.8240
506.2607, 929.4448
506.7429, 941.8505
507.2250, 940.3882
507.7071, 933.1035
508.1892, 927.8123
508.6713, 924.6404
509.1534, 922.7803
509.6356, 924.9540
510.1177, 925.4319
510.5998, 922.9789
511.0819, 917.0040
511.5641, 904.8352
512.0461, 885.6606
512.5283, 866.5255
513.0104, 859.4384
513.4925, 866.1668
513.9746, 869.0208
514.4567, 861.8649
514.9388, 857.5932
515.4210, 869.1530
515.9031, 888.6498
516.3852, 897.1553
516.8673, 882.0378
517.3494, 864.0079
517.8315, 860.2074
518.3137, 866.5665
518.7958, 871.8329
519.2779, 872.6586
519.7600, 873.5858
520.2421, 881.4955
520.7242, 899.7127
521.2064, 905.1762
521.6885, 889.0964
522.1706, 871.8648
522.6527, 859.2887
523.1348, 850.6561
523.6169, 843.6689
524.0991, 837.3358
524.5812, 834.2033
525.0633, 840.3300
525.5454, 855.4083
526.0275, 863.3087
526.5096, 859.4072
526.9918, 853.6329
527.4739, 854.5997
527.9560, 859.8781
528.4381, 862.2477
528.9202, 854.8699
529.4023, 850.5209
529.8845, 857.2595
530.3666, 871.2609
530.8487, 886.6073
531.3308, 901.5311
531.8129, 916.0077
532.2950, 929.9138
532.7772, 943.0996
533.2593, 957.3853
533.7414, 976.1931
534.2235, 991.9042
534.7056, 999.0305
535.1877, 1003.338
535.6699, 1012.867
536.1520, 1030.246
536.6341, 1049.722
537.1162, 1066.503
537.5983, 1081.086
538.0804, 1094.491
538.5626, 1106.634
539.0447, 1118.744
539.5268, 1131.905
540.0089, 1145.904
540.4910, 1158.846
540.9731, 1171.758
541.4553, 1182.559
541.9374, 1192.509
542.4195, 1199.220
542.9016, 1197.915
543.3837, 1189.157
543.8658, 1181.271
544.3480, 1184.887
544.8301, 1197.208
545.3122, 1192.780
545.7943, 1164.454
546.2764, 1136.720
546.7585, 1120.914
547.2407, 1109.737
547.7228, 1095.194
548.2049, 1076.260
548.6870, 1056.176
549.1691, 1038.090
549.6512, 1018.742
550.1334, 992.2377
550.6155, 959.4802
551.0976, 928.6270
551.5797, 904.2921
552.0618, 886.3457
552.5439, 874.7400
553.0261, 877.7104
553.5082, 872.6273
553.9903, 845.4120
554.4724, 821.2913
554.9545, 822.9034
555.4366, 844.4846
555.9188, 857.7735
556.4009, 838.6616
556.8830, 808.5351
557.3651, 805.3132
557.8472, 826.8455
558.3293, 841.4744
558.8115, 836.8008
559.2936, 824.5898
559.7757, 821.8787
560.2578, 832.6993
560.7399, 835.9573
561.2220, 825.0563
561.7042, 812.9011
562.1863, 805.2443
562.6684, 801.1531
563.1505, 798.1600
563.6326, 795.2399
564.1147, 793.0212
564.5969, 792.0607
565.0790, 792.3169
565.5611, 795.8019
566.0432, 804.8943
566.5253, 813.2726
567.0074, 816.2733
567.4896, 815.4077
567.9717, 813.6306
568.4538, 809.6765
568.9359, 807.2750
569.4180, 810.6476
569.9001, 815.5830
570.3823, 815.2067
570.8644, 808.8400
571.3465, 801.9916
571.8286, 799.3354
572.3107, 800.8383
572.7928, 807.2070
573.2750, 825.7907
573.7571, 836.1445
574.2392, 823.7241
574.7213, 807.9980
575.2034, 808.5397
575.6855, 826.6462
576.1677, 841.3316
576.6498, 836.9373
577.1319, 824.8392
577.6140, 820.0041
578.0961, 822.1775
578.5782, 824.8787
579.0604, 824.4824
579.5425, 824.8517
580.0246, 835.2990
580.5067, 869.5395
580.9888, 882.1753
581.4709, 851.4647
581.9531, 823.6567
582.4352, 826.6777
582.9173, 848.2158
583.3994, 860.9411
583.8815, 851.6168
584.3636, 835.0377
584.8458, 827.5642
585.3279, 828.1503
585.8100, 833.0168
586.2921, 842.7055
586.7742, 850.5701
587.2563, 849.9799
587.7385, 841.7719
588.2206, 838.0025
588.7027, 840.4397
589.1848, 844.5544
589.6669, 851.1308
590.1490, 857.8459
590.6312, 861.2851
591.1133, 861.7800
591.5954, 864.0292
592.0775, 872.2572
592.5597, 885.1476
593.0418, 900.5425
593.5239, 920.0009
594.0060, 929.6533
594.4882, 916.9532
594.9703, 899.7197
595.4524, 908.3830
595.9345, 946.3804
596.4166, 973.4284
596.8987, 978.7051
597.3809, 976.0353
597.8630, 965.7800
598.3451, 955.7214
598.8272, 962.0947
599.3093, 991.5578
599.7914, 1028.870
600.2736, 1048.650
600.7557, 1049.398
601.2378, 1065.045
601.7199, 1107.147
602.2020, 1145.136
602.6841, 1152.598
603.1663, 1145.761
603.6484, 1155.400
604.1305, 1191.491
604.6126, 1228.720
605.0947, 1257.448
605.5768, 1281.947
606.0590, 1306.007
606.5411, 1330.582
607.0232, 1358.188
607.5053, 1391.565
607.9874, 1426.282
608.4695, 1448.432
608.9517, 1455.975
609.4338, 1457.245
609.9159, 1446.514
610.3980, 1436.924
610.8801, 1440.246
611.3622, 1453.438
611.8444, 1462.795
612.3265, 1458.724
612.8086, 1455.282
613.2907, 1465.678
613.7728, 1482.333
614.2549, 1490.634
614.7371, 1487.187
615.2192, 1479.086
615.7013, 1473.503
616.1834, 1470.242
616.6655, 1465.226
617.1476, 1459.361
617.6298, 1450.010
618.1119, 1433.852
618.5940, 1415.546
619.0761, 1398.276
619.5582, 1382.351
620.0403, 1369.693
620.5225, 1366.674
621.0046, 1363.156
621.4867, 1346.033
621.9688, 1319.072
622.4509, 1295.477
622.9330, 1280.605
623.4152, 1270.422
623.8973, 1259.194
624.3794, 1247.222
624.8615, 1232.286
625.3436, 1209.064
625.8257, 1189.976
626.3079, 1182.675
626.7900, 1180.344
627.2721, 1174.349
627.7542, 1163.199
628.2363, 1147.438
628.7184, 1121.312
629.2006, 1093.880
629.6827, 1077.582
630.1648, 1072.353
630.6469, 1072.759
631.1290, 1076.324
631.6111, 1081.046
632.0933, 1081.676
632.5754, 1075.638
633.0575, 1072.710
633.5396, 1073.386
634.0217, 1077.217
634.5038, 1089.301
634.9860, 1103.494
635.4681, 1106.149
635.9502, 1089.193
636.4323, 1071.359
636.9144, 1062.695
637.3965, 1062.247
637.8787, 1072.622
638.3608, 1092.031
638.8429, 1106.430
639.3250, 1105.134
639.8071, 1092.967
640.2892, 1089.256
640.7714, 1102.230
641.2535, 1103.198
641.7356, 1079.012
642.2177, 1050.748
642.6998, 1029.154
643.1819, 1013.606
643.6641, 1000.670
644.1462, 989.5616
644.6283, 980.3051
645.1104, 976.2634
645.5925, 972.9655
646.0746, 960.5762
646.5568, 938.3713
647.0389, 916.6285
