##NAMES=Hauyne
##RRUFFID=R050606
##IDEAL CHEMISTRY=Na_3_Ca(Si_3_Al_3_)O_12_(S^6+^O_4_)
##LOCALITY=Ariccia, near Rome, Italy
##OWNER=RRUFF
##SOURCE=University of Arizona Mineral Museum
##DESCRIPTION=Blue crystal embedded in calcite
##STATUS=The identification of this mineral has been confirmed only by X-ray diffraction
##URL=rruff.info/R050606
91.11523, 49.89949
91.59735, 49.82115
92.07947, 49.92048
92.56158, 50.13214
93.04370, 50.24965
93.52582, 50.03441
94.00793, 49.65040
94.49006, 49.50731
94.97218, 49.72422
95.45429, 50.01322
95.93641, 49.79071
96.41853, 49.07234
96.90064, 48.49900
97.38276, 48.51155
97.86488, 49.08190
98.34699, 50.02007
98.82911, 51.52323
99.31123, 53.25185
99.79334, 53.89040
100.2755, 53.19603
100.7576, 52.23371
101.2397, 52.09314
101.7218, 53.04028
102.2039, 53.48475
102.6861, 52.84382
103.1682, 51.13152
103.6503, 50.43865
104.1324, 51.29070
104.6145, 52.57414
105.0966, 52.82141
105.5788, 51.07911
106.0609, 49.96145
106.5430, 50.33502
107.0251, 52.81100
107.5072, 54.59903
107.9893, 55.39066
108.4715, 55.57980
108.9536, 55.87380
109.4357, 56.04823
109.9178, 56.53270
110.3999, 57.43470
110.8820, 58.51851
111.3642, 60.38898
111.8463, 63.63073
112.3284, 67.75262
112.8105, 71.41322
113.2926, 73.72762
113.7747, 76.07635
114.2569, 79.12856
114.7390, 83.19173
115.2211, 87.75541
115.7032, 92.52334
116.1853, 97.60278
116.6674, 103.5113
117.1496, 110.5730
117.6317, 118.5580
118.1138, 127.2019
118.5959, 136.0155
119.0780, 145.8953
119.5602, 157.0421
120.0423, 169.5705
120.5244, 183.7395
121.0065, 200.4285
121.4886, 218.7099
121.9707, 237.4403
122.4529, 256.7401
122.9350, 275.7387
123.4171, 293.3903
123.8992, 309.5621
124.3813, 325.5416
124.8634, 342.9904
125.3456, 361.1011
125.8277, 378.1104
126.3098, 392.2704
126.7919, 404.9024
127.2740, 417.5357
127.7561, 430.1068
128.2383, 443.4390
128.7204, 458.6664
129.2025, 475.6120
129.6846, 493.3454
130.1667, 510.5561
130.6488, 527.8561
131.1310, 548.6097
131.6131, 573.9443
132.0952, 601.5193
132.5773, 626.9587
133.0594, 650.3270
133.5415, 673.8889
134.0237, 700.3466
134.5058, 729.5187
134.9879, 756.4794
135.4700, 780.2724
135.9521, 801.6534
136.4343, 824.1699
136.9164, 848.4666
137.3985, 871.5287
137.8806, 890.6563
138.3627, 905.4631
138.8448, 919.8750
139.3270, 935.0428
139.8091, 950.7936
140.2912, 964.7986
140.7733, 976.9739
141.2554, 987.7814
141.7375, 997.1495
142.2197, 1004.250
142.7018, 1012.363
143.1839, 1022.127
143.6660, 1033.496
144.1481, 1046.526
144.6302, 1061.515
145.1124, 1077.827
145.5945, 1094.415
146.0766, 1111.489
146.5587, 1128.792
147.0408, 1146.000
147.5230, 1162.477
148.0051, 1180.780
148.4872, 1196.535
148.9693, 1206.667
149.4514, 1216.307
149.9335, 1225.449
150.4157, 1234.316
150.8978, 1242.949
151.3799, 1252.123
151.8620, 1259.932
152.3441, 1266.221
152.8262, 1271.315
153.3084, 1275.630
153.7905, 1279.030
154.2726, 1281.839
154.7547, 1284.215
155.2368, 1286.177
155.7189, 1287.604
156.2011, 1288.342
156.6832, 1288.513
157.1653, 1288.405
157.6474, 1287.603
158.1295, 1286.825
158.6116, 1286.337
159.0938, 1285.266
159.5759, 1285.671
160.0580, 1289.242
160.5401, 1294.958
161.0222, 1299.375
161.5044, 1300.586
161.9865, 1300.558
162.4686, 1300.591
162.9507, 1300.594
163.4328, 1301.145
163.9149, 1302.730
164.3971, 1305.178
164.8792, 1307.578
165.3613, 1309.186
165.8434, 1310.702
166.3255, 1312.784
166.8076, 1316.627
167.2898, 1320.217
167.7719, 1322.437
168.2540, 1323.381
168.7361, 1323.753
169.2182, 1322.488
169.7003, 1321.312
170.1825, 1322.288
170.6646, 1328.842
171.1467, 1336.006
171.6288, 1339.706
172.1109, 1339.994
172.5931, 1339.345
173.0752, 1339.273
173.5573, 1339.447
174.0394, 1339.336
174.5215, 1337.721
175.0036, 1336.198
175.4858, 1336.998
175.9679, 1340.191
176.4500, 1343.493
176.9321, 1345.256
177.4142, 1345.702
177.8963, 1345.322
178.3785, 1343.093
178.8606, 1340.564
179.3427, 1340.552
179.8248, 1343.261
180.3069, 1346.578
180.7890, 1348.694
181.2712, 1349.705
181.7533, 1349.848
182.2354, 1348.753
182.7175, 1346.922
183.1996, 1345.219
183.6818, 1343.537
184.1639, 1342.569
184.6460, 1343.790
185.1281, 1346.736
185.6102, 1349.030
186.0923, 1349.002
186.5745, 1347.356
187.0566, 1346.366
187.5387, 1346.223
188.0208, 1346.379
188.5029, 1346.239
188.9850, 1345.803
189.4672, 1344.955
189.9493, 1343.103
190.4314, 1340.620
190.9135, 1339.494
191.3956, 1340.067
191.8777, 1341.431
192.3599, 1342.260
192.8420, 1342.548
193.3241, 1342.706
193.8062, 1343.033
194.2883, 1343.474
194.7704, 1343.380
195.2526, 1342.543
195.7347, 1341.412
196.2168, 1340.773
196.6989, 1340.621
197.1810, 1340.716
197.6632, 1341.075
198.1453, 1341.684
198.6274, 1341.890
199.1095, 1341.612
199.5916, 1340.969
200.0737, 1340.031
200.5559, 1338.695
201.0380, 1337.770
201.5201, 1338.194
202.0022, 1340.193
202.4843, 1340.618
202.9664, 1339.020
203.4486, 1336.105
203.9307, 1333.181
204.4128, 1330.111
204.8949, 1327.768
205.3770, 1327.001
205.8591, 1328.136
206.3413, 1328.330
206.8234, 1327.052
207.3055, 1324.994
207.7876, 1323.989
208.2697, 1324.236
208.7519, 1324.863
209.2340, 1325.672
209.7161, 1326.913
210.1982, 1326.863
210.6803, 1325.047
211.1624, 1322.095
211.6446, 1319.655
212.1267, 1317.764
212.6088, 1316.386
213.0909, 1315.569
213.5730, 1315.445
214.0551, 1315.468
214.5373, 1315.613
215.0194, 1315.927
215.5015, 1316.621
215.9836, 1317.997
216.4657, 1319.180
216.9478, 1319.613
217.4300, 1318.917
217.9121, 1318.757
218.3942, 1319.626
218.8763, 1320.888
219.3584, 1320.401
219.8405, 1316.980
220.3227, 1313.912
220.8048, 1313.073
221.2869, 1315.506
221.7690, 1317.039
222.2511, 1317.180
222.7333, 1316.430
223.2154, 1316.302
223.6975, 1317.174
224.1796, 1318.074
224.6617, 1318.580
225.1438, 1318.705
225.6260, 1318.449
226.1081, 1317.582
226.5902, 1316.444
227.0723, 1316.115
227.5544, 1317.324
228.0365, 1318.226
228.5187, 1317.783
229.0008, 1315.023
229.4829, 1313.268
229.9650, 1312.688
230.4471, 1313.051
230.9292, 1313.794
231.4114, 1315.028
231.8935, 1316.401
232.3756, 1317.877
232.8577, 1320.067
233.3398, 1320.814
233.8220, 1319.619
234.3041, 1317.117
234.7862, 1314.833
235.2683, 1312.567
235.7504, 1310.850
236.2325, 1309.966
236.7147, 1310.268
237.1968, 1310.648
237.6789, 1311.184
238.1610, 1311.840
238.6431, 1312.461
239.1252, 1312.844
239.6074, 1313.615
240.0895, 1315.324
240.5716, 1318.964
241.0537, 1320.547
241.5358, 1319.006
242.0179, 1315.919
242.5001, 1314.429
242.9822, 1315.313
243.4643, 1316.468
243.9464, 1317.115
244.4285, 1316.992
244.9106, 1317.004
245.3928, 1316.752
245.8749, 1316.800
246.3570, 1318.436
246.8391, 1323.184
247.3212, 1326.823
247.8034, 1327.630
248.2855, 1324.677
248.7676, 1322.873
249.2497, 1322.801
249.7318, 1323.464
250.2139, 1323.140
250.6961, 1320.642
251.1782, 1319.438
251.6603, 1321.099
252.1424, 1326.494
252.6245, 1329.650
253.1066, 1329.842
253.5888, 1328.515
254.0709, 1327.416
254.5530, 1326.374
255.0351, 1325.935
255.5172, 1326.469
255.9993, 1328.125
256.4815, 1329.045
256.9636, 1328.970
257.4457, 1328.411
257.9278, 1327.834
258.4099, 1326.941
258.8921, 1326.738
259.3742, 1327.782
259.8563, 1330.100
260.3384, 1331.396
260.8205, 1331.608
261.3026, 1330.869
261.7848, 1328.963
262.2669, 1325.097
262.7490, 1322.333
263.2311, 1321.492
263.7132, 1322.457
264.1953, 1323.684
264.6775, 1325.654
265.1596, 1327.074
265.6417, 1326.327
266.1238, 1322.349
266.6059, 1320.011
267.0880, 1320.761
267.5702, 1323.995
268.0523, 1325.450
268.5344, 1324.670
269.0165, 1323.079
269.4986, 1321.534
269.9807, 1319.853
270.4629, 1319.010
270.9450, 1319.283
271.4271, 1320.446
271.9092, 1321.683
272.3913, 1323.106
272.8734, 1324.274
273.3556, 1324.695
273.8377, 1324.173
274.3198, 1324.217
274.8019, 1325.071
275.2840, 1326.489
275.7661, 1327.909
276.2483, 1329.386
276.7304, 1330.611
277.2125, 1331.082
277.6946, 1330.688
278.1768, 1331.514
278.6589, 1334.207
279.1410, 1337.508
279.6231, 1338.716
280.1052, 1337.628
280.5873, 1335.956
281.0695, 1334.449
281.5516, 1333.103
282.0337, 1331.850
282.5158, 1330.617
282.9979, 1329.632
283.4800, 1329.325
283.9622, 1329.707
284.4443, 1330.288
284.9264, 1330.945
285.4085, 1331.634
285.8906, 1332.094
286.3727, 1332.292
286.8549, 1332.314
287.3370, 1332.101
287.8191, 1331.673
288.3012, 1331.634
288.7833, 1332.478
289.2654, 1333.877
289.7476, 1334.752
290.2297, 1335.132
290.7118, 1334.855
291.1939, 1333.034
291.6760, 1330.084
292.1581, 1328.510
292.6403, 1329.934
293.1224, 1332.775
293.6045, 1333.482
294.0866, 1332.056
294.5687, 1329.291
295.0508, 1324.536
295.5330, 1318.715
296.0151, 1315.279
296.4972, 1315.672
296.9793, 1318.017
297.4614, 1319.252
297.9435, 1319.498
298.4257, 1319.638
298.9078, 1320.582
299.3899, 1321.865
299.8720, 1322.367
300.3541, 1321.674
300.8362, 1320.627
301.3184, 1320.238
301.8005, 1320.396
302.2826, 1320.652
302.7647, 1320.280
303.2469, 1319.981
303.7290, 1321.108
304.2111, 1324.161
304.6932, 1327.203
305.1753, 1327.895
305.6574, 1327.037
306.1396, 1326.503
306.6217, 1327.422
307.1038, 1329.021
307.5859, 1331.000
308.0680, 1333.503
308.5501, 1334.665
309.0323, 1331.140
309.5144, 1325.639
309.9965, 1322.488
310.4786, 1325.781
310.9607, 1330.406
311.4428, 1332.342
311.9250, 1331.606
312.4071, 1331.029
312.8892, 1332.881
313.3713, 1335.548
313.8534, 1337.335
314.3355, 1336.298
314.8177, 1335.498
315.2998, 1337.039
315.7819, 1340.429
316.2640, 1343.088
316.7461, 1342.912
317.2282, 1342.048
317.7104, 1342.164
318.1925, 1344.278
318.6746, 1346.424
319.1567, 1348.569
319.6388, 1350.318
320.1209, 1350.560
320.6031, 1346.421
321.0852, 1342.572
321.5673, 1341.878
322.0494, 1346.910
322.5315, 1349.964
323.0136, 1347.401
323.4958, 1342.240
323.9779, 1339.379
324.4600, 1342.468
324.9421, 1345.460
325.4242, 1346.260
325.9064, 1344.304
326.3885, 1342.344
326.8706, 1339.500
327.3527, 1337.221
327.8348, 1336.984
328.3170, 1341.652
328.7991, 1345.348
329.2812, 1346.845
329.7633, 1346.080
330.2454, 1345.577
330.7275, 1345.468
331.2097, 1345.464
331.6918, 1345.316
332.1739, 1344.541
332.6560, 1344.362
333.1381, 1345.120
333.6202, 1346.569
334.1024, 1347.500
334.5845, 1347.352
335.0666, 1347.477
335.5487, 1348.842
336.0308, 1352.364
336.5129, 1354.406
336.9951, 1354.504
337.4772, 1353.395
337.9593, 1352.416
338.4414, 1351.438
338.9235, 1351.120
339.4056, 1352.182
339.8878, 1354.851
340.3699, 1355.719
340.8520, 1354.192
341.3341, 1352.036
341.8162, 1351.345
342.2983, 1352.151
342.7805, 1354.153
343.2626, 1357.898
343.7447, 1362.787
344.2268, 1365.223
344.7089, 1364.891
345.1910, 1363.911
345.6732, 1364.293
346.1553, 1365.859
346.6374, 1367.213
347.1195, 1367.884
347.6016, 1368.418
348.0837, 1370.272
348.5659, 1373.378
349.0480, 1376.202
349.5301, 1377.381
350.0122, 1377.512
350.4944, 1378.075
350.9765, 1379.356
351.4586, 1380.855
351.9407, 1381.729
352.4228, 1382.250
352.9049, 1383.274
353.3871, 1386.125
353.8692, 1389.357
354.3513, 1390.700
354.8334, 1389.947
355.3155, 1389.217
355.7976, 1390.285
356.2798, 1392.455
356.7619, 1394.631
357.2440, 1396.491
357.7261, 1398.054
358.2082, 1398.820
358.6903, 1398.990
359.1725, 1400.060
359.6546, 1404.153
360.1367, 1408.841
360.6188, 1411.913
361.1009, 1412.196
361.5830, 1411.747
362.0652, 1410.764
362.5473, 1409.666
363.0294, 1409.478
363.5115, 1411.766
363.9936, 1414.139
364.4757, 1415.054
364.9579, 1413.508
365.4400, 1413.345
365.9221, 1417.528
366.4042, 1422.871
366.8863, 1425.336
367.3684, 1420.646
367.8506, 1416.837
368.3327, 1416.312
368.8148, 1419.478
369.2969, 1421.532
369.7790, 1420.869
370.2611, 1420.193
370.7433, 1421.511
371.2254, 1427.078
371.7075, 1430.910
372.1896, 1431.031
372.6717, 1428.911
373.1538, 1431.083
373.6360, 1440.263
374.1181, 1449.271
374.6002, 1454.820
375.0823, 1456.689
375.5645, 1455.520
376.0466, 1449.911
376.5287, 1442.839
377.0108, 1439.297
377.4929, 1439.803
377.9750, 1441.734
378.4572, 1444.797
378.9393, 1448.772
379.4214, 1451.137
379.9035, 1451.656
380.3856, 1451.529
380.8677, 1451.715
381.3499, 1452.223
381.8320, 1453.248
382.3141, 1455.051
382.7962, 1457.139
383.2783, 1458.279
383.7604, 1458.528
384.2426, 1459.086
384.7247, 1461.016
385.2068, 1463.794
385.6889, 1466.233
386.1710, 1468.074
386.6531, 1469.997
387.1353, 1473.819
387.6174, 1478.436
388.0995, 1481.036
388.5816, 1479.193
389.0637, 1475.388
389.5458, 1471.289
390.0280, 1466.994
390.5101, 1464.555
390.9922, 1467.007
391.4743, 1471.399
391.9564, 1474.478
392.4385, 1474.664
392.9207, 1474.044
393.4028, 1472.952
393.8849, 1471.773
394.3670, 1471.700
394.8491, 1474.233
395.3312, 1477.219
395.8134, 1479.162
396.2955, 1478.939
396.7776, 1480.289
397.2597, 1485.876
397.7418, 1492.906
398.2239, 1497.766
398.7061, 1498.064
399.1882, 1498.082
399.6703, 1498.460
400.1524, 1499.182
400.6346, 1501.022
401.1167, 1504.441
401.5988, 1508.558
402.0809, 1512.820
402.5630, 1517.361
403.0451, 1521.723
403.5273, 1525.466
404.0094, 1529.075
404.4915, 1534.141
404.9736, 1541.403
405.4557, 1548.290
405.9378, 1553.425
406.4200, 1556.556
406.9021, 1560.838
407.3842, 1566.401
407.8663, 1572.720
408.3484, 1579.302
408.8305, 1586.199
409.3127, 1592.884
409.7948, 1598.930
410.2769, 1604.874
410.7590, 1612.276
411.2411, 1621.200
411.7232, 1630.519
412.2054, 1639.298
412.6875, 1647.973
413.1696, 1657.370
413.6517, 1667.736
414.1338, 1678.832
414.6159, 1690.437
415.0981, 1702.462
415.5802, 1714.617
416.0623, 1725.908
416.5444, 1737.662
417.0265, 1751.280
417.5086, 1766.861
417.9908, 1782.308
418.4729, 1795.519
418.9550, 1808.090
419.4371, 1821.488
419.9192, 1836.515
420.4013, 1852.205
420.8835, 1868.046
421.3656, 1884.168
421.8477, 1901.295
422.3298, 1920.359
422.8119, 1939.692
423.2940, 1958.614
423.7762, 1976.501
424.2583, 1995.243
424.7404, 2015.432
425.2225, 2036.197
425.7047, 2057.043
426.1868, 2076.493
426.6689, 2097.711
427.1510, 2121.879
427.6331, 2148.660
428.1152, 2175.232
428.5974, 2202.151
429.0795, 2228.526
429.5616, 2254.353
430.0437, 2279.854
430.5258, 2303.615
431.0079, 2325.674
431.4901, 2345.541
431.9722, 2362.224
432.4543, 2375.569
432.9364, 2386.797
433.4185, 2396.702
433.9006, 2404.749
434.3828, 2407.878
434.8649, 2405.941
435.3470, 2401.005
435.8291, 2395.214
436.3112, 2387.985
436.7933, 2377.468
437.2755, 2363.028
437.7576, 2345.808
438.2397, 2326.899
438.7218, 2306.504
439.2039, 2285.233
439.6860, 2261.830
440.1682, 2238.432
440.6503, 2218.310
441.1324, 2201.546
441.6145, 2184.793
442.0966, 2165.950
442.5787, 2146.025
443.0609, 2126.099
443.5430, 2106.206
444.0251, 2086.583
444.5072, 2067.208
444.9893, 2048.136
445.4714, 2029.402
445.9536, 2009.156
446.4357, 1990.648
446.9178, 1975.841
447.3999, 1966.851
447.8820, 1956.113
448.3641, 1941.904
448.8463, 1926.815
449.3284, 1913.401
449.8105, 1902.516
450.2926, 1892.081
450.7747, 1881.623
451.2569, 1871.275
451.7390, 1862.153
452.2211, 1854.204
452.7032, 1847.300
453.1853, 1842.175
453.6674, 1839.009
454.1496, 1832.383
454.6317, 1821.061
455.1138, 1808.631
455.5959, 1801.022
456.0780, 1797.719
456.5602, 1793.770
457.0423, 1786.902
457.5244, 1778.673
458.0065, 1772.754
458.4886, 1768.931
458.9707, 1763.991
459.4529, 1753.990
459.9350, 1741.899
460.4171, 1732.627
460.8992, 1727.200
461.3813, 1723.217
461.8634, 1719.472
462.3456, 1715.790
462.8277, 1711.951
463.3098, 1707.569
463.7919, 1703.192
464.2740, 1698.919
464.7561, 1694.774
465.2383, 1691.147
465.7204, 1688.670
466.2025, 1686.340
466.6846, 1683.481
467.1667, 1678.944
467.6488, 1675.574
468.1310, 1674.715
468.6131, 1674.738
469.0952, 1672.902
469.5773, 1667.730
470.0594, 1663.098
470.5415, 1660.247
471.0237, 1659.096
471.5058, 1656.612
471.9879, 1652.449
472.4700, 1647.746
472.9521, 1642.917
473.4342, 1637.841
473.9164, 1635.022
474.3985, 1635.232
474.8806, 1636.606
475.3627, 1636.279
475.8448, 1634.313
476.3270, 1631.254
476.8091, 1626.405
477.2912, 1621.025
477.7733, 1617.762
478.2554, 1616.531
478.7375, 1616.041
479.2197, 1616.510
479.7018, 1616.711
480.1839, 1614.387
480.6660, 1607.862
481.1481, 1602.312
481.6302, 1602.320
482.1124, 1605.428
482.5945, 1607.474
483.0766, 1606.352
483.5587, 1604.375
484.0408, 1602.542
484.5229, 1600.880
485.0051, 1598.622
485.4872, 1594.225
485.9693, 1590.180
486.4514, 1588.104
486.9335, 1589.930
487.4156, 1590.338
487.8978, 1588.696
488.3799, 1585.995
488.8620, 1583.686
489.3441, 1581.809
489.8262, 1580.339
490.3083, 1579.712
490.7905, 1579.588
491.2726, 1576.951
491.7547, 1571.241
492.2368, 1565.696
492.7189, 1562.965
493.2010, 1562.680
493.6832, 1562.828
494.1653, 1563.378
494.6474, 1563.686
495.1295, 1562.661
495.6116, 1560.664
496.0938, 1558.803
496.5759, 1556.957
497.0580, 1555.882
497.5401, 1557.297
498.0222, 1560.631
498.5044, 1562.920
498.9865, 1561.874
499.4686, 1559.508
499.9507, 1557.169
500.4328, 1554.813
500.9149, 1553.491
501.3971, 1554.042
501.8792, 1555.630
502.3613, 1557.279
502.8434, 1560.070
503.3255, 1561.507
503.8076, 1560.307
504.2898, 1557.178
504.7719, 1555.420
505.2540, 1555.440
505.7361, 1556.204
506.2182, 1557.656
506.7003, 1560.154
507.1825, 1560.524
507.6646, 1557.948
508.1467, 1555.004
508.6288, 1554.970
509.1109, 1557.843
509.5930, 1560.018
510.0752, 1560.829
510.5573, 1560.545
511.0394, 1558.992
511.5215, 1556.471
512.0037, 1554.824
512.4858, 1555.799
512.9679, 1557.953
513.4500, 1559.105
513.9321, 1559.194
514.4142, 1559.490
514.8964, 1561.042
515.3785, 1563.180
515.8606, 1565.209
516.3427, 1567.099
516.8248, 1568.603
517.3069, 1569.411
517.7891, 1569.781
518.2712, 1570.197
518.7533, 1570.810
519.2354, 1571.423
519.7175, 1571.756
520.1996, 1571.822
520.6818, 1572.815
521.1639, 1575.250
521.6460, 1577.998
522.1281, 1580.348
522.6102, 1582.135
523.0923, 1584.282
523.5745, 1586.972
524.0566, 1589.761
524.5387, 1591.990
525.0208, 1593.669
525.5029, 1595.136
525.9850, 1596.068
526.4672, 1597.218
526.9493, 1600.633
527.4314, 1606.132
527.9135, 1611.757
528.3956, 1616.538
528.8777, 1620.730
529.3599, 1624.226
529.8420, 1626.957
530.3241, 1630.545
530.8062, 1637.106
531.2883, 1644.797
531.7704, 1651.343
532.2526, 1654.882
532.7347, 1659.041
533.2168, 1664.829
533.6989, 1672.053
534.1810, 1680.406
534.6631, 1691.157
535.1453, 1701.680
535.6274, 1710.945
536.1095, 1719.036
536.5916, 1727.310
537.0737, 1735.187
537.5558, 1744.302
538.0380, 1755.997
538.5201, 1770.730
539.0022, 1785.755
539.4843, 1800.834
539.9664, 1815.892
540.4485, 1830.197
540.9307, 1843.820
541.4128, 1858.116
541.8949, 1873.571
542.3770, 1889.615
542.8591, 1905.998
543.3412, 1922.355
543.8234, 1938.018
544.3055, 1953.068
544.7876, 1966.878
545.2697, 1978.659
545.7518, 1988.309
546.2339, 1996.219
546.7161, 2004.661
547.1982, 2010.341
547.6803, 2010.516
548.1624, 2003.623
548.6445, 1992.460
549.1266, 1976.950
549.6088, 1957.494
550.0909, 1934.719
550.5730, 1906.833
551.0551, 1878.451
551.5372, 1850.531
552.0193, 1823.122
552.5015, 1797.795
552.9836, 1774.617
553.4657, 1753.260
553.9478, 1733.175
554.4299, 1714.485
554.9120, 1698.884
555.3942, 1686.770
555.8763, 1676.658
556.3584, 1666.861
556.8405, 1657.766
557.3226, 1650.493
557.8047, 1645.878
558.2869, 1642.388
558.7690, 1638.816
559.2511, 1635.235
559.7332, 1631.877
560.2154, 1629.244
560.6975, 1626.552
561.1796, 1623.006
561.6617, 1618.565
562.1439, 1615.297
562.6260, 1614.479
563.1081, 1614.366
563.5902, 1613.886
564.0723, 1612.651
564.5544, 1611.902
565.0366, 1611.730
565.5187, 1611.929
566.0008, 1612.273
566.4829, 1612.791
566.9650, 1613.148
567.4471, 1613.042
567.9293, 1612.904
568.4114, 1613.931
568.8935, 1616.052
569.3756, 1618.464
569.8577, 1621.229
570.3398, 1623.792
570.8220, 1624.770
571.3041, 1624.224
571.7862, 1623.706
572.2683, 1624.528
572.7504, 1625.822
573.2325, 1626.669
573.7147, 1626.635
574.1968, 1626.865
574.6789, 1627.896
575.1610, 1629.414
575.6431, 1631.026
576.1252, 1632.976
576.6074, 1634.683
577.0895, 1636.299
577.5716, 1637.656
578.0537, 1637.811
578.5358, 1635.744
579.0179, 1634.915
579.5001, 1637.270
579.9822, 1642.540
580.4643, 1645.873
580.9464, 1647.037
581.4285, 1647.799
581.9106, 1650.162
582.3928, 1653.406
582.8749, 1654.971
583.3570, 1654.325
583.8391, 1652.985
584.3212, 1651.891
584.8033, 1651.219
585.2855, 1651.253
585.7676, 1651.814
586.2497, 1653.414
586.7318, 1657.239
587.2139, 1662.400
587.6960, 1666.357
588.1782, 1668.031
588.6603, 1668.811
589.1424, 1668.776
