##NAMES=Hauyne
##RRUFFID=R070121
##IDEAL CHEMISTRY=Na_3_Ca(Si_3_Al_3_)O_12_(S^6+^O_4_)
##LOCALITY=Hesse, Germany
##OWNER=RRUFF
##SOURCE=Michael Scott
##DESCRIPTION=Blue cut gemstones
##STATUS=The identification of this mineral has been confirmed by single-crystal X-ray diffraction.
##URL=rruff.info/R070121
138.6662, 2169.922
139.1483, 2218.772
139.6305, 2285.052
140.1126, 2345.522
140.5947, 2386.670
141.0768, 2434.557
141.5589, 2499.991
142.0410, 2580.452
142.5232, 2665.648
143.0053, 2744.899
143.4874, 2815.783
143.9695, 2902.279
144.4516, 3009.546
144.9337, 3126.935
145.4159, 3254.725
145.8980, 3390.539
146.3801, 3527.828
146.8622, 3660.119
147.3443, 3785.717
147.8264, 3914.976
148.3086, 4060.524
148.7907, 4198.627
149.2728, 4311.831
149.7549, 4403.629
150.2370, 4493.653
150.7191, 4605.005
151.2013, 4747.140
151.6834, 4864.331
152.1655, 4956.084
152.6476, 5027.654
153.1297, 5075.976
153.6118, 5103.785
154.0940, 5122.164
154.5761, 5142.472
155.0582, 5166.044
155.5403, 5184.670
156.0224, 5200.792
156.5045, 5210.928
156.9867, 5209.013
157.4688, 5195.893
157.9509, 5182.258
158.4330, 5179.437
158.9151, 5190.462
159.3972, 5201.644
159.8793, 5209.592
160.3615, 5219.944
160.8436, 5236.515
161.3257, 5259.859
161.8078, 5289.338
162.2899, 5323.400
162.7720, 5362.121
163.2542, 5413.904
163.7363, 5492.301
164.2184, 5576.061
164.7005, 5641.964
165.1826, 5687.298
165.6647, 5733.055
166.1469, 5804.010
166.6290, 5901.563
167.1111, 5984.513
167.5932, 6040.242
168.0753, 6084.643
168.5574, 6131.864
169.0396, 6183.392
169.5217, 6240.521
170.0038, 6309.904
170.4859, 6389.408
170.9680, 6454.379
171.4501, 6492.412
171.9323, 6518.155
172.4144, 6548.464
172.8965, 6585.562
173.3786, 6622.072
173.8607, 6649.946
174.3428, 6671.206
174.8250, 6694.061
175.3071, 6725.995
175.7892, 6757.959
176.2713, 6776.725
176.7534, 6779.659
177.2355, 6778.832
177.7177, 6779.603
178.1998, 6783.528
178.6819, 6796.939
179.1640, 6831.615
179.6461, 6872.585
180.1283, 6896.485
180.6104, 6899.078
181.0925, 6900.943
181.5746, 6917.289
182.0567, 6943.699
182.5388, 6973.738
183.0210, 7011.089
183.5031, 7048.843
183.9852, 7075.952
184.4673, 7091.159
184.9494, 7101.605
185.4315, 7102.977
185.9137, 7103.646
186.3958, 7118.789
186.8779, 7163.964
187.3600, 7218.769
187.8421, 7251.062
188.3242, 7255.832
188.8064, 7257.636
189.2885, 7265.509
189.7706, 7279.752
190.2527, 7303.292
190.7348, 7342.489
191.2169, 7385.721
191.6991, 7412.250
192.1812, 7416.672
192.6633, 7427.075
193.1454, 7466.710
193.6275, 7516.675
194.1096, 7557.180
194.5918, 7581.234
195.0739, 7596.144
195.5560, 7609.048
196.0381, 7617.811
196.5202, 7634.206
197.0023, 7673.840
197.4845, 7719.185
197.9666, 7753.192
198.4487, 7769.065
198.9308, 7779.480
199.4129, 7805.344
199.8950, 7852.388
200.3771, 7884.589
200.8593, 7867.645
201.3414, 7841.221
201.8235, 7839.128
202.3056, 7871.837
202.7877, 7911.845
203.2698, 7922.047
203.7520, 7896.280
204.2341, 7884.041
204.7162, 7914.816
205.1983, 7954.698
205.6804, 7979.774
206.1625, 7985.895
206.6447, 7985.982
207.1268, 7992.469
207.6089, 8005.664
208.0910, 8021.944
208.5731, 8044.324
209.0552, 8066.941
209.5374, 8084.713
210.0195, 8097.391
210.5016, 8110.870
210.9837, 8131.279
211.4658, 8158.858
211.9479, 8186.166
212.4301, 8213.004
212.9122, 8238.422
213.3943, 8263.345
213.8764, 8287.245
214.3585, 8306.016
214.8406, 8310.374
215.3228, 8301.329
215.8049, 8309.027
216.2870, 8349.846
216.7691, 8392.682
217.2512, 8413.826
217.7333, 8419.956
218.2155, 8435.950
218.6976, 8492.889
219.1797, 8582.405
219.6618, 8635.752
220.1439, 8626.307
220.6260, 8614.358
221.1082, 8628.248
221.5903, 8662.712
222.0724, 8705.728
222.5545, 8755.477
223.0366, 8808.260
223.5187, 8847.713
224.0009, 8866.487
224.4830, 8884.518
224.9651, 8914.099
225.4472, 8948.434
225.9293, 8977.204
226.4114, 8995.341
226.8936, 9004.856
227.3757, 9008.407
227.8578, 9001.696
228.3399, 8999.400
228.8220, 9009.057
229.3041, 9025.351
229.7863, 9042.336
230.2684, 9057.423
230.7505, 9073.489
231.2326, 9095.635
231.7147, 9124.896
232.1968, 9156.484
232.6790, 9192.563
233.1611, 9228.392
233.6432, 9260.725
234.1253, 9289.210
234.6074, 9311.659
235.0895, 9320.226
235.5717, 9311.870
236.0538, 9315.964
236.5359, 9357.363
237.0180, 9403.053
237.5001, 9422.686
237.9822, 9411.687
238.4644, 9403.662
238.9465, 9436.011
239.4286, 9507.515
239.9107, 9567.079
240.3928, 9600.959
240.8749, 9623.578
241.3571, 9646.852
241.8392, 9670.563
242.3213, 9688.881
242.8034, 9694.870
243.2855, 9690.909
243.7676, 9689.023
244.2497, 9687.318
244.7319, 9693.086
245.2140, 9712.551
245.6961, 9743.135
246.1782, 9776.026
246.6603, 9812.639
247.1424, 9848.296
247.6246, 9870.323
248.1067, 9876.672
248.5888, 9873.482
249.0709, 9848.703
249.5530, 9818.188
250.0351, 9815.000
250.5173, 9874.211
250.9994, 9952.010
251.4815, 9975.610
251.9636, 9934.504
252.4457, 9901.846
252.9278, 9932.996
253.4100, 9992.868
253.8921, 10029.30
254.3742, 10026.76
254.8563, 10008.63
255.3384, 9990.000
255.8205, 9971.347
256.3027, 9968.959
256.7848, 9997.857
257.2669, 10041.38
257.7490, 10074.29
258.2311, 10095.88
258.7133, 10107.29
259.1954, 10103.04
259.6775, 10087.60
260.1596, 10079.18
260.6417, 10084.60
261.1238, 10096.54
261.6060, 10102.72
262.0880, 10101.79
262.5702, 10110.96
263.0523, 10151.96
263.5344, 10204.70
264.0165, 10228.33
264.4986, 10211.50
264.9807, 10182.64
265.4629, 10169.74
265.9450, 10171.41
266.4271, 10177.96
266.9092, 10195.23
267.3913, 10212.29
267.8734, 10214.35
268.3556, 10200.45
268.8377, 10187.25
269.3198, 10188.12
269.8019, 10202.22
270.2840, 10212.99
270.7661, 10221.27
271.2483, 10225.54
271.7304, 10221.16
272.2125, 10210.67
272.6946, 10206.45
273.1767, 10218.81
273.6588, 10239.82
274.1410, 10237.84
274.6231, 10186.09
275.1052, 10149.40
275.5873, 10160.12
276.0694, 10197.49
276.5515, 10225.10
277.0337, 10229.09
277.5158, 10217.46
277.9979, 10205.21
278.4800, 10193.70
278.9621, 10178.68
279.4442, 10147.49
279.9264, 10119.04
280.4085, 10118.52
280.8906, 10149.15
281.3727, 10185.12
281.8548, 10195.54
282.3369, 10172.80
282.8191, 10150.18
283.3012, 10122.61
283.7833, 10099.41
284.2654, 10086.67
284.7475, 10083.64
285.2296, 10086.05
285.7118, 10091.78
286.1939, 10100.72
286.6760, 10099.06
287.1581, 10080.60
287.6402, 10059.10
288.1223, 10039.09
288.6045, 10018.37
289.0866, 9991.604
289.5687, 9955.649
290.0508, 9914.394
290.5329, 9881.587
291.0150, 9866.915
291.4972, 9847.195
291.9793, 9819.932
292.4614, 9787.458
292.9435, 9747.821
293.4256, 9701.811
293.9077, 9659.617
294.3899, 9640.719
294.8720, 9659.372
295.3541, 9660.498
295.8362, 9627.514
296.3183, 9590.275
296.8004, 9569.405
297.2826, 9561.611
297.7647, 9545.370
298.2468, 9493.392
298.7289, 9406.290
299.2110, 9352.691
299.6931, 9355.383
300.1753, 9366.467
300.6574, 9370.684
301.1395, 9369.842
301.6216, 9370.097
302.1037, 9378.566
302.5858, 9385.669
303.0680, 9364.560
303.5501, 9304.596
304.0322, 9244.797
304.5143, 9187.668
304.9964, 9142.727
305.4785, 9124.620
305.9607, 9140.682
306.4428, 9164.879
306.9249, 9171.854
307.4070, 9161.637
307.8891, 9140.583
308.3712, 9101.570
308.8534, 9060.514
309.3355, 9032.508
309.8176, 9017.306
310.2997, 9005.528
310.7818, 8999.172
311.2639, 8991.940
311.7461, 8963.027
312.2282, 8902.979
312.7103, 8844.880
313.1924, 8822.892
313.6745, 8826.602
314.1566, 8824.085
314.6388, 8803.477
315.1209, 8777.592
315.6030, 8759.601
316.0851, 8748.835
316.5672, 8735.427
317.0493, 8713.994
317.5315, 8685.799
318.0136, 8655.037
318.4957, 8614.633
318.9778, 8582.649
319.4599, 8574.241
319.9420, 8577.959
320.4242, 8570.947
320.9063, 8544.926
321.3884, 8511.635
321.8705, 8490.013
322.3526, 8486.379
322.8347, 8478.062
323.3169, 8462.487
323.7990, 8443.071
324.2811, 8420.270
324.7632, 8395.251
325.2453, 8373.166
325.7274, 8360.015
326.2096, 8356.819
326.6917, 8340.753
327.1738, 8296.612
327.6559, 8257.605
328.1380, 8235.066
328.6201, 8225.167
329.1023, 8222.639
329.5844, 8225.474
330.0665, 8228.283
330.5486, 8213.253
331.0307, 8156.809
331.5128, 8121.037
331.9950, 8130.953
332.4771, 8148.612
332.9592, 8139.365
333.4413, 8098.401
333.9234, 8051.131
334.4055, 8029.822
334.8877, 8039.426
335.3698, 8043.317
335.8519, 8040.474
336.3340, 8031.896
336.8161, 8010.473
337.2982, 7983.279
337.7804, 7967.771
338.2625, 7981.617
338.7446, 8010.981
339.2267, 8012.575
339.7088, 7975.171
340.1909, 7940.616
340.6731, 7930.179
341.1552, 7930.397
341.6373, 7927.688
342.1194, 7918.545
342.6015, 7908.062
343.0836, 7904.046
343.5658, 7904.888
344.0479, 7894.469
344.5300, 7860.396
345.0121, 7825.655
345.4942, 7819.563
345.9763, 7840.932
346.4584, 7858.116
346.9406, 7861.402
347.4227, 7853.661
347.9048, 7832.364
348.3869, 7796.998
348.8690, 7771.443
349.3511, 7778.104
349.8333, 7812.555
350.3154, 7831.290
350.7975, 7827.111
351.2796, 7815.482
351.7617, 7795.947
352.2438, 7774.623
352.7260, 7765.972
353.2081, 7776.967
353.6902, 7798.558
354.1723, 7812.368
354.6544, 7819.368
355.1365, 7814.917
355.6187, 7787.592
356.1008, 7756.568
356.5829, 7736.959
357.0650, 7730.129
357.5471, 7728.237
358.0292, 7724.190
358.5114, 7717.918
358.9935, 7711.272
359.4756, 7708.178
359.9577, 7700.398
360.4398, 7678.704
360.9219, 7652.804
361.4041, 7638.485
361.8862, 7644.194
362.3683, 7659.385
362.8504, 7662.356
363.3325, 7651.355
363.8146, 7632.964
364.2968, 7591.629
364.7789, 7555.113
365.2610, 7545.081
365.7431, 7561.746
366.2252, 7583.671
366.7073, 7596.612
367.1895, 7601.028
367.6716, 7598.207
368.1537, 7585.387
368.6358, 7571.260
369.1179, 7557.500
369.6000, 7546.729
370.0822, 7546.042
370.5643, 7567.006
371.0464, 7587.824
371.5285, 7583.047
372.0106, 7556.524
372.4927, 7535.865
372.9749, 7534.091
373.4570, 7540.537
373.9391, 7534.041
374.4212, 7510.681
374.9033, 7493.793
375.3854, 7501.086
375.8676, 7511.882
376.3497, 7496.173
376.8318, 7452.047
377.3139, 7410.946
377.7960, 7402.139
378.2781, 7426.903
378.7603, 7439.188
379.2424, 7432.571
379.7245, 7423.100
380.2066, 7414.395
380.6887, 7406.737
381.1708, 7400.617
381.6530, 7396.253
382.1351, 7391.913
382.6172, 7384.143
383.0993, 7372.257
383.5814, 7358.018
384.0635, 7344.681
384.5457, 7326.808
385.0278, 7294.698
385.5099, 7252.844
385.9920, 7219.208
386.4741, 7210.492
386.9562, 7222.491
387.4384, 7228.866
387.9205, 7227.078
388.4026, 7224.382
388.8847, 7227.658
389.3668, 7230.193
389.8489, 7221.957
390.3311, 7197.907
390.8132, 7172.129
391.2953, 7160.127
391.7774, 7160.012
392.2595, 7156.556
392.7416, 7142.983
393.2238, 7130.995
393.7059, 7138.850
394.1880, 7163.852
394.6701, 7178.857
395.1522, 7165.776
395.6343, 7147.298
396.1165, 7149.271
396.5986, 7169.638
397.0807, 7185.246
397.5628, 7181.415
398.0449, 7163.531
398.5270, 7152.068
399.0092, 7146.915
399.4913, 7147.374
399.9734, 7157.025
400.4555, 7170.345
400.9376, 7184.690
401.4197, 7198.125
401.9019, 7203.976
402.3840, 7192.359
402.8661, 7159.192
403.3482, 7140.035
403.8303, 7147.405
404.3124, 7155.910
404.7946, 7154.953
405.2767, 7150.871
405.7588, 7156.465
406.2409, 7179.031
406.7230, 7207.275
407.2051, 7214.117
407.6873, 7189.967
408.1694, 7189.595
408.6515, 7246.249
409.1336, 7312.244
409.6157, 7358.321
410.0978, 7383.297
410.5800, 7394.167
411.0621, 7385.601
411.5442, 7368.263
412.0263, 7362.771
412.5084, 7370.407
412.9905, 7386.006
413.4727, 7409.790
413.9548, 7438.699
414.4369, 7463.089
414.9190, 7474.453
415.4011, 7495.154
415.8832, 7540.355
416.3654, 7599.298
416.8475, 7656.092
417.3296, 7707.171
417.8117, 7753.538
418.2938, 7796.897
418.7759, 7837.840
419.2581, 7870.809
419.7402, 7877.825
420.2223, 7896.717
420.7044, 7952.433
421.1865, 8029.699
421.6686, 8100.373
422.1508, 8150.602
422.6329, 8187.876
423.1150, 8226.284
423.5971, 8261.080
424.0792, 8310.018
424.5613, 8398.021
425.0435, 8481.432
425.5256, 8525.751
426.0077, 8538.464
426.4898, 8558.564
426.9719, 8612.718
427.4540, 8693.174
427.9361, 8784.582
428.4182, 8892.260
428.9004, 8987.262
429.3825, 9048.250
429.8646, 9092.011
430.3467, 9141.608
430.8288, 9194.692
431.3109, 9265.052
431.7931, 9375.994
432.2752, 9504.229
432.7573, 9605.883
433.2394, 9672.875
433.7215, 9731.114
434.2036, 9804.155
434.6858, 9891.912
435.1679, 9975.349
435.6500, 10060.82
436.1321, 10135.22
436.6142, 10188.98
437.0963, 10230.69
437.5785, 10273.46
438.0606, 10321.88
438.5427, 10370.64
439.0248, 10410.67
439.5069, 10439.93
439.9890, 10467.37
440.4712, 10497.05
440.9533, 10521.04
441.4354, 10535.87
441.9175, 10542.42
442.3996, 10543.69
442.8817, 10542.42
443.3639, 10534.63
443.8460, 10509.13
444.3281, 10463.80
444.8102, 10425.55
445.2923, 10412.00
445.7744, 10399.03
446.2566, 10357.00
446.7387, 10285.57
447.2208, 10215.28
447.7029, 10162.43
448.1850, 10113.66
448.6671, 10052.32
449.1493, 9978.563
449.6314, 9901.525
450.1135, 9826.227
450.5956, 9753.074
451.0777, 9682.224
451.5598, 9618.181
452.0420, 9550.802
452.5241, 9467.246
453.0062, 9387.636
453.4883, 9336.709
453.9704, 9312.884
454.4525, 9288.318
454.9347, 9235.423
455.4168, 9156.399
455.8989, 9086.083
456.3810, 9029.773
456.8631, 8973.997
457.3452, 8916.191
457.8274, 8856.468
458.3095, 8796.666
458.7916, 8737.156
459.2737, 8670.227
459.7558, 8581.089
460.2379, 8476.275
460.7201, 8385.148
461.2022, 8312.986
461.6843, 8250.583
462.1664, 8196.727
462.6485, 8148.264
463.1306, 8093.018
463.6128, 8025.232
464.0949, 7955.726
464.5770, 7881.412
465.0591, 7811.140
465.5412, 7769.840
466.0233, 7764.842
466.5055, 7761.303
466.9876, 7710.336
467.4697, 7595.998
467.9518, 7512.481
468.4339, 7480.887
468.9160, 7453.439
469.3982, 7416.317
469.8803, 7370.599
470.3624, 7318.768
470.8445, 7261.388
471.3266, 7204.272
471.8087, 7157.958
472.2909, 7123.837
472.7730, 7089.212
473.2551, 7056.942
473.7372, 7018.249
474.2193, 6960.343
474.7014, 6890.958
475.1836, 6835.193
475.6657, 6810.188
476.1478, 6794.887
476.6299, 6767.441
477.1120, 6730.369
477.5941, 6696.823
478.0763, 6672.134
478.5584, 6650.991
479.0405, 6625.292
479.5226, 6592.458
480.0047, 6563.341
480.4868, 6543.938
480.9690, 6522.954
481.4511, 6488.126
481.9332, 6446.429
482.4153, 6417.320
482.8974, 6411.683
483.3795, 6416.992
483.8617, 6405.000
484.3438, 6372.759
484.8259, 6331.914
485.3080, 6262.393
485.7901, 6202.946
486.2722, 6183.820
486.7544, 6193.977
487.2365, 6194.380
487.7186, 6155.388
488.2007, 6103.913
488.6828, 6087.445
489.1649, 6104.127
489.6471, 6105.886
490.1292, 6071.384
490.6113, 6020.219
491.0934, 5979.378
491.5755, 5947.337
492.0576, 5929.178
492.5398, 5942.289
493.0219, 5955.685
493.5040, 5946.009
493.9861, 5916.707
494.4682, 5880.924
494.9503, 5845.418
495.4325, 5811.247
495.9146, 5781.257
496.3967, 5753.334
496.8788, 5734.688
497.3609, 5736.899
497.8430, 5737.830
498.3252, 5721.154
498.8073, 5692.665
499.2894, 5671.553
499.7715, 5671.534
500.2536, 5680.251
500.7357, 5677.202
501.2179, 5662.310
501.7000, 5641.287
502.1821, 5612.262
502.6642, 5582.570
503.1463, 5564.916
503.6284, 5559.494
504.1106, 5543.917
504.5927, 5505.449
505.0748, 5462.835
505.5569, 5422.199
506.0390, 5388.593
506.5211, 5376.312
507.0033, 5393.259
507.4854, 5421.388
507.9675, 5423.776
508.4496, 5383.896
508.9317, 5358.394
509.4138, 5354.581
509.8959, 5357.197
510.3781, 5366.935
510.8602, 5377.225
511.3423, 5374.565
511.8244, 5349.385
512.3065, 5317.217
512.7886, 5303.380
513.2708, 5306.817
513.7529, 5304.027
514.2350, 5289.408
514.7171, 5267.937
515.1992, 5238.003
515.6813, 5202.003
516.1635, 5183.828
516.6456, 5205.335
517.1277, 5227.012
517.6098, 5223.236
518.0919, 5203.675
518.5740, 5186.930
519.0562, 5179.498
519.5383, 5177.375
520.0204, 5174.555
520.5025, 5169.522
520.9846, 5172.520
521.4667, 5198.374
521.9489, 5216.221
522.4310, 5215.082
522.9131, 5201.388
523.3952, 5180.488
523.8773, 5152.785
524.3594, 5132.859
524.8416, 5137.358
525.3237, 5163.088
525.8058, 5198.823
526.2879, 5247.969
526.7700, 5288.326
527.2521, 5300.175
527.7343, 5288.617
528.2164, 5282.847
528.6985, 5287.068
529.1806, 5291.347
529.6627, 5282.878
530.1448, 5277.910
530.6270, 5299.488
531.1091, 5348.552
531.5912, 5405.643
532.0733, 5454.677
532.5554, 5495.414
533.0375, 5524.338
533.5197, 5532.164
534.0018, 5544.803
534.4839, 5567.270
534.9660, 5597.122
535.4481, 5632.634
535.9302, 5673.514
536.4124, 5720.508
536.8945, 5779.641
537.3766, 5842.480
537.8587, 5894.926
538.3408, 5936.546
538.8229, 5969.312
539.3051, 5989.458
539.7872, 6008.832
540.2693, 6055.309
540.7514, 6152.091
541.2335, 6217.928
541.7156, 6225.983
542.1978, 6223.924
542.6799, 6245.274
543.1620, 6281.327
543.6441, 6305.915
544.1262, 6305.391
544.6083, 6288.662
545.0905, 6274.622
545.5726, 6266.126
546.0547, 6239.924
546.5368, 6191.696
547.0189, 6126.511
547.5010, 6037.549
547.9832, 5935.539
548.4653, 5849.502
548.9474, 5797.719
549.4295, 5749.068
549.9116, 5681.707
550.3937, 5602.307
550.8759, 5523.429
551.3580, 5447.984
551.8401, 5377.689
552.3222, 5313.951
552.8043, 5256.908
553.2864, 5207.408
553.7686, 5168.787
554.2507, 5133.945
554.7328, 5105.721
555.2149, 5078.668
555.6970, 5045.290
556.1791, 5005.842
556.6613, 4970.475
557.1434, 4949.604
557.6255, 4939.088
558.1076, 4924.652
558.5897, 4904.898
559.0718, 4897.195
559.5540, 4915.203
560.0361, 4943.169
560.5182, 4952.337
561.0003, 4941.131
561.4824, 4925.860
561.9645, 4904.139
562.4467, 4883.354
562.9288, 4867.976
563.4109, 4857.905
563.8930, 4852.256
564.3751, 4850.694
564.8572, 4851.841
565.3394, 4854.225
565.8215, 4858.818
566.3036, 4859.073
566.7857, 4852.092
567.2678, 4844.119
567.7499, 4839.747
568.2321, 4836.379
568.7142, 4827.742
569.1963, 4807.940
569.6784, 4794.264
570.1605, 4803.391
570.6426, 4825.034
571.1248, 4841.002
571.6069, 4848.551
572.0890, 4853.695
572.5711, 4861.680
573.0532, 4870.611
573.5353, 4869.179
574.0175, 4832.656
574.4996, 4823.026
574.9817, 4870.564
575.4638, 4923.453
575.9459, 4944.564
576.4280, 4935.821
576.9102, 4919.452
577.3923, 4905.248
577.8744, 4894.612
578.3565, 4890.758
578.8386, 4893.346
579.3207, 4896.027
579.8029, 4895.206
580.2850, 4899.388
580.7671, 4923.438
581.2492, 4968.772
581.7313, 4988.599
582.2134, 4958.260
582.6956, 4930.651
583.1777, 4932.011
583.6598, 4944.042
584.1419, 4940.201
584.6240, 4916.304
585.1061, 4891.536
585.5883, 4885.775
586.0704, 4896.005
586.5525, 4901.984
587.0346, 4902.123
587.5167, 4903.222
587.9988, 4910.566
588.4810, 4917.767
588.9631, 4917.205
589.4452, 4908.493
589.9273, 4898.025
590.4094, 4881.162
590.8915, 4868.809
591.3737, 4873.224
591.8558, 4889.303
592.3379, 4902.830
592.8200, 4908.227
593.3021, 4912.135
593.7842, 4925.470
594.2664, 4950.457
594.7485, 4969.329
595.2306, 4973.324
595.7127, 4983.451
596.1948, 5014.897
596.6769, 5052.350
597.1591, 5074.134
597.6412, 5074.943
598.1233, 5077.776
598.6054, 5097.456
599.0875, 5127.850
599.5696, 5162.382
600.0518, 5199.537
600.5339, 5234.656
601.0160, 5265.413
601.4981, 5291.669
601.9802, 5311.929
602.4623, 5317.873
602.9445, 5338.161
603.4266, 5378.158
603.9087, 5425.662
604.3908, 5482.407
604.8729, 5541.017
605.3550, 5588.001
605.8372, 5617.310
606.3193, 5645.872
606.8014, 5700.554
607.2835, 5767.077
607.7656, 5797.741
608.2477, 5785.935
608.7299, 5772.023
609.2120, 5781.728
609.6941, 5806.751
610.1762, 5821.216
610.6583, 5812.279
611.1404, 5814.523
611.6226, 5842.079
612.1047, 5868.842
612.5868, 5881.475
613.0689, 5879.861
613.5510, 5865.069
614.0331, 5835.991
614.5153, 5803.957
614.9974, 5786.615
615.4795, 5781.711
615.9616, 5770.376
616.4437, 5748.059
616.9258, 5728.810
617.4080, 5723.792
617.8901, 5729.291
618.3722, 5730.759
618.8543, 5729.576
619.3364, 5722.543
619.8185, 5699.886
620.3007, 5678.695
620.7828, 5676.754
621.2649, 5688.537
621.7470, 5695.272
622.2291, 5686.851
622.7112, 5666.766
623.1934, 5636.598
623.6755, 5596.188
624.1576, 5569.125
624.6397, 5565.093
625.1218, 5558.323
625.6039, 5522.342
626.0861, 5469.384
626.5682, 5444.989
627.0503, 5476.075
627.5324, 5491.303
628.0145, 5455.181
628.4966, 5407.163
628.9788, 5383.442
629.4609, 5382.959
629.9430, 5388.130
630.4251, 5389.695
630.9072, 5384.926
631.3893, 5364.407
631.8715, 5326.265
632.3535, 5298.767
632.8356, 5290.134
633.3177, 5283.460
633.7999, 5259.159
634.2820, 5228.502
634.7641, 5224.474
635.2462, 5270.510
635.7283, 5304.387
636.2104, 5296.040
636.6926, 5272.818
637.1747, 5259.254
637.6568, 5256.917
