##NAMES=Haynesite
##RRUFFID=R060599
##IDEAL CHEMISTRY=(U^6+^O_2_)_3_(Se^4+^O_3_)_2_(OH)_2_&#183;5H_2_O
##LOCALITY=Repete mine, San Juan County, Utah, USA
##OWNER=RRUFF
##SOURCE=Michael Scott
##DESCRIPTION=Stellate group of yellow, bladed, poorly crystalline crystals
##STATUS=The identification of this mineral has been confirmed by single-crystal X-ray diffraction.
##URL=rruff.info/R060599
138.884, 4151.223
139.366, 4230.677
139.848, 4326.839
140.331, 4443.415
140.813, 4589.861
141.295, 4785.094
141.777, 4993.745
142.259, 5222.895
142.741, 5461.690
143.223, 5695.679
143.705, 5917.929
144.188, 6129.524
144.670, 6337.101
145.152, 6537.919
145.634, 6737.297
146.116, 6945.782
146.598, 7152.596
147.080, 7342.152
147.562, 7508.440
148.044, 7649.235
148.527, 7747.375
149.009, 7783.134
149.491, 7807.937
149.973, 7838.964
150.455, 7871.500
150.937, 7892.649
151.419, 7894.489
151.901, 7878.251
152.383, 7855.069
152.866, 7819.210
153.348, 7783.622
153.830, 7754.072
154.312, 7729.748
154.794, 7706.152
155.276, 7678.999
155.758, 7650.346
156.240, 7634.741
156.723, 7635.750
157.205, 7644.922
157.687, 7657.086
158.169, 7672.745
158.651, 7697.181
159.133, 7737.726
159.615, 7791.330
160.097, 7831.819
160.579, 7838.130
161.062, 7847.901
161.544, 7889.634
162.026, 7962.150
162.508, 8044.665
162.990, 8128.273
163.472, 8209.713
163.954, 8275.121
164.436, 8314.930
164.919, 8344.178
165.401, 8372.934
165.883, 8401.648
166.365, 8430.544
166.847, 8460.380
167.329, 8490.561
167.811, 8518.000
168.293, 8539.475
168.775, 8559.910
169.258, 8589.679
169.740, 8630.410
170.222, 8658.635
170.704, 8652.073
171.186, 8617.771
171.668, 8580.421
172.150, 8532.777
172.632, 8489.800
173.115, 8475.745
173.597, 8495.652
174.079, 8510.860
174.561, 8486.599
175.043, 8434.830
175.525, 8387.250
176.007, 8345.958
176.489, 8314.143
176.971, 8298.479
177.454, 8301.403
177.936, 8308.095
178.418, 8308.294
178.900, 8304.126
179.382, 8300.024
179.864, 8292.060
180.346, 8286.658
180.828, 8297.024
181.311, 8327.626
181.793, 8354.707
182.275, 8351.195
182.757, 8331.280
183.239, 8322.498
183.721, 8342.968
184.203, 8375.320
184.685, 8392.141
185.167, 8389.466
185.650, 8385.510
186.132, 8389.648
186.614, 8401.275
187.096, 8421.822
187.578, 8463.969
188.060, 8510.523
188.542, 8532.166
189.024, 8522.711
189.507, 8509.826
189.989, 8510.531
190.471, 8520.270
190.953, 8533.222
191.435, 8554.238
191.917, 8574.458
192.399, 8574.015
192.881, 8544.624
193.363, 8525.112
193.846, 8552.997
194.328, 8605.435
194.810, 8648.389
195.292, 8668.174
195.774, 8674.671
196.256, 8681.772
196.738, 8689.610
197.220, 8697.960
197.702, 8707.534
198.185, 8717.482
198.667, 8725.991
199.149, 8727.562
199.631, 8731.082
200.113, 8754.295
200.595, 8803.183
201.077, 8846.386
201.559, 8853.600
202.042, 8830.198
202.524, 8872.530
203.006, 8898.906
203.488, 8910.185
203.970, 8861.140
204.452, 8889.988
204.934, 8887.621
205.416, 8883.974
205.898, 8923.784
206.381, 8883.515
206.863, 8922.637
207.345, 8930.067
207.827, 8930.151
208.309, 8902.073
208.791, 8872.146
209.273, 8861.458
209.755, 8861.152
210.238, 8860.066
210.720, 8853.035
211.202, 8849.368
211.684, 8864.718
212.166, 8901.030
212.648, 8927.866
213.130, 8925.078
213.612, 8908.003
214.094, 8895.651
214.577, 8891.964
215.059, 8890.843
215.541, 8884.116
216.023, 8871.779
216.505, 8868.203
216.987, 8887.813
217.469, 8913.923
217.951, 8924.509
218.434, 8913.627
218.916, 8898.899
219.398, 8896.403
219.880, 8905.038
220.362, 8909.415
220.844, 8905.412
221.326, 8893.196
221.808, 8873.311
222.290, 8843.999
222.773, 8814.016
223.255, 8787.426
223.737, 8764.438
224.219, 8746.505
224.701, 8734.755
225.183, 8727.720
225.665, 8721.874
226.147, 8716.502
226.629, 8715.907
227.112, 8729.441
227.594, 8750.979
228.076, 8757.571
228.558, 8737.694
229.040, 8709.783
229.522, 8695.854
230.004, 8695.544
230.486, 8700.140
230.969, 8706.970
231.451, 8715.833
231.933, 8727.937
232.415, 8745.833
232.897, 8761.428
233.379, 8764.566
233.861, 8756.616
234.343, 8743.831
234.825, 8721.223
235.307, 8697.009
235.790, 8686.457
236.272, 8694.015
236.754, 8705.042
237.236, 8701.207
237.718, 8684.695
238.200, 8678.752
238.682, 8700.245
239.165, 8728.660
239.647, 8736.710
240.129, 8720.785
240.611, 8704.295
241.093, 8707.972
241.575, 8730.722
242.057, 8752.307
242.539, 8776.870
243.021, 8796.043
243.503, 8797.133
243.986, 8781.492
244.468, 8770.794
244.950, 8781.621
245.432, 8812.869
245.914, 8840.873
246.396, 8865.262
246.878, 8886.890
247.361, 8904.692
247.843, 8919.662
248.325, 8935.910
248.807, 8956.648
249.289, 8980.324
249.771, 8999.221
250.253, 9014.248
250.735, 9024.239
251.217, 9020.711
251.699, 9011.452
252.182, 9015.725
252.664, 9044.797
253.146, 9089.389
253.628, 9118.841
254.110, 9121.076
254.592, 9125.679
255.074, 9137.056
255.556, 9154.031
256.039, 9176.975
256.521, 9206.447
257.003, 9237.105
257.485, 9258.503
257.967, 9265.781
258.449, 9270.437
258.931, 9285.696
259.413, 9298.381
259.896, 9308.630
260.378, 9309.146
260.860, 9322.230
261.342, 9330.280
261.824, 9338.121
262.306, 9352.974
262.788, 9354.906
263.270, 9369.647
263.752, 9379.276
264.235, 9391.246
264.717, 9397.101
265.199, 9420.703
265.681, 9440.363
266.163, 9456.921
266.645, 9464.329
267.127, 9474.786
267.609, 9500.615
268.091, 9535.302
268.574, 9559.755
269.056, 9556.326
269.538, 9525.894
270.020, 9512.748
270.502, 9534.433
270.984, 9557.032
271.466, 9575.132
271.948, 9588.981
272.431, 9599.097
272.913, 9604.908
273.395, 9608.892
273.877, 9621.522
274.359, 9650.491
274.841, 9676.190
275.323, 9699.369
275.805, 9715.687
276.288, 9718.944
276.770, 9719.316
277.252, 9730.426
277.734, 9738.928
278.216, 9744.965
278.698, 9741.149
279.180, 9750.057
279.662, 9753.864
280.144, 9757.463
280.626, 9768.160
281.109, 9765.777
281.591, 9776.362
282.073, 9780.823
282.555, 9775.279
283.037, 9744.544
283.519, 9707.246
284.001, 9671.434
284.483, 9638.770
284.966, 9614.712
285.448, 9610.343
285.930, 9619.955
286.412, 9617.235
286.894, 9599.501
287.376, 9569.865
287.858, 9528.908
288.340, 9478.547
288.823, 9423.995
289.305, 9361.552
289.787, 9298.299
290.269, 9245.908
290.751, 9205.420
291.233, 9171.777
291.715, 9146.599
292.197, 9125.934
292.679, 9100.295
293.162, 9066.838
293.644, 9029.698
294.126, 8986.899
294.608, 8940.491
295.090, 8908.236
295.572, 8904.801
296.054, 8915.861
296.536, 8903.863
297.018, 8852.973
297.501, 8809.751
297.983, 8796.097
298.465, 8802.297
298.947, 8810.550
299.429, 8815.505
299.911, 8818.123
300.393, 8820.124
300.875, 8822.202
301.358, 8821.199
301.840, 8813.308
302.322, 8803.956
302.804, 8797.201
303.286, 8784.941
303.768, 8784.608
304.250, 8781.380
304.732, 8775.411
305.215, 8758.499
305.697, 8755.720
306.179, 8747.276
306.661, 8738.601
307.143, 8737.810
307.625, 8722.488
308.107, 8721.572
308.589, 8714.907
309.071, 8706.908
309.553, 8702.604
310.036, 8703.050
310.518, 8709.622
311.000, 8718.410
311.482, 8724.814
311.964, 8726.774
312.446, 8725.247
312.928, 8721.496
313.410, 8710.982
313.893, 8707.938
314.375, 8726.392
314.857, 8743.929
315.339, 8738.252
315.821, 8706.920
316.303, 8673.835
316.785, 8671.598
317.267, 8704.716
317.750, 8722.471
318.232, 8707.811
318.714, 8689.384
319.196, 8680.865
319.678, 8681.824
320.160, 8687.534
320.642, 8695.821
321.124, 8706.519
321.606, 8718.875
322.089, 8732.710
322.571, 8748.518
323.053, 8761.813
323.535, 8777.732
324.017, 8807.237
324.499, 8862.604
324.981, 8922.524
325.463, 8962.707
325.945, 8984.006
326.428, 9003.120
326.910, 9024.540
327.392, 9050.104
327.874, 9084.368
328.356, 9134.338
328.838, 9175.823
329.320, 9194.886
329.802, 9198.540
330.284, 9198.835
330.767, 9198.263
331.249, 9199.401
331.731, 9206.043
332.213, 9219.264
332.695, 9234.134
333.177, 9251.024
333.659, 9269.121
334.142, 9290.366
334.624, 9313.501
335.106, 9331.604
335.588, 9338.906
336.070, 9335.457
336.552, 9328.123
337.034, 9309.247
337.516, 9295.583
337.998, 9295.010
338.480, 9302.620
338.963, 9309.512
339.445, 9311.024
339.927, 9310.912
340.409, 9320.461
340.891, 9351.664
341.373, 9371.721
341.855, 9369.104
342.337, 9361.442
342.819, 9363.787
343.302, 9378.415
343.784, 9394.869
344.266, 9397.707
344.748, 9383.627
345.230, 9384.900
345.712, 9407.460
346.194, 9441.709
346.677, 9492.698
347.159, 9552.099
347.641, 9598.124
348.123, 9604.271
348.605, 9592.944
349.087, 9625.688
349.569, 9716.371
350.051, 9801.439
350.533, 9831.013
351.016, 9840.985
351.498, 9879.030
351.980, 9950.271
352.462, 10055.880
352.944, 10108.112
353.426, 10176.579
353.908, 10241.109
354.390, 10301.922
354.872, 10347.823
355.355, 10412.964
355.837, 10470.393
356.319, 10527.505
356.801, 10595.353
357.283, 10643.437
357.765, 10710.060
358.247, 10789.150
358.729, 10860.100
359.211, 10893.130
359.694, 10885.840
360.176, 10904.080
360.658, 10971.960
361.140, 11035.640
361.622, 11079.170
362.104, 11103.170
362.586, 11110.370
363.069, 11101.870
363.551, 11079.910
364.033, 11051.260
364.515, 11020.060
364.997, 10973.700
365.479, 10896.040
365.961, 10814.930
366.443, 10752.800
366.925, 10712.270
367.408, 10680.190
367.890, 10645.810
368.372, 10609.330
368.854, 10561.770
369.336, 10493.940
369.818, 10425.750
370.300, 10364.400
370.782, 10309.850
371.264, 10262.180
371.747, 10223.390
372.229, 10189.880
372.711, 10156.050
373.193, 10121.860
373.675, 10087.550
374.157, 10049.130
374.639, 10013.750
375.121, 9992.716
375.603, 9990.570
376.086, 9989.308
376.568, 9979.190
377.050, 9963.368
377.532, 9946.583
378.014, 9929.049
378.496, 9916.451
378.978, 9916.681
379.460, 9932.566
379.943, 9943.648
380.425, 9948.294
380.907, 9949.312
381.389, 9937.055
381.871, 9920.989
382.353, 9926.499
382.835, 9967.016
383.317, 9999.038
383.799, 10023.016
384.282, 10014.870
384.764, 10048.206
385.246, 10064.917
385.728, 10080.947
386.210, 10120.126
386.692, 10132.080
387.174, 10168.020
387.656, 10199.920
388.138, 10228.380
388.621, 10248.540
389.103, 10246.800
389.585, 10251.200
390.067, 10269.710
390.549, 10303.540
391.031, 10356.130
391.513, 10440.300
391.996, 10534.720
392.478, 10591.680
392.960, 10604.610
393.442, 10631.480
393.924, 10703.970
394.406, 10799.310
394.888, 10881.710
395.370, 10946.710
395.852, 11010.020
396.335, 11079.520
396.817, 11152.600
397.299, 11218.960
397.781, 11274.870
398.263, 11344.430
398.745, 11459.490
399.227, 11627.290
399.709, 11759.830
400.191, 11822.790
400.674, 11884.090
401.156, 11971.500
401.638, 12084.530
402.120, 12221.170
402.602, 12382.140
403.084, 12555.490
403.566, 12704.000
404.048, 12794.680
404.530, 12917.070
405.013, 13082.870
405.495, 13273.620
405.977, 13478.250
406.459, 13694.140
406.941, 13920.960
407.423, 14161.930
407.905, 14416.820
408.387, 14670.020
408.870, 14914.200
409.352, 15170.130
409.834, 15455.880
410.316, 15757.880
410.798, 16047.370
411.280, 16303.450
411.762, 16571.340
412.244, 16919.279
412.727, 17331.939
413.209, 17701.900
413.691, 17991.869
414.173, 18234.949
414.655, 18472.359
415.137, 18702.500
415.619, 18933.439
416.101, 19186.650
416.583, 19425.510
417.065, 19615.020
417.548, 19755.340
418.030, 19868.529
418.512, 19974.551
418.994, 20064.850
419.476, 20084.881
419.958, 19976.090
420.440, 19866.180
420.922, 19790.561
421.405, 19708.830
421.887, 19576.650
422.369, 19384.340
422.851, 19157.900
423.333, 18930.641
423.815, 18703.689
424.297, 18454.699
424.779, 18172.939
425.262, 17882.330
425.744, 17586.619
426.226, 17291.680
426.708, 17008.891
427.190, 16748.650
427.672, 16496.900
428.154, 16231.190
428.636, 15953.000
429.118, 15693.400
429.601, 15462.730
430.083, 15256.470
430.565, 15067.630
431.047, 14896.090
431.529, 14737.040
432.011, 14597.680
432.493, 14465.830
432.975, 14331.800
433.457, 14193.980
433.940, 14047.130
434.422, 13884.200
434.904, 13709.640
435.386, 13566.350
435.868, 13468.120
436.350, 13383.690
436.832, 13327.990
437.314, 13275.160
437.797, 13195.500
438.279, 13082.670
438.761, 12959.530
439.243, 12853.440
439.725, 12767.420
440.207, 12672.740
440.689, 12558.230
441.171, 12448.760
441.654, 12355.060
442.136, 12273.760
442.618, 12198.450
443.100, 12129.380
443.582, 12061.120
444.064, 11989.660
444.546, 11914.140
445.028, 11827.400
445.510, 11720.680
445.992, 11611.860
446.475, 11529.310
446.957, 11474.130
447.439, 11421.520
447.921, 11375.340
448.403, 11324.160
448.885, 11250.400
449.367, 11160.740
449.849, 11081.430
450.332, 11031.330
450.814, 11002.930
451.296, 10964.780
451.778, 10903.450
452.260, 10852.510
452.742, 10822.550
453.224, 10798.590
453.706, 10765.640
454.189, 10723.720
454.671, 10687.360
455.153, 10672.350
455.635, 10676.200
456.117, 10679.010
456.599, 10680.980
457.081, 10681.420
457.563, 10674.150
458.045, 10666.730
458.528, 10670.830
459.010, 10690.910
459.492, 10716.300
459.974, 10743.140
460.456, 10769.510
460.938, 10786.180
461.420, 10789.300
461.902, 10800.310
462.384, 10846.240
462.867, 10932.990
463.349, 10995.600
463.831, 11023.410
464.313, 11040.920
464.795, 11050.440
465.277, 11058.640
465.759, 11073.890
466.241, 11099.770
466.724, 11136.240
467.206, 11188.660
467.688, 11268.610
468.170, 11322.450
468.652, 11316.670
469.134, 11311.570
469.616, 11349.090
470.098, 11411.710
470.581, 11447.700
471.063, 11419.890
471.545, 11363.160
472.027, 11330.320
472.509, 11320.110
472.991, 11300.160
473.473, 11253.120
473.955, 11197.350
474.437, 11168.430
474.919, 11174.170
475.402, 11156.730
475.884, 11086.380
476.366, 11003.310
476.848, 10942.610
477.330, 10901.290
477.812, 10856.810
478.294, 10795.610
478.776, 10717.760
479.259, 10620.090
479.741, 10461.850
480.223, 10355.130
480.705, 10352.990
481.187, 10366.700
481.669, 10323.370
482.151, 10224.260
482.633, 10129.110
483.116, 10094.440
483.598, 10098.220
484.080, 10064.820
484.562, 9984.324
485.044, 9914.761
485.526, 9890.614
486.008, 9890.738
486.490, 9875.343
486.972, 9840.317
487.455, 9800.394
487.937, 9754.661
488.419, 9709.924
488.901, 9673.455
489.383, 9646.620
489.865, 9632.028
490.347, 9635.188
490.829, 9652.458
491.311, 9645.810
491.794, 9588.579
492.276, 9539.239
492.758, 9507.486
493.240, 9484.829
493.722, 9463.856
494.204, 9442.745
494.686, 9422.301
495.168, 9404.076
495.651, 9387.515
496.133, 9367.275
496.615, 9340.391
497.097, 9317.716
497.579, 9308.679
498.061, 9306.712
498.543, 9301.614
499.025, 9296.236
499.508, 9279.332
499.990, 9225.148
500.472, 9163.642
500.954, 9150.905
501.436, 9192.896
501.918, 9234.311
502.400, 9221.818
502.882, 9157.366
503.364, 9119.094
503.846, 9130.322
504.329, 9141.010
504.811, 9147.420
505.293, 9147.563
505.775, 9135.399
506.257, 9111.314
506.739, 9090.795
507.221, 9092.827
507.703, 9114.282
508.186, 9132.532
508.668, 9149.549
509.150, 9156.312
509.632, 9139.367
510.114, 9110.638
510.596, 9092.964
511.078, 9089.999
511.560, 9094.300
512.042, 9113.684
512.525, 9133.846
513.007, 9127.166
513.489, 9091.630
513.971, 9057.982
514.453, 9055.650
514.935, 9082.725
515.417, 9093.619
515.899, 9064.667
516.382, 9048.830
516.864, 9068.852
517.346, 9096.783
517.828, 9102.419
518.310, 9081.237
518.792, 9056.690
519.274, 9049.742
519.756, 9057.008
520.239, 9065.890
520.721, 9077.463
521.203, 9084.350
521.685, 9081.150
522.167, 9070.672
522.649, 9060.479
523.131, 9050.193
523.613, 9040.940
524.096, 9032.901
524.578, 9026.134
525.060, 9019.454
525.542, 9013.532
526.024, 9013.428
526.506, 9024.852
526.988, 9043.969
527.470, 9046.261
527.952, 9017.036
528.435, 8996.160
528.917, 9002.109
529.399, 9009.418
529.881, 8993.592
530.363, 8955.173
530.845, 8921.051
531.327, 8909.967
531.809, 8915.014
532.291, 8928.298
532.774, 8949.896
533.256, 8958.442
533.738, 8938.450
534.220, 8906.079
534.702, 8896.473
535.184, 8918.376
535.666, 8936.454
536.148, 8912.688
536.630, 8949.818
537.113, 8972.166
537.595, 8980.527
538.077, 8933.007
538.559, 8957.646
539.041, 8953.366
539.523, 8947.900
540.005, 8982.695
540.487, 8943.303
540.969, 8977.458
541.452, 8982.256
541.934, 9000.489
542.416, 8989.626
542.898, 8987.751
543.380, 9014.980
543.862, 9026.094
544.344, 9011.883
544.826, 9030.971
545.309, 8990.562
545.791, 9002.362
546.273, 9036.688
546.755, 9023.938
547.237, 9017.304
547.719, 9039.311
548.201, 9056.425
548.683, 9065.248
549.166, 9061.957
549.648, 9050.581
550.130, 9034.374
550.612, 9014.358
551.094, 8997.135
551.576, 8990.407
552.058, 8993.343
552.540, 9000.856
553.023, 9012.823
553.505, 9028.785
553.987, 9054.093
554.469, 9082.349
554.951, 9092.726
555.433, 9073.354
555.915, 9054.447
556.397, 9042.056
556.879, 9036.852
557.362, 9038.610
557.844, 9047.960
558.326, 9069.596
558.808, 9111.314
559.290, 9165.236
559.772, 9188.766
560.254, 9166.918
560.736, 9148.607
561.218, 9150.329
561.701, 9155.727
562.183, 9149.173
562.665, 9131.867
563.147, 9124.907
563.629, 9151.932
564.111, 9184.862
564.593, 9187.976
565.075, 9166.053
565.557, 9144.333
566.040, 9132.408
566.522, 9128.044
567.004, 9128.782
567.486, 9139.347
567.968, 9139.355
568.450, 9120.456
568.932, 9101.247
569.414, 9087.605
569.896, 9079.285
570.379, 9073.069
570.861, 9067.189
571.343, 9070.189
571.825, 9099.757
572.307, 9149.584
572.789, 9184.341
573.271, 9199.762
573.753, 9200.211
574.236, 9181.145
574.718, 9149.574
575.200, 9137.081
575.682, 9161.766
576.164, 9178.706
576.646, 9167.673
577.128, 9151.064
577.610, 9152.536
578.093, 9171.714
578.575, 9191.439
579.057, 9198.301
579.539, 9196.783
580.021, 9204.149
580.503, 9224.629
580.985, 9236.040
581.467, 9226.836
581.950, 9212.468
582.432, 9204.592
582.914, 9203.454
583.396, 9211.210
583.878, 9238.974
584.360, 9266.165
584.842, 9279.835
585.324, 9281.014
585.806, 9270.469
586.289, 9248.795
586.771, 9223.379
587.253, 9202.157
587.735, 9184.336
588.217, 9180.876
588.699, 9207.813
589.181, 9226.961
589.663, 9222.233
590.145, 9206.655
590.628, 9194.882
591.110, 9189.833
591.592, 9185.479
592.074, 9174.635
592.556, 9163.549
593.038, 9169.466
593.520, 9189.969
594.002, 9192.872
594.484, 9157.806
594.967, 9101.661
595.449, 9063.580
595.931, 9048.940
596.413, 9042.352
596.895, 9056.256
597.377, 9064.913
597.859, 9047.875
598.341, 9017.208
598.823, 8999.162
599.306, 9006.939
599.788, 9020.319
600.270, 9011.476
600.752, 8987.380
601.234, 8983.025
601.716, 9007.372
602.198, 9022.772
602.680, 8993.930
603.162, 8931.520
603.645, 8902.976
604.127, 8947.200
604.609, 8969.150
605.091, 8935.656
605.573, 8892.041
606.055, 8879.048
606.537, 8893.333
607.019, 8903.874
607.502, 8888.718
607.984, 8860.637
608.466, 8847.511
608.948, 8849.523
609.430, 8841.230
609.912, 8811.710
610.394, 8779.695
610.876, 8761.250
611.359, 8756.908
611.841, 8765.596
612.323, 8816.604
612.805, 8846.194
613.287, 8806.189
613.769, 8745.723
614.251, 8730.880
614.733, 8768.434
615.216, 8805.875
615.698, 8792.650
616.180, 8742.959
616.662, 8718.579
617.144, 8679.626
617.626, 8724.063
618.108, 8748.259
618.590, 8753.300
619.072, 8681.816
619.555, 8709.148
620.037, 8696.880
620.519, 8682.987
621.001, 8724.227
621.483, 8663.873
621.965, 8704.238
622.447, 8704.399
622.929, 8722.960
623.411, 8693.446
623.894, 8695.749
624.376, 8719.439
624.858, 8722.193
625.340, 8693.219
625.822, 8673.607
626.304, 8683.927
626.786, 8709.253
627.268, 8732.228
627.750, 8753.801
628.233, 8763.570
628.715, 8752.387
629.197, 8734.223
629.679, 8716.867
630.161, 8701.115
630.643, 8685.387
631.125, 8669.366
631.607, 8658.855
632.089, 8662.964
632.572, 8682.205
633.054, 8707.740
633.536, 8752.769
634.018, 8775.626
634.500, 8739.618
634.982, 8679.226
635.464, 8640.499
635.946, 8627.678
636.429, 8625.389
636.911, 8636.669
637.393, 8649.849
637.875, 8650.771
638.357, 8645.126
638.839, 8652.256
639.321, 8680.590
639.803, 8712.911
640.286, 8720.263
640.768, 8699.864
641.250, 8684.275
641.732, 8673.345
642.214, 8668.047
642.696, 8675.972
643.178, 8686.939
643.660, 8684.455
644.143, 8663.718
644.625, 8645.813
645.107, 8636.184
645.589, 8633.673
646.071, 8641.686
646.553, 8655.914
647.035, 8665.965
647.517, 8667.127
647.999, 8662.642
648.482, 8657.106
648.964, 8650.603
649.446, 8643.288
649.928, 8633.831
650.410, 8626.275
650.892, 8618.097
651.374, 8615.219
651.856, 8630.184
652.338, 8670.680
652.821, 8703.104
653.303, 8717.611
653.785, 8720.129
654.267, 8711.222
654.749, 8694.732
655.231, 8676.758
655.713, 8651.106
656.195, 8685.002
656.677, 8704.443
