##NAMES=Hazenite
##RRUFFID=R100029
##IDEAL CHEMISTRY=KNaMg_2_(P^5+^O_4_)_2_&#183;14H_2_O
##LOCALITY=Mono Lake, California, USA
##OWNER=RRUFF
##SOURCE=Hexiong Yang
##DESCRIPTION=Sprays of colorless bladed crystals, co-type sample
##STATUS=The identification of this mineral is confirmed by single-crystal X-ray diffraction and chemical analysis.
##URL=rruff.info/R100029
91.53320, 373.3451
92.01532, 373.7625
92.49744, 372.9427
92.97955, 375.7649
93.46167, 378.0446
93.94379, 377.3024
94.42590, 376.0341
94.90802, 374.2524
95.39014, 371.0198
95.87225, 366.2134
96.35437, 360.8514
96.83649, 355.0461
97.31860, 349.4088
97.80072, 344.5647
98.28284, 340.4227
98.76495, 336.6370
99.24707, 333.4160
99.72919, 331.3671
100.2113, 329.3382
100.6934, 326.8508
101.1755, 324.0712
101.6577, 321.4134
102.1398, 319.1665
102.6219, 317.2666
103.1040, 316.0697
103.5861, 315.6428
104.0682, 315.5674
104.5504, 315.9192
105.0325, 316.5776
105.5146, 316.9487
105.9967, 316.0764
106.4788, 313.3156
106.9609, 310.8242
107.4431, 308.8500
107.9252, 307.1465
108.4073, 305.3307
108.8894, 303.1920
109.3715, 301.0768
109.8536, 299.7069
110.3358, 299.2295
110.8179, 298.6349
111.3000, 297.1842
111.7821, 294.9815
112.2642, 293.0451
112.7463, 291.7398
113.2285, 290.9418
113.7106, 290.6086
114.1927, 290.8474
114.6748, 291.2457
115.1569, 291.3530
115.6390, 291.3318
116.1212, 290.5143
116.6033, 288.0553
117.0854, 285.0616
117.5675, 282.7141
118.0496, 281.6843
118.5317, 281.5791
119.0139, 280.5064
119.4960, 276.6903
119.9781, 273.7701
120.4602, 272.6558
120.9423, 272.8863
121.4244, 273.6303
121.9066, 274.2821
122.3887, 274.8362
122.8708, 275.3741
123.3529, 276.2786
123.8350, 276.8554
124.3171, 276.5762
124.7993, 275.5169
125.2814, 274.3060
125.7635, 273.5281
126.2456, 273.2720
126.7277, 273.3029
127.2098, 273.7009
127.6920, 274.3458
128.1741, 275.2532
128.6562, 276.5003
129.1383, 277.6254
129.6204, 277.9805
130.1025, 277.6700
130.5847, 277.0814
131.0668, 276.3945
131.5489, 275.5585
132.0310, 274.3516
132.5131, 272.4451
132.9952, 270.4346
133.4774, 268.6979
133.9595, 267.2531
134.4416, 266.2492
134.9237, 266.0939
135.4058, 266.9910
135.8879, 267.3206
136.3701, 266.2484
136.8522, 264.8530
137.3343, 263.6354
137.8164, 262.7311
138.2985, 262.1196
138.7806, 261.8571
139.2628, 262.5070
139.7449, 262.4200
140.2270, 260.7622
140.7091, 258.7396
141.1912, 257.5034
141.6733, 257.5748
142.1555, 258.5377
142.6376, 258.9719
143.1197, 258.4697
143.6018, 257.8412
144.0839, 257.1042
144.5660, 256.2957
145.0482, 255.5193
145.5303, 254.8815
146.0124, 254.2859
146.4945, 252.9841
146.9766, 250.0143
147.4587, 247.4378
147.9409, 246.5052
148.4230, 246.9014
148.9051, 247.0905
149.3872, 245.8427
149.8693, 243.4396
150.3514, 241.8055
150.8336, 241.6868
151.3157, 241.9099
151.7978, 241.3967
152.2799, 240.0506
152.7620, 238.4791
153.2441, 236.8907
153.7263, 235.3964
154.2084, 234.2315
154.6905, 233.5964
155.1726, 233.3374
155.6547, 233.1643
156.1368, 233.2002
156.6190, 233.0847
157.1011, 232.5216
157.5832, 231.6891
158.0653, 230.9221
158.5474, 230.4175
159.0295, 230.1666
159.5117, 230.0857
159.9938, 230.7307
160.4759, 230.9624
160.9580, 230.0974
161.4401, 228.4268
161.9222, 226.7263
162.4044, 225.7060
162.8865, 225.4760
163.3686, 225.2698
163.8507, 225.1249
164.3328, 224.9679
164.8149, 224.7797
165.2971, 224.5510
165.7792, 224.2830
166.2613, 223.9880
166.7434, 223.7275
167.2255, 223.2221
167.7076, 222.1606
168.1898, 221.0990
168.6719, 220.5143
169.1540, 220.4733
169.6361, 220.5838
170.1182, 220.2469
170.6003, 219.0859
171.0825, 218.4816
171.5646, 218.9351
172.0467, 219.8084
172.5288, 220.3716
173.0109, 220.4044
173.4930, 220.1859
173.9752, 220.2360
174.4573, 220.6570
174.9394, 220.7258
175.4215, 219.8539
175.9036, 218.4782
176.3857, 217.6751
176.8679, 217.9910
177.3500, 218.5972
177.8321, 218.2825
178.3142, 216.9666
178.7963, 215.7384
179.2784, 215.4432
179.7606, 215.9396
180.2427, 216.0600
180.7248, 215.1178
181.2069, 214.0147
181.6890, 213.5852
182.1711, 213.9072
182.6533, 214.4395
183.1354, 214.7989
183.6175, 215.0227
184.0996, 214.7824
184.5817, 213.3151
185.0638, 211.7658
185.5460, 210.8182
186.0281, 210.6160
186.5102, 210.8188
186.9923, 211.0883
187.4744, 211.6899
187.9565, 211.5957
188.4387, 210.0363
188.9208, 208.2197
189.4029, 206.9954
189.8850, 206.6190
190.3671, 206.7894
190.8492, 206.9565
191.3314, 207.1718
191.8135, 207.2842
192.2956, 207.1114
192.7777, 206.9283
193.2598, 207.0426
193.7419, 207.5650
194.2241, 208.2818
194.7062, 208.6785
195.1883, 208.6078
195.6704, 208.3324
196.1525, 207.5018
196.6346, 206.5844
197.1168, 206.2575
197.5989, 206.8425
198.0810, 207.8975
198.5631, 208.1116
199.0452, 206.7456
199.5273, 205.5791
200.0095, 204.9016
200.4916, 204.6015
200.9737, 204.5432
201.4558, 204.7117
201.9379, 204.9966
202.4200, 205.0661
202.9022, 204.8227
203.3843, 204.5886
203.8664, 204.3551
204.3485, 204.2000
204.8306, 204.3714
205.3127, 205.0528
205.7949, 206.0549
206.2770, 206.9649
206.7591, 207.8691
207.2412, 208.5366
207.7233, 208.7559
208.2054, 208.5811
208.6876, 208.3096
209.1697, 207.9053
209.6518, 207.5983
210.1339, 207.6933
210.6160, 208.2700
211.0981, 209.0517
211.5803, 209.8425
212.0624, 210.6409
212.5445, 211.4945
213.0266, 212.4860
213.5087, 213.4919
213.9908, 214.3280
214.4730, 214.9152
214.9551, 215.5983
215.4372, 216.8863
215.9193, 218.9295
216.4014, 220.6743
216.8836, 221.4131
217.3657, 221.9722
217.8478, 222.9696
218.3299, 224.5559
218.8120, 226.2872
219.2941, 227.5122
219.7763, 228.0612
220.2584, 228.6519
220.7405, 229.3647
221.2226, 230.1910
221.7047, 231.1738
222.1868, 232.3164
222.6690, 233.5113
223.1511, 234.6006
223.6332, 235.6006
224.1153, 236.4512
224.5974, 237.0282
225.0795, 237.5542
225.5617, 238.2123
226.0438, 239.0466
226.5259, 239.9386
227.0080, 240.6198
227.4901, 240.6106
227.9722, 241.3281
228.4544, 243.6305
228.9365, 246.0792
229.4186, 247.3834
229.9007, 247.2433
230.3828, 246.4791
230.8649, 246.5551
231.3471, 248.5262
231.8292, 249.6324
232.3113, 249.1106
232.7934, 248.2446
233.2755, 248.3561
233.7576, 249.7258
234.2398, 251.2924
234.7219, 251.2683
235.2040, 248.5475
235.6861, 246.0249
236.1682, 243.7326
236.6503, 241.6112
237.1325, 239.8119
237.6146, 238.3447
238.0967, 236.7153
238.5788, 234.1337
239.0609, 230.0736
239.5430, 226.2287
240.0252, 222.4200
240.5073, 218.9787
240.9894, 216.4693
241.4715, 215.0080
241.9536, 213.8476
242.4357, 211.8987
242.9179, 208.8911
243.4000, 206.3432
243.8821, 204.6059
244.3642, 203.3079
244.8463, 202.1758
245.3284, 201.1687
245.8106, 200.0185
246.2927, 198.2124
246.7748, 195.6988
247.2569, 193.7769
247.7390, 192.8449
248.2211, 192.5091
248.7033, 192.4102
249.1854, 192.5312
249.6675, 192.6172
250.1496, 192.4717
250.6317, 192.0961
251.1138, 191.3607
251.5960, 189.6880
252.0781, 187.8676
252.5602, 187.0652
253.0423, 187.5296
253.5244, 188.1983
254.0065, 188.1451
254.4887, 187.5707
254.9708, 186.9656
255.4529, 186.3707
255.9350, 185.8455
256.4171, 185.3874
256.8992, 184.9257
257.3813, 184.8580
257.8635, 186.0815
258.3456, 187.8611
258.8277, 188.9000
259.3098, 188.3257
259.7919, 187.1053
260.2740, 186.6722
260.7562, 187.1893
261.2383, 187.7854
261.7204, 187.9240
262.2025, 187.8537
262.6846, 187.8405
263.1667, 187.8744
263.6489, 188.1010
264.1310, 188.9367
264.6131, 190.6272
265.0952, 191.8539
265.5773, 191.4797
266.0594, 190.5501
266.5416, 190.0140
267.0237, 190.1580
267.5058, 190.6838
267.9879, 191.0859
268.4700, 191.2099
268.9521, 191.9375
269.4343, 194.6040
269.9164, 197.4686
270.3985, 199.0388
270.8806, 198.8892
271.3627, 198.1274
271.8448, 198.1104
272.3270, 198.9753
272.8091, 199.8674
273.2912, 200.6499
273.7733, 201.3553
274.2554, 201.9237
274.7375, 202.3619
275.2197, 202.8834
275.7018, 203.8083
276.1839, 205.2171
276.6660, 206.4740
277.1481, 207.1113
277.6302, 207.8525
278.1124, 209.2168
278.5945, 211.1622
279.0766, 213.0829
279.5587, 214.3437
280.0408, 214.8778
280.5229, 215.3962
281.0051, 215.6637
281.4872, 216.1593
281.9693, 217.2294
282.4514, 218.7534
282.9335, 220.3176
283.4156, 221.6158
283.8978, 222.6486
284.3799, 223.3931
284.8620, 223.5583
285.3441, 223.7054
285.8262, 224.1247
286.3083, 224.6797
286.7905, 225.0467
287.2726, 224.9510
287.7547, 224.4489
288.2368, 224.0884
288.7189, 223.9487
289.2010, 223.8711
289.6832, 223.8028
290.1653, 223.7668
290.6474, 223.8400
291.1295, 224.1027
291.6116, 224.4476
292.0938, 224.4236
292.5759, 223.8293
293.0580, 223.1183
293.5401, 222.3770
294.0222, 221.5847
294.5043, 220.7058
294.9865, 219.7215
295.4686, 218.6756
295.9507, 217.7085
296.4328, 217.0619
296.9149, 216.0331
297.3970, 214.0009
297.8792, 211.9070
298.3613, 210.6825
298.8434, 210.5730
299.3255, 210.9668
299.8076, 210.9610
300.2897, 210.7847
300.7719, 209.5849
301.2540, 206.3704
301.7361, 202.9818
302.2182, 200.5002
302.7003, 199.1352
303.1824, 198.4508
303.6646, 198.0773
304.1467, 198.2943
304.6288, 197.7796
305.1109, 195.9956
305.5930, 193.9946
306.0751, 192.1748
306.5573, 190.5797
307.0394, 189.0777
307.5215, 187.4886
308.0036, 185.7569
308.4857, 184.6577
308.9678, 185.0247
309.4500, 185.2255
309.9321, 184.7093
310.4142, 183.6613
310.8963, 182.5011
311.3784, 181.4700
311.8605, 180.5881
312.3427, 180.0446
312.8248, 180.5623
313.3069, 180.5524
313.7890, 179.2287
314.2711, 177.3697
314.7532, 176.0275
315.2354, 175.7472
315.7175, 176.1298
316.1996, 176.0237
316.6817, 175.0586
317.1638, 174.1633
317.6459, 173.2800
318.1281, 172.5872
318.6102, 172.3492
319.0923, 172.6199
319.5744, 173.0745
320.0565, 173.1184
320.5386, 172.3922
321.0208, 172.0988
321.5029, 172.6568
321.9850, 173.3107
322.4671, 173.6179
322.9492, 173.5174
323.4313, 173.2011
323.9135, 172.8752
324.3956, 172.5630
324.8777, 172.1132
325.3598, 171.0262
325.8419, 170.2611
326.3240, 170.6110
326.8062, 171.6644
327.2883, 172.2507
327.7704, 171.2922
328.2525, 168.9257
328.7346, 167.5975
329.2167, 168.5340
329.6989, 169.1661
330.1810, 168.5788
330.6631, 167.3606
331.1452, 166.4794
331.6273, 166.5044
332.1094, 167.0385
332.5916, 166.7591
333.0737, 164.8551
333.5558, 163.5368
334.0379, 163.3269
334.5200, 163.7001
335.0021, 164.2584
335.4843, 164.8597
335.9664, 165.4448
336.4485, 165.9559
336.9306, 166.4779
337.4127, 166.6600
337.8948, 165.9316
338.3770, 165.2750
338.8591, 165.5207
339.3412, 166.5969
339.8233, 167.5634
340.3055, 167.2196
340.7876, 165.3530
341.2697, 164.3501
341.7518, 164.9861
342.2339, 165.7944
342.7160, 166.4220
343.1982, 166.7751
343.6803, 166.6987
344.1624, 165.8642
344.6445, 164.5520
345.1266, 164.2966
345.6087, 166.0069
346.0909, 167.2971
346.5730, 167.1702
347.0551, 166.3171
347.5372, 165.5776
348.0193, 165.2814
348.5014, 165.2666
348.9836, 165.3005
349.4657, 165.4679
349.9478, 165.3960
350.4299, 164.5011
350.9120, 163.6277
351.3941, 163.4817
351.8763, 164.1826
352.3584, 165.1618
352.8405, 165.8488
353.3226, 166.2371
353.8047, 166.6950
354.2868, 167.5845
354.7690, 168.1986
355.2511, 167.8990
355.7332, 166.8795
356.2153, 165.9830
356.6974, 165.7520
357.1795, 166.0822
357.6617, 166.6533
358.1438, 167.6739
358.6259, 168.4805
359.1080, 168.6083
359.5901, 168.3077
360.0722, 167.9451
360.5544, 167.6227
361.0365, 167.3269
361.5186, 166.8947
362.0007, 166.2489
362.4828, 166.1311
362.9649, 167.3289
363.4471, 168.9529
363.9292, 169.9951
364.4113, 170.2910
364.8934, 170.2921
365.3755, 170.3108
365.8576, 170.3263
366.3398, 170.1845
366.8219, 169.7194
367.3040, 169.2856
367.7861, 169.2657
368.2682, 169.6235
368.7503, 170.0881
369.2325, 170.7309
369.7146, 171.3623
370.1967, 171.5484
370.6788, 171.1738
371.1609, 170.8661
371.6430, 171.3424
372.1252, 172.2913
372.6073, 172.6553
373.0894, 171.4416
373.5715, 170.2791
374.0536, 170.8271
374.5357, 172.7762
375.0179, 174.2480
375.5000, 174.2031
375.9821, 173.2141
376.4642, 172.7132
376.9463, 173.0128
377.4284, 173.0284
377.9106, 171.9260
378.3927, 170.3735
378.8748, 169.5877
379.3569, 169.9307
379.8390, 170.7854
380.3211, 171.4528
380.8033, 171.9355
381.2854, 172.1446
381.7675, 172.1536
382.2496, 171.8279
382.7317, 170.7185
383.2138, 168.9789
383.6960, 167.6416
384.1781, 167.5507
384.6602, 168.6105
385.1423, 169.3481
385.6244, 169.9200
386.1065, 170.0703
386.5887, 169.4359
387.0708, 168.3707
387.5529, 167.4378
388.0350, 166.8800
388.5171, 166.6055
388.9992, 166.4128
389.4814, 166.3382
389.9635, 166.3029
390.4456, 166.4511
390.9277, 166.5447
391.4098, 166.2798
391.8919, 165.6820
392.3741, 165.1292
392.8562, 165.0307
393.3383, 165.4495
393.8204, 165.8522
394.3025, 166.3349
394.7846, 166.7068
395.2668, 166.9500
395.7489, 167.0299
396.2310, 166.8563
396.7131, 166.3518
397.1952, 165.6430
397.6773, 165.1416
398.1595, 164.7129
398.6416, 164.7627
399.1237, 165.7511
399.6058, 166.9265
400.0879, 167.6019
400.5700, 167.6398
401.0522, 167.4727
401.5343, 167.6335
402.0164, 168.1830
402.4985, 168.6985
402.9806, 169.2240
403.4627, 169.6491
403.9449, 169.8446
404.4270, 169.8935
404.9091, 169.9951
405.3912, 170.2415
405.8733, 170.6453
406.3554, 171.3001
406.8376, 172.3659
407.3197, 173.2919
407.8018, 173.6895
408.2839, 173.9161
408.7660, 174.3969
409.2481, 175.3014
409.7303, 176.1142
410.2124, 176.0491
410.6945, 175.1996
411.1766, 175.1045
411.6587, 176.5584
412.1408, 178.2674
412.6230, 178.9408
413.1051, 178.7113
413.5872, 178.5245
414.0693, 178.8221
414.5514, 179.3902
415.0335, 179.9884
415.5157, 180.6311
415.9978, 180.9746
416.4799, 180.5910
416.9620, 179.7613
417.4441, 179.3588
417.9262, 179.4454
418.4084, 179.9225
418.8905, 181.1238
419.3726, 182.6873
419.8547, 183.6099
420.3368, 183.4845
420.8189, 182.8055
421.3011, 182.3234
421.7832, 182.0738
422.2653, 181.8596
422.7474, 181.4097
423.2295, 181.1578
423.7116, 181.8013
424.1938, 183.2034
424.6759, 184.2050
425.1580, 183.7764
425.6401, 182.0379
426.1222, 181.2399
426.6043, 182.1723
427.0865, 182.9700
427.5686, 183.3057
428.0507, 183.1874
428.5328, 182.4881
429.0149, 181.1794
429.4970, 179.7470
429.9792, 179.0768
430.4613, 179.6375
430.9434, 179.9508
431.4255, 179.9136
431.9076, 179.7686
432.3897, 179.6949
432.8719, 179.6498
433.3540, 179.4340
433.8361, 178.8488
434.3182, 177.9679
434.8003, 177.3333
435.2824, 177.1698
435.7646, 176.9170
436.2467, 176.3273
436.7288, 175.6423
437.2109, 175.2100
437.6930, 175.1449
438.1751, 175.0147
438.6573, 174.0418
439.1394, 172.1172
439.6215, 170.9469
440.1036, 171.3783
440.5857, 171.9368
441.0678, 171.6725
441.5500, 170.7104
442.0321, 169.5943
442.5142, 168.4297
442.9963, 167.3477
443.4784, 166.6496
443.9605, 166.3863
444.4427, 166.1044
444.9248, 165.5288
445.4069, 164.8233
445.8890, 164.3217
446.3711, 164.1612
446.8532, 163.8537
447.3354, 162.8443
447.8175, 161.5276
448.2996, 160.9184
448.7817, 161.3405
449.2638, 161.8402
449.7459, 161.2412
450.2281, 159.4564
450.7102, 158.3643
451.1923, 158.7039
451.6744, 159.1577
452.1565, 158.8569
452.6386, 157.9639
453.1208, 157.0336
453.6029, 156.3193
454.0850, 155.8587
454.5671, 155.7649
455.0492, 156.6819
455.5313, 157.0795
456.0135, 156.7189
456.4956, 155.9839
456.9777, 154.9557
457.4598, 153.7863
457.9419, 152.9407
458.4240, 152.9819
458.9062, 153.9335
459.3883, 154.0517
459.8704, 151.9551
460.3525, 150.5797
460.8346, 151.1351
461.3167, 152.5564
461.7989, 153.4665
462.2810, 153.3391
462.7631, 152.7185
463.2452, 152.4698
463.7273, 152.6918
464.2094, 152.6789
464.6916, 151.9553
465.1737, 151.3489
465.6558, 151.6065
466.1379, 152.4566
466.6200, 152.8794
467.1021, 151.9845
467.5843, 150.4504
468.0664, 149.6649
468.5485, 149.7043
469.0306, 149.9407
469.5127, 150.2763
469.9948, 150.5357
470.4770, 150.4275
470.9591, 149.8494
471.4412, 149.2575
471.9233, 148.8053
472.4054, 148.5118
472.8875, 148.5002
473.3697, 148.8126
473.8518, 149.0891
474.3339, 148.9715
474.8160, 148.4599
475.2981, 148.0929
475.7802, 147.9603
476.2624, 147.8736
476.7445, 147.6914
477.2266, 147.5018
477.7087, 147.4833
478.1908, 147.7068
478.6729, 148.0965
479.1551, 148.5482
479.6372, 149.2707
480.1193, 149.5300
480.6014, 149.2045
481.0835, 148.5930
481.5656, 147.5405
482.0478, 146.3280
482.5299, 145.6246
483.0120, 145.9406
483.4941, 146.9611
483.9762, 147.4978
484.4583, 147.4272
484.9405, 147.1052
485.4226, 146.3144
485.9047, 145.5160
486.3868, 145.1537
486.8689, 145.2484
487.3510, 145.3555
487.8332, 145.0072
488.3153, 144.3280
488.7974, 143.9318
489.2795, 143.9008
489.7616, 144.0071
490.2437, 144.2923
490.7259, 144.5834
491.2080, 144.5503
491.6901, 143.9375
492.1722, 143.3821
492.6543, 143.5303
493.1364, 144.1123
493.6186, 144.2887
494.1007, 143.7847
494.5828, 143.0971
495.0649, 142.8061
495.5470, 142.9604
496.0291, 142.9901
496.5113, 142.6683
496.9934, 142.4121
497.4755, 142.6274
497.9576, 143.1033
498.4397, 143.2317
498.9218, 142.6950
499.4040, 141.9017
499.8861, 141.8311
500.3682, 143.4196
500.8503, 143.9767
501.3324, 142.5018
501.8145, 140.9740
502.2967, 140.7493
502.7788, 141.6077
503.2609, 142.4480
503.7430, 142.4871
504.2251, 141.9427
504.7072, 141.6726
505.1894, 141.8134
505.6715, 141.9142
506.1536, 141.6749
506.6357, 141.4722
507.1178, 141.7359
507.5999, 142.4812
508.0821, 143.0866
508.5642, 143.0469
509.0463, 142.5161
509.5284, 141.8587
510.0105, 141.0226
510.4926, 140.3857
510.9748, 140.1783
511.4569, 140.3578
511.9390, 140.8326
512.4211, 141.9002
512.9032, 142.7030
513.3853, 142.6987
513.8674, 142.1795
514.3495, 141.4927
514.8317, 140.7142
515.3138, 140.2644
515.7959, 140.6880
516.2780, 142.0875
516.7601, 142.7708
517.2422, 142.0699
517.7244, 141.5254
518.2065, 141.7602
518.6886, 142.4400
519.1707, 143.1407
519.6528, 143.6906
520.1349, 144.0121
520.6171, 143.8755
521.0992, 143.0482
521.5813, 142.7169
522.0634, 143.3293
522.5455, 144.0212
523.0276, 144.5793
523.5098, 144.9793
523.9919, 145.1588
524.4740, 145.0111
524.9561, 144.8635
525.4382, 145.2259
525.9203, 146.1038
526.4025, 147.1123
526.8846, 148.3238
527.3667, 149.4126
527.8488, 150.0062
528.3309, 150.1749
528.8130, 150.3683
529.2952, 150.8105
529.7773, 151.2604
530.2594, 151.2971
530.7415, 151.0799
531.2236, 151.4216
531.7057, 152.7843
532.1879, 154.5919
532.6700, 155.6955
533.1521, 155.5468
533.6342, 155.9647
534.1163, 157.5350
534.5984, 159.2054
535.0806, 160.3109
535.5627, 160.9076
536.0448, 161.3384
536.5269, 161.8009
537.0090, 162.2881
537.4911, 162.7274
537.9733, 162.9061
538.4554, 163.5292
538.9375, 165.2195
539.4196, 166.9111
539.9017, 167.7951
540.3839, 168.0118
540.8660, 168.4114
541.3481, 169.7920
541.8302, 171.5847
542.3123, 172.3745
542.7944, 172.0312
543.2766, 171.8282
543.7587, 172.2696
544.2408, 173.1124
544.7229, 174.0613
545.2050, 175.1606
545.6871, 176.0010
546.1693, 176.1273
546.6514, 176.1162
547.1335, 176.7961
547.6156, 178.0709
548.0977, 178.9929
548.5798, 178.9273
549.0620, 178.1819
549.5441, 177.7982
550.0262, 177.7904
550.5083, 178.1673
550.9904, 179.7097
551.4725, 181.0441
551.9547, 180.8655
552.4368, 179.4025
552.9189, 177.9240
553.4010, 177.3856
553.8831, 177.5577
554.3652, 177.5635
554.8474, 177.4214
555.3295, 177.0679
555.8116, 176.3926
556.2937, 175.5600
556.7758, 174.6147
557.2579, 173.5878
557.7401, 172.6358
558.2222, 171.9252
558.7043, 171.3229
559.1864, 170.5121
559.6685, 169.4881
560.1506, 168.6528
560.6328, 168.2172
561.1149, 168.0794
561.5970, 168.1226
562.0791, 168.5698
562.5612, 168.4806
563.0433, 167.1973
563.5255, 165.6741
564.0076, 164.7760
564.4897, 164.4279
564.9718, 163.9624
565.4539, 162.9312
565.9360, 161.5431
566.4182, 160.5298
566.9003, 160.1593
567.3824, 159.6517
567.8645, 158.7415
568.3466, 157.8723
568.8287, 157.4859
569.3109, 157.4289
569.7930, 157.1046
570.2751, 156.0289
570.7572, 154.5680
571.2393, 153.5265
571.7214, 152.9436
572.2036, 152.3314
572.6857, 151.5099
573.1678, 150.6338
573.6499, 149.8851
574.1320, 149.2618
574.6141, 148.6425
575.0963, 148.0532
575.5784, 147.4099
576.0605, 146.6418
576.5426, 145.7577
577.0247, 144.7845
577.5068, 143.7359
577.9890, 142.6156
578.4711, 141.4096
578.9532, 139.9833
579.4353, 138.8294
579.9174, 138.1834
580.3995, 137.5386
580.8817, 136.5623
581.3638, 135.4240
581.8459, 134.4505
582.3280, 133.7892
582.8101, 133.4068
583.2922, 133.4148
583.7744, 133.8746
584.2565, 133.7326
584.7386, 132.3403
585.2207, 131.0454
585.7029, 131.0432
586.1850, 131.8638
586.6671, 132.3059
587.1492, 131.8928
587.6313, 131.2776
588.1135, 131.0046
588.5956, 130.8839
589.0777, 130.3379
