##NAMES=Hazenite
##RRUFFID=R100029
##IDEAL CHEMISTRY=KNaMg_2_(P^5+^O_4_)_2_&#183;14H_2_O
##LOCALITY=Mono Lake, California, USA
##OWNER=RRUFF
##SOURCE=Hexiong Yang
##DESCRIPTION=Sprays of colorless bladed crystals, co-type sample
##STATUS=The identification of this mineral is confirmed by single-crystal X-ray diffraction and chemical analysis.
##URL=rruff.info/R100029
90.49219, 14.70119
90.97430, 15.24649
91.45642, 15.44089
91.93854, 15.01601
92.42065, 14.31754
92.90277, 13.81326
93.38489, 13.52015
93.86700, 13.45228
94.34912, 13.84944
94.83124, 14.60872
95.31335, 15.12319
95.79547, 14.77703
96.27759, 13.80833
96.75970, 13.19038
97.24182, 13.09171
97.72394, 13.36589
98.20605, 13.81798
98.68817, 14.48683
99.17029, 15.02566
99.65240, 15.06735
100.1345, 14.56926
100.6166, 14.22711
101.0988, 14.27548
101.5809, 14.63081
102.0630, 14.47476
102.5451, 13.53405
103.0272, 12.56500
103.5093, 12.54064
103.9915, 13.93715
104.4736, 15.04150
104.9557, 15.31884
105.4378, 14.59707
105.9199, 13.99753
106.4020, 13.47535
106.8842, 13.09365
107.3663, 12.97311
107.8484, 13.33779
108.3305, 13.70619
108.8126, 13.92271
109.2947, 13.99028
109.7769, 13.89954
110.2590, 13.47166
110.7411, 12.85296
111.2232, 12.50954
111.7053, 12.76718
112.1874, 13.07761
112.6696, 13.19315
113.1517, 12.61416
113.6338, 12.35188
114.1159, 12.84545
114.5980, 13.94426
115.0801, 14.57882
115.5623, 13.91481
116.0444, 12.96678
116.5265, 12.52069
117.0086, 13.61078
117.4907, 14.50559
117.9728, 14.33432
118.4550, 13.03979
118.9371, 11.93567
119.4192, 11.57357
119.9013, 11.74371
120.3834, 12.18650
120.8655, 13.11209
121.3477, 14.07481
121.8298, 14.80028
122.3119, 15.28630
122.7940, 15.44710
123.2761, 14.89559
123.7582, 13.94400
124.2404, 13.28759
124.7225, 13.45181
125.2046, 14.06556
125.6867, 14.66652
126.1688, 15.16459
126.6509, 15.70140
127.1331, 16.42854
127.6152, 17.33117
128.0973, 18.33549
128.5794, 19.51583
129.0615, 20.76401
129.5436, 21.75954
130.0258, 22.23915
130.5079, 22.64766
130.9900, 23.86273
131.4721, 25.87335
131.9542, 28.15647
132.4363, 30.29587
132.9185, 32.31535
133.4006, 34.33888
133.8827, 36.20544
134.3648, 38.11811
134.8469, 41.03384
135.3290, 45.05287
135.8112, 49.65553
136.2933, 54.10774
136.7754, 58.38200
137.2575, 63.24587
137.7396, 69.28619
138.2217, 76.35397
138.7039, 82.62528
139.1860, 87.80161
139.6681, 92.66686
140.1502, 98.75647
140.6323, 106.4865
141.1144, 113.8551
141.5966, 120.0443
142.0787, 124.7831
142.5608, 129.3772
143.0429, 133.8019
143.5250, 138.0866
144.0071, 142.2050
144.4893, 145.8643
144.9714, 149.7763
145.4535, 154.1805
145.9356, 159.0898
146.4177, 164.5730
146.8998, 170.7664
147.3820, 177.5603
147.8641, 184.7991
148.3462, 192.5755
148.8283, 200.6171
149.3104, 208.8611
149.7925, 217.0071
150.2747, 225.7048
150.7568, 235.3399
151.2389, 245.7716
151.7210, 255.2357
152.2031, 262.7249
152.6852, 269.7667
153.1674, 277.3934
153.6495, 286.8537
154.1316, 295.5648
154.6137, 303.0846
155.0958, 309.3935
155.5779, 315.2091
156.0601, 320.3446
156.5422, 325.1566
157.0243, 329.8880
157.5064, 334.3864
157.9885, 338.9940
158.4706, 343.7470
158.9528, 348.6279
159.4349, 353.8549
159.9170, 359.7676
160.3991, 365.9724
160.8812, 372.0140
161.3633, 377.2520
161.8455, 382.7073
162.3276, 388.8714
162.8097, 395.7728
163.2918, 403.0609
163.7739, 410.8603
164.2560, 418.4180
164.7382, 422.6328
165.2203, 425.0496
165.7024, 427.4790
166.1845, 430.3627
166.6666, 433.6734
167.1487, 437.7170
167.6309, 443.4291
168.1130, 450.0600
168.5951, 455.9196
169.0772, 460.0095
169.5593, 463.1931
170.0414, 466.1432
170.5236, 468.9200
171.0057, 471.6447
171.4878, 474.7618
171.9699, 478.0200
172.4520, 480.5826
172.9341, 481.2632
173.4163, 481.2841
173.8984, 482.0526
174.3805, 483.8996
174.8626, 486.5014
175.3447, 490.2607
175.8268, 494.8357
176.3090, 498.6413
176.7911, 499.5490
177.2732, 499.1384
177.7553, 500.0939
178.2374, 503.8672
178.7195, 508.4109
179.2017, 511.1862
179.6838, 512.3217
180.1659, 512.7236
180.6480, 512.4380
181.1301, 511.9409
181.6122, 512.4128
182.0944, 514.6603
182.5765, 517.7015
183.0586, 520.0837
183.5407, 521.7739
184.0228, 522.8916
184.5049, 523.1171
184.9871, 522.7321
185.4692, 522.7661
185.9513, 523.8178
186.4334, 525.3922
186.9155, 526.2194
187.3976, 526.2341
187.8798, 526.2238
188.3619, 527.2778
188.8440, 529.1933
189.3261, 530.5692
189.8082, 530.6594
190.2903, 529.8619
190.7725, 529.5593
191.2546, 529.7595
191.7367, 530.3854
192.2188, 531.4722
192.7009, 533.0054
193.1830, 534.5718
193.6652, 536.1560
194.1473, 537.6989
194.6294, 538.6058
195.1115, 538.7409
195.5936, 538.6949
196.0757, 539.2391
196.5579, 540.3856
197.0400, 541.7397
197.5221, 543.3817
198.0042, 545.2490
198.4863, 546.2664
198.9684, 546.2168
199.4506, 545.7963
199.9327, 546.0753
200.4148, 547.1241
200.8969, 548.2170
201.3790, 549.2186
201.8611, 550.1396
202.3433, 550.2524
202.8254, 549.2380
203.3075, 547.9050
203.7896, 547.7853
204.2717, 549.1085
204.7538, 550.4061
205.2360, 551.0281
205.7181, 550.9004
206.2002, 550.7330
206.6823, 550.5258
207.1644, 550.2744
207.6465, 549.9058
208.1287, 549.3359
208.6108, 548.9679
209.0929, 548.9746
209.5750, 549.3797
210.0571, 550.1554
210.5392, 551.5056
211.0214, 553.0694
211.5035, 554.1382
211.9856, 554.7200
212.4677, 554.8062
212.9498, 554.1886
213.4319, 552.5481
213.9141, 551.6256
214.3962, 551.6122
214.8783, 552.2048
215.3604, 552.7239
215.8425, 553.1469
216.3246, 553.5336
216.8067, 553.8138
217.2889, 553.7707
217.7710, 554.4506
218.2531, 556.4483
218.7352, 558.8608
219.2173, 559.2177
219.6994, 556.1202
220.1816, 553.6248
220.6637, 553.8527
221.1458, 558.2087
221.6279, 561.2322
222.1100, 562.5875
222.5921, 562.7006
223.0743, 562.5821
223.5564, 561.9383
224.0385, 561.6122
224.5206, 562.1234
225.0027, 564.0027
225.4848, 565.3180
225.9670, 565.8499
226.4491, 565.8656
226.9312, 566.0533
227.4133, 566.4672
227.8954, 566.9614
228.3775, 567.4222
228.8597, 567.7041
229.3418, 568.2879
229.8239, 569.1542
230.3060, 570.3077
230.7881, 571.8348
231.2702, 574.1567
231.7524, 576.2034
232.2345, 577.4128
232.7166, 577.3845
233.1987, 577.4919
233.6808, 577.9058
234.1629, 578.4169
234.6451, 578.4488
235.1272, 577.8262
235.6093, 577.0123
236.0914, 576.1584
236.5735, 575.0673
237.0556, 574.5039
237.5378, 574.9372
238.0199, 575.7883
238.5020, 575.4842
238.9841, 573.2931
239.4662, 571.0464
239.9483, 569.5625
240.4305, 569.3162
240.9126, 568.7356
241.3947, 567.6996
241.8768, 566.3556
242.3589, 565.0641
242.8410, 563.8329
243.3232, 562.6159
243.8053, 561.3107
244.2874, 559.5275
244.7695, 558.6295
245.2516, 558.9985
245.7337, 560.0925
246.2159, 560.7247
246.6980, 560.8127
247.1801, 560.5770
247.6622, 560.0413
248.1443, 559.0159
248.6264, 558.2490
249.1086, 557.8309
249.5907, 557.6290
250.0728, 557.3213
250.5549, 556.6617
251.0370, 556.3122
251.5191, 556.6496
252.0013, 558.0485
252.4834, 558.7868
252.9655, 558.4606
253.4476, 557.6960
253.9297, 557.6832
254.4118, 558.6992
254.8940, 559.9387
255.3761, 561.2838
255.8582, 563.0081
256.3403, 563.6523
256.8224, 562.7616
257.3046, 561.1487
257.7867, 559.9511
258.2688, 554.5904
258.7509, 560.2908
259.2330, 563.8072
259.7151, 565.2567
260.1973, 558.4495
260.6794, 562.3043
261.1615, 561.8862
261.6436, 561.2928
262.1257, 566.6482
262.6078, 561.0417
263.0900, 566.3030
263.5721, 567.2260
264.0542, 570.1343
264.5363, 568.7434
265.0184, 565.1636
265.5005, 565.1134
265.9827, 568.7558
266.4648, 571.9371
266.9469, 573.2637
267.4290, 572.6738
267.9111, 572.8372
268.3932, 573.9684
268.8754, 575.5132
269.3575, 576.9305
269.8396, 578.2975
270.3217, 579.2769
270.8038, 579.6008
271.2859, 579.3367
271.7681, 579.8078
272.2502, 581.2593
272.7323, 582.9446
273.2144, 583.9456
273.6965, 584.0679
274.1786, 584.6010
274.6608, 585.9017
275.1429, 587.8719
275.6250, 589.8244
276.1071, 591.7216
276.5892, 593.7079
277.0714, 596.0306
277.5535, 598.7999
278.0356, 600.9744
278.5177, 602.1472
278.9998, 602.6390
279.4819, 603.7696
279.9641, 605.6280
280.4462, 607.8264
280.9283, 610.0019
281.4104, 612.1224
281.8925, 614.8643
282.3746, 618.6351
282.8568, 622.8632
283.3389, 625.6670
283.8210, 626.8573
284.3031, 628.0587
284.7852, 630.6575
285.2673, 634.5245
285.7495, 637.8649
286.2316, 640.4303
286.7137, 642.3757
287.1958, 643.8976
287.6779, 644.9758
288.1600, 645.9808
288.6422, 647.2144
289.1243, 648.6201
289.6064, 649.6707
290.0885, 650.2391
290.5706, 650.6915
291.0527, 651.8240
291.5349, 653.5764
292.0170, 654.9876
292.4991, 655.7627
292.9812, 655.8148
293.4633, 654.4766
293.9454, 651.4664
294.4276, 648.1234
294.9097, 646.5118
295.3918, 646.2970
295.8739, 645.7442
296.3560, 643.7076
296.8381, 640.7589
297.3203, 638.2255
297.8024, 636.1454
298.2845, 634.4063
298.7666, 633.2357
299.2487, 632.3871
299.7308, 631.0739
300.2130, 628.6712
300.6951, 625.7167
301.1772, 623.1270
301.6593, 620.9159
302.1414, 618.6092
302.6235, 615.4999
303.1057, 612.0291
303.5878, 609.1719
304.0699, 607.5311
304.5520, 606.4107
305.0341, 605.0361
305.5162, 603.4417
305.9984, 601.8433
306.4805, 600.4128
306.9626, 599.0768
307.4447, 597.7679
307.9268, 596.4799
308.4089, 595.1539
308.8911, 593.5716
309.3732, 591.8361
309.8553, 590.3882
310.3374, 589.6971
310.8195, 589.3154
311.3016, 588.7839
311.7838, 587.8964
312.2659, 587.0866
312.7480, 586.8409
313.2301, 586.9258
313.7122, 586.7490
314.1943, 581.5697
314.6765, 586.3653
315.1586, 588.9768
315.6407, 589.5215
316.1228, 581.8094
316.6049, 584.7593
317.0870, 583.4363
317.5692, 581.9382
318.0513, 586.3887
318.5334, 579.8775
319.0155, 584.2338
319.4976, 584.2520
319.9797, 586.2556
320.4619, 583.9598
320.9440, 582.9921
321.4261, 586.3250
321.9082, 587.2766
322.3903, 584.4860
322.8724, 586.6158
323.3546, 579.9544
323.8367, 581.0074
324.3188, 585.3889
324.8009, 583.1259
325.2830, 583.9677
325.7651, 582.8525
326.2473, 582.1780
326.7294, 582.6237
327.2115, 584.0131
327.6936, 584.8771
328.1757, 584.6771
328.6578, 584.2687
329.1400, 584.0779
329.6221, 584.4942
330.1042, 584.6010
330.5863, 584.3475
331.0684, 583.7677
331.5505, 582.9431
332.0327, 581.3817
332.5148, 580.1234
332.9969, 579.5895
333.4790, 579.9812
333.9611, 580.5652
334.4432, 581.4939
334.9254, 582.5222
335.4075, 583.1384
335.8896, 582.9447
336.3717, 583.1953
336.8538, 584.6641
337.3359, 587.6473
337.8180, 588.5359
338.3001, 586.4665
338.7823, 583.6386
339.2644, 582.7798
339.7465, 584.4279
340.2286, 585.6365
340.7107, 585.4987
341.1928, 584.2796
341.6750, 583.9678
342.1571, 584.7530
342.6392, 585.6976
343.1213, 585.9675
343.6034, 585.5446
344.0855, 585.1826
344.5677, 584.9440
345.0498, 584.8914
345.5319, 585.4069
346.0140, 586.5217
346.4961, 587.3348
346.9782, 586.9537
347.4604, 585.6773
347.9425, 584.9288
348.4246, 584.8363
348.9067, 585.3151
349.3888, 586.6935
349.8709, 588.7513
350.3531, 590.2303
350.8352, 590.1940
351.3173, 589.2257
351.7994, 588.1977
352.2815, 587.0952
352.7636, 586.5528
353.2458, 587.6451
353.7279, 589.7502
354.2100, 591.5275
354.6921, 592.3673
355.1742, 592.6899
355.6563, 592.8867
356.1385, 592.9503
356.6206, 592.8655
357.1027, 592.1389
357.5848, 591.4303
358.0669, 591.5720
358.5490, 593.2424
359.0312, 595.1145
359.5133, 596.7191
359.9954, 597.9156
360.4775, 598.3104
360.9596, 596.8164
361.4417, 595.0370
361.9239, 594.0748
362.4060, 594.2765
362.8881, 594.7766
363.3702, 595.2742
363.8523, 595.8608
364.3344, 596.6777
364.8166, 598.3046
365.2987, 599.6984
365.7808, 600.4109
366.2629, 600.3848
366.7450, 600.1332
367.2271, 599.4170
367.7093, 598.6779
368.1914, 598.3054
368.6735, 598.7520
369.1556, 599.1151
369.6377, 599.1416
370.1198, 598.9019
370.6020, 599.0317
371.0841, 599.9512
371.5662, 600.8521
372.0483, 601.2421
372.5304, 600.5371
373.0125, 600.4755
373.4947, 601.5372
373.9768, 603.1005
374.4589, 603.6063
374.9410, 602.4930
375.4231, 601.4703
375.9052, 601.1914
376.3874, 601.7352
376.8695, 602.5045
377.3516, 603.6900
377.8337, 604.7973
378.3158, 605.0338
378.7979, 604.2294
379.2801, 603.8695
379.7622, 604.4474
380.2443, 605.7732
380.7264, 607.2932
381.2085, 609.1125
381.6906, 610.2877
382.1728, 609.4683
382.6549, 607.0299
383.1370, 605.4470
383.6191, 605.2145
384.1012, 605.8478
384.5833, 606.7443
385.0655, 607.8691
385.5476, 608.9513
386.0297, 610.2574
386.5118, 611.3337
386.9939, 610.9929
387.4760, 608.9147
387.9582, 607.0160
388.4403, 607.2934
388.9224, 609.0787
389.4045, 610.9608
389.8866, 613.0569
390.3687, 614.5349
390.8509, 614.0615
391.3330, 611.8464
391.8151, 610.1979
392.2972, 611.2881
392.7793, 613.2439
393.2614, 614.2253
393.7436, 613.0783
394.2257, 611.8381
394.7078, 611.2380
395.1899, 611.1891
395.6720, 611.4572
396.1541, 612.1977
396.6363, 613.0646
397.1184, 613.7421
397.6005, 613.8375
398.0826, 614.9025
398.5647, 618.6116
399.0468, 622.9281
399.5290, 625.3835
400.0111, 623.8193
400.4932, 622.5272
400.9753, 622.2698
401.4574, 623.0449
401.9395, 623.8828
402.4217, 624.7413
402.9038, 625.7033
403.3859, 626.8280
403.8680, 628.1494
404.3501, 629.5795
404.8322, 631.2500
405.3144, 632.9480
405.7965, 633.8641
406.2786, 633.6212
406.7607, 633.8632
407.2428, 635.5818
407.7249, 638.8477
408.2071, 641.5301
408.6892, 643.6391
409.1713, 645.1830
409.6534, 645.9948
410.1355, 646.1052
410.6176, 646.1473
411.0998, 645.9817
411.5819, 646.0787
412.0640, 648.0573
412.5461, 651.8233
413.0282, 655.4023
413.5103, 656.9108
413.9925, 657.1498
414.4746, 657.8344
414.9567, 659.3596
415.4388, 661.0460
415.9209, 662.2938
416.4030, 663.1639
416.8852, 663.8430
417.3673, 664.2643
417.8494, 664.6264
418.3315, 665.1993
418.8136, 665.9967
419.2957, 666.5334
419.7779, 665.8240
420.2600, 665.0148
420.7421, 665.2688
421.2242, 668.7850
421.7063, 671.4713
422.1884, 671.4090
422.6706, 669.3185
423.1527, 667.9135
423.6348, 668.1959
424.1169, 669.0175
424.5990, 669.9926
425.0811, 671.5005
425.5633, 672.2029
426.0454, 671.2986
426.5275, 669.8981
427.0096, 669.4229
427.4917, 670.4823
427.9738, 671.5623
428.4560, 672.3861
428.9381, 672.9644
429.4202, 673.4421
429.9023, 673.8691
430.3844, 674.0836
430.8665, 673.8984
431.3487, 673.2342
431.8308, 672.5762
432.3129, 671.8644
432.7950, 671.2958
433.2771, 671.5170
433.7592, 672.5645
434.2414, 673.2962
434.7235, 672.8625
435.2056, 671.6332
435.6877, 671.3101
436.1698, 671.9681
436.6519, 672.5652
437.1341, 671.8066
437.6162, 670.1585
438.0983, 668.8723
438.5804, 668.5410
439.0625, 668.3565
439.5446, 667.2063
440.0268, 665.3557
440.5089, 663.7613
440.9910, 663.2432
441.4731, 663.0872
441.9552, 662.7294
442.4373, 662.1386
442.9195, 661.1855
443.4016, 659.4319
443.8837, 657.4043
444.3658, 655.7415
444.8479, 655.1014
445.3300, 654.3853
445.8122, 653.2109
446.2943, 651.6207
446.7764, 649.9774
447.2585, 647.6116
447.7406, 645.7561
448.2227, 645.1609
448.7049, 647.0723
449.1870, 647.8226
449.6691, 646.8704
450.1512, 645.0209
450.6333, 643.5157
451.1154, 642.3580
451.5976, 641.5258
452.0797, 639.7410
452.5618, 640.7296
453.0439, 641.0082
453.5260, 640.6163
454.0081, 637.4903
454.4903, 637.9364
454.9724, 636.9766
455.4545, 635.9766
455.9366, 636.9777
456.4187, 634.3433
456.9008, 635.3494
457.3830, 634.9277
457.8651, 635.1861
458.3472, 634.0297
458.8293, 633.3342
459.3114, 634.0904
459.7935, 634.0711
460.2757, 632.8226
460.7578, 633.2325
461.2399, 630.7302
461.7220, 630.8177
462.2041, 633.0013
462.6862, 634.4941
463.1684, 633.5366
463.6505, 631.1627
464.1326, 629.7909
464.6147, 631.3576
465.0968, 633.3657
465.5789, 634.6761
466.0611, 635.1935
466.5432, 635.0383
467.0253, 633.5834
467.5074, 631.7994
467.9895, 630.4992
468.4716, 629.5723
468.9538, 629.3458
469.4359, 630.4197
469.9180, 632.2015
470.4001, 632.6361
470.8822, 630.8023
471.3643, 629.2815
471.8465, 629.2830
472.3286, 631.0052
472.8107, 632.2447
473.2928, 632.9330
473.7749, 633.3098
474.2570, 633.8066
474.7392, 634.4215
475.2213, 634.0037
475.7034, 631.7897
476.1855, 629.0284
476.6676, 628.5355
477.1497, 630.1174
477.6319, 631.9482
478.1140, 633.1733
478.5961, 633.8611
479.0782, 634.0094
479.5603, 633.5828
480.0424, 633.0374
480.5246, 632.8851
481.0067, 632.8020
481.4888, 632.2955
481.9709, 630.4131
482.4530, 628.9748
482.9352, 629.1681
483.4173, 630.6073
483.8994, 632.0757
484.3815, 633.4630
484.8636, 634.5427
485.3457, 635.2674
485.8279, 635.7244
486.3100, 635.5000
486.7921, 633.7283
487.2742, 631.7189
487.7563, 630.6396
488.2384, 631.1389
488.7206, 631.4541
489.2027, 631.3083
489.6848, 630.8543
490.1669, 630.5754
490.6490, 630.4160
491.1311, 630.6331
491.6133, 631.7776
492.0954, 633.8236
492.5775, 633.8560
493.0596, 631.4074
493.5417, 628.9427
494.0238, 629.9689
494.5060, 633.6031
494.9881, 635.5025
495.4702, 633.8295
495.9523, 631.1081
496.4344, 631.2984
496.9165, 633.6828
497.3987, 635.5630
497.8808, 634.7437
498.3629, 633.1268
498.8450, 632.5483
499.3271, 633.1700
499.8092, 634.0377
500.2914, 635.0392
500.7735, 635.8421
501.2556, 636.1481
501.7377, 635.2708
502.2198, 634.6094
502.7019, 634.6661
503.1841, 635.1650
503.6662, 635.3528
504.1483, 634.8211
504.6304, 634.3531
505.1125, 634.2707
505.5946, 634.6437
506.0768, 634.4427
506.5589, 633.0985
507.0410, 632.0471
507.5231, 632.8080
508.0052, 635.8105
508.4873, 637.7811
508.9695, 638.2224
509.4516, 637.6572
509.9337, 636.6877
510.4158, 635.3610
510.8979, 634.6010
511.3800, 635.1859
511.8622, 636.4850
512.3443, 637.1412
512.8264, 637.1592
513.3085, 636.8047
513.7906, 635.9932
514.2728, 635.0321
514.7549, 634.2530
515.2370, 633.6133
515.7191, 633.4889
516.2012, 634.6549
516.6833, 636.3750
517.1655, 637.5358
517.6476, 637.3389
518.1297, 636.9695
518.6118, 636.6680
519.0939, 636.4797
519.5760, 636.7186
520.0582, 638.1734
520.5403, 639.4186
521.0224, 639.7566
521.5045, 638.7336
521.9866, 638.0486
522.4688, 637.4257
522.9509, 637.4367
523.4330, 639.3458
523.9151, 643.8117
524.3972, 646.3199
524.8793, 645.1865
525.3615, 642.0751
525.8436, 641.6151
526.3257, 643.7677
526.8078, 645.8973
527.2899, 646.2869
527.7720, 645.5922
528.2542, 645.2239
528.7363, 645.2489
529.2184, 645.5242
529.7005, 646.0545
530.1826, 646.7249
530.6647, 647.3689
531.1469, 647.8704
531.6290, 648.4467
532.1111, 649.3165
532.5932, 650.3344
533.0753, 651.2000
533.5574, 651.3836
534.0396, 651.8262
534.5217, 653.0274
535.0038, 655.0444
535.4859, 656.6912
535.9680, 657.8539
536.4501, 658.6999
536.9323, 659.2334
537.4144, 659.1570
537.8965, 659.6054
538.3786, 660.6199
538.8607, 662.1344
539.3428, 664.1991
539.8250, 666.8943
540.3071, 669.3815
540.7892, 671.4890
541.2713, 673.1756
541.7534, 674.1081
542.2355, 674.3423
542.7177, 674.4274
543.1998, 674.4263
543.6819, 674.6107
544.1640, 675.4426
544.6461, 676.9667
545.1282, 678.8062
545.6104, 681.0017
546.0925, 683.2225
546.5746, 685.0892
547.0567, 686.3124
547.5388, 687.4158
548.0209, 688.2775
548.5031, 689.1388
548.9852, 690.5502
549.4673, 693.3250
549.9494, 695.8884
550.4315, 697.8671
550.9136, 699.2630
551.3958, 700.3675
551.8779, 701.1233
552.3600, 701.6901
552.8421, 702.0856
553.3242, 702.2596
553.8063, 702.7767
554.2885, 703.7092
554.7706, 704.8531
555.2527, 705.9142
555.7348, 706.9274
556.2169, 708.1442
556.6990, 709.7562
557.1812, 711.4362
557.6633, 712.8591
558.1454, 713.9800
558.6275, 714.6324
559.1096, 714.6771
559.5917, 714.2390
560.0739, 713.1423
560.5560, 711.3611
561.0381, 710.0759
561.5202, 710.1610
562.0023, 710.7009
562.4844, 711.0430
562.9666, 711.2869
563.4487, 711.0143
563.9308, 710.1264
564.4129, 708.7596
564.8950, 706.9670
565.3771, 704.1766
565.8593, 702.3373
566.3414, 702.2480
566.8235, 703.3941
567.3056, 703.3354
567.7877, 701.9194
568.2698, 700.3701
568.7520, 699.5989
569.2341, 699.3135
569.7162, 698.2888
570.1983, 696.4706
570.6804, 694.3909
571.1625, 692.4762
571.6447, 690.6747
572.1268, 688.8847
572.6089, 686.9880
573.0910, 685.2811
573.5731, 684.1130
574.0552, 683.2357
574.5374, 682.1862
575.0195, 680.8665
575.5016, 679.3248
575.9837, 677.3929
576.4658, 675.1479
576.9479, 673.3310
577.4301, 672.2300
577.9122, 671.2643
578.3943, 670.1339
578.8764, 668.7516
579.3585, 667.8092
579.8406, 667.4744
580.3228, 667.2020
580.8049, 666.3928
581.2870, 665.0735
581.7691, 663.5873
582.2512, 661.8041
582.7333, 660.3237
583.2155, 660.4473
583.6976, 661.6888
584.1797, 662.5445
584.6617, 661.9545
585.1439, 660.9108
585.6260, 660.2016
586.1081, 659.7977
586.5902, 659.5555
587.0723, 660.2073
587.5544, 660.3773
588.0366, 658.8661
