##NAMES=Heazlewoodite
##RRUFFID=R061074
##IDEAL CHEMISTRY=Ni_3_S_2_
##LOCALITY=Tasmania, Australia
##OWNER=RRUFF
##SOURCE=Michael Scott
##DESCRIPTION=Pale gray metallic massive
##STATUS=The identification of this mineral has been confirmed by single-crystal X-ray diffraction.
##URL=rruff.info/R061074
141.8140, 1723.824
142.2961, 1715.420
142.7782, 1707.753
143.2603, 1696.187
143.7425, 1696.647
144.2246, 1716.293
144.7067, 1751.656
145.1888, 1772.533
145.6709, 1771.211
146.1530, 1762.706
146.6352, 1758.406
147.1173, 1762.813
147.5994, 1764.866
148.0815, 1763.099
148.5636, 1757.324
149.0457, 1748.169
149.5279, 1724.761
150.0100, 1701.769
150.4921, 1696.387
150.9742, 1737.976
151.4563, 1768.663
151.9384, 1770.885
152.4206, 1728.527
152.9027, 1701.198
153.3848, 1701.532
153.8669, 1718.179
154.3490, 1732.037
154.8311, 1748.897
155.3133, 1755.840
155.7954, 1745.661
156.2775, 1700.809
156.7596, 1666.547
157.2417, 1656.267
157.7238, 1664.203
158.2060, 1672.790
158.6881, 1676.810
159.1702, 1680.216
159.6523, 1685.434
160.1344, 1693.667
160.6165, 1703.133
161.0986, 1715.111
161.5808, 1728.898
162.0629, 1739.268
162.5450, 1746.270
163.0271, 1748.025
163.5092, 1742.880
163.9913, 1720.558
164.4735, 1698.968
164.9556, 1688.974
165.4377, 1691.113
165.9198, 1693.444
166.4019, 1687.962
166.8840, 1678.828
167.3662, 1671.850
167.8483, 1665.762
168.3304, 1664.951
168.8125, 1675.987
169.2946, 1701.854
169.7767, 1725.536
170.2589, 1736.576
170.7410, 1736.504
171.2231, 1728.970
171.7052, 1708.804
172.1873, 1684.938
172.6694, 1666.510
173.1516, 1653.660
173.6337, 1648.902
174.1158, 1660.131
174.5979, 1683.502
175.0800, 1704.311
175.5621, 1712.827
176.0443, 1713.234
176.5264, 1711.306
177.0085, 1706.040
177.4906, 1702.094
177.9727, 1708.513
178.4548, 1724.003
178.9370, 1736.833
179.4191, 1733.184
179.9012, 1719.952
180.3833, 1713.905
180.8654, 1724.074
181.3475, 1741.053
181.8297, 1747.336
182.3118, 1742.869
182.7939, 1736.503
183.2760, 1734.282
183.7581, 1736.458
184.2402, 1744.415
184.7224, 1765.841
185.2045, 1792.309
185.6866, 1797.217
186.1687, 1778.138
186.6508, 1754.438
187.1329, 1748.316
187.6151, 1758.308
188.0972, 1771.515
188.5793, 1786.855
189.0614, 1802.096
189.5435, 1804.077
190.0257, 1789.561
190.5078, 1771.350
190.9899, 1770.399
191.4720, 1786.610
191.9541, 1801.047
192.4362, 1801.471
192.9183, 1789.646
193.4005, 1785.695
193.8826, 1792.311
194.3647, 1804.118
194.8468, 1810.709
195.3289, 1811.603
195.8110, 1811.801
196.2932, 1813.710
196.7753, 1817.293
197.2574, 1823.025
197.7395, 1831.685
198.2216, 1841.726
198.7037, 1850.125
199.1859, 1857.249
199.6680, 1860.757
200.1501, 1858.177
200.6322, 1849.046
201.1143, 1839.888
201.5964, 1832.513
202.0786, 1825.554
202.5607, 1812.184
203.0428, 1790.351
203.5249, 1768.510
204.0070, 1755.913
204.4891, 1755.053
204.9713, 1746.862
205.4534, 1724.102
205.9355, 1690.180
206.4176, 1671.015
206.8997, 1670.094
207.3818, 1676.578
207.8640, 1679.691
208.3461, 1677.583
208.8282, 1679.920
209.3103, 1691.276
209.7924, 1711.306
210.2745, 1721.336
210.7567, 1717.362
211.2388, 1709.559
211.7209, 1682.462
212.2030, 1722.887
212.6851, 1749.393
213.1672, 1762.728
213.6494, 1723.445
214.1315, 1752.108
214.6136, 1753.541
215.0957, 1753.856
215.5778, 1792.083
216.0599, 1760.452
216.5421, 1798.078
217.0242, 1808.057
217.5063, 1830.689
217.9884, 1825.923
218.4705, 1829.619
218.9526, 1860.722
219.4348, 1853.904
219.9169, 1841.985
220.3990, 1830.054
220.8811, 1829.516
221.3632, 1845.343
221.8453, 1853.785
222.3274, 1853.116
222.8096, 1846.182
223.2917, 1838.406
223.7738, 1830.082
224.2559, 1820.495
224.7380, 1809.465
225.2201, 1796.971
225.7023, 1782.558
226.1844, 1764.879
226.6665, 1745.658
227.1486, 1727.858
227.6307, 1708.340
228.1128, 1695.249
228.5950, 1694.176
229.0771, 1714.589
229.5592, 1724.038
230.0413, 1716.788
230.5234, 1699.085
231.0055, 1689.669
231.4877, 1692.313
231.9698, 1698.098
232.4519, 1703.245
232.9340, 1709.494
233.4161, 1710.921
233.8982, 1704.014
234.3804, 1692.039
234.8625, 1689.686
235.3446, 1706.256
235.8267, 1720.256
236.3088, 1718.530
236.7909, 1691.074
237.2731, 1668.479
237.7552, 1651.133
238.2373, 1639.828
238.7194, 1640.060
239.2015, 1661.045
239.6836, 1681.925
240.1658, 1688.228
240.6479, 1669.101
241.1300, 1657.671
241.6121, 1658.826
242.0942, 1670.651
242.5763, 1680.392
243.0585, 1685.669
243.5406, 1691.609
244.0227, 1703.829
244.5048, 1733.380
244.9869, 1745.201
245.4690, 1727.661
245.9512, 1685.679
246.4333, 1662.218
246.9154, 1665.804
247.3975, 1677.730
247.8796, 1685.112
248.3617, 1685.949
248.8439, 1686.622
249.3260, 1688.722
249.8081, 1691.804
250.2902, 1689.873
250.7723, 1677.037
251.2544, 1666.322
251.7366, 1669.583
252.2187, 1696.713
252.7008, 1716.035
253.1829, 1721.629
253.6650, 1714.475
254.1471, 1707.743
254.6292, 1700.326
255.1114, 1694.546
255.5935, 1693.442
256.0756, 1701.308
256.5577, 1703.212
257.0398, 1693.826
257.5219, 1674.664
258.0041, 1666.221
258.4862, 1672.373
258.9683, 1683.934
259.4504, 1694.514
259.9325, 1705.959
260.4146, 1711.251
260.8968, 1707.292
261.3789, 1695.135
261.8610, 1687.508
262.3431, 1686.110
262.8252, 1686.781
263.3073, 1685.369
263.7895, 1679.957
264.2716, 1678.118
264.7537, 1681.539
265.2358, 1689.861
265.7179, 1700.419
266.2000, 1715.608
266.6822, 1728.900
267.1643, 1733.374
267.6464, 1725.769
268.1285, 1720.904
268.6106, 1722.452
269.0927, 1729.436
269.5749, 1734.863
270.0570, 1739.759
270.5391, 1740.797
271.0212, 1731.661
271.5033, 1707.930
271.9854, 1695.244
272.4676, 1702.240
272.9497, 1725.029
273.4318, 1737.328
273.9139, 1736.856
274.3960, 1731.896
274.8781, 1728.821
275.3603, 1727.496
275.8424, 1729.550
276.3245, 1737.727
276.8066, 1749.504
277.2887, 1749.923
277.7708, 1736.188
278.2530, 1720.818
278.7351, 1716.547
279.2172, 1724.436
279.6993, 1727.653
280.1814, 1720.675
280.6635, 1707.462
281.1457, 1703.852
281.6278, 1711.377
282.1099, 1720.891
282.5920, 1721.548
283.0741, 1713.395
283.5562, 1716.833
284.0384, 1742.046
284.5205, 1778.267
285.0026, 1786.992
285.4847, 1765.569
285.9668, 1741.487
286.4489, 1737.343
286.9311, 1751.666
287.4132, 1769.781
287.8953, 1791.003
288.3774, 1812.574
288.8595, 1825.109
289.3416, 1828.348
289.8238, 1833.021
290.3059, 1854.466
290.7880, 1887.296
291.2701, 1901.035
291.7522, 1882.384
292.2343, 1851.386
292.7165, 1848.368
293.1986, 1872.259
293.6807, 1900.090
294.1628, 1914.439
294.6449, 1919.215
295.1270, 1926.232
295.6092, 1938.229
296.0913, 1952.181
296.5734, 1963.754
297.0555, 1973.125
297.5376, 1982.054
298.0197, 1989.436
298.5019, 1997.442
298.9839, 2012.798
299.4661, 2040.372
299.9482, 2067.324
300.4303, 2074.764
300.9124, 2066.345
301.3945, 2058.752
301.8766, 2066.829
302.3588, 2081.010
302.8409, 2085.938
303.3230, 2077.750
303.8051, 2064.959
304.2872, 2055.938
304.7693, 2049.288
305.2515, 2040.276
305.7336, 2021.370
306.2157, 2000.895
306.6978, 1989.514
307.1799, 1990.317
307.6620, 1993.598
308.1442, 1993.257
308.6263, 1989.724
309.1084, 1983.858
309.5905, 1973.509
310.0726, 1962.645
310.5547, 1953.206
311.0369, 1944.699
311.5190, 1941.837
312.0011, 1952.341
312.4832, 1969.964
312.9653, 1983.857
313.4474, 1986.651
313.9296, 1986.584
314.4117, 1988.206
314.8938, 1991.965
315.3759, 1996.637
315.8580, 2002.694
316.3401, 2009.055
316.8223, 2014.177
317.3044, 2015.763
317.7865, 2017.569
318.2686, 2019.575
318.7507, 2021.456
319.2328, 2029.563
319.7150, 2054.985
320.1971, 2083.904
320.6792, 2102.650
321.1613, 2101.934
321.6434, 2096.453
322.1255, 2088.012
322.6077, 2076.768
323.0898, 2068.706
323.5719, 2065.728
324.0540, 2065.862
324.5361, 2067.622
325.0182, 2075.067
325.5004, 2079.488
325.9825, 2079.396
326.4646, 2074.897
326.9467, 2068.110
327.4288, 2053.328
327.9109, 2040.109
328.3931, 2034.367
328.8752, 2047.232
329.3573, 2052.464
329.8394, 2045.037
330.3215, 2027.827
330.8036, 2015.208
331.2858, 2009.338
331.7679, 2005.885
332.2500, 2003.024
332.7321, 2002.195
333.2142, 1998.682
333.6964, 1989.180
334.1785, 1977.608
334.6606, 1975.985
335.1427, 1988.404
335.6248, 2003.147
336.1069, 2014.415
336.5891, 2020.481
337.0712, 2029.475
337.5533, 2041.258
338.0354, 2056.083
338.5175, 2075.292
338.9996, 2100.574
339.4818, 2124.299
339.9639, 2142.454
340.4460, 2154.924
340.9281, 2168.457
341.4102, 2182.791
341.8923, 2198.808
342.3745, 2217.958
342.8566, 2240.129
343.3387, 2265.047
343.8208, 2295.638
344.3029, 2329.623
344.7850, 2350.838
345.2672, 2357.553
345.7493, 2360.507
346.2314, 2370.402
346.7135, 2386.525
347.1956, 2404.197
347.6777, 2424.186
348.1599, 2443.528
348.6420, 2455.377
349.1241, 2459.638
349.6062, 2458.479
350.0883, 2456.447
350.5704, 2450.359
351.0526, 2432.219
351.5347, 2398.051
352.0168, 2353.412
352.4989, 2298.088
352.9810, 2235.859
353.4631, 2181.954
353.9453, 2156.074
354.4274, 2142.052
354.9095, 2117.153
355.3916, 2071.696
355.8737, 2026.990
356.3558, 1998.913
356.8380, 1984.919
357.3201, 1976.896
357.8022, 1974.674
358.2843, 1974.388
358.7664, 1974.776
359.2485, 1977.594
359.7307, 1973.175
360.2128, 1948.100
360.6949, 1913.802
361.1770, 1888.850
361.6591, 1883.753
362.1412, 1885.722
362.6233, 1890.858
363.1054, 1899.446
363.5876, 1905.618
364.0697, 1910.074
364.5518, 1910.362
365.0339, 1904.015
365.5160, 1876.539
365.9981, 1856.760
366.4803, 1857.245
366.9624, 1877.952
367.4445, 1886.868
367.9266, 1865.415
368.4087, 1841.883
368.8908, 1835.265
369.3730, 1840.923
369.8551, 1871.871
370.3372, 1888.900
370.8193, 1892.758
371.3014, 1843.996
371.7835, 1863.182
372.2657, 1855.137
372.7478, 1845.976
373.2299, 1874.725
373.7120, 1833.617
374.1941, 1861.765
374.6762, 1862.267
375.1584, 1875.422
375.6405, 1861.178
376.1226, 1855.397
376.6047, 1877.023
377.0868, 1883.474
377.5689, 1866.076
378.0511, 1880.036
378.5332, 1837.970
379.0153, 1845.067
379.4974, 1873.375
379.9795, 1857.356
380.4616, 1871.816
380.9438, 1858.753
381.4259, 1857.262
381.9080, 1840.481
382.3901, 1824.699
382.8722, 1829.376
383.3543, 1849.002
383.8365, 1861.910
384.3186, 1860.274
384.8007, 1851.996
385.2828, 1847.417
385.7649, 1846.513
386.2470, 1848.853
386.7292, 1856.206
387.2113, 1866.048
387.6934, 1875.470
388.1755, 1885.347
388.6576, 1891.287
389.1397, 1886.313
389.6219, 1874.372
390.1040, 1864.327
390.5861, 1861.046
391.0682, 1861.156
391.5503, 1864.198
392.0324, 1871.368
392.5146, 1873.127
392.9967, 1856.992
393.4788, 1835.183
393.9609, 1822.847
394.4430, 1832.746
394.9251, 1844.902
395.4073, 1852.139
395.8894, 1854.250
396.3715, 1856.902
396.8536, 1864.443
397.3357, 1871.006
397.8178, 1872.522
398.3000, 1864.477
398.7821, 1856.277
399.2642, 1848.180
399.7463, 1840.383
400.2284, 1833.326
400.7105, 1823.265
401.1927, 1818.187
401.6748, 1823.119
402.1569, 1846.139
402.6390, 1858.262
403.1211, 1854.576
403.6032, 1843.531
404.0854, 1840.469
404.5675, 1847.776
405.0496, 1856.241
405.5317, 1863.327
406.0138, 1869.052
406.4959, 1872.436
406.9781, 1873.339
407.4602, 1872.272
407.9423, 1870.494
408.4244, 1867.905
408.9065, 1860.200
409.3886, 1842.323
409.8708, 1821.437
410.3529, 1818.447
410.8350, 1832.879
411.3171, 1849.408
411.7992, 1855.358
412.2813, 1854.611
412.7635, 1856.964
413.2456, 1864.951
413.7277, 1873.660
414.2098, 1879.602
414.6919, 1882.117
415.1740, 1879.402
415.6562, 1863.358
416.1383, 1845.708
416.6204, 1839.962
417.1025, 1848.308
417.5846, 1856.197
418.0667, 1852.623
418.5489, 1844.074
419.0310, 1838.684
419.5131, 1840.558
419.9952, 1844.767
420.4773, 1850.402
420.9594, 1857.053
421.4416, 1862.459
421.9237, 1866.526
422.4058, 1868.628
422.8879, 1868.248
423.3700, 1860.235
423.8521, 1856.310
424.3342, 1860.819
424.8163, 1869.950
425.2985, 1874.492
425.7806, 1868.631
426.2627, 1865.105
426.7448, 1868.911
427.2269, 1882.343
427.7090, 1893.023
428.1912, 1901.516
428.6733, 1906.764
429.1554, 1906.466
429.6375, 1899.188
430.1196, 1892.288
430.6017, 1887.149
431.0839, 1883.773
431.5660, 1882.440
432.0481, 1883.552
432.5302, 1884.633
433.0123, 1884.629
433.4944, 1883.304
433.9766, 1876.748
434.4587, 1861.320
434.9408, 1847.326
435.4229, 1856.646
435.9050, 1884.679
436.3871, 1906.982
436.8693, 1904.110
437.3514, 1889.338
437.8335, 1882.873
438.3156, 1886.176
438.7977, 1891.021
439.2798, 1890.227
439.7620, 1886.818
440.2441, 1885.233
440.7262, 1885.780
441.2083, 1889.775
441.6904, 1902.375
442.1725, 1920.964
442.6547, 1932.136
443.1368, 1923.837
443.6189, 1910.505
444.1010, 1901.473
444.5831, 1901.535
445.0652, 1900.098
445.5474, 1892.043
446.0295, 1881.783
446.5116, 1877.375
446.9937, 1883.770
447.4758, 1891.643
447.9579, 1900.219
448.4401, 1910.189
448.9222, 1913.675
449.4043, 1905.045
449.8864, 1896.360
450.3685, 1900.668
450.8506, 1925.759
451.3328, 1937.622
451.8149, 1926.592
452.2970, 1901.406
452.7791, 1892.917
453.2612, 1902.972
453.7433, 1916.290
454.2255, 1923.196
454.7076, 1924.792
455.1897, 1931.089
455.6718, 1944.056
456.1539, 1955.661
456.6360, 1952.923
457.1182, 1939.514
457.6003, 1928.997
458.0824, 1927.167
458.5645, 1931.068
459.0466, 1940.146
459.5287, 1953.553
460.0109, 1962.127
460.4930, 1954.211
460.9751, 1940.581
461.4572, 1933.356
461.9393, 1938.189
462.4214, 1943.645
462.9036, 1944.960
463.3857, 1942.653
463.8678, 1937.830
464.3499, 1921.438
464.8320, 1910.856
465.3141, 1915.998
465.7963, 1940.599
466.2784, 1960.321
466.7605, 1969.490
467.2426, 1974.111
467.7247, 1979.274
468.2068, 1988.423
468.6890, 1992.640
469.1711, 1988.783
469.6532, 1979.462
470.1353, 1976.009
470.6174, 1982.957
471.0995, 1985.744
471.5817, 1973.113
472.0638, 1941.883
472.5459, 1927.328
473.0280, 1931.787
473.5101, 1946.483
473.9922, 1965.405
474.4744, 1987.426
474.9565, 1997.491
475.4386, 1985.249
475.9207, 1961.948
476.4028, 1949.403
476.8849, 1947.265
477.3671, 1950.625
477.8492, 1962.250
478.3313, 1975.157
478.8134, 1977.019
479.2955, 1961.855
479.7776, 1948.192
480.2598, 1952.897
480.7419, 1968.421
481.2240, 1981.595
481.7061, 1989.343
482.1882, 1991.532
482.6703, 1986.761
483.1525, 1975.079
483.6346, 1962.512
484.1167, 1944.065
484.5988, 1929.555
485.0809, 1925.342
485.5630, 1949.133
486.0451, 1961.007
486.5273, 1951.855
487.0094, 1932.470
487.4915, 1928.498
487.9736, 1951.317
488.4557, 1968.409
488.9378, 1966.914
489.4200, 1946.073
489.9021, 1933.308
490.3842, 1929.902
490.8663, 1930.623
491.3484, 1930.231
491.8305, 1928.840
492.3127, 1930.061
492.7948, 1934.982
493.2769, 1942.113
493.7590, 1951.251
494.2411, 1961.483
494.7232, 1966.834
495.2054, 1959.132
495.6875, 1946.446
496.1696, 1939.782
496.6517, 1939.918
497.1338, 1944.766
497.6159, 1958.758
498.0981, 1974.622
498.5802, 1983.621
499.0623, 1977.342
499.5444, 1969.475
500.0265, 1965.610
500.5086, 1964.706
500.9908, 1963.292
501.4729, 1957.516
501.9550, 1953.580
502.4371, 1955.286
502.9192, 1966.728
503.4013, 1971.383
503.8835, 1963.701
504.3656, 1953.168
504.8477, 1950.203
505.3298, 1958.383
505.8119, 1964.511
506.2940, 1964.591
506.7762, 1961.454
507.2583, 1968.594
507.7404, 1988.546
508.2225, 2004.248
508.7046, 2002.767
509.1867, 1987.298
509.6689, 1977.634
510.1510, 1975.091
510.6331, 1975.696
511.1152, 1975.240
511.5973, 1974.415
512.0795, 1975.275
512.5616, 1981.346
513.0437, 1986.332
513.5258, 1983.026
514.0079, 1972.937
514.4901, 1962.252
514.9722, 1948.131
515.4542, 1938.680
515.9363, 1942.236
516.4185, 1964.399
516.9006, 1981.166
517.3827, 1979.496
517.8648, 1971.800
518.3469, 1971.721
518.8290, 1993.564
519.3112, 2008.098
519.7933, 2009.989
520.2754, 2001.381
520.7575, 1991.908
521.2396, 1979.800
521.7217, 1970.030
522.2039, 1964.475
522.6860, 1962.979
523.1681, 1968.820
523.6502, 1984.672
524.1323, 2000.605
524.6144, 2002.412
525.0966, 1991.772
525.5787, 1982.419
526.0608, 1976.853
526.5429, 1976.015
527.0250, 1984.246
527.5071, 1999.838
527.9893, 2013.946
528.4714, 2025.656
528.9535, 2030.996
529.4356, 2021.636
529.9177, 1994.531
530.3998, 1974.206
530.8820, 1982.930
531.3641, 2001.349
531.8462, 2009.267
532.3283, 1987.178
532.8104, 1970.107
533.2925, 1970.254
533.7747, 1982.407
534.2568, 1986.271
534.7389, 1972.666
535.2210, 1960.892
535.7031, 1958.524
536.1852, 1967.265
536.6674, 1972.011
537.1495, 1971.178
537.6316, 1969.019
538.1137, 1967.483
538.5958, 1966.165
539.0779, 1977.091
539.5601, 2008.459
540.0422, 2043.294
540.5243, 2043.559
541.0064, 2014.302
541.4885, 1989.241
541.9706, 1991.609
542.4528, 2006.479
542.9349, 2013.062
543.4170, 2010.761
543.8991, 2007.243
544.3812, 2006.897
544.8633, 2008.182
545.3455, 2009.468
545.8276, 2009.609
546.3097, 2010.923
546.7918, 2017.461
547.2739, 2025.231
547.7560, 2026.813
548.2382, 2007.981
548.7203, 1997.083
549.2024, 2005.839
549.6845, 2033.705
550.1666, 2045.069
550.6487, 2032.667
551.1309, 2015.553
551.6130, 2005.264
552.0951, 2002.266
552.5772, 2003.453
553.0593, 2010.072
553.5414, 2017.658
554.0236, 2018.838
554.5057, 2014.490
554.9878, 2010.805
555.4699, 2009.745
555.9520, 2010.824
556.4341, 2014.640
556.9163, 2020.552
557.3984, 2025.141
557.8805, 2024.317
558.3626, 2022.363
558.8447, 2023.889
559.3268, 2030.257
559.8090, 2035.019
560.2911, 2034.451
560.7732, 2031.433
561.2553, 2028.929
561.7374, 2028.999
562.2195, 2027.610
562.7017, 2021.607
563.1838, 2013.841
563.6659, 2013.444
564.1480, 2025.982
564.6301, 2035.175
565.1122, 2032.990
565.5944, 2019.517
566.0765, 2014.278
566.5586, 2018.382
567.0407, 2025.965
567.5228, 2032.781
568.0049, 2038.848
568.4871, 2044.525
568.9692, 2050.603
569.4513, 2054.412
569.9334, 2050.932
570.4155, 2042.626
570.8976, 2035.551
571.3798, 2035.115
571.8619, 2034.729
572.3440, 2026.613
572.8261, 2012.561
573.3082, 2006.076
573.7903, 2021.651
574.2725, 2039.140
574.7546, 2045.795
575.2367, 2033.560
575.7188, 2028.240
576.2009, 2035.592
576.6830, 2046.433
577.1652, 2050.723
577.6473, 2046.441
578.1294, 2040.948
578.6115, 2034.357
579.0936, 2028.084
579.5757, 2026.592
580.0579, 2030.090
580.5400, 2034.498
581.0221, 2038.570
581.5042, 2041.859
581.9863, 2043.055
582.4684, 2042.116
582.9506, 2040.048
583.4327, 2037.590
583.9148, 2034.502
584.3969, 2030.075
584.8790, 2023.005
585.3611, 2017.520
585.8433, 2013.266
586.3254, 2012.634
586.8075, 2019.139
587.2896, 2044.398
587.7717, 2065.310
588.2538, 2075.735
588.7360, 2076.932
589.2181, 2075.291
589.7002, 2069.258
590.1823, 2062.817
590.6644, 2057.820
591.1465, 2054.312
591.6287, 2049.934
592.1108, 2043.478
592.5929, 2040.033
593.0750, 2049.498
593.5571, 2068.405
594.0392, 2077.219
594.5214, 2069.497
595.0035, 2056.281
595.4856, 2048.102
595.9677, 2044.832
596.4498, 2021.195
596.9319, 2054.217
597.4141, 2073.320
597.8962, 2079.252
598.3783, 2032.565
598.8604, 2053.824
599.3425, 2047.854
599.8246, 2040.766
600.3068, 2071.590
600.7889, 2032.556
601.2710, 2062.777
601.7531, 2065.353
602.2352, 2080.582
602.7173, 2068.412
603.1995, 2064.706
603.6816, 2088.405
604.1637, 2096.930
604.6458, 2081.606
605.1279, 2097.639
605.6100, 2057.648
606.0922, 2066.819
606.5743, 2064.273
607.0564, 2052.719
607.5385, 2043.002
608.0206, 2035.654
608.5027, 2035.055
608.9849, 2053.495
609.4670, 2074.211
609.9491, 2081.183
610.4312, 2067.875
610.9133, 2055.904
611.3954, 2052.847
611.8776, 2053.279
612.3597, 2051.216
612.8418, 2041.612
613.3239, 2037.305
613.8060, 2040.920
614.2881, 2049.987
614.7703, 2059.364
615.2524, 2070.076
615.7345, 2076.006
616.2166, 2072.743
616.6987, 2063.052
617.1808, 2056.563
617.6630, 2053.314
618.1451, 2053.999
618.6272, 2063.026
619.1093, 2074.906
619.5914, 2079.678
620.0735, 2074.662
620.5557, 2072.801
621.0378, 2090.265
621.5199, 2112.067
622.0020, 2121.807
622.4841, 2100.947
622.9662, 2084.344
623.4484, 2081.490
623.9305, 2086.694
624.4126, 2086.461
624.8947, 2076.605
625.3768, 2068.479
625.8589, 2065.246
626.3411, 2066.364
626.8232, 2067.968
627.3053, 2070.021
627.7874, 2073.011
628.2695, 2078.764
628.7516, 2085.934
629.2338, 2090.320
629.7159, 2091.821
630.1980, 2089.238
630.6801, 2077.286
631.1622, 2062.089
631.6443, 2052.112
632.1265, 2050.811
632.6086, 2052.981
633.0907, 2059.197
633.5728, 2066.809
634.0549, 2071.251
634.5370, 2072.170
635.0192, 2068.943
635.5013, 2059.949
635.9834, 2046.239
636.4655, 2033.644
636.9476, 2020.771
637.4297, 2012.123
637.9119, 2011.239
638.3939, 2017.322
638.8760, 2019.192
639.3582, 2016.172
639.8403, 2015.115
640.3224, 2026.910
640.8045, 2044.314
