##NAMES=Hectorfloresite
##RRUFFID=R080117
##IDEAL CHEMISTRY=Na_9_(I^5+^O_3_)(S^6+^O_4_)_4_
##LOCALITY=Pampa Rica, Antofagasta Province, Chile
##OWNER=RRUFF
##SOURCE=Bob Jenkins
##DESCRIPTION=Pseudohexagonal light brown, twinned crystals associated with colorless thenardite
##STATUS=The identification of this mineral has been confirmed by single-crystal X-ray diffraction.
##URL=rruff.info/R080117
91.87140, 0.0000000E+00
92.35352, 24.67627
92.83563, 24.01994
93.31775, 23.74097
93.79987, 23.73048
94.28198, 24.08336
94.76410, 25.15500
95.24622, 27.19940
95.72833, 29.80242
96.21045, 31.95603
96.69257, 33.63321
97.17468, 35.45010
97.65680, 37.89120
98.13892, 40.96024
98.62103, 44.48189
99.10315, 48.32045
99.58527, 52.52827
100.0674, 57.30070
100.5495, 62.61463
101.0316, 68.45595
101.5137, 74.55244
101.9958, 80.70155
102.4780, 87.97263
102.9601, 96.85765
103.4422, 107.6026
103.9243, 118.2244
104.4064, 128.4429
104.8885, 138.7715
105.3707, 150.4601
105.8528, 163.9601
106.3349, 178.0476
106.8170, 192.1103
107.2991, 205.5485
107.7813, 220.1114
108.2634, 236.0937
108.7455, 253.3210
109.2276, 270.6006
109.7097, 288.9676
110.1918, 306.7904
110.6740, 323.4188
111.1561, 337.7348
111.6382, 352.0937
112.1203, 366.6546
112.6024, 381.4920
113.0845, 396.2240
113.5667, 410.0586
114.0488, 424.1147
114.5309, 439.3119
115.0130, 455.5910
115.4951, 473.1370
115.9772, 492.2187
116.4594, 512.9774
116.9415, 534.5617
117.4236, 556.5365
117.9057, 579.2376
118.3878, 602.9203
118.8699, 628.4069
119.3521, 654.6279
119.8342, 681.7524
120.3163, 709.9335
120.7984, 737.3130
121.2805, 763.3168
121.7626, 787.7179
122.2448, 810.1280
122.7269, 829.6674
123.2090, 847.4645
123.6911, 864.9146
124.1732, 882.4820
124.6553, 898.3688
125.1375, 910.6600
125.6196, 919.8207
126.1017, 927.3241
126.5838, 932.6304
127.0659, 937.0758
127.5480, 943.1482
128.0302, 951.4543
128.5123, 961.0408
128.9944, 970.6545
129.4765, 980.3420
129.9586, 990.5389
130.4407, 1001.194
130.9229, 1012.513
131.4050, 1025.354
131.8871, 1039.391
132.3692, 1055.136
132.8513, 1074.947
133.3334, 1097.533
133.8156, 1114.183
134.2977, 1119.994
134.7798, 1119.187
135.2619, 1120.234
135.7440, 1125.793
136.2261, 1134.601
136.7083, 1141.165
137.1904, 1145.350
137.6725, 1148.097
138.1546, 1150.266
138.6367, 1151.840
139.1188, 1153.202
139.6010, 1154.795
140.0831, 1156.635
140.5652, 1156.700
141.0473, 1155.107
141.5294, 1151.674
142.0115, 1146.400
142.4937, 1139.720
142.9758, 1130.123
143.4579, 1116.637
143.9400, 1098.573
144.4221, 1080.188
144.9042, 1061.492
145.3864, 1042.371
145.8685, 1022.862
146.3506, 1001.017
146.8327, 981.0957
147.3148, 964.3753
147.7969, 952.0159
148.2791, 940.4143
148.7612, 929.6337
149.2433, 919.6375
149.7254, 910.1670
150.2075, 901.1469
150.6896, 892.7932
151.1718, 885.1978
151.6539, 877.3978
152.1360, 871.7087
152.6181, 869.7556
153.1002, 870.1758
153.5823, 868.9033
154.0645, 863.6800
154.5466, 858.1208
155.0287, 853.9302
155.5108, 853.0730
155.9929, 851.3324
156.4750, 847.0918
156.9572, 841.1295
157.4393, 836.7512
157.9214, 835.8643
158.4035, 835.9810
158.8856, 835.5450
159.3677, 833.7071
159.8499, 831.7928
160.3320, 829.5782
160.8141, 827.3087
161.2962, 826.5389
161.7783, 829.2836
162.2604, 833.0969
162.7426, 835.9618
163.2247, 837.2230
163.7068, 837.4813
164.1889, 836.5632
164.6710, 834.5734
165.1531, 832.7953
165.6353, 832.1842
166.1174, 831.9980
166.5995, 831.4379
167.0816, 830.2283
167.5637, 828.5353
168.0458, 826.1966
168.5280, 823.2347
169.0101, 820.4709
169.4922, 819.1052
169.9743, 818.1563
170.4564, 816.2601
170.9385, 811.8467
171.4207, 806.8541
171.9028, 802.9056
172.3849, 800.0986
172.8670, 797.9567
173.3491, 796.1429
173.8312, 794.7127
174.3134, 793.7682
174.7955, 794.0043
175.2776, 794.4802
175.7597, 793.8864
176.2418, 792.0389
176.7239, 790.1266
177.2061, 789.2716
177.6882, 789.2142
178.1703, 789.2547
178.6524, 788.7667
179.1345, 788.2282
179.6166, 788.6793
180.0988, 790.3574
180.5809, 792.0814
181.0630, 792.4089
181.5451, 791.5886
182.0272, 790.6074
182.5093, 789.5441
182.9915, 788.6995
183.4736, 789.0131
183.9557, 790.7445
184.4378, 792.8954
184.9199, 794.1342
185.4020, 794.5428
185.8842, 794.8857
186.3663, 795.7589
186.8484, 796.9384
187.3305, 797.4089
187.8126, 796.8837
188.2947, 796.2116
188.7769, 796.7415
189.2590, 798.4417
189.7411, 800.6204
190.2232, 803.2722
190.7053, 806.2346
191.1874, 808.4324
191.6696, 809.6614
192.1517, 810.3791
192.6338, 811.4373
193.1159, 812.8507
193.5980, 814.2595
194.0801, 815.5844
194.5623, 816.7949
195.0444, 817.4219
195.5265, 817.2550
196.0086, 816.7013
196.4907, 816.6317
196.9728, 817.0823
197.4550, 817.6652
197.9371, 817.8542
198.4192, 817.6222
198.9013, 818.8619
199.3834, 822.4521
199.8655, 826.8590
200.3477, 827.8312
200.8298, 824.6243
201.3119, 821.3326
201.7940, 820.6611
202.2761, 822.8799
202.7582, 824.7357
203.2404, 825.9904
203.7225, 826.6913
204.2046, 826.8289
204.6867, 826.2518
205.1688, 825.6529
205.6509, 825.4286
206.1331, 825.5904
206.6152, 826.0580
207.0973, 826.8453
207.5794, 827.9255
208.0615, 829.4186
208.5436, 831.6733
209.0258, 833.4268
209.5079, 833.4993
209.9900, 831.2727
210.4721, 830.3714
210.9542, 831.5615
211.4363, 834.0990
211.9185, 835.3322
212.4006, 834.6904
212.8827, 833.9603
213.3648, 834.2929
213.8469, 835.9780
214.3290, 837.6592
214.8112, 839.3336
215.2933, 840.8964
215.7754, 841.8972
216.2575, 841.8981
216.7396, 842.1526
217.2217, 843.6246
217.7039, 847.0165
218.1860, 849.4587
218.6681, 850.6889
219.1502, 850.8397
219.6323, 850.2226
220.1144, 848.4674
220.5966, 846.6056
221.0787, 845.2267
221.5608, 844.4393
222.0429, 843.9275
222.5250, 843.9418
223.0071, 844.2073
223.4893, 843.6228
223.9714, 841.7487
224.4535, 839.7341
224.9356, 838.1823
225.4177, 837.2694
225.8998, 836.4080
226.3820, 835.4282
226.8641, 834.4916
227.3462, 834.1979
227.8283, 834.6585
228.3104, 835.5724
228.7925, 836.9647
229.2747, 839.6588
229.7568, 840.8617
230.2389, 839.7507
230.7210, 837.1992
231.2031, 836.1127
231.6852, 837.2835
232.1674, 838.7324
232.6495, 839.4395
233.1316, 838.8632
233.6137, 838.7687
234.0958, 839.3522
234.5779, 840.4113
235.0601, 841.3419
235.5422, 841.9213
236.0243, 842.7186
236.5064, 843.9778
236.9885, 845.7247
237.4706, 847.9293
237.9528, 850.8929
238.4349, 854.2064
238.9170, 856.7859
239.3991, 858.2974
239.8812, 859.5710
240.3633, 860.9483
240.8455, 862.5082
241.3276, 863.9340
241.8097, 864.9583
242.2918, 865.9290
242.7739, 867.6977
243.2560, 870.9106
243.7382, 873.9260
244.2203, 876.0632
244.7024, 876.9479
245.1845, 878.0365
245.6666, 879.4979
246.1487, 881.0836
246.6309, 882.2893
247.1130, 882.7663
247.5951, 883.4415
248.0772, 884.7346
248.5593, 886.9586
249.0414, 888.6276
249.5236, 889.4310
250.0057, 889.8641
250.4878, 890.7582
250.9699, 892.2408
251.4520, 893.9752
251.9341, 896.1045
252.4163, 899.0274
252.8984, 900.2639
253.3805, 898.8438
253.8626, 896.4764
254.3447, 895.8561
254.8268, 897.9961
255.3090, 899.7708
255.7911, 899.9990
256.2732, 898.3524
256.7553, 898.1068
257.2374, 900.0983
257.7195, 902.6730
258.2017, 903.6922
258.6838, 902.4489
259.1659, 901.2803
259.6480, 900.7172
260.1301, 900.7770
260.6122, 901.2242
261.0944, 902.4830
261.5765, 903.6091
262.0586, 903.6745
262.5407, 902.6956
263.0228, 900.5759
263.5049, 896.8795
263.9871, 891.6837
264.4692, 887.7577
264.9513, 885.3934
265.4334, 883.7803
265.9155, 882.2546
266.3976, 880.9625
266.8798, 879.3519
267.3619, 877.3137
267.8440, 874.8607
268.3261, 872.2305
268.8082, 869.3786
269.2903, 866.4492
269.7725, 863.5748
270.2546, 860.8049
270.7367, 858.0179
271.2188, 855.2282
271.7009, 852.4269
272.1830, 849.3544
272.6652, 845.7596
273.1473, 842.6340
273.6294, 840.9013
274.1115, 840.8882
274.5936, 840.2274
275.0757, 838.5378
275.5579, 836.1409
276.0400, 833.8264
276.5221, 831.4536
277.0042, 829.7021
277.4863, 829.3272
277.9684, 830.4812
278.4506, 830.8104
278.9327, 830.0284
279.4148, 828.5110
279.8969, 826.8798
280.3790, 825.0797
280.8611, 823.5949
281.3433, 822.7555
281.8254, 822.5597
282.3075, 822.4941
282.7896, 822.6072
283.2717, 822.7224
283.7538, 822.7532
284.2360, 822.7297
284.7181, 821.9694
285.2002, 819.4272
285.6823, 815.4711
286.1644, 813.6322
286.6465, 814.1830
287.1287, 815.8954
287.6108, 817.7233
288.0929, 819.6058
288.5750, 820.4558
289.0571, 819.1063
289.5392, 816.3702
290.0214, 815.8016
290.5035, 817.5974
290.9856, 819.9098
291.4677, 821.0413
291.9498, 821.0616
292.4319, 820.2991
292.9141, 818.3560
293.3962, 815.9734
293.8783, 815.0515
294.3604, 815.6191
294.8425, 816.5186
295.3246, 816.9440
295.8068, 816.9347
296.2889, 816.5620
296.7710, 815.7094
297.2531, 814.6719
297.7352, 813.8105
298.2173, 813.1483
298.6995, 812.8678
299.1816, 813.2033
299.6637, 814.0067
300.1458, 815.0082
300.6279, 816.2363
301.1100, 817.4662
301.5922, 818.1682
302.0743, 818.5187
302.5564, 819.2586
303.0385, 821.8099
303.5206, 824.6859
304.0027, 825.3992
304.4849, 823.1540
304.9670, 820.6450
305.4491, 820.8493
305.9312, 822.8324
306.4133, 824.3563
306.8954, 823.3996
307.3776, 821.9432
307.8597, 822.3271
308.3418, 824.8788
308.8239, 827.3461
309.3060, 827.9903
309.7881, 827.4913
310.2703, 826.8995
310.7524, 826.3156
311.2345, 826.0432
311.7166, 826.4528
312.1987, 827.5230
312.6808, 828.6081
313.1630, 829.1209
313.6451, 829.5395
314.1272, 830.3885
314.6093, 832.5583
315.0914, 834.4853
315.5735, 835.0657
316.0557, 834.5605
316.5378, 834.3838
317.0199, 835.4421
317.5020, 836.8768
317.9841, 838.0789
318.4662, 838.7688
318.9484, 839.3943
319.4305, 840.1583
319.9126, 840.9780
320.3947, 841.6308
320.8768, 841.9179
321.3589, 842.1301
321.8411, 842.4182
322.3232, 842.8426
322.8053, 843.2331
323.2874, 843.6007
323.7695, 843.9044
324.2516, 844.0797
324.7338, 842.5551
325.2159, 842.3298
325.6980, 845.0640
326.1801, 851.9539
326.6622, 856.6951
327.1443, 857.1984
327.6265, 856.1144
328.1086, 856.1133
328.5907, 858.8209
329.0728, 860.8406
329.5549, 861.0876
330.0370, 859.5364
330.5192, 859.6794
331.0013, 862.7997
331.4834, 866.5303
331.9655, 869.2845
332.4476, 870.6534
332.9297, 871.6390
333.4119, 871.4261
333.8940, 870.7756
334.3761, 873.3585
334.8582, 880.5674
335.3403, 888.6652
335.8224, 896.3118
336.3046, 904.7053
336.7867, 908.6110
337.2688, 906.1403
337.7509, 900.5179
338.2330, 898.4769
338.7151, 901.0519
339.1973, 903.9939
339.6794, 905.1951
340.1615, 904.4513
340.6436, 906.7578
341.1257, 912.9547
341.6078, 920.3518
342.0900, 925.3792
342.5721, 927.7850
343.0542, 930.3030
343.5363, 933.6912
344.0184, 937.8084
344.5005, 942.1027
344.9827, 946.5228
345.4648, 951.2782
345.9469, 956.6027
346.4290, 962.4918
346.9111, 968.3099
347.3932, 973.8775
347.8754, 979.4244
348.3575, 985.1315
348.8396, 990.9846
349.3217, 997.3525
349.8038, 1004.546
350.2859, 1012.359
350.7681, 1020.544
351.2502, 1029.270
351.7323, 1037.539
352.2144, 1043.580
352.6965, 1048.125
353.1786, 1053.214
353.6608, 1060.033
354.1429, 1067.918
354.6250, 1076.469
355.1071, 1085.720
355.5892, 1094.389
356.0714, 1101.341
356.5535, 1107.132
357.0356, 1112.574
357.5177, 1117.958
357.9998, 1123.148
358.4819, 1127.881
358.9641, 1132.223
359.4462, 1136.408
359.9283, 1140.705
360.4104, 1144.806
360.8925, 1148.451
361.3746, 1151.524
361.8568, 1154.195
362.3389, 1155.969
362.8210, 1157.351
363.3031, 1159.539
363.7852, 1164.133
364.2673, 1168.617
364.7495, 1171.537
365.2316, 1172.098
365.7137, 1173.477
366.1958, 1176.273
366.6779, 1180.195
367.1600, 1184.934
367.6422, 1191.854
368.1243, 1198.139
368.6064, 1202.615
369.0885, 1205.146
369.5706, 1209.358
370.0527, 1216.712
370.5349, 1224.651
371.0170, 1231.543
371.4991, 1236.086
371.9812, 1241.703
372.4633, 1248.861
372.9454, 1257.286
373.4276, 1265.807
373.9097, 1274.344
374.3918, 1283.306
374.8739, 1292.524
375.3560, 1301.800
375.8381, 1312.752
376.3203, 1325.616
376.8024, 1339.667
377.2845, 1353.573
377.7666, 1366.925
378.2487, 1381.756
378.7308, 1398.451
379.2130, 1417.087
379.6951, 1436.328
380.1772, 1456.044
380.6593, 1477.820
381.1414, 1504.663
381.6235, 1535.770
382.1057, 1565.913
382.5878, 1593.547
383.0699, 1619.945
383.5520, 1648.467
384.0341, 1678.919
384.5162, 1706.660
384.9984, 1730.151
385.4805, 1748.886
385.9626, 1762.731
386.4447, 1772.137
386.9268, 1774.159
387.4089, 1765.379
387.8911, 1746.884
388.3732, 1721.295
388.8553, 1689.430
389.3374, 1651.191
389.8195, 1604.714
390.3016, 1551.030
390.7838, 1496.009
391.2659, 1441.001
391.7480, 1388.206
392.2301, 1339.880
392.7122, 1296.870
393.1943, 1258.193
393.6765, 1224.962
394.1586, 1196.087
394.6407, 1169.073
395.1228, 1141.746
395.6049, 1116.884
396.0870, 1095.762
396.5692, 1079.178
397.0513, 1064.739
397.5334, 1052.707
398.0155, 1042.288
398.4976, 1032.638
398.9797, 1023.709
399.4619, 1015.379
399.9440, 1007.440
400.4261, 999.8852
400.9082, 993.5572
401.3903, 989.2537
401.8724, 985.3895
402.3546, 980.8347
402.8367, 974.8074
403.3188, 969.9280
403.8009, 966.6915
404.2830, 964.5357
404.7651, 961.9196
405.2473, 958.5273
405.7294, 955.6740
406.2115, 954.1746
406.6936, 954.1047
407.1757, 953.1438
407.6578, 951.0447
408.1400, 948.7346
408.6221, 947.4772
409.1042, 947.2421
409.5863, 946.4567
410.0684, 944.4568
410.5505, 941.8406
411.0327, 939.8295
411.5148, 938.4153
411.9969, 937.5184
412.4790, 937.4750
412.9611, 937.8713
413.4432, 937.6169
413.9254, 936.4364
414.4075, 935.1189
414.8896, 934.4510
415.3717, 934.2983
415.8538, 934.3524
416.3359, 934.8461
416.8181, 935.2346
417.3002, 934.6315
417.7823, 933.0733
418.2644, 932.2187
418.7465, 933.9396
419.2286, 936.3740
419.7108, 937.6504
420.1929, 936.3412
420.6750, 935.0739
421.1571, 934.6965
421.6392, 935.0934
422.1213, 935.9910
422.6035, 937.8835
423.0856, 939.7678
423.5677, 941.2826
424.0498, 942.3805
424.5319, 943.1647
425.0140, 943.5434
425.4962, 943.6898
425.9783, 943.7514
426.4604, 943.3495
426.9425, 943.4318
427.4246, 943.9739
427.9067, 945.0699
428.3889, 947.4752
428.8710, 951.9346
429.3531, 956.3813
429.8352, 959.4019
430.3173, 960.3841
430.7994, 962.9587
431.2816, 967.5688
431.7637, 973.1925
432.2458, 978.0233
432.7279, 981.9811
433.2100, 986.2694
433.6921, 991.1942
434.1743, 996.7983
434.6564, 1003.209
435.1385, 1010.512
435.6206, 1018.252
436.1027, 1026.199
436.5848, 1034.303
437.0670, 1042.290
437.5491, 1049.913
438.0312, 1057.980
438.5133, 1067.447
438.9954, 1078.203
439.4775, 1089.925
439.9597, 1102.825
440.4418, 1116.406
440.9239, 1129.925
441.4060, 1143.348
441.8881, 1158.169
442.3702, 1175.369
442.8524, 1194.142
443.3345, 1213.872
443.8166, 1235.053
444.2987, 1256.361
444.7808, 1276.819
445.2629, 1297.005
445.7451, 1318.807
446.2272, 1343.151
446.7093, 1368.144
447.1914, 1392.964
447.6735, 1417.378
448.1556, 1442.455
448.6378, 1468.117
449.1199, 1494.240
449.6020, 1520.864
450.0841, 1547.747
450.5662, 1574.703
451.0483, 1602.652
451.5305, 1630.703
452.0126, 1654.111
452.4947, 1672.619
452.9768, 1687.895
453.4589, 1700.104
453.9410, 1709.236
454.4232, 1719.077
454.9053, 1729.622
455.3874, 1741.573
455.8695, 1756.200
456.3516, 1773.390
456.8337, 1792.177
457.3159, 1814.991
457.7980, 1837.181
458.2801, 1851.674
458.7622, 1858.468
459.2443, 1857.611
459.7264, 1849.254
460.2086, 1833.179
460.6907, 1808.297
461.1728, 1773.729
461.6549, 1734.334
462.1370, 1691.709
462.6191, 1647.418
463.1013, 1604.708
463.5834, 1564.668
464.0655, 1526.463
464.5476, 1489.302
465.0297, 1453.632
465.5118, 1421.695
465.9940, 1395.346
466.4761, 1372.644
466.9582, 1352.815
467.4403, 1336.467
467.9224, 1321.412
468.4045, 1307.671
468.8867, 1295.184
469.3688, 1284.013
469.8509, 1276.455
470.3330, 1266.333
470.8151, 1251.648
471.2972, 1232.884
471.7794, 1215.042
472.2615, 1198.127
472.7436, 1181.669
473.2257, 1165.368
473.7078, 1149.160
474.1899, 1132.882
474.6721, 1116.242
475.1542, 1099.994
475.6363, 1084.900
476.1184, 1071.040
476.6005, 1058.961
477.0826, 1049.039
477.5648, 1040.949
478.0469, 1034.272
478.5290, 1028.932
479.0111, 1024.222
479.4932, 1020.325
479.9753, 1016.491
480.4575, 1011.612
480.9396, 1005.073
481.4217, 998.8453
481.9038, 994.1465
482.3859, 990.6152
482.8680, 987.7977
483.3502, 986.4553
483.8323, 984.9022
484.3144, 982.2654
484.7965, 978.6431
485.2786, 975.4447
485.7607, 972.3414
486.2429, 970.1682
486.7250, 969.3814
487.2071, 970.5559
487.6892, 971.9114
488.1713, 973.5414
488.6534, 975.2994
489.1356, 977.4548
489.6177, 981.1020
490.0998, 981.7012
490.5819, 976.8849
491.0640, 968.2693
491.5461, 964.7818
492.0283, 967.0471
492.5104, 969.7480
492.9925, 968.8967
493.4746, 965.1876
493.9567, 961.8805
494.4388, 958.9420
494.9210, 957.5527
495.4031, 960.8748
495.8852, 966.8362
496.3673, 970.1298
496.8494, 965.6437
497.3315, 960.5712
497.8137, 963.7849
498.2958, 973.0850
498.7779, 979.3320
499.2600, 974.8261
499.7421, 967.6235
500.2242, 963.3679
500.7064, 963.2698
501.1885, 963.6532
501.6706, 963.9287
502.1527, 963.9421
502.6348, 963.5286
503.1169, 961.3495
503.5991, 960.3950
504.0812, 962.0920
504.5633, 965.3729
505.0454, 965.9606
505.5275, 961.8349
506.0096, 958.5015
506.4918, 958.5758
506.9739, 962.4512
507.4560, 964.8326
507.9381, 965.4572
508.4202, 965.2850
508.9023, 965.4072
509.3845, 965.7637
509.8666, 965.2341
510.3487, 963.4138
510.8308, 960.9865
511.3129, 958.6448
511.7950, 956.5530
512.2772, 955.4619
512.7593, 956.9621
513.2414, 959.0507
513.7235, 958.8482
514.2056, 956.4210
514.6877, 954.4523
515.1699, 954.9694
515.6520, 956.5585
516.1341, 958.0155
516.6162, 959.3909
517.0983, 959.9707
517.5804, 958.8008
518.0626, 956.8231
518.5447, 955.5876
519.0268, 956.0916
519.5089, 956.5409
519.9910, 956.3275
520.4731, 955.5311
520.9553, 955.5935
521.4374, 957.2399
521.9195, 958.6744
522.4016, 958.6133
522.8837, 956.5424
523.3658, 955.9589
523.8480, 957.3691
524.3301, 959.2888
524.8122, 959.5168
525.2943, 958.1810
525.7764, 957.2249
526.2585, 957.3350
526.7407, 957.9502
527.2228, 957.7337
527.7049, 956.9217
528.1870, 956.8684
528.6691, 959.5455
529.1512, 962.8307
529.6334, 964.0507
530.1155, 962.9701
530.5976, 961.4890
531.0797, 960.2249
531.5618, 959.3359
532.0439, 959.0349
532.5261, 960.0261
533.0082, 960.6354
533.4903, 959.7629
533.9724, 958.2678
534.4545, 957.9893
534.9366, 960.2126
535.4188, 962.4001
535.9009, 964.1031
536.3830, 965.3275
536.8651, 965.9094
537.3472, 965.6219
537.8293, 965.1810
538.3115, 965.0283
538.7936, 965.1826
539.2757, 965.5936
539.7578, 966.3643
540.2399, 967.1135
540.7220, 967.3315
541.2042, 967.0603
541.6863, 966.4814
542.1684, 965.2101
542.6505, 964.1660
543.1326, 965.1850
543.6147, 967.7234
544.0969, 969.7521
544.5790, 969.2347
545.0611, 968.2193
545.5432, 968.5254
546.0253, 970.3577
546.5074, 972.1422
546.9896, 973.5073
547.4717, 974.3690
547.9538, 974.6588
548.4359, 974.2881
548.9180, 973.4430
549.4001, 971.4645
549.8823, 969.2366
550.3644, 968.2543
550.8465, 968.7504
551.3286, 970.1444
551.8107, 972.7924
552.2928, 976.3558
552.7750, 978.0792
553.2571, 977.7230
553.7392, 976.7914
554.2213, 975.9606
554.7034, 975.3088
555.1855, 975.3430
555.6677, 976.1290
556.1498, 977.2526
556.6319, 978.7306
557.1140, 980.1662
557.5961, 980.5792
558.0782, 978.9943
558.5604, 977.4662
559.0425, 977.7899
559.5246, 979.4328
560.0067, 981.2265
560.4888, 983.9070
560.9709, 985.5148
561.4531, 984.1121
561.9352, 979.6904
562.4173, 977.5724
562.8994, 981.1381
563.3815, 985.0294
563.8636, 986.4822
564.3458, 984.3193
564.8279, 982.8736
565.3100, 982.2718
565.7921, 982.2195
566.2742, 982.4205
566.7563, 982.9045
567.2385, 983.4371
567.7206, 984.0499
568.2027, 984.5840
568.6848, 984.4962
569.1669, 983.8835
569.6490, 983.4800
570.1312, 983.5281
570.6133, 984.0867
571.0954, 985.5924
571.5775, 987.9792
572.0596, 989.9186
572.5417, 990.3619
573.0239, 990.1193
573.5060, 989.8185
573.9881, 989.4646
574.4702, 989.3554
574.9523, 989.8995
575.4344, 990.6286
575.9166, 990.9370
576.3987, 990.1145
576.8808, 989.7775
577.3629, 990.1674
577.8450, 991.1575
578.3271, 992.4415
578.8093, 994.2158
579.2914, 995.6546
579.7735, 996.2868
580.2556, 996.2108
580.7377, 996.1933
581.2198, 996.1952
581.7020, 996.5519
582.1841, 998.0372
582.6662, 1000.026
583.1483, 1000.853
583.6304, 1000.089
584.1125, 999.2239
584.5947, 999.9037
585.0768, 1001.254
585.5589, 1001.987
586.0410, 1001.051
586.5231, 1000.142
587.0052, 999.9550
587.4874, 1000.362
587.9695, 1000.988
588.4516, 1002.261
