##NAMES=Hectorite
##RRUFFID=R050134
##IDEAL CHEMISTRY=Na_0.3_(Mg,Li)_3_Si_4_O_10_(OH)_2_
##LOCALITY=Hector, California, USA
##OWNER=RRUFF
##SOURCE=University of Arizona Mineral Museum
##DESCRIPTION=Compacted aggregate of fine-grained material
##STATUS=The identification of this mineral is not yet confirmed.
##URL=rruff.info/R050134
93.40265, 0.0000000E+00
93.88477, 2931.959
94.36688, 2808.704
94.84900, 2844.473
95.33112, 3022.727
95.81323, 3265.269
96.29535, 3545.672
96.77747, 3860.586
97.25958, 4197.571
97.74170, 4554.365
98.22382, 4941.555
98.70593, 5370.616
99.18805, 5843.283
99.67017, 6360.137
100.1523, 6919.293
100.6344, 7518.242
101.1165, 8159.845
101.5986, 8846.042
102.0807, 9573.569
102.5629, 10293.22
103.0450, 11000.38
103.5271, 11722.46
104.0092, 12482.64
104.4913, 13314.96
104.9734, 14116.18
105.4556, 14879.54
105.9377, 15597.57
106.4198, 16298.24
106.9019, 16977.66
107.3840, 17638.00
107.8661, 18264.68
108.3483, 18814.30
108.8304, 19395.02
109.3125, 20032.69
109.7946, 20736.43
110.2767, 21487.52
110.7588, 22269.02
111.2410, 23104.15
111.7231, 24037.12
112.2052, 25176.86
112.6873, 26336.68
113.1694, 27455.29
113.6515, 28506.69
114.1337, 29571.81
114.6158, 30691.32
115.0979, 31833.71
115.5800, 32928.04
116.0621, 33923.58
116.5442, 34880.76
117.0264, 35821.70
117.5085, 36811.43
117.9906, 37747.08
118.4727, 38595.14
118.9548, 39359.26
119.4369, 40060.83
119.9191, 40685.65
120.4012, 41269.86
120.8833, 41845.21
121.3654, 42441.84
121.8475, 43025.24
122.3296, 43559.73
122.8118, 44044.32
123.2939, 44540.18
123.7760, 45104.91
124.2581, 45704.72
124.7402, 46295.59
125.2223, 46785.98
125.7045, 47277.14
126.1866, 47898.87
126.6687, 48674.66
127.1508, 49486.34
127.6329, 50198.52
128.1150, 50839.09
128.5972, 51526.41
129.0793, 52362.33
129.5614, 53280.86
130.0435, 54137.87
130.5256, 54909.40
131.0077, 55636.10
131.4899, 56369.26
131.9720, 57108.63
132.4541, 57829.24
132.9362, 58324.59
133.4183, 58536.87
133.9004, 58701.94
134.3826, 58804.48
134.8647, 58870.20
135.3468, 58964.27
135.8289, 59092.80
136.3110, 59207.47
136.7931, 59254.89
137.2753, 59232.22
137.7574, 59236.96
138.2395, 59302.35
138.7216, 59408.94
139.2037, 59447.23
139.6858, 59398.47
140.1680, 59324.76
140.6501, 59284.47
141.1322, 59280.24
141.6143, 59289.67
142.0964, 59303.93
142.5785, 59321.64
143.0607, 59367.70
143.5428, 59450.63
144.0249, 59551.65
144.5070, 59655.45
144.9891, 59783.08
145.4712, 59872.36
145.9534, 59890.37
146.4355, 59806.04
146.9176, 59785.82
147.3997, 59851.34
147.8818, 59970.65
148.3639, 60096.00
148.8461, 60281.50
149.3282, 60409.27
149.8103, 60426.34
150.2924, 60237.18
150.7745, 60125.68
151.2566, 60123.83
151.7388, 60199.64
152.2209, 60270.48
152.7030, 60346.53
153.1851, 60408.71
153.6672, 60448.70
154.1493, 60446.93
154.6315, 60448.15
155.1136, 60451.70
155.5957, 60459.32
156.0778, 60477.02
156.5599, 60541.86
157.0420, 60593.55
157.5242, 60600.13
158.0063, 60525.52
158.4884, 60439.93
158.9705, 60332.52
159.4526, 60213.11
159.9347, 60139.58
160.4169, 60161.54
160.8990, 60215.58
161.3811, 60255.81
161.8632, 60262.61
162.3453, 60260.70
162.8274, 60248.88
163.3096, 60228.95
163.7917, 60226.46
164.2738, 60262.38
164.7559, 60316.68
165.2380, 60369.64
165.7201, 60425.57
166.2023, 60470.20
166.6844, 60498.56
167.1665, 60510.70
167.6486, 60504.57
168.1307, 60463.29
168.6128, 60407.15
169.0949, 60362.62
169.5771, 60321.36
170.0592, 60308.56
170.5413, 60374.23
171.0234, 60530.27
171.5055, 60638.28
171.9876, 60550.74
172.4698, 60351.57
172.9519, 60190.09
173.4340, 60164.38
173.9161, 60196.17
174.3982, 60207.52
174.8803, 60190.93
175.3625, 60165.96
175.8446, 60144.51
176.3267, 60127.40
176.8088, 60116.93
177.2909, 60108.00
177.7730, 60107.88
178.2552, 60131.77
178.7373, 60186.18
179.2194, 60243.77
179.7015, 60277.59
180.1836, 60290.41
180.6657, 60293.11
181.1479, 60282.39
181.6300, 60266.80
182.1121, 60275.46
182.5942, 60327.32
183.0763, 60362.23
183.5584, 60258.41
184.0406, 60039.51
184.5227, 59867.79
185.0048, 59897.02
185.4869, 60057.57
185.9690, 60143.75
186.4511, 60113.95
186.9333, 60019.42
187.4154, 59930.93
187.8975, 59848.10
188.3796, 59778.95
188.8617, 59732.84
189.3438, 59706.23
189.8260, 59679.38
190.3081, 59645.39
190.7902, 59614.40
191.2723, 59623.02
191.7544, 59673.54
192.2365, 59702.65
192.7187, 59638.11
193.2008, 59492.89
193.6829, 59395.38
194.1650, 59378.88
194.6471, 59414.90
195.1292, 59428.00
195.6114, 59417.86
196.0935, 59391.02
196.5756, 59353.05
197.0577, 59303.48
197.5398, 59229.40
198.0219, 59105.70
198.5041, 58961.90
198.9862, 58937.32
199.4683, 59052.69
199.9504, 59177.88
200.4325, 59189.25
200.9146, 59078.94
201.3968, 58979.00
201.8789, 58914.30
202.3610, 58880.58
202.8431, 58862.60
203.3252, 58865.95
203.8073, 58870.33
204.2895, 58862.24
204.7716, 58844.17
205.2537, 58802.07
205.7358, 58718.72
206.2179, 58607.55
206.7000, 58572.45
207.1822, 58644.38
207.6643, 58721.39
208.1464, 58692.71
208.6285, 58529.85
209.1106, 58399.77
209.5927, 58343.18
210.0749, 58353.56
210.5570, 58351.64
211.0391, 58322.77
211.5212, 58306.59
212.0033, 58355.19
212.4854, 58496.29
212.9676, 58597.94
213.4497, 58627.96
213.9318, 58587.80
214.4139, 58519.12
214.8960, 58396.55
215.3781, 58283.09
215.8603, 58249.75
216.3424, 58327.33
216.8245, 58393.29
217.3066, 58418.88
217.7887, 58404.73
218.2708, 58395.59
218.7529, 58391.35
219.2351, 58392.97
219.7172, 58406.55
220.1993, 58446.84
220.6814, 58462.32
221.1635, 58437.28
221.6456, 58371.05
222.1278, 58303.98
222.6099, 58225.53
223.0920, 58157.36
223.5741, 58125.54
224.0562, 58142.77
224.5383, 58166.34
225.0205, 58192.74
225.5026, 58222.24
225.9847, 58229.19
226.4668, 58197.72
226.9489, 58160.79
227.4310, 58159.07
227.9132, 58223.61
228.3953, 58256.78
228.8774, 58227.02
229.3595, 58131.41
229.8416, 58073.53
230.3237, 58066.56
230.8059, 58083.96
231.2880, 58103.10
231.7701, 58135.32
232.2522, 58147.11
232.7343, 58125.64
233.2164, 58069.06
233.6986, 58027.23
234.1807, 58004.54
234.6628, 57991.25
235.1449, 57976.56
235.6270, 57951.75
236.1091, 57941.61
236.5913, 57951.73
237.0734, 57982.04
237.5555, 58022.16
238.0376, 58088.77
238.5197, 58147.36
239.0018, 58163.04
239.4840, 58118.77
239.9661, 58061.58
240.4482, 57986.45
240.9303, 57893.97
241.4124, 57853.04
241.8945, 57893.50
242.3767, 57954.18
242.8588, 57981.20
243.3409, 57963.66
243.8230, 57934.15
244.3051, 57901.21
244.7872, 57864.12
245.2694, 57790.58
245.7515, 57640.52
246.2336, 57498.56
246.7157, 57440.11
247.1978, 57511.21
247.6799, 57574.95
248.1621, 57613.11
248.6442, 57627.27
249.1263, 57630.57
249.6084, 57623.10
250.0905, 57606.18
250.5726, 57577.54
251.0548, 57523.43
251.5369, 57487.04
252.0190, 57470.71
252.5011, 57475.67
252.9832, 57521.13
253.4653, 57642.82
253.9475, 57755.95
254.4296, 57790.52
254.9117, 57692.84
255.3938, 57639.11
255.8759, 57664.55
256.3580, 57751.57
256.8401, 57799.79
257.3223, 57801.85
257.8044, 57775.59
258.2865, 57726.82
258.7686, 57641.60
259.2507, 57573.09
259.7328, 57530.41
260.2150, 57509.35
260.6971, 57485.60
261.1792, 57453.78
261.6613, 57432.18
262.1434, 57442.06
262.6255, 57510.88
263.1077, 57523.25
263.5898, 57439.71
264.0719, 57305.43
264.5540, 57275.75
265.0361, 57398.86
265.5182, 57523.47
266.0004, 57560.37
266.4825, 57477.33
266.9646, 57419.94
267.4467, 57385.31
267.9288, 57383.63
268.4109, 57467.40
268.8931, 57690.47
269.3752, 57856.70
269.8573, 57834.02
270.3394, 57557.33
270.8215, 57416.73
271.3036, 57461.97
271.7858, 57605.88
272.2679, 57664.68
272.7500, 57621.40
273.2321, 57558.73
273.7142, 57515.80
274.1964, 57498.13
274.6785, 57459.47
275.1606, 57396.48
275.6427, 57319.88
276.1248, 57235.45
276.6069, 57134.18
277.0891, 57074.66
277.5712, 57100.43
278.0533, 57213.19
278.5354, 57272.22
279.0175, 57268.88
279.4996, 57230.20
279.9818, 57183.00
280.4639, 57124.14
280.9460, 57086.46
281.4281, 57083.12
281.9102, 57111.72
282.3923, 57161.59
282.8745, 57243.02
283.3566, 57310.86
283.8387, 57303.29
284.3208, 57218.39
284.8029, 57128.48
285.2850, 57047.31
285.7672, 56978.20
286.2493, 56938.73
286.7314, 56931.61
287.2135, 56940.46
287.6956, 56966.56
288.1777, 57006.45
288.6599, 56998.07
289.1420, 56898.43
289.6241, 56755.99
290.1062, 56716.59
290.5883, 56785.29
291.0704, 56884.18
291.5526, 56964.15
292.0347, 57023.43
292.5168, 57050.18
292.9989, 57038.26
293.4810, 56996.36
293.9631, 56922.55
294.4453, 56818.63
294.9274, 56737.77
295.4095, 56733.70
295.8916, 56784.78
296.3737, 56827.14
296.8558, 56850.68
297.3380, 56859.55
297.8201, 56870.24
298.3022, 56877.67
298.7843, 56850.51
299.2664, 56741.24
299.7485, 56586.81
300.2307, 56466.26
300.7128, 56386.25
301.1949, 56345.10
301.6770, 56367.96
302.1591, 56435.79
302.6412, 56481.54
303.1234, 56451.16
303.6055, 56386.53
304.0876, 56356.20
304.5697, 56371.42
305.0518, 56373.01
305.5339, 56268.12
306.0161, 56108.48
306.4982, 56004.48
306.9803, 56052.67
307.4624, 56152.15
307.9445, 56199.95
308.4266, 56192.21
308.9088, 56169.95
309.3909, 56138.96
309.8730, 56116.18
310.3551, 56125.80
310.8372, 56230.92
311.3193, 56330.99
311.8015, 56339.17
312.2836, 56264.48
312.7657, 56186.76
313.2478, 56158.76
313.7299, 56148.07
314.2120, 56121.22
314.6942, 56047.58
315.1763, 55981.93
315.6584, 55961.09
316.1405, 55975.07
316.6226, 55986.54
317.1047, 55975.38
317.5869, 55957.87
318.0690, 55945.85
318.5511, 55945.91
319.0332, 55943.18
319.5153, 55933.48
319.9974, 55916.49
320.4796, 55892.20
320.9617, 55836.59
321.4438, 55791.48
321.9259, 55784.52
322.4080, 55838.71
322.8901, 55870.63
323.3723, 55843.88
323.8544, 55788.52
324.3365, 55747.24
324.8186, 55744.81
325.3007, 55743.65
325.7828, 55741.59
326.2650, 55745.22
326.7471, 55711.28
327.2292, 55574.86
327.7113, 55427.24
328.1934, 55355.02
328.6755, 55449.85
329.1577, 55528.13
329.6398, 55557.13
330.1219, 55536.89
330.6040, 55521.61
331.0861, 55503.25
331.5682, 55494.24
332.0504, 55506.09
332.5325, 55582.94
333.0146, 55604.88
333.4967, 55531.06
333.9788, 55388.95
334.4609, 55313.51
334.9431, 55343.84
335.4252, 55384.64
335.9073, 55386.14
336.3894, 55331.45
336.8715, 55283.41
337.3536, 55239.64
337.8358, 55206.69
338.3179, 55202.64
338.8000, 55242.16
339.2821, 55275.07
339.7642, 55285.56
340.2463, 55274.74
340.7284, 55227.54
341.2105, 55125.98
341.6927, 55023.91
342.1748, 55009.25
342.6569, 55094.05
343.1390, 55157.83
343.6211, 55150.60
344.1032, 55086.64
344.5854, 55063.57
345.0675, 55085.89
345.5496, 55116.70
346.0317, 55113.77
346.5138, 55080.38
346.9959, 55067.84
347.4781, 55098.34
347.9602, 55144.33
348.4423, 55138.09
348.9244, 55081.50
349.4065, 55020.96
349.8886, 55004.63
350.3708, 55012.52
350.8529, 54977.32
351.3350, 54879.28
351.8171, 54772.26
352.2992, 54723.35
352.7813, 54727.00
353.2635, 54757.73
353.7456, 54833.14
354.2277, 54916.62
354.7098, 54954.12
355.1919, 54940.13
355.6740, 54899.00
356.1562, 54829.29
356.6383, 54748.35
357.1204, 54686.16
357.6025, 54671.71
358.0846, 54667.37
358.5667, 54634.18
359.0489, 54574.90
359.5310, 54534.43
360.0131, 54576.71
360.4952, 54634.85
360.9773, 54638.93
361.4594, 54528.66
361.9416, 54414.41
362.4237, 54348.68
362.9058, 54320.48
363.3879, 54294.53
363.8700, 54262.55
364.3521, 54226.51
364.8343, 54186.48
365.3164, 54137.43
365.7985, 54097.46
366.2806, 54099.14
366.7627, 54107.93
367.2448, 54068.75
367.7270, 53897.49
368.2091, 53749.59
368.6912, 53673.85
369.1733, 53683.22
369.6554, 53709.10
370.1375, 53782.25
370.6197, 53852.75
371.1018, 53878.64
371.5839, 53842.65
372.0660, 53782.36
372.5481, 53675.27
373.0302, 53535.43
373.5124, 53476.64
373.9945, 53541.00
374.4766, 53628.14
374.9587, 53682.42
375.4408, 53697.11
375.9229, 53697.21
376.4051, 53685.23
376.8872, 53658.68
377.3693, 53605.82
377.8514, 53517.74
378.3335, 53438.52
378.8156, 53389.83
379.2978, 53372.41
379.7799, 53357.32
380.2620, 53342.77
380.7441, 53337.75
381.2262, 53361.79
381.7083, 53413.47
382.1905, 53451.73
382.6726, 53466.37
383.1547, 53457.10
383.6368, 53404.67
384.1189, 53307.07
384.6010, 53231.02
385.0832, 53258.48
385.5653, 53350.51
386.0474, 53393.21
386.5295, 53350.13
387.0116, 53284.05
387.4937, 53277.14
387.9759, 53316.52
388.4580, 53354.31
388.9401, 53370.23
389.4222, 53367.43
389.9043, 53340.51
390.3864, 53285.74
390.8686, 53242.99
391.3507, 53263.01
391.8328, 53309.56
392.3149, 53329.55
392.7970, 53295.56
393.2791, 53235.23
393.7613, 53153.76
394.2434, 53054.12
394.7255, 52961.43
395.2076, 52847.46
395.6897, 52767.47
396.1718, 52769.74
396.6540, 52947.04
397.1361, 53076.89
397.6182, 53077.13
398.1003, 52992.29
398.5824, 52923.72
399.0645, 52899.24
399.5467, 52882.50
400.0288, 52859.08
400.5109, 52821.36
400.9930, 52801.31
401.4751, 52831.79
401.9572, 52860.73
402.4394, 52830.89
402.9215, 52688.48
403.4036, 52577.70
403.8857, 52532.23
404.3678, 52544.04
404.8499, 52534.43
405.3321, 52491.93
405.8142, 52450.98
406.2963, 52431.04
406.7784, 52431.48
407.2605, 52465.89
407.7426, 52555.98
408.2248, 52653.23
408.7069, 52649.37
409.1890, 52536.03
409.6711, 52420.82
410.1532, 52338.43
410.6353, 52289.46
411.1175, 52298.64
411.5996, 52374.05
412.0817, 52440.68
412.5638, 52396.84
413.0459, 52273.56
413.5280, 52183.80
414.0102, 52168.24
414.4923, 52187.57
414.9744, 52189.84
415.4565, 52177.90
415.9386, 52165.11
416.4207, 52162.86
416.9029, 52164.31
417.3850, 52163.26
417.8671, 52161.18
418.3492, 52148.36
418.8313, 52094.96
419.3134, 52030.23
419.7956, 51999.83
420.2777, 52064.22
420.7598, 52131.39
421.2419, 52153.64
421.7240, 52130.00
422.2061, 52091.37
422.6883, 52021.19
423.1704, 51954.46
423.6525, 51915.68
424.1346, 51939.34
424.6167, 51949.72
425.0988, 51923.15
425.5810, 51874.86
426.0631, 51843.59
426.5452, 51846.07
427.0273, 51850.33
427.5094, 51852.66
427.9915, 51859.79
428.4737, 51830.93
428.9558, 51736.85
429.4379, 51638.83
429.9200, 51607.25
430.4021, 51673.45
430.8842, 51713.20
431.3664, 51697.82
431.8485, 51643.20
432.3306, 51613.75
432.8127, 51615.52
433.2948, 51614.82
433.7769, 51588.85
434.2591, 51538.64
434.7412, 51481.42
435.2233, 51412.96
435.7054, 51351.82
436.1875, 51320.46
436.6696, 51317.22
437.1518, 51335.71
437.6339, 51392.82
438.1160, 51458.05
438.5981, 51482.75
439.0802, 51467.72
439.5623, 51423.98
440.0444, 51322.30
440.5266, 51210.62
441.0087, 51158.38
441.4908, 51201.25
441.9729, 51254.33
442.4550, 51260.68
442.9371, 51235.17
443.4193, 51206.22
443.9014, 51175.54
444.3835, 51153.64
444.8656, 51158.75
445.3477, 51193.96
445.8298, 51196.47
446.3120, 51113.42
446.7941, 51010.11
447.2762, 50938.16
447.7583, 50937.91
448.2404, 50927.23
448.7225, 50886.87
449.2047, 50829.70
449.6868, 50796.27
450.1689, 50805.88
450.6510, 50812.80
451.1331, 50796.20
451.6152, 50747.94
452.0974, 50733.78
452.5795, 50778.25
453.0616, 50821.87
453.5437, 50781.39
454.0258, 50636.36
454.5079, 50555.23
454.9901, 50590.83
455.4722, 50697.97
455.9543, 50753.98
456.4364, 50757.30
456.9185, 50727.40
457.4006, 50648.25
457.8828, 50542.97
458.3649, 50495.21
458.8470, 50517.11
459.3291, 50552.27
459.8112, 50536.01
460.2933, 50486.87
460.7755, 50446.50
461.2576, 50426.20
461.7397, 50425.46
462.2218, 50469.56
462.7039, 50543.99
463.1860, 50576.05
463.6682, 50495.61
464.1503, 50377.46
464.6324, 50277.61
465.1145, 50202.94
465.5966, 50147.46
466.0787, 50108.62
466.5609, 50087.55
467.0430, 50086.30
467.5251, 50154.53
468.0072, 50190.26
468.4893, 50141.83
468.9714, 50016.55
469.4536, 49955.49
469.9357, 50005.38
470.4178, 50068.46
470.8999, 50089.96
471.3820, 50043.86
471.8641, 50027.38
472.3463, 50058.71
472.8284, 50100.73
473.3105, 50088.79
473.7926, 50011.53
474.2747, 49944.50
474.7568, 49911.13
475.2390, 49905.31
475.7211, 49901.60
476.2032, 49899.35
476.6853, 49906.63
477.1674, 49951.31
477.6495, 50011.57
478.1317, 50009.71
478.6138, 49921.76
479.0959, 49824.69
479.5780, 49823.96
480.0601, 49880.84
480.5422, 49904.57
481.0244, 49813.74
481.5065, 49705.55
481.9886, 49669.23
482.4707, 49696.29
482.9528, 49709.14
483.4349, 49648.59
483.9171, 49573.35
484.3992, 49527.11
484.8813, 49524.77
485.3634, 49534.20
485.8455, 49578.77
486.3276, 49623.23
486.8098, 49614.47
487.2919, 49451.85
487.7740, 49341.11
488.2561, 49339.68
488.7382, 49439.39
489.2203, 49504.44
489.7025, 49530.01
490.1846, 49526.84
490.6667, 49493.36
491.1488, 49420.57
491.6309, 49367.46
492.1130, 49339.64
492.5952, 49326.16
493.0773, 49312.48
493.5594, 49298.72
494.0415, 49281.99
494.5236, 49263.57
495.0057, 49240.55
495.4879, 49201.91
495.9700, 49148.86
496.4521, 49094.94
496.9342, 49048.81
497.4163, 49008.35
497.8984, 48971.23
498.3806, 48936.67
498.8627, 48905.99
499.3448, 48877.60
499.8269, 48853.82
500.3090, 48837.93
500.7911, 48840.68
501.2733, 48841.95
501.7554, 48830.76
502.2375, 48809.17
502.7196, 48790.40
503.2017, 48772.21
503.6838, 48760.90
504.1660, 48763.80
504.6481, 48796.04
505.1302, 48799.26
505.6123, 48756.24
506.0944, 48696.36
506.5765, 48653.66
507.0587, 48637.16
507.5408, 48614.61
508.0229, 48579.50
508.5050, 48535.31
508.9871, 48483.87
509.4692, 48420.62
509.9514, 48384.31
510.4335, 48418.38
510.9156, 48505.79
511.3977, 48543.13
511.8798, 48525.57
512.3619, 48486.74
512.8441, 48450.09
513.3262, 48418.12
513.8083, 48397.50
514.2904, 48394.36
514.7725, 48395.23
515.2546, 48386.13
515.7368, 48370.46
516.2189, 48357.20
516.7010, 48350.26
517.1831, 48346.10
517.6652, 48353.88
518.1473, 48375.08
518.6295, 48357.12
519.1116, 48218.89
519.5937, 48076.17
520.0758, 48012.79
520.5579, 48147.63
521.0400, 48212.70
521.5222, 48177.02
522.0043, 48085.06
522.4864, 48017.69
522.9685, 47986.53
523.4506, 47954.45
523.9327, 47906.68
524.4149, 47848.93
524.8970, 47828.04
525.3791, 47850.24
525.8612, 47879.99
526.3433, 47898.85
526.8254, 47904.95
527.3076, 47875.91
527.7897, 47799.64
528.2718, 47733.04
528.7539, 47764.27
529.2360, 47855.62
529.7181, 47918.29
530.2003, 47912.85
530.6824, 47871.27
531.1645, 47795.18
531.6466, 47700.40
532.1287, 47640.15
532.6108, 47687.91
533.0930, 47741.14
533.5751, 47727.81
534.0572, 47622.87
534.5393, 47551.51
535.0214, 47563.80
535.5035, 47608.59
535.9857, 47642.22
536.4678, 47678.98
536.9499, 47680.68
537.4320, 47630.86
537.9141, 47550.00
538.3962, 47486.26
538.8784, 47438.90
539.3605, 47408.17
539.8426, 47398.50
540.3247, 47406.06
540.8068, 47409.86
541.2889, 47410.18
541.7711, 47402.18
542.2532, 47373.75
542.7353, 47333.77
543.2174, 47312.27
543.6995, 47317.38
544.1816, 47322.88
544.6638, 47302.20
545.1459, 47263.41
545.6280, 47221.47
546.1101, 47173.35
546.5922, 47132.05
547.0743, 47107.77
547.5565, 47096.97
548.0386, 47086.98
548.5207, 47043.99
549.0028, 47024.74
549.4849, 47070.41
549.9670, 47212.20
550.4492, 47297.04
550.9313, 47315.64
551.4134, 47282.10
551.8955, 47191.19
552.3776, 46991.56
552.8597, 46888.19
553.3419, 46932.26
553.8240, 47047.45
554.3061, 47075.26
554.7882, 47010.88
555.2703, 46940.01
555.7524, 46894.50
556.2346, 46867.52
556.7167, 46853.29
557.1988, 46849.61
557.6809, 46825.18
558.1630, 46732.17
558.6451, 46613.38
559.1273, 46525.91
559.6094, 46475.03
560.0915, 46459.82
560.5736, 46513.85
561.0557, 46589.08
561.5378, 46630.05
562.0200, 46591.18
562.5021, 46548.40
562.9842, 46517.23
563.4663, 46496.19
563.9484, 46480.27
564.4305, 46475.98
564.9127, 46468.41
565.3948, 46452.43
565.8769, 46428.19
566.3590, 46407.95
566.8411, 46395.83
567.3232, 46378.96
567.8054, 46344.45
568.2875, 46292.48
568.7696, 46246.91
569.2517, 46208.68
569.7338, 46179.95
570.2159, 46168.88
570.6981, 46170.48
571.1802, 46166.74
571.6623, 46150.42
572.1444, 46128.55
572.6265, 46109.63
573.1086, 46091.52
573.5908, 46067.27
574.0729, 46015.89
574.5550, 45971.07
575.0371, 45952.34
575.5192, 45961.19
576.0013, 45985.56
576.4835, 46051.68
576.9656, 46111.07
577.4477, 46131.19
577.9298, 46083.74
578.4119, 46048.67
578.8940, 46025.66
579.3762, 46015.20
579.8583, 46029.23
580.3404, 46080.32
580.8225, 46082.14
581.3046, 45994.45
581.7867, 45863.86
582.2689, 45820.59
582.7510, 45860.11
583.2331, 45909.40
583.7152, 45930.89
584.1973, 45935.31
584.6794, 45939.79
585.1616, 45944.66
585.6437, 45944.91
586.1258, 45948.86
586.6079, 45940.36
587.0900, 45899.81
587.5721, 45809.85
588.0542, 45725.07
588.5363, 45646.13
589.0184, 45589.02
589.5005, 45574.19
589.9827, 45679.52
590.4648, 45731.88
590.9469, 45690.68
591.4290, 45585.99
