##NAMES=Hectorite
##RRUFFID=R050134
##IDEAL CHEMISTRY=Na_0.3_(Mg,Li)_3_Si_4_O_10_(OH)_2_
##LOCALITY=Hector, California, USA
##OWNER=RRUFF
##SOURCE=University of Arizona Mineral Museum
##DESCRIPTION=Compacted aggregate of fine-grained material
##STATUS=The identification of this mineral is not yet confirmed.
##URL=rruff.info/R050134
93.56738, 498.0028
94.04950, 492.0421
94.53162, 492.4089
95.01373, 494.3138
95.49585, 499.9860
95.97797, 506.6409
96.46008, 511.3634
96.94220, 514.9285
97.42432, 517.4504
97.90643, 518.9847
98.38855, 519.6854
98.87067, 519.7231
99.35278, 519.2449
99.83490, 518.3019
100.3170, 516.7365
100.7991, 512.7047
101.2813, 509.1068
101.7634, 506.6299
102.2455, 504.4991
102.7276, 501.7316
103.2097, 497.7638
103.6918, 492.8002
104.1740, 488.0138
104.6561, 483.1866
105.1382, 478.6340
105.6203, 474.4600
106.1024, 470.6136
106.5845, 466.8970
107.0667, 462.9578
107.5488, 459.0053
108.0309, 455.7611
108.5130, 453.6663
108.9951, 452.0783
109.4772, 450.2282
109.9594, 447.9602
110.4415, 445.7847
110.9236, 443.8956
111.4057, 442.3097
111.8878, 441.1707
112.3699, 440.8293
112.8521, 441.1406
113.3342, 441.0270
113.8163, 440.1954
114.2984, 439.1790
114.7805, 438.0424
115.2626, 436.8795
115.7447, 435.9328
116.2269, 435.5200
116.7090, 435.8768
117.1911, 435.9338
117.6732, 435.3102
118.1553, 434.7043
118.6374, 434.6317
119.1196, 435.1338
119.6017, 435.7702
120.0838, 435.8124
120.5659, 434.6787
121.0480, 433.7802
121.5301, 433.1720
122.0123, 432.7696
122.4944, 432.5197
122.9765, 432.4131
123.4586, 432.3814
123.9407, 432.2246
124.4228, 431.8214
124.9050, 431.5395
125.3871, 431.5538
125.8692, 431.8019
126.3513, 432.1085
126.8334, 432.4960
127.3155, 432.8031
127.7977, 432.7425
128.2798, 432.0940
128.7619, 431.4112
129.2440, 431.3192
129.7261, 431.9348
130.2083, 432.3980
130.6904, 432.1501
131.1725, 431.5868
131.6546, 430.9799
132.1367, 430.3197
132.6188, 429.8041
133.1010, 429.9833
133.5831, 431.3424
134.0652, 432.6442
134.5473, 433.7681
135.0294, 434.5821
135.5115, 434.8619
135.9936, 434.3741
136.4758, 433.1909
136.9579, 432.4771
137.4400, 432.9078
137.9221, 433.1721
138.4042, 432.6327
138.8863, 431.6084
139.3685, 430.9445
139.8506, 431.4887
140.3327, 433.5537
140.8148, 434.4176
141.2969, 433.1705
141.7790, 431.7061
142.2612, 431.1122
142.7433, 431.4680
143.2254, 432.1583
143.7075, 432.5898
144.1896, 432.7338
144.6717, 432.5902
145.1539, 431.7509
145.6360, 430.7879
146.1181, 430.3943
146.6002, 430.7507
147.0823, 431.4764
147.5644, 432.3442
148.0466, 433.3297
148.5287, 433.9068
149.0108, 433.4740
149.4929, 432.3945
149.9750, 431.9234
150.4571, 432.6564
150.9393, 433.6128
151.4214, 433.9902
151.9035, 433.8046
152.3856, 433.3748
152.8677, 432.7501
153.3498, 431.8852
153.8320, 431.5604
154.3141, 432.4690
154.7962, 433.6020
155.2783, 434.5889
155.7604, 435.3413
156.2425, 435.8247
156.7247, 435.8891
157.2068, 435.1747
157.6889, 434.9508
158.1710, 435.4660
158.6531, 436.2951
159.1352, 437.2179
159.6174, 438.1457
160.0995, 439.0507
160.5816, 439.8659
161.0637, 440.5388
161.5458, 441.1798
162.0279, 441.5828
162.5101, 442.0367
162.9922, 442.8922
163.4743, 444.3101
163.9564, 446.0853
164.4385, 447.6428
164.9206, 448.7946
165.4028, 449.9903
165.8849, 451.5418
166.3670, 453.1711
166.8491, 454.2932
167.3312, 454.4936
167.8133, 454.1691
168.2955, 454.5506
168.7776, 455.9075
169.2597, 457.4370
169.7418, 458.8743
170.2239, 460.1989
170.7060, 461.2703
171.1882, 461.8603
171.6703, 462.2399
172.1524, 462.9442
172.6345, 464.0836
173.1166, 465.4261
173.5987, 466.8358
174.0809, 468.3397
174.5630, 469.7194
175.0451, 470.7497
175.5272, 471.6350
176.0093, 472.5629
176.4914, 473.5941
176.9736, 474.6674
177.4557, 475.6953
177.9378, 476.6740
178.4199, 477.6123
178.9020, 478.5463
179.3841, 479.4425
179.8663, 480.2231
180.3484, 480.8044
180.8305, 481.3405
181.3126, 482.3401
181.7947, 484.3451
182.2768, 486.0433
182.7590, 487.3659
183.2411, 488.2149
183.7232, 488.4282
184.2053, 487.8814
184.6874, 486.6880
185.1695, 485.5646
185.6517, 485.1729
186.1338, 484.1309
186.6159, 481.8867
187.0980, 478.8636
187.5801, 475.7646
188.0622, 473.0420
188.5444, 470.6661
189.0265, 468.0811
189.5086, 465.2321
189.9907, 462.2663
190.4728, 459.0911
190.9549, 455.8085
191.4371, 452.6737
191.9192, 449.8365
192.4013, 447.3167
192.8834, 444.9929
193.3655, 442.7898
193.8476, 440.8119
194.3298, 439.1444
194.8119, 437.7632
195.2940, 436.5811
195.7761, 435.5871
196.2582, 434.7571
196.7403, 433.8459
197.2225, 432.6207
197.7046, 431.4809
198.1867, 430.8138
198.6688, 430.6277
199.1509, 430.5051
199.6330, 430.2451
200.1152, 429.8272
200.5973, 429.1962
201.0794, 428.0854
201.5615, 426.9167
202.0436, 426.2826
202.5257, 426.2957
203.0079, 426.3430
203.4900, 425.9331
203.9721, 425.3589
204.4542, 425.0356
204.9363, 425.3092
205.4184, 425.7611
205.9006, 425.5309
206.3827, 424.3599
206.8648, 423.0876
207.3469, 421.8646
207.8290, 420.8120
208.3111, 420.1265
208.7933, 419.9667
209.2754, 420.1693
209.7575, 420.2759
210.2396, 420.3474
210.7217, 420.1984
211.2038, 419.5581
211.6860, 418.7663
212.1681, 418.3144
212.6502, 418.5465
213.1323, 419.2162
213.6144, 419.1712
214.0965, 417.5275
214.5787, 416.2430
215.0608, 415.8659
215.5429, 416.0106
216.0250, 416.1346
216.5071, 415.9143
216.9892, 415.4363
217.4713, 415.1992
217.9535, 415.7899
218.4356, 415.9942
218.9177, 415.2256
219.3998, 414.0160
219.8819, 413.1961
220.3640, 413.2695
220.8462, 414.0804
221.3283, 414.6088
221.8104, 414.6786
222.2925, 414.6811
222.7746, 414.6917
223.2567, 414.6895
223.7389, 414.6197
224.2210, 414.4443
224.7031, 414.1869
225.1852, 413.9816
225.6673, 413.9400
226.1494, 413.8191
226.6316, 413.5078
227.1137, 413.0669
227.5958, 412.6352
228.0779, 412.3019
228.5600, 412.0153
229.0421, 411.5767
229.5243, 410.7496
230.0064, 410.0874
230.4885, 409.8808
230.9706, 410.0187
231.4527, 410.1786
231.9348, 410.2025
232.4170, 410.1601
232.8991, 410.2599
233.3812, 410.6727
233.8633, 410.9122
234.3454, 410.6370
234.8275, 409.9443
235.3097, 409.2287
235.7918, 408.6087
236.2739, 408.0959
236.7560, 407.6502
237.2381, 407.2337
237.7202, 406.9916
238.2024, 407.1797
238.6845, 407.7133
239.1666, 407.9977
239.6487, 407.7410
240.1308, 407.2094
240.6129, 406.7487
241.0951, 406.3739
241.5772, 406.0025
242.0593, 405.4857
242.5414, 404.8462
243.0235, 404.4690
243.5056, 404.6482
243.9878, 404.9583
244.4699, 405.0736
244.9520, 404.9762
245.4341, 404.7241
245.9162, 404.3121
246.3983, 403.7419
246.8805, 403.2169
247.3626, 402.8198
247.8447, 402.4360
248.3268, 401.8514
248.8089, 401.1260
249.2910, 400.6831
249.7732, 401.0981
250.2553, 402.4189
250.7374, 403.3409
251.2195, 403.6560
251.7016, 403.6024
252.1837, 403.0718
252.6659, 402.2065
253.1480, 401.4406
253.6301, 401.2208
254.1122, 401.5864
254.5943, 401.8714
255.0764, 402.2273
255.5586, 402.3373
256.0407, 401.9379
256.5228, 401.1625
257.0049, 400.3612
257.4870, 399.7719
257.9691, 399.3911
258.4513, 399.3430
258.9334, 400.0499
259.4155, 400.7203
259.8976, 401.0817
260.3797, 401.2325
260.8618, 401.4175
261.3440, 401.8251
261.8261, 402.4471
262.3082, 403.0125
262.7903, 403.7563
263.2724, 404.1827
263.7545, 403.9822
264.2367, 403.3972
264.7188, 402.8365
265.2009, 402.5710
265.6830, 402.5630
266.1651, 402.5146
266.6472, 402.3776
267.1294, 402.2487
267.6115, 402.0874
268.0936, 401.9553
268.5757, 401.9920
269.0578, 402.2920
269.5399, 402.7367
270.0221, 402.7949
270.5042, 401.7078
270.9863, 401.0939
271.4684, 401.5276
271.9505, 402.4074
272.4326, 402.9386
272.9148, 402.7563
273.3969, 402.1283
273.8790, 401.8005
274.3611, 402.1615
274.8432, 402.3749
275.3253, 402.2495
275.8075, 402.0301
276.2896, 402.0482
276.7717, 402.4177
277.2538, 402.8855
277.7359, 402.9635
278.2180, 402.1693
278.7002, 401.7166
279.1823, 401.7735
279.6644, 402.0907
280.1465, 402.6198
280.6286, 403.3046
281.1107, 403.7252
281.5929, 403.1754
282.0750, 400.7896
282.5571, 399.6611
283.0392, 401.1002
283.5213, 402.9500
284.0034, 403.2228
284.4856, 401.6974
284.9677, 399.7963
285.4498, 399.0654
285.9319, 399.8208
286.4140, 400.3140
286.8961, 400.5512
287.3783, 400.5364
287.8604, 400.1763
288.3425, 399.5138
288.8246, 398.7766
289.3067, 398.1267
289.7888, 397.5753
290.2710, 397.2535
290.7531, 397.3407
291.2352, 397.4727
291.7173, 397.5291
292.1994, 397.4731
292.6815, 397.1775
293.1637, 396.4803
293.6458, 395.4898
294.1279, 394.8956
294.6100, 395.2121
295.0921, 395.3442
295.5742, 394.5036
296.0564, 393.0779
296.5385, 392.1797
297.0206, 392.4670
297.5027, 393.4943
297.9848, 393.8683
298.4669, 393.2498
298.9491, 392.7125
299.4312, 392.7782
299.9133, 393.1395
300.3954, 393.1564
300.8775, 392.5574
301.3596, 391.6635
301.8418, 391.0696
302.3239, 390.7870
302.8060, 390.6213
303.2881, 390.5113
303.7702, 390.4973
304.2523, 390.7359
304.7345, 391.2975
305.2166, 391.8049
305.6987, 391.6611
306.1808, 390.7994
306.6629, 390.2046
307.1451, 390.2253
307.6272, 390.4574
308.1093, 390.4742
308.5914, 390.2216
309.0735, 389.9088
309.5556, 389.6971
310.0378, 389.5949
310.5199, 389.5698
311.0020, 389.5893
311.4841, 389.7123
311.9662, 390.0825
312.4483, 390.6656
312.9305, 391.1248
313.4126, 391.1976
313.8947, 390.9726
314.3768, 390.9191
314.8589, 391.2082
315.3410, 391.4847
315.8232, 391.4822
316.3053, 391.2915
316.7874, 391.2692
317.2695, 391.6532
317.7516, 392.2092
318.2337, 392.3106
318.7159, 391.6705
319.1980, 391.2869
319.6801, 391.8232
320.1622, 392.8375
320.6443, 393.4224
321.1264, 393.2533
321.6086, 392.7152
322.0907, 392.4048
322.5728, 392.3510
323.0549, 392.2162
323.5370, 391.6512
324.0191, 391.0790
324.5013, 391.2381
324.9834, 392.2985
325.4655, 393.3359
325.9476, 393.2817
326.4297, 392.1258
326.9118, 391.3910
327.3940, 391.4608
327.8761, 391.8197
328.3582, 392.1418
328.8403, 392.3893
329.3224, 392.4608
329.8045, 392.2144
330.2867, 391.7202
330.7688, 391.4494
331.2509, 391.4799
331.7330, 391.6421
332.2151, 392.0648
332.6972, 392.5886
333.1794, 392.6481
333.6615, 391.8525
334.1436, 390.5782
334.6257, 389.8618
335.1078, 389.8389
335.5899, 389.9466
336.0721, 390.1756
336.5542, 390.3906
337.0363, 390.3182
337.5184, 389.8482
338.0005, 389.2370
338.4826, 388.8898
338.9648, 388.8996
339.4469, 388.7595
339.9290, 388.2918
340.4111, 387.7207
340.8932, 387.2312
341.3753, 386.8581
341.8574, 386.6119
342.3395, 386.5487
342.8217, 386.6881
343.3038, 386.6103
343.7859, 386.0398
344.2680, 385.5036
344.7501, 385.4159
345.2322, 385.6728
345.7144, 385.8542
346.1965, 385.7235
346.6786, 385.2882
347.1607, 384.5599
347.6428, 383.2023
348.1249, 382.0112
348.6071, 381.1374
349.0892, 380.5838
349.5713, 380.4608
350.0534, 380.8437
350.5355, 381.4123
351.0176, 381.5183
351.4998, 380.9301
351.9819, 380.2964
352.4640, 379.5243
352.9461, 378.7924
353.4282, 378.2566
353.9103, 377.9471
354.3925, 377.8085
354.8746, 377.7863
355.3567, 377.8965
355.8388, 378.0608
356.3209, 378.5137
356.8030, 378.8016
357.2852, 378.5133
357.7673, 377.8077
358.2494, 377.2354
358.7315, 377.2225
359.2136, 377.6828
359.6957, 377.7520
360.1779, 377.0135
360.6600, 376.3903
361.1421, 376.1544
361.6242, 376.1187
362.1063, 376.0767
362.5884, 375.9407
363.0706, 375.6299
363.5527, 374.9217
364.0348, 372.9444
364.5169, 371.9479
364.9990, 372.6252
365.4811, 373.7490
365.9633, 374.5788
366.4454, 374.9027
366.9275, 374.6978
367.4096, 373.8083
367.8917, 371.9637
368.3738, 370.9288
368.8560, 371.3994
369.3381, 371.9242
369.8202, 371.9506
370.3023, 371.5833
370.7844, 371.1770
371.2665, 370.9648
371.7487, 370.9092
372.2308, 370.8071
372.7129, 370.7096
373.1950, 370.4738
373.6771, 369.8501
374.1592, 369.1825
374.6414, 368.9272
375.1235, 369.2320
375.6056, 369.7009
376.0877, 369.5990
376.5698, 368.6323
377.0519, 367.9308
377.5341, 367.6563
378.0162, 367.5960
378.4983, 367.7902
378.9804, 368.1494
379.4625, 368.3783
379.9446, 368.1909
380.4268, 367.5976
380.9089, 366.9315
381.3910, 366.0147
381.8731, 365.2700
382.3552, 364.8439
382.8373, 364.6856
383.3195, 364.7575
383.8016, 365.1267
384.2837, 365.5674
384.7658, 365.6219
385.2479, 365.2570
385.7300, 364.6159
386.2122, 363.3150
386.6943, 362.0009
387.1764, 361.2950
387.6585, 361.3139
388.1406, 361.4319
388.6227, 360.9768
389.1049, 360.0031
389.5870, 359.3112
390.0691, 359.1212
390.5512, 359.1065
391.0333, 358.9339
391.5154, 358.6862
391.9976, 358.6808
392.4797, 359.3287
392.9618, 360.2328
393.4439, 360.6762
393.9260, 360.6235
394.4081, 360.2600
394.8903, 359.3818
395.3724, 358.3563
395.8545, 357.8394
396.3366, 358.1179
396.8187, 358.5174
397.3008, 358.4922
397.7830, 358.1393
398.2651, 357.9278
398.7472, 358.0839
399.2293, 358.3008
399.7114, 357.9740
400.1935, 357.0510
400.6757, 356.5937
401.1578, 357.4619
401.6399, 358.7054
402.1220, 359.1131
402.6041, 358.5417
403.0862, 357.5162
403.5684, 356.2768
404.0505, 354.9049
404.5326, 354.0910
405.0147, 354.3036
405.4968, 354.5898
405.9789, 354.4937
406.4611, 354.1127
406.9432, 353.6692
407.4253, 353.2369
407.9074, 352.8806
408.3895, 352.7659
408.8716, 353.1057
409.3538, 353.2824
409.8359, 353.2191
410.3180, 352.9976
410.8001, 352.5476
411.2822, 351.9338
411.7643, 351.5386
412.2465, 351.8224
412.7286, 352.9029
413.2107, 353.3378
413.6928, 352.6223
414.1749, 351.8993
414.6570, 351.4964
415.1392, 351.3632
415.6213, 351.4447
416.1034, 351.7269
416.5855, 352.0231
417.0676, 351.7649
417.5497, 350.2101
418.0319, 349.4164
418.5140, 350.0296
418.9961, 350.9683
419.4782, 351.4589
419.9603, 351.4056
420.4424, 351.1993
420.9246, 351.2626
421.4067, 351.6190
421.8888, 351.7267
422.3709, 351.3822
422.8530, 351.0191
423.3351, 350.9312
423.8173, 350.8939
424.2994, 350.4469
424.7815, 349.2581
425.2636, 347.8922
425.7457, 347.5353
426.2278, 348.4495
426.7100, 349.2250
427.1921, 349.5218
427.6742, 349.5008
428.1563, 349.0560
428.6384, 348.2275
429.1205, 347.6981
429.6027, 348.3351
430.0848, 349.7129
430.5669, 350.1814
431.0490, 349.3092
431.5311, 348.3050
432.0132, 348.1330
432.4954, 348.4498
432.9775, 348.6250
433.4596, 348.4181
433.9417, 348.1356
434.4238, 348.1078
434.9059, 348.2794
435.3881, 348.2760
435.8702, 347.8707
436.3523, 347.3484
436.8344, 347.2837
437.3165, 347.7733
437.7986, 348.0444
438.2808, 347.7428
438.7629, 347.2037
439.2450, 346.8351
439.7271, 346.6758
440.2092, 346.4490
440.6913, 345.8622
441.1735, 344.9577
441.6556, 344.5227
442.1377, 344.8927
442.6198, 345.2832
443.1019, 345.4269
443.5840, 345.4193
444.0662, 345.4183
444.5483, 345.4848
445.0304, 345.5965
445.5125, 345.7386
445.9946, 346.0681
446.4767, 346.0373
446.9589, 345.3648
447.4410, 344.6271
447.9231, 344.0665
448.4052, 343.7326
448.8873, 343.6443
449.3694, 343.8335
449.8516, 344.2632
450.3337, 344.7379
450.8158, 345.5205
451.2979, 345.9106
451.7800, 345.4958
452.2621, 344.8364
452.7443, 344.4760
453.2264, 344.5456
453.7085, 344.7455
454.1906, 344.7388
454.6727, 344.5191
455.1548, 344.3096
455.6370, 344.1984
456.1191, 343.9950
456.6012, 343.4484
457.0833, 342.7469
457.5654, 342.3200
458.0475, 342.4278
458.5297, 342.8152
459.0118, 343.2321
459.4939, 343.6873
459.9760, 343.7793
460.4581, 343.0135
460.9402, 342.1256
461.4224, 342.3210
461.9045, 343.7768
462.3866, 344.7148
462.8687, 343.8950
463.3508, 342.3114
463.8329, 341.4901
464.3151, 341.6203
464.7972, 342.0047
465.2793, 342.2085
465.7614, 342.2033
466.2435, 341.8951
466.7256, 340.9258
467.2078, 340.0819
467.6899, 339.6528
468.1720, 339.5333
468.6541, 339.6419
469.1362, 339.9467
469.6183, 340.2108
470.1005, 340.0704
470.5826, 339.3694
471.0647, 338.7640
471.5468, 338.1340
472.0289, 337.6978
472.5110, 337.7858
472.9932, 338.1488
473.4753, 338.1827
473.9574, 337.4888
474.4395, 336.3888
474.9216, 335.9469
475.4037, 336.6771
475.8859, 337.0308
476.3680, 336.7118
476.8501, 336.0677
477.3322, 335.1397
477.8143, 334.0443
478.2964, 333.1991
478.7786, 333.0883
479.2607, 333.5813
479.7428, 333.8603
480.2249, 333.8720
480.7070, 333.7805
481.1891, 333.4647
481.6713, 333.1644
482.1534, 333.2730
482.6355, 334.0054
483.1176, 334.7109
483.5997, 334.8285
484.0818, 334.4603
484.5640, 333.9326
485.0461, 333.2210
485.5282, 332.6341
486.0103, 332.6477
486.4924, 333.1721
486.9745, 333.3815
487.4567, 332.8683
487.9388, 332.2722
488.4209, 332.1808
488.9030, 332.3993
489.3851, 332.1786
489.8672, 331.0875
490.3494, 329.7458
490.8315, 329.4555
491.3136, 331.1904
491.7957, 332.1374
492.2778, 331.9013
492.7599, 331.1905
493.2421, 330.1893
493.7242, 329.1245
494.2063, 328.5439
494.6884, 328.9316
495.1705, 330.0031
495.6526, 330.1906
496.1348, 328.6197
496.6169, 327.5606
497.0990, 327.6801
497.5811, 328.1557
498.0632, 328.3343
498.5453, 328.1003
499.0275, 327.7049
499.5096, 327.2540
499.9917, 326.7837
500.4738, 326.7643
500.9559, 327.4674
501.4380, 328.0785
501.9202, 328.1387
502.4023, 327.8715
502.8844, 327.5409
503.3665, 327.1893
503.8486, 326.8288
504.3307, 326.4498
504.8129, 326.0674
505.2950, 325.7028
505.7771, 325.3224
506.2592, 325.1052
506.7413, 325.3485
507.2234, 326.0152
507.7055, 326.4042
508.1877, 326.3080
508.6698, 326.0726
509.1519, 325.8753
509.6340, 325.6950
510.1161, 325.4691
510.5982, 325.1703
511.0804, 324.8083
511.5625, 324.3563
512.0446, 323.5648
512.5267, 323.3705
513.0089, 324.6194
513.4910, 325.6070
513.9731, 325.1869
514.4552, 323.7707
514.9373, 322.4363
515.4194, 321.8167
515.9016, 321.6949
516.3837, 321.5082
516.8658, 321.1904
517.3479, 320.9906
517.8300, 321.1112
518.3121, 321.2337
518.7943, 321.1702
519.2764, 320.9220
519.7585, 320.5926
520.2406, 320.2443
520.7227, 319.8606
521.2048, 319.2701
521.6870, 318.3966
522.1691, 318.0088
522.6512, 318.8349
523.1333, 320.0759
523.6154, 320.3808
524.0975, 319.5685
524.5797, 318.6855
525.0618, 318.1047
525.5439, 317.6794
526.0260, 317.1739
526.5081, 316.5845
526.9902, 316.2115
527.4724, 316.3307
527.9545, 316.8221
528.4366, 316.9504
528.9187, 316.2678
529.4008, 315.8290
529.8829, 316.0866
530.3651, 316.4552
530.8472, 316.3673
531.3293, 315.7470
531.8114, 314.8342
532.2935, 313.7076
532.7756, 312.4237
533.2578, 312.2888
533.7399, 314.3835
534.2220, 315.9892
534.7041, 316.2795
535.1862, 315.8404
535.6683, 315.0951
536.1505, 314.1622
536.6326, 313.4269
537.1147, 313.4220
537.5968, 313.9658
538.0789, 314.2072
538.5610, 314.0485
539.0432, 313.6961
539.5253, 313.2765
540.0074, 312.7517
540.4895, 311.9890
540.9716, 310.6994
541.4537, 309.6678
541.9359, 309.2896
542.4180, 309.4550
542.9001, 310.1979
543.3822, 311.5030
543.8643, 312.6191
544.3464, 312.7489
544.8286, 311.8554
545.3107, 311.2737
545.7928, 311.4082
546.2749, 311.3241
546.7570, 310.4564
547.2391, 309.3876
547.7213, 308.8812
548.2034, 309.1151
548.6855, 309.5983
549.1676, 309.7489
549.6497, 309.5423
550.1318, 309.3797
550.6140, 309.3260
551.0961, 309.2171
551.5782, 308.9151
552.0603, 308.5567
552.5424, 308.3536
553.0245, 308.3875
553.5067, 308.4296
553.9888, 308.1542
554.4709, 307.6967
554.9530, 307.6758
555.4351, 308.3140
555.9172, 308.8488
556.3994, 308.5653
556.8815, 307.6234
557.3636, 306.9852
557.8457, 306.8219
558.3278, 306.7939
558.8099, 306.7847
559.2921, 306.8199
559.7742, 306.9754
560.2563, 307.2549
560.7384, 307.5464
561.2205, 307.7804
561.7026, 307.9767
562.1848, 307.6162
562.6669, 305.7824
563.1490, 304.4428
563.6311, 304.3459
564.1132, 304.7453
564.5953, 304.8068
565.0775, 304.3289
565.5596, 303.7047
566.0417, 303.3051
566.5238, 303.1230
567.0059, 303.1060
567.4880, 303.3569
567.9702, 303.5351
568.4523, 303.2597
568.9344, 302.8678
569.4165, 302.9019
569.8986, 303.5900
570.3807, 304.1488
570.8629, 304.0880
571.3450, 303.6171
571.8271, 302.9656
572.3092, 302.1827
572.7913, 301.6166
573.2734, 301.5629
573.7556, 301.9473
574.2377, 302.2470
574.7198, 302.4922
575.2019, 302.6139
575.6840, 302.6003
576.1661, 302.4571
576.6483, 302.0645
577.1304, 301.4986
577.6125, 301.1233
578.0946, 301.3235
578.5767, 301.9421
579.0588, 302.0421
579.5410, 301.3483
580.0231, 300.7684
580.5052, 300.6021
580.9873, 300.6236
581.4694, 300.7706
581.9515, 301.0080
582.4337, 301.0553
582.9158, 300.6920
583.3979, 300.0695
583.8800, 299.3218
584.3621, 298.4709
584.8442, 297.8836
585.3264, 297.7760
585.8085, 297.9690
586.2906, 298.1045
586.7727, 298.1279
587.2548, 298.2651
587.7369, 298.7739
588.2190, 299.1974
588.7011, 299.1322
589.1832, 298.7127
589.6653, 298.3626
590.1475, 298.3144
590.6296, 298.3906
591.1117, 298.1603
591.5938, 297.4569
592.0759, 296.9741
