##NAMES=Hedenbergite
##RRUFFID=R050030
##IDEAL CHEMISTRY=CaFe^2+^Si_2_O_6_
##LOCALITY=Heroult, Ontario, Canada
##OWNER=RRUFF
##SOURCE=University of Arizona Mineral Museum
##DESCRIPTION=Green fragments
##STATUS=The identification of this mineral has been confirmed by X-ray diffraction and chemical analysis
##URL=rruff.info/R050030
##MEASURED CHEMISTRY=(Ca_.993_Na_.007_)(Fe_.860_Mn_.111_Mg_.029_)(Si_.993_Al_.007_)_2_O_6_
134.7162, 832.5688
135.1983, 854.7114
135.6804, 877.8904
136.1626, 901.2920
136.6447, 926.4591
137.1268, 957.3369
137.6089, 995.2012
138.0910, 1033.489
138.5731, 1067.724
139.0553, 1097.344
139.5374, 1127.190
140.0195, 1156.446
140.5016, 1186.248
140.9837, 1220.121
141.4658, 1259.876
141.9480, 1301.378
142.4301, 1341.979
142.9122, 1382.692
143.3943, 1420.650
143.8764, 1459.201
144.3585, 1497.698
144.8407, 1518.316
145.3228, 1514.549
145.8049, 1497.642
146.2870, 1477.735
146.7691, 1455.615
147.2512, 1429.692
147.7334, 1396.308
148.2155, 1350.036
148.6976, 1319.485
149.1797, 1309.923
149.6618, 1314.620
150.1439, 1324.617
150.6261, 1342.147
151.1082, 1362.862
151.5903, 1386.954
152.0724, 1419.028
152.5545, 1443.886
153.0366, 1453.266
153.5188, 1454.819
154.0009, 1463.543
154.4830, 1494.291
154.9651, 1523.277
155.4472, 1539.949
155.9293, 1536.154
156.4115, 1530.004
156.8936, 1523.193
157.3757, 1516.316
157.8578, 1511.308
158.3399, 1503.910
158.8221, 1501.345
159.3042, 1508.243
159.7863, 1531.620
160.2684, 1558.848
160.7505, 1584.992
161.2326, 1610.911
161.7148, 1641.458
162.1969, 1679.518
162.6790, 1723.087
163.1611, 1769.694
163.6432, 1825.815
164.1253, 1879.443
164.6075, 1923.311
165.0896, 1957.124
165.5717, 1988.262
166.0538, 2019.895
166.5359, 2051.619
167.0180, 2082.921
167.5002, 2109.157
167.9823, 2137.908
168.4644, 2173.575
168.9465, 2216.014
169.4286, 2268.597
169.9107, 2336.254
170.3929, 2415.718
170.8750, 2501.937
171.3571, 2589.229
171.8392, 2682.310
172.3213, 2786.534
172.8034, 2902.123
173.2856, 3026.771
173.7677, 3160.308
174.2498, 3302.107
174.7319, 3447.393
175.2140, 3605.034
175.6961, 3761.900
176.1783, 3899.304
176.6604, 4015.971
177.1425, 4105.543
177.6246, 4158.928
178.1067, 4176.576
178.5888, 4164.566
179.0710, 4122.504
179.5531, 4054.148
180.0352, 3963.342
180.5173, 3836.841
180.9994, 3703.837
181.4815, 3608.870
181.9637, 3551.063
182.4458, 3528.662
182.9279, 3546.942
183.4100, 3601.017
183.8921, 3672.814
184.3742, 3759.963
184.8564, 3860.458
185.3385, 3967.825
185.8206, 4083.050
186.3027, 4204.356
186.7848, 4340.762
187.2669, 4488.057
187.7491, 4619.819
188.2312, 4736.254
188.7133, 4830.143
189.1954, 4881.629
189.6775, 4892.953
190.1596, 4849.133
190.6418, 4721.405
191.1239, 4511.134
191.6060, 4263.483
192.0881, 3979.657
192.5702, 3665.594
193.0524, 3371.675
193.5345, 3098.608
194.0166, 2845.530
194.4987, 2613.416
194.9808, 2401.713
195.4629, 2218.721
195.9451, 2076.921
196.4272, 1973.797
196.9093, 1877.057
197.3914, 1784.163
197.8735, 1700.030
198.3556, 1636.490
198.8378, 1595.937
199.3199, 1561.842
199.8020, 1525.316
200.2841, 1486.117
200.7662, 1453.124
201.2483, 1427.704
201.7305, 1407.993
202.2126, 1389.861
202.6947, 1373.476
203.1768, 1358.042
203.6589, 1342.057
204.1410, 1324.872
204.6232, 1313.141
205.1053, 1308.757
205.5874, 1309.643
206.0695, 1309.294
206.5516, 1307.838
207.0337, 1304.817
207.5159, 1299.068
207.9980, 1289.667
208.4801, 1282.534
208.9622, 1278.891
209.4443, 1278.061
209.9264, 1276.369
210.4086, 1272.775
210.8907, 1270.406
211.3728, 1271.375
211.8549, 1275.539
212.3370, 1283.977
212.8191, 1298.863
213.3013, 1318.841
213.7834, 1333.641
214.2655, 1342.747
214.7476, 1347.512
215.2297, 1347.965
215.7118, 1341.623
216.1940, 1337.450
216.6761, 1334.811
217.1582, 1334.147
217.6403, 1348.379
218.1224, 1383.893
218.6045, 1425.514
219.0867, 1459.043
219.5688, 1482.332
220.0509, 1501.767
220.5330, 1516.870
221.0151, 1527.678
221.4972, 1541.570
221.9794, 1558.543
222.4615, 1578.719
222.9436, 1602.659
223.4257, 1631.274
223.9078, 1662.137
224.3899, 1693.817
224.8721, 1726.439
225.3542, 1763.895
225.8363, 1808.194
226.3184, 1855.714
226.8005, 1902.832
227.2827, 1947.896
227.7648, 1995.295
228.2469, 2047.513
228.7290, 2105.693
229.2111, 2158.823
229.6932, 2208.071
230.1754, 2250.711
230.6575, 2284.366
231.1396, 2311.306
231.6217, 2324.645
232.1038, 2322.065
232.5859, 2302.648
233.0681, 2272.092
233.5502, 2229.826
234.0323, 2177.086
234.5144, 2113.691
234.9965, 2034.547
235.4786, 1953.760
235.9608, 1872.255
236.4429, 1787.066
236.9250, 1720.047
237.4071, 1677.367
237.8892, 1649.577
238.3713, 1622.322
238.8535, 1595.707
239.3356, 1569.413
239.8177, 1542.839
240.2998, 1514.831
240.7819, 1490.756
241.2640, 1470.336
241.7462, 1453.617
242.2283, 1440.574
242.7104, 1431.572
243.1925, 1425.708
243.6746, 1423.612
244.1567, 1427.461
244.6389, 1427.133
245.1210, 1419.686
245.6031, 1409.818
246.0852, 1406.747
246.5673, 1415.924
247.0494, 1422.558
247.5316, 1420.206
248.0137, 1404.505
248.4958, 1394.601
248.9779, 1391.700
249.4600, 1393.997
249.9421, 1398.276
250.4243, 1404.492
250.9064, 1412.845
251.3885, 1424.374
251.8706, 1441.549
252.3527, 1453.788
252.8348, 1460.674
253.3170, 1462.906
253.7991, 1460.633
254.2812, 1450.269
254.7633, 1442.293
255.2454, 1440.528
255.7275, 1445.610
256.2097, 1455.077
256.6918, 1470.816
257.1739, 1489.531
257.6560, 1504.996
258.1381, 1515.476
258.6202, 1526.391
259.1024, 1540.969
259.5845, 1561.345
260.0666, 1575.254
260.5487, 1579.493
261.0308, 1579.668
261.5129, 1587.209
261.9951, 1605.547
262.4772, 1622.860
262.9593, 1633.070
263.4414, 1633.501
263.9235, 1639.880
264.4056, 1652.527
264.8878, 1670.957
265.3699, 1696.205
265.8520, 1731.695
266.3341, 1764.869
266.8162, 1791.481
267.2983, 1810.963
267.7805, 1824.580
268.2626, 1828.317
268.7447, 1830.559
269.2268, 1848.524
269.7089, 1887.640
270.1910, 1922.822
270.6732, 1941.377
271.1553, 1940.349
271.6374, 1952.528
272.1195, 1982.186
272.6016, 2018.838
273.0837, 2043.331
273.5659, 2053.172
274.0480, 2064.201
274.5301, 2083.252
275.0122, 2110.556
275.4943, 2136.626
275.9764, 2160.273
276.4586, 2184.921
276.9407, 2217.580
277.4228, 2258.999
277.9049, 2298.237
278.3870, 2327.774
278.8691, 2348.432
279.3513, 2380.452
279.8334, 2426.047
280.3155, 2477.315
280.7976, 2523.700
281.2798, 2564.556
281.7619, 2606.259
282.2440, 2650.365
282.7261, 2697.041
283.2082, 2748.527
283.6903, 2805.715
284.1725, 2864.429
284.6546, 2917.179
285.1367, 2963.993
285.6188, 3017.596
286.1009, 3082.453
286.5830, 3157.688
287.0652, 3243.433
287.5473, 3340.817
288.0294, 3437.303
288.5115, 3511.286
288.9936, 3567.082
289.4757, 3637.193
289.9579, 3739.484
290.4400, 3862.441
290.9221, 3975.074
291.4042, 4076.301
291.8863, 4180.718
292.3684, 4310.117
292.8506, 4457.572
293.3327, 4594.364
293.8148, 4706.896
294.2969, 4806.717
294.7790, 4920.778
295.2611, 5049.602
295.7433, 5177.403
296.2254, 5289.675
296.7075, 5391.935
297.1896, 5495.010
297.6717, 5602.805
298.1538, 5715.140
298.6360, 5832.466
299.1181, 5955.198
299.6002, 6075.487
300.0823, 6189.552
300.5644, 6297.898
301.0465, 6404.502
301.5287, 6519.598
302.0108, 6621.759
302.4929, 6688.004
302.9750, 6719.659
303.4571, 6720.672
303.9392, 6691.840
304.4214, 6634.967
304.9035, 6550.333
305.3856, 6435.925
305.8677, 6299.934
306.3498, 6146.617
306.8319, 5978.494
307.3141, 5800.601
307.7962, 5619.518
308.2783, 5431.028
308.7604, 5224.422
309.2425, 4991.560
309.7246, 4763.028
310.2068, 4551.200
310.6889, 4357.451
311.1710, 4182.687
311.6531, 4028.485
312.1352, 3892.418
312.6173, 3777.885
313.0995, 3693.953
313.5816, 3610.112
314.0637, 3499.917
314.5458, 3380.183
315.0279, 3281.586
315.5100, 3231.328
315.9922, 3193.663
316.4743, 3146.736
316.9564, 3082.178
317.4385, 3032.685
317.9206, 3014.605
318.4027, 3016.784
318.8849, 3023.635
319.3670, 3025.654
319.8491, 3036.325
320.3312, 3063.725
320.8133, 3111.683
321.2954, 3157.000
321.7776, 3188.690
322.2597, 3218.314
322.7418, 3258.192
323.2239, 3311.037
323.7060, 3373.357
324.1881, 3448.448
324.6703, 3537.809
325.1524, 3621.302
325.6345, 3692.392
326.1166, 3758.876
326.5987, 3827.620
327.0808, 3897.235
327.5630, 3970.679
328.0451, 4047.549
328.5272, 4127.977
329.0093, 4216.309
329.4914, 4320.315
329.9735, 4423.109
330.4557, 4512.161
330.9378, 4575.261
331.4199, 4646.158
331.9020, 4729.056
332.3841, 4822.297
332.8662, 4919.144
333.3484, 5022.608
333.8305, 5123.671
334.3126, 5219.830
334.7947, 5312.907
335.2768, 5393.612
335.7589, 5464.964
336.2411, 5521.578
336.7232, 5552.022
337.2053, 5555.655
337.6874, 5534.129
338.1695, 5489.213
338.6516, 5422.264
339.1338, 5320.536
339.6159, 5178.731
340.0980, 5011.416
340.5801, 4844.888
341.0622, 4677.515
341.5443, 4506.646
342.0265, 4317.217
342.5086, 4115.943
342.9907, 3955.088
343.4728, 3841.741
343.9549, 3746.373
344.4370, 3629.173
344.9192, 3494.525
345.4013, 3379.222
345.8834, 3301.924
346.3655, 3253.146
346.8476, 3214.173
347.3297, 3185.281
347.8119, 3161.728
348.2940, 3136.550
348.7761, 3113.026
349.2582, 3101.392
349.7403, 3105.338
350.2225, 3121.273
350.7046, 3144.173
351.1867, 3174.411
351.6688, 3213.310
352.1509, 3264.953
352.6331, 3325.121
353.1152, 3386.658
353.5973, 3445.182
354.0794, 3509.991
354.5615, 3587.686
355.0436, 3678.130
355.5258, 3780.907
356.0079, 3896.245
356.4900, 4023.564
356.9721, 4162.347
357.4542, 4312.456
357.9363, 4474.246
358.4185, 4645.646
358.9006, 4829.104
359.3827, 5028.858
359.8648, 5247.654
360.3469, 5482.310
360.8290, 5732.724
361.3112, 6000.847
361.7933, 6277.170
362.2754, 6558.120
362.7575, 6848.019
363.2396, 7152.849
363.7217, 7477.133
364.2039, 7809.195
364.6860, 8141.740
365.1681, 8476.021
365.6502, 8829.538
366.1323, 9235.193
366.6144, 9644.635
367.0966, 10025.72
367.5787, 10339.48
368.0608, 10667.16
368.5429, 11034.57
369.0250, 11427.83
369.5071, 11767.27
369.9893, 12037.79
370.4714, 12271.08
370.9535, 12488.51
371.4356, 12722.45
371.9177, 12862.16
372.3998, 12900.70
372.8820, 12846.67
373.3641, 12723.45
373.8462, 12542.46
374.3283, 12263.94
374.8104, 11858.39
375.2925, 11311.95
375.7747, 10755.75
376.2568, 10182.21
376.7389, 9604.630
377.2210, 9043.494
377.7031, 8498.596
378.1852, 7975.408
378.6674, 7471.255
379.1495, 6989.444
379.6316, 6514.376
380.1137, 6046.931
380.5958, 5614.349
381.0779, 5258.095
381.5601, 4964.372
382.0422, 4690.826
382.5243, 4419.941
383.0064, 4165.807
383.4885, 3956.997
383.9706, 3787.931
384.4528, 3632.019
384.9349, 3465.987
385.4170, 3301.158
385.8991, 3152.301
386.3812, 3020.531
386.8633, 2903.811
387.3455, 2803.141
387.8276, 2716.157
388.3097, 2635.816
388.7918, 2561.367
389.2739, 2491.376
389.7560, 2424.550
390.2382, 2360.697
390.7203, 2301.109
391.2024, 2244.567
391.6845, 2193.518
392.1666, 2150.115
392.6487, 2120.825
393.1309, 2094.385
393.6130, 2069.211
394.0951, 2044.572
394.5772, 2014.685
395.0593, 1969.062
395.5414, 1923.381
396.0236, 1887.902
396.5057, 1874.981
396.9878, 1859.194
397.4699, 1838.612
397.9520, 1813.619
398.4341, 1785.375
398.9163, 1743.568
399.3984, 1709.337
399.8805, 1693.101
400.3626, 1705.900
400.8447, 1702.556
401.3268, 1671.798
401.8090, 1633.235
402.2911, 1615.851
402.7732, 1628.427
403.2553, 1639.749
403.7374, 1641.733
404.2195, 1634.785
404.7017, 1625.331
405.1838, 1612.122
405.6659, 1599.693
406.1480, 1594.399
406.6301, 1596.418
407.1122, 1591.670
407.5944, 1575.447
408.0765, 1553.203
408.5586, 1537.129
409.0407, 1527.105
409.5228, 1521.851
410.0049, 1525.631
410.4871, 1533.699
410.9692, 1530.705
411.4513, 1512.884
411.9334, 1492.868
412.4155, 1485.710
412.8976, 1488.053
413.3798, 1490.373
413.8619, 1487.727
414.3440, 1483.193
414.8261, 1480.039
415.3082, 1478.322
415.7903, 1476.362
416.2725, 1470.819
416.7546, 1465.238
417.2367, 1463.729
417.7188, 1473.224
418.2009, 1480.882
418.6830, 1477.154
419.1652, 1465.711
419.6473, 1460.169
420.1294, 1470.591
420.6115, 1483.989
421.0937, 1493.329
421.5758, 1495.402
422.0579, 1497.953
422.5400, 1502.135
423.0221, 1507.362
423.5042, 1512.828
423.9864, 1521.616
424.4685, 1527.011
424.9506, 1525.485
425.4327, 1516.004
425.9148, 1513.300
426.3969, 1518.899
426.8791, 1529.513
427.3612, 1543.994
427.8433, 1565.989
428.3254, 1579.145
428.8075, 1576.495
429.2896, 1565.228
429.7718, 1573.422
430.2539, 1605.397
430.7360, 1633.995
431.2181, 1637.309
431.7002, 1617.879
432.1823, 1614.638
432.6645, 1631.941
433.1466, 1657.391
433.6287, 1675.697
434.1108, 1687.556
434.5929, 1696.393
435.0750, 1705.188
435.5572, 1711.018
436.0393, 1706.960
436.5214, 1693.381
437.0035, 1678.039
437.4856, 1665.869
437.9677, 1656.164
438.4499, 1648.797
438.9320, 1646.958
439.4141, 1641.953
439.8962, 1627.141
440.3783, 1604.344
440.8604, 1577.816
441.3426, 1534.165
441.8247, 1499.227
442.3068, 1493.974
442.7889, 1529.319
443.2710, 1552.385
443.7531, 1539.207
444.2353, 1510.406
444.7174, 1488.551
445.1995, 1478.463
445.6816, 1474.008
446.1637, 1477.700
446.6458, 1488.287
447.1280, 1492.537
447.6101, 1486.466
448.0922, 1478.429
448.5743, 1472.961
449.0564, 1470.803
449.5385, 1469.162
450.0207, 1468.059
450.5028, 1467.349
450.9849, 1467.204
451.4670, 1468.049
451.9491, 1467.170
452.4312, 1461.700
452.9134, 1452.921
453.3955, 1451.905
453.8776, 1459.528
454.3597, 1468.598
454.8418, 1472.487
455.3239, 1471.897
455.8061, 1469.446
456.2882, 1465.366
456.7703, 1460.210
457.2524, 1450.996
457.7345, 1440.089
458.2166, 1437.094
458.6988, 1457.379
459.1809, 1483.799
459.6630, 1497.045
460.1451, 1494.190
460.6272, 1486.253
461.1093, 1475.631
461.5915, 1465.422
462.0736, 1459.726
462.5557, 1461.297
463.0378, 1466.210
463.5199, 1477.177
464.0020, 1492.367
464.4842, 1499.000
464.9663, 1483.449
465.4484, 1466.678
465.9305, 1459.561
466.4126, 1464.979
466.8947, 1475.964
467.3769, 1498.128
467.8590, 1523.350
468.3411, 1538.386
468.8232, 1539.949
469.3053, 1537.066
469.7874, 1528.765
470.2696, 1516.005
470.7517, 1519.777
471.2338, 1545.215
471.7159, 1571.328
472.1980, 1576.063
472.6801, 1560.114
473.1623, 1554.061
473.6444, 1564.204
474.1265, 1582.053
474.6086, 1592.408
475.0907, 1596.656
475.5728, 1603.774
476.0550, 1619.750
476.5371, 1641.266
477.0192, 1662.748
477.5013, 1684.075
477.9834, 1706.876
478.4655, 1733.536
478.9477, 1762.185
479.4298, 1789.816
479.9119, 1813.054
480.3940, 1838.676
480.8761, 1868.788
481.3582, 1903.739
481.8404, 1944.279
482.3225, 2000.644
482.8046, 2054.392
483.2867, 2095.887
483.7688, 2119.577
484.2509, 2147.449
484.7331, 2182.081
485.2152, 2221.253
485.6973, 2264.334
486.1794, 2315.914
486.6615, 2363.464
487.1436, 2403.821
487.6258, 2438.967
488.1079, 2479.533
488.5900, 2528.046
489.0721, 2574.326
489.5542, 2611.997
490.0363, 2641.170
490.5185, 2671.478
491.0006, 2704.884
491.4827, 2732.811
491.9648, 2739.125
492.4470, 2727.670
492.9291, 2720.593
493.4112, 2736.194
493.8933, 2751.018
494.3754, 2725.911
494.8575, 2664.512
495.3397, 2591.297
495.8218, 2512.146
496.3039, 2433.420
496.7860, 2363.146
497.2681, 2302.265
497.7502, 2246.320
498.2324, 2194.780
498.7145, 2145.826
499.1966, 2095.981
499.6787, 2035.506
500.1608, 1983.365
500.6429, 1944.214
501.1251, 1918.176
501.6072, 1904.931
502.0893, 1915.670
502.5714, 1929.019
503.0535, 1935.410
503.5356, 1933.690
504.0178, 1926.804
504.4999, 1910.272
504.9820, 1892.744
505.4641, 1887.914
505.9462, 1897.639
506.4283, 1910.467
506.9105, 1923.650
507.3926, 1937.272
507.8747, 1950.954
508.3568, 1964.623
508.8389, 1980.879
509.3210, 2004.761
509.8032, 2032.967
510.2853, 2055.001
510.7674, 2067.753
511.2495, 2082.062
511.7316, 2107.477
512.2137, 2142.887
512.6959, 2185.461
513.1780, 2247.500
513.6601, 2305.484
514.1422, 2339.179
514.6243, 2352.153
515.1064, 2369.602
515.5886, 2408.311
516.0707, 2449.806
516.5528, 2481.884
517.0349, 2497.452
517.5170, 2515.848
517.9991, 2544.292
518.4813, 2574.292
518.9634, 2595.396
519.4455, 2608.433
519.9276, 2610.823
520.4097, 2599.774
520.8918, 2577.193
521.3740, 2555.411
521.8561, 2536.724
522.3382, 2511.227
522.8203, 2469.038
523.3024, 2411.652
523.7845, 2360.371
524.2667, 2317.906
524.7488, 2274.392
525.2309, 2210.205
525.7130, 2132.054
526.1951, 2064.592
526.6772, 2017.290
527.1594, 1982.927
527.6415, 1957.642
528.1236, 1939.802
528.6057, 1921.597
529.0878, 1898.032
529.5699, 1872.969
530.0521, 1849.251
530.5342, 1826.839
531.0163, 1806.643
531.4984, 1785.970
531.9805, 1768.724
532.4626, 1758.928
532.9448, 1755.561
533.4269, 1762.147
533.9090, 1786.310
534.3911, 1821.503
534.8732, 1839.434
535.3553, 1829.031
535.8375, 1822.490
536.3196, 1835.081
536.8017, 1867.940
537.2838, 1899.402
537.7659, 1929.993
538.2480, 1958.425
538.7302, 1979.206
539.2123, 1994.778
539.6944, 2021.744
540.1765, 2066.664
540.6586, 2119.091
541.1407, 2167.052
541.6229, 2211.239
542.1050, 2254.882
542.5871, 2301.062
543.0692, 2346.661
543.5513, 2385.840
544.0334, 2418.127
544.5156, 2456.292
544.9977, 2511.761
545.4798, 2572.440
545.9619, 2628.216
546.4440, 2674.430
546.9261, 2719.851
547.4083, 2765.847
547.8904, 2811.928
548.3725, 2857.169
548.8546, 2907.693
549.3367, 2947.947
549.8188, 2974.279
550.3010, 2986.962
550.7831, 2991.084
551.2652, 2989.396
551.7473, 2969.799
552.2294, 2921.393
552.7115, 2845.756
553.1937, 2756.125
553.6758, 2650.519
554.1579, 2543.527
554.6400, 2452.537
555.1221, 2374.427
555.6042, 2302.045
556.0864, 2233.507
556.5685, 2167.637
557.0506, 2101.007
557.5327, 2035.689
558.0148, 1980.594
558.4969, 1944.510
558.9791, 1916.505
559.4612, 1891.399
559.9433, 1869.384
560.4254, 1846.696
560.9075, 1821.338
561.3896, 1795.837
561.8718, 1771.545
562.3539, 1743.019
562.8360, 1725.651
563.3181, 1725.200
563.8002, 1734.529
564.2823, 1737.251
564.7645, 1733.150
565.2466, 1722.756
565.7287, 1701.119
566.2108, 1672.993
566.6929, 1666.199
567.1750, 1681.657
567.6572, 1698.867
568.1393, 1700.210
568.6214, 1690.892
569.1035, 1679.325
569.5856, 1664.941
570.0677, 1655.826
570.5499, 1666.871
571.0320, 1685.827
571.5141, 1693.406
571.9962, 1668.905
572.4783, 1645.275
572.9604, 1637.443
573.4426, 1642.696
573.9247, 1645.918
574.4068, 1639.611
574.8889, 1635.617
575.3710, 1639.692
575.8531, 1654.320
576.3353, 1663.490
576.8174, 1665.578
577.2995, 1664.484
577.7816, 1663.754
578.2637, 1663.497
578.7458, 1662.411
579.2280, 1660.261
579.7101, 1657.287
580.1922, 1652.969
580.6743, 1647.792
581.1564, 1644.488
581.6385, 1644.372
582.1207, 1646.814
582.6028, 1652.226
583.0849, 1660.115
583.5670, 1666.997
584.0491, 1671.245
584.5313, 1673.375
585.0134, 1673.523
585.4955, 1671.224
585.9776, 1668.572
586.4597, 1663.099
586.9418, 1658.843
587.4240, 1660.639
587.9061, 1673.073
588.3882, 1684.800
588.8703, 1696.893
589.3524, 1706.889
589.8345, 1705.130
590.3167, 1687.597
590.7988, 1673.824
591.2809, 1674.151
591.7630, 1685.583
592.2451, 1692.068
592.7272, 1693.348
593.2094, 1696.039
593.6915, 1706.610
594.1736, 1722.311
594.6557, 1740.294
595.1378, 1762.108
595.6199, 1776.000
596.1021, 1763.894
596.5842, 1740.620
597.0663, 1727.281
597.5485, 1742.015
598.0306, 1756.261
598.5127, 1759.230
598.9948, 1753.733
599.4769, 1752.497
599.9590, 1759.338
600.4412, 1766.775
600.9233, 1771.675
601.4054, 1773.618
601.8875, 1780.721
602.3696, 1794.741
602.8517, 1809.498
603.3339, 1819.412
603.8160, 1824.864
604.2981, 1829.214
604.7802, 1832.537
605.2623, 1835.752
605.7444, 1838.908
606.2266, 1842.830
606.7087, 1849.833
607.1908, 1866.828
607.6729, 1881.073
608.1550, 1876.940
608.6371, 1860.735
609.1193, 1852.821
609.6014, 1874.565
610.0835, 1895.229
610.5656, 1894.695
611.0477, 1866.647
611.5298, 1859.450
612.0120, 1890.635
612.4941, 1926.980
612.9762, 1945.052
613.4583, 1937.708
613.9404, 1938.083
614.4225, 1948.888
614.9047, 1965.219
615.3868, 1982.610
615.8689, 2000.724
616.3510, 2012.544
616.8331, 2013.394
617.3152, 2010.370
617.7974, 2015.717
618.2795, 2027.140
618.7616, 2035.987
619.2437, 2032.843
619.7258, 2028.740
620.2079, 2029.731
620.6901, 2036.346
621.1722, 2052.927
621.6543, 2091.211
622.1364, 2132.910
622.6185, 2165.708
623.1006, 2186.015
623.5828, 2203.961
624.0649, 2216.065
624.5470, 2229.000
625.0291, 2253.984
625.5112, 2295.523
625.9933, 2322.992
626.4755, 2325.299
626.9576, 2317.770
627.4397, 2333.906
627.9218, 2371.081
628.4039, 2409.258
628.8860, 2436.646
629.3682, 2460.489
629.8503, 2489.900
630.3324, 2524.613
630.8145, 2561.580
