##NAMES=Hedenbergite
##RRUFFID=R070136
##IDEAL CHEMISTRY=CaFe^2+^Si_2_O_6_
##LOCALITY=Vesper Peak, Snohomish County, Washington, USA
##OWNER=RRUFF
##SOURCE=Mark Mauthner
##DESCRIPTION=Brownish green prismatic crystals with transparent sections
##STATUS=The identification of this mineral has been made only by X-ray diffraction.
##URL=rruff.info/R070136
114.0229, 296.7510
114.5050, 330.6722
114.9871, 366.7488
115.4692, 398.2567
115.9514, 421.6306
116.4335, 453.9090
116.9156, 504.8675
117.3977, 569.3344
117.8798, 637.4647
118.3619, 697.3255
118.8441, 763.3602
119.3262, 846.7638
119.8083, 952.7049
120.2904, 1072.051
120.7725, 1197.105
121.2546, 1329.445
121.7368, 1476.700
122.2189, 1641.872
122.7010, 1824.803
123.1831, 2028.368
123.6652, 2271.789
124.1473, 2525.652
124.6295, 2777.153
125.1116, 3028.243
125.5937, 3224.874
126.0758, 3323.047
126.5579, 3327.281
127.0400, 3251.621
127.5222, 3064.813
128.0043, 2805.512
128.4864, 2554.959
128.9685, 2315.717
129.4506, 2090.122
129.9328, 1870.677
130.4149, 1658.769
130.8970, 1474.502
131.3791, 1339.722
131.8612, 1248.342
132.3433, 1168.953
132.8255, 1096.947
133.3076, 1033.501
133.7897, 983.5471
134.2718, 948.2141
134.7539, 919.6742
135.2360, 890.8591
135.7182, 861.1672
136.2003, 835.7600
136.6824, 814.4175
137.1645, 797.5098
137.6466, 791.6859
138.1287, 798.7285
138.6109, 813.6625
139.0930, 830.9953
139.5751, 851.7795
140.0572, 871.3834
140.5393, 885.4117
141.0214, 889.6490
141.5036, 909.3184
141.9857, 950.7380
142.4678, 1004.585
142.9499, 1049.628
143.4320, 1076.281
143.9141, 1107.230
144.3963, 1153.067
144.8784, 1221.916
145.3605, 1292.042
145.8426, 1370.688
146.3247, 1452.853
146.8068, 1511.494
147.2890, 1546.212
147.7711, 1557.064
148.2532, 1543.507
148.7353, 1487.799
149.2174, 1428.746
149.6995, 1366.454
150.1817, 1298.779
150.6638, 1245.756
151.1459, 1211.828
151.6280, 1190.863
152.1101, 1177.047
152.5922, 1172.386
153.0744, 1172.665
153.5565, 1176.586
154.0386, 1183.411
154.5207, 1196.317
155.0028, 1221.770
155.4849, 1252.703
155.9671, 1277.916
156.4492, 1294.433
156.9313, 1305.368
157.4134, 1312.079
157.8955, 1315.442
158.3777, 1313.466
158.8598, 1297.007
159.3419, 1273.155
159.8240, 1262.707
160.3061, 1281.556
160.7882, 1310.782
161.2704, 1337.811
161.7525, 1354.157
162.2346, 1373.703
162.7167, 1400.059
163.1988, 1433.835
163.6809, 1476.415
164.1631, 1536.081
164.6452, 1602.476
165.1273, 1665.358
165.6094, 1723.537
166.0915, 1774.591
166.5736, 1820.245
167.0558, 1860.722
167.5379, 1884.650
168.0200, 1872.581
168.5021, 1840.813
168.9842, 1814.087
169.4663, 1795.186
169.9485, 1790.478
170.4306, 1807.242
170.9127, 1847.355
171.3948, 1901.538
171.8769, 1963.217
172.3590, 2032.943
172.8412, 2111.912
173.3233, 2203.108
173.8054, 2302.388
174.2875, 2403.037
174.7696, 2502.388
175.2517, 2608.065
175.7339, 2735.637
176.2160, 2880.941
176.6981, 3019.208
177.1802, 3146.423
177.6623, 3255.903
178.1444, 3334.625
178.6266, 3384.326
179.1087, 3398.108
179.5908, 3354.350
180.0729, 3256.226
180.5550, 3140.598
181.0371, 3032.049
181.5193, 2929.314
182.0014, 2831.559
182.4835, 2731.771
182.9656, 2639.385
183.4477, 2571.427
183.9298, 2528.730
184.4120, 2505.268
184.8941, 2495.487
185.3762, 2499.688
185.8583, 2519.993
186.3404, 2565.144
186.8225, 2627.567
187.3047, 2681.021
187.7868, 2723.146
188.2689, 2765.064
188.7510, 2827.346
189.2331, 2907.793
189.7152, 2978.359
190.1974, 3029.155
190.6795, 3059.638
191.1616, 3068.115
191.6437, 3055.808
192.1258, 3017.881
192.6080, 2943.370
193.0901, 2830.667
193.5722, 2699.066
194.0543, 2552.499
194.5364, 2392.559
195.0185, 2236.792
195.5007, 2086.169
195.9828, 1942.019
196.4649, 1809.529
196.9470, 1686.609
197.4291, 1576.349
197.9112, 1482.729
198.3934, 1406.317
198.8755, 1334.246
199.3576, 1263.860
199.8397, 1197.122
200.3218, 1141.871
200.8039, 1099.604
201.2861, 1063.582
201.7682, 1027.427
202.2503, 990.0274
202.7324, 961.1632
203.2145, 944.9574
203.6966, 939.3044
204.1788, 928.9917
204.6609, 912.3670
205.1430, 895.1980
205.6251, 883.6445
206.1072, 879.0295
206.5893, 874.0699
207.0715, 866.5387
207.5536, 856.6464
208.0357, 849.7384
208.5178, 847.3662
208.9999, 845.4824
209.4820, 837.8501
209.9642, 821.3045
210.4463, 809.3511
210.9284, 807.4438
211.4105, 816.7592
211.8926, 821.6066
212.3747, 819.5853
212.8569, 815.7327
213.3390, 818.0066
213.8211, 828.6657
214.3032, 839.6628
214.7853, 848.5217
215.2674, 855.0781
215.7496, 859.5687
216.2317, 860.6438
216.7138, 860.6471
217.1959, 863.1518
217.6780, 866.4339
218.1601, 875.8293
218.6423, 895.9326
219.1244, 934.3195
219.6065, 959.6494
220.0886, 965.7571
220.5707, 961.5751
221.0528, 970.0806
221.5350, 997.3505
222.0171, 1026.789
222.4992, 1050.188
222.9813, 1062.507
223.4634, 1081.139
223.9455, 1106.710
224.4277, 1139.128
224.9098, 1176.444
225.3919, 1220.166
225.8740, 1267.322
226.3561, 1316.993
226.8382, 1368.718
227.3204, 1423.274
227.8025, 1481.852
228.2846, 1543.016
228.7667, 1600.615
229.2488, 1648.215
229.7310, 1699.118
230.2131, 1764.749
230.6952, 1858.784
231.1773, 1938.243
231.6594, 2003.138
232.1415, 2051.742
232.6237, 2073.641
233.1058, 2069.446
233.5879, 2037.808
234.0700, 1974.080
234.5521, 1860.787
235.0342, 1750.736
235.5164, 1651.798
235.9985, 1563.379
236.4806, 1473.503
236.9627, 1378.663
237.4448, 1287.821
237.9269, 1206.089
238.4091, 1128.446
238.8912, 1071.400
239.3733, 1043.901
239.8554, 1045.689
240.3375, 1037.096
240.8196, 1011.830
241.3018, 982.4821
241.7839, 960.1995
242.2660, 947.3321
242.7481, 937.1613
243.2302, 929.0505
243.7123, 923.0904
244.1945, 916.7256
244.6766, 908.0612
245.1587, 900.8158
245.6408, 899.5059
246.1229, 908.8641
246.6050, 914.9751
247.0872, 913.0117
247.5693, 901.6927
248.0514, 898.4108
248.5335, 907.6935
249.0156, 920.9857
249.4977, 927.6330
249.9799, 922.5665
250.4620, 920.9825
250.9441, 928.1317
251.4262, 945.6068
251.9083, 956.8027
252.3904, 959.4917
252.8726, 957.8224
253.3547, 955.7769
253.8368, 950.1002
254.3189, 950.7275
254.8010, 961.7694
255.2831, 984.9781
255.7653, 1005.919
256.2474, 1024.910
256.7295, 1041.162
257.2116, 1052.460
257.6937, 1055.874
258.1758, 1060.763
258.6580, 1069.607
259.1401, 1082.618
259.6222, 1098.898
260.1043, 1120.721
260.5864, 1143.445
261.0685, 1159.375
261.5507, 1165.507
262.0328, 1172.056
262.5149, 1181.337
262.9970, 1193.026
263.4791, 1210.983
263.9612, 1237.804
264.4434, 1268.397
264.9255, 1294.931
265.4076, 1315.727
265.8897, 1337.049
266.3718, 1360.675
266.8539, 1386.245
267.3361, 1416.393
267.8182, 1453.449
268.3003, 1491.809
268.7824, 1522.531
269.2645, 1542.791
269.7466, 1564.162
270.2288, 1590.927
270.7109, 1623.233
271.1930, 1658.255
271.6751, 1697.522
272.1572, 1737.895
272.6393, 1774.500
273.1215, 1806.538
273.6036, 1838.361
274.0857, 1872.562
274.5678, 1909.426
275.0499, 1940.861
275.5320, 1966.077
276.0142, 1987.819
276.4963, 2008.872
276.9784, 2028.550
277.4605, 2052.499
277.9426, 2084.433
278.4247, 2123.999
278.9069, 2161.208
279.3890, 2194.345
279.8711, 2228.311
280.3532, 2272.318
280.8354, 2327.406
281.3175, 2380.301
281.7996, 2422.590
282.2817, 2455.817
282.7638, 2497.606
283.2459, 2549.561
283.7281, 2605.454
284.2102, 2654.900
284.6923, 2697.828
285.1744, 2746.701
285.6565, 2810.512
286.1386, 2885.993
286.6208, 2948.507
287.1029, 2995.030
287.5850, 3040.802
288.0671, 3107.908
288.5492, 3194.900
289.0313, 3283.403
289.5135, 3364.771
289.9956, 3441.548
290.4777, 3525.225
290.9598, 3616.906
291.4419, 3711.066
291.9240, 3799.056
292.4062, 3883.006
292.8883, 3972.647
293.3704, 4076.688
293.8525, 4188.919
294.3346, 4297.173
294.8167, 4400.418
295.2989, 4500.465
295.7810, 4592.758
296.2631, 4680.992
296.7452, 4781.613
297.2273, 4900.764
297.7094, 5035.092
298.1916, 5184.649
298.6737, 5348.559
299.1558, 5515.838
299.6379, 5670.448
300.1200, 5819.155
300.6021, 5982.893
301.0843, 6181.175
301.5664, 6391.031
302.0485, 6579.051
302.5306, 6747.342
303.0127, 6913.738
303.4948, 7103.285
303.9770, 7300.590
304.4591, 7484.147
304.9412, 7664.218
305.4233, 7811.989
305.9054, 7897.894
306.3875, 7923.328
306.8697, 7905.393
307.3518, 7857.507
307.8339, 7772.370
308.3160, 7639.979
308.7981, 7437.257
309.2802, 7203.742
309.7624, 6969.093
310.2445, 6731.677
310.7266, 6488.165
311.2087, 6232.104
311.6908, 5968.476
312.1729, 5700.628
312.6551, 5403.069
313.1372, 5126.360
313.6193, 4906.556
314.1014, 4734.819
314.5835, 4577.640
315.0656, 4419.080
315.5478, 4267.989
316.0299, 4130.024
316.5120, 4001.205
316.9941, 3892.407
317.4762, 3812.750
317.9583, 3758.073
318.4405, 3714.881
318.9226, 3682.427
319.4047, 3658.376
319.8868, 3640.831
320.3689, 3624.519
320.8510, 3622.380
321.3332, 3637.409
321.8153, 3668.746
322.2974, 3714.317
322.7795, 3784.998
323.2616, 3861.097
323.7437, 3932.974
324.2259, 3990.260
324.7080, 4060.469
325.1901, 4150.210
325.6722, 4254.568
326.1543, 4363.276
326.6364, 4475.657
327.1186, 4593.229
327.6007, 4716.793
328.0828, 4847.423
328.5649, 4981.298
329.0470, 5118.444
329.5291, 5259.039
330.0113, 5404.620
330.4934, 5567.764
330.9755, 5720.758
331.4576, 5852.238
331.9397, 5953.195
332.4218, 6070.862
332.9040, 6215.568
333.3861, 6369.679
333.8682, 6507.886
334.3503, 6616.840
334.8324, 6741.521
335.3145, 6902.343
335.7967, 7102.434
336.2788, 7269.461
336.7609, 7396.111
337.2430, 7504.002
337.7251, 7619.217
338.2072, 7753.394
338.6894, 7852.342
339.1715, 7911.285
339.6536, 7926.959
340.1357, 7875.487
340.6178, 7753.387
341.0999, 7574.257
341.5821, 7336.079
342.0642, 7041.920
342.5463, 6728.400
343.0284, 6401.084
343.5105, 6062.332
343.9926, 5718.951
344.4748, 5370.282
344.9569, 5044.893
345.4390, 4774.914
345.9211, 4553.571
346.4032, 4342.687
346.8853, 4135.598
347.3675, 3938.030
347.8496, 3763.501
348.3317, 3612.057
348.8138, 3477.335
349.2959, 3360.838
349.7780, 3259.853
350.2602, 3162.791
350.7423, 3067.066
351.2244, 2981.307
351.7065, 2915.623
352.1887, 2867.833
352.6708, 2833.036
353.1529, 2815.013
353.6350, 2805.579
354.1171, 2792.195
354.5992, 2771.906
355.0814, 2760.217
355.5635, 2769.899
356.0456, 2796.612
356.5277, 2832.709
357.0098, 2871.608
357.4919, 2921.000
357.9741, 2990.045
358.4562, 3079.114
358.9383, 3172.129
359.4204, 3248.471
359.9025, 3327.687
360.3846, 3431.568
360.8668, 3586.367
361.3489, 3750.207
361.8310, 3897.696
362.3131, 4032.156
362.7952, 4190.370
363.2773, 4385.564
363.7595, 4605.822
364.2416, 4842.422
364.7237, 5093.719
365.2058, 5362.461
365.6879, 5649.887
366.1700, 5954.994
366.6522, 6267.993
367.1343, 6578.449
367.6164, 6903.498
368.0985, 7253.954
368.5806, 7634.252
369.0627, 8032.758
369.5449, 8458.270
370.0270, 8897.768
370.5091, 9344.542
370.9912, 9821.182
371.4733, 10276.41
371.9554, 10689.64
372.4376, 11062.81
372.9197, 11401.61
373.4018, 11723.37
373.8839, 11990.32
374.3660, 12152.53
374.8481, 12204.11
375.3303, 12165.50
375.8124, 12042.01
376.2945, 11834.57
376.7766, 11525.04
377.2587, 11102.15
377.7408, 10612.69
378.2230, 10087.41
378.7051, 9530.084
379.1872, 8958.647
379.6693, 8372.859
380.1514, 7781.973
380.6335, 7229.184
381.1157, 6709.722
381.5978, 6229.236
382.0799, 5796.010
382.5620, 5405.178
383.0441, 5040.240
383.5262, 4695.214
384.0084, 4374.327
384.4905, 4075.403
384.9726, 3799.333
385.4547, 3552.484
385.9368, 3339.276
386.4189, 3152.309
386.9011, 2981.380
387.3832, 2824.620
387.8653, 2679.247
388.3474, 2542.013
388.8295, 2413.364
389.3116, 2296.639
389.7938, 2196.194
390.2759, 2107.731
390.7580, 2028.955
391.2401, 1960.332
391.7222, 1897.321
392.2043, 1841.878
392.6865, 1789.447
393.1686, 1734.311
393.6507, 1669.871
394.1328, 1608.571
394.6149, 1554.422
395.0970, 1507.222
395.5792, 1464.596
396.0613, 1425.312
396.5434, 1391.041
397.0255, 1362.351
397.5076, 1347.520
397.9897, 1328.898
398.4719, 1303.013
398.9540, 1272.403
399.4361, 1244.209
399.9182, 1219.789
400.4003, 1196.293
400.8824, 1172.543
401.3646, 1147.714
401.8467, 1124.745
402.3288, 1103.331
402.8109, 1084.074
403.2930, 1068.067
403.7751, 1055.599
404.2573, 1045.932
404.7394, 1041.304
405.2215, 1041.109
405.7036, 1027.927
406.1857, 997.7061
406.6678, 967.1494
407.1500, 954.8310
407.6321, 960.7729
408.1142, 964.4783
408.5963, 961.5552
409.0784, 953.8338
409.5605, 944.4501
410.0427, 933.4849
410.5248, 923.6876
411.0069, 918.2722
411.4890, 915.4307
411.9711, 909.5221
412.4532, 898.5912
412.9354, 888.1819
413.4175, 887.9260
413.8996, 894.1356
414.3817, 896.4927
414.8638, 885.3792
415.3459, 870.0936
415.8281, 860.3710
416.3102, 856.9178
416.7923, 855.0176
417.2744, 851.1606
417.7565, 847.2385
418.2386, 845.6464
418.7208, 843.6714
419.2029, 847.4465
419.6850, 867.1103
420.1671, 898.9479
420.6492, 917.1896
421.1313, 902.8203
421.6135, 879.3284
422.0956, 860.7019
422.5777, 851.8472
423.0598, 843.9104
423.5420, 832.6285
424.0241, 821.7807
424.5062, 820.3858
424.9883, 835.8647
425.4704, 852.6923
425.9525, 866.9714
426.4347, 878.7050
426.9168, 887.1729
427.3989, 890.9579
427.8810, 892.9662
428.3631, 896.4180
428.8452, 901.2886
429.3274, 907.7245
429.8095, 915.9999
430.2916, 925.8332
430.7737, 935.0829
431.2558, 943.3240
431.7379, 952.7903
432.2201, 964.4274
432.7022, 978.3781
433.1843, 997.7177
433.6664, 1024.700
434.1485, 1053.039
434.6306, 1071.879
435.1128, 1082.177
435.5949, 1090.135
436.0770, 1098.953
436.5591, 1107.786
437.0412, 1115.289
437.5233, 1121.533
438.0055, 1125.284
438.4876, 1129.310
438.9697, 1129.499
439.4518, 1119.129
439.9339, 1085.119
440.4160, 1048.381
440.8982, 1024.684
441.3803, 1011.881
441.8624, 994.6391
442.3445, 957.6570
442.8266, 919.0891
443.3087, 892.0380
443.7909, 884.9181
444.2730, 879.3439
444.7551, 874.7922
445.2372, 868.8074
445.7193, 856.2278
446.2014, 824.8096
446.6836, 798.1108
447.1657, 783.2420
447.6478, 782.2403
448.1299, 782.3961
448.6120, 786.5831
449.0941, 789.3336
449.5763, 784.0751
450.0584, 766.1550
450.5405, 752.7354
451.0226, 747.2281
451.5047, 748.1299
451.9868, 749.4330
452.4690, 751.3345
452.9511, 752.8204
453.4332, 752.7117
453.9153, 751.2076
454.3974, 751.9539
454.8795, 756.2643
455.3617, 759.7189
455.8438, 752.9371
456.3259, 738.4351
456.8080, 728.5922
457.2901, 733.7814
457.7722, 745.3228
458.2544, 749.8352
458.7365, 747.5219
459.2186, 742.6027
459.7007, 735.7863
460.1828, 729.0166
460.6649, 724.8340
461.1471, 724.7143
461.6292, 726.0691
462.1113, 728.1392
462.5934, 730.6121
463.0755, 732.6644
463.5576, 734.6244
464.0398, 735.6071
464.5219, 734.5413
465.0040, 730.2657
465.4861, 728.1906
465.9682, 729.8904
466.4503, 733.8486
466.9325, 738.6559
467.4146, 747.9820
467.8967, 752.9795
468.3788, 750.0767
468.8609, 740.8608
469.3430, 737.6555
469.8252, 743.6173
470.3073, 749.9704
470.7894, 750.9161
471.2715, 745.2148
471.7536, 741.7441
472.2357, 740.7905
472.7179, 742.3179
473.2000, 746.3765
473.6821, 752.9625
474.1642, 761.8075
474.6463, 774.9392
475.1284, 789.7660
475.6106, 797.3412
476.0927, 797.6642
476.5748, 799.2183
477.0569, 811.8461
477.5390, 830.1162
478.0211, 844.1885
478.5033, 850.7808
478.9854, 854.6221
479.4675, 854.8870
479.9496, 855.1579
480.4317, 864.2644
480.9138, 895.3573
481.3960, 929.4684
481.8781, 954.9036
482.3602, 969.6965
482.8423, 984.2172
483.3244, 998.5556
483.8065, 1015.528
484.2887, 1037.783
484.7708, 1069.593
485.2529, 1101.815
485.7350, 1131.688
486.2171, 1161.000
486.6992, 1197.650
487.1814, 1245.145
487.6635, 1294.140
488.1456, 1340.929
488.6277, 1385.022
489.1098, 1426.958
489.5919, 1464.818
490.0741, 1504.691
490.5562, 1557.751
491.0383, 1624.844
491.5204, 1687.263
492.0026, 1739.915
492.4847, 1785.320
492.9668, 1833.470
493.4489, 1883.402
493.9310, 1923.042
494.4131, 1946.520
494.8953, 1952.864
495.3774, 1937.135
495.8595, 1895.646
496.3416, 1845.059
496.8237, 1800.519
497.3058, 1755.553
497.7880, 1698.196
498.2701, 1612.025
498.7522, 1522.841
499.2343, 1442.579
499.7164, 1371.744
500.1985, 1307.721
500.6807, 1252.885
501.1628, 1204.073
501.6449, 1159.291
502.1270, 1121.231
502.6091, 1083.141
503.0912, 1037.756
503.5734, 994.5867
504.0555, 970.4976
504.5376, 975.9174
505.0197, 980.1532
505.5018, 975.5649
505.9839, 962.5578
506.4661, 945.2320
506.9482, 921.0005
507.4303, 900.4843
507.9124, 894.4908
508.3945, 901.9394
508.8766, 906.8049
509.3588, 905.8820
509.8409, 904.9913
510.3230, 915.2101
510.8051, 933.8214
511.2872, 949.3623
511.7693, 953.2353
512.2515, 952.6906
512.7336, 954.8650
513.2157, 960.0228
513.6978, 969.8705
514.1799, 988.5793
514.6620, 1010.915
515.1442, 1031.585
515.6263, 1046.233
516.1084, 1064.750
516.5905, 1095.826
517.0726, 1132.673
517.5547, 1161.458
518.0369, 1171.747
518.5190, 1182.450
519.0011, 1198.053
519.4832, 1218.691
519.9653, 1242.561
520.4474, 1274.101
520.9296, 1302.794
521.4117, 1319.519
521.8938, 1320.794
522.3759, 1327.845
522.8580, 1346.524
523.3401, 1366.164
523.8223, 1364.567
524.3044, 1341.998
524.7865, 1316.357
525.2686, 1297.650
525.7507, 1280.948
526.2328, 1251.205
526.7150, 1209.079
527.1971, 1169.276
527.6792, 1144.391
528.1613, 1129.061
528.6434, 1115.199
529.1255, 1101.482
529.6077, 1088.560
530.0898, 1077.477
530.5719, 1067.470
531.0540, 1056.895
531.5361, 1040.288
532.0182, 1027.781
532.5004, 1024.331
532.9825, 1030.178
533.4646, 1036.664
533.9467, 1043.629
534.4288, 1050.618
534.9109, 1057.402
535.3931, 1063.476
535.8752, 1070.067
536.3573, 1075.992
536.8394, 1083.561
537.3215, 1096.573
537.8036, 1115.085
538.2858, 1138.366
538.7679, 1166.527
539.2500, 1199.388
539.7321, 1235.634
540.2142, 1275.278
540.6964, 1322.048
541.1785, 1382.998
541.6606, 1452.403
542.1427, 1516.410
542.6248, 1571.368
543.1069, 1629.578
543.5891, 1702.750
544.0712, 1785.691
544.5533, 1870.251
545.0354, 1948.208
545.5175, 2032.067
545.9996, 2130.042
546.4818, 2240.624
546.9639, 2349.278
547.4460, 2445.301
547.9281, 2544.962
548.4102, 2656.938
548.8923, 2783.957
549.3745, 2915.999
549.8566, 3060.835
550.3387, 3203.165
550.8208, 3330.741
551.3029, 3449.542
551.7850, 3530.136
552.2672, 3570.905
552.7493, 3568.042
553.2314, 3503.720
553.7135, 3378.134
554.1956, 3224.636
554.6777, 3052.777
555.1599, 2867.836
555.6420, 2680.960
556.1241, 2491.389
556.6062, 2310.090
557.0883, 2145.905
557.5704, 1997.296
558.0526, 1863.174
558.5347, 1742.410
559.0168, 1636.561
559.4989, 1554.057
559.9810, 1487.941
560.4631, 1425.354
560.9453, 1362.695
561.4274, 1303.297
561.9095, 1247.213
562.3916, 1193.647
562.8737, 1151.437
563.3558, 1125.209
563.8380, 1105.604
564.3201, 1087.326
564.8022, 1070.797
565.2843, 1054.383
565.7664, 1037.907
566.2485, 1021.631
566.7307, 1003.770
567.2128, 984.8561
567.6949, 972.6422
568.1770, 974.8547
568.6591, 981.3884
569.1412, 970.4224
569.6234, 944.9534
570.1055, 923.3282
570.5876, 922.0102
571.0697, 928.1512
571.5518, 928.4207
572.0339, 919.9708
572.5161, 913.3593
572.9982, 917.3043
573.4803, 923.8052
573.9624, 924.5909
574.4445, 909.6451
574.9266, 898.9129
575.4088, 896.5554
575.8909, 900.0431
576.3730, 902.6234
576.8551, 904.0140
577.3372, 905.0419
577.8193, 906.1237
578.3015, 907.2252
578.7836, 907.5278
579.2657, 907.2767
579.7478, 905.0731
580.2299, 896.6317
580.7120, 884.3113
581.1942, 880.7786
581.6763, 889.7673
582.1584, 901.1385
582.6405, 903.1524
583.1226, 898.7147
583.6047, 893.8133
584.0869, 888.5389
584.5690, 885.7516
585.0511, 888.7621
585.5332, 896.4440
586.0153, 903.0699
586.4974, 903.3582
586.9796, 904.8962
587.4617, 913.2665
587.9438, 933.7548
588.4259, 943.2378
588.9080, 933.3376
589.3901, 919.8912
589.8723, 918.3747
590.3544, 932.2297
590.8365, 944.9656
591.3186, 955.2840
591.8007, 962.7260
592.2828, 963.7373
592.7650, 958.7905
593.2471, 958.4624
593.7292, 972.6183
594.2113, 992.3408
594.6934, 1000.534
595.1755, 997.9323
595.6577, 992.7710
596.1398, 986.9033
596.6219, 983.2204
597.1040, 985.1367
597.5862, 994.3329
598.0683, 1004.729
598.5504, 1016.099
599.0325, 1026.555
599.5146, 1033.795
599.9968, 1034.196
600.4789, 1035.571
600.9610, 1039.576
601.4431, 1044.943
601.9252, 1046.995
602.4073, 1043.353
602.8895, 1042.968
603.3716, 1050.194
603.8537, 1064.103
604.3358, 1078.054
604.8179, 1092.036
605.3000, 1104.836
605.7822, 1115.403
606.2643, 1123.896
606.7464, 1130.928
607.2285, 1136.266
607.7106, 1141.278
608.1927, 1147.171
608.6749, 1153.448
609.1570, 1159.249
609.6391, 1164.674
610.1212, 1169.247
610.6033, 1169.222
611.0854, 1167.481
611.5676, 1174.653
612.0497, 1204.774
