##NAMES=Hedenbergite
##RRUFFID=R070236
##IDEAL CHEMISTRY=CaFe^2+^Si_2_O_6_
##LOCALITY=Dal'Negorsk, Primorskiy Kray; far eastern, Russia
##OWNER=RRUFF
##SOURCE=Michael Scott
##DESCRIPTION=Gemmy drab to olive green orthorhombic prisms lining vug
##STATUS=The identification of this mineral is confirmed by single-crystal X-ray diffraction and chemical analysis.
##URL=rruff.info/R070236
##MEASURED CHEMISTRY=Ca_1.00_(Fe^2+^_0.67_Mg_0.17_Mn^2+^_0.16_)_Î£=1_Si_2.00_O_6_
154.9651, 6497.831
155.4472, 6538.162
155.9293, 6538.359
156.4115, 6549.836
156.8936, 6596.671
157.3757, 6666.344
157.8578, 6716.240
158.3399, 6717.111
158.8221, 6703.962
159.3042, 6699.639
159.7863, 6714.256
160.2684, 6733.891
160.7505, 6754.465
161.2326, 6776.330
161.7148, 6800.796
162.1969, 6830.945
162.6790, 6863.145
163.1611, 6893.513
163.6432, 6913.033
164.1253, 6936.837
164.6075, 6979.262
165.0896, 7041.045
165.5717, 7093.468
166.0538, 7110.021
166.5359, 7108.924
167.0180, 7116.318
167.5002, 7149.482
167.9823, 7191.216
168.4644, 7229.335
168.9465, 7262.783
169.4286, 7293.785
169.9107, 7325.086
170.3929, 7355.045
170.8750, 7381.025
171.3571, 7390.117
171.8392, 7399.213
172.3213, 7431.534
172.8034, 7496.693
173.2856, 7561.803
173.7677, 7593.687
174.2498, 7598.970
174.7319, 7599.955
175.2140, 7608.131
175.6961, 7621.026
176.1783, 7633.747
176.6604, 7642.499
177.1425, 7655.789
177.6246, 7688.675
178.1067, 7738.218
178.5888, 7787.600
179.0710, 7825.966
179.5531, 7854.593
180.0352, 7875.530
180.5173, 7889.623
180.9994, 7895.594
181.4815, 7884.442
181.9637, 7856.766
182.4458, 7834.333
182.9279, 7839.422
183.4100, 7866.234
183.8921, 7892.675
184.3742, 7910.438
184.8564, 7924.712
185.3385, 7950.143
185.8206, 7988.030
186.3027, 8023.964
186.7848, 8042.929
187.2669, 8046.310
187.7491, 8045.140
188.2312, 8036.880
188.7133, 8026.759
189.1954, 8038.185
189.6775, 8074.532
190.1596, 8117.092
190.6418, 8148.904
191.1239, 8169.577
191.6060, 8172.541
192.0881, 8143.842
192.5702, 8088.854
193.0524, 8056.125
193.5345, 8048.651
194.0166, 8055.695
194.4987, 8062.219
194.9808, 8068.004
195.4629, 8076.618
195.9451, 8091.504
196.4272, 8112.657
196.9093, 8129.622
197.3914, 8141.868
197.8735, 8150.245
198.3556, 8155.795
198.8378, 8158.248
199.3199, 8159.527
199.8020, 8161.042
200.2841, 8162.975
200.7662, 8162.003
201.2483, 8157.182
201.7305, 8150.038
202.2126, 8141.971
202.6947, 8130.610
203.1768, 8127.180
203.6589, 8140.997
204.1410, 8174.486
204.6232, 8208.107
205.1053, 8242.793
205.5874, 8275.366
206.0695, 8294.789
206.5516, 8299.453
207.0337, 8295.190
207.5159, 8281.658
207.9980, 8254.476
208.4801, 8240.640
208.9622, 8246.434
209.4443, 8268.047
209.9264, 8286.724
210.4086, 8301.021
210.8907, 8315.355
211.3728, 8333.791
211.8549, 8358.631
212.3370, 8379.690
212.8191, 8393.063
213.3013, 8400.459
213.7834, 8419.647
214.2655, 8457.951
214.7476, 8496.383
215.2297, 8516.144
215.7118, 8509.124
216.1940, 8506.561
216.6761, 8514.931
217.1582, 8533.716
217.6403, 8551.550
218.1224, 8569.520
218.6045, 8584.826
219.0867, 8591.194
219.5688, 8577.168
220.0509, 8582.836
220.5330, 8626.666
221.0151, 8710.803
221.4972, 8754.225
221.9794, 8737.437
222.4615, 8702.171
222.9436, 8693.280
223.4257, 8721.296
223.9078, 8754.823
224.3899, 8789.058
224.8721, 8825.240
225.3542, 8850.541
225.8363, 8858.085
226.3184, 8861.467
226.8005, 8878.600
227.2827, 8919.246
227.7648, 8954.470
228.2469, 8973.627
228.7290, 8972.684
229.2111, 8987.974
229.6932, 9030.373
230.1754, 9080.006
230.6575, 9110.627
231.1396, 9113.406
231.6217, 9112.146
232.1038, 9111.838
232.5859, 9111.644
233.0681, 9118.498
233.5502, 9141.179
234.0323, 9164.608
234.5144, 9166.079
234.9965, 9136.372
235.4786, 9099.641
235.9608, 9057.662
236.4429, 9003.831
236.9250, 8979.161
237.4071, 8997.127
237.8892, 9036.150
238.3713, 9063.492
238.8535, 9079.602
239.3356, 9082.987
239.8177, 9069.436
240.2998, 9031.054
240.7819, 9005.396
241.2640, 8990.803
241.7462, 8989.458
242.2283, 9008.127
242.7104, 9063.722
243.1925, 9111.398
243.6746, 9133.883
244.1567, 9121.406
244.6389, 9117.522
245.1210, 9126.123
245.6031, 9140.963
246.0852, 9149.577
246.5673, 9143.649
247.0494, 9145.896
247.5316, 9168.652
248.0137, 9224.617
248.4958, 9256.216
248.9779, 9250.268
249.4600, 9227.177
249.9421, 9226.570
250.4243, 9261.647
250.9064, 9295.583
251.3885, 9315.566
251.8706, 9319.889
252.3527, 9313.272
252.8348, 9284.132
253.3170, 9251.196
253.7991, 9254.005
254.2812, 9310.942
254.7633, 9368.358
255.2454, 9406.679
255.7275, 9421.947
256.2097, 9430.098
256.6918, 9425.518
257.1739, 9417.578
257.6560, 9425.211
258.1381, 9455.781
258.6202, 9486.873
259.1024, 9510.868
259.5845, 9526.968
260.0666, 9537.556
260.5487, 9539.486
261.0308, 9538.277
261.5129, 9543.901
261.9951, 9556.864
262.4772, 9575.383
262.9593, 9599.340
263.4414, 9630.005
263.9235, 9662.495
264.4056, 9701.593
264.8878, 9738.389
265.3699, 9754.216
265.8520, 9739.841
266.3341, 9731.271
266.8162, 9744.609
267.2983, 9783.724
267.7805, 9819.512
268.2626, 9851.617
268.7447, 9880.436
269.2268, 9905.938
269.7089, 9927.173
270.1910, 9948.478
270.6732, 9974.194
271.1553, 10005.84
271.6374, 10023.40
272.1195, 10021.97
272.6016, 10013.67
273.0837, 10020.05
273.5659, 10044.52
274.0480, 10066.30
274.5301, 10077.04
275.0122, 10076.34
275.4943, 10071.96
275.9764, 10060.15
276.4586, 10051.73
276.9407, 10065.53
277.4228, 10103.49
277.9049, 10145.30
278.3870, 10189.59
278.8691, 10235.20
279.3513, 10248.29
279.8334, 10219.18
280.3155, 10182.45
280.7976, 10188.51
281.2798, 10239.03
281.7619, 10292.66
282.2440, 10337.08
282.7261, 10372.28
283.2082, 10393.69
283.6903, 10397.29
284.1725, 10401.98
284.6546, 10438.36
285.1367, 10504.60
285.6188, 10560.69
286.1009, 10585.96
286.5830, 10588.93
287.0652, 10604.80
287.5473, 10633.56
288.0294, 10674.32
288.5115, 10731.29
288.9936, 10802.69
289.4757, 10871.41
289.9579, 10933.66
290.4400, 10989.00
290.9221, 11035.91
291.4042, 11073.85
291.8863, 11109.94
292.3684, 11145.57
292.8506, 11183.57
293.3327, 11238.46
293.8148, 11333.09
294.2969, 11437.28
294.7790, 11479.53
295.2611, 11459.85
295.7433, 11444.85
296.2254, 11502.59
296.7075, 11612.85
297.1896, 11716.54
297.6717, 11798.94
298.1538, 11866.56
298.6360, 11923.97
299.1181, 11972.41
299.6002, 12020.12
300.0823, 12074.58
300.5644, 12133.24
301.0465, 12192.24
301.5287, 12252.63
302.0108, 12310.30
302.4929, 12360.61
302.9750, 12403.93
303.4571, 12439.71
303.9392, 12472.39
304.4214, 12496.24
304.9035, 12503.06
305.3856, 12486.21
305.8677, 12459.02
306.3498, 12432.80
306.8319, 12406.19
307.3141, 12373.61
307.7962, 12327.00
308.2783, 12275.53
308.7604, 12229.43
309.2425, 12197.48
309.7246, 12158.41
310.2068, 12097.10
310.6889, 12017.66
311.1710, 11930.33
311.6531, 11821.80
312.1352, 11718.28
312.6173, 11644.42
313.0995, 11615.67
313.5816, 11585.18
314.0637, 11525.45
314.5458, 11448.86
315.0279, 11378.27
315.5100, 11322.14
315.9922, 11274.55
316.4743, 11232.94
316.9564, 11197.44
317.4385, 11166.14
317.9206, 11138.13
318.4027, 11114.02
318.8849, 11094.67
319.3670, 11076.17
319.8491, 11066.11
320.3312, 11070.91
320.8133, 11094.35
321.2954, 11112.16
321.7776, 11111.39
322.2597, 11105.96
322.7418, 11110.70
323.2239, 11130.58
323.7060, 11157.99
324.1881, 11193.48
324.6703, 11237.77
325.1524, 11280.78
325.6345, 11330.70
326.1166, 11373.89
326.5987, 11399.48
327.0808, 11375.84
327.5630, 11371.92
328.0451, 11403.57
328.5272, 11468.78
329.0093, 11524.16
329.4914, 11564.85
329.9735, 11598.93
330.4557, 11630.98
330.9378, 11660.01
331.4199, 11688.11
331.9020, 11709.83
332.3841, 11729.90
332.8662, 11774.39
333.3484, 11858.03
333.8305, 11943.12
334.3126, 12007.06
334.7947, 12037.90
335.2768, 12084.20
335.7589, 12156.24
336.2411, 12240.61
336.7232, 12307.29
337.2053, 12356.19
337.6874, 12386.12
338.1695, 12392.15
338.6516, 12371.14
339.1338, 12355.14
339.6159, 12349.17
340.0980, 12341.41
340.5801, 12307.62
341.0622, 12244.20
341.5443, 12184.06
342.0265, 12142.66
342.5086, 12117.80
342.9907, 12085.06
343.4728, 12044.11
343.9549, 11997.63
344.4370, 11948.28
344.9192, 11896.51
345.4013, 11843.50
345.8834, 11787.77
346.3655, 11732.31
346.8476, 11685.50
347.3297, 11647.36
347.8119, 11620.81
348.2940, 11618.47
348.7761, 11631.60
349.2582, 11632.25
349.7403, 11600.83
350.2225, 11565.27
350.7046, 11570.34
351.1867, 11611.87
351.6688, 11657.32
352.1509, 11689.19
352.6331, 11708.55
353.1152, 11713.97
353.5973, 11696.36
354.0794, 11681.38
354.5615, 11688.63
355.0436, 11716.66
355.5258, 11761.08
356.0079, 11834.24
356.4900, 11914.54
356.9721, 11980.39
357.4542, 12022.73
357.9363, 12070.21
358.4185, 12139.50
358.9006, 12224.76
359.3827, 12315.83
359.8648, 12414.94
360.3469, 12513.96
360.8290, 12606.04
361.3112, 12689.00
361.7933, 12779.62
362.2754, 12876.74
362.7575, 12987.31
363.2396, 13119.45
363.7217, 13295.84
364.2039, 13471.40
364.6860, 13630.01
365.1681, 13771.84
365.6502, 13925.00
366.1323, 14100.92
366.6144, 14285.29
367.0966, 14468.96
367.5787, 14646.34
368.0608, 14827.26
368.5429, 15017.00
369.0250, 15212.98
369.5071, 15397.59
369.9893, 15569.22
370.4714, 15730.64
370.9535, 15885.23
371.4356, 16040.88
371.9177, 16168.31
372.3998, 16265.93
372.8820, 16335.99
373.3641, 16383.43
373.8462, 16410.73
374.3283, 16409.22
374.8104, 16377.34
375.2925, 16315.47
375.7747, 16212.41
376.2568, 16063.23
376.7389, 15881.02
377.2210, 15679.76
377.7031, 15458.48
378.1852, 15233.78
378.6674, 15010.43
379.1495, 14787.48
379.6316, 14544.12
380.1137, 14279.55
380.5958, 14020.50
381.0779, 13795.17
381.5601, 13597.89
382.0422, 13418.24
382.5243, 13253.25
383.0064, 13099.62
383.4885, 12948.02
383.9706, 12798.86
384.4528, 12665.63
384.9349, 12568.88
385.4170, 12490.08
385.8991, 12389.06
386.3812, 12247.82
386.8633, 12120.22
387.3455, 12069.19
387.8276, 12070.71
388.3097, 12069.08
388.7918, 12034.21
389.2739, 11986.39
389.7560, 11942.03
390.2382, 11903.00
390.7203, 11860.15
391.2024, 11796.16
391.6845, 11730.02
392.1666, 11682.87
392.6487, 11676.64
393.1309, 11677.29
393.6130, 11673.03
394.0951, 11663.94
394.5772, 11654.73
395.0593, 11647.65
395.5414, 11640.14
396.0236, 11630.69
396.5057, 11618.99
396.9878, 11605.36
397.4699, 11584.89
397.9520, 11561.91
398.4341, 11550.07
398.9163, 11556.16
399.3984, 11566.48
399.8805, 11577.75
400.3626, 11593.58
400.8447, 11598.23
401.3268, 11582.15
401.8090, 11561.96
402.2911, 11563.27
402.7732, 11595.58
403.2553, 11625.01
403.7374, 11645.02
404.2195, 11655.31
404.7017, 11647.74
405.1838, 11617.69
405.6659, 11581.94
406.1480, 11550.02
406.6301, 11521.45
407.1122, 11517.30
407.5944, 11549.77
408.0765, 11600.22
408.5586, 11623.67
409.0407, 11620.64
409.5228, 11608.76
410.0049, 11592.50
410.4871, 11576.31
410.9692, 11575.53
411.4513, 11594.78
411.9334, 11617.09
412.4155, 11621.72
412.8976, 11613.52
413.3798, 11606.46
413.8619, 11604.79
414.3440, 11608.59
414.8261, 11620.15
415.3082, 11639.47
415.7903, 11658.18
416.2725, 11672.00
416.7546, 11681.87
417.2367, 11689.20
417.7188, 11695.97
418.2009, 11698.35
418.6830, 11689.31
419.1652, 11672.95
419.6473, 11664.61
420.1294, 11668.51
420.6115, 11682.36
421.0937, 11707.70
421.5758, 11755.46
422.0579, 11790.46
422.5400, 11802.86
423.0221, 11801.02
423.5042, 11798.56
423.9864, 11785.25
424.4685, 11783.72
424.9506, 11807.39
425.4327, 11860.11
425.9148, 11881.16
426.3969, 11848.06
426.8791, 11808.93
427.3612, 11809.64
427.8433, 11866.89
428.3254, 11911.61
428.8075, 11933.86
429.2896, 11937.08
429.7718, 11927.92
430.2539, 11902.76
430.7360, 11884.13
431.2181, 11887.52
431.7002, 11911.61
432.1823, 11937.39
432.6645, 11963.56
433.1466, 11992.71
433.6287, 12033.79
434.1108, 12083.01
434.5929, 12121.37
435.0750, 12138.27
435.5572, 12140.19
436.0393, 12134.35
436.5214, 12121.20
437.0035, 12110.37
437.4856, 12108.24
437.9677, 12113.51
438.4499, 12125.73
438.9320, 12149.99
439.4141, 12172.26
439.8962, 12182.91
440.3783, 12183.75
440.8604, 12179.80
441.3426, 12171.28
441.8247, 12160.11
442.3068, 12145.42
442.7889, 12125.04
443.2710, 12111.32
443.7531, 12112.87
444.2353, 12120.71
444.7174, 12124.96
445.1995, 12109.57
445.6816, 12106.57
446.1637, 12132.96
446.6458, 12183.80
447.1280, 12206.16
447.6101, 12176.40
448.0922, 12144.20
448.5743, 12138.51
449.0564, 12172.15
449.5385, 12199.01
450.0207, 12219.63
450.5028, 12231.36
450.9849, 12225.01
451.4670, 12196.36
451.9491, 12171.21
452.4312, 12158.73
452.9134, 12158.27
453.3955, 12165.80
453.8776, 12182.03
454.3597, 12200.77
454.8418, 12220.83
455.3239, 12239.54
455.8061, 12241.93
456.2882, 12215.52
456.7703, 12185.67
457.2524, 12195.51
457.7345, 12236.07
458.2166, 12270.96
458.6988, 12269.96
459.1809, 12256.00
459.6630, 12253.21
460.1451, 12264.73
460.6272, 12282.43
461.1093, 12308.85
461.5915, 12336.02
462.0736, 12353.43
462.5557, 12342.74
463.0378, 12336.31
463.5199, 12354.29
464.0020, 12391.79
464.4842, 12412.25
464.9663, 12392.71
465.4484, 12365.29
465.9305, 12346.23
466.4126, 12335.58
466.8947, 12334.54
467.3769, 12350.83
467.8590, 12373.33
468.3411, 12382.40
468.8232, 12367.57
469.3053, 12360.50
469.7874, 12372.58
470.2696, 12402.37
470.7517, 12422.91
471.2338, 12433.14
471.7159, 12437.26
472.1980, 12435.26
472.6801, 12427.45
473.1623, 12428.30
473.6444, 12441.67
474.1265, 12460.91
474.6086, 12472.18
475.0907, 12477.48
475.5728, 12489.73
476.0550, 12521.77
476.5371, 12563.15
477.0192, 12599.47
477.5013, 12630.54
477.9834, 12650.83
478.4655, 12645.46
478.9477, 12630.08
479.4298, 12625.43
479.9119, 12643.33
480.3940, 12666.13
480.8761, 12688.83
481.3582, 12709.69
481.8404, 12723.37
482.3225, 12708.21
482.8046, 12701.88
483.2867, 12728.57
483.7688, 12807.52
484.2509, 12859.61
484.7331, 12850.14
485.2152, 12825.20
485.6973, 12829.00
486.1794, 12885.34
486.6615, 12928.83
487.1436, 12942.94
487.6258, 12937.02
488.1079, 12958.03
488.5900, 13013.68
489.0721, 13074.75
489.5542, 13127.14
490.0363, 13171.11
490.5185, 13210.32
491.0006, 13247.13
491.4827, 13270.45
491.9648, 13251.39
492.4470, 13199.54
492.9291, 13168.84
493.4112, 13188.14
493.8933, 13230.06
494.3754, 13257.82
494.8575, 13271.91
495.3397, 13273.90
495.8218, 13250.16
496.3039, 13222.01
496.7860, 13218.84
497.2681, 13254.57
497.7502, 13276.72
498.2324, 13247.64
498.7145, 13191.08
499.1966, 13138.78
499.6787, 13080.30
500.1608, 13047.87
500.6429, 13071.01
501.1251, 13144.21
501.6072, 13179.81
502.0893, 13136.80
502.5714, 13086.36
503.0535, 13061.44
503.5356, 13071.59
504.0178, 13084.24
504.4999, 13097.02
504.9820, 13114.47
505.4641, 13151.25
505.9462, 13215.81
506.4283, 13252.88
506.9105, 13233.25
507.3926, 13176.73
507.8747, 13165.86
508.3568, 13202.59
508.8389, 13249.52
509.3210, 13283.21
509.8032, 13306.03
510.2853, 13323.88
510.7674, 13336.60
511.2495, 13348.23
511.7316, 13357.49
512.2137, 13369.07
512.6959, 13392.23
513.1780, 13448.96
513.6601, 13503.66
514.1422, 13529.98
514.6243, 13531.25
515.1064, 13532.00
515.5886, 13534.77
516.0707, 13544.96
516.5528, 13566.81
517.0349, 13607.05
517.5170, 13646.33
517.9991, 13694.72
518.4813, 13736.31
518.9634, 13747.96
519.4455, 13706.61
519.9276, 13675.04
520.4097, 13667.78
520.8918, 13681.35
521.3740, 13693.77
521.8561, 13706.22
522.3382, 13713.64
522.8203, 13713.85
523.3024, 13706.72
523.7845, 13685.82
524.2667, 13646.84
524.7488, 13608.76
525.2309, 13601.78
525.7130, 13616.11
526.1951, 13616.71
526.6772, 13576.63
527.1594, 13530.97
527.6415, 13528.45
528.1236, 13559.73
528.6057, 13583.79
529.0878, 13570.08
529.5699, 13544.74
530.0521, 13527.98
530.5342, 13524.68
531.0163, 13518.98
531.4984, 13500.19
531.9805, 13478.76
532.4626, 13465.72
532.9448, 13458.30
533.4269, 13465.16
533.9090, 13496.60
534.3911, 13544.03
534.8732, 13570.92
535.3553, 13565.38
535.8375, 13562.19
536.3196, 13578.34
536.8017, 13615.27
537.2838, 13644.53
537.7659, 13664.73
538.2480, 13682.71
538.7302, 13704.88
539.2123, 13731.27
539.6944, 13761.13
540.1765, 13794.83
540.6586, 13830.94
541.1407, 13871.69
541.6229, 13914.76
542.1050, 13952.38
542.5871, 13959.18
543.0692, 13972.59
543.5513, 14037.99
544.0334, 14156.53
544.5156, 14262.77
544.9977, 14319.36
545.4798, 14354.89
545.9619, 14390.60
546.4440, 14427.76
546.9261, 14469.38
547.4083, 14514.19
547.8904, 14564.40
548.3725, 14623.63
548.8546, 14699.14
549.3367, 14773.60
549.8188, 14850.85
550.3010, 14927.40
550.7831, 14957.82
551.2652, 14934.10
551.7473, 14890.81
552.2294, 14849.13
552.7115, 14808.79
553.1937, 14771.29
553.6758, 14738.85
554.1579, 14700.44
554.6400, 14637.77
555.1221, 14557.25
555.6042, 14478.66
556.0864, 14410.64
556.5685, 14344.72
557.0506, 14269.87
557.5327, 14189.65
558.0148, 14118.48
558.4969, 14059.94
558.9791, 14015.08
559.4612, 13987.14
559.9433, 13979.04
560.4254, 13974.44
560.9075, 13978.67
561.3896, 13980.44
561.8718, 13969.18
562.3539, 13930.17
562.8360, 13903.59
563.3181, 13896.67
563.8002, 13902.11
564.2823, 13902.40
564.7645, 13896.39
565.2466, 13890.40
565.7287, 13887.88
566.2108, 13887.51
566.6929, 13880.23
567.1750, 13865.63
567.6572, 13854.89
568.1393, 13865.35
568.6214, 13885.26
569.1035, 13887.23
569.5856, 13862.18
570.0677, 13839.01
570.5499, 13847.25
571.0320, 13871.94
571.5141, 13889.45
571.9962, 13883.69
572.4783, 13876.51
572.9604, 13872.77
573.4426, 13873.74
573.9247, 13885.14
574.4068, 13921.79
574.8889, 13956.31
575.3710, 13977.92
575.8531, 13984.35
576.3353, 13988.96
576.8174, 13992.89
577.2995, 13993.25
577.7816, 13984.40
578.2637, 13964.80
578.7458, 13953.02
579.2280, 13951.69
579.7101, 13959.41
580.1922, 13979.26
580.6743, 14008.40
581.1564, 14030.80
581.6385, 14033.05
582.1207, 14027.62
582.6028, 14031.22
583.0849, 14042.74
583.5670, 14053.55
584.0491, 14053.17
584.5313, 14053.49
585.0134, 14066.95
585.4955, 14103.16
585.9776, 14126.93
586.4597, 14114.26
586.9418, 14090.77
587.4240, 14086.35
587.9061, 14121.99
588.3882, 14144.88
588.8703, 14145.14
589.3524, 14130.21
589.8345, 14120.12
590.3167, 14113.72
590.7988, 14117.24
591.2809, 14139.53
591.7630, 14174.82
592.2451, 14187.55
592.7272, 14176.73
593.2094, 14167.78
593.6915, 14184.37
594.1736, 14217.36
594.6557, 14252.72
595.1378, 14290.43
595.6199, 14317.88
596.1021, 14310.93
596.5842, 14291.41
597.0663, 14290.49
597.5485, 14348.75
598.0306, 14395.35
598.5127, 14405.11
598.9948, 14383.75
599.4769, 14356.50
599.9590, 14303.78
600.4412, 14271.10
600.9233, 14280.67
601.4054, 14336.54
601.8875, 14368.73
602.3696, 14370.88
602.8517, 14364.28
603.3339, 14365.11
603.8160, 14373.03
604.2981, 14384.15
604.7802, 14397.93
605.2623, 14414.90
605.7444, 14437.25
606.2266, 14463.43
606.7087, 14488.23
607.1908, 14510.48
607.6729, 14530.46
608.1550, 14554.55
608.6371, 14577.78
609.1193, 14584.73
609.6014, 14541.87
610.0835, 14504.62
610.5656, 14504.87
611.0477, 14550.57
611.5298, 14586.31
612.0120, 14617.46
612.4941, 14630.84
612.9762, 14608.73
613.4583, 14528.85
613.9404, 14500.49
614.4225, 14544.88
614.9047, 14612.28
615.3868, 14623.32
615.8689, 14583.40
616.3510, 14563.70
616.8331, 14590.47
617.3152, 14640.77
617.7974, 14685.62
618.2795, 14724.75
618.7616, 14759.59
619.2437, 14800.88
619.7258, 14830.54
620.2079, 14825.58
620.6901, 14785.50
621.1722, 14759.61
621.6543, 14768.94
622.1364, 14795.32
622.6185, 14828.98
623.1006, 14877.82
623.5828, 14914.18
624.0649, 14930.74
624.5470, 14941.52
625.0291, 14966.08
625.5112, 15009.18
625.9933, 15039.76
626.4755, 15049.68
626.9576, 15047.13
627.4397, 15047.45
627.9218, 15050.28
628.4039, 15052.89
628.8860, 15037.79
629.3682, 15030.26
629.8503, 15080.49
630.3324, 15179.78
630.8145, 15261.49
631.2966, 15266.44
631.7787, 15253.19
632.2609, 15266.17
632.7430, 15321.10
633.2251, 15362.52
633.7072, 15352.68
634.1893, 15341.50
634.6714, 15373.27
635.1536, 15477.18
635.6357, 15558.68
636.1178, 15603.47
636.5999, 15629.77
637.0820, 15668.82
637.5641, 15720.75
638.0463, 15778.37
638.5284, 15837.94
639.0105, 15903.45
639.4926, 15988.80
639.9747, 16091.24
640.4568, 16192.05
640.9390, 16268.57
641.4211, 16346.99
641.9032, 16451.11
642.3853, 16582.10
642.8674, 16730.55
643.3495, 16893.72
643.8317, 17072.05
644.3138, 17268.05
644.7959, 17481.98
645.2780, 17713.97
645.7601, 17972.86
646.2422, 18241.04
646.7244, 18498.12
647.2065, 18736.46
647.6886, 18994.37
648.1707, 19282.42
648.6528, 19583.54
649.1349, 19861.74
649.6171, 20120.95
650.0992, 20396.69
