##NAMES=Hedenbergite
##RRUFFID=R070236
##IDEAL CHEMISTRY=CaFe^2+^Si_2_O_6_
##LOCALITY=Dal'Negorsk, Primorskiy Kray; far eastern, Russia
##OWNER=RRUFF
##SOURCE=Michael Scott
##DESCRIPTION=Gemmy drab to olive green orthorhombic prisms lining vug
##STATUS=The identification of this mineral is confirmed by single-crystal X-ray diffraction and chemical analysis.
##URL=rruff.info/R070236
##MEASURED CHEMISTRY=Ca_1.00_(Fe^2+^_0.67_Mg_0.17_Mn^2+^_0.16_)_Î£=1_Si_2.00_O_6_
158.6245, 1714.861
159.1066, 1724.268
159.5887, 1737.449
160.0709, 1755.462
160.5530, 1777.851
161.0351, 1806.134
161.5172, 1842.586
161.9993, 1875.986
162.4814, 1893.646
162.9636, 1902.474
163.4457, 1915.230
163.9278, 1941.468
164.4099, 1972.794
164.8920, 1991.500
165.3741, 1992.312
165.8563, 1995.259
166.3384, 2016.086
166.8205, 2047.150
167.3026, 2076.238
167.7847, 2099.906
168.2668, 2118.112
168.7490, 2130.173
169.2311, 2134.441
169.7132, 2136.147
170.1953, 2137.998
170.6774, 2139.412
171.1595, 2139.269
171.6417, 2136.462
172.1238, 2132.017
172.6059, 2127.569
173.0880, 2120.560
173.5701, 2119.199
174.0522, 2131.368
174.5344, 2149.985
175.0165, 2164.231
175.4986, 2166.587
175.9807, 2162.631
176.4628, 2168.401
176.9449, 2188.456
177.4271, 2210.381
177.9092, 2229.734
178.3913, 2247.606
178.8734, 2265.534
179.3555, 2284.789
179.8376, 2304.351
180.3197, 2321.828
180.8019, 2338.560
181.2840, 2350.225
181.7661, 2352.465
182.2482, 2350.723
182.7303, 2351.969
183.2124, 2360.121
183.6946, 2372.526
184.1767, 2381.645
184.6588, 2386.302
185.1409, 2389.309
185.6230, 2387.657
186.1051, 2386.316
186.5873, 2391.424
187.0694, 2406.345
187.5515, 2427.915
188.0336, 2449.046
188.5157, 2473.121
188.9978, 2489.820
189.4800, 2494.507
189.9621, 2493.008
190.4442, 2491.313
190.9263, 2492.087
191.4084, 2493.679
191.8905, 2491.816
192.3727, 2484.028
192.8548, 2477.040
193.3369, 2471.964
193.8190, 2468.078
194.3011, 2464.990
194.7832, 2462.570
195.2654, 2460.189
195.7475, 2456.119
196.2296, 2447.760
196.7117, 2442.747
197.1938, 2442.442
197.6759, 2445.015
198.1581, 2449.588
198.6402, 2455.771
199.1223, 2462.351
199.6044, 2467.350
200.0865, 2471.608
200.5686, 2472.177
201.0508, 2463.265
201.5329, 2454.618
202.0150, 2455.713
202.4971, 2468.553
202.9792, 2485.171
203.4613, 2491.969
203.9435, 2482.464
204.4256, 2477.619
204.9077, 2483.848
205.3898, 2490.595
205.8719, 2490.175
206.3540, 2481.337
206.8362, 2468.803
207.3183, 2457.431
207.8004, 2443.614
208.2825, 2441.277
208.7646, 2463.355
209.2467, 2485.577
209.7289, 2491.336
210.2110, 2480.264
210.6931, 2465.594
211.1752, 2463.070
211.6573, 2476.331
212.1395, 2488.642
212.6216, 2500.642
213.1037, 2511.193
213.5858, 2519.169
214.0679, 2524.874
214.5500, 2529.635
215.0322, 2534.446
215.5143, 2539.029
215.9964, 2545.539
216.4785, 2557.886
216.9606, 2568.555
217.4427, 2573.513
217.9249, 2574.047
218.4070, 2574.575
218.8891, 2579.325
219.3712, 2588.541
219.8533, 2593.139
220.3354, 2581.574
220.8176, 2576.625
221.2997, 2588.420
221.7818, 2611.703
222.2639, 2635.709
222.7460, 2652.976
223.2281, 2664.135
223.7103, 2674.468
224.1924, 2682.966
224.6745, 2691.734
225.1566, 2705.440
225.6387, 2718.923
226.1208, 2723.336
226.6030, 2712.497
227.0851, 2691.212
227.5672, 2679.604
228.0493, 2681.467
228.5314, 2689.170
229.0135, 2703.856
229.4957, 2722.277
229.9778, 2742.291
230.4599, 2763.157
230.9420, 2782.189
231.4241, 2792.079
231.9062, 2785.901
232.3884, 2782.069
232.8705, 2787.677
233.3526, 2793.805
233.8347, 2791.928
234.3168, 2779.381
234.7989, 2761.177
235.2811, 2746.491
235.7632, 2738.828
236.2453, 2726.040
236.7274, 2694.748
237.2095, 2666.924
237.6916, 2662.358
238.1738, 2682.542
238.6559, 2707.280
239.1380, 2709.758
239.6201, 2682.451
240.1022, 2660.604
240.5843, 2644.055
241.0665, 2634.331
241.5486, 2634.530
242.0307, 2643.476
242.5128, 2655.909
242.9949, 2668.330
243.4770, 2681.201
243.9592, 2688.517
244.4413, 2686.806
244.9234, 2682.323
245.4055, 2674.399
245.8876, 2665.263
246.3697, 2659.823
246.8519, 2662.515
247.3340, 2672.368
247.8161, 2680.677
248.2982, 2688.644
248.7803, 2693.061
249.2624, 2691.548
249.7446, 2686.387
250.2267, 2680.357
250.7088, 2673.250
251.1909, 2668.052
251.6730, 2675.137
252.1551, 2702.600
252.6373, 2725.966
253.1194, 2732.674
253.6015, 2733.574
254.0836, 2741.603
254.5657, 2762.790
255.0478, 2787.413
255.5300, 2798.941
256.0121, 2793.816
256.4942, 2788.925
256.9763, 2789.725
257.4584, 2792.199
257.9406, 2790.831
258.4227, 2784.126
258.9048, 2783.361
259.3869, 2806.998
259.8690, 2856.755
260.3511, 2890.984
260.8333, 2890.873
261.3154, 2882.031
261.7975, 2881.124
262.2796, 2888.995
262.7617, 2902.112
263.2438, 2921.835
263.7260, 2946.218
264.2081, 2962.549
264.6902, 2964.464
265.1723, 2965.940
265.6544, 2979.513
266.1365, 3001.620
266.6187, 3020.205
267.1008, 3025.977
267.5829, 3025.045
268.0650, 3030.492
268.5471, 3043.686
269.0292, 3059.739
269.5114, 3079.041
269.9935, 3098.585
270.4756, 3112.329
270.9577, 3113.127
271.4398, 3112.058
271.9219, 3123.480
272.4041, 3147.822
272.8862, 3171.087
273.3683, 3187.685
273.8504, 3197.803
274.3325, 3202.917
274.8146, 3202.132
275.2968, 3198.028
275.7789, 3192.335
276.2610, 3184.805
276.7431, 3172.435
277.2252, 3149.739
277.7073, 3127.994
278.1895, 3128.181
278.6716, 3154.156
279.1537, 3178.263
279.6358, 3193.254
280.1179, 3199.296
280.6000, 3193.128
281.0822, 3172.219
281.5643, 3150.236
282.0464, 3144.246
282.5285, 3155.462
283.0106, 3167.491
283.4927, 3180.320
283.9749, 3192.082
284.4570, 3198.544
284.9391, 3200.256
285.4212, 3206.104
285.9033, 3224.114
286.3854, 3254.264
286.8676, 3282.186
287.3497, 3309.395
287.8318, 3333.215
288.3139, 3349.628
288.7960, 3361.380
289.2781, 3376.038
289.7603, 3398.453
290.2424, 3425.876
290.7245, 3446.183
291.2066, 3450.087
291.6887, 3458.859
292.1708, 3478.314
292.6530, 3503.431
293.1351, 3527.884
293.6172, 3549.465
294.0993, 3570.380
294.5814, 3594.200
295.0635, 3620.625
295.5457, 3651.351
296.0278, 3691.198
296.5099, 3731.351
296.9920, 3765.021
297.4741, 3791.899
297.9562, 3815.812
298.4384, 3840.491
298.9205, 3865.800
299.4026, 3893.296
299.8847, 3931.077
300.3668, 3962.929
300.8489, 3977.531
301.3310, 3981.908
301.8131, 3991.135
302.2953, 4015.680
302.7774, 4052.511
303.2595, 4086.445
303.7416, 4118.062
304.2237, 4145.349
304.7058, 4171.626
305.1880, 4192.361
305.6701, 4202.385
306.1522, 4199.705
306.6343, 4187.315
307.1164, 4169.308
307.5985, 4145.117
308.0807, 4117.643
308.5628, 4092.066
309.0449, 4059.777
309.5270, 4011.121
310.0091, 3946.746
310.4912, 3882.573
310.9734, 3836.223
311.4555, 3805.232
311.9376, 3761.475
312.4197, 3692.714
312.9018, 3626.258
313.3839, 3581.845
313.8661, 3552.771
314.3482, 3522.282
314.8303, 3482.536
315.3124, 3436.867
315.7945, 3389.189
316.2766, 3338.444
316.7588, 3291.964
317.2409, 3250.832
317.7230, 3218.474
318.2051, 3202.467
318.6872, 3212.880
319.1693, 3223.842
319.6515, 3213.912
320.1336, 3187.292
320.6157, 3161.096
321.0978, 3138.244
321.5799, 3123.067
322.0620, 3126.425
322.5442, 3151.478
323.0263, 3170.661
323.5084, 3172.066
323.9905, 3165.086
324.4726, 3159.493
324.9547, 3156.978
325.4369, 3161.044
325.9190, 3175.817
326.4011, 3202.552
326.8832, 3230.610
327.3653, 3262.026
327.8474, 3292.984
328.3296, 3325.501
328.8117, 3356.399
329.2938, 3374.389
329.7759, 3370.555
330.2580, 3352.935
330.7401, 3358.188
331.2223, 3413.969
331.7044, 3458.518
332.1865, 3477.794
332.6686, 3486.371
333.1507, 3499.404
333.6328, 3521.620
334.1150, 3548.785
334.5971, 3574.951
335.0792, 3599.539
335.5613, 3624.400
336.0434, 3651.140
336.5255, 3676.680
337.0077, 3699.921
337.4898, 3720.473
337.9719, 3738.304
338.4540, 3753.731
338.9361, 3766.382
339.4182, 3772.793
339.9004, 3771.362
340.3825, 3765.368
340.8646, 3762.931
341.3467, 3754.707
341.8288, 3725.521
342.3109, 3666.836
342.7931, 3598.715
343.2752, 3554.455
343.7573, 3538.666
344.2394, 3513.039
344.7215, 3459.704
345.2036, 3399.843
345.6858, 3347.889
346.1679, 3304.733
346.6500, 3269.647
347.1321, 3246.708
347.6142, 3231.442
348.0963, 3210.071
348.5785, 3178.987
349.0606, 3148.842
349.5427, 3132.269
350.0248, 3123.882
350.5069, 3107.296
350.9890, 3071.301
351.4712, 3032.583
351.9533, 2999.337
352.4354, 2973.255
352.9175, 2965.816
353.3996, 2988.556
353.8817, 3026.225
354.3639, 3036.800
354.8460, 3010.444
355.3281, 2984.636
355.8102, 2962.153
356.2923, 2947.012
356.7744, 2947.207
357.2566, 2963.616
357.7387, 2985.699
358.2208, 3002.192
358.7029, 3012.599
359.1850, 3019.557
359.6671, 3015.355
360.1493, 3015.755
360.6314, 3030.682
361.1135, 3055.654
361.5956, 3080.571
362.0777, 3099.667
362.5598, 3114.115
363.0420, 3127.977
363.5241, 3138.323
364.0062, 3153.119
364.4883, 3173.567
364.9704, 3198.056
365.4525, 3228.082
365.9347, 3262.727
366.4168, 3294.721
366.8989, 3310.591
367.3810, 3308.479
367.8631, 3324.559
368.3452, 3373.018
368.8274, 3425.358
369.3095, 3467.863
369.7916, 3502.917
370.2737, 3536.931
370.7558, 3575.438
371.2379, 3612.609
371.7201, 3636.554
372.2022, 3645.996
372.6843, 3654.510
373.1664, 3670.263
373.6485, 3686.370
374.1306, 3694.248
374.6128, 3694.460
375.0949, 3683.471
375.5770, 3653.452
376.0591, 3611.965
376.5412, 3574.380
377.0233, 3544.132
377.5055, 3515.368
377.9876, 3482.235
378.4697, 3444.297
378.9518, 3405.751
379.4339, 3368.159
379.9160, 3328.721
380.3982, 3284.972
380.8803, 3238.084
381.3624, 3191.755
381.8445, 3147.911
382.3266, 3106.216
382.8087, 3064.699
383.2909, 3013.365
383.7730, 2976.872
384.2551, 2969.820
384.7372, 2968.477
385.2193, 2950.451
385.7014, 2914.182
386.1836, 2877.008
386.6657, 2858.277
387.1478, 2859.284
387.6299, 2855.153
388.1120, 2842.498
388.5941, 2828.183
389.0763, 2812.531
389.5584, 2797.217
390.0405, 2784.937
390.5226, 2776.979
391.0047, 2771.719
391.4868, 2767.200
391.9690, 2763.683
392.4511, 2758.443
392.9332, 2749.357
393.4153, 2739.534
393.8974, 2731.543
394.3795, 2725.415
394.8617, 2721.235
395.3438, 2720.349
395.8259, 2720.989
396.3080, 2719.536
396.7901, 2715.500
397.2722, 2712.917
397.7544, 2715.501
398.2365, 2721.984
398.7186, 2725.343
399.2007, 2726.444
399.6828, 2723.568
400.1649, 2711.888
400.6471, 2696.749
401.1292, 2687.782
401.6113, 2688.149
402.0934, 2692.378
402.5755, 2692.332
403.0576, 2686.134
403.5398, 2681.229
404.0219, 2679.842
404.5040, 2677.465
404.9861, 2669.986
405.4682, 2659.501
405.9503, 2650.811
406.4325, 2646.537
406.9146, 2647.197
407.3967, 2656.336
407.8788, 2682.051
408.3609, 2699.359
408.8430, 2702.601
409.3252, 2697.000
409.8073, 2682.717
410.2894, 2660.932
410.7715, 2641.809
411.2536, 2635.054
411.7357, 2638.785
412.2179, 2644.302
412.7000, 2652.089
413.1821, 2659.112
413.6642, 2661.372
414.1463, 2661.483
414.6284, 2665.024
415.1106, 2677.146
415.5927, 2687.954
416.0748, 2687.471
416.5569, 2679.435
417.0390, 2675.689
417.5211, 2680.583
418.0033, 2690.211
418.4854, 2700.400
418.9675, 2714.415
419.4496, 2716.106
419.9317, 2690.543
420.4138, 2664.233
420.8960, 2658.697
421.3781, 2669.143
421.8602, 2674.541
422.3423, 2659.939
422.8244, 2632.723
423.3065, 2625.700
423.7887, 2658.301
424.2708, 2681.092
424.7529, 2682.651
425.2350, 2677.558
425.7171, 2677.193
426.1992, 2683.346
426.6814, 2691.043
427.1635, 2694.958
427.6456, 2695.641
428.1277, 2699.964
428.6098, 2710.591
429.0919, 2719.702
429.5741, 2720.075
430.0562, 2717.268
430.5383, 2720.197
431.0204, 2733.183
431.5025, 2747.466
431.9846, 2756.187
432.4668, 2760.247
432.9489, 2762.289
433.4310, 2762.423
433.9131, 2762.727
434.3952, 2766.715
434.8773, 2775.095
435.3595, 2778.422
435.8416, 2769.616
436.3237, 2761.526
436.8058, 2765.889
437.2879, 2777.544
437.7701, 2781.525
438.2522, 2769.604
438.7343, 2749.085
439.2164, 2738.722
439.6985, 2744.865
440.1806, 2750.291
440.6628, 2759.177
441.1449, 2763.683
441.6270, 2755.945
442.1091, 2738.312
442.5912, 2720.690
443.0733, 2710.447
443.5555, 2706.120
444.0376, 2702.341
444.5197, 2699.332
445.0018, 2696.263
445.4839, 2694.319
445.9660, 2691.288
446.4482, 2684.411
446.9303, 2673.007
447.4124, 2660.684
447.8945, 2646.229
448.3766, 2633.080
448.8587, 2631.340
449.3409, 2643.243
449.8230, 2653.770
450.3051, 2650.627
450.7872, 2634.969
451.2693, 2621.514
451.7514, 2605.149
452.2336, 2596.649
452.7157, 2605.151
453.1978, 2621.673
453.6799, 2634.327
454.1620, 2639.536
454.6441, 2640.434
455.1263, 2641.357
455.6084, 2643.310
456.0905, 2639.610
456.5726, 2620.290
457.0547, 2605.520
457.5368, 2604.131
458.0190, 2610.738
458.5011, 2616.899
458.9832, 2619.349
459.4653, 2618.749
459.9474, 2613.287
460.4295, 2602.792
460.9117, 2601.843
461.3938, 2620.280
461.8759, 2639.381
462.3580, 2638.985
462.8401, 2623.176
463.3222, 2613.540
463.8044, 2622.211
464.2865, 2634.531
464.7686, 2637.158
465.2507, 2631.865
465.7328, 2625.506
466.2149, 2620.167
466.6971, 2618.577
467.1792, 2627.129
467.6613, 2657.323
468.1434, 2672.792
468.6255, 2664.468
469.1076, 2649.651
469.5898, 2633.552
470.0719, 2620.152
470.5540, 2617.568
471.0361, 2632.666
471.5182, 2657.184
472.0003, 2665.749
472.4825, 2651.429
472.9646, 2639.904
473.4467, 2641.267
473.9288, 2643.794
474.4109, 2637.591
474.8930, 2623.525
475.3752, 2613.745
475.8573, 2617.436
476.3394, 2628.944
476.8215, 2641.224
477.3036, 2654.108
477.7857, 2659.271
478.2679, 2648.804
478.7500, 2631.046
479.2321, 2626.957
479.7142, 2640.658
480.1963, 2655.031
480.6784, 2669.347
481.1606, 2681.271
481.6427, 2687.353
482.1248, 2688.362
482.6069, 2689.327
483.0890, 2694.537
483.5711, 2702.304
484.0533, 2702.208
484.5354, 2681.676
485.0175, 2674.489
485.4996, 2691.716
485.9817, 2717.932
486.4638, 2742.984
486.9460, 2764.888
487.4281, 2783.764
487.9102, 2797.416
488.3923, 2808.239
488.8744, 2825.202
489.3565, 2850.040
489.8387, 2871.112
490.3208, 2881.663
490.8029, 2884.859
491.2850, 2887.448
491.7671, 2888.236
492.2492, 2891.825
492.7314, 2899.937
493.2135, 2911.538
493.6956, 2930.192
494.1777, 2953.555
494.6598, 2967.798
495.1419, 2961.547
495.6241, 2937.644
496.1062, 2914.180
496.5883, 2891.780
497.0704, 2869.101
497.5525, 2839.687
498.0346, 2814.135
498.5168, 2805.376
498.9989, 2812.201
499.4810, 2817.887
499.9631, 2807.952
500.4452, 2785.872
500.9273, 2763.814
501.4095, 2740.969
501.8916, 2721.687
502.3737, 2710.209
502.8558, 2702.010
503.3379, 2688.792
503.8200, 2668.120
504.3022, 2652.426
504.7843, 2650.837
505.2664, 2654.152
505.7485, 2652.438
506.2306, 2644.893
506.7127, 2633.473
507.1949, 2618.102
507.6770, 2601.744
508.1591, 2597.837
508.6412, 2621.352
509.1233, 2635.495
509.6054, 2633.263
510.0876, 2625.367
510.5697, 2617.972
511.0518, 2612.325
511.5339, 2607.842
512.0161, 2602.446
512.4982, 2598.962
512.9803, 2609.959
513.4624, 2640.003
513.9445, 2654.954
514.4266, 2631.296
514.9088, 2596.692
515.3909, 2589.314
515.8730, 2611.369
516.3551, 2630.248
516.8372, 2638.406
517.3193, 2637.440
517.8015, 2622.821
518.2836, 2599.124
518.7657, 2582.784
519.2478, 2583.013
519.7299, 2593.877
520.2120, 2601.311
520.6942, 2602.801
521.1763, 2605.655
521.6584, 2612.964
522.1405, 2618.613
522.6226, 2618.439
523.1047, 2613.876
523.5869, 2608.943
524.0690, 2605.603
524.5511, 2603.237
525.0332, 2599.996
525.5153, 2595.909
525.9974, 2595.566
526.4796, 2600.318
526.9617, 2608.771
527.4438, 2623.732
527.9259, 2643.779
528.4080, 2652.331
528.8901, 2637.163
529.3723, 2619.661
529.8544, 2610.126
530.3365, 2607.820
530.8186, 2612.897
531.3007, 2625.076
531.7828, 2637.008
532.2650, 2636.973
532.7471, 2621.332
533.2292, 2616.630
533.7113, 2636.288
534.1934, 2651.634
534.6755, 2647.708
535.1577, 2636.786
535.6398, 2636.484
536.1219, 2652.491
536.6040, 2673.227
537.0861, 2688.751
537.5682, 2700.337
538.0504, 2710.242
538.5325, 2717.696
539.0146, 2731.885
539.4967, 2764.688
539.9788, 2809.157
540.4609, 2830.344
540.9431, 2804.286
541.4252, 2790.708
541.9073, 2807.076
542.3894, 2837.710
542.8715, 2872.435
543.3536, 2907.216
543.8358, 2936.141
544.3179, 2953.254
544.8000, 2962.022
545.2821, 2976.649
545.7642, 2995.549
546.2463, 3024.763
546.7285, 3078.227
547.2106, 3133.320
547.6926, 3172.602
548.1747, 3196.158
548.6569, 3215.417
549.1390, 3232.195
549.6211, 3249.098
550.1032, 3270.888
550.5853, 3295.864
551.0674, 3317.601
551.5496, 3334.513
552.0317, 3342.844
552.5138, 3335.956
552.9959, 3309.638
553.4780, 3281.704
553.9601, 3255.193
554.4423, 3223.973
554.9244, 3186.080
555.4065, 3141.684
555.8886, 3088.128
556.3707, 3023.785
556.8528, 2962.370
557.3350, 2924.846
557.8171, 2907.583
558.2992, 2879.133
558.7813, 2832.846
559.2634, 2787.253
559.7455, 2753.423
560.2277, 2730.077
560.7098, 2711.660
561.1919, 2701.066
561.6740, 2690.119
562.1561, 2673.557
562.6382, 2657.040
563.1204, 2647.552
563.6025, 2644.831
564.0846, 2643.121
564.5667, 2638.349
565.0488, 2630.973
565.5309, 2621.534
566.0131, 2605.783
566.4952, 2598.775
566.9773, 2617.623
567.4594, 2634.206
567.9415, 2626.654
568.4236, 2599.401
568.9058, 2576.142
569.3879, 2567.095
569.8700, 2566.068
570.3521, 2571.480
570.8342, 2580.104
571.3163, 2579.487
571.7985, 2565.198
572.2806, 2546.884
572.7627, 2536.072
573.2448, 2533.496
573.7269, 2531.269
574.2090, 2523.452
574.6912, 2523.009
575.1733, 2540.719
575.6554, 2563.534
576.1375, 2578.290
576.6196, 2581.677
577.1017, 2576.441
577.5839, 2561.018
578.0660, 2539.017
578.5481, 2520.556
579.0302, 2504.965
579.5123, 2501.574
579.9944, 2520.594
580.4766, 2549.156
580.9587, 2561.985
581.4408, 2557.283
581.9229, 2548.956
582.4050, 2529.529
582.8871, 2515.492
583.3693, 2523.516
583.8514, 2544.985
584.3335, 2560.665
584.8156, 2561.673
585.2977, 2554.023
585.7798, 2544.881
586.2620, 2533.501
586.7441, 2530.407
587.2262, 2540.124
587.7083, 2551.540
588.1904, 2558.951
588.6725, 2563.742
589.1547, 2568.929
589.6368, 2577.800
590.1189, 2579.430
590.6010, 2560.126
591.0831, 2535.178
591.5652, 2524.510
592.0474, 2528.811
592.5295, 2538.233
593.0116, 2546.681
593.4937, 2554.474
593.9758, 2563.642
594.4579, 2578.593
594.9401, 2584.317
595.4222, 2571.333
595.9043, 2556.166
596.3864, 2544.708
596.8685, 2537.690
597.3506, 2536.099
597.8328, 2542.069
598.3149, 2550.143
598.7970, 2554.998
599.2791, 2558.158
599.7612, 2564.795
600.2433, 2575.948
600.7255, 2585.006
601.2076, 2585.744
601.6897, 2579.440
602.1718, 2576.580
602.6539, 2581.160
603.1360, 2583.780
603.6182, 2583.332
604.1003, 2581.038
604.5824, 2576.709
605.0645, 2571.197
605.5466, 2567.085
606.0287, 2566.384
606.5109, 2567.127
606.9930, 2565.242
607.4751, 2561.453
607.9572, 2562.578
608.4393, 2571.587
608.9214, 2580.749
609.4036, 2581.284
609.8857, 2573.153
610.3678, 2571.059
610.8499, 2582.832
611.3320, 2590.147
611.8141, 2581.277
612.2963, 2570.641
612.7784, 2576.087
613.2605, 2596.967
613.7426, 2615.282
614.2247, 2615.025
614.7068, 2604.579
615.1890, 2605.495
615.6711, 2618.309
616.1532, 2630.703
616.6353, 2639.815
617.1174, 2646.005
617.5995, 2649.391
618.0817, 2649.906
618.5638, 2648.562
619.0459, 2638.017
619.5280, 2634.127
620.0101, 2648.368
620.4922, 2670.073
620.9744, 2687.302
621.4565, 2697.048
621.9386, 2700.963
622.4207, 2698.780
622.9028, 2692.697
623.3849, 2690.977
623.8671, 2693.633
624.3492, 2701.106
624.8313, 2716.411
625.3134, 2733.343
625.7955, 2743.323
626.2776, 2746.835
626.7598, 2752.872
627.2419, 2766.195
627.7240, 2778.458
628.2061, 2783.578
628.6882, 2785.659
629.1703, 2790.261
629.6525, 2798.875
630.1346, 2810.369
630.6167, 2823.514
631.0988, 2838.616
631.5809, 2859.044
632.0630, 2887.711
632.5452, 2910.168
633.0273, 2917.734
633.5094, 2921.479
633.9915, 2932.640
634.4736, 2950.931
634.9557, 2974.585
635.4379, 3008.750
635.9200, 3042.227
636.4021, 3066.574
636.8842, 3086.879
637.3663, 3109.859
637.8484, 3137.761
638.3306, 3171.981
638.8127, 3215.091
639.2948, 3265.454
639.7769, 3310.118
640.2590, 3344.885
640.7411, 3389.660
641.2233, 3454.525
641.7054, 3527.365
642.1875, 3593.921
642.6696, 3655.352
643.1517, 3725.982
643.6339, 3809.072
644.1160, 3901.775
644.5981, 4003.720
645.0802, 4113.899
645.5623, 4228.538
646.0444, 4347.790
646.5266, 4478.478
647.0087, 4627.749
647.4908, 4792.128
647.9729, 4953.415
648.4550, 5104.933
648.9371, 5277.479
649.4193, 5491.390
649.9014, 5715.161
650.3835, 5918.325
650.8656, 6103.957
651.3477, 6299.680
651.8298, 6516.290
652.3120, 6737.801
652.7941, 6956.264
653.2762, 7176.728
653.7583, 7409.231
