##NAMES=Hedenbergite
##RRUFFID=R060040
##IDEAL CHEMISTRY=CaFe^2+^Si_2_O_6_
##LOCALITY=Rio Marina, Elba, Italy
##OWNER=RRUFF
##SOURCE=University of Arizona Mineral Museum
##DESCRIPTION=Radial aggregate of green thin bladed crystals
##STATUS=The identification of this mineral has been confirmed by X-ray diffraction and chemical analysis
##URL=rruff.info/R060040
##MEASURED CHEMISTRY=Ca_1.00_(Fe^2+^_0.89_Mg_0.09_Mn_0.02_)_Î£=1_Si_2.00_O_6_
8.930109e+001, 0.000000e+000
8.978320e+001, 4.262549e+002
9.026532e+001, 4.231490e+002
9.074744e+001, 4.228969e+002
9.122955e+001, 4.260764e+002
9.171167e+001, 4.318582e+002
9.219379e+001, 4.414944e+002
9.267590e+001, 4.542284e+002
9.315802e+001, 4.628306e+002
9.364014e+001, 4.584642e+002
9.412225e+001, 4.454481e+002
9.460437e+001, 4.360005e+002
9.508649e+001, 4.348007e+002
9.556860e+001, 4.379417e+002
9.605072e+001, 4.364005e+002
9.653284e+001, 4.303372e+002
9.701495e+001, 4.231005e+002
9.749707e+001, 4.173966e+002
9.797919e+001, 4.131292e+002
9.846130e+001, 4.100391e+002
9.894342e+001, 4.076661e+002
9.942554e+001, 4.060700e+002
9.990765e+001, 4.075146e+002
1.003898e+002, 4.130352e+002
1.008719e+002, 4.193951e+002
1.013540e+002, 4.214518e+002
1.018361e+002, 4.181082e+002
1.023182e+002, 4.149626e+002
1.028004e+002, 4.140721e+002
1.032825e+002, 4.157863e+002
1.037646e+002, 4.179199e+002
1.042467e+002, 4.200110e+002
1.047288e+002, 4.226811e+002
1.052109e+002, 4.273185e+002
1.056931e+002, 4.335893e+002
1.061752e+002, 4.421064e+002
1.066573e+002, 4.535030e+002
1.071394e+002, 4.706554e+002
1.076215e+002, 4.857543e+002
1.081036e+002, 5.001499e+002
1.085858e+002, 5.130807e+002
1.090679e+002, 5.195787e+002
1.095500e+002, 5.145802e+002
1.100321e+002, 5.071464e+002
1.105142e+002, 5.021367e+002
1.109963e+002, 5.003815e+002
1.114785e+002, 5.000252e+002
1.119606e+002, 5.009793e+002
1.124427e+002, 5.032029e+002
1.129248e+002, 5.063654e+002
1.134069e+002, 5.108184e+002
1.138890e+002, 5.159473e+002
1.143712e+002, 5.213162e+002
1.148533e+002, 5.257987e+002
1.153354e+002, 5.313972e+002
1.158175e+002, 5.396854e+002
1.162996e+002, 5.511817e+002
1.167817e+002, 5.608303e+002
1.172639e+002, 5.653346e+002
1.177460e+002, 5.674704e+002
1.182281e+002, 5.707520e+002
1.187102e+002, 5.779145e+002
1.191923e+002, 5.856022e+002
1.196744e+002, 5.912063e+002
1.201566e+002, 5.937938e+002
1.206387e+002, 5.973991e+002
1.211208e+002, 6.038936e+002
1.216029e+002, 6.131378e+002
1.220850e+002, 6.248547e+002
1.225671e+002, 6.377148e+002
1.230493e+002, 6.534699e+002
1.235314e+002, 6.752112e+002
1.240135e+002, 7.057516e+002
1.244956e+002, 7.366213e+002
1.249777e+002, 7.589941e+002
1.254598e+002, 7.743513e+002
1.259420e+002, 7.878723e+002
1.264241e+002, 8.051778e+002
1.269062e+002, 8.226733e+002
1.273883e+002, 8.341777e+002
1.278704e+002, 8.392139e+002
1.283525e+002, 8.366185e+002
1.288347e+002, 8.230399e+002
1.293168e+002, 7.986835e+002
1.297989e+002, 7.692816e+002
1.302810e+002, 7.360687e+002
1.307631e+002, 7.006835e+002
1.312452e+002, 6.685380e+002
1.317274e+002, 6.412155e+002
1.322095e+002, 6.179590e+002
1.326916e+002, 5.967008e+002
1.331737e+002, 5.772136e+002
1.336558e+002, 5.604857e+002
1.341379e+002, 5.472543e+002
1.346201e+002, 5.375007e+002
1.351022e+002, 5.298287e+002
1.355843e+002, 5.241278e+002
1.360664e+002, 5.202737e+002
1.365485e+002, 5.176210e+002
1.370306e+002, 5.162049e+002
1.375128e+002, 5.159070e+002
1.379949e+002, 5.162286e+002
1.384770e+002, 5.168682e+002
1.389591e+002, 5.197781e+002
1.394412e+002, 5.267376e+002
1.399233e+002, 5.382211e+002
1.404055e+002, 5.462331e+002
1.408876e+002, 5.501768e+002
1.413697e+002, 5.512269e+002
1.418518e+002, 5.511051e+002
1.423339e+002, 5.494034e+002
1.428160e+002, 5.474424e+002
1.432982e+002, 5.456953e+002
1.437803e+002, 5.443082e+002
1.442624e+002, 5.427495e+002
1.447445e+002, 5.412311e+002
1.452266e+002, 5.394651e+002
1.457087e+002, 5.367762e+002
1.461909e+002, 5.321671e+002
1.466730e+002, 5.278601e+002
1.471551e+002, 5.247850e+002
1.476372e+002, 5.242500e+002
1.481193e+002, 5.228002e+002
1.486014e+002, 5.201157e+002
1.490836e+002, 5.164866e+002
1.495657e+002, 5.127825e+002
1.500478e+002, 5.094960e+002
1.505299e+002, 5.058275e+002
1.510120e+002, 5.013905e+002
1.514941e+002, 4.949781e+002
1.519763e+002, 4.892657e+002
1.524584e+002, 4.842585e+002
1.529405e+002, 4.799659e+002
1.534226e+002, 4.763101e+002
1.539047e+002, 4.728765e+002
1.543868e+002, 4.703379e+002
1.548690e+002, 4.690601e+002
1.553511e+002, 4.708523e+002
1.558332e+002, 4.720184e+002
1.563153e+002, 4.717772e+002
1.567974e+002, 4.702660e+002
1.572795e+002, 4.686376e+002
1.577617e+002, 4.666864e+002
1.582438e+002, 4.649537e+002
1.587259e+002, 4.638320e+002
1.592080e+002, 4.637615e+002
1.596901e+002, 4.639884e+002
1.601722e+002, 4.642771e+002
1.606544e+002, 4.646374e+002
1.611365e+002, 4.652901e+002
1.616186e+002, 4.661690e+002
1.621007e+002, 4.674277e+002
1.625828e+002, 4.692307e+002
1.630649e+002, 4.724630e+002
1.635471e+002, 4.755382e+002
1.640292e+002, 4.776042e+002
1.645113e+002, 4.786270e+002
1.649934e+002, 4.795148e+002
1.654755e+002, 4.806669e+002
1.659576e+002, 4.819532e+002
1.664398e+002, 4.831977e+002
1.669219e+002, 4.841223e+002
1.674040e+002, 4.851413e+002
1.678861e+002, 4.865282e+002
1.683682e+002, 4.883098e+002
1.688503e+002, 4.902906e+002
1.693325e+002, 4.921221e+002
1.698146e+002, 4.941071e+002
1.702967e+002, 4.966983e+002
1.707788e+002, 5.006565e+002
1.712609e+002, 5.050388e+002
1.717430e+002, 5.089554e+002
1.722252e+002, 5.123459e+002
1.727073e+002, 5.155319e+002
1.731894e+002, 5.183699e+002
1.736715e+002, 5.211978e+002
1.741536e+002, 5.246507e+002
1.746357e+002, 5.297626e+002
1.751179e+002, 5.354288e+002
1.756000e+002, 5.401926e+002
1.760821e+002, 5.437546e+002
1.765642e+002, 5.471785e+002
1.770463e+002, 5.517161e+002
1.775284e+002, 5.570306e+002
1.780106e+002, 5.620106e+002
1.784927e+002, 5.664485e+002
1.789748e+002, 5.701104e+002
1.794569e+002, 5.725204e+002
1.799390e+002, 5.736558e+002
1.804211e+002, 5.735751e+002
1.809033e+002, 5.719283e+002
1.813854e+002, 5.689428e+002
1.818675e+002, 5.657518e+002
1.823496e+002, 5.628210e+002
1.828317e+002, 5.601726e+002
1.833138e+002, 5.576426e+002
1.837960e+002, 5.551708e+002
1.842781e+002, 5.530063e+002
1.847602e+002, 5.514707e+002
1.852423e+002, 5.505538e+002
1.857244e+002, 5.503029e+002
1.862065e+002, 5.507703e+002
1.866887e+002, 5.519257e+002
1.871708e+002, 5.537762e+002
1.876529e+002, 5.564710e+002
1.881350e+002, 5.595214e+002
1.886171e+002, 5.619562e+002
1.890992e+002, 5.638121e+002
1.895814e+002, 5.657480e+002
1.900635e+002, 5.685848e+002
1.905456e+002, 5.721053e+002
1.910277e+002, 5.745944e+002
1.915098e+002, 5.758914e+002
1.919919e+002, 5.760732e+002
1.924741e+002, 5.752538e+002
1.929562e+002, 5.734440e+002
1.934383e+002, 5.706240e+002
1.939204e+002, 5.667431e+002
1.944025e+002, 5.618125e+002
1.948846e+002, 5.559882e+002
1.953668e+002, 5.491625e+002
1.958489e+002, 5.415882e+002
1.963310e+002, 5.337693e+002
1.968131e+002, 5.256804e+002
1.972952e+002, 5.175646e+002
1.977773e+002, 5.093642e+002
1.982595e+002, 5.011023e+002
1.987416e+002, 4.932270e+002
1.992237e+002, 4.858008e+002
1.997058e+002, 4.788799e+002
2.001879e+002, 4.728184e+002
2.006700e+002, 4.676525e+002
2.011522e+002, 4.629450e+002
2.016343e+002, 4.581764e+002
2.021164e+002, 4.532265e+002
2.025985e+002, 4.495901e+002
2.030806e+002, 4.478478e+002
2.035627e+002, 4.473500e+002
2.040449e+002, 4.460209e+002
2.045270e+002, 4.436826e+002
2.050091e+002, 4.410873e+002
2.054912e+002, 4.386181e+002
2.059733e+002, 4.362066e+002
2.064554e+002, 4.343542e+002
2.069376e+002, 4.332329e+002
2.074197e+002, 4.326833e+002
2.079018e+002, 4.320841e+002
2.083839e+002, 4.314339e+002
2.088660e+002, 4.307414e+002
2.093481e+002, 4.300224e+002
2.098303e+002, 4.292793e+002
2.103124e+002, 4.284833e+002
2.107945e+002, 4.275466e+002
2.112766e+002, 4.265789e+002
2.117587e+002, 4.259763e+002
2.122408e+002, 4.257541e+002
2.127230e+002, 4.258730e+002
2.132051e+002, 4.263842e+002
2.136872e+002, 4.274363e+002
2.141693e+002, 4.283677e+002
2.146514e+002, 4.291283e+002
2.151335e+002, 4.297011e+002
2.156157e+002, 4.299411e+002
2.160978e+002, 4.296761e+002
2.165799e+002, 4.293751e+002
2.170620e+002, 4.293641e+002
2.175441e+002, 4.297589e+002
2.180262e+002, 4.300863e+002
2.185084e+002, 4.302776e+002
2.189905e+002, 4.303662e+002
2.194726e+002, 4.304724e+002
2.199547e+002, 4.304821e+002
2.204368e+002, 4.307130e+002
2.209189e+002, 4.314822e+002
2.214011e+002, 4.332062e+002
2.218832e+002, 4.343798e+002
2.223653e+002, 4.346993e+002
2.228474e+002, 4.343828e+002
2.233295e+002, 4.344077e+002
2.238116e+002, 4.348535e+002
2.242938e+002, 4.355172e+002
2.247759e+002, 4.362500e+002
2.252580e+002, 4.369105e+002
2.257401e+002, 4.379945e+002
2.262222e+002, 4.397358e+002
2.267043e+002, 4.419221e+002
2.271865e+002, 4.437368e+002
2.276686e+002, 4.449892e+002
2.281507e+002, 4.460930e+002
2.286328e+002, 4.472238e+002
2.291149e+002, 4.482601e+002
2.295970e+002, 4.496171e+002
2.300792e+002, 4.514372e+002
2.305613e+002, 4.536003e+002
2.310434e+002, 4.555539e+002
2.315255e+002, 4.571476e+002
2.320076e+002, 4.587338e+002
2.324897e+002, 4.606430e+002
2.329719e+002, 4.636342e+002
2.334540e+002, 4.652202e+002
2.339361e+002, 4.649677e+002
2.344182e+002, 4.632776e+002
2.349003e+002, 4.615130e+002
2.353824e+002, 4.596496e+002
2.358646e+002, 4.577451e+002
2.363467e+002, 4.558485e+002
2.368288e+002, 4.540742e+002
2.373109e+002, 4.519964e+002
2.377930e+002, 4.493395e+002
2.382751e+002, 4.463941e+002
2.387573e+002, 4.441768e+002
2.392394e+002, 4.430663e+002
2.397215e+002, 4.421161e+002
2.402036e+002, 4.408355e+002
2.406857e+002, 4.388339e+002
2.411678e+002, 4.373925e+002
2.416500e+002, 4.367223e+002
2.421321e+002, 4.365520e+002
2.426142e+002, 4.361748e+002
2.430963e+002, 4.354322e+002
2.435784e+002, 4.347198e+002
2.440605e+002, 4.342709e+002
2.445427e+002, 4.343668e+002
2.450248e+002, 4.339342e+002
2.455069e+002, 4.324932e+002
2.459890e+002, 4.307196e+002
2.464711e+002, 4.302691e+002
2.469532e+002, 4.321625e+002
2.474354e+002, 4.336939e+002
2.479175e+002, 4.336390e+002
2.483996e+002, 4.312339e+002
2.488817e+002, 4.297983e+002
2.493638e+002, 4.297697e+002
2.498459e+002, 4.304720e+002
2.503281e+002, 4.306229e+002
2.508102e+002, 4.298752e+002
2.512923e+002, 4.291931e+002
2.517744e+002, 4.289253e+002
2.522565e+002, 4.291854e+002
2.527386e+002, 4.293965e+002
2.532208e+002, 4.295041e+002
2.537029e+002, 4.296037e+002
2.541850e+002, 4.298969e+002
2.546671e+002, 4.306016e+002
2.551492e+002, 4.310519e+002
2.556313e+002, 4.309086e+002
2.561135e+002, 4.300036e+002
2.565956e+002, 4.296330e+002
2.570777e+002, 4.300228e+002
2.575598e+002, 4.307155e+002
2.580419e+002, 4.310548e+002
2.585240e+002, 4.307910e+002
2.590062e+002, 4.307371e+002
2.594883e+002, 4.313193e+002
2.599704e+002, 4.326273e+002
2.604525e+002, 4.328943e+002
2.609346e+002, 4.315663e+002
2.614167e+002, 4.298840e+002
2.618989e+002, 4.293581e+002
2.623810e+002, 4.304310e+002
2.628631e+002, 4.315175e+002
2.633452e+002, 4.322721e+002
2.638273e+002, 4.327105e+002
2.643094e+002, 4.330230e+002
2.647916e+002, 4.330761e+002
2.652737e+002, 4.332426e+002
2.657558e+002, 4.339527e+002
2.662379e+002, 4.353822e+002
2.667200e+002, 4.368032e+002
2.672021e+002, 4.381889e+002
2.676843e+002, 4.394897e+002
2.681664e+002, 4.401389e+002
2.686485e+002, 4.398002e+002
2.691306e+002, 4.394969e+002
2.696127e+002, 4.401772e+002
2.700948e+002, 4.420511e+002
2.705770e+002, 4.439417e+002
2.710591e+002, 4.457164e+002
2.715412e+002, 4.473312e+002
2.720233e+002, 4.485882e+002
2.725054e+002, 4.493683e+002
2.729875e+002, 4.500370e+002
2.734697e+002, 4.508098e+002
2.739518e+002, 4.516834e+002
2.744339e+002, 4.527066e+002
2.749160e+002, 4.538525e+002
2.753981e+002, 4.551670e+002
2.758802e+002, 4.569431e+002
2.763624e+002, 4.592936e+002
2.768445e+002, 4.615739e+002
2.773266e+002, 4.633026e+002
2.778087e+002, 4.644379e+002
2.782908e+002, 4.656938e+002
2.787729e+002, 4.671508e+002
2.792551e+002, 4.687382e+002
2.797372e+002, 4.702814e+002
2.802193e+002, 4.717934e+002
2.807014e+002, 4.732265e+002
2.811835e+002, 4.745035e+002
2.816656e+002, 4.756298e+002
2.821478e+002, 4.769064e+002
2.826299e+002, 4.783222e+002
2.831120e+002, 4.799393e+002
2.835941e+002, 4.819579e+002
2.840762e+002, 4.844084e+002
2.845583e+002, 4.868203e+002
2.850405e+002, 4.889218e+002
2.855226e+002, 4.907631e+002
2.860047e+002, 4.928157e+002
2.864868e+002, 4.950996e+002
2.869689e+002, 4.975345e+002
2.874510e+002, 5.000320e+002
2.879332e+002, 5.025901e+002
2.884153e+002, 5.052177e+002
2.888974e+002, 5.079105e+002
2.893795e+002, 5.106462e+002
2.898616e+002, 5.131945e+002
2.903438e+002, 5.155182e+002
2.908259e+002, 5.179014e+002
2.913080e+002, 5.208308e+002
2.917901e+002, 5.241654e+002
2.922722e+002, 5.271969e+002
2.927543e+002, 5.293694e+002
2.932365e+002, 5.312048e+002
2.937186e+002, 5.340343e+002
2.942007e+002, 5.378461e+002
2.946828e+002, 5.418963e+002
2.951649e+002, 5.456745e+002
2.956470e+002, 5.491523e+002
2.961292e+002, 5.522692e+002
2.966113e+002, 5.546141e+002
2.970934e+002, 5.569797e+002
2.975755e+002, 5.610627e+002
2.980576e+002, 5.667193e+002
2.985397e+002, 5.721740e+002
2.990219e+002, 5.758599e+002
2.995040e+002, 5.784794e+002
2.999861e+002, 5.814824e+002
3.004682e+002, 5.851854e+002
3.009503e+002, 5.892888e+002
3.014324e+002, 5.934391e+002
3.019146e+002, 5.976762e+002
3.023967e+002, 6.023367e+002
3.028788e+002, 6.079505e+002
3.033609e+002, 6.139930e+002
3.038430e+002, 6.196493e+002
3.043251e+002, 6.248167e+002
3.048073e+002, 6.295554e+002
3.052894e+002, 6.338779e+002
3.057715e+002, 6.378160e+002
3.062536e+002, 6.415760e+002
3.067357e+002, 6.458336e+002
3.072178e+002, 6.496161e+002
3.077000e+002, 6.518588e+002
3.081821e+002, 6.524332e+002
3.086642e+002, 6.518243e+002
3.091463e+002, 6.504614e+002
3.096284e+002, 6.481390e+002
3.101105e+002, 6.445043e+002
3.105927e+002, 6.385908e+002
3.110748e+002, 6.319443e+002
3.115569e+002, 6.255906e+002
3.120390e+002, 6.195555e+002
3.125211e+002, 6.133098e+002
3.130032e+002, 6.063475e+002
3.134854e+002, 5.990289e+002
3.139675e+002, 5.918270e+002
3.144496e+002, 5.848526e+002
3.149317e+002, 5.781094e+002
3.154138e+002, 5.714175e+002
3.158959e+002, 5.648710e+002
3.163781e+002, 5.587987e+002
3.168602e+002, 5.534003e+002
3.173423e+002, 5.485707e+002
3.178244e+002, 5.442568e+002
3.183065e+002, 5.404892e+002
3.187886e+002, 5.371826e+002
3.192708e+002, 5.342911e+002
3.197529e+002, 5.318563e+002
3.202350e+002, 5.299899e+002
3.207171e+002, 5.289274e+002
3.211992e+002, 5.283033e+002
3.216813e+002, 5.279454e+002
3.221635e+002, 5.278152e+002
3.226456e+002, 5.279688e+002
3.231277e+002, 5.284680e+002
3.236098e+002, 5.292416e+002
3.240919e+002, 5.301769e+002
3.245740e+002, 5.313468e+002
3.250562e+002, 5.325754e+002
3.255383e+002, 5.337542e+002
3.260204e+002, 5.347889e+002
3.265025e+002, 5.361467e+002
3.269846e+002, 5.382010e+002
3.274667e+002, 5.404563e+002
3.279489e+002, 5.424107e+002
3.284310e+002, 5.436903e+002
3.289131e+002, 5.451020e+002
3.293952e+002, 5.467499e+002
3.298773e+002, 5.486381e+002
3.303594e+002, 5.507932e+002
3.308416e+002, 5.531396e+002
3.313237e+002, 5.557952e+002
3.318058e+002, 5.588568e+002
3.322879e+002, 5.625606e+002
3.327700e+002, 5.662833e+002
3.332521e+002, 5.699676e+002
3.337343e+002, 5.736523e+002
3.342164e+002, 5.775612e+002
3.346985e+002, 5.817049e+002
3.351806e+002, 5.859733e+002
3.356627e+002, 5.903426e+002
3.361448e+002, 5.948299e+002
3.366270e+002, 5.992304e+002
3.371091e+002, 6.034909e+002
3.375912e+002, 6.076451e+002
3.380733e+002, 6.118867e+002
3.385554e+002, 6.162761e+002
3.390375e+002, 6.204493e+002
3.395197e+002, 6.245138e+002
3.400018e+002, 6.285114e+002
3.404839e+002, 6.310039e+002
3.409660e+002, 6.318276e+002
3.414481e+002, 6.314055e+002
3.419302e+002, 6.304831e+002
3.424124e+002, 6.291418e+002
3.428945e+002, 6.259368e+002
3.433766e+002, 6.198552e+002
3.438587e+002, 6.115881e+002
3.443408e+002, 6.039178e+002
3.448229e+002, 5.969042e+002
3.453051e+002, 5.903431e+002
3.457872e+002, 5.842623e+002
3.462693e+002, 5.785950e+002
3.467514e+002, 5.726159e+002
3.472335e+002, 5.660868e+002
3.477156e+002, 5.593801e+002
3.481978e+002, 5.530358e+002
3.486799e+002, 5.471096e+002
3.491620e+002, 5.422562e+002
3.496441e+002, 5.393331e+002
3.501262e+002, 5.377896e+002
3.506083e+002, 5.363715e+002
3.510905e+002, 5.349301e+002
3.515726e+002, 5.335432e+002
3.520547e+002, 5.319838e+002
3.525368e+002, 5.304828e+002
3.530189e+002, 5.297418e+002
3.535010e+002, 5.302030e+002
3.539832e+002, 5.315720e+002
3.544653e+002, 5.336638e+002
3.549474e+002, 5.365052e+002
3.554295e+002, 5.395227e+002
3.559116e+002, 5.421300e+002
3.563937e+002, 5.446667e+002
3.568759e+002, 5.475998e+002
3.573580e+002, 5.510272e+002
3.578401e+002, 5.549949e+002
3.583222e+002, 5.595507e+002
3.588043e+002, 5.647128e+002
3.592864e+002, 5.703428e+002
3.597686e+002, 5.766644e+002
3.602507e+002, 5.833044e+002
3.607328e+002, 5.898281e+002
3.612149e+002, 5.958935e+002
3.616970e+002, 6.023333e+002
3.621791e+002, 6.096346e+002
3.626613e+002, 6.175511e+002
3.631434e+002, 6.255223e+002
3.636255e+002, 6.327895e+002
3.641076e+002, 6.405221e+002
3.645897e+002, 6.495890e+002
3.650718e+002, 6.604661e+002
3.655540e+002, 6.706921e+002
3.660361e+002, 6.786974e+002
3.665182e+002, 6.861924e+002
3.670003e+002, 6.952303e+002
3.674824e+002, 7.071403e+002
3.679645e+002, 7.194926e+002
3.684467e+002, 7.318950e+002
3.689288e+002, 7.441363e+002
3.694109e+002, 7.567663e+002
3.698930e+002, 7.695546e+002
3.703751e+002, 7.829343e+002
3.708572e+002, 7.973581e+002
3.713394e+002, 8.137784e+002
3.718215e+002, 8.294476e+002
3.723036e+002, 8.445286e+002
3.727857e+002, 8.587081e+002
3.732678e+002, 8.710570e+002
3.737499e+002, 8.815000e+002
3.742321e+002, 8.904286e+002
3.747142e+002, 8.982209e+002
3.751963e+002, 9.054540e+002
3.756784e+002, 9.092780e+002
3.761605e+002, 9.095416e+002
3.766426e+002, 9.064836e+002
3.771248e+002, 9.004939e+002
3.776069e+002, 8.915049e+002
3.780890e+002, 8.797031e+002
3.785711e+002, 8.649772e+002
3.790532e+002, 8.473978e+002
3.795353e+002, 8.282296e+002
3.800175e+002, 8.071227e+002
3.804996e+002, 7.853050e+002
3.809817e+002, 7.636594e+002
3.814638e+002, 7.422863e+002
3.819459e+002, 7.209733e+002
3.824280e+002, 6.996063e+002
3.829102e+002, 6.786796e+002
3.833923e+002, 6.596302e+002
3.838744e+002, 6.422474e+002
3.843565e+002, 6.260598e+002
3.848386e+002, 6.110523e+002
3.853207e+002, 5.970002e+002
3.858029e+002, 5.840131e+002
3.862850e+002, 5.720129e+002
3.867671e+002, 5.608499e+002
3.872492e+002, 5.503223e+002
3.877313e+002, 5.404246e+002
3.882134e+002, 5.313564e+002
3.886956e+002, 5.234499e+002
3.891777e+002, 5.163744e+002
3.896598e+002, 5.098388e+002
3.901419e+002, 5.038691e+002
3.906240e+002, 4.984217e+002
3.911061e+002, 4.935946e+002
3.915883e+002, 4.891775e+002
3.920704e+002, 4.849145e+002
3.925525e+002, 4.805781e+002
3.930346e+002, 4.766227e+002
3.935167e+002, 4.732362e+002
3.939988e+002, 4.703486e+002
3.944810e+002, 4.677128e+002
3.949631e+002, 4.653091e+002
3.954452e+002, 4.630835e+002
3.959273e+002, 4.610265e+002
3.964094e+002, 4.591701e+002
3.968915e+002, 4.573707e+002
3.973737e+002, 4.555506e+002
3.978558e+002, 4.537831e+002
3.983379e+002, 4.521588e+002
3.988200e+002, 4.506691e+002
3.993021e+002, 4.493300e+002
3.997842e+002, 4.481631e+002
4.002664e+002, 4.471642e+002
4.007485e+002, 4.462082e+002
4.012306e+002, 4.453857e+002
4.017127e+002, 4.445186e+002
4.021948e+002, 4.434684e+002
4.026769e+002, 4.420577e+002
4.031591e+002, 4.408359e+002
4.036412e+002, 4.398304e+002
4.041233e+002, 4.390338e+002
4.046054e+002, 4.385216e+002
4.050875e+002, 4.385250e+002
4.055696e+002, 4.381381e+002
4.060518e+002, 4.367133e+002
4.065339e+002, 4.341987e+002
4.070160e+002, 4.328315e+002
4.074981e+002, 4.329031e+002
4.079802e+002, 4.333576e+002
4.084623e+002, 4.329531e+002
4.089445e+002, 4.317063e+002
4.094266e+002, 4.303853e+002
4.099087e+002, 4.290949e+002
4.103908e+002, 4.279482e+002
4.108729e+002, 4.272417e+002
4.113550e+002, 4.269728e+002
4.118372e+002, 4.269798e+002
4.123193e+002, 4.273533e+002
4.128014e+002, 4.278998e+002
4.132835e+002, 4.281284e+002
4.137656e+002, 4.279253e+002
