##NAMES=Hedleyite
##RRUFFID=R100114
##IDEAL CHEMISTRY=Bi_7_Te_3_
##LOCALITY=Good Hope mine, Hedley, British Columbia, Canada
##OWNER=RRUFF
##SOURCE=Robert Woodside
##DESCRIPTION=Tin-white platy masses
##STATUS=The identification of this mineral has been confirmed by single-crystal X-ray diffraction.
##URL=rruff.info/R100114
91.72986, 108.0103
92.21198, 107.2653
92.69409, 104.4946
93.17621, 101.3444
93.65833, 98.72563
94.14044, 96.65389
94.62256, 94.52209
95.10468, 92.33547
95.58678, 89.97622
96.06890, 87.16056
96.55102, 83.99378
97.03313, 81.17966
97.51525, 79.64827
97.99737, 79.89237
98.47948, 79.42198
98.96160, 77.61540
99.44372, 75.47469
99.92583, 73.66100
100.4080, 72.38722
100.8901, 71.43306
101.3722, 70.27669
101.8543, 68.55666
102.3364, 67.00945
102.8185, 65.65627
103.3007, 64.47750
103.7828, 63.44389
104.2649, 62.52208
104.7470, 61.73365
105.2291, 61.22386
105.7112, 61.34469
106.1933, 61.34465
106.6755, 60.86679
107.1576, 59.92989
107.6397, 58.73969
108.1218, 57.24810
108.6039, 55.61123
109.0860, 54.36832
109.5682, 53.94382
110.0503, 53.81748
110.5324, 53.15699
111.0145, 51.69131
111.4966, 50.34269
111.9787, 49.64772
112.4609, 49.48118
112.9430, 49.67175
113.4251, 50.43339
113.9072, 51.68093
114.3893, 52.21563
114.8714, 51.38282
115.3536, 50.38258
115.8357, 49.68965
116.3178, 49.27387
116.7999, 48.86391
117.2820, 48.09402
117.7641, 46.66349
118.2463, 45.82686
118.7284, 45.94393
119.2105, 46.26873
119.6926, 46.38555
120.1747, 46.19854
120.6568, 45.86182
121.1390, 45.62074
121.6211, 45.32512
122.1032, 45.41881
122.5853, 46.53278
123.0674, 47.83350
123.5495, 48.22794
124.0317, 47.22145
124.5138, 45.38186
124.9959, 44.15693
125.4780, 43.67655
125.9601, 43.30629
126.4422, 42.86928
126.9243, 42.36853
127.4065, 41.79765
127.8886, 41.03896
128.3707, 40.29827
128.8528, 39.91534
129.3349, 40.03680
129.8170, 40.29260
130.2992, 40.38906
130.7813, 40.33815
131.2634, 40.05293
131.7455, 39.24072
132.2276, 38.26240
132.7097, 37.44617
133.1919, 36.91969
133.6740, 36.61231
134.1561, 36.34426
134.6382, 36.05278
135.1203, 35.92270
135.6024, 36.03919
136.0846, 36.31245
136.5667, 36.63257
137.0488, 36.93833
137.5309, 37.23098
138.0130, 37.50216
138.4951, 38.01940
138.9773, 38.24572
139.4594, 37.91867
139.9415, 37.17727
140.4236, 36.30923
140.9057, 35.52958
141.3878, 34.81667
141.8699, 34.47115
142.3521, 34.78814
142.8342, 35.14679
143.3163, 35.30220
143.7984, 35.20253
144.2805, 34.79113
144.7626, 33.85857
145.2448, 32.26461
145.7269, 31.40538
146.2090, 31.85080
146.6911, 32.82544
147.1732, 33.56767
147.6553, 33.95477
148.1375, 34.07035
148.6196, 33.88535
149.1017, 33.45544
149.5838, 33.04129
150.0659, 32.82407
150.5480, 32.70158
151.0302, 32.32543
151.5123, 31.35713
151.9944, 30.53345
152.4765, 30.51152
152.9586, 31.20777
153.4408, 31.98952
153.9229, 32.42507
154.4050, 32.51209
154.8871, 32.44639
155.3692, 32.05307
155.8513, 31.65474
156.3335, 31.37254
156.8156, 31.23154
157.2977, 31.24374
157.7798, 31.48719
158.2619, 32.12159
158.7440, 32.50956
159.2262, 32.68765
159.7083, 32.60464
160.1904, 32.03920
160.6725, 31.00524
161.1546, 29.89180
161.6367, 29.42616
162.1189, 30.37478
162.6010, 30.83576
163.0831, 30.36143
163.5652, 29.64008
164.0473, 29.37298
164.5294, 29.81553
165.0115, 30.61597
165.4937, 30.91366
165.9758, 30.26717
166.4579, 29.73515
166.9400, 29.57507
167.4221, 29.56804
167.9042, 29.35157
168.3864, 28.73666
168.8685, 27.89352
169.3506, 27.26536
169.8327, 26.63928
170.3148, 26.48625
170.7969, 27.38030
171.2791, 29.00398
171.7612, 30.24820
172.2433, 30.51875
172.7254, 30.14953
173.2075, 29.95479
173.6896, 30.01496
174.1718, 30.09587
174.6539, 30.09531
175.1360, 30.01373
175.6181, 29.66887
176.1002, 28.66971
176.5823, 27.51113
177.0645, 26.71995
177.5466, 26.40871
178.0287, 26.43466
178.5108, 26.65059
178.9929, 27.08536
179.4750, 27.61783
179.9572, 28.51584
180.4393, 29.35291
180.9214, 29.67706
181.4035, 29.28015
181.8856, 28.47667
182.3677, 27.92272
182.8499, 27.68351
183.3320, 27.60797
183.8141, 27.67350
184.2962, 27.84496
184.7783, 28.12326
185.2604, 28.51867
185.7425, 28.96299
186.2247, 29.21086
186.7068, 29.14472
187.1889, 28.99856
187.6710, 28.80478
188.1531, 28.55292
188.6352, 28.20705
189.1174, 27.74312
189.5995, 27.19269
190.0816, 26.73819
190.5637, 26.14348
191.0458, 25.90594
191.5279, 26.37531
192.0101, 27.25046
192.4922, 28.04688
192.9743, 28.48689
193.4564, 28.59090
193.9385, 28.48778
194.4206, 28.06644
194.9028, 27.61308
195.3849, 27.17639
195.8670, 26.77668
196.3491, 26.44868
196.8312, 26.20165
197.3133, 26.05853
197.7955, 26.07293
198.2776, 26.46819
198.7597, 26.80199
199.2418, 26.74128
199.7239, 26.34659
200.2060, 26.02762
200.6882, 26.03575
201.1703, 26.30528
201.6524, 26.58615
202.1345, 26.99951
202.6166, 27.29367
203.0987, 27.09919
203.5808, 26.39580
204.0630, 25.92875
204.5451, 26.47024
205.0272, 27.37175
205.5093, 27.64395
205.9914, 26.81524
206.4735, 25.67859
206.9557, 25.29552
207.4378, 25.84260
207.9199, 26.32215
208.4020, 26.06819
208.8841, 25.59145
209.3662, 25.44281
209.8484, 25.91250
210.3305, 26.54855
210.8126, 26.44816
211.2947, 25.19742
211.7768, 24.28912
212.2589, 24.34954
212.7411, 24.87209
213.2232, 25.45540
213.7053, 25.96634
214.1874, 26.34268
214.6695, 26.39144
215.1516, 25.82963
215.6338, 25.45209
216.1159, 25.54474
216.5980, 25.80820
217.0801, 25.91134
217.5622, 25.69985
218.0443, 25.33916
218.5265, 25.30297
219.0086, 25.84292
219.4907, 26.37210
219.9728, 27.08148
220.4549, 27.64756
220.9370, 27.59898
221.4192, 26.72001
221.9013, 25.39743
222.3834, 24.77907
222.8655, 25.59091
223.3476, 26.30527
223.8297, 27.02112
224.3118, 27.53142
224.7940, 27.46778
225.2761, 26.66039
225.7582, 25.47020
226.2403, 24.95135
226.7224, 26.02155
227.2045, 26.68697
227.6867, 26.44892
228.1688, 25.82778
228.6509, 25.52435
229.1330, 25.84487
229.6151, 26.52725
230.0972, 26.89763
230.5794, 26.93790
231.0615, 26.72994
231.5436, 25.91510
232.0257, 24.93819
232.5078, 24.54260
232.9899, 25.06878
233.4721, 26.07012
233.9542, 26.59895
234.4363, 26.64630
234.9184, 26.40866
235.4005, 25.57260
235.8826, 24.53504
236.3648, 24.07343
236.8469, 24.55367
237.3290, 25.41908
237.8111, 25.64707
238.2932, 25.16029
238.7753, 24.73894
239.2575, 24.79681
239.7396, 25.09496
240.2217, 25.03891
240.7038, 24.31704
241.1859, 23.52145
241.6680, 23.59615
242.1502, 24.53483
242.6323, 25.23291
243.1144, 24.98986
243.5965, 24.15374
244.0786, 23.62823
244.5607, 23.65179
245.0428, 23.91205
245.5250, 24.13695
246.0071, 24.32707
246.4892, 24.45597
246.9713, 24.51595
247.4534, 24.50534
247.9355, 24.39659
248.4177, 24.11650
248.8998, 23.85686
249.3819, 23.75680
249.8640, 23.79201
250.3461, 23.89492
250.8282, 24.05621
251.3104, 24.26073
251.7925, 24.49902
252.2746, 24.93435
252.7567, 25.10737
253.2388, 24.55299
253.7209, 23.56189
254.2031, 22.78934
254.6852, 22.73289
255.1673, 23.19263
255.6494, 23.36499
256.1315, 23.03905
256.6136, 22.75862
257.0958, 22.81325
257.5779, 23.06209
258.0600, 23.27795
258.5421, 23.33311
259.0242, 23.26730
259.5063, 23.22730
259.9885, 23.26939
260.4706, 23.23800
260.9527, 22.97113
261.4348, 22.64262
261.9169, 22.51013
262.3990, 22.73949
262.8812, 23.17184
263.3633, 23.32793
263.8454, 23.01698
264.3275, 22.74423
264.8096, 22.62571
265.2917, 22.60176
265.7739, 22.62568
266.2560, 22.68095
266.7381, 22.74121
267.2202, 22.74449
267.7023, 22.68160
268.1844, 22.56983
268.6666, 22.45014
269.1487, 22.27421
269.6308, 21.90878
270.1129, 21.32121
270.5950, 20.75548
271.0771, 20.71607
271.5593, 21.52968
272.0414, 22.24845
272.5235, 22.92066
273.0056, 23.41957
273.4877, 23.57012
273.9698, 23.36294
274.4520, 23.01983
274.9341, 22.87520
275.4162, 23.01288
275.8983, 23.18596
276.3804, 23.51704
276.8625, 23.78690
277.3446, 23.83413
277.8268, 23.65138
278.3089, 23.36182
278.7910, 23.10167
279.2731, 22.85699
279.7552, 22.69919
280.2373, 22.74088
280.7195, 22.75718
281.2016, 22.64401
281.6837, 22.39247
282.1658, 22.00917
282.6479, 21.43866
283.1300, 20.56719
283.6122, 20.36383
284.0943, 21.46581
284.5764, 22.51553
285.0585, 22.91832
285.5406, 22.79011
286.0227, 22.60130
286.5049, 22.74681
286.9870, 23.21301
287.4691, 23.13587
287.9512, 21.85912
288.4333, 20.78875
288.9154, 20.49800
289.3976, 20.70080
289.8797, 20.77418
290.3618, 20.31124
290.8439, 19.47953
291.3260, 19.22722
291.8081, 20.24587
292.2903, 21.03259
292.7724, 21.30462
293.2545, 21.20834
293.7366, 20.87270
294.2187, 20.34162
294.7008, 19.78229
295.1830, 19.64820
295.6651, 20.40322
296.1472, 21.03837
296.6293, 21.44854
297.1114, 21.75252
297.5935, 22.19299
298.0757, 22.82783
298.5578, 23.30439
299.0399, 22.98368
299.5220, 21.08816
300.0041, 19.84413
300.4862, 19.50657
300.9684, 19.64948
301.4505, 20.08283
301.9326, 20.71130
302.4147, 21.28736
302.8968, 21.49369
303.3789, 21.17391
303.8611, 21.08431
304.3432, 21.32545
304.8253, 21.68894
305.3074, 22.26748
305.7895, 22.93144
306.2716, 23.13980
306.7538, 22.28040
307.2359, 20.24427
307.7180, 19.45906
308.2001, 21.11708
308.6822, 22.60918
309.1643, 22.58486
309.6465, 21.43307
310.1286, 20.30586
310.6107, 19.93867
311.0928, 20.22336
311.5749, 20.43299
312.0570, 20.66955
312.5392, 20.73161
313.0213, 20.41693
313.5034, 19.92312
313.9855, 19.53556
314.4676, 19.37854
314.9497, 19.44553
315.4319, 19.74042
315.9140, 20.59786
316.3961, 21.19969
316.8782, 21.40980
317.3603, 21.36477
317.8424, 21.18286
318.3245, 20.90214
318.8066, 20.54509
319.2888, 20.12096
319.7709, 19.49890
320.2530, 19.17187
320.7351, 19.30677
321.2172, 19.60963
321.6993, 19.92610
322.1815, 20.20534
322.6636, 20.36479
323.1457, 20.27189
323.6278, 19.84262
324.1099, 19.84992
324.5920, 20.93105
325.0742, 21.79326
325.5563, 21.53589
326.0384, 20.44741
326.5205, 19.51452
327.0026, 19.45336
327.4847, 20.17333
327.9669, 20.64657
328.4490, 20.80367
328.9311, 20.83508
329.4132, 20.67023
329.8953, 20.43085
330.3774, 20.36222
330.8596, 20.59613
331.3417, 20.94099
331.8238, 20.87372
332.3059, 19.56451
332.7880, 18.87652
333.2701, 19.39767
333.7523, 20.30374
334.2344, 20.78666
334.7165, 20.61977
335.1986, 20.11662
335.6807, 19.71252
336.1628, 19.39619
336.6450, 19.23591
337.1271, 19.19293
337.6092, 19.31328
338.0913, 19.75219
338.5734, 20.43707
339.0555, 21.05272
339.5377, 21.30074
340.0198, 21.15474
340.5019, 20.96834
340.9840, 21.00974
341.4661, 20.74799
341.9482, 19.52961
342.4304, 17.87803
342.9125, 16.92277
343.3946, 17.42183
343.8767, 19.01145
344.3588, 19.91654
344.8409, 19.31449
345.3231, 18.92266
345.8052, 19.16221
346.2873, 19.57854
346.7694, 19.58086
347.2515, 18.96957
347.7336, 18.11355
348.2158, 17.73747
348.6979, 18.20337
349.1800, 18.51146
349.6621, 18.52661
350.1442, 18.50530
350.6263, 18.68328
351.1085, 19.04539
351.5906, 19.34020
352.0727, 19.24479
352.5548, 18.65130
353.0369, 18.39348
353.5190, 18.93696
354.0012, 19.35137
354.4833, 19.19928
354.9654, 18.66253
355.4475, 18.15807
355.9296, 17.96684
356.4117, 18.04304
356.8939, 18.12324
357.3760, 18.19198
357.8581, 18.28848
358.3402, 18.56950
358.8223, 18.81799
359.3044, 18.69527
359.7865, 18.07464
360.2686, 17.34132
360.7508, 17.25573
361.2329, 18.15995
361.7150, 18.82165
362.1971, 19.09608
362.6792, 19.12551
363.1613, 18.86627
363.6435, 18.38050
364.1256, 17.93573
364.6077, 17.85938
365.0898, 18.18424
365.5719, 18.32163
366.0540, 18.12764
366.5362, 17.89020
367.0183, 17.61479
367.5004, 17.38821
367.9825, 17.39490
368.4646, 17.82868
368.9467, 18.49865
369.4289, 18.79597
369.9110, 18.51082
370.3931, 18.31467
370.8752, 18.52533
371.3573, 18.88556
371.8394, 19.16761
372.3216, 19.30759
372.8037, 19.33744
373.2858, 19.25767
373.7679, 19.05756
374.2500, 18.90858
374.7321, 18.90088
375.2143, 18.90737
375.6964, 18.85611
376.1785, 18.74041
376.6606, 18.54880
377.1427, 18.12561
377.6248, 17.59855
378.1070, 17.52407
378.5891, 18.17284
379.0712, 18.74476
379.5533, 18.44385
380.0354, 17.70312
380.5175, 17.38740
380.9997, 18.11816
381.4818, 19.06604
381.9639, 19.07752
382.4460, 18.13091
382.9281, 17.33451
383.4102, 17.23092
383.8924, 17.53031
384.3745, 17.76089
384.8566, 17.93299
385.3387, 17.96544
385.8208, 17.70659
386.3029, 17.26935
386.7851, 16.93918
387.2672, 16.77367
387.7493, 16.75556
388.2314, 16.92723
388.7135, 17.26892
389.1956, 17.58978
389.6778, 18.05059
390.1599, 18.34926
390.6420, 17.96283
391.1241, 16.92824
391.6062, 16.16714
392.0883, 16.45045
392.5705, 17.51819
393.0526, 17.91650
393.5347, 16.88385
394.0168, 16.07439
394.4989, 16.34391
394.9810, 17.27008
395.4632, 18.09930
395.9453, 18.58017
396.4274, 18.70456
396.9095, 18.38872
397.3916, 17.24202
397.8737, 16.61327
398.3559, 17.03922
398.8380, 17.67866
399.3201, 17.75155
399.8022, 17.24238
400.2843, 16.74346
400.7664, 16.81894
401.2485, 17.49691
401.7307, 17.78735
402.2128, 17.54342
402.6949, 17.13846
403.1770, 16.30645
403.6591, 15.46452
404.1412, 15.40836
404.6234, 16.53403
405.1055, 18.24012
405.5876, 19.04423
406.0697, 18.33552
406.5518, 17.69837
407.0339, 17.04137
407.5161, 16.56782
407.9982, 16.46373
408.4803, 16.72117
408.9624, 17.16029
409.4445, 17.64757
409.9266, 18.19397
410.4088, 18.57299
410.8909, 18.76076
411.3730, 18.78441
411.8551, 18.57593
412.3372, 18.22560
412.8193, 17.87295
413.3015, 17.59026
413.7836, 17.33009
414.2657, 16.97499
414.7478, 16.47524
415.2299, 16.02746
415.7120, 15.33918
416.1942, 14.95286
416.6763, 15.58774
417.1584, 17.22903
417.6405, 18.61560
418.1226, 18.36842
418.6047, 16.77772
419.0869, 15.91737
419.5690, 16.29315
420.0511, 16.75238
420.5332, 16.42235
421.0153, 15.64096
421.4974, 15.09145
421.9796, 15.05659
422.4617, 15.29418
422.9438, 15.58674
423.4259, 15.93184
423.9080, 16.17216
424.3901, 16.14867
424.8723, 16.07530
425.3544, 16.34131
425.8365, 17.04322
426.3186, 17.58089
426.8007, 17.75574
427.2828, 17.58338
427.7650, 16.94725
428.2471, 15.78550
428.7292, 14.66927
429.2113, 14.11434
429.6934, 14.15208
430.1755, 14.30568
430.6577, 14.77426
431.1398, 15.16977
431.6219, 15.11863
432.1040, 14.81126
432.5861, 14.80739
433.0682, 15.41266
433.5504, 16.30241
434.0325, 16.69499
434.5146, 16.13527
434.9967, 15.81829
435.4788, 15.89123
435.9609, 16.14848
436.4431, 16.52513
436.9252, 16.95185
437.4073, 17.22476
437.8894, 17.10938
438.3715, 16.58743
438.8536, 16.39417
439.3358, 16.82944
439.8179, 17.26612
440.3000, 17.76507
440.7821, 18.11697
441.2642, 17.94590
441.7463, 17.09844
442.2284, 16.00792
442.7105, 15.47557
443.1927, 15.63748
443.6748, 15.94027
444.1569, 16.62388
444.6390, 17.19675
445.1211, 17.29568
445.6032, 17.01450
446.0854, 16.76539
446.5675, 16.89682
447.0496, 17.28635
447.5317, 17.47562
448.0138, 17.45958
448.4959, 17.25186
448.9781, 16.67870
449.4602, 15.99338
449.9423, 15.44310
450.4244, 15.06925
450.9065, 14.87564
451.3886, 14.90291
451.8708, 15.12590
452.3529, 15.44927
452.8350, 15.91171
453.3171, 16.34856
453.7992, 16.64510
454.2813, 16.80080
454.7635, 16.69635
455.2456, 15.99801
455.7277, 15.25407
456.2098, 14.97835
456.6919, 15.12998
457.1740, 15.40639
457.6562, 15.70213
458.1383, 15.96608
458.6204, 16.01791
459.1025, 15.63967
459.5846, 15.53207
460.0667, 15.95592
460.5489, 16.63187
461.0310, 17.45136
461.5131, 18.31518
461.9952, 18.81957
462.4773, 18.50862
462.9594, 17.34502
463.4416, 16.59263
463.9237, 16.28781
464.4058, 16.31758
464.8879, 17.12490
465.3700, 18.09532
465.8521, 18.19872
466.3343, 17.07123
466.8164, 15.64227
467.2985, 15.77433
467.7806, 18.52767
468.2627, 19.52131
468.7448, 16.38872
469.2270, 13.46202
469.7091, 12.96128
470.1912, 14.34707
470.6733, 15.80930
471.1554, 16.24831
471.6375, 16.01357
472.1197, 15.98965
472.6018, 16.23284
473.0839, 16.48009
473.5660, 16.74605
474.0481, 16.90266
474.5302, 16.74935
475.0124, 16.25127
475.4945, 15.82253
475.9766, 15.86402
476.4587, 16.16266
476.9408, 16.14624
477.4229, 15.70187
477.9051, 15.20082
478.3872, 14.79813
478.8693, 14.57381
479.3514, 14.78718
479.8335, 15.96816
480.3156, 17.01410
480.7978, 17.33866
481.2798, 17.11767
481.7620, 16.60015
482.2441, 15.83691
482.7262, 15.16874
483.2083, 15.12825
483.6904, 16.00298
484.1725, 16.45836
484.6547, 16.23897
485.1368, 15.86813
485.6189, 15.42536
486.1010, 15.06338
486.5831, 15.14012
487.0652, 15.89312
487.5474, 16.98390
488.0295, 17.39519
488.5116, 16.67705
488.9937, 16.11296
489.4758, 15.76119
489.9579, 15.59453
490.4401, 15.70327
490.9222, 16.01535
491.4043, 16.27081
491.8864, 16.24458
492.3685, 15.98989
492.8506, 15.76250
493.3328, 15.57952
493.8149, 15.38397
494.2970, 15.05621
494.7791, 14.75262
495.2612, 14.68849
495.7433, 14.93411
496.2255, 15.15488
496.7076, 14.99860
497.1897, 14.61273
497.6718, 14.44754
498.1539, 14.58296
498.6360, 14.88880
499.1182, 15.37364
499.6003, 15.96695
500.0824, 16.30611
500.5645, 16.16471
501.0466, 15.97672
501.5287, 15.95721
502.0109, 16.05410
502.4930, 16.19129
502.9751, 16.34760
503.4572, 16.43318
503.9393, 16.29319
504.4214, 15.79927
504.9036, 15.55059
505.3857, 15.89564
505.8678, 16.11606
506.3499, 15.68828
506.8320, 14.89170
507.3141, 14.30736
507.7963, 14.23859
508.2784, 14.55840
508.7605, 15.04286
509.2426, 15.88551
509.7247, 16.37217
510.2068, 16.17915
510.6890, 15.83032
511.1711, 15.43485
511.6532, 15.10427
512.1353, 15.12674
512.6174, 15.93879
513.0995, 17.06149
513.5817, 17.28708
514.0638, 16.47086
514.5459, 15.67219
515.0280, 15.26999
515.5101, 15.10871
515.9922, 14.97823
516.4744, 14.87239
516.9565, 14.81738
517.4386, 14.86466
517.9207, 14.95052
518.4028, 14.97907
518.8849, 14.94441
519.3671, 14.91002
519.8492, 14.91899
520.3313, 14.96210
520.8134, 14.99328
521.2955, 14.99974
521.7776, 15.01345
522.2598, 14.97324
522.7419, 14.98040
523.2240, 15.20772
523.7061, 15.63931
524.1882, 16.02728
524.6703, 16.11006
525.1525, 15.89957
525.6346, 15.83913
526.1167, 16.17744
526.5988, 16.33594
527.0809, 15.97635
527.5630, 15.50440
528.0452, 15.38151
528.5273, 15.71307
529.0094, 16.17298
529.4915, 16.49705
529.9736, 16.67689
530.4557, 16.59793
530.9379, 16.16028
531.4200, 15.65713
531.9021, 15.16476
532.3842, 14.75099
532.8663, 14.56282
533.3484, 14.72467
533.8306, 14.91890
534.3127, 14.92118
534.7948, 14.79474
535.2769, 14.65910
535.7590, 14.53245
536.2411, 14.50510
536.7233, 14.72969
537.2054, 15.22292
537.6875, 15.37793
538.1696, 14.76114
538.6517, 14.32160
539.1339, 14.52864
539.6160, 15.09330
540.0981, 15.60284
540.5802, 15.91412
541.0623, 16.10480
541.5444, 16.28846
542.0266, 16.49062
542.5087, 16.54051
542.9907, 16.32374
543.4728, 16.07004
543.9550, 15.74947
544.4371, 15.46830
544.9192, 15.42485
545.4013, 15.71968
545.8834, 16.06428
546.3655, 16.14128
546.8477, 15.95355
547.3298, 15.46506
547.8119, 14.45261
548.2940, 13.55421
548.7761, 13.35512
549.2582, 13.70132
549.7404, 14.25355
550.2225, 15.35005
550.7046, 16.20870
551.1867, 16.06501
551.6688, 15.32591
552.1509, 14.99529
552.6331, 15.39079
553.1152, 15.95045
553.5973, 15.95662
554.0794, 15.28339
554.5615, 14.80952
555.0436, 14.57740
555.5258, 14.46565
556.0079, 14.45238
556.4900, 14.52293
556.9721, 14.69423
557.4542, 14.96654
557.9363, 15.24074
558.4185, 15.40431
558.9006, 15.46698
559.3827, 15.30934
559.8648, 14.66029
560.3469, 14.14797
560.8290, 14.14883
561.3112, 14.44475
561.7933, 14.66783
562.2754, 14.69780
562.7575, 14.65769
563.2396, 14.59805
563.7217, 14.55401
564.2039, 14.67196
564.6860, 15.00039
565.1681, 15.41320
565.6502, 15.84929
566.1323, 16.28919
566.6144, 16.52635
567.0966, 16.49649
567.5787, 16.34096
568.0608, 16.15803
568.5429, 15.86545
569.0250, 15.19284
569.5071, 14.13587
569.9893, 13.20563
570.4714, 13.04589
570.9535, 13.70640
571.4356, 14.24334
571.9177, 14.84940
572.3998, 15.06199
572.8820, 14.30357
573.3641, 13.34264
573.8462, 13.08767
574.3283, 13.75374
574.8104, 14.73417
575.2925, 15.69155
575.7747, 16.52211
576.2568, 16.60302
576.7389, 15.67258
577.2210, 14.88456
577.7031, 15.08674
578.1852, 15.88445
578.6674, 16.29341
579.1495, 16.15270
579.6316, 15.94311
580.1137, 15.77029
580.5958, 15.66921
581.0779, 15.79119
581.5601, 16.09336
582.0422, 16.20488
582.5243, 15.81491
583.0064, 15.01714
583.4885, 14.34669
583.9706, 13.67949
584.4528, 13.34227
584.9349, 13.64404
585.4170, 14.04914
585.8991, 14.09491
586.3812, 13.81457
586.8633, 13.59445
587.3455, 13.71515
587.8276, 14.08889
588.3097, 14.46471
588.7918, 14.82108
589.2739, 15.36292
589.7560, 16.49479
590.2382, 17.50909
