##NAMES=Hedyphane
##RRUFFID=R070425
##IDEAL CHEMISTRY=Ca_2_Pb^2+^_3_(As^5+^O_4_)_3_Cl
##LOCALITY=Langban, Filipstad, Varmland, Sweden
##OWNER=RRUFF
##SOURCE=Michael Scott
##DESCRIPTION=Aggregates of prismatic colorless crystals, associated with lizardite. NEW MINERAL, OH analogue of hedyphane, perhaps call it hydroxylhedyphane
##STATUS=The identification of this mineral is confirmed by single-crystal X-ray diffraction and chemical analysis.
##URL=rruff.info/R070425
##MEASURED CHEMISTRY=Pb_3.00_(Ca_1.55_Ba_0.20_Pb_0.10_)_1.85_[(AsO_4_)_2.55_(PO_4_)_0.15_(SiO_4_)_0.17_]_2.87_[(OH)_0.55_Cl_0.37_]_0.92_ ;  The darker phase is lizardite.
105.1193, 142.6913
105.6014, 149.0586
106.0836, 156.9364
106.5657, 162.9709
107.0478, 165.7134
107.5299, 167.5004
108.0120, 173.7154
108.4941, 185.9635
108.9763, 195.8802
109.4584, 197.6517
109.9405, 194.5965
110.4226, 195.8737
110.9047, 205.9628
111.3868, 220.5703
111.8690, 231.7081
112.3511, 238.0794
112.8332, 245.0076
113.3153, 256.7782
113.7974, 272.8071
114.2795, 287.1667
114.7617, 294.8442
115.2438, 301.7663
115.7259, 315.6425
116.2080, 338.8692
116.6901, 364.2396
117.1722, 383.8695
117.6544, 396.9722
118.1365, 411.3132
118.6186, 429.5565
119.1007, 450.6535
119.5828, 473.9843
120.0649, 499.0840
120.5471, 527.0486
121.0292, 560.9218
121.5113, 603.7822
121.9934, 643.6561
122.4755, 672.2770
122.9576, 698.5444
123.4398, 730.6635
123.9219, 772.1518
124.4040, 821.0150
124.8861, 872.2885
125.3682, 927.1498
125.8503, 983.5381
126.3325, 1038.893
126.8146, 1095.891
127.2967, 1158.654
127.7788, 1229.260
128.2609, 1306.164
128.7430, 1380.335
129.2252, 1445.793
129.7073, 1516.104
130.1894, 1596.135
130.6715, 1681.700
131.1536, 1767.479
131.6357, 1850.919
132.1179, 1931.278
132.6000, 2002.573
133.0821, 2061.146
133.5642, 2113.595
134.0463, 2162.857
134.5284, 2206.443
135.0106, 2237.984
135.4927, 2251.303
135.9748, 2247.889
136.4569, 2261.012
136.9390, 2301.744
137.4211, 2345.792
137.9033, 2387.908
138.3854, 2427.695
138.8675, 2465.110
139.3496, 2498.540
139.8317, 2527.925
140.3138, 2576.181
140.7960, 2644.405
141.2781, 2725.250
141.7602, 2819.296
142.2423, 2923.971
142.7244, 3031.417
143.2065, 3135.046
143.6887, 3234.721
144.1708, 3349.423
144.6529, 3483.724
145.1350, 3626.631
145.6171, 3776.984
146.0992, 3932.576
146.5814, 4084.630
147.0635, 4227.653
147.5456, 4359.919
148.0277, 4479.413
148.5098, 4583.769
148.9919, 4677.415
149.4741, 4764.542
149.9562, 4845.672
150.4383, 4916.263
150.9204, 4971.113
151.4025, 5010.292
151.8846, 5047.097
152.3668, 5094.286
152.8489, 5132.005
153.3310, 5136.601
153.8131, 5105.532
154.2952, 5067.490
154.7773, 5042.190
155.2595, 5028.353
155.7416, 5020.627
156.2237, 5020.583
156.7058, 5025.149
157.1879, 5029.711
157.6700, 5033.282
158.1522, 5041.970
158.6343, 5062.600
159.1164, 5092.231
159.5985, 5125.108
160.0806, 5159.621
160.5627, 5196.584
161.0449, 5236.846
161.5270, 5280.258
162.0091, 5326.952
162.4912, 5378.280
162.9733, 5432.680
163.4554, 5488.962
163.9376, 5548.836
164.4197, 5609.453
164.9018, 5665.369
165.3839, 5716.364
165.8660, 5762.759
166.3481, 5801.609
166.8303, 5836.446
167.3124, 5873.643
167.7945, 5921.770
168.2766, 5972.144
168.7587, 6004.299
169.2408, 6012.123
169.7230, 6015.325
170.2051, 6024.680
170.6872, 6036.743
171.1693, 6045.445
171.6514, 6043.833
172.1335, 6038.816
172.6157, 6049.793
173.0978, 6085.445
173.5799, 6119.972
174.0620, 6145.747
174.5441, 6162.884
175.0262, 6169.831
175.5084, 6163.276
175.9905, 6147.715
176.4726, 6134.089
176.9547, 6118.780
177.4368, 6113.097
177.9189, 6125.124
178.4010, 6146.833
178.8832, 6167.109
179.3653, 6179.650
179.8474, 6188.331
180.3295, 6206.186
180.8116, 6241.773
181.2937, 6271.145
181.7759, 6285.446
182.2580, 6290.791
182.7401, 6293.740
183.2222, 6296.623
183.7043, 6300.501
184.1864, 6308.775
184.6686, 6323.704
185.1507, 6339.267
185.6328, 6358.925
186.1149, 6376.473
186.5970, 6382.376
187.0791, 6370.089
187.5613, 6349.618
188.0434, 6348.238
188.5255, 6375.979
189.0076, 6407.001
189.4897, 6436.383
189.9718, 6464.980
190.4540, 6495.785
190.9361, 6530.523
191.4182, 6564.020
191.9003, 6582.338
192.3824, 6574.859
192.8645, 6570.640
193.3467, 6573.958
193.8288, 6582.584
194.3109, 6594.227
194.7930, 6607.964
195.2751, 6624.846
195.7572, 6647.160
196.2394, 6676.895
196.7215, 6709.232
197.2036, 6754.094
197.6857, 6795.391
198.1678, 6815.237
198.6499, 6808.271
199.1321, 6789.461
199.6142, 6787.013
200.0963, 6809.696
200.5784, 6832.205
201.0605, 6850.346
201.5426, 6868.604
202.0248, 6891.931
202.5069, 6921.278
202.9890, 6950.902
203.4711, 6970.982
203.9532, 6976.444
204.4353, 6983.374
204.9175, 6995.552
205.3996, 7007.219
205.8817, 7014.937
206.3638, 7017.840
206.8459, 7016.736
207.3280, 7009.986
207.8102, 6988.625
208.2923, 6985.743
208.7744, 7015.075
209.2565, 7049.959
209.7386, 7074.054
210.2207, 7086.121
210.7029, 7097.003
211.1850, 7122.263
211.6671, 7171.074
212.1492, 7199.304
212.6313, 7185.908
213.1134, 7171.271
213.5956, 7174.952
214.0777, 7196.834
214.5598, 7225.431
215.0419, 7249.795
215.5240, 7269.031
216.0061, 7289.540
216.4883, 7304.119
216.9704, 7326.661
217.4525, 7373.842
217.9346, 7435.865
218.4167, 7484.920
218.8988, 7492.291
219.3810, 7455.885
219.8631, 7454.273
220.3452, 7526.938
220.8273, 7597.890
221.3094, 7648.415
221.7915, 7681.415
222.2737, 7706.414
222.7558, 7729.276
223.2379, 7750.179
223.7200, 7768.856
224.2021, 7775.402
224.6842, 7791.188
225.1664, 7830.682
225.6485, 7880.268
226.1306, 7919.323
226.6127, 7935.091
227.0948, 7933.120
227.5770, 7936.616
228.0591, 7949.480
228.5412, 7963.086
229.0233, 7971.673
229.5054, 7981.615
229.9875, 8003.139
230.4697, 8041.396
230.9518, 8086.362
231.4339, 8112.339
231.9160, 8105.480
232.3981, 8102.428
232.8802, 8108.455
233.3624, 8119.374
233.8445, 8133.812
234.3266, 8150.892
234.8087, 8166.100
235.2908, 8169.486
235.7729, 8151.593
236.2551, 8144.683
236.7372, 8152.475
237.2193, 8169.740
237.7014, 8197.189
238.1835, 8233.241
238.6656, 8269.585
239.1478, 8295.256
239.6299, 8307.111
240.1120, 8319.935
240.5941, 8337.431
241.0762, 8353.369
241.5583, 8361.057
242.0405, 8362.602
242.5226, 8368.380
243.0047, 8391.718
243.4868, 8435.042
243.9689, 8467.227
244.4510, 8485.523
244.9332, 8494.094
245.4153, 8483.850
245.8974, 8463.879
246.3795, 8455.656
246.8616, 8477.388
247.3437, 8525.728
247.8259, 8570.479
248.3080, 8620.742
248.7901, 8653.524
249.2722, 8651.448
249.7543, 8630.244
250.2364, 8615.275
250.7186, 8621.094
251.2007, 8640.801
251.6828, 8653.114
252.1649, 8650.393
252.6470, 8656.349
253.1291, 8686.150
253.6113, 8724.378
254.0934, 8754.236
254.5755, 8768.996
255.0576, 8775.883
255.5397, 8785.128
256.0219, 8796.143
256.5040, 8811.803
256.9861, 8841.532
257.4682, 8871.276
257.9503, 8888.625
258.4324, 8890.571
258.9146, 8890.239
259.3967, 8906.499
259.8788, 8940.781
260.3609, 8957.300
260.8430, 8932.052
261.3251, 8901.908
261.8073, 8894.692
262.2894, 8910.447
262.7715, 8929.630
263.2536, 8941.993
263.7357, 8947.147
264.2178, 8940.838
264.7000, 8914.634
265.1821, 8889.210
265.6642, 8881.302
266.1463, 8886.694
266.6284, 8891.952
267.1105, 8890.363
267.5927, 8884.427
268.0748, 8879.031
268.5569, 8874.124
269.0390, 8870.323
269.5211, 8869.099
270.0032, 8869.229
270.4854, 8868.804
270.9675, 8869.021
271.4496, 8867.096
271.9317, 8856.887
272.4138, 8837.991
272.8959, 8825.512
273.3781, 8836.062
273.8602, 8853.086
274.3423, 8843.365
274.8244, 8789.049
275.3065, 8737.607
275.7886, 8727.369
276.2708, 8748.805
276.7529, 8761.442
277.2350, 8747.634
277.7171, 8723.352
278.1992, 8716.577
278.6813, 8730.534
279.1635, 8742.488
279.6456, 8743.166
280.1277, 8736.781
280.6098, 8729.038
281.0919, 8720.497
281.5740, 8714.941
282.0562, 8719.468
282.5383, 8735.425
283.0204, 8743.834
283.5025, 8736.812
283.9846, 8724.980
284.4667, 8716.445
284.9489, 8712.235
285.4310, 8712.783
285.9131, 8720.814
286.3952, 8735.668
286.8773, 8737.884
287.3594, 8716.974
287.8416, 8694.844
288.3237, 8680.368
288.8058, 8673.100
289.2879, 8671.402
289.7700, 8675.096
290.2521, 8682.443
290.7343, 8686.014
291.2164, 8675.215
291.6985, 8673.868
292.1806, 8694.823
292.6627, 8723.897
293.1448, 8743.782
293.6270, 8748.389
294.1091, 8742.621
294.5912, 8734.095
295.0733, 8714.167
295.5554, 8709.091
296.0375, 8728.421
296.5197, 8754.495
297.0018, 8773.686
297.4839, 8785.408
297.9660, 8798.884
298.4481, 8824.473
298.9302, 8864.436
299.4124, 8901.320
299.8945, 8928.527
300.3766, 8959.280
300.8587, 9004.936
301.3408, 9057.830
301.8229, 9099.481
302.3050, 9114.883
302.7871, 9112.406
303.2693, 9136.573
303.7514, 9210.781
304.2335, 9278.016
304.7156, 9314.993
305.1977, 9344.617
305.6798, 9393.495
306.1620, 9471.873
306.6441, 9564.157
307.1262, 9645.331
307.6083, 9712.401
308.0904, 9778.307
308.5725, 9843.290
309.0547, 9909.018
309.5368, 9976.367
310.0189, 10045.51
310.5010, 10114.39
310.9831, 10178.42
311.4652, 10238.86
311.9474, 10308.82
312.4295, 10390.59
312.9116, 10480.44
313.3937, 10579.71
313.8758, 10684.85
314.3579, 10785.31
314.8401, 10873.46
315.3222, 10955.42
315.8043, 11045.75
316.2864, 11147.78
316.7685, 11237.90
317.2506, 11296.77
317.7328, 11336.41
318.2149, 11376.42
318.6970, 11419.34
319.1791, 11461.95
319.6612, 11504.07
320.1433, 11544.30
320.6255, 11576.27
321.1076, 11595.76
321.5897, 11608.87
322.0718, 11630.36
322.5539, 11665.89
323.0360, 11678.58
323.5182, 11637.65
324.0003, 11576.72
324.4824, 11541.16
324.9645, 11538.37
325.4466, 11545.08
325.9287, 11541.53
326.4109, 11526.68
326.8930, 11500.69
327.3751, 11449.31
327.8572, 11400.16
328.3393, 11371.08
328.8214, 11357.67
329.3036, 11344.82
329.7857, 11323.49
330.2678, 11296.01
330.7499, 11273.63
331.2320, 11269.66
331.7141, 11254.06
332.1963, 11211.41
332.6784, 11161.16
333.1605, 11121.44
333.6426, 11098.61
334.1247, 11092.04
334.6068, 11104.83
335.0890, 11153.60
335.5711, 11175.54
336.0532, 11142.47
336.5353, 11110.72
337.0174, 11114.52
337.4995, 11147.25
337.9817, 11178.56
338.4638, 11182.14
338.9459, 11162.40
339.4280, 11159.85
339.9101, 11186.80
340.3922, 11213.45
340.8744, 11231.58
341.3565, 11244.28
341.8386, 11253.13
342.3207, 11257.12
342.8028, 11265.32
343.2849, 11296.37
343.7671, 11355.02
344.2492, 11403.06
344.7313, 11431.15
345.2134, 11444.58
345.6955, 11445.03
346.1776, 11433.04
346.6598, 11418.68
347.1419, 11400.26
347.6240, 11384.37
348.1061, 11394.48
348.5882, 11440.93
349.0703, 11488.48
349.5525, 11509.91
350.0346, 11510.22
350.5167, 11501.62
350.9988, 11478.09
351.4809, 11452.75
351.9630, 11436.15
352.4452, 11427.25
352.9273, 11421.65
353.4094, 11419.69
353.8915, 11416.99
354.3736, 11399.80
354.8557, 11360.35
355.3379, 11326.22
355.8200, 11315.79
356.3021, 11308.40
356.7842, 11275.25
357.2663, 11211.39
357.7484, 11140.60
358.2306, 11089.52
358.7127, 11062.02
359.1948, 11033.41
359.6769, 11008.21
360.1590, 10977.88
360.6411, 10934.20
361.1233, 10882.57
361.6054, 10836.60
362.0875, 10805.32
362.5696, 10781.23
363.0517, 10734.08
363.5338, 10632.55
364.0160, 10559.32
364.4981, 10537.75
364.9802, 10536.41
365.4623, 10534.14
365.9444, 10524.52
366.4265, 10505.33
366.9087, 10465.50
367.3908, 10401.79
367.8729, 10369.14
368.3550, 10399.48
368.8371, 10425.68
369.3192, 10406.26
369.8014, 10356.71
370.2835, 10315.26
370.7656, 10302.23
371.2477, 10305.40
371.7298, 10307.00
372.2119, 10307.47
372.6941, 10301.51
373.1762, 10279.16
373.6583, 10254.06
374.1404, 10250.47
374.6225, 10278.24
375.1046, 10294.64
375.5868, 10266.55
376.0689, 10213.22
376.5510, 10173.97
377.0331, 10157.72
377.5152, 10148.37
377.9973, 10131.33
378.4795, 10105.80
378.9616, 10073.20
379.4437, 10026.51
379.9258, 9979.161
380.4079, 9938.439
380.8900, 9903.866
381.3722, 9874.229
381.8543, 9849.445
382.3364, 9827.070
382.8185, 9799.120
383.3006, 9761.911
383.7827, 9723.676
384.2649, 9682.131
384.7470, 9641.341
385.2291, 9603.319
385.7112, 9569.086
386.1933, 9539.936
386.6754, 9517.878
387.1576, 9503.336
387.6397, 9489.740
388.1218, 9483.861
388.6039, 9470.397
389.0860, 9434.564
389.5681, 9390.504
390.0503, 9362.179
390.5324, 9362.249
391.0145, 9374.203
391.4966, 9373.557
391.9787, 9359.888
392.4608, 9337.236
392.9430, 9302.480
393.4251, 9262.365
393.9072, 9222.108
394.3893, 9181.781
394.8714, 9145.496
395.3535, 9120.020
395.8357, 9098.279
396.3178, 9065.459
396.7999, 9019.584
397.2820, 8977.515
397.7641, 8954.500
398.2462, 8945.406
398.7284, 8922.009
399.2105, 8871.082
399.6926, 8821.296
400.1747, 8785.427
400.6568, 8757.657
401.1389, 8729.096
401.6211, 8696.656
402.1032, 8659.952
402.5853, 8616.208
403.0674, 8557.088
403.5495, 8518.378
404.0316, 8525.213
404.5138, 8525.909
404.9959, 8488.323
405.4780, 8421.892
405.9601, 8353.331
406.4422, 8298.241
406.9243, 8256.387
407.4065, 8229.956
407.8886, 8229.269
408.3707, 8222.894
408.8528, 8202.951
409.3349, 8176.617
409.8170, 8144.988
410.2992, 8109.583
410.7813, 8081.833
411.2634, 8074.923
411.7455, 8085.165
412.2276, 8096.260
412.7097, 8111.386
413.1919, 8117.076
413.6740, 8091.120
414.1561, 8049.785
414.6382, 8027.678
415.1203, 8049.184
415.6024, 8069.426
416.0846, 8050.620
416.5667, 8003.158
417.0488, 7956.977
417.5309, 7920.726
418.0130, 7895.587
418.4951, 7885.316
418.9773, 7895.875
419.4594, 7901.623
419.9415, 7897.039
420.4236, 7891.251
420.9057, 7894.450
421.3878, 7902.642
421.8700, 7900.772
422.3521, 7877.579
422.8342, 7840.015
423.3163, 7818.339
423.7984, 7821.597
424.2805, 7827.532
424.7627, 7835.146
425.2448, 7843.306
425.7269, 7849.437
426.2090, 7854.073
426.6911, 7862.399
427.1732, 7887.165
427.6554, 7925.243
428.1375, 7934.032
428.6196, 7900.260
429.1017, 7862.444
429.5838, 7837.340
430.0659, 7821.625
430.5481, 7810.957
431.0302, 7803.142
431.5123, 7802.705
431.9944, 7823.330
432.4765, 7856.164
432.9586, 7865.699
433.4408, 7838.280
433.9229, 7801.155
434.4050, 7788.773
434.8871, 7804.788
435.3692, 7806.569
435.8513, 7780.414
436.3335, 7749.759
436.8156, 7725.315
437.2977, 7708.170
437.7798, 7698.229
438.2619, 7695.589
438.7440, 7699.347
439.2262, 7707.648
439.7083, 7724.661
440.1904, 7738.785
440.6725, 7751.050
441.1546, 7759.858
441.6367, 7766.090
442.1189, 7768.365
442.6010, 7761.228
443.0831, 7734.200
443.5652, 7697.051
444.0473, 7692.056
444.5294, 7732.424
445.0116, 7767.987
445.4937, 7778.503
445.9758, 7775.212
446.4579, 7766.341
446.9400, 7752.172
447.4221, 7738.278
447.9043, 7725.499
448.3864, 7715.912
448.8685, 7716.885
449.3506, 7730.297
449.8327, 7741.685
450.3148, 7739.628
450.7970, 7724.885
451.2791, 7709.179
451.7612, 7685.490
452.2433, 7669.000
452.7254, 7675.400
453.2076, 7688.188
453.6897, 7681.062
454.1718, 7647.555
454.6539, 7606.851
455.1360, 7583.943
455.6181, 7582.063
456.1003, 7579.792
456.5824, 7587.712
457.0645, 7583.907
457.5466, 7552.674
458.0287, 7507.289
458.5108, 7470.055
458.9930, 7451.521
459.4751, 7438.476
459.9572, 7409.819
460.4393, 7365.353
460.9214, 7327.277
461.4035, 7305.799
461.8857, 7283.565
462.3678, 7239.506
462.8499, 7178.744
463.3320, 7128.587
463.8141, 7102.255
464.2962, 7084.780
464.7784, 7068.082
465.2605, 7049.871
465.7426, 7022.621
466.2247, 6982.938
466.7068, 6932.857
467.1889, 6875.563
467.6711, 6798.595
468.1532, 6741.847
468.6353, 6725.350
469.1174, 6711.224
469.5995, 6671.359
470.0816, 6612.754
470.5638, 6561.248
471.0459, 6533.411
471.5280, 6522.213
472.0101, 6505.884
472.4922, 6480.323
472.9743, 6461.150
473.4565, 6465.452
473.9386, 6467.246
474.4207, 6446.195
474.9028, 6403.372
475.3849, 6359.512
475.8670, 6324.705
476.3492, 6297.162
476.8313, 6274.559
477.3134, 6256.908
477.7955, 6241.631
478.2776, 6227.826
478.7597, 6215.318
479.2419, 6204.284
479.7240, 6197.628
480.2061, 6185.521
480.6882, 6155.417
481.1703, 6126.226
481.6524, 6119.278
482.1346, 6132.610
482.6167, 6146.539
483.0988, 6146.434
483.5809, 6134.535
484.0630, 6122.557
484.5451, 6105.115
485.0273, 6097.017
485.5094, 6115.621
485.9915, 6132.567
486.4736, 6115.561
486.9557, 6066.468
487.4378, 6027.604
487.9200, 6041.683
488.4021, 6090.928
488.8842, 6122.598
489.3663, 6135.321
489.8484, 6134.962
490.3305, 6117.108
490.8127, 6091.362
491.2948, 6078.675
491.7769, 6084.256
492.2590, 6087.513
492.7411, 6078.884
493.2232, 6065.814
493.7054, 6054.104
494.1875, 6045.674
494.6696, 6046.325
495.1517, 6063.238
495.6338, 6091.170
496.1159, 6095.350
496.5981, 6042.374
497.0802, 6012.747
497.5623, 6036.358
498.0444, 6070.104
498.5265, 6072.480
499.0086, 6042.932
499.4908, 6018.216
499.9729, 6036.288
500.4550, 6083.155
500.9371, 6103.358
501.4192, 6091.165
501.9013, 6076.143
502.3835, 6068.103
502.8656, 6066.559
503.3477, 6072.275
503.8298, 6088.688
504.3119, 6097.689
504.7940, 6079.753
505.2762, 6058.123
505.7583, 6065.400
506.2404, 6100.024
506.7225, 6131.972
507.2046, 6140.926
507.6867, 6131.803
508.1689, 6126.115
508.6510, 6129.567
509.1331, 6127.935
509.6152, 6115.390
510.0973, 6101.657
510.5794, 6093.160
511.0616, 6090.470
511.5437, 6091.275
512.0258, 6093.961
512.5079, 6098.908
512.9901, 6109.163
513.4722, 6126.431
513.9543, 6137.615
514.4364, 6132.917
514.9185, 6124.429
515.4006, 6130.202
515.8828, 6151.834
516.3649, 6166.808
516.8470, 6165.654
517.3291, 6156.903
517.8112, 6142.614
518.2933, 6126.804
518.7755, 6122.759
519.2576, 6138.473
519.7397, 6166.036
520.2218, 6187.896
520.7039, 6211.880
521.1860, 6214.129
521.6682, 6174.221
522.1503, 6134.386
522.6324, 6114.178
523.1145, 6112.923
523.5966, 6124.885
524.0787, 6149.752
524.5609, 6180.201
525.0430, 6206.272
525.5251, 6227.946
526.0072, 6241.833
526.4893, 6246.238
526.9714, 6244.029
527.4536, 6234.925
527.9357, 6220.023
528.4178, 6210.027
528.8999, 6202.910
529.3820, 6204.585
529.8641, 6226.858
530.3463, 6258.882
530.8284, 6280.204
531.3105, 6283.898
531.7926, 6276.036
532.2747, 6263.747
532.7568, 6245.671
533.2390, 6231.075
533.7211, 6209.831
534.2032, 6204.708
534.6853, 6236.467
535.1674, 6282.783
535.6495, 6313.564
536.1317, 6319.721
536.6138, 6315.473
537.0959, 6308.403
537.5780, 6301.370
538.0601, 6307.510
538.5422, 6330.661
539.0244, 6348.473
539.5065, 6341.804
539.9886, 6316.798
540.4707, 6304.552
540.9528, 6314.668
541.4349, 6322.695
541.9171, 6320.560
542.3992, 6316.170
542.8813, 6320.247
543.3634, 6331.375
543.8455, 6336.175
544.3276, 6322.281
544.8098, 6295.141
545.2919, 6278.472
545.7740, 6273.897
546.2561, 6275.367
546.7382, 6282.652
547.2203, 6294.876
547.7025, 6317.096
548.1846, 6347.219
548.6666, 6364.935
549.1487, 6355.833
549.6309, 6333.656
550.1130, 6305.554
550.5951, 6275.820
551.0772, 6264.822
551.5593, 6283.140
552.0414, 6310.416
552.5236, 6312.434
553.0057, 6277.763
553.4878, 6256.429
553.9699, 6254.417
554.4520, 6257.181
554.9341, 6265.197
555.4163, 6272.176
555.8984, 6266.700
556.3805, 6244.153
556.8626, 6220.045
557.3447, 6215.903
557.8268, 6228.790
558.3090, 6233.534
558.7911, 6225.210
559.2732, 6217.287
559.7553, 6220.940
560.2374, 6231.454
560.7195, 6233.142
561.2017, 6218.039
561.6838, 6207.874
562.1659, 6219.812
562.6480, 6233.728
563.1301, 6221.536
563.6122, 6186.079
564.0944, 6157.771
564.5765, 6159.953
565.0586, 6184.158
565.5407, 6198.232
566.0228, 6203.262
566.5049, 6195.338
566.9871, 6153.453
567.4692, 6114.729
567.9513, 6110.298
568.4334, 6132.706
568.9155, 6143.532
569.3976, 6112.417
569.8798, 6075.436
570.3619, 6073.029
570.8440, 6096.038
571.3261, 6113.956
571.8082, 6117.433
572.2903, 6113.588
572.7725, 6110.077
573.2546, 6106.540
573.7367, 6106.737
574.2188, 6119.833
574.7009, 6125.541
575.1830, 6115.543
575.6652, 6097.233
576.1473, 6076.365
576.6294, 6055.168
577.1115, 6038.616
577.5936, 6034.886
578.0757, 6039.345
578.5579, 6034.064
579.0400, 6017.110
579.5221, 6006.324
580.0042, 6013.789
580.4863, 6028.708
580.9684, 6029.872
581.4506, 6015.733
581.9327, 5998.256
582.4148, 5973.990
582.8969, 5951.545
583.3790, 5936.144
583.8611, 5927.264
584.3433, 5924.412
584.8254, 5927.522
585.3075, 5930.275
585.7896, 5920.526
586.2717, 5896.712
586.7538, 5878.692
587.2360, 5866.804
587.7181, 5861.631
588.2002, 5873.402
588.6823, 5889.452
589.1644, 5886.972
589.6465, 5856.565
590.1287, 5824.502
590.6108, 5802.843
591.0929, 5786.896
591.5750, 5771.538
592.0571, 5756.041
592.5392, 5739.853
593.0214, 5721.757
593.5035, 5705.442
593.9856, 5704.155
594.4677, 5729.005
594.9498, 5742.449
595.4319, 5734.412
