##NAMES=Hedyphane
##RRUFFID=R070425
##IDEAL CHEMISTRY=Ca_2_Pb^2+^_3_(As^5+^O_4_)_3_Cl
##LOCALITY=Langban, Filipstad, Varmland, Sweden
##OWNER=RRUFF
##SOURCE=Michael Scott
##DESCRIPTION=Aggregates of prismatic colorless crystals, associated with lizardite. NEW MINERAL, OH analogue of hedyphane, perhaps call it hydroxylhedyphane
##STATUS=The identification of this mineral is confirmed by single-crystal X-ray diffraction and chemical analysis.
##URL=rruff.info/R070425
##MEASURED CHEMISTRY=Pb_3.00_(Ca_1.55_Ba_0.20_Pb_0.10_)_1.85_[(AsO_4_)_2.55_(PO_4_)_0.15_(SiO_4_)_0.17_]_2.87_[(OH)_0.55_Cl_0.37_]_0.92_ ;  The darker phase is lizardite.
143.6553, 4265.889
144.1374, 4344.059
144.6195, 4413.516
145.1016, 4472.293
145.5838, 4517.415
146.0659, 4538.329
146.5480, 4568.549
147.0301, 4613.559
147.5122, 4668.574
147.9943, 4715.935
148.4765, 4746.040
148.9586, 4776.805
149.4407, 4819.323
149.9228, 4893.082
150.4049, 4952.603
150.8870, 4985.960
151.3692, 4993.445
151.8513, 5015.896
152.3334, 5065.267
152.8155, 5122.900
153.2976, 5175.859
153.7797, 5225.029
154.2619, 5267.559
154.7440, 5297.081
155.2261, 5308.353
155.7082, 5338.333
156.1903, 5408.664
156.6724, 5495.237
157.1546, 5567.542
157.6367, 5607.317
158.1188, 5643.735
158.6009, 5688.777
159.0830, 5750.621
159.5652, 5802.313
160.0473, 5832.897
160.5294, 5849.098
161.0115, 5863.539
161.4936, 5879.063
161.9757, 5894.738
162.4579, 5910.794
162.9400, 5930.897
163.4221, 5945.252
163.9042, 5944.847
164.3863, 5934.113
164.8684, 5927.862
165.3506, 5930.098
165.8327, 5940.854
166.3148, 5960.948
166.7969, 6004.548
167.2790, 6043.507
167.7611, 6058.491
168.2433, 6051.923
168.7254, 6044.356
169.2075, 6042.973
169.6896, 6048.519
170.1717, 6061.943
170.6538, 6094.512
171.1360, 6127.976
171.6181, 6148.240
172.1002, 6154.910
172.5823, 6154.761
173.0644, 6146.520
173.5465, 6135.311
174.0287, 6130.154
174.5108, 6141.814
174.9929, 6158.560
175.4750, 6166.890
175.9571, 6164.895
176.4392, 6160.435
176.9214, 6160.530
177.4035, 6164.076
177.8856, 6168.011
178.3677, 6173.720
178.8498, 6178.032
179.3319, 6174.755
179.8141, 6161.058
180.2962, 6145.032
180.7783, 6134.412
181.2604, 6129.355
181.7425, 6129.597
182.2246, 6143.600
182.7068, 6162.834
183.1889, 6165.738
183.6710, 6143.192
184.1531, 6110.001
184.6352, 6088.542
185.1173, 6078.372
185.5995, 6074.819
186.0816, 6076.944
186.5637, 6083.275
187.0458, 6088.394
187.5279, 6090.477
188.0100, 6090.849
188.4922, 6094.214
188.9743, 6101.041
189.4564, 6104.329
189.9385, 6091.210
190.4206, 6064.833
190.9027, 6049.942
191.3849, 6058.945
191.8670, 6084.910
192.3491, 6102.498
192.8312, 6111.460
193.3133, 6114.042
193.7955, 6112.885
194.2776, 6107.964
194.7597, 6097.594
195.2418, 6074.185
195.7239, 6041.458
196.2060, 6031.908
196.6882, 6050.195
197.1703, 6080.234
197.6524, 6100.947
198.1345, 6111.968
198.6166, 6116.146
199.0987, 6113.114
199.5809, 6102.868
200.0630, 6089.238
200.5451, 6068.635
201.0272, 6050.416
201.5093, 6055.994
201.9914, 6090.366
202.4736, 6123.181
202.9557, 6140.335
203.4378, 6141.297
203.9199, 6130.914
204.4020, 6104.958
204.8841, 6071.611
205.3663, 6051.759
205.8484, 6047.625
206.3305, 6049.354
206.8126, 6053.031
207.2947, 6059.752
207.7768, 6061.603
208.2590, 6057.758
208.7411, 6048.619
209.2232, 6033.868
209.7053, 6010.245
210.1874, 5988.663
210.6695, 5977.729
211.1517, 5980.681
211.6338, 5979.932
212.1159, 5970.892
212.5980, 5956.032
213.0801, 5951.218
213.5622, 5960.522
214.0444, 5972.283
214.5265, 5976.774
215.0086, 5971.920
215.4907, 5966.805
215.9728, 5963.895
216.4549, 5962.638
216.9371, 5952.726
217.4192, 5925.228
217.9013, 5902.401
218.3834, 5911.209
218.8655, 5969.714
219.3476, 6010.036
219.8298, 6013.167
220.3119, 5978.691
220.7940, 5955.761
221.2761, 5949.530
221.7582, 5948.932
222.2403, 5939.347
222.7225, 5911.481
223.2046, 5897.012
223.6867, 5909.159
224.1688, 5951.999
224.6509, 5975.137
225.1330, 5972.788
225.6152, 5956.402
226.0973, 5938.669
226.5794, 5914.887
227.0615, 5899.796
227.5436, 5898.112
228.0257, 5911.217
228.5079, 5931.424
228.9900, 5968.492
229.4721, 6005.473
229.9542, 6015.109
230.4363, 5980.846
230.9185, 5949.407
231.4006, 5934.765
231.8827, 5940.015
232.3648, 5951.228
232.8469, 5976.902
233.3290, 6003.625
233.8112, 6005.106
234.2933, 5960.886
234.7754, 5925.686
235.2575, 5921.651
235.7396, 5963.188
236.2217, 5988.804
236.7039, 5992.462
237.1860, 5983.123
237.6681, 5979.265
238.1502, 5986.462
238.6323, 5990.258
239.1144, 5982.332
239.5966, 5950.890
240.0787, 5940.883
240.5608, 5961.140
241.0429, 5999.596
241.5250, 6029.947
242.0071, 6051.387
242.4893, 6065.973
242.9714, 6074.270
243.4535, 6075.974
243.9356, 6071.231
244.4177, 6052.705
244.8998, 6029.574
245.3820, 6028.233
245.8641, 6063.880
246.3462, 6099.042
246.8283, 6115.205
247.3104, 6101.488
247.7925, 6095.072
248.2747, 6100.331
248.7568, 6112.331
249.2389, 6116.134
249.7210, 6105.479
250.2031, 6096.104
250.6852, 6096.750
251.1674, 6114.333
251.6495, 6124.543
252.1316, 6121.165
252.6137, 6110.863
253.0958, 6118.041
253.5779, 6159.420
254.0601, 6192.355
254.5422, 6189.540
255.0243, 6128.914
255.5064, 6090.889
255.9885, 6086.295
256.4706, 6105.410
256.9528, 6116.344
257.4349, 6118.438
257.9170, 6113.397
258.3991, 6099.091
258.8812, 6067.104
259.3633, 6050.289
259.8455, 6054.299
260.3276, 6073.904
260.8097, 6092.389
261.2918, 6113.705
261.7739, 6126.978
262.2560, 6123.709
262.7382, 6096.107
263.2203, 6074.965
263.7024, 6061.531
264.1845, 6055.767
264.6666, 6059.737
265.1487, 6079.780
265.6309, 6096.374
266.1130, 6095.810
266.5951, 6071.960
267.0772, 6052.973
267.5593, 6041.644
268.0414, 6036.066
268.5236, 6029.591
269.0057, 6020.446
269.4878, 6014.543
269.9699, 6017.144
270.4520, 6031.104
270.9341, 6039.805
271.4163, 6039.638
271.8984, 6034.451
272.3805, 6037.142
272.8626, 6050.343
273.3447, 6063.745
273.8268, 6071.443
274.3090, 6073.140
274.7911, 6071.104
275.2732, 6065.342
275.7553, 6056.114
276.2374, 6040.715
276.7195, 6015.234
277.2017, 5998.277
277.6838, 6007.784
278.1659, 6047.085
278.6480, 6069.447
279.1301, 6065.555
279.6122, 6047.337
280.0944, 6046.951
280.5765, 6068.309
281.0586, 6085.323
281.5407, 6075.945
282.0229, 6039.860
282.5050, 6018.929
282.9871, 6018.682
283.4692, 6033.048
283.9513, 6054.561
284.4334, 6084.623
284.9156, 6105.435
285.3977, 6097.952
285.8798, 6065.270
286.3619, 6051.930
286.8440, 6067.302
287.3261, 6094.250
287.8083, 6099.972
288.2904, 6084.306
288.7725, 6064.947
289.2546, 6043.029
289.7367, 6022.950
290.2188, 6034.694
290.7010, 6088.798
291.1831, 6157.207
291.6652, 6195.174
292.1473, 6204.163
292.6294, 6200.149
293.1115, 6184.050
293.5937, 6161.102
294.0758, 6148.399
294.5579, 6146.673
295.0400, 6157.506
295.5221, 6190.075
296.0042, 6240.963
296.4864, 6287.986
296.9685, 6314.615
297.4506, 6329.563
297.9327, 6354.580
298.4148, 6393.196
298.8969, 6433.730
299.3791, 6459.837
299.8612, 6474.983
300.3433, 6490.297
300.8254, 6508.057
301.3075, 6530.522
301.7896, 6564.167
302.2718, 6611.469
302.7539, 6657.781
303.2360, 6678.276
303.7181, 6685.476
304.2002, 6710.305
304.6823, 6777.648
305.1645, 6865.858
305.6466, 6952.932
306.1287, 7039.428
306.6108, 7114.661
307.0929, 7163.168
307.5750, 7195.042
308.0572, 7230.940
308.5393, 7275.449
309.0214, 7329.894
309.5035, 7403.970
309.9856, 7498.293
310.4677, 7582.041
310.9499, 7621.946
311.4320, 7642.002
311.9141, 7676.327
312.3962, 7752.020
312.8783, 7835.735
313.3604, 7905.228
313.8426, 7960.383
314.3247, 8016.830
314.8068, 8086.727
315.2889, 8160.013
315.7710, 8226.765
316.2531, 8295.271
316.7353, 8347.067
317.2174, 8363.465
317.6995, 8348.423
318.1816, 8342.187
318.6637, 8365.620
319.1458, 8401.783
319.6280, 8437.086
320.1101, 8481.501
320.5922, 8510.948
321.0743, 8511.290
321.5564, 8487.394
322.0385, 8466.521
322.5207, 8465.112
323.0028, 8462.928
323.4849, 8447.379
323.9670, 8401.431
324.4491, 8359.954
324.9312, 8331.679
325.4134, 8312.782
325.8955, 8288.890
326.3776, 8248.232
326.8597, 8209.729
327.3418, 8182.829
327.8239, 8189.761
328.3061, 8177.958
328.7882, 8125.090
329.2703, 8051.883
329.7524, 8011.961
330.2345, 8033.019
330.7166, 8060.298
331.1988, 8074.445
331.6809, 8069.604
332.1630, 8064.539
332.6451, 8059.811
333.1272, 8054.628
333.6093, 8046.612
334.0915, 8029.154
334.5736, 8019.060
335.0557, 8022.286
335.5378, 8040.613
336.0199, 8064.591
336.5020, 8096.895
336.9842, 8132.451
337.4663, 8166.334
337.9484, 8201.584
338.4305, 8226.480
338.9126, 8233.627
339.3947, 8222.806
339.8769, 8225.134
340.3590, 8242.704
340.8411, 8269.178
341.3232, 8300.068
341.8053, 8336.030
342.2874, 8369.843
342.7696, 8401.414
343.2517, 8429.406
343.7338, 8441.539
344.2159, 8435.444
344.6980, 8427.039
345.1801, 8432.848
345.6623, 8451.642
346.1444, 8465.628
346.6265, 8469.312
347.1086, 8467.370
347.5907, 8473.230
348.0728, 8486.731
348.5550, 8495.575
349.0371, 8482.207
349.5192, 8455.481
350.0013, 8446.885
350.4834, 8468.285
350.9655, 8497.055
351.4477, 8498.857
351.9298, 8477.795
352.4119, 8453.799
352.8940, 8445.455
353.3762, 8440.380
353.8583, 8414.864
354.3404, 8361.199
354.8225, 8305.610
355.3046, 8277.762
355.7867, 8267.892
356.2689, 8252.553
356.7510, 8212.291
357.2331, 8165.674
357.7152, 8130.265
358.1973, 8108.153
358.6794, 8089.145
359.1616, 8073.369
359.6437, 8055.162
360.1258, 8026.598
360.6079, 7966.575
361.0900, 7910.246
361.5721, 7879.328
362.0543, 7874.107
362.5364, 7871.485
363.0185, 7860.779
363.5006, 7848.961
363.9827, 7842.407
364.4648, 7860.016
364.9470, 7865.181
365.4291, 7837.362
365.9112, 7782.731
366.3933, 7743.750
366.8754, 7743.007
367.3575, 7750.388
367.8397, 7748.769
368.3218, 7716.124
368.8039, 7699.643
369.2860, 7714.732
369.7681, 7749.304
370.2502, 7767.414
370.7324, 7757.684
371.2145, 7742.811
371.6966, 7731.578
372.1787, 7727.641
372.6608, 7717.436
373.1429, 7693.231
373.6251, 7667.007
374.1072, 7660.573
374.5893, 7685.849
375.0714, 7707.062
375.5535, 7712.695
376.0356, 7702.013
376.5178, 7686.209
376.9999, 7662.386
377.4820, 7638.633
377.9641, 7622.899
378.4462, 7614.427
378.9283, 7619.391
379.4105, 7645.207
379.8926, 7685.202
380.3747, 7707.826
380.8568, 7711.824
381.3389, 7707.411
381.8210, 7699.305
382.3032, 7688.654
382.7853, 7685.317
383.2674, 7693.460
383.7495, 7706.558
384.2316, 7710.298
384.7137, 7705.850
385.1959, 7704.037
385.6780, 7711.202
386.1601, 7726.116
386.6422, 7749.680
387.1243, 7786.221
387.6064, 7816.921
388.0886, 7813.632
388.5707, 7788.102
389.0528, 7770.811
389.5349, 7792.794
390.0170, 7821.118
390.4991, 7815.426
390.9813, 7770.571
391.4634, 7738.045
391.9455, 7768.256
392.4276, 7825.602
392.9097, 7864.862
393.3918, 7851.090
393.8740, 7832.424
394.3561, 7836.069
394.8382, 7859.024
395.3203, 7870.602
395.8024, 7855.003
396.2845, 7826.773
396.7667, 7795.448
397.2488, 7754.016
397.7309, 7720.658
398.2130, 7702.868
398.6951, 7696.378
399.1772, 7687.678
399.6594, 7671.449
400.1415, 7656.318
400.6236, 7645.542
401.1057, 7640.768
401.5878, 7636.979
402.0699, 7640.405
402.5521, 7641.778
403.0342, 7625.954
403.5163, 7581.709
403.9984, 7539.892
404.4805, 7506.556
404.9626, 7481.927
405.4448, 7470.240
405.9269, 7477.681
406.4090, 7486.706
406.8911, 7477.186
407.3732, 7445.054
407.8553, 7422.664
408.3375, 7419.790
408.8196, 7428.263
409.3017, 7419.222
409.7838, 7390.771
410.2659, 7366.081
410.7480, 7368.799
411.2302, 7391.862
411.7123, 7396.639
412.1944, 7374.271
412.6765, 7345.958
413.1586, 7340.405
413.6407, 7354.298
414.1229, 7372.920
414.6050, 7392.027
415.0871, 7410.426
415.5692, 7426.500
416.0513, 7440.493
416.5334, 7450.399
417.0156, 7449.782
417.4977, 7445.229
417.9798, 7446.581
418.4619, 7461.245
418.9440, 7479.599
419.4261, 7494.683
419.9083, 7507.444
420.3904, 7525.079
420.8725, 7558.649
421.3546, 7593.321
421.8367, 7617.641
422.3188, 7624.036
422.8010, 7629.966
423.2831, 7639.023
423.7652, 7650.631
424.2473, 7663.712
424.7295, 7678.572
425.2116, 7694.546
425.6937, 7711.354
426.1758, 7728.462
426.6579, 7748.321
427.1400, 7775.278
427.6222, 7802.240
428.1043, 7822.087
428.5864, 7831.615
429.0685, 7840.334
429.5506, 7849.497
430.0327, 7859.061
430.5149, 7869.366
430.9970, 7880.932
431.4791, 7891.880
431.9612, 7898.240
432.4433, 7899.091
432.9254, 7911.815
433.4076, 7941.718
433.8897, 7977.971
434.3718, 7998.821
434.8539, 8004.708
435.3360, 8011.052
435.8181, 8025.951
436.3003, 8047.010
436.7824, 8071.379
437.2645, 8099.865
437.7466, 8120.373
438.2287, 8106.006
438.7108, 8075.018
439.1930, 8068.850
439.6751, 8117.406
440.1572, 8181.126
440.6393, 8224.494
441.1214, 8249.937
441.6035, 8269.458
442.0857, 8282.287
442.5678, 8296.494
443.0499, 8320.605
443.5320, 8360.884
444.0141, 8398.770
444.4962, 8429.700
444.9784, 8453.002
445.4605, 8467.547
445.9426, 8463.425
446.4247, 8459.463
446.9068, 8461.076
447.3889, 8468.603
447.8711, 8481.457
448.3532, 8497.000
448.8353, 8519.523
449.3174, 8555.096
449.7995, 8631.112
450.2816, 8672.612
450.7638, 8657.867
451.2459, 8603.589
451.7280, 8577.451
452.2101, 8590.303
452.6922, 8605.416
453.1743, 8603.503
453.6565, 8582.804
454.1386, 8563.246
454.6207, 8545.183
455.1028, 8527.912
455.5849, 8510.534
456.0670, 8493.112
456.5492, 8475.602
457.0313, 8460.303
457.5134, 8443.989
457.9955, 8420.354
458.4776, 8389.179
458.9597, 8349.948
459.4419, 8287.257
459.9240, 8219.598
460.4061, 8181.447
460.8882, 8189.941
461.3703, 8206.590
461.8524, 8203.056
462.3346, 8182.443
462.8167, 8151.834
463.2988, 8108.085
463.7809, 8060.728
464.2630, 8013.708
464.7451, 7966.910
465.2273, 7927.881
465.7094, 7904.936
466.1915, 7888.672
466.6736, 7870.382
467.1557, 7846.324
467.6378, 7822.817
468.1200, 7802.698
468.6021, 7784.243
469.0842, 7760.508
469.5663, 7727.998
470.0484, 7694.374
470.5305, 7661.406
471.0127, 7626.880
471.4948, 7600.833
471.9769, 7583.173
472.4590, 7573.772
472.9411, 7577.116
473.4232, 7596.993
473.9054, 7604.562
474.3875, 7587.847
474.8696, 7553.313
475.3517, 7526.220
475.8338, 7506.541
476.3159, 7491.953
476.7981, 7481.620
477.2802, 7475.013
477.7623, 7470.072
478.2444, 7465.892
478.7265, 7465.242
479.2086, 7477.304
479.6908, 7495.950
480.1729, 7505.639
480.6550, 7492.328
481.1371, 7471.331
481.6192, 7452.902
482.1013, 7437.498
482.5835, 7428.502
483.0656, 7432.673
483.5477, 7441.396
484.0298, 7447.501
484.5119, 7447.946
484.9940, 7447.571
485.4762, 7446.800
485.9583, 7445.939
486.4404, 7445.778
486.9225, 7450.771
487.4046, 7451.947
487.8867, 7443.251
488.3689, 7420.191
488.8510, 7415.965
489.3331, 7440.851
489.8152, 7472.126
490.2973, 7485.422
490.7794, 7474.602
491.2616, 7473.687
491.7437, 7493.880
492.2258, 7522.772
492.7079, 7519.626
493.1900, 7482.642
493.6722, 7449.967
494.1543, 7451.139
494.6364, 7475.198
495.1185, 7483.275
495.6006, 7472.045
496.0828, 7457.696
496.5649, 7459.771
497.0470, 7470.611
497.5291, 7473.631
498.0112, 7451.317
498.4933, 7431.356
498.9755, 7443.194
499.4576, 7479.142
499.9397, 7509.543
500.4218, 7515.309
500.9039, 7514.828
501.3860, 7521.531
501.8682, 7542.070
502.3503, 7553.461
502.8324, 7543.698
503.3145, 7524.572
503.7966, 7510.171
504.2787, 7506.117
504.7609, 7500.583
505.2430, 7488.570
505.7251, 7472.438
506.2072, 7470.144
506.6893, 7490.092
507.1714, 7508.943
507.6536, 7512.558
508.1357, 7498.655
508.6178, 7487.834
509.0999, 7480.125
509.5820, 7476.806
510.0641, 7480.116
510.5463, 7489.880
511.0284, 7504.250
511.5105, 7529.234
511.9926, 7553.798
512.4747, 7550.699
512.9568, 7523.282
513.4390, 7499.591
513.9211, 7503.848
514.4032, 7520.943
514.8853, 7530.723
515.3674, 7527.636
515.8495, 7528.623
516.3317, 7550.671
516.8138, 7581.361
517.2959, 7603.514
517.7780, 7612.330
518.2601, 7611.120
518.7422, 7593.462
519.2244, 7562.125
519.7065, 7543.844
520.1886, 7550.404
520.6707, 7563.170
521.1528, 7573.836
521.6349, 7578.949
522.1171, 7591.911
522.5992, 7618.387
523.0813, 7647.039
523.5634, 7662.513
524.0455, 7662.856
524.5276, 7659.920
525.0098, 7654.592
525.4919, 7649.046
525.9740, 7652.494
526.4561, 7665.244
526.9382, 7676.981
527.4203, 7682.429
527.9025, 7681.632
528.3846, 7670.189
528.8667, 7644.879
529.3488, 7627.070
529.8309, 7641.219
530.3130, 7675.674
530.7952, 7711.854
531.2773, 7753.545
531.7594, 7784.715
532.2415, 7793.815
532.7236, 7783.911
533.2057, 7767.771
533.6879, 7729.915
534.1700, 7702.304
534.6521, 7705.506
535.1342, 7759.563
535.6163, 7791.729
536.0984, 7786.102
536.5806, 7767.970
537.0627, 7764.264
537.5448, 7781.800
538.0269, 7797.492
538.5090, 7808.156
538.9911, 7814.365
539.4733, 7814.690
539.9554, 7807.507
540.4375, 7806.424
540.9196, 7826.221
541.4017, 7860.195
541.8839, 7874.680
542.3660, 7867.873
542.8481, 7853.201
543.3302, 7834.558
543.8123, 7818.354
544.2944, 7818.504
544.7766, 7846.565
545.2587, 7879.565
545.7408, 7903.782
546.2229, 7918.829
546.7050, 7924.402
547.1871, 7914.768
547.6693, 7900.409
548.1514, 7882.587
548.6335, 7860.093
549.1156, 7849.952
549.5977, 7865.162
550.0798, 7886.646
550.5620, 7901.499
551.0441, 7907.418
551.5262, 7911.477
552.0083, 7914.290
552.4904, 7915.138
552.9725, 7912.469
553.4547, 7906.035
553.9368, 7896.588
554.4189, 7879.395
554.9010, 7860.162
555.3831, 7867.502
555.8652, 7901.949
556.3474, 7935.571
556.8295, 7942.516
557.3116, 7933.500
557.7937, 7929.995
558.2758, 7935.265
558.7579, 7945.125
559.2401, 7963.055
559.7222, 7981.727
560.2043, 7989.632
560.6864, 7966.370
561.1685, 7946.979
561.6506, 7948.573
562.1328, 7968.166
562.6149, 7988.853
563.0970, 8018.384
563.5791, 8038.439
564.0612, 8038.687
564.5433, 8010.158
565.0255, 7997.064
565.5076, 8006.989
565.9897, 8023.494
566.4718, 8026.053
566.9539, 8009.544
567.4360, 8014.472
567.9182, 8055.430
568.4003, 8110.688
568.8824, 8131.472
569.3645, 8119.943
569.8466, 8104.718
570.3287, 8098.127
570.8109, 8098.461
571.2930, 8103.843
571.7751, 8114.193
572.2572, 8127.701
572.7393, 8148.741
573.2214, 8169.672
573.7036, 8181.777
574.1857, 8179.025
574.6678, 8177.182
575.1499, 8188.228
575.6320, 8202.019
576.1141, 8203.787
576.5963, 8167.108
577.0784, 8145.872
577.5605, 8155.757
578.0426, 8191.140
578.5247, 8217.186
579.0068, 8231.016
579.4890, 8240.956
579.9711, 8251.298
580.4532, 8262.151
580.9353, 8271.873
581.4174, 8281.767
581.8995, 8285.099
582.3817, 8267.666
582.8638, 8236.029
583.3459, 8214.707
583.8280, 8211.160
584.3101, 8217.104
584.7922, 8226.546
585.2744, 8238.293
585.7565, 8249.497
586.2386, 8262.251
586.7207, 8271.157
587.2028, 8270.456
587.6849, 8260.439
588.1671, 8253.748
588.6492, 8254.590
589.1313, 8259.215
589.6134, 8265.742
590.0955, 8275.771
590.5776, 8283.498
591.0598, 8285.650
591.5419, 8288.442
592.0240, 8303.495
592.5061, 8335.738
592.9882, 8353.758
593.4703, 8344.786
593.9525, 8322.884
594.4346, 8326.468
594.9167, 8353.600
595.3988, 8377.000
595.8809, 8375.589
596.3630, 8362.466
596.8452, 8358.781
597.3273, 8365.292
597.8094, 8374.660
598.2915, 8388.512
598.7736, 8399.486
599.2557, 8398.512
599.7379, 8373.673
600.2200, 8357.387
600.7021, 8365.624
601.1843, 8386.465
601.6664, 8400.935
602.1485, 8404.611
602.6306, 8406.744
603.1127, 8408.241
603.5948, 8409.296
604.0770, 8409.391
604.5591, 8406.164
605.0412, 8409.858
605.5233, 8431.604
606.0054, 8468.151
606.4875, 8487.780
606.9697, 8489.381
607.4518, 8483.544
607.9339, 8473.628
608.4160, 8464.515
608.8981, 8468.817
609.3802, 8494.696
609.8624, 8519.360
610.3445, 8525.933
610.8266, 8519.705
611.3087, 8509.682
611.7908, 8486.774
612.2729, 8472.997
612.7551, 8479.587
613.2372, 8504.073
613.7193, 8528.427
614.2014, 8558.680
614.6835, 8580.102
615.1656, 8584.493
615.6478, 8569.693
616.1299, 8558.258
616.6120, 8550.320
617.0941, 8545.598
617.5762, 8542.004
618.0583, 8540.351
618.5405, 8552.224
619.0226, 8585.596
619.5047, 8613.715
619.9868, 8588.212
620.4689, 8530.881
620.9510, 8493.889
621.4332, 8517.737
621.9153, 8553.292
622.3974, 8570.983
622.8795, 8573.723
623.3616, 8574.309
623.8438, 8578.803
624.3259, 8580.482
624.8080, 8574.229
625.2901, 8557.721
625.7722, 8547.941
626.2543, 8545.734
626.7365, 8549.211
627.2186, 8560.356
627.7007, 8582.517
628.1828, 8588.257
628.6649, 8571.211
629.1470, 8547.980
629.6292, 8544.358
630.1113, 8556.845
630.5934, 8567.507
631.0755, 8570.058
631.5576, 8568.535
632.0397, 8564.127
632.5219, 8559.107
633.0040, 8560.767
633.4861, 8585.041
633.9682, 8606.825
