##NAMES=Heidornite
##RRUFFID=R141086
##IDEAL CHEMISTRY=Na_2_Ca_3_B_5_O_8_(S^6+^O_4_)_2_(OH)_2_Cl
##LOCALITY=Bahrenborstel, Hannover, Germany
##OWNER=RRUFF
##SOURCE=Rock Currier
##DESCRIPTION=Colorless massive in anhydrite
##STATUS=The identification of this mineral has been confirmed only by single crystal X-ray diffraction.
##URL=rruff.info/R141086
125.9420, 174.0579
126.4241, 180.6402
126.9062, 188.3109
127.3883, 196.7896
127.8704, 206.4858
128.3525, 216.3387
128.8347, 225.2293
129.3168, 233.1425
129.7989, 239.2678
130.2810, 242.3338
130.7631, 242.8975
131.2452, 243.3324
131.7274, 244.1480
132.2095, 245.2617
132.6916, 246.6123
133.1737, 248.2789
133.6558, 249.6996
134.1379, 251.0797
134.6201, 252.3843
135.1022, 251.0251
135.5843, 245.5417
136.0664, 236.4838
136.5485, 227.8297
137.0306, 219.2861
137.5128, 211.7685
137.9949, 206.0453
138.4770, 202.0949
138.9591, 200.0503
139.4412, 200.3495
139.9233, 203.1760
140.4055, 205.7440
140.8876, 207.9445
141.3697, 210.0008
141.8518, 212.4494
142.3339, 215.7348
142.8160, 218.3932
143.2982, 219.9702
143.7803, 220.5105
144.2624, 219.7369
144.7445, 217.4119
145.2266, 213.8281
145.7087, 209.6861
146.1909, 204.1882
146.6730, 199.0637
147.1551, 194.9315
147.6372, 192.0437
148.1193, 189.7944
148.6014, 188.1242
149.0836, 187.0832
149.5657, 186.8131
150.0478, 188.0337
150.5299, 189.4500
151.0120, 190.5077
151.4941, 191.3405
151.9763, 191.6484
152.4584, 191.3247
152.9405, 190.4282
153.4226, 189.2735
153.9047, 187.0727
154.3868, 185.1427
154.8690, 184.2003
155.3511, 185.0030
155.8332, 186.0733
156.3153, 187.1862
156.7974, 188.3614
157.2795, 189.7812
157.7617, 191.1813
158.2438, 193.0025
158.7259, 195.5633
159.2080, 199.3694
159.6901, 203.5149
160.1722, 207.8091
160.6544, 212.2436
161.1365, 216.7458
161.6186, 221.5695
162.1007, 226.3039
162.5828, 230.6863
163.0649, 234.9500
163.5471, 238.5177
164.0292, 240.8551
164.5113, 241.9433
164.9934, 242.9562
165.4755, 244.2750
165.9576, 245.9077
166.4398, 247.8423
166.9219, 250.0952
167.4040, 252.6564
167.8861, 255.5035
168.3682, 258.6481
168.8503, 262.0459
169.3325, 265.3590
169.8146, 268.9582
170.2967, 273.3806
170.7788, 278.8293
171.2609, 285.2900
171.7430, 292.5083
172.2252, 300.4297
172.7073, 309.7374
173.1894, 321.5411
173.6715, 335.2944
174.1536, 349.3083
174.6357, 363.6752
175.1179, 377.7479
175.6000, 391.5455
176.0821, 405.3951
176.5642, 416.4171
177.0463, 423.1439
177.5284, 425.0101
178.0106, 420.2562
178.4927, 405.7947
178.9748, 384.5826
179.4569, 361.1488
179.9390, 335.1564
180.4211, 309.0782
180.9033, 284.7806
181.3854, 262.2588
181.8675, 242.1136
182.3496, 224.6619
182.8317, 209.8062
183.3138, 196.4493
183.7960, 184.6454
184.2781, 174.2419
184.7602, 165.2808
185.2423, 157.6799
185.7244, 151.4643
186.2065, 147.0721
186.6887, 144.1294
187.1708, 141.0955
187.6529, 137.7073
188.1350, 134.3867
188.6171, 131.9237
189.0992, 130.2884
189.5814, 129.1455
190.0635, 128.2469
190.5456, 127.6233
191.0277, 127.6150
191.5098, 128.3786
191.9919, 129.5814
192.4741, 130.4336
192.9562, 130.9030
193.4383, 131.6316
193.9204, 133.2446
194.4025, 135.6771
194.8846, 137.8169
195.3668, 139.5287
195.8489, 140.8843
196.3310, 142.1171
196.8131, 143.2638
197.2952, 144.0023
197.7773, 144.0959
198.2595, 143.5338
198.7416, 142.5858
199.2237, 141.2846
199.7058, 139.6295
200.1879, 137.6401
200.6700, 135.3018
201.1522, 132.6097
201.6343, 129.3670
202.1164, 125.4805
202.5985, 121.9917
203.0806, 119.0728
203.5627, 116.6364
204.0449, 114.4768
204.5270, 112.6116
205.0091, 110.9631
205.4912, 109.5248
205.9733, 108.3334
206.4554, 107.0840
206.9376, 105.5901
207.4197, 104.0606
207.9018, 103.3683
208.3839, 103.7944
208.8660, 104.3436
209.3481, 104.1634
209.8303, 102.9354
210.3124, 102.4759
210.7945, 103.2614
211.2766, 104.9183
211.7587, 105.8844
212.2408, 105.9183
212.7230, 105.7722
213.2051, 105.8813
213.6872, 106.2107
214.1693, 106.9476
214.6514, 108.2243
215.1335, 109.9221
215.6157, 111.4226
216.0978, 112.6607
216.5799, 113.8380
217.0620, 115.0649
217.5441, 116.2911
218.0262, 117.7380
218.5084, 119.5146
218.9905, 121.5546
219.4726, 123.4455
219.9547, 125.2463
220.4368, 126.8538
220.9189, 128.1915
221.4011, 129.2731
221.8832, 130.0989
222.3653, 130.7394
222.8474, 131.1325
223.3295, 130.9569
223.8116, 129.9935
224.2938, 128.8199
224.7759, 127.7674
225.2580, 126.8810
225.7401, 126.0100
226.2222, 125.0529
226.7043, 124.0993
227.1865, 123.4846
227.6686, 123.2372
228.1507, 123.3007
228.6328, 123.6479
229.1149, 124.2719
229.5970, 125.2027
230.0792, 126.5218
230.5613, 128.1514
231.0434, 129.7086
231.5255, 130.9816
232.0076, 132.4658
232.4897, 134.4834
232.9719, 137.4277
233.4540, 140.0288
233.9361, 142.2925
234.4182, 144.1898
234.9003, 145.6802
235.3824, 146.8839
235.8646, 147.5100
236.3467, 147.3632
236.8288, 146.1560
237.3109, 144.8269
237.7930, 143.5492
238.2751, 142.1325
238.7573, 139.9648
239.2394, 136.5183
239.7215, 133.0704
240.2036, 130.1589
240.6857, 127.9227
241.1678, 125.9020
241.6500, 124.0513
242.1321, 122.4327
242.6142, 121.1799
243.0963, 120.3270
243.5784, 119.8066
244.0605, 119.6213
244.5427, 119.8658
245.0248, 120.1940
245.5069, 120.5672
245.9890, 121.0435
246.4711, 121.7394
246.9532, 122.6825
247.4354, 123.8130
247.9175, 125.1087
248.3996, 126.6012
248.8817, 128.1646
249.3638, 129.7001
249.8459, 131.3649
250.3281, 133.4638
250.8102, 136.1300
251.2923, 139.0147
251.7744, 142.0642
252.2565, 145.2912
252.7386, 148.5258
253.2208, 151.8250
253.7029, 155.0885
254.1850, 158.2174
254.6671, 161.1976
255.1492, 164.0911
255.6313, 167.0088
256.1135, 170.0566
256.5956, 172.3477
257.0777, 173.8156
257.5598, 174.5591
258.0419, 174.6622
258.5240, 174.0365
259.0062, 172.9478
259.4883, 171.3135
259.9704, 169.1069
260.4525, 167.2051
260.9346, 165.7076
261.4167, 164.4202
261.8989, 163.1238
262.3810, 161.7958
262.8631, 160.5455
263.3452, 159.3528
263.8273, 158.2092
264.3094, 157.4687
264.7916, 157.1118
265.2737, 157.1702
265.7558, 157.7119
266.2379, 158.8141
266.7200, 160.1664
267.2021, 161.8282
267.6843, 163.7389
268.1664, 165.2815
268.6485, 166.2386
269.1306, 167.2695
269.6127, 168.9106
270.0948, 171.2099
270.5770, 173.8367
271.0591, 176.6368
271.5412, 179.6975
272.0233, 183.5752
272.5054, 188.2597
272.9875, 193.6236
273.4697, 199.4781
273.9518, 205.8149
274.4339, 213.0921
274.9160, 221.4698
275.3981, 230.7232
275.8802, 240.4234
276.3624, 250.4276
276.8445, 260.8864
277.3266, 272.0240
277.8087, 283.8974
278.2908, 295.8167
278.7729, 308.0855
279.2551, 319.9526
279.7372, 329.6466
280.2193, 337.2274
280.7014, 342.3793
281.1835, 345.6012
281.6656, 346.8539
282.1478, 343.0174
282.6299, 333.3484
283.1120, 319.7958
283.5941, 305.0066
284.0762, 288.8653
284.5583, 272.5299
285.0405, 256.0104
285.5226, 239.4368
286.0047, 223.9148
286.4868, 209.3819
286.9689, 196.1303
287.4510, 184.6498
287.9332, 174.9129
288.4153, 166.2977
288.8974, 158.8677
289.3795, 152.4632
289.8616, 146.8768
290.3438, 142.1559
290.8259, 137.9243
291.3080, 133.7484
291.7901, 129.7060
292.2722, 126.0277
292.7543, 122.8863
293.2365, 120.1538
293.7186, 117.5896
294.2007, 115.2159
294.6828, 112.9868
295.1649, 110.7871
295.6470, 108.7022
296.1292, 106.9561
296.6113, 105.7045
297.0934, 104.7427
297.5755, 103.7754
298.0576, 102.7994
298.5397, 101.8270
299.0219, 100.7858
299.5040, 99.74817
299.9861, 98.87280
300.4682, 98.17672
300.9503, 97.68234
301.4324, 97.59105
301.9146, 97.79062
302.3967, 97.80283
302.8788, 97.15672
303.3609, 96.19347
303.8430, 95.36270
304.3251, 94.68987
304.8073, 94.28747
305.2894, 94.41680
305.7715, 94.90940
306.2536, 95.35926
306.7357, 95.60534
307.2178, 95.67461
307.7000, 95.53516
308.1821, 95.16241
308.6642, 94.78716
309.1463, 94.57121
309.6284, 94.46474
310.1105, 94.38851
310.5927, 94.16590
311.0748, 94.06593
311.5569, 94.39035
312.0390, 95.13873
312.5211, 95.79589
313.0032, 95.91969
313.4854, 95.86490
313.9675, 96.00679
314.4496, 96.54411
314.9317, 97.24062
315.4138, 98.07126
315.8959, 99.00540
316.3781, 99.87661
316.8602, 100.5879
317.3423, 101.2160
317.8244, 101.7933
318.3065, 102.1304
318.7886, 102.6982
319.2708, 103.7808
319.7529, 105.2277
320.2350, 106.6215
320.7171, 107.7027
321.1992, 108.7850
321.6813, 109.9674
322.1635, 111.1061
322.6456, 112.7014
323.1277, 115.3278
323.6098, 118.3952
324.0919, 120.9278
324.5740, 121.9900
325.0562, 123.1780
325.5383, 125.0363
326.0204, 127.7687
326.5025, 130.4390
326.9846, 132.7881
327.4667, 135.1239
327.9489, 137.8005
328.4310, 140.5867
328.9131, 143.9873
329.3952, 148.2367
329.8773, 153.3551
330.3594, 158.5357
330.8416, 163.4327
331.3237, 168.6268
331.8058, 174.5477
332.2879, 181.6799
332.7700, 188.7558
333.2521, 195.6889
333.7343, 202.5393
334.2164, 209.6686
334.6985, 217.2153
335.1806, 224.6969
335.6627, 231.9445
336.1448, 239.0366
336.6270, 245.4915
337.1091, 251.3699
337.5912, 256.4745
338.0733, 260.4566
338.5554, 263.2182
339.0375, 265.0536
339.5197, 265.8896
340.0018, 265.6652
340.4839, 265.2895
340.9660, 264.5046
341.4481, 264.1451
341.9302, 265.5267
342.4124, 268.7803
342.8945, 272.0843
343.3766, 274.6256
343.8587, 276.7939
344.3408, 280.4792
344.8229, 285.7061
345.3051, 292.2035
345.7872, 300.0482
346.2693, 309.0583
346.7514, 318.3084
347.2335, 327.4178
347.7156, 336.7978
348.1978, 347.4211
348.6799, 359.1766
349.1620, 370.6367
349.6441, 381.0164
350.1262, 390.3894
350.6083, 399.1334
351.0905, 407.6241
351.5726, 414.5984
352.0547, 418.9737
352.5368, 420.7250
353.0189, 419.7740
353.5010, 415.9198
353.9832, 409.4141
354.4653, 400.3186
354.9474, 388.5247
355.4295, 375.0467
355.9116, 359.8194
356.3937, 343.5001
356.8759, 327.2994
357.3580, 311.1531
357.8401, 295.5120
358.3222, 280.6888
358.8043, 266.5574
359.2864, 253.1844
359.7686, 240.2700
360.2507, 228.2240
360.7328, 217.5649
361.2149, 208.5408
361.6970, 200.5082
362.1791, 193.2645
362.6613, 186.8243
363.1434, 181.2223
363.6255, 176.6041
364.1076, 172.7178
364.5897, 169.4346
365.0718, 166.8102
365.5540, 164.7856
366.0361, 163.5049
366.5182, 162.7724
367.0003, 162.3535
367.4824, 162.2672
367.9645, 162.4486
368.4467, 163.1048
368.9288, 164.2674
369.4109, 164.8857
369.8930, 164.7855
370.3751, 164.2815
370.8572, 163.5940
371.3394, 162.9320
371.8215, 161.7583
372.3036, 160.0379
372.7857, 157.7743
373.2678, 154.9410
373.7499, 151.3802
374.2321, 147.4770
374.7142, 143.3606
375.1963, 138.8875
375.6784, 134.6888
376.1605, 130.8021
376.6426, 127.1709
377.1248, 123.8749
377.6069, 120.9124
378.0890, 118.0595
378.5711, 115.1779
379.0532, 112.3194
379.5353, 110.1453
380.0175, 108.7234
380.4996, 107.5485
380.9817, 106.0999
381.4638, 104.4333
381.9459, 102.9561
382.4280, 101.7756
382.9102, 100.8156
383.3923, 100.0014
383.8744, 99.31731
384.3565, 98.67969
384.8386, 97.96349
385.3207, 97.26633
385.8029, 96.86910
386.2850, 96.84096
386.7671, 96.86503
387.2492, 96.53543
387.7313, 96.00399
388.2134, 95.62344
388.6956, 95.77602
389.1777, 96.01128
389.6598, 95.92313
390.1419, 95.51555
390.6240, 94.97581
391.1061, 94.18812
391.5883, 93.42176
392.0704, 92.97192
392.5525, 93.12367
393.0346, 93.32568
393.5167, 93.32502
393.9988, 93.17845
394.4810, 93.04573
394.9631, 92.96313
395.4452, 92.92297
395.9273, 92.93186
396.4094, 93.01170
396.8915, 93.07158
397.3737, 93.11413
397.8558, 93.12009
398.3379, 93.06578
398.8200, 92.75245
399.3021, 92.58562
399.7842, 92.71157
400.2664, 93.12763
400.7485, 93.40447
401.2306, 93.42413
401.7127, 93.41393
402.1948, 93.51257
402.6769, 93.73665
403.1591, 94.05305
403.6412, 94.56872
404.1233, 95.12508
404.6054, 95.19559
405.0875, 94.46590
405.5696, 94.18806
406.0518, 95.15482
406.5339, 97.42619
407.0160, 98.71079
407.4981, 98.81111
407.9802, 98.45663
408.4623, 98.45617
408.9445, 98.80491
409.4266, 99.17126
409.9087, 99.50541
410.3908, 99.77551
410.8729, 99.74123
411.3550, 99.42284
411.8372, 99.39370
412.3193, 100.3472
412.8014, 101.8744
413.2835, 102.9754
413.7656, 103.4562
414.2477, 103.7835
414.7299, 104.4998
415.2120, 105.4541
415.6941, 106.2650
416.1762, 106.4966
416.6583, 106.6788
417.1404, 107.3372
417.6226, 108.4707
418.1047, 109.6502
418.5868, 110.6079
419.0689, 111.5059
419.5510, 112.5116
420.0331, 113.6391
420.5153, 114.9110
420.9974, 116.5454
421.4795, 118.3420
421.9616, 119.7235
422.4437, 119.9333
422.9258, 120.2394
423.4080, 121.2207
423.8901, 123.1162
424.3722, 124.9987
424.8543, 126.9552
425.3364, 128.7952
425.8185, 130.2849
426.3007, 130.7942
426.7828, 131.9183
427.2649, 134.1165
427.7470, 137.1845
428.2291, 139.8681
428.7112, 142.0715
429.1934, 144.0196
429.6755, 145.7463
430.1576, 147.0906
430.6397, 149.0224
431.1218, 151.6596
431.6039, 154.7252
432.0861, 157.8698
432.5682, 161.0938
433.0503, 164.3520
433.5324, 167.4932
434.0145, 170.7068
434.4966, 174.7600
434.9788, 179.6722
435.4609, 184.8614
435.9430, 189.6863
436.4251, 194.4560
436.9072, 200.0061
437.3893, 206.6000
437.8715, 213.8225
438.3536, 221.0697
438.8357, 228.5407
439.3178, 236.7885
439.7999, 246.5103
440.2820, 256.9189
440.7642, 267.1833
441.2463, 277.3429
441.7284, 287.6628
442.2105, 298.9187
442.6926, 310.2130
443.1747, 320.6734
443.6569, 329.6255
444.1390, 338.2679
444.6211, 346.5724
445.1032, 354.7934
445.5853, 363.4016
446.0674, 372.5827
446.5496, 382.1605
447.0317, 391.9325
447.5138, 401.6430
447.9959, 412.5623
448.4780, 424.3443
448.9601, 437.6456
449.4423, 453.2572
449.9244, 470.8346
450.4065, 491.1772
450.8886, 514.8760
451.3707, 541.3145
451.8528, 568.8607
452.3350, 597.7560
452.8171, 627.5482
453.2992, 658.6370
453.7813, 691.1635
454.2634, 724.2110
454.7455, 758.1965
455.2277, 792.1456
455.7098, 826.4518
456.1919, 860.3972
456.6740, 891.6617
457.1561, 919.8359
457.6382, 943.8054
458.1204, 961.7208
458.6025, 973.4981
459.0846, 977.3470
459.5667, 970.5828
460.0488, 955.8505
460.5309, 936.0049
461.0131, 911.1161
461.4952, 883.1864
461.9773, 850.6977
462.4594, 817.0767
462.9415, 786.8932
463.4236, 762.3885
463.9058, 741.6600
464.3879, 723.0302
464.8700, 707.0319
465.3521, 696.1540
465.8342, 691.5996
466.3163, 691.7905
466.7985, 695.9022
467.2806, 704.2045
467.7627, 715.8550
468.2448, 730.5307
468.7269, 748.5308
469.2090, 770.3905
469.6912, 796.2304
470.1733, 826.2335
470.6554, 860.9302
471.1375, 900.0434
471.6196, 940.7269
472.1017, 982.6854
472.5839, 1027.159
473.0660, 1077.099
473.5481, 1132.361
474.0302, 1186.158
474.5123, 1238.030
474.9944, 1288.188
475.4766, 1339.633
475.9587, 1391.008
476.4408, 1433.819
476.9229, 1465.990
477.4050, 1486.397
477.8871, 1493.636
478.3693, 1487.545
478.8514, 1466.424
479.3335, 1425.610
479.8156, 1370.331
480.2977, 1305.615
480.7798, 1230.504
481.2620, 1153.301
481.7441, 1075.766
482.2262, 999.9822
482.7083, 929.0349
483.1904, 862.3552
483.6725, 801.9498
484.1547, 749.8564
484.6368, 705.9725
485.1189, 665.9073
485.6010, 628.5706
486.0831, 595.3397
486.5652, 567.2464
487.0474, 545.7674
487.5295, 525.8600
488.0116, 507.4791
488.4937, 490.9310
488.9758, 476.4173
489.4579, 463.7954
489.9401, 453.5821
490.4222, 445.8235
490.9043, 440.5318
491.3864, 437.4788
491.8685, 436.6783
492.3506, 438.0514
492.8328, 441.4604
493.3149, 446.9402
493.7970, 455.0407
494.2791, 466.0291
494.7612, 478.6618
495.2433, 491.5940
495.7255, 505.1791
496.2076, 520.4790
496.6897, 538.5156
497.1718, 557.8160
497.6539, 577.4030
498.1360, 596.9666
498.6182, 615.7506
499.1003, 635.3513
499.5824, 652.5252
500.0645, 665.5830
500.5466, 675.5253
501.0287, 676.8855
501.5109, 667.9760
501.9930, 649.7914
502.4751, 623.3754
502.9572, 583.5217
503.4393, 541.5922
503.9214, 496.6808
504.4036, 450.8262
504.8857, 409.7364
505.3678, 373.1664
505.8499, 341.0811
506.3320, 313.5556
506.8141, 290.6573
507.2963, 271.5535
507.7784, 256.2470
508.2605, 244.1685
508.7426, 234.9863
509.2247, 228.5879
509.7068, 223.3031
510.1890, 218.8909
510.6711, 215.3380
511.1532, 212.7130
511.6353, 210.9995
512.1174, 210.1646
512.5995, 210.4526
513.0817, 211.4468
513.5638, 212.5350
514.0459, 213.7335
514.5280, 215.6499
515.0101, 218.6495
515.4922, 222.5746
515.9744, 227.2427
516.4565, 232.6569
516.9386, 238.7852
517.4207, 245.4783
517.9028, 252.9084
518.3849, 261.3570
518.8671, 270.6935
519.3492, 281.2894
519.8313, 293.7792
520.3134, 307.9016
520.7955, 321.4479
521.2776, 334.2582
521.7598, 346.7734
522.2419, 359.3953
522.7240, 372.5948
523.2061, 384.1700
523.6882, 394.8342
524.1703, 402.3210
524.6525, 403.4493
525.1346, 398.4211
525.6167, 389.8012
526.0988, 378.0323
526.5809, 363.5153
527.0630, 345.9696
527.5452, 325.9213
528.0273, 306.0553
528.5094, 287.7671
528.9915, 270.4982
529.4736, 252.9816
529.9557, 235.0040
530.4379, 218.6970
530.9200, 205.0700
531.4021, 193.6573
531.8842, 183.9743
532.3663, 176.4331
532.8484, 169.8517
533.3306, 164.0774
533.8127, 159.0793
534.2948, 154.9616
534.7769, 152.1736
535.2590, 149.6799
535.7411, 147.1591
536.2233, 144.6405
536.7054, 142.9028
537.1875, 142.1897
537.6696, 141.8201
538.1517, 141.2805
538.6339, 140.5246
539.1160, 140.3233
539.5981, 140.7681
540.0802, 141.6416
540.5623, 142.8225
541.0444, 144.2465
541.5266, 145.5513
542.0087, 146.4890
542.4908, 147.4052
542.9729, 148.8115
543.4550, 150.6195
543.9371, 152.5205
544.4193, 154.0229
544.9014, 155.7739
545.3835, 158.3813
545.8656, 161.9211
546.3477, 165.7614
546.8298, 169.8272
547.3120, 174.0349
547.7941, 178.2715
548.2762, 182.1835
548.7583, 186.6342
549.2404, 192.0043
549.7225, 197.8527
550.2047, 203.3607
550.6868, 207.9639
551.1689, 213.3452
551.6510, 219.9332
552.1331, 227.6312
552.6152, 235.7117
553.0974, 244.1991
553.5795, 252.9579
554.0616, 261.8453
554.5437, 270.9118
555.0258, 280.4720
555.5079, 290.6131
555.9901, 301.0400
556.4722, 311.2440
556.9543, 321.6451
557.4364, 333.1993
557.9185, 346.6995
558.4006, 360.6336
558.8828, 373.8462
559.3649, 386.6303
559.8470, 399.9699
560.3291, 415.2213
560.8112, 430.1957
561.2933, 444.1635
561.7755, 457.0699
562.2576, 469.0656
562.7397, 480.2632
563.2218, 490.2817
563.7039, 499.0753
564.1860, 507.0550
564.6682, 512.8427
565.1503, 516.6970
565.6324, 518.1275
566.1145, 516.3943
566.5966, 511.3911
567.0787, 504.1164
567.5609, 494.7633
568.0430, 483.3317
568.5251, 469.6536
569.0072, 453.7841
569.4893, 437.1621
569.9714, 419.8874
570.4536, 402.4411
570.9357, 385.3605
571.4178, 368.7209
571.8999, 352.3274
572.3820, 335.7746
572.8641, 319.7336
573.3463, 305.0023
573.8284, 291.5451
574.3105, 279.4237
574.7926, 269.1234
575.2747, 259.9808
575.7568, 251.2047
576.2390, 241.9572
576.7211, 233.9346
577.2032, 227.3678
577.6853, 222.1311
578.1674, 218.1765
578.6495, 215.8823
579.1317, 213.7260
579.6138, 210.6116
580.0959, 206.8978
580.5780, 205.8705
581.0601, 207.6790
581.5422, 210.4558
582.0244, 212.8147
582.5065, 214.9339
582.9886, 217.0426
583.4707, 219.0871
583.9528, 221.7774
584.4349, 225.8968
584.9171, 231.0419
585.3992, 236.6124
585.8813, 242.2366
586.3634, 248.4453
586.8455, 254.8188
587.3276, 261.8855
587.8098, 270.8919
588.2919, 282.8382
588.7740, 296.0306
589.2561, 309.9447
589.7382, 324.5729
590.2203, 340.2376
590.7025, 356.6159
591.1846, 374.2971
591.6667, 393.7918
592.1488, 415.2719
592.6309, 437.2022
593.1130, 459.5718
593.5952, 482.6642
594.0773, 508.1833
594.5594, 535.1201
595.0415, 559.9832
595.5236, 584.7477
596.0057, 602.0914
596.4879, 605.1611
596.9700, 594.4395
597.4521, 570.8120
597.9342, 526.5309
598.4163, 476.4726
598.8984, 425.8139
599.3806, 375.2850
599.8627, 330.6784
600.3448, 293.2443
600.8269, 262.2994
601.3090, 237.4283
601.7911, 219.4191
602.2733, 204.1117
602.7554, 191.8535
603.2375, 181.8199
603.7196, 173.5948
604.2017, 167.1788
604.6838, 161.9497
605.1660, 157.8760
605.6481, 154.7534
606.1302, 152.3586
606.6123, 150.6799
607.0944, 149.6967
607.5765, 149.6963
608.0587, 150.0749
608.5408, 150.0172
609.0229, 149.7036
609.5050, 149.7809
609.9871, 150.5071
610.4692, 151.7895
610.9514, 153.7711
611.4335, 156.5149
611.9156, 159.0037
612.3977, 160.5268
612.8798, 162.1265
613.3619, 164.3649
613.8441, 167.3887
614.3262, 170.7997
614.8083, 174.6532
615.2904, 178.8428
615.7725, 183.1061
616.2546, 187.4165
616.7368, 192.2868
617.2189, 197.9242
617.7010, 204.1088
618.1831, 210.5440
618.6652, 217.1648
619.1473, 223.7610
619.6295, 230.2861
620.1116, 236.6245
620.5937, 242.4664
621.0758, 247.9147
621.5579, 253.6756
622.0400, 261.2308
622.5222, 268.1554
623.0043, 272.9493
623.4864, 275.2260
623.9685, 276.7837
