##NAMES=Heinrichite
##RRUFFID=R060254
##IDEAL CHEMISTRY=Ba(U^6+^O_2_)_2_(As^5+^O_4_)_2_&#183;10H_2_O
##LOCALITY=White King mine, 14 miles northwest of Lakeview, Lake County, Oregon, USA
##OWNER=RRUFF
##SOURCE=Michael Scott
##DESCRIPTION=Parallel aggregates of pale yellow platy crystals
##STATUS=The identification of this mineral has been confirmed only by single crystal X-ray diffraction.
##URL=rruff.info/R060254
90.97430, 38.48876
91.45642, 40.24714
91.93854, 35.97185
92.42065, 29.34039
92.90277, 25.86093
93.38489, 26.14691
93.86700, 28.18719
94.34912, 30.34359
94.83124, 32.47799
95.31335, 33.71470
95.79547, 33.25994
96.27759, 31.38901
96.75970, 29.00591
97.24182, 25.86186
97.72394, 22.74033
98.20605, 21.25004
98.68817, 21.43846
99.17029, 22.90101
99.65240, 26.16222
100.1345, 31.46906
100.6166, 34.99443
101.0988, 35.85549
101.5809, 34.24326
102.0630, 31.33496
102.5451, 26.08465
103.0272, 21.34910
103.5093, 20.96296
103.9915, 27.14621
104.4736, 31.88281
104.9557, 32.35290
105.4378, 27.35020
105.9199, 24.93805
106.4020, 26.16618
106.8842, 29.45286
107.3663, 32.23651
107.8484, 35.44867
108.3305, 37.03539
108.8126, 35.97692
109.2947, 29.07714
109.7769, 24.84786
110.2590, 24.40807
110.7411, 26.83475
111.2232, 29.26843
111.7053, 33.01418
112.1874, 35.81300
112.6696, 36.61512
113.1517, 32.95688
113.6338, 29.84378
114.1159, 28.39518
114.5980, 28.34270
115.0801, 27.67858
115.5623, 24.05728
116.0444, 20.55734
116.5265, 19.56144
117.0086, 25.21123
117.4907, 30.37615
117.9728, 31.53831
118.4550, 28.46877
118.9371, 26.33828
119.4192, 28.81485
119.9013, 33.25816
120.3834, 36.26362
120.8655, 35.06859
121.3477, 32.81475
121.8298, 31.84393
122.3119, 32.55196
122.7940, 33.35884
123.2761, 32.97403
123.7582, 31.83313
124.2404, 30.90628
124.7225, 30.92301
125.2046, 31.36824
125.6867, 31.49912
126.1688, 31.00231
126.6509, 30.67829
127.1331, 31.81870
127.6152, 34.11606
128.0973, 36.04221
128.5794, 35.43116
129.0615, 33.63937
129.5436, 34.09020
130.0258, 38.23806
130.5079, 44.18944
130.9900, 48.58866
131.4721, 51.39938
131.9542, 54.16448
132.4363, 58.24242
132.9185, 63.49245
133.4006, 68.75803
133.8827, 72.74921
134.3648, 76.64751
134.8469, 86.40636
135.3290, 103.2138
135.8112, 120.7285
136.2933, 130.3219
136.7754, 131.4466
137.2575, 134.0441
137.7396, 141.9971
138.2217, 155.0087
138.7039, 166.8838
139.1860, 176.8167
139.6681, 186.9192
140.1502, 201.0930
140.6323, 220.2330
141.1144, 240.0162
141.5966, 259.6937
142.0787, 280.1559
142.5608, 295.5858
143.0429, 304.3034
143.5250, 308.9282
144.0071, 315.0973
144.4893, 322.6538
144.9714, 331.9310
145.4535, 343.1710
145.9356, 357.7499
146.4177, 371.7634
146.8998, 384.9474
147.3820, 397.5329
147.8641, 410.9049
148.3462, 423.2245
148.8283, 437.8831
149.3104, 457.0610
149.7925, 486.0281
150.2747, 512.5139
150.7568, 534.2167
151.2389, 551.6158
151.7210, 570.5087
152.2031, 593.0522
152.6852, 615.5819
153.1674, 636.0697
153.6495, 651.2225
154.1316, 667.4940
154.6137, 687.3552
155.0958, 710.9430
155.5779, 730.5668
156.0601, 742.5504
156.5422, 751.4867
157.0243, 761.1510
157.5064, 772.1425
157.9885, 783.9995
158.4706, 797.4705
158.9528, 812.9971
159.4349, 826.2510
159.9170, 832.6104
160.3991, 837.1471
160.8812, 845.7249
161.3633, 862.9798
161.8455, 882.2692
162.3276, 901.0966
162.8097, 918.9736
163.2918, 936.3611
163.7739, 952.0695
164.2560, 966.3721
164.7382, 979.0303
165.2203, 990.0192
165.7024, 998.8027
166.1845, 1007.706
166.6666, 1011.803
167.1487, 1017.410
167.6309, 1030.088
168.1130, 1046.924
168.5951, 1061.534
169.0772, 1069.173
169.5593, 1074.452
170.0414, 1081.598
170.5236, 1092.417
171.0057, 1102.712
171.4878, 1108.908
171.9699, 1112.070
172.4520, 1115.282
172.9341, 1120.393
173.4163, 1126.509
173.8984, 1132.430
174.3805, 1137.393
174.8626, 1142.928
175.3447, 1152.056
175.8268, 1163.811
176.3090, 1173.723
176.7911, 1175.974
177.2732, 1174.805
177.7553, 1177.365
178.2374, 1187.275
178.7195, 1199.604
179.2017, 1207.684
179.6838, 1211.987
180.1659, 1216.237
180.6480, 1223.093
181.1301, 1232.072
181.6122, 1242.436
182.0944, 1255.211
182.5765, 1268.320
183.0586, 1278.453
183.5407, 1285.474
184.0228, 1290.998
184.5049, 1296.376
184.9871, 1301.401
185.4692, 1305.110
185.9513, 1307.324
186.4334, 1308.034
186.9155, 1307.468
187.3976, 1305.690
187.8798, 1301.988
188.3619, 1294.518
188.8440, 1283.845
189.3261, 1274.113
189.8082, 1267.595
190.2903, 1263.016
190.7725, 1255.282
191.2546, 1243.879
191.7367, 1231.512
192.2188, 1221.389
192.7009, 1213.280
193.1830, 1204.575
193.6652, 1193.141
194.1473, 1179.790
194.6294, 1170.744
195.1115, 1166.547
195.5936, 1164.765
196.0757, 1162.933
196.5579, 1161.097
197.0400, 1157.982
197.5221, 1152.669
198.0042, 1145.345
198.4863, 1138.289
198.9684, 1131.507
199.4506, 1125.065
199.9327, 1118.475
200.4148, 1111.381
200.8969, 1106.928
201.3790, 1108.098
201.8611, 1115.229
202.3433, 1116.884
202.8254, 1111.402
203.3075, 1103.054
203.7896, 1099.688
204.2717, 1102.305
204.7538, 1104.564
205.2360, 1103.166
205.7181, 1097.491
206.2002, 1093.969
206.6823, 1093.149
207.1644, 1093.803
207.6465, 1093.772
208.1287, 1092.993
208.6108, 1091.800
209.0929, 1090.337
209.5750, 1088.615
210.0571, 1086.342
210.5392, 1082.740
211.0214, 1079.310
211.5035, 1079.818
211.9856, 1085.831
212.4677, 1091.491
212.9498, 1093.951
213.4319, 1092.363
213.9140, 1091.082
214.3962, 1090.128
214.8783, 1089.505
215.3604, 1089.367
215.8425, 1090.011
216.3246, 1090.416
216.8067, 1089.832
217.2889, 1087.550
217.7710, 1086.734
218.2531, 1087.863
218.7352, 1090.221
219.2173, 1092.350
219.6994, 1094.722
220.1816, 1095.932
220.6637, 1095.404
221.1458, 1093.040
221.6279, 1088.936
222.1100, 1081.777
222.5921, 1073.406
223.0743, 1068.997
223.5564, 1071.245
224.0385, 1072.824
224.5206, 1069.691
225.0027, 1058.649
225.4848, 1051.596
225.9670, 1049.935
226.4491, 1052.020
226.9312, 1053.640
227.4133, 1054.582
227.8954, 1055.385
228.3775, 1056.298
228.8597, 1057.502
229.3418, 1058.342
229.8239, 1058.747
230.3060, 1058.759
230.7881, 1058.564
231.2702, 1058.364
231.7524, 1057.568
232.2345, 1055.550
232.7166, 1050.533
233.1987, 1048.466
233.6808, 1050.631
234.1629, 1055.418
234.6451, 1058.644
235.1272, 1059.938
235.6093, 1060.237
236.0914, 1059.854
236.5735, 1058.405
237.0556, 1057.260
237.5378, 1056.603
238.0199, 1056.243
238.5020, 1055.490
238.9841, 1053.321
239.4662, 1052.302
239.9483, 1054.128
240.4305, 1061.798
240.9126, 1064.950
241.3947, 1061.311
241.8768, 1053.848
242.3589, 1050.123
242.8410, 1052.561
243.3232, 1054.962
243.8053, 1054.260
244.2874, 1047.704
244.7695, 1044.863
245.2516, 1047.300
245.7337, 1052.803
246.2159, 1056.455
246.6980, 1057.590
247.1801, 1057.946
247.6622, 1058.216
248.1443, 1058.609
248.6264, 1058.354
249.1086, 1057.356
249.5907, 1055.775
250.0728, 1053.697
250.5549, 1050.082
251.0370, 1047.715
251.5191, 1047.845
252.0013, 1051.215
252.4834, 1054.727
252.9655, 1059.084
253.4476, 1063.109
253.9297, 1064.263
254.4118, 1060.906
254.8940, 1057.690
255.3761, 1056.309
255.8582, 1057.202
256.3403, 1058.181
256.8224, 1059.213
257.3046, 1060.366
257.7867, 1061.855
258.2688, 1064.120
258.7509, 1065.875
259.2330, 1066.826
259.7151, 1067.094
260.1973, 1065.684
260.6794, 1061.373
261.1615, 1056.637
261.6436, 1055.380
262.1257, 1058.717
262.6078, 1062.860
263.0900, 1067.278
263.5721, 1072.339
264.0542, 1073.782
264.5363, 1069.585
265.0184, 1064.173
265.5005, 1063.603
265.9827, 1069.630
266.4648, 1075.413
266.9469, 1079.286
267.4290, 1081.236
267.9111, 1081.071
268.3932, 1077.766
268.8754, 1073.920
269.3575, 1072.609
269.8396, 1074.408
270.3217, 1076.668
270.8038, 1079.044
271.2859, 1081.501
271.7681, 1082.816
272.2502, 1082.842
272.7323, 1082.053
273.2144, 1080.684
273.6965, 1078.522
274.1786, 1076.816
274.6608, 1075.452
275.1429, 1074.680
275.6250, 1077.056
276.1071, 1083.778
276.5892, 1090.221
277.0714, 1091.438
277.5535, 1086.826
278.0356, 1082.822
278.5177, 1080.869
278.9998, 1080.371
279.4819, 1078.461
279.9641, 1074.637
280.4462, 1071.471
280.9283, 1071.505
281.4104, 1074.860
281.8925, 1077.690
282.3746, 1079.379
282.8568, 1080.200
283.3389, 1080.786
283.8210, 1081.096
284.3031, 1081.447
284.7852, 1082.364
285.2673, 1083.747
285.7495, 1083.934
286.2316, 1082.256
286.7137, 1079.902
287.1958, 1079.564
287.6779, 1081.286
288.1600, 1083.257
288.6422, 1084.912
289.1243, 1086.065
289.6064, 1084.913
290.0885, 1080.611
290.5706, 1075.714
291.0527, 1074.785
291.5349, 1077.596
292.0170, 1080.680
292.4991, 1082.244
292.9812, 1082.574
293.4633, 1082.387
293.9454, 1081.576
294.4276, 1080.911
294.9097, 1081.527
295.3918, 1083.254
295.8739, 1085.210
296.3560, 1087.137
296.8381, 1088.958
297.3203, 1090.802
297.8024, 1092.784
298.2845, 1093.634
298.7666, 1090.202
299.2487, 1084.182
299.7308, 1080.692
300.2130, 1082.733
300.6951, 1088.270
301.1772, 1095.058
301.6593, 1103.073
302.1414, 1109.833
302.6235, 1112.407
303.1057, 1112.153
303.5878, 1111.726
304.0699, 1112.277
304.5520, 1112.904
305.0341, 1111.911
305.5162, 1109.583
305.9984, 1108.299
306.4805, 1110.404
306.9626, 1114.458
307.4447, 1118.447
307.9268, 1121.902
308.4089, 1125.055
308.8911, 1128.379
309.3732, 1131.672
309.8553, 1134.135
310.3374, 1133.316
310.8195, 1132.337
311.3016, 1134.744
311.7838, 1142.731
312.2659, 1151.060
312.7480, 1156.681
313.2301, 1159.994
313.7122, 1162.121
314.1943, 1160.549
314.6765, 1159.968
315.1586, 1164.795
315.6407, 1177.613
316.1228, 1188.849
316.6049, 1192.237
317.0870, 1191.219
317.5692, 1191.412
318.0513, 1196.533
318.5334, 1201.940
319.0155, 1205.477
319.4976, 1206.880
319.9797, 1207.090
320.4619, 1207.602
320.9440, 1206.632
321.4261, 1202.207
321.9082, 1188.049
322.3903, 1175.926
322.8724, 1171.148
323.3546, 1174.017
323.8367, 1174.011
324.3188, 1166.675
324.8009, 1157.077
325.2830, 1149.187
325.7651, 1144.718
326.2473, 1140.584
326.7294, 1136.223
327.2115, 1131.759
327.6936, 1128.100
328.1757, 1126.201
328.6578, 1124.522
329.1400, 1122.271
329.6221, 1117.986
330.1042, 1115.157
330.5863, 1114.753
331.0684, 1115.827
331.5505, 1115.558
332.0327, 1112.484
332.5148, 1109.741
332.9969, 1108.522
333.4790, 1109.141
333.9611, 1110.574
334.4432, 1113.848
334.9254, 1117.330
335.4075, 1117.904
335.8896, 1113.873
336.3717, 1110.371
336.8538, 1109.089
337.3359, 1110.213
337.8180, 1111.502
338.3001, 1112.841
338.7823, 1114.536
339.2644, 1117.420
339.7465, 1122.222
340.2286, 1125.000
340.7107, 1124.123
341.1928, 1120.259
341.6750, 1118.313
342.1571, 1118.577
342.6392, 1119.504
343.1213, 1119.945
343.6034, 1119.884
344.0855, 1119.420
344.5677, 1118.428
345.0498, 1117.167
345.5319, 1116.126
346.0140, 1115.289
346.4961, 1115.105
346.9782, 1116.389
347.4604, 1118.758
347.9425, 1120.073
348.4246, 1119.917
348.9067, 1119.430
349.3888, 1120.489
349.8709, 1122.831
350.3531, 1124.941
350.8352, 1126.408
351.3173, 1127.065
351.7994, 1126.144
352.2815, 1123.493
352.7636, 1120.871
353.2458, 1120.081
353.7279, 1120.580
354.2100, 1121.185
354.6921, 1120.917
355.1742, 1120.875
355.6563, 1122.898
356.1385, 1126.717
356.6206, 1129.741
357.1027, 1129.265
357.5848, 1127.324
358.0669, 1126.291
358.5490, 1126.908
359.0312, 1128.387
359.5133, 1130.334
359.9954, 1132.756
360.4775, 1135.705
360.9596, 1140.901
361.4417, 1145.505
361.9239, 1147.275
362.4060, 1144.879
362.8881, 1142.532
363.3702, 1141.899
363.8523, 1142.289
364.3344, 1142.643
364.8166, 1143.452
365.2987, 1143.477
365.7808, 1141.184
366.2629, 1135.861
366.7450, 1133.906
367.2271, 1139.955
367.7093, 1148.038
368.1914, 1152.911
368.6735, 1149.342
369.1556, 1147.891
369.6377, 1152.220
370.1198, 1161.252
370.6020, 1164.854
371.0841, 1157.327
371.5662, 1149.659
372.0483, 1148.069
372.5304, 1157.193
373.0125, 1163.600
373.4947, 1166.199
373.9768, 1166.161
374.4589, 1166.161
374.9410, 1166.249
375.4231, 1166.262
375.9052, 1166.119
376.3874, 1165.792
376.8695, 1165.333
377.3516, 1164.330
377.8337, 1163.889
378.3158, 1165.596
378.7979, 1169.701
379.2801, 1174.336
379.7622, 1179.710
380.2443, 1185.154
380.7264, 1187.415
381.2085, 1186.160
381.6906, 1183.920
382.1728, 1181.959
382.6549, 1180.521
383.1370, 1181.709
383.6191, 1186.714
384.1012, 1192.994
384.5833, 1196.919
385.0655, 1198.509
385.5476, 1198.092
386.0297, 1193.551
386.5118, 1187.706
386.9939, 1186.100
387.4760, 1189.597
387.9582, 1194.535
388.4403, 1198.582
388.9224, 1201.534
389.4045, 1202.976
389.8866, 1201.319
390.3687, 1199.095
390.8509, 1198.470
391.3330, 1199.361
391.8151, 1200.683
392.2972, 1202.805
392.7793, 1204.570
393.2614, 1204.657
393.7436, 1200.684
394.2257, 1197.901
394.7078, 1199.842
395.1899, 1204.809
395.6720, 1208.335
396.1541, 1207.487
396.6363, 1206.105
397.1184, 1206.010
397.6005, 1207.715
398.0826, 1209.712
398.5647, 1212.012
399.0468, 1214.412
399.5290, 1216.667
400.0111, 1219.879
400.4932, 1221.717
400.9753, 1221.236
401.4574, 1218.438
401.9395, 1216.484
402.4217, 1215.416
402.9038, 1215.104
403.3859, 1215.589
403.8680, 1217.396
404.3501, 1218.702
404.8322, 1219.206
405.3144, 1219.199
405.7965, 1219.078
406.2786, 1218.311
406.7607, 1219.192
407.2428, 1224.041
407.7249, 1233.119
408.2071, 1237.485
408.6892, 1236.518
409.1713, 1232.783
409.6534, 1228.720
410.1355, 1224.406
410.6176, 1220.883
411.0998, 1217.968
411.5819, 1216.318
412.0640, 1218.522
412.5461, 1224.410
413.0282, 1230.109
413.5103, 1232.601
413.9925, 1232.721
414.4746, 1231.815
414.9567, 1229.577
415.4388, 1227.923
415.9209, 1229.628
416.4030, 1233.531
416.8852, 1236.801
417.3673, 1238.404
417.8494, 1238.486
418.3315, 1235.980
418.8136, 1230.799
419.2957, 1227.662
419.7779, 1231.626
420.2600, 1237.961
420.7421, 1241.864
421.2242, 1239.166
421.7063, 1236.798
422.1884, 1236.886
422.6706, 1239.090
423.1527, 1242.107
423.6348, 1247.629
424.1169, 1252.293
424.5990, 1254.416
425.0811, 1252.600
425.5633, 1251.123
426.0454, 1249.986
426.5275, 1249.337
427.0096, 1249.363
427.4917, 1250.107
427.9738, 1251.511
428.4560, 1253.864
428.9381, 1257.107
429.4202, 1259.370
429.9023, 1260.140
430.3844, 1260.807
430.8665, 1262.617
431.3487, 1265.928
431.8308, 1267.959
432.3129, 1268.024
432.7950, 1267.250
433.2771, 1267.955
433.7592, 1270.158
434.2414, 1272.905
434.7235, 1276.150
435.2056, 1279.618
435.6877, 1281.934
436.1698, 1282.984
436.6519, 1284.075
437.1341, 1287.109
437.6162, 1291.206
438.0983, 1293.968
438.5804, 1293.928
439.0625, 1293.472
439.5446, 1295.867
440.0268, 1300.370
440.5089, 1304.240
440.9910, 1305.279
441.4731, 1305.347
441.9552, 1306.371
442.4373, 1308.877
442.9195, 1310.606
443.4016, 1308.936
443.8837, 1306.327
444.3658, 1305.768
444.8479, 1310.754
445.3300, 1315.300
445.8122, 1316.746
446.2943, 1315.539
446.7764, 1316.041
447.2585, 1320.774
447.7406, 1325.904
448.2227, 1329.496
448.7049, 1330.550
449.1870, 1331.875
449.6691, 1333.401
450.1512, 1335.228
450.6333, 1337.573
451.1154, 1340.856
451.5976, 1343.742
452.0797, 1345.525
452.5618, 1346.367
453.0439, 1348.947
453.5260, 1353.778
454.0081, 1358.587
454.4903, 1361.194
454.9724, 1361.620
455.4545, 1362.930
455.9366, 1365.659
456.4187, 1369.045
456.9008, 1371.997
457.3830, 1374.521
457.8651, 1376.372
458.3472, 1376.258
458.8293, 1375.802
459.3114, 1378.680
459.7935, 1384.854
460.2757, 1390.883
460.7578, 1393.198
461.2399, 1393.842
461.7220, 1395.815
462.2041, 1400.936
462.6862, 1405.814
463.1684, 1408.039
463.6505, 1408.349
464.1326, 1408.401
464.6147, 1409.131
465.0968, 1409.535
465.5789, 1408.758
466.0611, 1406.482
466.5432, 1405.045
467.0253, 1405.542
467.5074, 1406.722
467.9895, 1407.532
468.4716, 1407.235
468.9538, 1407.466
469.4359, 1408.826
469.9180, 1410.783
470.4001, 1411.460
470.8822, 1409.944
471.3643, 1408.845
471.8465, 1409.763
472.3286, 1413.152
472.8107, 1413.803
473.2928, 1411.304
473.7749, 1407.177
474.2570, 1402.238
474.7392, 1396.518
475.2213, 1393.447
475.7034, 1394.773
476.1855, 1397.951
476.6676, 1397.475
477.1497, 1393.642
477.6319, 1389.420
478.1140, 1386.078
478.5961, 1383.605
479.0782, 1382.046
479.5603, 1381.411
480.0424, 1381.434
480.5246, 1382.291
481.0067, 1383.559
481.4888, 1384.608
481.9709, 1384.568
482.4530, 1385.029
482.9352, 1388.318
483.4173, 1393.044
483.8994, 1394.817
484.3815, 1389.071
484.8636, 1382.544
485.3457, 1378.379
485.8279, 1377.154
486.3100, 1376.917
486.7921, 1378.786
487.2742, 1380.881
487.7563, 1381.436
488.2384, 1378.735
488.7206, 1377.501
489.2027, 1378.632
489.6848, 1381.549
490.1669, 1384.507
490.6490, 1387.905
491.1311, 1390.079
491.6133, 1389.737
492.0954, 1386.939
492.5775, 1384.886
493.0596, 1383.574
493.5417, 1383.127
494.0238, 1383.963
494.5060, 1385.875
494.9881, 1387.916
495.4702, 1389.900
495.9523, 1391.798
496.4344, 1394.026
496.9165, 1396.246
497.3987, 1397.206
497.8808, 1394.819
498.3629, 1391.667
498.8450, 1390.226
499.3271, 1390.703
499.8092, 1391.850
500.2914, 1393.245
500.7735, 1394.847
501.2556, 1396.659
501.7377, 1398.788
502.2198, 1400.944
502.7019, 1403.693
503.1841, 1406.463
503.6662, 1407.722
504.1483, 1405.855
504.6304, 1404.073
505.1125, 1403.282
505.5946, 1403.552
506.0768, 1404.031
506.5589, 1404.921
507.0410, 1405.749
507.5231, 1406.021
508.0052, 1405.603
508.4873, 1405.629
508.9695, 1406.339
509.4516, 1407.382
509.9337, 1408.044
510.4158, 1408.349
510.8979, 1408.775
511.3800, 1409.502
511.8622, 1410.489
512.3443, 1411.470
512.8264, 1412.464
513.3085, 1414.152
513.7906, 1418.286
514.2728, 1422.949
514.7549, 1425.640
515.2370, 1425.738
515.7191, 1424.276
516.2012, 1420.249
516.6833, 1415.452
517.1655, 1412.570
517.6476, 1412.284
518.1297, 1414.265
518.6118, 1419.998
519.0939, 1428.940
519.5760, 1435.229
520.0582, 1438.014
520.5403, 1438.017
521.0224, 1434.765
521.5045, 1425.703
521.9866, 1421.074
522.4688, 1422.840
522.9509, 1426.854
523.4330, 1427.596
523.9151, 1424.156
524.3972, 1422.545
524.8793, 1424.580
525.3615, 1428.785
525.8436, 1431.150
526.3257, 1431.714
526.8078, 1432.561
527.2899, 1435.823
527.7720, 1440.119
528.2542, 1441.740
528.7363, 1440.448
529.2184, 1439.300
529.7005, 1442.224
530.1826, 1446.461
530.6647, 1447.905
531.1469, 1443.161
531.6290, 1439.169
532.1111, 1440.661
532.5932, 1445.621
533.0753, 1449.933
533.5574, 1453.624
534.0396, 1455.307
534.5217, 1453.262
535.0038, 1447.137
535.4859, 1444.077
535.9680, 1446.903
536.4501, 1450.200
536.9323, 1450.604
537.4144, 1446.358
537.8965, 1444.080
538.3786, 1443.969
538.8607, 1445.733
539.3428, 1449.853
539.8250, 1456.693
540.3071, 1461.457
540.7892, 1462.351
541.2713, 1460.643
541.7534, 1458.476
542.2355, 1456.024
542.7177, 1455.081
543.1998, 1457.469
543.6819, 1461.857
544.1640, 1466.983
544.6461, 1472.885
545.1282, 1476.770
545.6104, 1475.173
546.0925, 1471.017
546.5746, 1467.510
547.0567, 1465.131
547.5388, 1464.054
548.0209, 1464.756
548.5031, 1466.796
548.9852, 1469.215
549.4673, 1473.611
549.9494, 1476.473
550.4315, 1475.943
550.9136, 1472.048
551.3958, 1471.682
551.8779, 1477.113
552.3600, 1482.266
552.8421, 1482.232
553.3242, 1476.032
553.8063, 1474.737
554.2885, 1480.005
554.7706, 1486.900
555.2527, 1488.340
555.7348, 1485.155
556.2169, 1482.485
556.6990, 1481.906
557.1812, 1482.580
557.6633, 1484.088
558.1454, 1486.042
558.6275, 1486.982
559.1096, 1484.678
559.5917, 1481.972
560.0739, 1481.041
560.5560, 1482.037
561.0381, 1484.363
561.5202, 1490.206
562.0023, 1495.777
562.4844, 1498.113
562.9666, 1493.295
563.4487, 1490.541
563.9308, 1491.652
564.4129, 1494.497
564.8950, 1495.797
565.3771, 1494.807
565.8593, 1493.818
566.3414, 1493.057
566.8235, 1492.703
567.3056, 1494.376
567.7877, 1498.563
568.2698, 1501.065
568.7520, 1497.589
569.2341, 1490.175
569.7162, 1486.786
570.1983, 1487.834
570.6804, 1490.617
571.1625, 1493.898
571.6447, 1496.926
572.1268, 1498.156
572.6089, 1496.104
573.0910, 1494.678
573.5731, 1497.808
574.0552, 1503.068
574.5374, 1506.275
575.0195, 1504.561
575.5016, 1502.105
575.9837, 1500.043
576.4658, 1498.424
576.9479, 1497.042
577.4301, 1495.880
577.9122, 1494.999
578.3943, 1494.313
578.8764, 1493.684
579.3585, 1494.294
579.8406, 1496.601
580.3228, 1499.121
580.8049, 1499.419
581.2870, 1497.744
581.7691, 1499.492
582.2512, 1506.587
582.7333, 1514.993
583.2155, 1518.886
583.6975, 1519.015
584.1796, 1517.930
584.6617, 1515.730
585.1439, 1513.562
585.6260, 1512.504
586.1081, 1512.420
586.5902, 1512.643
587.0723, 1513.547
