##NAMES=Heinrichite
##RRUFFID=R060254
##IDEAL CHEMISTRY=Ba(U^6+^O_2_)_2_(As^5+^O_4_)_2_&#183;10H_2_O
##LOCALITY=White King mine, 14 miles northwest of Lakeview, Lake County, Oregon, USA
##OWNER=RRUFF
##SOURCE=Michael Scott
##DESCRIPTION=Parallel aggregates of pale yellow platy crystals
##STATUS=The identification of this mineral has been confirmed only by single crystal X-ray diffraction.
##URL=rruff.info/R060254
91.53320, 1222.985
92.01532, 1232.083
92.49744, 1232.248
92.97955, 1237.154
93.46167, 1235.807
93.94379, 1225.461
94.42590, 1214.122
94.90802, 1202.680
95.39014, 1189.607
95.87225, 1175.404
96.35437, 1158.624
96.83649, 1137.296
97.31860, 1115.048
97.80072, 1095.587
98.28284, 1079.702
98.76495, 1065.844
99.24707, 1052.320
99.72919, 1039.603
100.2113, 1027.053
100.6934, 1014.057
101.1755, 1000.819
101.6577, 988.0268
102.1398, 976.0930
102.6219, 965.0313
103.1040, 954.6611
103.5861, 942.3359
104.0682, 932.1897
104.5504, 927.6525
105.0325, 928.7181
105.5146, 931.4586
105.9967, 930.2712
106.4788, 923.2156
106.9609, 916.7511
107.4431, 911.3235
107.9252, 906.5739
108.4073, 902.1982
108.8894, 898.2256
109.3715, 894.1907
109.8536, 889.4131
110.3358, 883.9412
110.8179, 877.8018
111.3000, 869.8234
111.7821, 860.3847
112.2642, 853.4581
112.7463, 852.9932
113.2285, 854.3918
113.7106, 852.8201
114.1927, 846.9269
114.6748, 839.4960
115.1569, 834.6573
115.6390, 833.6644
116.1212, 831.9316
116.6033, 826.5138
117.0854, 820.3223
117.5675, 816.4694
118.0496, 816.7093
118.5317, 820.0615
119.0139, 821.8127
119.4960, 819.3204
119.9781, 817.9496
120.4602, 819.2423
120.9423, 822.3270
121.4244, 825.7853
121.9066, 828.7070
122.3887, 831.2145
122.8708, 831.0991
123.3529, 826.1815
123.8350, 821.2214
124.3171, 818.6318
124.7993, 818.3954
125.2814, 818.7529
125.7635, 817.8206
126.2456, 815.1530
126.7277, 813.7718
127.2098, 814.3515
127.6920, 815.9500
128.1741, 817.6736
128.6562, 819.3591
129.1383, 821.0651
129.6204, 823.2908
130.1025, 826.0041
130.5847, 827.5600
131.0668, 826.7662
131.5489, 824.1726
132.0310, 821.5561
132.5131, 818.6280
132.9952, 816.6093
133.4774, 816.3411
133.9595, 817.8376
134.4416, 820.4406
134.9237, 824.3619
135.4058, 830.1178
135.8879, 833.7242
136.3701, 832.0682
136.8522, 829.5164
137.3343, 828.5623
137.8164, 829.8172
138.2985, 832.1065
138.7806, 833.5463
139.2628, 834.1843
139.7449, 833.6856
140.2270, 830.3309
140.7091, 826.7977
141.1912, 825.8011
141.6733, 828.5586
142.1555, 833.8606
142.6376, 837.5344
143.1197, 837.3896
143.6018, 837.9307
144.0839, 839.5135
144.5660, 842.0919
145.0482, 845.6378
145.5303, 850.2167
146.0124, 855.6767
146.4945, 860.9934
146.9766, 866.6414
147.4587, 871.7162
147.9409, 876.2444
148.4230, 880.0375
148.9051, 882.0816
149.3872, 880.6644
149.8693, 876.7816
150.3514, 876.0964
150.8336, 882.2193
151.3157, 889.4167
151.7978, 892.4178
152.2799, 890.7663
152.7620, 887.5272
153.2441, 884.9076
153.7263, 882.3065
154.2084, 878.4083
154.6905, 871.4916
155.1726, 863.1927
155.6547, 857.4598
156.1368, 855.9603
156.6190, 854.0774
157.1011, 848.4343
157.5832, 840.6298
158.0653, 833.6974
158.5474, 829.6669
159.0295, 828.3733
159.5117, 827.6866
159.9938, 828.3683
160.4759, 828.9296
160.9580, 828.3732
161.4401, 827.1516
161.9222, 826.4529
162.4044, 827.4013
162.8865, 830.2438
163.3686, 833.3930
163.8507, 837.2919
164.3328, 841.1150
164.8149, 844.0733
165.2971, 846.3997
165.7792, 849.2275
166.2613, 854.2912
166.7434, 863.7670
167.2255, 868.6039
167.7076, 864.4144
168.1898, 859.2822
168.6719, 859.2658
169.1540, 865.4490
169.6361, 874.2741
170.1182, 880.9768
170.6003, 885.1059
171.0825, 887.7433
171.5646, 887.6491
172.0467, 886.5615
172.5288, 886.1802
173.0109, 886.9017
173.4930, 888.8781
173.9752, 892.9207
174.4573, 899.1580
174.9394, 905.4485
175.4215, 911.1140
175.9036, 916.4094
176.3857, 922.1031
176.8679, 929.0446
177.3500, 935.4760
177.8321, 938.4017
178.3142, 937.4081
178.7963, 937.6112
179.2784, 943.3937
179.7606, 953.9677
180.2427, 962.5029
180.7248, 966.4355
181.2069, 968.1259
181.6890, 969.1196
182.1711, 969.4699
182.6533, 970.6635
183.1354, 975.4508
183.6175, 984.7392
184.0996, 990.4341
184.5817, 987.7639
185.0638, 982.5437
185.5460, 977.4947
186.0281, 973.2642
186.5102, 969.5897
186.9923, 966.5997
187.4744, 965.5361
187.9565, 961.6379
188.4387, 952.9005
188.9208, 942.3854
189.4029, 932.0021
189.8850, 922.3439
190.3671, 913.2374
190.8492, 904.0377
191.3314, 893.6083
191.8135, 885.2946
192.2956, 881.0621
192.7777, 877.9119
193.2598, 873.1528
193.7419, 865.7550
194.2241, 856.6614
194.7062, 848.1487
195.1883, 838.6163
195.6704, 831.7821
196.1525, 829.6909
196.6346, 829.7283
197.1168, 828.9844
197.5989, 826.2040
198.0810, 821.8992
198.5631, 817.4672
199.0452, 812.6511
199.5273, 808.0445
200.0095, 803.2537
200.4916, 798.8033
200.9737, 795.4727
201.4558, 793.5733
201.9379, 793.0762
202.4200, 794.2966
202.9022, 799.3901
203.3843, 802.3049
203.8664, 798.7476
204.3485, 791.0479
204.8306, 786.0519
205.3127, 787.7394
205.7949, 792.7393
206.2770, 793.2862
206.7591, 787.4675
207.2412, 781.7737
207.7233, 780.5933
208.2054, 783.1931
208.6876, 784.9082
209.1697, 782.8411
209.6518, 779.7353
210.1339, 779.8840
210.6160, 784.4010
211.0981, 789.4080
211.5803, 790.9928
212.0624, 789.1365
212.5445, 789.1452
213.0266, 794.9787
213.5087, 802.2791
213.9908, 806.9454
214.4730, 808.1590
214.9551, 807.8846
215.4372, 808.0447
215.9193, 808.6990
216.4014, 809.4385
216.8836, 809.6437
217.3657, 810.2023
217.8478, 812.1979
218.3299, 815.9180
218.8120, 819.7335
219.2941, 821.7275
219.7763, 822.1257
220.2584, 819.7592
220.7405, 813.3416
221.2226, 804.9402
221.7047, 795.5349
222.1868, 785.4476
222.6690, 774.9648
223.1511, 763.9486
223.6332, 750.2015
224.1153, 741.2148
224.5974, 741.4218
225.0795, 743.4844
225.5617, 741.4803
226.0438, 733.9706
226.5259, 724.6292
227.0080, 720.0201
227.4901, 723.3477
227.9722, 725.8967
228.4544, 726.7635
228.9365, 727.2112
229.4186, 728.4213
229.9007, 730.6469
230.3828, 733.0237
230.8649, 734.0497
231.3471, 733.2964
231.8292, 731.6340
232.3113, 728.0515
232.7934, 724.2268
233.2755, 721.3203
233.7576, 719.7189
234.2398, 719.3519
234.7219, 720.2372
235.2040, 723.9991
235.6861, 726.0212
236.1682, 725.1476
236.6503, 723.2045
237.1325, 721.6332
237.6146, 720.8531
238.0967, 720.7313
238.5788, 721.2005
239.0609, 722.9025
239.5430, 723.6052
240.0252, 721.9150
240.5073, 719.8370
240.9894, 719.7712
241.4715, 722.2773
241.9536, 725.3607
242.4357, 726.3223
242.9179, 724.7018
243.4000, 722.8731
243.8821, 721.4379
244.3642, 719.7192
244.8463, 716.3846
245.3284, 711.0436
245.8106, 706.0125
246.2927, 704.2316
246.7748, 705.7699
247.2569, 707.9247
247.7390, 711.4064
248.2211, 714.8414
248.7033, 716.6256
249.1854, 716.4902
249.6675, 714.9205
250.1496, 711.4476
250.6317, 706.4438
251.1138, 702.8912
251.5960, 702.3250
252.0781, 703.1412
252.5602, 703.1558
253.0423, 702.0204
253.5244, 700.9960
254.0065, 701.9401
254.4887, 703.9980
254.9708, 704.6274
255.4529, 701.6291
255.9350, 697.4765
256.4171, 695.7736
256.8992, 696.9718
257.3813, 699.0215
257.8635, 700.8509
258.3456, 702.5157
258.8277, 704.0975
259.3098, 705.6328
259.7919, 707.0695
260.2740, 708.7355
260.7562, 711.0286
261.2383, 711.8109
261.7204, 707.3344
262.2025, 701.2023
262.6846, 698.0588
263.1667, 700.1360
263.6489, 704.6554
264.1310, 708.1392
264.6131, 710.6809
265.0952, 711.7621
265.5773, 709.4037
266.0594, 706.1390
266.5416, 704.5489
267.0237, 705.6999
267.5058, 707.7269
267.9879, 708.1818
268.4700, 706.8617
268.9521, 704.9149
269.4343, 700.9824
269.9164, 697.5003
270.3985, 697.0652
270.8806, 700.5324
271.3627, 704.7540
271.8448, 705.4727
272.3270, 701.9025
272.8091, 698.9366
273.2912, 698.1926
273.7733, 698.1341
274.2554, 697.8891
274.7375, 697.2997
275.2197, 696.7131
275.7018, 696.1952
276.1839, 695.5243
276.6660, 696.3619
277.1481, 702.8555
277.6302, 708.0182
278.1124, 706.9172
278.5945, 699.9041
279.0766, 692.2606
279.5587, 689.7015
280.0408, 692.9406
280.5229, 694.7324
281.0051, 693.0511
281.4872, 691.3124
281.9693, 691.5008
282.4514, 693.0889
282.9335, 693.9495
283.4156, 691.6598
283.8978, 686.1063
284.3799, 682.8112
284.8620, 684.3466
285.3441, 685.6826
285.8262, 684.5837
286.3083, 681.9080
286.7905, 679.7112
287.2726, 679.5303
287.7547, 681.1600
288.2368, 682.7231
288.7189, 684.8549
289.2010, 686.0632
289.6832, 686.1067
290.1653, 684.9913
290.6474, 682.4720
291.1295, 678.1594
291.6116, 672.7809
292.0938, 669.3094
292.5759, 668.2953
293.0580, 668.7140
293.5401, 671.1904
294.0222, 674.5098
294.5043, 677.5286
294.9865, 679.7662
295.4686, 681.1039
295.9507, 681.0565
296.4328, 678.3214
296.9149, 676.5349
297.3970, 676.1044
297.8792, 676.6639
298.3613, 678.5663
298.8434, 681.7415
299.3255, 684.6137
299.8076, 684.0317
300.2897, 677.1473
300.7719, 673.3331
301.2540, 674.0072
301.7361, 676.6205
302.2182, 680.1984
302.7003, 684.2641
303.1824, 688.1873
303.6646, 691.3446
304.1467, 693.8602
304.6288, 695.0235
305.1109, 693.7225
305.5930, 692.1331
306.0751, 691.0381
306.5573, 690.5555
307.0394, 690.5251
307.5215, 690.7541
308.0036, 691.2075
308.4857, 692.5009
308.9678, 695.0170
309.4500, 698.0507
309.9321, 702.4794
310.4142, 707.2762
310.8963, 710.3300
311.3784, 709.9374
311.8605, 706.7184
312.3427, 705.6000
312.8248, 708.9697
313.3069, 711.7745
313.7890, 713.0200
314.2711, 713.2060
314.7532, 712.5827
315.2354, 711.1664
315.7175, 709.9801
316.1996, 712.5156
316.6817, 724.5353
317.1638, 730.8865
317.6459, 726.4846
318.1281, 718.2460
318.6102, 712.1080
319.0923, 709.9968
319.5744, 710.1458
320.0565, 709.9196
320.5386, 709.8541
321.0208, 708.0333
321.5029, 703.9078
321.9850, 698.6705
322.4671, 691.7986
322.9492, 683.9280
323.4313, 677.6965
323.9135, 676.9340
324.3956, 683.6437
324.8777, 685.5233
325.3598, 677.0580
325.8419, 668.8615
326.3240, 665.4504
326.8062, 665.8990
327.2883, 666.6236
327.7704, 664.8713
328.2525, 660.7790
328.7346, 656.6957
329.2167, 651.4084
329.6989, 647.6176
330.1810, 646.8273
330.6631, 647.7247
331.1452, 648.3286
331.6273, 647.5159
332.1094, 645.9202
332.5916, 645.7747
333.0737, 649.2357
333.5558, 650.3229
334.0379, 645.7239
334.5200, 639.8434
335.0021, 637.3350
335.4843, 639.6105
335.9664, 643.5771
336.4485, 643.9421
336.9306, 639.0378
337.4127, 635.5008
337.8948, 633.5068
338.3770, 633.3126
338.8591, 636.0004
339.3412, 641.1928
339.8233, 646.6411
340.3055, 650.4777
340.7876, 652.7346
341.2697, 652.8428
341.7518, 648.2119
342.2339, 643.8754
342.7160, 642.0753
343.1982, 642.1555
343.6803, 642.2497
344.1624, 640.9938
344.6445, 638.7546
345.1266, 637.4955
345.6087, 638.1741
346.0909, 638.2624
346.5730, 636.2646
347.0551, 633.5195
347.5372, 631.9385
348.0193, 632.5143
348.5014, 633.7892
348.9836, 632.6321
349.4657, 627.8644
349.9478, 624.6605
350.4299, 625.6119
350.9120, 627.8798
351.3941, 629.9762
351.8763, 631.5585
352.3584, 631.9630
352.8405, 629.6960
353.3226, 624.6285
353.8047, 621.3034
354.2868, 621.2132
354.7690, 622.1882
355.2511, 623.0799
355.7332, 623.8344
356.2153, 624.4656
356.6974, 624.8198
357.1795, 625.0314
357.6617, 625.9764
358.1438, 628.6813
358.6259, 629.9234
359.1080, 625.9944
359.5901, 619.8297
360.0722, 616.2548
360.5544, 617.7823
361.0365, 621.7155
361.5186, 624.4985
362.0007, 626.0321
362.4828, 627.0911
362.9649, 628.4157
363.4471, 629.0980
363.9292, 627.8282
364.4113, 624.0766
364.8934, 620.1370
365.3755, 617.7273
365.8576, 616.6575
366.3398, 615.7861
366.8219, 614.5049
367.3040, 613.9235
367.7861, 616.1597
368.2682, 620.8484
368.7503, 623.5446
369.2325, 619.6787
369.7146, 613.5225
370.1967, 613.7546
370.6788, 622.2370
371.1609, 630.0441
371.6430, 628.7556
372.1252, 621.0783
372.6073, 616.1842
373.0894, 617.3864
373.5715, 620.0656
374.0536, 620.2486
374.5357, 618.4375
375.0179, 617.9607
375.5000, 621.2449
375.9821, 626.0817
376.4642, 627.0553
376.9463, 622.6185
377.4284, 618.4852
377.9106, 616.7232
378.3927, 616.6476
378.8748, 617.1412
379.3569, 617.9189
379.8390, 619.1840
380.3211, 621.6117
380.8033, 625.6943
381.2854, 627.7696
381.7675, 626.2193
382.2496, 623.5342
382.7317, 621.1368
383.2138, 619.3297
383.6960, 618.6635
384.1781, 619.7977
384.6602, 622.5435
385.1423, 624.1466
385.6244, 624.7479
386.1065, 624.3021
386.5887, 621.4889
387.0708, 617.8437
387.5529, 616.1078
388.0350, 617.5378
388.5171, 620.8456
388.9992, 623.2706
389.4814, 625.4013
389.9635, 625.4604
390.4456, 621.4576
390.9277, 616.7376
391.4098, 613.7250
391.8919, 612.8906
392.3741, 613.6569
392.8562, 615.6995
393.3383, 619.4056
393.8204, 621.4398
394.3025, 621.2345
394.7846, 620.0930
395.2668, 617.5253
395.7489, 614.4355
396.2310, 612.4305
396.7131, 612.5305
397.1952, 614.0609
397.6773, 614.6483
398.1595, 613.6390
398.6416, 612.7230
399.1237, 611.3934
399.6058, 610.6583
400.0879, 612.0244
400.5700, 615.5823
401.0522, 619.1041
401.5343, 619.7462
402.0164, 617.0563
402.4985, 614.0683
402.9806, 609.5066
403.4627, 606.0223
403.9449, 605.2605
404.4270, 606.5458
404.9091, 608.0939
405.3912, 608.9619
405.8733, 609.2127
406.3554, 608.6876
406.8376, 606.4863
407.3197, 605.7833
407.8018, 610.1240
408.2839, 615.5319
408.7660, 617.7397
409.2481, 615.4948
409.7303, 611.4819
410.2124, 607.9803
410.6945, 604.9938
411.1766, 602.3239
411.6587, 599.3879
412.1408, 597.5458
412.6230, 598.8108
413.1051, 602.6768
413.5872, 605.2986
414.0693, 603.9977
414.5514, 600.8593
415.0335, 599.2756
415.5157, 599.5464
415.9978, 600.0917
416.4799, 599.8148
416.9620, 599.0673
417.4441, 598.9730
417.9262, 600.2143
418.4084, 601.2563
418.8905, 601.2291
419.3726, 600.3302
419.8547, 598.9395
420.3368, 597.0812
420.8189, 595.1178
421.3011, 593.4569
421.7832, 591.7952
422.2653, 591.6895
422.7474, 594.0994
423.2295, 597.6075
423.7116, 601.9075
424.1938, 606.5068
424.6759, 609.4003
425.1580, 608.7364
425.6401, 604.7632
426.1222, 602.1011
426.6043, 601.9824
427.0865, 601.5225
427.5686, 598.9570
428.0507, 595.9402
428.5328, 594.9714
429.0149, 596.9794
429.4970, 600.6383
429.9792, 603.7540
430.4613, 606.6083
430.9434, 608.2123
431.4255, 608.5108
431.9076, 607.8712
432.3897, 605.7178
432.8719, 602.6785
433.3540, 600.4363
433.8361, 600.4282
434.3182, 602.3500
434.8003, 604.0784
435.2824, 605.9941
435.7646, 607.0511
436.2467, 606.3121
436.7288, 605.0240
437.2109, 604.4861
437.6930, 605.1059
438.1751, 606.3806
438.6573, 607.7211
439.1394, 609.1140
439.6215, 610.8842
440.1036, 614.2541
440.5857, 616.6194
441.0678, 615.7960
441.5500, 612.4847
442.0321, 609.4008
442.5142, 608.2236
442.9963, 608.0090
443.4784, 606.5507
443.9605, 603.5030
444.4427, 602.0140
444.9248, 604.8646
445.4069, 609.6915
445.8890, 612.0277
446.3711, 610.5836
446.8532, 609.7813
447.3354, 613.6476
447.8175, 619.7332
448.2996, 622.2299
448.7817, 619.5140
449.2638, 615.2588
449.7459, 613.2638
450.2281, 613.7007
450.7102, 614.2230
451.1923, 614.6642
451.6744, 615.2407
452.1565, 615.9472
452.6386, 616.8864
453.1208, 618.4611
453.6029, 620.9859
454.0850, 623.9517
454.5671, 625.9421
455.0492, 626.1156
455.5313, 626.4031
456.0135, 626.9690
456.4956, 627.5651
456.9777, 627.9926
457.4598, 628.2315
457.9419, 628.3544
458.4240, 628.3420
458.9062, 628.1852
459.3883, 628.8356
459.8704, 631.9959
460.3525, 634.0270
460.8346, 632.1002
461.3167, 629.3522
461.7989, 630.4518
462.2810, 637.2534
462.7631, 645.7232
463.2452, 649.2832
463.7273, 647.0084
464.2094, 645.3149
464.6916, 645.7178
465.1737, 646.1926
465.6558, 645.0431
466.1379, 642.8188
466.6200, 641.6229
467.1021, 643.2745
467.5843, 646.3950
468.0664, 648.2553
468.5485, 648.7595
469.0306, 648.7146
469.5127, 648.1736
469.9948, 647.4626
470.4770, 647.2414
470.9591, 647.8075
471.4412, 647.8344
471.9233, 646.6161
472.4054, 644.4261
472.8875, 641.9122
473.3697, 639.2277
473.8518, 635.5371
474.3339, 629.6061
474.8160, 621.5084
475.2981, 615.2504
475.7802, 612.8210
476.2624, 610.1093
476.7445, 604.8752
477.2266, 598.0825
477.7087, 591.3027
478.1908, 585.0795
478.6729, 580.0505
479.1551, 577.4855
479.6372, 578.5793
480.1193, 579.4388
480.6014, 580.9521
481.0835, 581.4824
481.5656, 579.2164
482.0478, 575.1105
482.5299, 571.8166
483.0120, 571.2089
483.4941, 572.4810
483.9762, 572.5714
484.4583, 570.8662
484.9405, 569.2220
485.4226, 568.0624
485.9047, 567.0592
486.3868, 565.9117
486.8689, 564.6066
487.3510, 563.4784
487.8332, 562.9125
488.3153, 562.7946
488.7974, 562.5709
489.2795, 562.2574
489.7616, 561.7470
490.2437, 560.6541
490.7259, 559.3903
491.2080, 558.6696
491.6901, 558.9439
492.1722, 559.1383
492.6543, 558.4478
493.1364, 557.0585
493.6186, 555.2323
494.1007, 552.7929
494.5828, 550.9476
495.0649, 551.3401
495.5470, 554.2410
496.0291, 556.5469
496.5113, 559.2177
496.9934, 560.2980
497.4755, 557.4998
497.9576, 552.2089
498.4397, 547.7834
498.9218, 545.8798
499.4040, 545.4984
499.8861, 544.3914
500.3682, 541.4138
500.8503, 539.8927
501.3324, 540.7638
501.8145, 542.1057
502.2967, 542.9805
502.7788, 543.2704
503.2609, 543.1085
503.7430, 542.5126
504.2251, 541.6232
504.7072, 541.0123
505.1894, 540.8023
505.6715, 540.5861
506.1536, 540.7015
506.6357, 540.4828
507.1178, 538.8716
507.5999, 535.8849
508.0821, 533.6458
508.5642, 534.8560
509.0463, 538.0016
509.5284, 538.1214
510.0105, 534.2516
510.4926, 530.3842
510.9748, 528.8333
511.4569, 529.1218
511.9390, 530.0778
512.4211, 532.2842
512.9032, 533.9686
513.3853, 533.4584
513.8674, 532.0546
514.3495, 532.6535
514.8317, 535.8906
515.3138, 538.4309
515.7959, 536.4091
516.2780, 529.3134
516.7601, 525.4443
517.2422, 526.3104
517.7244, 528.1301
518.2065, 531.0207
518.6886, 533.6110
519.1707, 534.0348
519.6528, 531.6613
520.1349, 527.3807
520.6171, 521.6715
521.0992, 512.9476
521.5813, 509.3155
522.0634, 516.9003
522.5455, 523.6727
523.0276, 524.6102
523.5098, 521.6993
523.9919, 518.9126
524.4740, 517.9042
524.9561, 518.0048
525.4382, 518.5479
525.9203, 519.5458
526.4025, 519.9649
526.8846, 519.3973
527.3667, 518.3797
527.8488, 516.8751
528.3309, 515.1118
528.8130, 514.8087
529.2952, 518.4855
529.7773, 522.2910
530.2594, 522.1627
530.7415, 518.7928
531.2236, 515.5270
531.7057, 513.7468
532.1879, 513.1322
532.6700, 513.1485
533.1521, 514.1915
533.6342, 514.9916
534.1163, 515.5080
534.5984, 515.7908
535.0806, 516.4307
535.5627, 516.9029
536.0448, 515.3826
536.5269, 510.4582
537.0090, 503.9944
537.4911, 501.9663
537.9733, 506.5306
538.4554, 510.8140
538.9375, 515.6376
539.4196, 518.6329
539.9017, 516.9947
540.3839, 511.7127
540.8660, 507.2346
541.3481, 506.7001
541.8302, 508.7270
542.3123, 510.4912
542.7944, 512.0193
543.2766, 513.0875
543.7587, 513.7762
544.2408, 513.7631
544.7229, 512.6608
545.2050, 510.4283
545.6871, 507.6609
546.1693, 502.7725
546.6514, 498.5665
547.1335, 499.4063
547.6156, 504.6401
548.0977, 508.4312
548.5798, 506.8330
549.0620, 501.8595
549.5441, 500.3223
550.0262, 506.5787
550.5083, 510.5373
550.9904, 510.6942
551.4725, 509.6451
551.9547, 509.0899
552.4368, 509.2031
552.9189, 509.5223
553.4010, 509.7863
553.8831, 509.8972
554.3652, 509.4090
554.8474, 508.1346
555.3295, 506.7466
555.8116, 505.0758
556.2937, 503.5959
556.7758, 502.5184
557.2579, 501.9169
557.7401, 502.0971
558.2222, 504.1848
558.7043, 506.7996
559.1864, 507.0794
559.6685, 504.9384
560.1506, 503.6010
560.6328, 505.3840
561.1149, 508.2081
561.5970, 506.8095
562.0791, 499.2944
562.5612, 494.4387
563.0433, 495.7722
563.5255, 498.9482
564.0076, 500.7384
564.4897, 500.9200
564.9718, 500.3429
565.4539, 499.4795
565.9360, 498.4854
566.4182, 498.0086
566.9003, 499.0962
567.3824, 498.6723
567.8645, 494.7592
568.3466, 490.9525
568.8287, 489.8526
569.3109, 491.0231
569.7930, 492.1996
570.2751, 491.7752
570.7572, 490.6849
571.2393, 491.1600
571.7214, 493.3711
572.2036, 494.9984
572.6857, 494.9469
573.1678, 494.3796
573.6499, 495.0168
574.1320, 496.8189
574.6141, 497.4801
575.0963, 495.1655
575.5784, 492.4106
576.0605, 491.5391
576.5426, 492.1735
577.0247, 492.7327
577.5068, 492.4901
577.9890, 491.8908
578.4711, 491.8486
578.9532, 493.0512
579.4353, 493.0100
579.9174, 489.4704
580.3995, 487.0854
580.8817, 489.6632
581.3638, 494.7977
581.8459, 497.6490
582.3280, 495.8293
582.8101, 491.6549
583.2922, 488.6757
583.7744, 486.9625
584.2565, 485.5578
584.7386, 484.5567
585.2207, 483.5128
585.7029, 481.5546
586.1850, 479.2922
586.6671, 478.4272
587.1492, 480.1879
587.6313, 482.3402
