##NAMES=Helvine
##RRUFFID=R060621
##IDEAL CHEMISTRY=Mn^2+^_4_(BeSiO_4_)_3_S^2-^
##LOCALITY=Foote mine, Kings Mountain District, Cleveland County, North Carolina, USA
##OWNER=RRUFF
##SOURCE=Michael Scott
##DESCRIPTION=Yellowish-brown tetrahedra
##STATUS=The identification of this mineral is confirmed by single-crystal X-ray diffraction and chemical analysis.
##URL=rruff.info/R060621
##MEASURED CHEMISTRY=(Mn^2+^_3.72_Zn_0.18_Fe^3+^_0.08_Ca_0.02_)_Σ=4_Be_3.00_((Si_0.97_Al_0.03_)_Σ=1_O_4_)_3_S_1.00_; BeO assumed by stoichiometry
91.99365, 416.1646
92.47577, 415.9488
92.95789, 415.3481
93.44000, 417.9026
93.92212, 422.2420
94.40424, 425.4226
94.88635, 427.2419
95.36847, 428.3774
95.85059, 429.9637
96.33270, 431.9716
96.81482, 434.2011
97.29694, 436.1388
97.77905, 437.8042
98.26117, 440.6059
98.74329, 445.3805
99.22540, 451.7023
99.70752, 456.5138
100.1896, 459.3455
100.6718, 461.5204
101.1539, 464.6116
101.6360, 468.7318
102.1181, 473.3903
102.6002, 478.3291
103.0823, 483.4387
103.5645, 489.3957
104.0466, 496.0938
104.5287, 503.7226
105.0108, 512.9079
105.4929, 524.1185
105.9750, 536.1328
106.4572, 548.6413
106.9393, 563.1393
107.4214, 575.4952
107.9035, 584.3871
108.3856, 591.0787
108.8677, 599.5832
109.3499, 610.6447
109.8320, 623.0986
110.3141, 636.4228
110.7962, 651.8616
111.2783, 667.0242
111.7604, 681.9954
112.2426, 696.8490
112.7247, 710.9576
113.2068, 723.4169
113.6889, 735.6044
114.1710, 748.3401
114.6531, 763.2308
115.1353, 777.3035
115.6174, 789.3219
116.0995, 799.2325
116.5816, 809.8881
117.0637, 822.9167
117.5458, 836.9996
118.0280, 850.8820
118.5101, 862.7830
118.9922, 875.1761
119.4743, 889.1644
119.9564, 904.8649
120.4385, 922.4045
120.9207, 941.4271
121.4028, 962.3849
121.8849, 985.9597
122.3670, 1013.731
122.8491, 1044.150
123.3312, 1074.707
123.8134, 1104.587
124.2955, 1137.512
124.7776, 1176.329
125.2597, 1221.028
125.7418, 1271.384
126.2239, 1329.944
126.7061, 1394.425
127.1882, 1460.544
127.6703, 1531.873
128.1524, 1598.228
128.6345, 1651.383
129.1166, 1689.916
129.5988, 1702.631
130.0809, 1673.919
130.5630, 1609.511
131.0451, 1532.465
131.5272, 1442.382
132.0093, 1347.131
132.4915, 1262.001
132.9736, 1187.125
133.4557, 1122.876
133.9378, 1071.122
134.4199, 1031.689
134.9020, 1001.755
135.3842, 981.7465
135.8663, 971.1781
136.3484, 965.8941
136.8305, 966.4748
137.3126, 970.9054
137.7947, 978.7244
138.2769, 991.3875
138.7590, 1000.027
139.2411, 1002.256
139.7232, 997.9794
140.2053, 988.7917
140.6874, 973.4902
141.1696, 954.6839
141.6517, 935.5867
142.1338, 915.1876
142.6159, 896.5871
143.0980, 880.4420
143.5801, 866.9104
144.0623, 855.8651
144.5444, 847.6632
145.0265, 841.7996
145.5086, 837.6630
145.9907, 835.9316
146.4728, 835.0331
146.9550, 834.4477
147.4371, 833.9693
147.9192, 834.3154
148.4013, 835.4230
148.8834, 837.3485
149.3655, 840.2592
149.8477, 843.8528
150.3298, 848.6707
150.8119, 854.9142
151.2940, 863.3235
151.7761, 872.0603
152.2583, 880.1260
152.7404, 888.2467
153.2225, 898.6107
153.7046, 913.2229
154.1867, 928.7297
154.6688, 943.5866
155.1510, 958.5801
155.6331, 972.0334
156.1152, 984.7089
156.5973, 995.9657
157.0794, 1002.911
157.5615, 1003.434
158.0437, 1000.454
158.5258, 995.7694
159.0079, 987.9890
159.4900, 980.4035
159.9721, 973.4403
160.4542, 967.2278
160.9364, 962.5148
161.4185, 959.6687
161.9006, 958.3820
162.3827, 958.4063
162.8648, 959.8323
163.3469, 962.4009
163.8291, 966.0975
164.3112, 970.8702
164.7933, 976.5325
165.2754, 983.4318
165.7575, 991.0130
166.2396, 998.6923
166.7218, 1005.772
167.2039, 1013.249
167.6860, 1021.433
168.1681, 1030.294
168.6502, 1040.795
169.1323, 1052.668
169.6145, 1066.625
170.0966, 1083.594
170.5787, 1104.111
171.0608, 1127.701
171.5429, 1154.483
172.0250, 1184.775
172.5072, 1216.332
172.9893, 1250.842
173.4714, 1285.826
173.9535, 1316.692
174.4356, 1345.947
174.9177, 1367.932
175.3999, 1377.170
175.8820, 1373.479
176.3641, 1356.023
176.8462, 1319.859
177.3283, 1268.704
177.8104, 1211.910
178.2926, 1148.997
178.7747, 1084.993
179.2568, 1028.062
179.7389, 979.1599
180.2210, 936.5368
180.7031, 900.3390
181.1853, 869.8938
181.6674, 844.0276
182.1495, 823.3486
182.6316, 806.8517
183.1137, 792.9752
183.5958, 781.6429
184.0780, 772.3810
184.5601, 764.7636
185.0422, 758.8030
185.5243, 753.5695
186.0064, 748.5717
186.4885, 743.9457
186.9707, 740.4810
187.4528, 738.3630
187.9349, 736.9320
188.4170, 734.9626
188.8991, 732.5209
189.3812, 730.7687
189.8634, 730.5602
190.3455, 731.6835
190.8276, 732.7921
191.3097, 733.7551
191.7918, 734.7746
192.2739, 736.0645
192.7561, 737.6231
193.2382, 739.7975
193.7203, 743.1125
194.2024, 747.4422
194.6845, 751.4073
195.1666, 754.9278
195.6488, 757.9623
196.1309, 760.8415
196.6130, 763.7875
197.0951, 764.9827
197.5772, 763.1248
198.0593, 758.1917
198.5415, 752.3212
199.0236, 745.4299
199.5057, 737.9661
199.9878, 731.0201
200.4699, 724.6029
200.9520, 718.6293
201.4342, 713.1217
201.9163, 708.0540
202.3984, 703.4133
202.8805, 699.1896
203.3626, 695.3970
203.8447, 692.1165
204.3269, 689.4033
204.8090, 686.9857
205.2911, 684.7156
205.7732, 682.5489
206.2553, 680.7571
206.7374, 679.4160
207.2196, 678.4239
207.7017, 677.4336
208.1838, 676.3077
208.6659, 675.5681
209.1480, 675.7244
209.6301, 677.1154
210.1123, 677.7861
210.5944, 677.3370
211.0765, 676.2586
211.5586, 676.0408
212.0407, 677.0211
212.5228, 678.1042
213.0050, 678.5878
213.4871, 678.1979
213.9692, 678.2305
214.4513, 678.8408
214.9334, 679.8763
215.4155, 680.9164
215.8977, 681.9385
216.3798, 682.9923
216.8619, 684.0192
217.3440, 684.8291
217.8261, 686.2057
218.3082, 688.3765
218.7904, 691.0569
219.2725, 693.3922
219.7546, 695.3171
220.2367, 696.9732
220.7188, 698.3031
221.2009, 698.9864
221.6831, 700.3259
222.1652, 702.6902
222.6473, 705.6638
223.1294, 707.8685
223.6115, 708.8687
224.0936, 709.8874
224.5758, 711.5007
225.0579, 713.7539
225.5400, 716.5417
226.0221, 720.0367
226.5042, 724.0368
226.9863, 727.8040
227.4685, 731.0178
227.9506, 734.5677
228.4327, 738.8629
228.9148, 744.1667
229.3969, 749.6552
229.8790, 755.0344
230.3612, 760.6686
230.8433, 767.6013
231.3254, 776.7590
231.8075, 785.9143
232.2896, 794.1898
232.7717, 801.5290
233.2539, 808.1006
233.7360, 813.9403
234.2181, 818.8802
234.7002, 822.6548
235.1823, 825.7247
235.6644, 826.8451
236.1466, 825.4554
236.6287, 821.2028
237.1108, 815.3068
237.5929, 807.3094
238.0750, 797.9456
238.5571, 788.7490
239.0393, 779.7897
239.5214, 770.9014
240.0035, 761.9678
240.4856, 752.6133
240.9677, 744.1393
241.4498, 736.6322
241.9320, 729.9991
242.4141, 723.9766
242.8962, 718.7899
243.3783, 713.8734
243.8604, 708.9719
244.3425, 703.8899
244.8247, 699.6222
245.3068, 696.4915
245.7889, 693.9852
246.2710, 691.2110
246.7531, 687.9032
247.2352, 684.7693
247.7174, 682.0018
248.1995, 679.6453
248.6816, 677.5087
249.1637, 675.5648
249.6458, 673.8384
250.1279, 672.4189
250.6101, 671.4311
251.0922, 670.4689
251.5743, 669.3689
252.0564, 668.0553
252.5385, 667.1406
253.0206, 666.7664
253.5028, 666.6580
253.9849, 666.5223
254.4670, 666.4268
254.9491, 666.1478
255.4312, 665.4694
255.9133, 664.3383
256.3955, 663.9555
256.8776, 664.6036
257.3597, 665.6878
257.8418, 666.5989
258.3239, 667.2969
258.8061, 667.8987
259.2882, 668.2874
259.7703, 668.4775
260.2524, 669.3700
260.7345, 671.2595
261.2166, 673.4459
261.6988, 675.3528
262.1809, 676.8854
262.6630, 678.2893
263.1451, 679.4452
263.6272, 680.4486
264.1093, 682.0846
264.5915, 684.5282
265.0736, 687.3323
265.5557, 690.2404
266.0378, 693.2331
266.5199, 696.2111
267.0020, 699.0354
267.4842, 701.8331
267.9663, 705.1455
268.4484, 709.0769
268.9305, 713.2536
269.4126, 717.3101
269.8947, 721.1840
270.3769, 725.4286
270.8590, 730.1140
271.3411, 735.2307
271.8232, 740.6064
272.3053, 746.2310
272.7874, 752.1082
273.2696, 758.3074
273.7517, 764.8331
274.2338, 771.6152
274.7159, 778.6785
275.1980, 786.0284
275.6801, 793.5329
276.1623, 801.2133
276.6444, 808.9799
277.1265, 816.8803
277.6086, 825.0649
278.0907, 832.8325
278.5728, 840.3117
279.0550, 847.2397
279.5371, 853.0392
280.0192, 857.6285
280.5013, 861.7605
280.9834, 866.0823
281.4655, 870.5446
281.9477, 873.2865
282.4298, 874.1841
282.9119, 873.5895
283.3940, 871.8038
283.8761, 868.8054
284.3582, 865.0416
284.8404, 860.6604
285.3225, 855.6385
285.8046, 849.7487
286.2867, 842.9595
286.7688, 835.6910
287.2509, 828.1528
287.7331, 820.4033
288.2152, 813.2268
288.6973, 806.9141
289.1794, 801.3325
289.6615, 796.2070
290.1436, 791.5104
290.6258, 787.2118
291.1079, 783.1503
291.5900, 779.3880
292.0721, 776.2568
292.5542, 774.0625
293.0363, 772.4052
293.5185, 770.5016
294.0006, 768.3423
294.4827, 766.1845
294.9648, 764.2575
295.4469, 762.4485
295.9290, 760.4724
296.4112, 758.2893
296.8933, 755.8356
297.3754, 752.9622
297.8575, 749.7167
298.3396, 746.3229
298.8217, 742.6973
299.3039, 739.0651
299.7860, 735.9840
300.2681, 733.5411
300.7502, 731.5082
301.2323, 729.6445
301.7144, 727.9664
302.1966, 726.6420
302.6787, 726.0915
303.1608, 725.7900
303.6429, 724.9557
304.1250, 723.4868
304.6071, 721.8457
305.0893, 720.6620
305.5714, 719.6183
306.0535, 718.1005
306.5356, 715.7982
307.0177, 712.9019
307.4998, 709.5334
307.9820, 705.6713
308.4641, 701.6199
308.9462, 697.5027
309.4283, 693.3387
309.9104, 689.2000
310.3925, 685.0843
310.8747, 681.0808
311.3568, 677.1204
311.8389, 673.2761
312.3210, 670.0779
312.8031, 667.9416
313.2852, 666.5060
313.7674, 665.4524
314.2495, 665.1100
314.7316, 664.6097
315.2137, 663.4025
315.6958, 661.6590
316.1779, 659.9578
316.6601, 658.5137
317.1422, 657.1960
317.6243, 655.9044
318.1064, 654.5335
318.5885, 653.3820
319.0706, 652.5309
319.5528, 651.9632
320.0349, 651.6497
320.5170, 651.9957
320.9991, 652.2490
321.4812, 651.9696
321.9633, 650.8827
322.4455, 650.1465
322.9276, 650.3037
323.4097, 650.8315
323.8918, 651.0893
324.3739, 650.5257
324.8560, 650.1374
325.3382, 650.2654
325.8203, 650.9908
326.3024, 651.5964
326.7845, 652.1804
327.2666, 652.5605
327.7487, 652.5872
328.2309, 651.9128
328.7130, 651.2971
329.1951, 650.6461
329.6772, 650.0172
330.1593, 650.0213
330.6414, 651.1978
331.1236, 652.4854
331.6057, 653.3123
332.0878, 653.4532
332.5699, 653.5178
333.0520, 653.5531
333.5341, 653.5065
334.0163, 653.1615
334.4984, 652.1437
334.9805, 651.4535
335.4626, 651.6231
335.9447, 652.9949
336.4268, 653.8986
336.9090, 654.2270
337.3911, 654.2191
337.8732, 654.2108
338.3553, 654.1815
338.8374, 654.2551
339.3195, 654.5238
339.8017, 654.9794
340.2838, 655.2664
340.7659, 655.3275
341.2480, 655.3879
341.7301, 655.6149
342.2122, 655.9963
342.6944, 656.7779
343.1765, 658.1481
343.6586, 659.8912
344.1407, 661.2013
344.6228, 662.0399
345.1049, 662.8114
345.5871, 663.8446
346.0692, 665.1013
346.5513, 666.1874
347.0334, 666.9700
347.5155, 667.7350
347.9977, 669.0389
348.4798, 670.8276
348.9619, 672.5636
349.4440, 674.0296
349.9261, 675.2122
350.4082, 675.9260
350.8904, 676.0775
351.3725, 676.3210
351.8546, 677.4515
352.3367, 679.2350
352.8188, 681.0621
353.3009, 682.7147
353.7831, 684.2444
354.2652, 685.6998
354.7473, 687.0812
355.2294, 688.4083
355.7115, 689.6648
356.1936, 690.8859
356.6758, 692.1254
357.1579, 693.5145
357.6400, 694.8034
358.1221, 695.8882
358.6042, 696.7432
359.0863, 697.3085
359.5685, 697.5038
360.0506, 697.4338
360.5327, 697.1890
361.0148, 696.8246
361.4969, 696.1907
361.9790, 695.0817
362.4612, 693.6863
362.9433, 692.3036
363.4254, 691.4217
363.9075, 690.2154
364.3896, 688.1595
364.8717, 685.0716
365.3539, 682.2878
365.8360, 680.3220
366.3181, 678.6600
366.8002, 676.7809
367.2823, 674.4804
367.7644, 672.1143
368.2466, 669.5726
368.7287, 666.8972
369.2108, 664.6628
369.6929, 662.9945
370.1750, 661.6376
370.6571, 660.4996
371.1393, 659.7440
371.6214, 658.9208
372.1035, 658.0350
372.5856, 657.0763
373.0677, 655.9652
373.5498, 654.4128
374.0320, 653.2646
374.5141, 653.0387
374.9962, 653.9283
375.4783, 653.9813
375.9604, 652.9567
376.4425, 651.4943
376.9247, 650.2484
377.4068, 649.1959
377.8889, 648.6046
378.3710, 648.7435
378.8531, 649.3586
379.3352, 649.3652
379.8174, 648.7200
380.2995, 647.7568
380.7816, 646.5214
381.2637, 645.0858
381.7458, 644.2226
382.2279, 644.1694
382.7101, 644.4345
383.1922, 644.1678
383.6743, 643.4421
384.1564, 642.7743
384.6385, 642.4496
385.1206, 642.3732
385.6028, 642.4905
386.0849, 642.8401
386.5670, 642.9058
387.0491, 641.7436
387.5312, 639.9752
388.0133, 638.8408
388.4955, 639.2585
388.9776, 640.1081
389.4597, 640.4584
389.9418, 640.3433
390.4239, 639.9776
390.9060, 639.2517
391.3882, 638.4554
391.8703, 637.8582
392.3524, 637.5466
392.8345, 637.3589
393.3166, 637.3702
393.7987, 637.4417
394.2809, 637.2973
394.7630, 636.4655
395.2451, 635.7235
395.7272, 635.4586
396.2093, 635.7812
396.6914, 636.0641
397.1736, 635.7784
397.6557, 635.5828
398.1378, 636.0840
398.6199, 638.9298
399.1020, 640.6510
399.5841, 640.2961
400.0663, 638.2141
400.5484, 636.7598
401.0305, 636.3611
401.5126, 636.1315
401.9947, 635.6053
402.4768, 634.4873
402.9590, 633.8412
403.4411, 633.8716
403.9232, 634.2405
404.4053, 634.3529
404.8874, 634.1614
405.3695, 633.8839
405.8517, 633.5334
406.3338, 633.1360
406.8159, 633.0151
407.2980, 633.2350
407.7801, 633.5214
408.2622, 633.5950
408.7444, 633.4640
409.2265, 633.3339
409.7086, 633.2086
410.1907, 633.1326
410.6728, 633.3702
411.1549, 633.8633
411.6371, 634.0100
412.1192, 632.9193
412.6013, 631.2800
413.0834, 630.8148
413.5655, 631.7854
414.0476, 632.8993
414.5298, 632.9959
415.0119, 632.3131
415.4940, 631.3239
415.9761, 629.7496
416.4582, 628.3112
416.9403, 627.9125
417.4225, 628.3745
417.9046, 628.5948
418.3867, 627.6942
418.8688, 626.4274
419.3509, 625.4160
419.8330, 624.7950
420.3152, 624.4088
420.7973, 624.6286
421.2794, 624.9955
421.7615, 624.6760
422.2436, 622.3895
422.7257, 620.3974
423.2079, 619.6260
423.6900, 620.3060
424.1721, 620.7326
424.6542, 620.4733
425.1363, 620.0992
425.6184, 620.0313
426.1006, 620.5471
426.5827, 620.9305
427.0648, 621.1154
427.5469, 621.1180
428.0290, 620.9408
428.5111, 620.3478
428.9933, 620.0107
429.4754, 620.3204
429.9575, 621.3943
430.4396, 622.1844
430.9217, 622.6364
431.4038, 622.9122
431.8860, 623.2084
432.3681, 623.5297
432.8502, 623.7816
433.3323, 623.9261
433.8144, 624.0087
434.2965, 624.0182
434.7787, 623.9697
435.2608, 624.2721
435.7429, 625.5973
436.2250, 627.4886
436.7071, 628.6504
437.1892, 628.7757
437.6714, 628.8782
438.1535, 630.1232
438.6356, 632.1700
439.1177, 634.2582
439.5998, 636.1100
440.0819, 637.8098
440.5641, 639.4601
441.0462, 641.0391
441.5283, 642.3897
442.0104, 643.1454
442.4925, 643.7617
442.9746, 644.6369
443.4568, 646.0945
443.9389, 647.3705
444.4210, 648.4068
444.9031, 649.0803
445.3852, 649.1600
445.8673, 648.4773
446.3495, 647.3151
446.8316, 645.7772
447.3137, 643.8884
447.7958, 641.4100
448.2779, 637.6810
448.7600, 633.9601
449.2422, 631.2571
449.7243, 630.2102
450.2064, 628.7976
450.6885, 626.6084
451.1706, 624.0433
451.6527, 622.3013
452.1349, 621.5550
452.6170, 620.9539
453.0991, 620.0150
453.5812, 618.7592
454.0633, 618.3524
454.5454, 618.9669
455.0276, 619.5439
455.5097, 618.6490
455.9918, 616.5599
456.4739, 614.9862
456.9560, 614.3893
457.4381, 614.3771
457.9203, 614.4561
458.4024, 614.6083
458.8845, 614.7511
459.3666, 614.9523
459.8488, 615.0643
460.3309, 614.7901
460.8130, 614.0690
461.2951, 613.4847
461.7772, 613.7858
462.2593, 614.3472
462.7415, 614.4254
463.2236, 613.0646
463.7057, 611.9096
464.1878, 611.9527
464.6699, 612.8116
465.1520, 613.1311
465.6342, 611.9161
466.1163, 610.6242
466.5984, 609.8505
467.0805, 609.7101
467.5626, 609.9304
468.0447, 610.7796
468.5269, 611.8094
469.0090, 612.5771
469.4911, 612.9806
469.9732, 613.2961
470.4553, 613.5336
470.9374, 613.7116
471.4196, 613.9424
471.9017, 614.2548
472.3838, 614.5026
472.8659, 614.5038
473.3480, 614.2532
473.8301, 614.4180
474.3123, 615.0922
474.7944, 615.8290
475.2765, 615.9875
475.7586, 615.6849
476.2407, 615.5521
476.7228, 615.8392
477.2050, 616.3318
477.6871, 616.7708
478.1692, 617.1497
478.6513, 617.4079
479.1334, 617.3195
479.6155, 617.2007
480.0977, 617.4999
480.5798, 618.3497
481.0619, 619.0397
481.5440, 618.8320
482.0261, 618.3434
482.5082, 618.2864
482.9904, 619.2602
483.4725, 620.2940
483.9546, 621.1147
484.4367, 621.7566
484.9188, 622.3681
485.4009, 622.9163
485.8831, 623.4776
486.3652, 624.0769
486.8473, 624.6935
487.3294, 625.3616
487.8115, 626.1107
488.2936, 626.8624
488.7758, 627.5776
489.2579, 628.3167
489.7400, 628.7618
490.2221, 628.7293
490.7042, 628.4437
491.1863, 628.6650
491.6685, 629.4484
492.1506, 630.1991
492.6327, 630.5189
493.1148, 630.5214
493.5969, 630.6633
494.0790, 630.9606
494.5612, 631.4380
495.0433, 632.2808
495.5254, 633.3245
496.0075, 634.2191
496.4896, 634.8394
496.9717, 635.3245
497.4539, 635.6660
497.9360, 635.9564
498.4181, 636.4172
498.9002, 637.3619
499.3823, 638.3464
499.8644, 639.0406
500.3466, 639.3932
500.8287, 639.8291
501.3108, 640.3801
501.7929, 641.1014
502.2750, 642.0298
502.7571, 643.4382
503.2393, 644.7062
503.7214, 645.7953
504.2035, 646.7191
504.6856, 647.4683
505.1677, 647.7342
505.6498, 648.4167
506.1320, 649.9860
506.6141, 652.4026
507.0962, 654.0556
507.5783, 654.7887
508.0604, 655.3184
508.5425, 656.2490
509.0247, 657.5530
509.5068, 658.7844
509.9889, 659.8916
510.4710, 660.9437
510.9531, 661.9739
511.4352, 663.0174
511.9174, 664.1987
512.3995, 665.7666
512.8816, 667.3640
513.3637, 668.4283
513.8458, 669.0685
514.3279, 669.9692
514.8101, 671.7575
515.2922, 673.8161
515.7743, 675.6202
516.2564, 676.9892
516.7385, 678.4265
517.2206, 680.2037
517.7028, 682.0803
518.1849, 683.7759
518.6670, 684.8220
519.1491, 686.1853
519.6312, 688.2029
520.1133, 690.6839
520.5955, 692.8992
521.0776, 694.8134
521.5597, 696.5161
522.0418, 697.9904
522.5239, 699.2187
523.0060, 700.6736
523.4882, 702.4803
523.9703, 704.2302
524.4524, 705.4874
524.9345, 706.2682
525.4166, 706.8751
525.8987, 707.3764
526.3809, 707.7037
526.8630, 707.6069
527.3451, 707.1908
527.8272, 706.9124
528.3093, 707.0357
528.7914, 707.3726
529.2736, 707.8383
529.7557, 708.3958
530.2378, 708.6907
530.7199, 708.3871
531.2020, 707.8048
531.6841, 707.2301
532.1663, 706.8115
532.6484, 706.1683
533.1305, 704.9993
533.6126, 703.6103
534.0947, 702.4156
534.5768, 701.3566
535.0590, 700.6602
535.5411, 700.6008
536.0232, 701.0192
536.5053, 700.8314
536.9874, 699.7166
537.4695, 698.7523
537.9517, 698.6060
538.4338, 699.3341
538.9159, 699.7797
539.3980, 699.9307
539.8801, 699.8460
540.3622, 699.2402
540.8444, 698.3431
541.3265, 698.2728
541.8086, 699.4064
542.2907, 701.1866
542.7728, 703.0701
543.2549, 705.0341
543.7371, 706.9725
544.2192, 708.7912
544.7013, 710.5906
545.1834, 712.5310
545.6655, 714.6111
546.1476, 716.5099
546.6298, 717.4928
547.1119, 718.6736
547.5940, 720.8895
548.0761, 725.0150
548.5582, 728.6325
549.0403, 731.1835
549.5225, 733.3568
550.0046, 735.9031
550.4867, 738.8221
550.9688, 742.1388
551.4509, 745.9811
551.9330, 750.1991
552.4152, 754.2324
552.8973, 758.1186
553.3794, 761.6664
553.8615, 764.4178
554.3436, 766.6345
554.8257, 769.8718
555.3079, 774.1340
555.7900, 778.7985
556.2721, 783.5539
556.7542, 788.2156
557.2363, 792.3582
557.7184, 795.7861
558.2006, 799.0087
558.6827, 802.6219
559.1648, 806.2647
559.6469, 809.4006
560.1290, 811.7945
560.6111, 813.6509
561.0933, 815.0228
561.5754, 815.9184
562.0575, 816.2976
562.5396, 816.4183
563.0217, 815.7601
563.5038, 814.1320
563.9860, 811.4958
564.4681, 807.8669
564.9502, 802.8429
565.4323, 797.4544
565.9144, 792.7768
566.3965, 788.8382
566.8787, 784.9821
567.3608, 781.1430
567.8429, 777.3619
568.3250, 773.9625
568.8071, 770.8411
569.2892, 767.5446
569.7714, 763.4691
570.2535, 759.3987
570.7356, 756.6591
571.2177, 755.0346
571.6998, 753.5026
572.1819, 751.2823
572.6641, 748.9728
573.1462, 747.1321
573.6283, 745.9351
574.1104, 744.4724
574.5925, 742.2818
575.0746, 739.7816
575.5568, 737.3034
576.0389, 734.7387
576.5210, 732.4737
577.0031, 730.7126
577.4852, 729.1667
577.9673, 727.1924
578.4495, 724.6263
578.9316, 722.0779
579.4137, 719.5287
579.8958, 717.2010
580.3779, 716.3391
580.8600, 717.0306
581.3422, 717.2422
581.8243, 715.0350
582.3064, 711.4072
582.7885, 708.6168
583.2706, 706.8287
583.7527, 705.6695
584.2349, 705.3110
584.7170, 705.1883
585.1991, 704.5585
