##NAMES=Helvine
##RRUFFID=R060059
##IDEAL CHEMISTRY=Mn^2+^_4_(BeSiO_4_)_3_S^2-^
##LOCALITY=Schwarzenberg, Saxony, Germany
##OWNER=RRUFF
##SOURCE=University of Arizona Mineral Museum
##DESCRIPTION=Yellow-tan colored tetrahedra
##STATUS=The identification of this mineral has been confirmed by X-ray diffraction and chemical analysis
##URL=rruff.info/R060059
##MEASURED CHEMISTRY=(Mn^2+^_2.93_Fe^2+^_0.48_Zn_0.35_Ca_0.15_Fe^3+^_0.09_)_Σ=4_Be_3.00_((Si_0.97_Al_0.03_)_Σ=1_O_4_)_3_S_1.00_; BeO assumed by stoichiometry
108.5634, 52.68317
109.0455, 53.73121
109.5276, 54.75321
110.0098, 55.59827
110.4919, 56.25036
110.9740, 56.66370
111.4561, 56.73680
111.9382, 56.79382
112.4203, 56.96031
112.9025, 57.23822
113.3846, 57.66311
113.8667, 58.31617
114.3488, 59.11622
114.8309, 59.95757
115.3130, 60.86399
115.7952, 61.76116
116.2773, 62.54369
116.7594, 63.16625
117.2415, 63.76261
117.7236, 64.34555
118.2057, 64.94673
118.6879, 65.59122
119.1700, 66.27652
119.6521, 67.01850
120.1342, 67.91955
120.6163, 69.19669
121.0984, 70.42673
121.5805, 71.44332
122.0627, 72.31901
122.5448, 73.23199
123.0269, 74.36072
123.5090, 75.77617
123.9911, 76.94064
124.4732, 77.49450
124.9554, 78.14289
125.4375, 79.22531
125.9196, 80.78225
126.4017, 82.69065
126.8838, 84.87669
127.3659, 87.51144
127.8481, 89.83757
128.3302, 91.91467
128.8123, 93.64819
129.2944, 95.15694
129.7765, 96.59620
130.2586, 97.26218
130.7408, 95.74943
131.2229, 92.18033
131.7050, 87.99624
132.1871, 83.37920
132.6692, 78.50407
133.1513, 73.96309
133.6335, 69.84479
134.1156, 66.29490
134.5977, 63.26952
135.0798, 60.75853
135.5619, 58.83074
136.0440, 57.62880
136.5262, 57.20538
137.0083, 57.13058
137.4904, 57.84572
137.9725, 58.56312
138.4546, 58.73132
138.9367, 58.17780
139.4189, 57.16637
139.9010, 56.17109
140.3831, 55.23041
140.8652, 54.24208
141.3473, 53.20252
141.8294, 52.11765
142.3116, 50.97216
142.7937, 49.74767
143.2758, 48.49922
143.7579, 47.43061
144.2400, 46.51115
144.7221, 45.83508
145.2043, 45.48743
145.6864, 45.39029
146.1685, 45.43600
146.6506, 45.56785
147.1327, 45.77963
147.6148, 45.97418
148.0969, 46.02660
148.5791, 46.17885
149.0612, 46.50844
149.5433, 47.02364
150.0254, 47.75332
150.5075, 48.79333
150.9896, 50.11154
151.4718, 51.22448
151.9539, 51.95816
152.4360, 52.58454
152.9181, 53.30999
153.4002, 54.13024
153.8823, 55.14421
154.3645, 56.67141
154.8466, 58.48014
155.3287, 60.02879
155.8108, 60.98206
156.2929, 61.56990
156.7750, 62.38578
157.2572, 63.70477
157.7393, 64.77287
158.2214, 65.17021
158.7035, 65.02065
159.1856, 64.58008
159.6677, 63.87349
160.1499, 62.92853
160.6320, 62.21151
161.1141, 61.82125
161.5962, 61.60294
162.0783, 61.54232
162.5604, 61.60830
163.0426, 61.73422
163.5247, 61.83580
164.0068, 61.86985
164.4889, 62.11343
164.9710, 62.72808
165.4531, 63.40068
165.9353, 63.93931
166.4174, 64.35963
166.8995, 64.85204
167.3816, 65.65887
167.8637, 66.93429
168.3458, 68.15397
168.8279, 69.35299
169.3101, 70.48087
169.7922, 71.43841
170.2743, 72.22200
170.7564, 72.98344
171.2385, 73.97697
171.7206, 75.38123
172.2028, 76.59321
172.6849, 77.40482
173.1670, 78.07755
173.6491, 79.00462
174.1312, 80.35331
174.6133, 81.72121
175.0955, 82.42024
175.5776, 82.54872
176.0597, 82.09094
176.5418, 81.16489
177.0239, 79.64870
177.5060, 77.16860
177.9882, 73.39445
178.4703, 68.88564
178.9524, 64.33513
179.4345, 59.71737
179.9166, 55.24786
180.3987, 50.93113
180.8809, 46.79788
181.3630, 43.26247
181.8451, 40.57998
182.3272, 38.49819
182.8093, 36.79546
183.2914, 35.47047
183.7736, 34.37806
184.2557, 33.42893
184.7378, 32.64205
185.2199, 31.85806
185.7020, 30.91976
186.1841, 30.05498
186.6663, 29.41262
187.1484, 29.02287
187.6305, 28.80418
188.1126, 28.66729
188.5947, 28.65746
189.0768, 28.61197
189.5589, 28.54840
190.0411, 28.42659
190.5232, 28.15659
191.0053, 27.72576
191.4874, 27.28016
191.9695, 27.12102
192.4516, 27.57356
192.9338, 27.77670
193.4159, 27.48652
193.8980, 27.06147
194.3801, 26.83523
194.8622, 26.92803
195.3443, 27.20236
195.8265, 27.34014
196.3086, 27.16729
196.7907, 27.05003
197.2728, 27.07314
197.7549, 27.12631
198.2370, 27.08195
198.7192, 26.88638
199.2013, 26.57743
199.6834, 26.24949
200.1655, 25.78418
200.6476, 25.46536
201.1297, 25.43303
201.6119, 25.56330
202.0940, 25.67405
202.5761, 25.69752
203.0582, 25.63378
203.5403, 25.46588
204.0224, 25.16225
204.5046, 24.84838
204.9867, 24.50177
205.4688, 24.17216
205.9509, 24.02051
206.4330, 24.18587
206.9151, 24.47976
207.3973, 24.50647
207.8794, 24.15913
208.3615, 23.85340
208.8436, 23.90506
209.3257, 24.24550
209.8078, 24.46493
210.2899, 24.32734
210.7721, 24.06381
211.2542, 23.99614
211.7363, 24.17236
212.2184, 24.39118
212.7005, 24.47392
213.1826, 24.41993
213.6648, 24.40767
214.1469, 24.54258
214.6290, 24.70811
215.1111, 24.79125
215.5932, 24.77047
216.0753, 24.74446
216.5575, 24.81691
217.0396, 24.99673
217.5217, 25.21319
218.0038, 25.55831
218.4859, 25.86831
218.9680, 26.00728
219.4502, 25.95167
219.9323, 25.83624
220.4144, 25.84384
220.8965, 26.02422
221.3786, 26.16228
221.8607, 26.09891
222.3429, 26.07299
222.8250, 26.28341
223.3071, 26.75881
223.7892, 27.31746
224.2713, 27.70385
224.7534, 27.90129
225.2356, 27.94404
225.7177, 27.54005
226.1998, 27.20488
226.6819, 27.41153
227.1640, 28.21244
227.6461, 29.17196
228.1283, 29.56673
228.6104, 28.89526
229.0925, 28.61305
229.5746, 28.95530
230.0567, 29.46239
230.5388, 29.81015
231.0210, 29.92376
231.5031, 29.94432
231.9852, 30.08364
232.4673, 30.40447
232.9494, 30.73374
233.4315, 31.06858
233.9137, 31.41154
234.3958, 31.77946
234.8779, 32.17052
235.3600, 32.55516
235.8421, 32.90043
236.3242, 33.24032
236.8064, 33.42330
237.2885, 33.48620
237.7706, 33.37817
238.2527, 32.96356
238.7348, 32.23597
239.2169, 31.46761
239.6991, 31.03131
240.1812, 31.07293
240.6633, 30.92801
241.1454, 30.38018
241.6275, 29.74576
242.1096, 29.34806
242.5918, 29.24542
243.0739, 29.20883
243.5560, 28.95329
244.0381, 28.44758
244.5202, 28.10204
245.0023, 28.18451
245.4845, 28.32491
245.9666, 28.07167
246.4487, 27.34585
246.9308, 26.54141
247.4129, 26.02478
247.8950, 25.77508
248.3772, 25.62690
248.8593, 25.73016
249.3414, 25.83858
249.8235, 25.58537
250.3056, 24.89886
250.7877, 24.22969
251.2698, 24.01219
251.7520, 24.12990
252.2341, 24.23572
252.7162, 24.26086
253.1983, 24.23738
253.6804, 24.19266
254.1625, 24.12149
254.6447, 24.06320
255.1268, 24.06784
255.6089, 24.10205
256.0910, 24.10324
256.5731, 24.01036
257.0552, 23.90827
257.5374, 23.93305
258.0195, 24.11216
258.5016, 24.27825
258.9837, 24.24712
259.4658, 24.17350
259.9479, 24.26720
260.4301, 24.65797
260.9122, 25.13412
261.3943, 25.39307
261.8764, 25.39126
262.3585, 25.38324
262.8406, 25.39984
263.3228, 25.49982
263.8049, 25.80395
264.2870, 26.40310
264.7691, 27.02353
265.2512, 27.19722
265.7333, 26.77990
266.2155, 26.62314
266.6976, 27.37733
267.1797, 28.29590
267.6618, 28.79148
268.1439, 28.71017
268.6260, 28.46607
269.1082, 28.58963
269.5903, 29.16145
270.0724, 29.68146
270.5545, 30.06713
271.0366, 30.34949
271.5187, 30.47281
272.0009, 30.44673
272.4830, 30.45049
272.9651, 30.71577
273.4472, 31.29626
273.9293, 31.83255
274.4114, 32.28016
274.8936, 32.67772
275.3757, 33.00046
275.8578, 33.26749
276.3399, 33.57140
276.8220, 34.04590
277.3041, 34.72950
277.7863, 35.28616
278.2684, 35.57550
278.7505, 35.84315
279.2326, 36.21914
279.7147, 36.66504
280.1968, 37.03811
280.6789, 37.18312
281.1610, 37.09096
281.6432, 37.10078
282.1253, 37.25570
282.6074, 37.48526
283.0895, 37.81275
283.5716, 38.20060
284.0537, 38.58536
284.5359, 38.93450
285.0180, 39.24188
285.5001, 39.43655
285.9822, 39.48647
286.4643, 39.44094
286.9464, 39.24413
287.4286, 38.97294
287.9107, 38.74803
288.3928, 38.64508
288.8749, 38.62382
289.3570, 38.50570
289.8391, 38.22858
290.3213, 37.92424
290.8034, 37.64067
291.2855, 37.33303
291.7676, 36.92121
292.2497, 36.36765
292.7318, 35.75511
293.2140, 35.30304
293.6961, 35.13242
294.1782, 34.94086
294.6603, 34.71110
295.1424, 34.44790
295.6245, 34.11858
296.1067, 33.72418
296.5888, 33.35448
297.0709, 33.19469
297.5530, 33.49995
298.0351, 33.51559
298.5172, 33.00116
298.9994, 32.40907
299.4815, 32.03719
299.9636, 31.93770
300.4457, 31.97637
300.9278, 32.00259
301.4099, 32.04362
301.8921, 31.97438
302.3742, 31.74716
302.8563, 31.47062
303.3384, 31.17958
303.8205, 30.88646
304.3026, 30.60564
304.7848, 30.35470
305.2669, 30.13715
305.7490, 29.89013
306.2311, 29.65683
306.7132, 29.35367
307.1953, 28.89109
307.6775, 28.33274
308.1596, 27.82352
308.6417, 27.47317
309.1238, 27.25980
309.6059, 26.95030
310.0880, 26.48522
310.5702, 25.98211
311.0523, 25.41632
311.5344, 24.83668
312.0165, 24.27548
312.4986, 23.74402
312.9807, 23.29286
313.4629, 23.08315
313.9450, 23.46144
314.4271, 23.64050
314.9092, 23.49368
315.3913, 23.16750
315.8734, 22.74883
316.3556, 22.28085
316.8377, 21.85588
317.3198, 21.65205
317.8019, 21.84030
318.2840, 21.95038
318.7661, 21.98352
319.2483, 21.94990
319.7304, 21.80203
320.2125, 21.56326
320.6946, 21.36287
321.1767, 21.37136
321.6588, 21.67517
322.1409, 21.84478
322.6230, 21.89987
323.1052, 21.83024
323.5873, 21.52262
324.0694, 21.06248
324.5515, 20.68729
325.0336, 20.60183
325.5157, 20.80633
325.9979, 20.96136
326.4800, 21.08744
326.9621, 21.14085
327.4442, 21.07181
327.9263, 20.92617
328.4084, 20.77551
328.8906, 20.66062
329.3727, 20.57268
329.8548, 20.47565
330.3369, 20.33421
330.8190, 20.23201
331.3011, 20.24937
331.7833, 20.27624
332.2654, 20.15258
332.7475, 19.82982
333.2296, 19.46721
333.7117, 19.38257
334.1938, 19.77994
334.6760, 20.07264
335.1581, 20.21510
335.6402, 20.28890
336.1223, 20.36174
336.6044, 20.43599
337.0865, 20.44984
337.5687, 20.29535
338.0508, 19.88806
338.5329, 19.72789
339.0150, 20.14314
339.4971, 20.48698
339.9792, 20.42133
340.4614, 20.05344
340.9435, 19.70809
341.4256, 19.63794
341.9077, 19.82026
342.3898, 19.97291
342.8719, 20.03955
343.3541, 20.14389
343.8362, 20.40301
344.3183, 20.68940
344.8004, 20.80933
345.2825, 20.65957
345.7646, 20.35532
346.2468, 20.19956
346.7289, 20.27920
347.2110, 20.35145
347.6931, 20.31968
348.1752, 20.30584
348.6573, 20.46337
349.1395, 20.81089
349.6216, 21.15557
350.1037, 21.21898
350.5858, 20.92266
351.0679, 20.65192
351.5500, 20.29392
352.0322, 20.07949
352.5143, 20.21647
352.9964, 20.63080
353.4785, 21.04042
353.9606, 21.20926
354.4427, 21.14729
354.9249, 21.07034
355.4070, 20.94495
355.8891, 20.84986
356.3712, 20.78558
356.8533, 20.77121
357.3354, 20.84438
357.8176, 21.03938
358.2997, 21.30584
358.7818, 21.52255
359.2639, 21.68499
359.7460, 21.81037
360.2281, 21.94930
360.7103, 22.03202
361.1924, 21.95745
361.6745, 21.69671
362.1566, 21.41268
362.6387, 21.34529
363.1208, 21.52471
363.6029, 21.55536
364.0851, 21.20405
364.5672, 20.83864
365.0493, 20.74150
365.5314, 20.87541
366.0135, 20.96819
366.4956, 20.77912
366.9778, 20.37749
367.4599, 20.08551
367.9420, 19.95275
368.4241, 19.85745
368.9062, 19.73045
369.3883, 19.58946
369.8705, 19.46833
370.3526, 19.40141
370.8347, 19.33852
371.3168, 19.18940
371.7989, 18.94095
372.2810, 18.71012
372.7632, 18.52375
373.2453, 18.39699
373.7274, 18.37082
374.2095, 18.47651
374.6916, 18.56172
375.1737, 18.48459
375.6559, 18.27915
376.1380, 18.10919
376.6201, 18.00631
377.1022, 17.95907
377.5843, 17.97560
378.0664, 18.04729
378.5486, 18.09584
379.0307, 18.06802
379.5128, 18.00959
379.9949, 18.00631
380.4770, 18.07331
380.9591, 18.10732
381.4413, 18.02242
381.9234, 17.83953
382.4055, 17.65242
382.8876, 17.41565
383.3697, 17.22374
383.8518, 17.15186
384.3340, 17.18254
384.8161, 17.25137
385.2982, 17.34046
385.7803, 17.43824
386.2624, 17.53762
386.7445, 17.69579
387.2267, 17.70867
387.7088, 17.34547
388.1909, 16.87380
388.6730, 16.68778
389.1551, 16.87175
389.6372, 17.17140
390.1194, 17.31259
390.6015, 17.26029
391.0836, 17.26851
391.5657, 17.42390
392.0478, 17.56351
392.5299, 17.57466
393.0121, 17.47820
393.4942, 17.35147
393.9763, 17.22816
394.4584, 17.12856
394.9405, 17.16581
395.4226, 17.57719
395.9048, 17.82151
396.3869, 17.73278
396.8690, 17.46691
397.3511, 17.17165
397.8332, 16.90424
398.3153, 16.70762
398.7975, 16.66339
399.2796, 16.87171
399.7617, 16.97416
400.2438, 16.82740
400.7259, 16.71444
401.2080, 16.87324
401.6902, 17.23204
402.1723, 17.50830
402.6544, 17.46021
403.1365, 17.12212
403.6186, 16.92274
404.1007, 16.98630
404.5828, 17.05040
405.0649, 17.09629
405.5471, 17.10654
406.0292, 17.03796
406.5113, 16.87453
406.9934, 16.70331
407.4755, 16.69461
407.9576, 16.92639
408.4398, 17.08401
408.9219, 17.13432
409.4040, 17.10619
409.8861, 16.94535
410.3682, 16.69347
410.8503, 16.51101
411.3325, 16.56946
411.8146, 16.82829
412.2967, 16.97593
412.7788, 16.97931
413.2609, 16.92229
413.7430, 16.78396
414.2252, 16.63179
414.7073, 16.57921
415.1894, 16.69904
415.6715, 16.84463
416.1536, 16.78076
416.6357, 16.49244
417.1179, 16.30454
417.6000, 16.37336
418.0821, 16.52399
418.5642, 16.57500
419.0463, 16.52385
419.5284, 16.47765
420.0106, 16.51594
420.4927, 16.59621
420.9748, 16.61196
421.4569, 16.53800
421.9390, 16.47236
422.4211, 16.48658
422.9033, 16.56950
423.3854, 16.68422
423.8675, 16.88156
424.3496, 17.05661
424.8317, 17.14574
425.3138, 17.15409
425.7960, 17.07704
426.2781, 16.88343
426.7602, 16.66135
427.2423, 16.57659
427.7244, 16.61052
428.2065, 16.79572
428.6887, 17.32591
429.1708, 17.90231
429.6529, 18.23014
430.1350, 18.27250
430.6171, 18.12974
431.0992, 17.83650
431.5814, 17.38992
432.0635, 17.26608
432.5456, 17.76082
433.0277, 18.17804
433.5098, 18.25478
433.9919, 18.11970
434.4741, 17.97491
434.9562, 17.90590
435.4383, 17.90487
435.9204, 17.96315
436.4025, 18.14487
436.8846, 18.26494
437.3668, 18.25233
437.8489, 18.24582
438.3310, 18.32383
438.8131, 18.48950
439.2952, 18.70812
439.7773, 18.95363
440.2595, 19.22645
440.7416, 19.53974
441.2237, 19.97838
441.7058, 20.32743
442.1879, 20.52166
442.6700, 20.61137
443.1522, 20.62721
443.6343, 20.57579
444.1164, 20.53696
444.5985, 20.68195
445.0806, 21.04145
445.5627, 21.15762
446.0448, 20.84021
446.5269, 20.38650
447.0091, 19.99031
447.4912, 19.63489
447.9733, 19.23463
448.4554, 18.67804
448.9375, 18.07531
449.4196, 17.62669
449.9018, 17.33957
450.3839, 17.13355
450.8660, 17.00995
451.3481, 16.92552
451.8302, 16.80389
452.3123, 16.63588
452.7945, 16.44920
453.2766, 16.22634
453.7587, 16.00040
454.2408, 15.84290
454.7229, 15.77274
455.2050, 15.74261
455.6872, 15.71919
456.1693, 15.70219
456.6514, 15.63356
457.1335, 15.41829
457.6156, 15.23907
458.0977, 15.21924
458.5799, 15.32090
459.0620, 15.44851
459.5441, 15.55951
460.0262, 15.64867
460.5083, 15.70008
460.9904, 15.67996
461.4726, 15.67215
461.9547, 15.74807
462.4368, 15.78390
462.9189, 15.62290
463.4010, 15.30382
463.8831, 15.04788
464.3653, 15.06829
464.8474, 15.33966
465.3295, 15.44542
465.8116, 15.26514
466.2937, 15.06325
466.7758, 14.83846
467.2580, 14.64726
467.7401, 14.56684
468.2222, 14.61990
468.7043, 14.71435
469.1864, 14.69238
469.6685, 14.53235
470.1507, 14.56059
470.6328, 15.03140
471.1149, 15.42804
471.5970, 15.40839
472.0791, 15.09095
472.5612, 14.79101
473.0434, 14.63862
473.5255, 14.58276
474.0076, 14.55575
474.4897, 14.55765
474.9718, 14.59214
475.4539, 14.70045
475.9361, 14.80398
476.4182, 14.76385
476.9003, 14.55212
477.3824, 14.40606
477.8645, 14.46560
478.3466, 14.61956
478.8288, 14.72112
479.3109, 14.75400
479.7930, 14.76210
480.2751, 14.77326
480.7572, 14.78817
481.2393, 14.81207
481.7215, 14.87199
482.2036, 14.90753
482.6857, 14.89761
483.1678, 14.85531
483.6499, 14.77739
484.1320, 14.66891
484.6142, 14.58672
485.0963, 14.61286
485.5784, 14.77874
486.0605, 14.90540
486.5426, 15.00957
487.0247, 15.06192
487.5068, 15.00535
487.9890, 14.89727
488.4711, 14.84502
488.9532, 14.90644
489.4353, 15.01267
489.9174, 14.99444
490.3995, 14.78044
490.8817, 14.68939
491.3638, 14.93249
491.8459, 15.18480
492.3280, 15.24750
492.8101, 15.14428
493.2922, 15.04326
493.7744, 15.07733
494.2565, 15.17299
494.7386, 15.14232
495.2207, 14.96035
495.7028, 14.81413
496.1849, 14.81659
496.6671, 14.88831
497.1492, 14.88740
497.6313, 14.78050
498.1134, 14.72535
498.5955, 14.87212
499.0776, 15.09124
499.5598, 15.14976
500.0419, 15.01367
500.5240, 14.86246
501.0061, 14.85487
501.4882, 14.97479
501.9703, 14.99909
502.4525, 14.79391
502.9346, 14.66134
503.4167, 14.77578
503.8988, 14.98629
504.3809, 15.06848
504.8630, 14.96224
505.3452, 14.80617
505.8273, 14.78946
506.3094, 14.94833
506.7915, 15.05641
507.2736, 15.02521
507.7557, 15.03771
508.2379, 15.21692
508.7200, 15.46511
509.2021, 15.61160
509.6842, 15.57550
510.1663, 15.46055
510.6484, 15.43975
511.1306, 15.52397
511.6127, 15.63233
512.0948, 15.81065
512.5769, 15.94721
513.0590, 15.92243
513.5411, 15.78633
514.0233, 15.71906
514.5054, 15.86565
514.9875, 16.07756
515.4696, 16.10487
515.9517, 15.96202
516.4338, 15.94482
516.9160, 16.22219
517.3981, 16.62133
517.8802, 16.84160
518.3623, 16.85971
518.8444, 16.89136
519.3265, 17.01546
519.8087, 17.15100
520.2908, 17.18718
520.7729, 17.14779
521.2550, 17.19588
521.7371, 17.45680
522.2192, 17.85095
522.7014, 18.06028
523.1835, 17.84128
523.6656, 17.75421
524.1477, 17.91678
524.6298, 18.14466
525.1119, 18.30947
525.5941, 18.39241
526.0762, 18.42729
526.5583, 18.43803
527.0404, 18.42716
527.5225, 18.41215
528.0046, 18.39301
528.4868, 18.36948
528.9689, 18.33205
529.4510, 18.29603
529.9331, 18.26868
530.4152, 18.25176
530.8973, 18.26671
531.3795, 18.33851
531.8616, 18.45496
532.3437, 18.60681
532.8258, 18.81557
533.3079, 18.93578
533.7900, 18.80395
534.2722, 18.52191
534.7543, 18.41603
535.2364, 18.60411
535.7185, 18.77364
536.2006, 18.77388
536.6827, 18.68625
537.1649, 18.62308
537.6470, 18.60771
538.1291, 18.61806
538.6112, 18.64216
539.0933, 18.68106
539.5754, 18.64679
540.0576, 18.51030
540.5397, 18.34006
541.0218, 18.06159
541.5039, 17.79843
541.9860, 17.72273
542.4681, 17.86464
542.9503, 18.06057
543.4324, 18.11430
543.9145, 18.02017
544.3966, 17.94871
544.8787, 17.91352
545.3608, 17.88094
545.8430, 17.77545
546.3251, 17.68441
546.8072, 17.76235
547.2892, 18.08857
547.7714, 18.40798
548.2535, 18.42010
548.7356, 18.23576
549.2177, 18.26885
549.6998, 18.62722
550.1819, 19.03536
550.6641, 19.27607
551.1462, 19.35588
551.6283, 19.41909
552.1104, 19.49426
552.5925, 19.52126
553.0746, 19.38233
553.5568, 19.21254
554.0389, 19.19327
554.5210, 19.37684
555.0031, 19.76276
555.4852, 20.40764
555.9673, 21.36720
556.4495, 21.92414
556.9316, 21.70249
557.4137, 21.48848
557.8958, 21.39497
558.3779, 21.43160
558.8600, 21.63286
559.3422, 22.00108
559.8243, 22.40823
560.3064, 22.73746
560.7885, 22.98725
561.2706, 23.07560
561.7527, 22.87559
562.2349, 22.76621
562.7170, 23.15268
563.1991, 23.74184
563.6812, 24.04934
564.1633, 23.89676
564.6454, 23.69028
565.1276, 23.72270
565.6097, 23.86798
566.0918, 23.89088
566.5739, 23.74695
567.0560, 23.47858
567.5381, 23.09970
568.0203, 22.61714
568.5024, 22.17958
568.9845, 21.75631
569.4666, 21.40812
569.9487, 21.19235
570.4308, 21.03033
570.9130, 20.87083
571.3951, 20.68485
571.8772, 20.40853
572.3593, 19.92743
572.8414, 19.26870
573.3235, 18.88647
573.8057, 18.93061
574.2878, 18.98841
574.7699, 18.91912
575.2520, 18.80285
575.7341, 18.73752
576.2162, 18.74021
576.6984, 18.68254
577.1805, 18.43892
577.6626, 18.08238
578.1447, 17.71424
578.6268, 17.33511
579.1089, 17.13976
579.5911, 17.31096
580.0732, 17.70666
580.5553, 17.91445
581.0374, 17.93466
581.5195, 17.80581
582.0016, 17.33379
582.4838, 16.85565
582.9659, 16.77037
583.4480, 17.01183
583.9301, 17.15404
584.4122, 16.88512
584.8943, 16.33822
585.3765, 15.99834
585.8586, 15.91991
586.3407, 15.94470
586.8228, 16.21405
587.3049, 16.44175
587.7870, 16.42414
588.2692, 16.19287
588.7513, 15.92226
589.2334, 15.67118
589.7155, 15.47514
590.1976, 15.40279
590.6797, 15.45244
591.1619, 15.58579
591.6440, 15.87595
592.1261, 16.10730
592.6082, 15.91343
593.0903, 15.29650
593.5724, 14.81602
594.0546, 14.53034
594.5367, 14.41545
595.0188, 14.52671
595.5009, 14.78699
595.9830, 15.07445
596.4651, 15.34062
596.9473, 15.52149
597.4294, 15.49846
597.9115, 15.21227
598.3936, 15.01231
598.8757, 14.98558
599.3578, 14.95814
599.8400, 14.88797
600.3221, 14.78336
600.8042, 14.64605
601.2863, 14.47385
601.7684, 14.31936
602.2505, 14.22269
