##NAMES=Helvine
##RRUFFID=R060059
##IDEAL CHEMISTRY=Mn^2+^_4_(BeSiO_4_)_3_S^2-^
##LOCALITY=Schwarzenberg, Saxony, Germany
##OWNER=RRUFF
##SOURCE=University of Arizona Mineral Museum
##DESCRIPTION=Yellow-tan colored tetrahedra
##STATUS=The identification of this mineral has been confirmed by X-ray diffraction and chemical analysis
##URL=rruff.info/R060059
##MEASURED CHEMISTRY=(Mn^2+^_2.93_Fe^2+^_0.48_Zn_0.35_Ca_0.15_Fe^3+^_0.09_)_Σ=4_Be_3.00_((Si_0.97_Al_0.03_)_Σ=1_O_4_)_3_S_1.00_; BeO assumed by stoichiometry
111.1827, 39.78355
111.6648, 42.50323
112.1469, 45.50391
112.6290, 49.10081
113.1111, 52.94093
113.5933, 56.44224
114.0754, 59.06056
114.5575, 61.62885
115.0396, 64.54768
115.5217, 68.46770
116.0038, 71.96207
116.4859, 74.64596
116.9681, 76.61929
117.4502, 78.23918
117.9323, 79.01987
118.4144, 79.80977
118.8965, 81.23518
119.3786, 84.05155
119.8608, 86.99616
120.3429, 89.27091
120.8250, 90.98708
121.3071, 93.02799
121.7892, 95.93560
122.2713, 99.44613
122.7535, 103.2433
123.2356, 107.5050
123.7177, 111.8213
124.1998, 115.6398
124.6819, 118.9822
125.1640, 122.6273
125.6462, 127.0002
126.1283, 132.1690
126.6104, 138.2766
127.0925, 145.1096
127.5746, 153.0403
128.0567, 162.7951
128.5389, 174.6229
129.0210, 187.3353
129.5031, 201.1794
129.9852, 215.3813
130.4673, 226.0957
130.9494, 231.5275
131.4316, 231.7742
131.9137, 225.9886
132.3958, 213.4190
132.8779, 197.6365
133.3600, 180.9592
133.8421, 163.5449
134.3243, 147.4977
134.8064, 133.7402
135.2885, 122.3467
135.7706, 113.6210
136.2527, 107.6991
136.7348, 104.2168
137.2169, 102.6631
137.6991, 103.2116
138.1812, 104.6205
138.6633, 106.4205
139.1454, 108.8359
139.6275, 109.9280
140.1096, 109.3261
140.5918, 107.1795
141.0739, 104.0745
141.5560, 99.69774
142.0381, 95.03318
142.5202, 90.85543
143.0023, 87.28401
143.4845, 83.92426
143.9666, 80.66468
144.4487, 77.46685
144.9308, 74.85475
145.4129, 72.77119
145.8951, 71.28398
146.3772, 70.49068
146.8593, 70.91101
147.3414, 71.18102
147.8235, 70.86546
148.3056, 69.70464
148.7878, 69.24718
149.2699, 69.72777
149.7520, 70.80299
150.2341, 72.00660
150.7162, 73.43666
151.1983, 74.91058
151.6805, 76.35088
152.1626, 77.58147
152.6447, 79.19003
153.1268, 81.40141
153.6089, 83.97150
154.0910, 86.47979
154.5732, 88.73023
155.0553, 91.08100
155.5374, 93.61638
156.0195, 96.28654
156.5016, 99.23883
156.9837, 102.9532
157.4659, 106.9495
157.9480, 110.2274
158.4301, 112.8447
158.9122, 114.4888
159.3943, 114.8743
159.8764, 113.2436
160.3586, 111.5611
160.8407, 110.5345
161.3228, 109.8810
161.8049, 108.8121
162.2870, 106.4762
162.7691, 103.9922
163.2512, 102.0564
163.7334, 100.7398
164.2155, 100.0969
164.6976, 100.4502
165.1797, 101.5957
165.6618, 102.7396
166.1439, 103.0617
166.6261, 103.4140
167.1082, 104.5536
167.5903, 107.2505
168.0724, 110.1981
168.5545, 112.6090
169.0366, 114.5618
169.5188, 116.5389
170.0009, 118.7775
170.4830, 121.2026
170.9651, 123.7957
171.4472, 126.7273
171.9293, 129.6774
172.4115, 132.1065
172.8936, 134.0970
173.3757, 136.6474
173.8578, 140.8096
174.3399, 145.9106
174.8220, 150.9785
175.3042, 155.9849
175.7863, 160.5844
176.2684, 165.0385
176.7505, 169.3237
177.2326, 171.7456
177.7147, 171.0929
178.1969, 167.4969
178.6790, 161.2375
179.1611, 151.2013
179.6432, 139.0432
180.1253, 126.8445
180.6074, 114.6795
181.0896, 103.0069
181.5717, 91.75343
182.0538, 81.33019
182.5359, 72.62757
183.0180, 66.91556
183.5001, 63.17742
183.9823, 59.42698
184.4644, 55.62656
184.9465, 52.21461
185.4286, 49.89510
185.9107, 48.51426
186.3928, 47.38963
186.8750, 46.20725
187.3571, 45.04403
187.8392, 44.12017
188.3213, 43.45431
188.8034, 42.99206
189.2855, 42.78175
189.7677, 42.79401
190.2498, 42.71347
190.7319, 42.35143
191.2140, 41.75674
191.6961, 41.10928
192.1782, 40.34781
192.6603, 39.73853
193.1425, 39.80039
193.6246, 40.52721
194.1067, 41.30068
194.5888, 41.89185
195.0709, 42.29230
195.5530, 42.37898
196.0352, 42.04732
196.5173, 41.62403
196.9994, 41.75777
197.4815, 42.50002
197.9636, 43.14003
198.4457, 43.32253
198.9279, 43.04192
199.4100, 42.65572
199.8921, 42.17215
200.3742, 41.58699
200.8563, 40.88885
201.3384, 40.06610
201.8206, 39.15956
202.3027, 38.19273
202.7848, 37.16421
203.2669, 35.98344
203.7490, 34.52588
204.2311, 33.05307
204.7133, 32.11363
205.1954, 31.76433
205.6775, 31.71175
206.1596, 31.97086
206.6417, 32.65813
207.1238, 32.77868
207.6060, 32.11707
208.0881, 31.05697
208.5702, 30.45940
209.0523, 30.43397
209.5344, 30.53256
210.0165, 30.51413
210.4987, 30.31605
210.9808, 30.31683
211.4629, 30.59386
211.9450, 31.02133
212.4271, 31.33606
212.9092, 31.56488
213.3914, 31.61461
213.8735, 31.33263
214.3556, 30.51792
214.8377, 30.18659
215.3198, 30.52597
215.8019, 31.26954
216.2841, 31.73461
216.7662, 31.78763
217.2483, 31.85942
217.7304, 32.16790
218.2125, 32.78352
218.6946, 33.39615
219.1767, 33.97829
219.6589, 34.56211
220.1410, 35.29842
220.6231, 36.34209
221.1052, 37.25232
221.5873, 37.79408
222.0694, 37.77865
222.5516, 37.91897
223.0337, 38.28585
223.5158, 38.78410
223.9979, 39.21119
224.4800, 39.57211
224.9621, 39.84595
225.4443, 39.97179
225.9264, 39.76873
226.4085, 39.89054
226.8906, 40.42413
227.3727, 41.24661
227.8548, 42.11786
228.3370, 43.08351
228.8191, 44.00938
229.3012, 44.84104
229.7833, 45.52602
230.2654, 46.22402
230.7475, 46.86378
231.2297, 47.54066
231.7118, 48.49043
232.1939, 49.84668
232.6760, 51.25626
233.1581, 52.59392
233.6402, 53.81654
234.1224, 55.05459
234.6045, 56.30674
235.0866, 57.58931
235.5687, 58.90699
236.0508, 60.17174
236.5329, 61.62805
237.0151, 63.53712
237.4972, 66.46270
237.9793, 68.14360
238.4614, 68.35944
238.9435, 67.43996
239.4256, 65.96227
239.9078, 63.68633
240.3899, 61.26335
240.8720, 58.82480
241.3541, 56.19534
241.8362, 54.19434
242.3183, 53.02938
242.8005, 52.36606
243.2826, 51.64435
243.7647, 50.96337
244.2468, 50.07171
244.7289, 48.81829
245.2110, 47.04827
245.6931, 45.56339
246.1753, 44.47868
246.6574, 43.60424
247.1395, 42.65031
247.6216, 41.61087
248.1037, 40.51665
248.5858, 39.34269
249.0680, 38.06092
249.5501, 36.90866
250.0322, 35.89763
250.5143, 35.00607
250.9964, 34.20047
251.4785, 33.45244
251.9607, 32.83760
252.4428, 32.34608
252.9249, 31.96518
253.4070, 31.88424
253.8891, 32.28804
254.3712, 32.81942
254.8534, 33.03765
255.3355, 32.79367
255.8176, 32.53582
256.2997, 32.35738
256.7818, 32.26241
257.2639, 32.19729
257.7461, 32.17668
258.2282, 32.16937
258.7103, 32.14104
259.1924, 32.07935
259.6745, 32.00920
260.1566, 31.84614
260.6388, 31.60076
261.1209, 31.88844
261.6030, 33.01397
262.0851, 34.25242
262.5672, 34.88171
263.0493, 34.65509
263.5315, 34.50043
264.0136, 34.59393
264.4957, 34.90649
264.9778, 35.16950
265.4599, 35.33595
265.9420, 35.53142
266.4242, 35.83826
266.9063, 36.24703
267.3884, 36.82797
267.8705, 37.66553
268.3526, 38.68157
268.8347, 39.46008
269.3169, 39.87719
269.7990, 40.31104
270.2811, 41.07635
270.7632, 42.27861
271.2453, 43.32811
271.7274, 44.13902
272.2096, 44.76922
272.6917, 45.45490
273.1738, 46.22853
273.6559, 46.98151
274.1380, 47.61526
274.6201, 48.09813
275.1023, 48.68655
275.5844, 49.37432
276.0665, 50.19543
276.5486, 51.33898
277.0307, 52.88777
277.5128, 54.39541
277.9950, 55.56531
278.4771, 56.36028
278.9592, 57.37890
279.4413, 58.75135
279.9234, 60.21934
280.4055, 61.21160
280.8877, 61.66298
281.3698, 62.17118
281.8519, 63.05738
282.3340, 64.31863
282.8161, 65.52487
283.2982, 66.70277
283.7804, 67.76250
284.2625, 68.50481
284.7446, 68.92381
285.2267, 69.30580
285.7088, 69.66387
286.1909, 70.04482
286.6730, 70.90959
287.1552, 72.36928
287.6373, 73.86136
288.1194, 74.70415
288.6015, 74.92632
289.0836, 74.89275
289.5657, 74.67690
290.0479, 74.30275
290.5300, 73.81977
291.0121, 73.22225
291.4942, 72.61200
291.9763, 72.19040
292.4584, 71.89731
292.9406, 71.31805
293.4227, 70.23636
293.9048, 68.88730
294.3869, 67.77266
294.8690, 66.88824
295.3511, 66.13844
295.8333, 65.54819
296.3154, 65.04189
296.7975, 64.29626
297.2796, 63.11362
297.7617, 61.86890
298.2438, 61.23414
298.7260, 61.15480
299.2081, 61.15248
299.6902, 60.91263
300.1723, 60.51697
300.6544, 60.09408
301.1365, 59.62726
301.6187, 59.25172
302.1008, 59.27193
302.5829, 59.57233
303.0650, 59.71733
303.5471, 59.47610
304.0292, 58.91666
304.5114, 58.01689
304.9935, 56.68216
305.4756, 55.46791
305.9577, 55.01531
306.4398, 55.07825
306.9219, 55.08170
307.4041, 54.86994
307.8862, 54.39992
308.3683, 53.62416
308.8504, 52.54639
309.3325, 51.16354
309.8146, 49.09995
310.2968, 46.81771
310.7789, 44.97701
311.2610, 44.19352
311.7431, 43.71798
312.2252, 43.07888
312.7073, 42.27231
313.1895, 41.32900
313.6716, 40.14416
314.1537, 38.87855
314.6358, 37.70895
315.1179, 36.63273
315.6000, 35.72389
316.0822, 35.05173
316.5643, 34.59017
317.0464, 34.23194
317.5285, 34.00509
318.0106, 33.81894
318.4927, 33.61796
318.9749, 33.42151
319.4570, 33.15063
319.9391, 32.65446
320.4212, 32.05905
320.9033, 31.64759
321.3854, 31.73357
321.8676, 31.84677
322.3497, 31.72423
322.8318, 31.20880
323.3139, 30.83211
323.7960, 30.82387
324.2781, 30.99551
324.7603, 31.07418
325.2424, 30.84321
325.7245, 30.67504
326.2066, 30.75716
326.6887, 31.17997
327.1708, 31.34173
327.6530, 30.97784
328.1351, 30.43070
328.6172, 30.01165
329.0993, 29.70718
329.5814, 29.56189
330.0635, 29.65149
330.5457, 29.96597
331.0278, 30.17806
331.5099, 30.18267
331.9920, 30.17154
332.4741, 30.28421
332.9562, 30.75686
333.4384, 30.94654
333.9205, 30.68032
334.4026, 30.09816
334.8847, 29.70710
335.3668, 29.56660
335.8489, 29.52934
336.3311, 29.54527
336.8132, 29.66021
337.2953, 29.68433
337.7774, 29.56850
338.2595, 29.39972
338.7416, 29.37058
339.2238, 29.55288
339.7059, 29.65576
340.1880, 29.50866
340.6701, 29.09487
341.1522, 28.97798
341.6343, 29.25229
342.1164, 29.61714
342.5985, 29.70942
343.0807, 29.50435
343.5628, 29.24629
344.0449, 28.90589
344.5270, 28.57564
345.0091, 28.75623
345.4912, 29.52479
345.9734, 30.27076
346.4555, 30.35454
346.9376, 29.86724
347.4197, 29.63914
347.9018, 29.90009
348.3839, 30.37988
348.8661, 30.53952
349.3482, 30.40331
349.8303, 30.31606
350.3124, 30.58283
350.7945, 31.06143
351.2766, 31.35479
351.7588, 31.39644
352.2409, 31.38109
352.7230, 31.56799
353.2051, 31.89196
353.6872, 32.16428
354.1693, 32.23333
354.6515, 32.22428
355.1336, 32.26064
355.6157, 32.34572
356.0978, 32.56348
356.5799, 33.17667
357.0620, 33.92405
357.5442, 34.40714
358.0263, 34.22535
358.5084, 33.97979
358.9905, 34.19334
359.4726, 34.77719
359.9547, 35.26766
360.4369, 35.32370
360.9190, 35.21867
361.4011, 35.16503
361.8832, 35.18252
362.3653, 35.30492
362.8474, 35.74355
363.3296, 36.29497
363.8117, 36.53319
364.2938, 35.90531
364.7759, 35.25871
365.2580, 35.09938
365.7401, 35.67413
366.2223, 35.86321
366.7044, 35.17246
367.1865, 34.06269
367.6686, 33.04171
368.1507, 32.18286
368.6328, 31.43066
369.1150, 30.74978
369.5971, 30.13852
370.0792, 29.72733
370.5613, 29.73240
371.0434, 29.77858
371.5255, 29.63353
372.0077, 29.10630
372.4898, 28.68335
372.9719, 28.41695
373.4540, 28.26363
373.9361, 28.06828
374.4182, 27.73268
374.9004, 27.52250
375.3825, 27.62775
375.8646, 28.20584
376.3467, 28.37674
376.8288, 27.99933
377.3109, 27.39315
377.7931, 27.01424
378.2752, 26.90408
378.7573, 26.83080
379.2394, 26.74398
379.7215, 26.63891
380.2036, 26.44288
380.6858, 26.13301
381.1679, 25.85690
381.6500, 25.75743
382.1321, 25.82523
382.6142, 25.96373
383.0963, 26.18212
383.5785, 26.42537
384.0606, 26.58251
384.5427, 26.65770
385.0248, 26.72795
385.5069, 26.93048
385.9890, 27.15474
386.4712, 27.07588
386.9533, 26.62518
387.4354, 26.13666
387.9175, 26.04731
388.3996, 26.20327
388.8817, 26.25808
389.3639, 25.88239
389.8460, 25.44294
390.3281, 25.32613
390.8102, 25.51810
391.2923, 25.78094
391.7744, 26.01960
392.2566, 26.22536
392.7387, 26.39505
393.2208, 26.53726
393.7029, 26.62838
394.1850, 26.65278
394.6671, 26.61694
395.1493, 26.53909
395.6314, 26.23035
396.1135, 26.03416
396.5956, 26.24846
397.0777, 27.11573
397.5598, 27.56681
398.0419, 26.89443
398.5240, 25.84847
399.0062, 25.29149
399.4883, 25.72339
399.9704, 26.24885
400.4525, 26.80110
400.9346, 27.37332
401.4167, 27.60896
401.8989, 27.32821
402.3810, 26.87198
402.8631, 26.40794
403.3452, 25.76790
403.8273, 25.46957
404.3094, 25.66959
404.7916, 26.16312
405.2737, 26.48221
405.7558, 26.58501
406.2379, 26.62051
406.7200, 26.67648
407.2021, 26.76295
407.6843, 26.54325
408.1664, 25.88754
408.6485, 25.26148
409.1306, 25.34871
409.6127, 26.15203
410.0948, 26.64519
410.5770, 26.43876
411.0591, 25.87334
411.5412, 25.95692
412.0233, 26.67783
412.5054, 27.28687
412.9875, 27.14653
413.4697, 26.49920
413.9518, 25.91300
414.4339, 25.42626
414.9160, 25.15009
415.3981, 25.36078
415.8802, 25.89471
416.3624, 26.34750
416.8445, 26.57318
417.3266, 26.60352
417.8087, 26.35218
418.2908, 25.84503
418.7729, 25.47523
419.2551, 25.61613
419.7372, 25.96246
420.2193, 26.21469
420.7014, 26.29416
421.1835, 26.27131
421.6656, 26.08907
422.1478, 25.82317
422.6299, 25.65231
423.1120, 25.76712
423.5941, 25.87538
424.0762, 25.82913
424.5583, 25.57126
425.0405, 25.36292
425.5226, 25.18080
426.0047, 25.08701
426.4868, 25.14721
426.9689, 25.49440
427.4510, 25.81613
427.9332, 26.07710
428.4153, 26.28047
428.8974, 26.43797
429.3795, 26.52932
429.8616, 26.60489
430.3438, 26.64953
430.8259, 26.59132
431.3080, 26.86601
431.7901, 27.65987
432.2722, 28.52366
432.7543, 28.67380
433.2365, 28.02450
433.7186, 27.52625
434.2007, 27.52728
434.6828, 27.90691
435.1649, 28.23351
435.6470, 28.50720
436.1292, 28.72478
436.6113, 28.85275
437.0934, 28.91899
437.5755, 28.98903
438.0576, 29.04280
438.5397, 29.18651
439.0219, 29.60562
439.5040, 30.23406
439.9861, 30.86443
440.4682, 31.50100
440.9503, 32.03133
441.4324, 32.25072
441.9146, 32.15778
442.3967, 32.16842
442.8788, 32.66856
443.3609, 33.34516
443.8430, 33.85847
444.3251, 33.95481
444.8073, 34.11013
445.2894, 34.63988
445.7715, 35.36532
446.2536, 35.82299
446.7357, 36.03482
447.2178, 35.84080
447.7000, 35.07247
448.1821, 33.52123
448.6642, 32.17480
449.1463, 31.12539
449.6284, 30.24727
450.1105, 29.41710
450.5927, 28.62513
451.0747, 27.88793
451.5569, 27.14981
452.0390, 26.47005
452.5211, 26.12497
453.0032, 26.26605
453.4853, 26.34200
453.9674, 25.98403
454.4496, 25.15166
454.9317, 24.64650
455.4138, 24.53938
455.8959, 24.58136
456.3780, 24.40165
456.8601, 24.04093
457.3423, 23.90237
457.8244, 24.21058
458.3065, 24.71986
458.7886, 24.95206
459.2707, 24.93086
459.7528, 24.83895
460.2350, 24.76612
460.7171, 24.71031
461.1992, 24.66889
461.6813, 24.64271
462.1634, 24.62445
462.6455, 24.63218
463.1277, 24.63884
463.6098, 24.60349
464.0919, 24.51397
464.5740, 24.37587
465.0561, 24.15523
465.5382, 23.87089
466.0204, 23.63416
466.5025, 23.38106
466.9846, 23.25363
467.4667, 23.38526
467.9488, 24.09520
468.4309, 24.41883
468.9131, 23.95834
469.3952, 23.21127
469.8773, 22.83204
470.3594, 23.11304
470.8415, 23.28176
471.3236, 23.10661
471.8058, 22.65394
472.2879, 22.53339
472.7700, 22.86270
473.2521, 23.23344
473.7342, 23.34451
474.2163, 23.17266
474.6985, 23.15548
475.1806, 23.34616
475.6627, 23.62223
476.1448, 23.87549
476.6269, 24.09027
477.1090, 24.11909
477.5912, 23.79503
478.0733, 23.32799
478.5554, 23.10820
479.0375, 23.11989
479.5196, 23.21708
480.0017, 23.37272
480.4839, 23.52262
480.9660, 23.55173
481.4481, 23.39965
481.9302, 23.30536
482.4123, 23.58992
482.8944, 23.99812
483.3766, 24.15465
483.8587, 23.47418
484.3408, 22.96384
484.8229, 23.19271
485.3050, 24.06091
485.7871, 24.65218
486.2693, 24.84757
486.7514, 24.68266
487.2335, 24.05025
487.7156, 22.32670
488.1977, 21.58426
488.6798, 22.41445
489.1620, 23.82733
489.6441, 24.49250
490.1262, 24.12779
490.6083, 23.74346
491.0904, 23.51480
491.5725, 23.43688
492.0547, 23.54818
492.5368, 23.89481
493.0189, 24.16866
493.5010, 24.05013
493.9831, 23.62957
494.4652, 23.59370
494.9474, 24.03328
495.4295, 24.56046
495.9116, 24.74434
496.3937, 24.66091
496.8758, 24.50290
497.3579, 24.23800
497.8401, 24.03430
498.3222, 24.14506
498.8043, 24.49254
499.2864, 24.78584
499.7685, 24.79515
500.2506, 24.73888
500.7328, 24.75575
501.2149, 24.85610
501.6970, 25.06278
502.1791, 25.61692
502.6612, 26.16956
503.1433, 26.39123
503.6255, 25.90937
504.1076, 25.47060
504.5897, 25.09913
505.0718, 24.82969
505.5539, 24.78378
506.0360, 25.15011
506.5181, 25.45472
507.0002, 25.48183
507.4824, 25.20366
507.9645, 25.17668
508.4466, 25.49020
508.9287, 25.84589
509.4108, 25.90316
509.8929, 25.66592
510.3751, 25.61728
510.8572, 25.85579
511.3393, 26.25976
511.8214, 26.68264
512.3035, 27.11109
512.7856, 27.47557
513.2678, 27.78399
513.7499, 27.98808
514.2320, 27.90205
514.7141, 27.56189
515.1962, 27.38745
515.6783, 27.79600
516.1605, 28.43058
516.6426, 28.96689
517.1247, 29.35294
517.6068, 29.60798
518.0889, 29.64090
518.5710, 29.57435
519.0532, 29.58400
519.5353, 29.75080
520.0174, 29.94889
520.4995, 30.10516
520.9816, 30.24220
521.4637, 30.57561
521.9459, 31.24984
522.4280, 31.93408
522.9101, 32.48624
523.3922, 32.92059
523.8743, 33.13065
524.3564, 33.02540
524.8386, 32.88012
525.3207, 33.07056
525.8028, 33.59303
526.2849, 34.08569
526.7670, 34.48535
527.2491, 34.78074
527.7313, 34.86223
528.2134, 34.77357
528.6955, 34.76789
529.1776, 35.04667
529.6597, 35.46497
530.1418, 35.90298
530.6240, 36.34430
531.1061, 36.61709
531.5882, 36.43814
532.0703, 36.11595
532.5524, 35.95553
533.0345, 36.13209
533.5167, 36.28958
533.9988, 36.27856
534.4809, 36.17864
534.9630, 36.12572
535.4451, 36.28773
535.9272, 36.33295
536.4094, 36.15813
536.8915, 35.78159
537.3736, 35.42778
537.8557, 35.05772
538.3378, 34.76971
538.8199, 34.67937
539.3021, 34.84615
539.7842, 34.72585
540.2663, 34.25016
540.7484, 33.65976
541.2305, 33.27457
541.7126, 33.06120
542.1948, 32.74380
542.6769, 32.15527
543.1590, 31.58530
543.6411, 31.61067
544.1232, 32.08429
544.6053, 32.45394
545.0875, 32.30187
545.5696, 31.98521
546.0517, 31.81404
546.5338, 31.80190
547.0159, 31.87482
547.4980, 31.99637
547.9802, 32.19061
548.4623, 32.47962
548.9444, 32.89833
549.4265, 33.35632
549.9086, 33.93627
550.3907, 34.51503
550.8729, 34.89792
551.3550, 34.80639
551.8371, 35.00736
552.3192, 35.80017
552.8013, 37.01664
553.2834, 37.65484
553.7656, 37.51901
554.2477, 37.52595
554.7298, 38.36497
555.2119, 39.91808
555.6940, 40.90973
556.1761, 41.29507
556.6583, 41.46246
557.1404, 41.66079
557.6225, 41.94676
558.1046, 42.45911
558.5867, 43.26183
559.0688, 44.22672
559.5510, 45.48600
560.0331, 46.80099
560.5152, 47.72510
560.9973, 47.51630
561.4794, 47.38569
561.9615, 48.07924
562.4437, 49.50159
562.9258, 50.66190
563.4079, 51.18912
563.8900, 51.55807
564.3721, 51.99821
564.8542, 52.57449
565.3364, 53.03769
565.8185, 53.45928
566.3006, 53.67225
566.7827, 53.49360
567.2648, 52.90502
567.7469, 52.01817
568.2291, 50.76026
568.7112, 49.34156
569.1933, 48.19350
569.6754, 47.29103
570.1575, 46.30431
570.6396, 44.96095
571.1218, 43.50542
571.6039, 42.32035
572.0860, 41.40308
572.5681, 40.64988
573.0502, 40.11635
573.5323, 39.65564
574.0145, 39.06527
574.4966, 38.25148
574.9787, 37.67036
575.4608, 37.68836
575.9429, 37.93688
576.4250, 38.05679
576.9072, 37.83961
577.3893, 37.68809
577.8714, 37.72966
578.3535, 37.83125
578.8356, 37.67332
579.3177, 37.16456
579.7999, 36.61205
580.2820, 36.03538
580.7641, 35.48214
581.2462, 35.35596
581.7283, 35.70934
582.2104, 35.98675
582.6926, 35.79961
583.1747, 35.22552
583.6568, 34.35311
584.1389, 33.13396
584.6210, 32.12652
585.1031, 32.10643
585.5853, 32.55535
586.0674, 32.70348
586.5495, 32.12574
587.0316, 31.56190
587.5137, 31.50443
587.9958, 31.70545
588.4779, 31.68417
588.9600, 31.08037
589.4421, 30.48915
589.9243, 30.12129
590.4064, 29.94093
590.8885, 29.57741
591.3706, 28.79747
591.8527, 28.20746
592.3348, 28.20325
592.8170, 28.87118
593.2991, 29.14067
593.7812, 28.95392
594.2633, 28.59578
594.7454, 28.26473
595.2275, 27.99073
595.7097, 27.98459
596.1918, 28.37436
596.6739, 28.76317
597.1560, 28.59738
597.6381, 28.07806
598.1202, 27.63560
598.6024, 27.50429
599.0845, 27.44938
599.5666, 27.31429
600.0487, 27.13350
600.5308, 27.04389
601.0129, 27.25048
601.4951, 27.40731
601.9772, 27.30487
602.4593, 26.89085
602.9414, 26.71746
603.4235, 26.95721
603.9056, 27.21862
604.3878, 27.21963
604.8699, 26.91513
