##NAMES=Helvine
##RRUFFID=R060621
##IDEAL CHEMISTRY=Mn^2+^_4_(BeSiO_4_)_3_S^2-^
##LOCALITY=Foote mine, Kings Mountain District, Cleveland County, North Carolina, USA
##OWNER=RRUFF
##SOURCE=Michael Scott
##DESCRIPTION=Yellowish-brown tetrahedra
##STATUS=The identification of this mineral is confirmed by single-crystal X-ray diffraction and chemical analysis.
##URL=rruff.info/R060621
##MEASURED CHEMISTRY=(Mn^2+^_3.72_Zn_0.18_Fe^3+^_0.08_Ca_0.02_)_Σ=4_Be_3.00_((Si_0.97_Al_0.03_)_Σ=1_O_4_)_3_S_1.00_; BeO assumed by stoichiometry
93.36774, 2001.935
93.84985, 1984.081
94.33197, 1941.998
94.81409, 1903.186
95.29620, 1861.533
95.77832, 1822.922
96.26044, 1788.268
96.74255, 1757.756
97.22467, 1731.454
97.70679, 1709.306
98.18890, 1689.693
98.67102, 1672.461
99.15314, 1656.476
99.63525, 1640.438
100.1174, 1623.617
100.5995, 1606.611
101.0816, 1591.747
101.5637, 1579.346
102.0458, 1568.579
102.5280, 1559.033
103.0101, 1550.621
103.4922, 1543.226
103.9743, 1536.709
104.4564, 1531.019
104.9385, 1527.880
105.4207, 1529.001
105.9028, 1530.352
106.3849, 1530.184
106.8670, 1528.291
107.3491, 1524.720
107.8312, 1518.361
108.3134, 1509.509
108.7955, 1503.638
109.2776, 1503.233
109.7597, 1505.637
110.2418, 1507.180
110.7239, 1507.333
111.2061, 1506.604
111.6882, 1504.780
112.1703, 1502.205
112.6524, 1500.702
113.1345, 1501.996
113.6166, 1505.888
114.0988, 1508.932
114.5809, 1509.474
115.0630, 1510.065
115.5451, 1511.765
116.0272, 1514.737
116.5093, 1518.880
116.9915, 1524.252
117.4736, 1531.289
117.9557, 1538.370
118.4378, 1544.054
118.9199, 1550.421
119.4020, 1558.884
119.8842, 1569.912
120.3663, 1583.025
120.8484, 1597.264
121.3305, 1613.117
121.8126, 1629.684
122.2947, 1646.421
122.7769, 1663.902
123.2590, 1682.182
123.7411, 1701.102
124.2232, 1721.548
124.7053, 1748.919
125.1874, 1781.314
125.6696, 1820.173
126.1517, 1867.875
126.6338, 1923.186
127.1159, 1983.854
127.5980, 2054.531
128.0801, 2126.953
128.5623, 2179.220
129.0444, 2216.818
129.5265, 2229.653
130.0086, 2202.803
130.4907, 2131.487
130.9728, 2044.181
131.4550, 1947.651
131.9371, 1848.266
132.4192, 1755.666
132.9013, 1671.852
133.3834, 1597.757
133.8655, 1536.486
134.3477, 1490.565
134.8298, 1455.969
135.3119, 1431.338
135.7940, 1415.137
136.2761, 1405.119
136.7582, 1400.551
137.2404, 1401.581
137.7225, 1403.052
138.2046, 1409.230
138.6867, 1412.011
139.1688, 1408.477
139.6509, 1398.888
140.1331, 1385.165
140.6152, 1368.798
141.0973, 1349.064
141.5794, 1329.410
142.0615, 1308.234
142.5436, 1288.201
143.0258, 1270.476
143.5079, 1255.434
143.9900, 1243.083
144.4721, 1233.604
144.9542, 1227.901
145.4363, 1223.422
145.9185, 1220.705
146.4006, 1218.920
146.8827, 1216.918
147.3648, 1214.243
147.8469, 1211.839
148.3290, 1211.492
148.8112, 1213.078
149.2933, 1215.488
149.7754, 1218.257
150.2575, 1221.519
150.7396, 1225.713
151.2217, 1230.882
151.7039, 1237.277
152.1860, 1244.449
152.6681, 1252.295
153.1502, 1261.832
153.6323, 1274.690
154.1144, 1290.947
154.5966, 1306.783
155.0787, 1322.243
155.5608, 1336.015
156.0429, 1347.529
156.5250, 1356.766
157.0071, 1362.545
157.4893, 1362.793
157.9714, 1356.058
158.4535, 1347.336
158.9356, 1336.260
159.4177, 1324.521
159.8998, 1313.036
160.3820, 1302.214
160.8641, 1292.486
161.3462, 1284.953
161.8283, 1280.286
162.3104, 1277.294
162.7925, 1275.671
163.2747, 1275.554
163.7568, 1277.196
164.2389, 1280.730
164.7210, 1285.949
165.2031, 1292.055
165.6852, 1300.154
166.1674, 1307.927
166.6495, 1314.738
167.1316, 1321.016
167.6137, 1327.298
168.0958, 1333.808
168.5779, 1340.723
169.0601, 1349.220
169.5422, 1357.707
170.0243, 1368.844
170.5064, 1383.630
170.9885, 1401.973
171.4706, 1423.478
171.9528, 1447.891
172.4349, 1475.794
172.9170, 1506.971
173.3991, 1543.890
173.8812, 1582.190
174.3633, 1621.875
174.8455, 1663.219
175.3276, 1697.032
175.8097, 1721.321
176.2918, 1732.586
176.7739, 1723.421
177.2560, 1687.174
177.7382, 1633.215
178.2203, 1571.526
178.7024, 1499.256
179.1845, 1429.385
179.6666, 1367.354
180.1487, 1312.345
180.6309, 1264.535
181.1130, 1224.177
181.5951, 1190.762
182.0772, 1162.689
182.5593, 1141.349
183.0414, 1123.978
183.5236, 1109.597
184.0057, 1097.727
184.4878, 1087.869
184.9699, 1079.965
185.4520, 1073.763
185.9341, 1067.642
186.4163, 1061.077
186.8984, 1055.267
187.3805, 1050.375
187.8626, 1046.379
188.3447, 1043.249
188.8268, 1040.988
189.3090, 1039.588
189.7911, 1038.503
190.2732, 1038.070
190.7553, 1037.618
191.2374, 1036.988
191.7195, 1036.198
192.2017, 1035.310
192.6838, 1034.359
193.1659, 1033.332
193.6480, 1032.461
194.1301, 1030.960
194.6122, 1030.284
195.0944, 1031.829
195.5765, 1035.002
196.0586, 1037.743
196.5407, 1038.356
197.0228, 1036.685
197.5049, 1034.797
197.9871, 1032.624
198.4692, 1030.300
198.9513, 1027.991
199.4334, 1025.677
199.9155, 1023.040
200.3976, 1019.643
200.8798, 1015.572
201.3619, 1012.089
201.8440, 1009.493
202.3261, 1007.356
202.8082, 1005.466
203.2903, 1003.834
203.7725, 1002.090
204.2546, 999.8217
204.7367, 997.2228
205.2188, 994.8481
205.7009, 992.6451
206.1830, 990.7818
206.6652, 989.6483
207.1473, 989.4314
207.6294, 989.2383
208.1115, 988.1447
208.5936, 986.6975
209.0757, 985.8026
209.5579, 986.1735
210.0400, 987.1480
210.5221, 987.2722
211.0042, 986.0954
211.4863, 985.0804
211.9685, 985.1012
212.4506, 985.6971
212.9327, 986.2387
213.4148, 986.4464
213.8969, 986.3834
214.3790, 986.2256
214.8612, 985.8915
215.3433, 985.5956
215.8254, 985.2537
216.3075, 985.0224
216.7896, 985.1718
217.2717, 985.9459
217.7539, 987.1473
218.2360, 987.8461
218.7181, 987.5115
219.2002, 987.3591
219.6823, 987.8682
220.1644, 988.6924
220.6466, 989.2781
221.1287, 989.2396
221.6108, 988.7705
222.0929, 988.9918
222.5750, 990.8093
223.0571, 992.3624
223.5393, 993.1382
224.0214, 993.4914
224.5035, 993.8981
224.9856, 994.6216
225.4677, 995.6722
225.9498, 997.1236
226.4320, 999.4314
226.9141, 1001.663
227.3962, 1003.242
227.8783, 1004.714
228.3604, 1007.026
228.8425, 1010.787
229.3247, 1015.695
229.8068, 1020.058
230.2889, 1023.324
230.7710, 1026.711
231.2531, 1030.298
231.7352, 1034.186
232.2174, 1038.604
232.6995, 1043.720
233.1816, 1049.359
233.6637, 1054.759
234.1458, 1060.541
234.6279, 1065.455
235.1101, 1069.724
235.5922, 1072.887
236.0743, 1073.889
236.5564, 1072.062
237.0385, 1067.987
237.5206, 1063.504
238.0028, 1058.745
238.4849, 1053.509
238.9670, 1047.361
239.4491, 1040.714
239.9312, 1034.338
240.4133, 1028.528
240.8955, 1023.363
241.3776, 1018.978
241.8597, 1015.511
242.3418, 1012.322
242.8239, 1009.347
243.3060, 1006.486
243.7882, 1003.332
244.2703, 999.5275
244.7524, 995.7138
245.2345, 993.1241
245.7166, 992.0576
246.1987, 990.6153
246.6809, 987.4359
247.1630, 983.0595
247.6451, 979.2905
248.1272, 976.8245
248.6093, 974.9309
249.0914, 972.6594
249.5736, 970.0106
250.0557, 967.5015
250.5378, 965.4753
251.0199, 963.8503
251.5020, 962.2652
251.9841, 960.5883
252.4663, 959.0320
252.9484, 957.7831
253.4305, 956.8177
253.9126, 955.8926
254.3947, 954.7197
254.8768, 953.4170
255.3590, 952.5746
255.8411, 952.3282
256.3232, 952.5046
256.8053, 953.0154
257.2874, 953.7986
257.7695, 954.6304
258.2516, 955.6516
258.7338, 956.7092
259.2159, 956.8121
259.6980, 955.1544
260.1801, 953.6735
260.6622, 953.4008
261.1443, 954.0511
261.6265, 955.0021
262.1086, 955.9818
262.5907, 956.9683
263.0728, 957.8072
263.5549, 958.2845
264.0370, 958.9541
264.5192, 960.0489
265.0013, 961.4474
265.4834, 962.9996
265.9655, 964.7389
266.4476, 966.5041
266.9297, 967.6156
267.4119, 967.2209
267.8940, 967.6072
268.3761, 969.7050
268.8582, 972.7670
269.3403, 975.8694
269.8224, 978.5292
270.3046, 981.0375
270.7867, 984.2348
271.2688, 988.5203
271.7509, 992.8258
272.2330, 996.8256
272.7151, 1000.778
273.1973, 1004.919
273.6794, 1009.342
274.1615, 1014.084
274.6436, 1019.221
275.1257, 1024.540
275.6078, 1030.774
276.0900, 1038.627
276.5721, 1046.859
277.0542, 1054.328
277.5363, 1060.742
278.0184, 1066.721
278.5005, 1073.334
278.9827, 1081.100
279.4648, 1088.327
279.9469, 1094.990
280.4290, 1101.163
280.9111, 1107.005
281.3932, 1112.476
281.8754, 1117.238
282.3575, 1120.914
282.8396, 1123.608
283.3217, 1124.773
283.8038, 1124.296
284.2859, 1122.642
284.7681, 1120.060
285.2502, 1116.550
285.7323, 1111.914
286.2144, 1105.825
286.6965, 1098.001
287.1786, 1090.233
287.6608, 1082.226
288.1429, 1074.500
288.6250, 1067.234
289.1071, 1060.439
289.5892, 1054.003
290.0714, 1047.756
290.5535, 1041.712
291.0356, 1036.616
291.5177, 1033.077
291.9998, 1029.867
292.4819, 1026.462
292.9641, 1023.153
293.4462, 1020.531
293.9283, 1018.978
294.4104, 1018.397
294.8925, 1018.049
295.3746, 1018.787
295.8568, 1018.788
296.3389, 1017.716
296.8210, 1015.762
297.3031, 1013.195
297.7852, 1010.137
298.2673, 1006.571
298.7495, 1002.487
299.2316, 996.9359
299.7137, 991.9914
300.1958, 987.7593
300.6779, 984.1249
301.1600, 981.0895
301.6422, 978.6124
302.1243, 976.4216
302.6064, 974.0001
303.0885, 970.7537
303.5706, 968.4036
304.0527, 967.7582
304.5349, 967.3945
305.0170, 966.2914
305.4991, 964.2611
305.9812, 961.7304
306.4633, 959.2388
306.9454, 956.9543
307.4276, 954.0783
307.9097, 950.3486
308.3918, 946.3993
308.8739, 942.5178
309.3560, 938.7359
309.8381, 934.9993
310.3203, 931.1928
310.8024, 927.3210
311.2845, 923.7367
311.7666, 919.8992
312.2487, 916.8385
312.7308, 915.5161
313.2130, 915.2470
313.6951, 914.5390
314.1772, 912.3774
314.6593, 909.0303
315.1414, 906.4402
315.6235, 905.0597
316.1057, 903.8918
316.5878, 902.9303
317.0699, 902.0411
317.5520, 901.0622
318.0341, 899.9214
318.5162, 898.6653
318.9984, 897.4245
319.4805, 896.0527
319.9626, 894.9114
320.4447, 894.1194
320.9268, 893.4967
321.4089, 892.9261
321.8911, 892.3615
322.3732, 891.7556
322.8553, 891.0094
323.3374, 889.9689
323.8195, 889.2078
324.3016, 888.8505
324.7838, 888.6398
325.2659, 888.4690
325.7480, 888.2988
326.2301, 888.1021
326.7122, 887.8572
327.1943, 887.5709
327.6765, 887.1463
328.1586, 886.2303
328.6407, 885.5322
329.1228, 885.4951
329.6049, 885.8880
330.0870, 886.1376
330.5692, 885.8234
331.0513, 885.0614
331.5334, 884.7615
332.0155, 885.7736
332.4976, 886.3030
332.9797, 885.6113
333.4619, 884.4494
333.9440, 883.8929
334.4261, 884.4274
334.9082, 885.4971
335.3904, 885.7537
335.8725, 884.5629
336.3546, 883.5174
336.8367, 882.6855
337.3188, 882.0099
337.8009, 881.4869
338.2831, 881.0979
338.7652, 880.7523
339.2473, 880.2364
339.7294, 879.1893
340.2115, 879.1541
340.6936, 881.2593
341.1758, 883.2336
341.6579, 883.7949
342.1400, 883.1354
342.6221, 882.2466
343.1042, 881.9244
343.5863, 882.1650
344.0685, 882.7185
344.5506, 883.8777
345.0327, 885.0670
345.5148, 886.2057
345.9969, 887.2814
346.4790, 888.3044
346.9612, 889.2932
347.4433, 890.2031
347.9254, 890.9042
348.4075, 891.2861
348.8896, 891.6111
349.3717, 891.6441
349.8539, 891.7902
350.3360, 892.3844
350.8181, 893.5326
351.3002, 895.1539
351.7823, 897.3000
352.2644, 900.3376
352.7466, 902.6893
353.2287, 903.8643
353.7108, 904.6961
354.1929, 905.5701
354.6750, 906.5067
355.1571, 907.3143
355.6393, 907.6484
356.1214, 907.5203
356.6035, 908.2286
357.0856, 910.3964
357.5677, 912.7161
358.0498, 914.9949
358.5320, 917.0551
359.0141, 918.6263
359.4962, 919.5184
359.9783, 919.8807
360.4604, 920.0832
360.9425, 920.1270
361.4247, 919.9895
361.9068, 919.5227
362.3889, 918.9562
362.8710, 918.5912
363.3531, 918.5225
363.8352, 918.3060
364.3174, 917.2951
364.7995, 915.3965
365.2816, 913.6215
365.7637, 912.3835
366.2458, 911.0915
366.7279, 909.4147
367.2101, 907.3455
367.6922, 904.9856
368.1743, 902.1508
368.6564, 899.0159
369.1385, 896.4760
369.6206, 894.7994
370.1028, 893.2311
370.5849, 891.0773
371.0670, 888.7347
371.5491, 886.9832
372.0312, 886.2746
372.5133, 886.0863
372.9955, 885.6566
373.4776, 884.9475
373.9597, 884.3884
374.4418, 884.3919
374.9239, 884.4957
375.4060, 884.0671
375.8882, 882.9418
376.3703, 881.7641
376.8524, 881.0240
377.3345, 880.6155
377.8166, 880.0771
378.2987, 879.2480
378.7809, 878.3682
379.2630, 877.6523
379.7451, 877.0863
380.2272, 876.7322
380.7093, 876.8386
381.1914, 877.0656
381.6736, 876.9885
382.1557, 876.5754
382.6378, 875.9023
383.1199, 874.9362
383.6020, 873.7375
384.0841, 872.6171
384.5663, 871.2862
385.0484, 870.3265
385.5305, 870.4645
386.0126, 871.3155
386.4947, 871.5546
386.9768, 870.4786
387.4590, 868.8187
387.9411, 868.2198
388.4232, 869.0128
388.9053, 869.6268
389.3874, 869.6445
389.8695, 869.3724
390.3517, 869.1693
390.8338, 869.0980
391.3159, 868.9900
391.7980, 868.6808
392.2801, 868.1512
392.7622, 867.4782
393.2444, 866.6148
393.7265, 865.6688
394.2086, 864.4550
394.6907, 863.1906
395.1728, 862.4456
395.6549, 862.6091
396.1371, 863.4092
396.6192, 863.7513
397.1013, 863.3141
397.5834, 862.7977
398.0655, 862.1598
398.5476, 861.5108
399.0298, 860.9705
399.5119, 860.5665
399.9940, 860.2147
400.4761, 859.7581
400.9582, 859.0267
401.4403, 858.8156
401.9225, 859.9091
402.4046, 860.7162
402.8867, 860.3704
403.3688, 859.1086
403.8509, 857.5888
404.3330, 856.1641
404.8152, 854.9386
405.2973, 854.5726
405.7794, 855.9517
406.2615, 856.8650
406.7436, 856.6240
407.2257, 855.9058
407.7079, 855.4088
408.1900, 855.3422
408.6721, 855.3796
409.1542, 855.0890
409.6363, 854.4368
410.1184, 853.6156
410.6006, 852.1687
411.0827, 851.0001
411.5648, 850.7934
412.0469, 851.3217
412.5290, 851.7631
413.0111, 851.5659
413.4933, 850.8873
413.9754, 850.2225
414.4575, 849.6029
414.9396, 848.9266
415.4217, 848.0262
415.9038, 847.0911
416.3860, 846.3366
416.8681, 845.8045
417.3502, 845.4686
417.8323, 845.4335
418.3144, 845.6457
418.7965, 845.6488
419.2787, 845.2842
419.7608, 844.7255
420.2429, 844.1573
420.7250, 843.5769
421.2071, 842.9326
421.6892, 841.9417
422.1714, 840.9929
422.6535, 840.7601
423.1356, 841.2927
423.6177, 841.7950
424.0998, 841.7599
424.5819, 841.2496
425.0641, 840.6707
425.5462, 839.9073
426.0283, 839.2277
426.5104, 838.7264
426.9925, 838.3969
427.4746, 838.2566
427.9568, 838.3235
428.4389, 838.4991
428.9210, 838.6546
429.4031, 838.8380
429.8852, 838.8376
430.3673, 838.6381
430.8495, 838.2717
431.3316, 837.4814
431.8137, 836.4691
432.2958, 835.9462
432.7779, 836.4782
433.2600, 837.9190
433.7422, 839.0778
434.2243, 840.1267
434.7064, 840.6504
435.1885, 840.0482
435.6706, 839.1390
436.1527, 838.7415
436.6349, 839.1151
437.1170, 840.0585
437.5991, 841.3475
438.0812, 843.0693
438.5633, 844.8029
439.0454, 846.5570
439.5276, 848.2987
440.0097, 850.0599
440.4918, 851.7916
440.9739, 853.3854
441.4560, 854.6949
441.9381, 855.9096
442.4203, 857.7125
442.9024, 860.4501
443.3845, 862.8380
443.8666, 864.5596
444.3487, 865.7354
444.8308, 866.5402
445.3130, 866.9977
445.7951, 866.6761
446.2772, 864.9561
446.7593, 862.0624
447.2414, 859.1902
447.7235, 856.5900
448.2057, 853.7825
448.6878, 849.8522
449.1699, 845.3918
449.6520, 841.9949
450.1341, 840.8494
450.6162, 840.1708
451.0984, 838.0445
451.5805, 834.7487
452.0626, 832.1642
452.5447, 831.3416
453.0268, 831.2031
453.5089, 829.4152
453.9911, 825.4779
454.4732, 822.5448
454.9553, 821.9174
455.4374, 822.2833
455.9195, 822.4081
456.4016, 822.1180
456.8838, 821.6158
457.3659, 821.0344
457.8480, 820.3799
458.3301, 819.7572
458.8122, 819.2195
459.2943, 818.6422
459.7765, 817.7849
460.2586, 816.9467
460.7407, 816.6335
461.2228, 816.9827
461.7049, 817.5047
462.1870, 817.4270
462.6692, 816.4734
463.1513, 815.8182
463.6334, 815.5463
464.1155, 815.4808
464.5976, 815.7582
465.0797, 816.1833
465.5619, 816.3661
466.0440, 816.0529
466.5261, 815.3917
467.0082, 814.7083
467.4903, 813.8232
467.9724, 813.4075
468.4546, 814.0416
468.9367, 814.9277
469.4188, 815.5690
469.9009, 815.8969
470.3830, 815.9804
470.8651, 815.7629
471.3473, 815.3265
471.8294, 814.9883
472.3115, 814.7864
472.7936, 814.5938
473.2757, 814.2337
473.7578, 813.8418
474.2400, 813.7108
474.7221, 814.0450
475.2042, 814.3806
475.6863, 814.3708
476.1684, 814.1094
476.6505, 813.8134
477.1327, 813.5049
477.6148, 813.3678
478.0969, 813.7911
478.5790, 814.9351
479.0611, 815.3663
479.5432, 814.3437
480.0254, 813.1855
480.5075, 812.8289
480.9896, 813.0742
481.4717, 813.1384
481.9538, 812.5626
482.4359, 811.6589
482.9181, 811.3262
483.4002, 812.1455
483.8823, 812.7082
484.3644, 813.0204
484.8465, 813.0685
485.3286, 812.5905
485.8108, 811.7524
486.2929, 811.1881
486.7750, 811.4738
487.2571, 812.5189
487.7392, 813.6024
488.2213, 815.0144
488.7035, 815.9444
489.1856, 815.8751
489.6677, 815.4414
490.1498, 815.2896
490.6319, 815.5759
491.1140, 816.0085
491.5962, 816.3008
492.0783, 816.4750
492.5604, 816.7117
493.0425, 817.0367
493.5246, 817.4135
494.0067, 817.8264
494.4889, 818.2728
494.9710, 818.7709
495.4531, 819.5508
495.9352, 820.1258
496.4173, 819.9283
496.8994, 819.1634
497.3816, 818.5998
497.8637, 818.5259
498.3458, 818.6494
498.8279, 818.4954
499.3100, 817.9272
499.7921, 817.8158
500.2743, 818.6422
500.7564, 819.5729
501.2385, 820.1349
501.7206, 820.3273
502.2027, 820.1739
502.6848, 819.6411
503.1670, 819.0046
503.6491, 819.1151
504.1312, 820.6536
504.6133, 821.8533
505.0954, 822.4092
505.5775, 822.8433
506.0597, 823.5369
506.5418, 824.4705
507.0239, 825.3583
507.5060, 825.9570
507.9881, 826.3360
508.4702, 826.8412
508.9524, 827.5543
509.4345, 828.2101
509.9166, 828.4062
510.3987, 828.6869
510.8808, 829.7883
511.3629, 831.8317
511.8451, 833.5772
512.3271, 833.7009
512.8093, 832.8234
513.2914, 832.7817
513.7735, 833.8623
514.2556, 835.1335
514.7377, 835.8982
515.2198, 836.3596
515.7020, 837.2296
516.1841, 838.7418
516.6662, 840.3441
517.1483, 841.8470
517.6304, 843.2631
518.1125, 844.5873
518.5947, 845.8237
519.0768, 847.0751
519.5589, 848.4960
520.0410, 850.1442
520.5231, 851.4282
521.0052, 851.7429
521.4874, 852.4323
521.9695, 854.2760
522.4516, 856.6466
522.9337, 858.6367
523.4158, 859.9229
523.8979, 860.7953
524.3801, 861.5906
524.8622, 862.2155
525.3443, 863.2823
525.8264, 865.5563
526.3085, 867.4505
526.7906, 868.2574
527.2728, 868.2161
527.7549, 867.7581
528.2370, 866.9247
528.7191, 866.0261
529.2012, 865.4014
529.6833, 865.0485
530.1655, 865.0321
530.6476, 865.5472
531.1297, 866.1013
531.6118, 866.1227
532.0939, 865.6786
532.5760, 865.1047
533.0582, 864.3440
533.5403, 863.5811
534.0224, 863.2131
534.5045, 862.9938
534.9866, 862.0393
535.4688, 859.8978
535.9509, 857.2882
536.4330, 855.5650
536.9151, 855.1956
537.3972, 854.6741
537.8793, 854.3446
538.3615, 853.5635
538.8436, 851.5193
539.3257, 848.7557
539.8078, 846.4607
540.2899, 845.2912
540.7720, 845.0013
541.2542, 845.1903
541.7363, 846.1510
542.2184, 846.5690
542.7005, 845.4802
543.1826, 844.4361
543.6647, 844.3904
544.1469, 845.2068
544.6290, 846.1644
545.1111, 846.9718
545.5932, 847.6614
546.0753, 848.2803
546.5574, 848.8260
547.0396, 849.2529
547.5217, 849.4182
548.0038, 849.6207
548.4859, 850.4916
548.9680, 852.1133
549.4501, 853.3985
549.9323, 853.8054
550.4144, 854.0880
550.8965, 854.7692
551.3786, 855.8538
551.8607, 857.2235
552.3428, 858.8319
552.8250, 860.5960
553.3071, 862.3370
553.7892, 864.3476
554.2713, 865.7919
554.7534, 865.6811
555.2355, 865.9796
555.7177, 868.0742
556.1998, 871.5507
556.6819, 875.1219
557.1640, 878.0366
557.6461, 880.5291
558.1282, 883.0644
558.6104, 885.6727
559.0925, 888.1490
559.5746, 890.2458
560.0567, 892.4020
560.5388, 895.3226
561.0209, 898.8063
561.5031, 901.4860
561.9852, 902.5740
562.4673, 902.7938
562.9494, 902.9745
563.4315, 902.9941
563.9136, 902.2159
564.3958, 900.3658
564.8779, 897.5925
565.3600, 894.0567
565.8421, 889.4179
566.3242, 884.9916
566.8063, 880.4565
567.2885, 876.4006
567.7706, 873.4439
568.2527, 871.1927
568.7348, 868.8068
569.2169, 865.8562
569.6990, 862.7457
570.1812, 860.2747
570.6633, 858.5681
571.1454, 857.0451
571.6275, 856.0109
572.1096, 854.7816
572.5917, 852.7674
573.0739, 850.3226
573.5560, 848.3051
574.0381, 847.2015
574.5202, 846.3519
575.0023, 845.0625
575.4844, 843.3793
575.9666, 841.5197
576.4487, 839.4604
576.9308, 837.4769
577.4129, 835.9479
577.8950, 834.8792
578.3771, 833.4310
578.8593, 831.2453
579.3414, 829.0341
579.8235, 827.1090
580.3056, 825.3652
580.7877, 823.6133
581.2698, 821.7910
581.7520, 820.0258
582.2341, 818.4983
582.7162, 817.2263
583.1984, 815.8928
583.6805, 814.2994
584.1626, 812.9029
584.6447, 811.9824
585.1268, 811.2454
585.6089, 810.3471
586.0911, 809.1953
586.5732, 807.9301
