##NAMES=Hematophanite
##RRUFFID=R070638
##IDEAL CHEMISTRY=Pb^2+^_4_Fe^3+^_3_O_8_Cl
##LOCALITY=Kombat mine, Kombat, Grootfontein District, Otjozondjupa Region, Namibia
##OWNER=RRUFF
##SOURCE=William W. Pinch
##DESCRIPTION=Submetallic deep red-brown tabular crystals with colorless calcite, also associated with R070639 britvinite
##STATUS=The identification of this mineral has been confirmed by single-crystal X-ray diffraction.
##URL=rruff.info/R070638
##MEASURED CHEMISTRY=Pb_4.00_(Fe^3+^_2.99_Mn^3+^_0.01_)_Î£=3_O_8_Cl_1.00_ ; Mn^3+^ by charge balance
123.3804, 3120.825
123.8625, 3119.424
124.3446, 3108.245
124.8267, 3096.351
125.3088, 3091.269
125.7909, 3093.619
126.2731, 3094.293
126.7552, 3083.034
127.2373, 3076.283
127.7194, 3086.004
128.2015, 3113.212
128.6837, 3145.600
129.1658, 3164.231
129.6479, 3160.009
130.1300, 3159.130
130.6121, 3162.782
131.0942, 3170.433
131.5764, 3183.201
132.0585, 3201.500
132.5406, 3222.748
133.0227, 3237.532
133.5048, 3234.167
133.9869, 3236.769
134.4691, 3252.237
134.9512, 3275.372
135.4333, 3298.334
135.9154, 3316.958
136.3975, 3330.732
136.8796, 3333.709
137.3618, 3313.455
137.8439, 3295.894
138.3260, 3296.464
138.8081, 3313.761
139.2902, 3333.490
139.7723, 3346.192
140.2545, 3350.640
140.7366, 3343.955
141.2187, 3312.296
141.7008, 3275.536
142.1829, 3259.061
142.6650, 3270.137
143.1472, 3284.151
143.6293, 3270.532
144.1114, 3235.487
144.5935, 3207.460
145.0756, 3204.322
145.5577, 3218.435
146.0399, 3224.831
146.5220, 3219.921
147.0041, 3204.352
147.4862, 3178.351
147.9683, 3142.450
148.4504, 3104.079
148.9326, 3068.853
149.4147, 3036.608
149.8968, 3006.797
150.3789, 2982.569
150.8610, 2958.810
151.3431, 2932.293
151.8252, 2902.367
152.3074, 2871.419
152.7895, 2843.832
153.2716, 2822.408
153.7537, 2798.031
154.2358, 2765.408
154.7179, 2731.720
155.2001, 2704.844
155.6822, 2688.110
156.1643, 2676.319
156.6464, 2653.198
157.1285, 2600.654
157.6106, 2556.518
158.0928, 2528.619
158.5749, 2510.536
159.0570, 2492.900
159.5391, 2469.863
160.0212, 2442.425
160.5033, 2423.235
160.9855, 2418.711
161.4676, 2414.545
161.9497, 2406.827
162.4318, 2395.847
162.9139, 2382.984
163.3960, 2368.524
163.8782, 2352.542
164.3603, 2341.909
164.8424, 2342.187
165.3245, 2342.924
165.8066, 2336.370
166.2887, 2322.202
166.7709, 2306.835
167.2530, 2295.726
167.7351, 2288.971
168.2172, 2284.487
168.6993, 2282.751
169.1814, 2282.937
169.6636, 2284.275
170.1457, 2286.823
170.6278, 2289.910
171.1099, 2293.656
171.5920, 2297.853
172.0741, 2300.322
172.5563, 2297.725
173.0384, 2292.519
173.5205, 2292.147
174.0026, 2299.628
174.4847, 2309.936
174.9668, 2321.788
175.4490, 2334.609
175.9311, 2339.802
176.4132, 2325.109
176.8953, 2291.264
177.3774, 2269.064
177.8595, 2271.909
178.3417, 2282.254
178.8238, 2290.591
179.3059, 2295.745
179.7880, 2298.698
180.2701, 2300.394
180.7522, 2300.833
181.2344, 2299.925
181.7165, 2291.501
182.1986, 2285.611
182.6807, 2291.474
183.1628, 2311.105
183.6449, 2334.932
184.1271, 2346.138
184.6092, 2337.108
185.0913, 2329.904
185.5734, 2329.443
186.0555, 2330.278
186.5376, 2326.170
187.0198, 2314.651
187.5019, 2300.592
187.9840, 2296.661
188.4661, 2310.047
188.9482, 2325.969
189.4303, 2345.435
189.9125, 2366.013
190.3946, 2385.019
190.8767, 2401.291
191.3588, 2415.003
191.8409, 2427.384
192.3230, 2440.650
192.8052, 2450.102
193.2873, 2449.788
193.7694, 2445.295
194.2515, 2446.041
194.7336, 2457.802
195.2157, 2479.699
195.6979, 2504.557
196.1800, 2540.502
196.6621, 2570.569
197.1442, 2585.284
197.6263, 2588.157
198.1084, 2590.101
198.5906, 2598.373
199.0727, 2612.655
199.5548, 2625.947
200.0369, 2632.578
200.5190, 2642.870
201.0011, 2666.250
201.4833, 2701.482
201.9654, 2735.431
202.4475, 2757.531
202.9296, 2768.762
203.4117, 2784.018
203.8938, 2810.463
204.3760, 2836.960
204.8581, 2849.367
205.3402, 2846.103
205.8223, 2847.123
206.3044, 2874.052
206.7865, 2919.613
207.2687, 2957.388
207.7508, 2979.994
208.2329, 2992.919
208.7150, 2999.803
209.1971, 2997.651
209.6792, 3001.601
210.1614, 3033.386
210.6435, 3081.679
211.1256, 3119.852
211.6077, 3133.241
212.0898, 3130.458
212.5719, 3127.990
213.0541, 3122.713
213.5362, 3126.234
214.0183, 3156.278
214.5004, 3201.880
214.9825, 3234.994
215.4646, 3232.935
215.9468, 3204.185
216.4289, 3183.176
216.9110, 3168.873
217.3931, 3166.699
217.8752, 3184.991
218.3573, 3217.232
218.8395, 3244.688
219.3216, 3250.578
219.8037, 3237.048
220.2858, 3231.405
220.7679, 3237.561
221.2500, 3248.693
221.7322, 3265.644
222.2143, 3285.577
222.6964, 3300.952
223.1785, 3303.577
223.6606, 3292.738
224.1427, 3285.298
224.6249, 3285.911
225.1070, 3285.987
225.5891, 3278.775
226.0712, 3266.890
226.5533, 3259.481
227.0354, 3266.531
227.5176, 3290.333
227.9997, 3312.319
228.4818, 3330.565
228.9639, 3348.447
229.4460, 3368.739
229.9281, 3390.339
230.4103, 3408.880
230.8924, 3416.725
231.3745, 3407.460
231.8566, 3417.416
232.3387, 3464.161
232.8208, 3513.872
233.3030, 3549.681
233.7851, 3572.059
234.2672, 3592.506
234.7493, 3624.045
235.2314, 3670.274
235.7135, 3714.981
236.1957, 3754.350
236.6778, 3795.677
237.1599, 3843.665
237.6420, 3898.050
238.1241, 3954.303
238.6062, 4006.543
239.0884, 4052.205
239.5705, 4102.826
240.0526, 4156.465
240.5347, 4215.078
241.0168, 4279.614
241.4989, 4350.350
241.9811, 4426.376
242.4632, 4507.761
242.9453, 4597.581
243.4274, 4683.615
243.9095, 4751.624
244.3916, 4826.269
244.8738, 4929.917
245.3559, 5062.140
245.8380, 5201.061
246.3201, 5320.955
246.8022, 5413.568
247.2843, 5511.653
247.7665, 5611.735
248.2486, 5719.556
248.7307, 5841.078
249.2128, 5976.315
249.6949, 6116.974
250.1770, 6252.169
250.6592, 6375.402
251.1413, 6520.483
251.6234, 6707.372
252.1055, 6901.065
252.5876, 7074.762
253.0697, 7224.714
253.5519, 7369.417
254.0340, 7525.652
254.5161, 7694.372
254.9982, 7876.946
255.4803, 8089.399
255.9624, 8303.902
256.4445, 8495.163
256.9267, 8660.579
257.4088, 8822.056
257.8909, 9005.308
258.3730, 9218.327
258.8551, 9404.611
259.3372, 9538.275
259.8194, 9661.207
260.3015, 9809.493
260.7836, 9986.564
261.2657, 10169.64
261.7478, 10338.73
262.2299, 10491.79
262.7121, 10633.15
263.1942, 10762.23
263.6763, 10879.46
264.1584, 10984.28
264.6405, 11076.80
265.1227, 11159.12
265.6048, 11232.48
266.0869, 11295.98
266.5690, 11349.69
267.0511, 11406.79
267.5332, 11445.69
268.0154, 11446.31
268.4975, 11407.87
268.9796, 11345.90
269.4617, 11270.98
269.9438, 11180.88
270.4259, 11080.25
270.9081, 10973.68
271.3902, 10853.41
271.8723, 10718.10
272.3544, 10565.88
272.8365, 10384.94
273.3186, 10154.56
273.8008, 9879.357
274.2829, 9629.714
274.7650, 9424.814
275.2471, 9232.259
275.7292, 9029.958
276.2113, 8818.251
276.6935, 8601.985
277.1756, 8384.821
277.6577, 8165.620
278.1398, 7949.606
278.6219, 7735.773
279.1040, 7524.840
279.5862, 7320.197
280.0683, 7120.349
280.5504, 6914.582
281.0325, 6689.496
281.5146, 6456.066
281.9967, 6254.006
282.4789, 6103.877
282.9610, 5964.470
283.4431, 5811.109
283.9252, 5645.902
284.4073, 5482.872
284.8894, 5327.642
285.3716, 5180.692
285.8537, 5039.064
286.3358, 4904.772
286.8179, 4773.386
287.3000, 4640.077
287.7821, 4506.714
288.2643, 4384.735
288.7464, 4281.399
289.2285, 4189.717
289.7106, 4089.992
290.1927, 3972.910
290.6748, 3865.153
291.1570, 3790.574
291.6391, 3737.274
292.1212, 3664.459
292.6033, 3546.179
293.0854, 3414.027
293.5675, 3336.477
294.0497, 3330.988
294.5318, 3320.711
295.0139, 3266.560
295.4960, 3185.138
295.9781, 3114.989
296.4602, 3070.255
296.9424, 3038.077
297.4245, 2996.962
297.9066, 2945.469
298.3887, 2894.734
298.8708, 2846.768
299.3529, 2802.068
299.8351, 2761.682
300.3172, 2725.969
300.7993, 2694.127
301.2814, 2666.242
301.7635, 2642.907
302.2456, 2617.761
302.7278, 2591.070
303.2099, 2561.269
303.6920, 2522.877
304.1741, 2473.549
304.6562, 2427.215
305.1383, 2401.782
305.6205, 2398.463
306.1026, 2393.591
306.5847, 2384.078
307.0668, 2371.610
307.5489, 2357.708
308.0310, 2342.522
308.5132, 2325.912
308.9953, 2306.681
309.4774, 2284.811
309.9595, 2267.157
310.4416, 2259.582
310.9237, 2252.377
311.4059, 2236.445
311.8880, 2212.103
312.3701, 2187.443
312.8522, 2167.972
313.3343, 2154.025
313.8164, 2142.055
314.2986, 2135.452
314.7807, 2127.799
315.2628, 2115.999
315.7449, 2100.089
316.2270, 2079.174
316.7091, 2049.941
317.1913, 2016.248
317.6734, 1999.661
318.1555, 2013.453
318.6376, 2027.158
319.1197, 2029.724
319.6018, 2023.546
320.0840, 2013.589
320.5661, 2001.429
321.0482, 1988.726
321.5303, 1981.776
322.0124, 1988.195
322.4945, 1989.211
322.9767, 1976.037
323.4588, 1956.225
323.9409, 1941.553
324.4230, 1936.672
324.9051, 1936.783
325.3872, 1932.240
325.8694, 1920.641
326.3515, 1908.555
326.8336, 1891.892
327.3157, 1877.189
327.7978, 1873.697
328.2799, 1883.281
328.7621, 1896.123
329.2442, 1898.524
329.7263, 1884.813
330.2084, 1873.832
330.6905, 1867.239
331.1726, 1862.056
331.6548, 1853.798
332.1369, 1843.222
332.6190, 1837.841
333.1011, 1847.157
333.5832, 1876.316
334.0653, 1890.252
334.5475, 1881.952
335.0296, 1868.064
335.5117, 1853.373
335.9938, 1839.754
336.4759, 1829.860
336.9580, 1826.694
337.4402, 1830.036
337.9223, 1825.004
338.4044, 1802.205
338.8865, 1781.560
339.3686, 1766.227
339.8507, 1756.797
340.3329, 1754.931
340.8150, 1762.260
341.2971, 1775.542
341.7792, 1780.823
342.2613, 1772.404
342.7434, 1762.362
343.2256, 1749.071
343.7077, 1736.122
344.1898, 1728.093
344.6719, 1726.704
345.1540, 1728.466
345.6361, 1725.922
346.1183, 1715.037
346.6004, 1707.739
347.0825, 1707.963
347.5646, 1709.363
348.0467, 1707.242
348.5288, 1700.746
349.0110, 1692.400
349.4931, 1685.015
349.9752, 1678.359
350.4573, 1673.516
350.9394, 1673.675
351.4215, 1672.954
351.9037, 1665.639
352.3858, 1653.888
352.8679, 1646.328
353.3500, 1653.089
353.8321, 1673.516
354.3142, 1685.748
354.7964, 1686.454
355.2785, 1682.030
355.7606, 1673.058
356.2427, 1661.391
356.7248, 1650.129
357.2069, 1640.544
357.6891, 1632.909
358.1712, 1628.382
358.6533, 1627.901
359.1354, 1628.457
359.6175, 1629.961
360.0996, 1631.364
360.5818, 1630.747
361.0639, 1626.414
361.5460, 1622.595
362.0281, 1626.784
362.5102, 1640.280
362.9923, 1649.927
363.4745, 1646.544
363.9566, 1640.671
364.4387, 1644.748
364.9208, 1661.675
365.4029, 1675.766
365.8850, 1671.939
366.3672, 1653.717
366.8493, 1640.726
367.3314, 1639.326
367.8135, 1641.206
368.2956, 1635.755
368.7777, 1623.709
369.2599, 1617.010
369.7420, 1627.511
370.2241, 1644.557
370.7062, 1647.012
371.1883, 1630.000
371.6704, 1613.513
372.1526, 1617.472
372.6347, 1637.983
373.1168, 1652.159
373.5989, 1654.038
374.0810, 1650.928
374.5631, 1648.891
375.0453, 1647.690
375.5274, 1643.120
376.0095, 1630.402
376.4916, 1613.226
376.9737, 1606.980
377.4558, 1622.652
377.9380, 1635.319
378.4201, 1633.288
378.9022, 1622.212
379.3843, 1611.600
379.8664, 1604.642
380.3485, 1602.801
380.8307, 1609.943
381.3128, 1633.406
381.7949, 1652.326
382.2770, 1664.113
382.7591, 1671.528
383.2412, 1677.459
383.7234, 1682.314
384.2055, 1683.547
384.6876, 1677.174
385.1697, 1659.545
385.6518, 1650.291
386.1339, 1650.454
386.6161, 1656.333
387.0982, 1671.153
387.5803, 1690.743
388.0624, 1704.245
388.5445, 1702.361
389.0266, 1687.472
389.5088, 1685.477
389.9909, 1708.948
390.4730, 1731.861
390.9551, 1750.915
391.4372, 1766.516
391.9193, 1779.645
392.4015, 1790.733
392.8836, 1799.333
393.3657, 1803.393
393.8478, 1798.736
394.3299, 1799.899
394.8120, 1813.354
395.2942, 1829.720
395.7763, 1843.463
396.2584, 1853.531
396.7405, 1861.197
397.2226, 1864.678
397.7047, 1863.853
398.1869, 1874.359
398.6690, 1907.952
399.1511, 1940.329
399.6332, 1954.744
400.1153, 1956.422
400.5974, 1960.919
401.0796, 1975.957
401.5617, 1999.477
402.0438, 2029.421
402.5259, 2068.513
403.0080, 2103.271
403.4901, 2121.708
403.9723, 2132.399
404.4544, 2148.002
404.9365, 2172.346
405.4186, 2199.221
405.9007, 2224.955
406.3828, 2249.214
406.8650, 2268.834
407.3471, 2279.317
407.8292, 2289.023
408.3113, 2315.523
408.7934, 2363.837
409.2755, 2401.105
409.7577, 2407.839
410.2398, 2401.051
410.7219, 2402.150
411.2040, 2414.975
411.6861, 2436.715
412.1682, 2467.925
412.6504, 2510.782
413.1325, 2537.209
413.6146, 2534.760
414.0967, 2528.106
414.5788, 2530.580
415.0609, 2540.705
415.5431, 2551.517
416.0252, 2559.005
416.5073, 2563.459
416.9894, 2566.287
417.4715, 2561.330
417.9536, 2562.381
418.4358, 2578.005
418.9179, 2596.975
419.4000, 2606.782
419.8821, 2603.852
420.3642, 2594.683
420.8463, 2588.760
421.3285, 2586.896
421.8106, 2586.219
422.2927, 2588.156
422.7748, 2589.951
423.2569, 2589.821
423.7390, 2588.194
424.2212, 2586.927
424.7033, 2587.650
425.1854, 2589.951
425.6675, 2591.343
426.1496, 2591.488
426.6317, 2591.184
427.1139, 2591.476
427.5960, 2591.310
428.0781, 2588.524
428.5602, 2581.214
429.0423, 2574.408
429.5244, 2574.516
430.0066, 2581.630
430.4887, 2591.875
430.9708, 2606.654
431.4529, 2621.867
431.9350, 2631.886
432.4171, 2636.339
432.8993, 2643.036
433.3814, 2659.191
433.8635, 2679.198
434.3456, 2689.748
434.8277, 2687.400
435.3098, 2689.623
435.7920, 2712.316
436.2741, 2754.983
436.7562, 2798.375
437.2383, 2845.148
437.7204, 2889.406
438.2025, 2927.912
438.6847, 2961.165
439.1668, 2990.443
439.6489, 3015.847
440.1310, 3039.146
440.6131, 3065.153
441.0952, 3099.341
441.5774, 3128.723
442.0595, 3145.804
442.5416, 3162.025
443.0237, 3191.483
443.5058, 3234.610
443.9879, 3276.569
444.4701, 3300.352
444.9522, 3303.401
445.4343, 3305.760
445.9164, 3309.594
446.3985, 3310.479
446.8806, 3309.999
447.3628, 3305.074
447.8449, 3290.280
448.3270, 3262.020
448.8091, 3223.581
449.2912, 3181.635
449.7733, 3134.524
450.2555, 3088.849
450.7376, 3055.834
451.2197, 3018.963
451.7018, 2960.565
452.1839, 2878.452
452.6660, 2796.364
453.1482, 2735.216
453.6303, 2690.816
454.1124, 2645.045
454.5945, 2596.136
455.0766, 2544.108
455.5587, 2486.536
456.0409, 2425.360
456.5230, 2367.440
457.0051, 2315.446
457.4872, 2265.832
457.9693, 2214.957
458.4514, 2163.129
458.9336, 2112.906
459.4157, 2064.647
459.8978, 2019.827
460.3799, 1983.500
460.8620, 1957.929
461.3441, 1934.873
461.8262, 1913.817
462.3083, 1894.083
462.7905, 1876.595
463.2726, 1860.829
463.7547, 1842.306
464.2368, 1814.782
464.7189, 1775.882
465.2010, 1749.315
465.6832, 1743.621
466.1653, 1740.505
466.6474, 1735.640
467.1295, 1729.167
467.6116, 1721.352
468.0938, 1712.108
468.5759, 1703.575
469.0580, 1701.996
469.5401, 1711.693
470.0222, 1715.998
470.5043, 1702.838
470.9865, 1690.102
471.4686, 1692.551
471.9507, 1709.669
472.4328, 1724.468
472.9149, 1722.672
473.3970, 1708.149
473.8792, 1693.429
474.3613, 1677.328
474.8434, 1666.287
475.3255, 1669.418
475.8076, 1680.150
476.2897, 1684.540
476.7719, 1675.367
477.2540, 1666.015
477.7361, 1668.888
478.2182, 1679.413
478.7003, 1683.191
479.1824, 1674.687
479.6646, 1659.792
480.1467, 1647.465
480.6288, 1638.715
481.1109, 1629.238
481.5930, 1616.431
482.0751, 1604.754
482.5573, 1598.694
483.0394, 1597.157
483.5215, 1594.597
484.0036, 1586.463
484.4857, 1574.328
484.9678, 1569.042
485.4500, 1582.218
485.9321, 1586.594
486.4142, 1571.989
486.8963, 1550.977
487.3784, 1536.028
487.8605, 1530.173
488.3427, 1526.711
488.8248, 1517.396
489.3069, 1501.891
489.7890, 1488.553
490.2711, 1477.501
490.7532, 1469.252
491.2354, 1466.176
491.7175, 1465.708
492.1996, 1461.618
492.6817, 1449.978
493.1638, 1435.317
493.6459, 1421.065
494.1281, 1407.521
494.6102, 1399.954
495.0923, 1402.716
495.5744, 1409.647
496.0565, 1409.480
496.5386, 1400.995
497.0208, 1392.892
497.5029, 1388.023
497.9850, 1383.963
498.4671, 1379.728
498.9492, 1374.519
499.4313, 1363.761
499.9135, 1341.307
500.3956, 1309.454
500.8777, 1298.611
501.3598, 1334.823
501.8419, 1360.816
502.3240, 1361.411
502.8062, 1349.804
503.2883, 1340.287
503.7704, 1337.351
504.2525, 1337.252
504.7346, 1335.070
505.2167, 1330.367
505.6989, 1327.005
506.1810, 1327.376
506.6631, 1326.404
507.1452, 1319.816
507.6273, 1310.246
508.1094, 1303.508
508.5916, 1302.234
509.0737, 1304.714
509.5558, 1310.511
510.0379, 1319.384
510.5200, 1324.114
511.0021, 1319.564
511.4843, 1312.844
511.9664, 1316.698
512.4485, 1333.115
512.9306, 1343.840
513.4127, 1339.240
513.8948, 1330.021
514.3770, 1326.773
514.8591, 1329.791
515.3412, 1333.729
515.8233, 1334.983
516.3054, 1333.874
516.7875, 1332.415
517.2697, 1330.694
517.7518, 1328.475
518.2339, 1321.942
518.7160, 1317.046
519.1981, 1322.164
519.6802, 1337.635
520.1624, 1353.048
520.6445, 1355.312
521.1266, 1343.967
521.6087, 1338.848
522.0908, 1345.026
522.5729, 1350.000
523.0551, 1345.490
523.5372, 1337.058
524.0193, 1333.724
524.5014, 1339.253
524.9835, 1348.091
525.4656, 1356.277
525.9478, 1363.435
526.4299, 1367.323
526.9120, 1366.626
527.3941, 1364.348
527.8762, 1364.340
528.3583, 1366.771
528.8405, 1367.064
529.3226, 1359.982
529.8047, 1354.880
530.2868, 1358.053
530.7689, 1368.342
531.2510, 1383.329
531.7332, 1402.412
532.2153, 1421.444
532.6974, 1429.550
533.1795, 1417.764
533.6616, 1411.228
534.1437, 1416.576
534.6259, 1421.530
535.1080, 1413.458
535.5901, 1396.726
536.0722, 1389.240
536.5543, 1408.170
537.0364, 1443.204
537.5186, 1460.668
538.0007, 1456.387
538.4828, 1450.479
538.9649, 1447.831
539.4470, 1412.176
539.9291, 1462.374
540.4113, 1492.907
540.8934, 1504.825
541.3755, 1442.389
541.8576, 1475.968
542.3397, 1471.068
542.8218, 1464.590
543.3040, 1511.683
543.7861, 1460.062
544.2682, 1506.304
544.7503, 1513.482
545.2324, 1538.538
545.7145, 1524.878
546.1967, 1523.178
546.6788, 1560.204
547.1609, 1575.787
547.6430, 1557.671
548.1251, 1583.864
548.6072, 1530.890
549.0894, 1565.330
549.5715, 1571.406
550.0536, 1559.354
550.5357, 1548.920
551.0178, 1549.575
551.4999, 1555.233
551.9821, 1557.772
552.4642, 1554.816
552.9463, 1548.651
553.4284, 1538.461
553.9105, 1526.238
554.3926, 1520.693
554.8748, 1524.249
555.3569, 1531.776
555.8390, 1539.665
556.3211, 1547.804
556.8032, 1553.535
557.2853, 1558.495
557.7675, 1559.286
558.2496, 1550.913
558.7317, 1538.078
559.2138, 1528.854
559.6959, 1526.140
560.1780, 1526.842
560.6602, 1526.304
561.1423, 1523.843
561.6244, 1522.909
562.1065, 1527.964
562.5886, 1530.104
563.0707, 1522.824
563.5529, 1511.006
564.0350, 1503.575
564.5171, 1504.779
564.9992, 1510.615
565.4813, 1517.907
565.9634, 1526.283
566.4456, 1529.076
566.9277, 1523.174
567.4098, 1514.123
567.8919, 1507.524
568.3740, 1503.106
568.8561, 1498.413
569.3383, 1489.253
569.8204, 1483.206
570.3025, 1489.508
570.7846, 1502.644
571.2667, 1508.150
571.7488, 1499.856
572.2310, 1485.783
572.7131, 1480.962
573.1952, 1491.223
573.6773, 1494.908
574.1594, 1486.062
574.6415, 1476.939
575.1237, 1471.323
575.6058, 1469.647
576.0879, 1472.621
576.5700, 1482.043
577.0521, 1492.361
577.5342, 1493.423
578.0164, 1485.155
578.4985, 1480.762
578.9806, 1486.824
579.4627, 1492.454
579.9448, 1481.949
580.4269, 1457.679
580.9091, 1442.409
581.3912, 1446.112
581.8733, 1454.976
582.3554, 1461.858
582.8375, 1466.150
583.3196, 1467.244
583.8018, 1464.821
584.2839, 1460.106
584.7660, 1454.776
585.2481, 1447.272
585.7302, 1443.766
586.2123, 1446.470
586.6945, 1450.698
587.1766, 1457.690
587.6587, 1464.323
588.1408, 1464.247
588.6229, 1453.223
589.1050, 1438.636
589.5872, 1430.235
590.0693, 1427.905
590.5514, 1430.302
591.0335, 1439.411
591.5156, 1449.097
591.9977, 1454.852
592.4799, 1456.600
592.9620, 1450.902
593.4441, 1427.973
593.9262, 1406.664
594.4083, 1396.341
594.8904, 1395.941
595.3726, 1406.500
595.8547, 1427.971
596.3368, 1449.309
596.8189, 1453.396
597.3010, 1436.080
597.7831, 1421.464
598.2653, 1408.540
598.7474, 1399.757
599.2295, 1400.607
599.7116, 1404.822
600.1937, 1401.755
600.6758, 1386.414
601.1580, 1369.724
601.6401, 1364.965
602.1222, 1369.511
602.6043, 1370.026
603.0864, 1363.653
603.5685, 1355.821
604.0507, 1349.667
604.5328, 1345.807
605.0149, 1347.164
605.4970, 1365.468
605.9791, 1375.242
606.4612, 1359.591
606.9434, 1334.031
607.4255, 1318.776
607.9076, 1318.076
608.3897, 1322.086
608.8718, 1320.972
609.3539, 1314.792
609.8361, 1305.350
610.3182, 1285.201
610.8003, 1274.410
611.2824, 1288.964
611.7645, 1310.479
612.2466, 1318.941
612.7288, 1310.345
613.2109, 1297.026
613.6930, 1281.894
614.1751, 1269.185
614.6572, 1270.264
615.1393, 1285.577
615.6215, 1297.170
616.1036, 1293.111
