##NAMES=Hematite
##RRUFFID=R070240
##IDEAL CHEMISTRY=Fe^3+^_2_O_3_
##LOCALITY=Moshgai, Gobi Desert, Mongolia
##OWNER=RRUFF
##SOURCE=Michael Scott
##DESCRIPTION=Black fine-grained replacement of massive but fractured magnetite
##STATUS=The identification of this mineral has been confirmed by X-ray diffraction and chemical analysis
##URL=rruff.info/R070240
##MEASURED CHEMISTRY=(Fe^3+^_1.97_Al_0.02_Mn^3+^_0.01_)_Î£=2_O_3_
171.1595, 31243.80
171.6417, 31306.02
172.1238, 31360.09
172.6059, 31446.96
173.0880, 31587.72
173.5701, 31718.99
174.0522, 31795.85
174.5344, 31850.23
175.0165, 31928.41
175.4986, 32060.00
175.9807, 32225.96
176.4628, 32374.50
176.9449, 32494.92
177.4271, 32617.46
177.9092, 32755.95
178.3913, 32902.50
178.8734, 33046.00
179.3555, 33181.91
179.8376, 33312.41
180.3197, 33444.09
180.8019, 33571.80
181.2840, 33710.96
181.7661, 33882.73
182.2482, 34062.34
182.7303, 34216.82
183.2124, 34327.84
183.6946, 34407.75
184.1767, 34491.67
184.6588, 34584.19
185.1409, 34671.52
185.6230, 34743.21
186.1051, 34810.49
186.5873, 34888.64
187.0694, 34986.68
187.5515, 35094.17
188.0336, 35185.39
188.5157, 35253.55
188.9978, 35314.19
189.4800, 35362.82
189.9621, 35409.82
190.4442, 35468.84
190.9263, 35546.55
191.4084, 35632.86
191.8905, 35700.71
192.3727, 35730.47
192.8548, 35777.86
193.3369, 35868.60
193.8190, 35970.98
194.3011, 36046.21
194.7832, 36078.16
195.2654, 36099.78
195.7475, 36186.95
196.2296, 36388.03
196.7117, 36566.98
197.1938, 36717.45
197.6759, 36837.01
198.1581, 36911.81
198.6402, 36939.18
199.1223, 36948.29
199.6044, 36996.37
200.0865, 37111.61
200.5686, 37210.52
201.0508, 37283.93
201.5329, 37342.98
202.0150, 37397.24
202.4971, 37449.06
202.9792, 37490.02
203.4613, 37500.77
203.9435, 37452.94
204.4256, 37439.99
204.9077, 37495.32
205.3898, 37561.05
205.8719, 37594.67
206.3540, 37589.46
206.8362, 37572.22
207.3183, 37580.31
207.8004, 37624.59
208.2825, 37667.30
208.7646, 37704.68
209.2467, 37743.30
209.7289, 37785.85
210.2110, 37833.06
210.6931, 37885.39
211.1752, 37943.00
211.6573, 38004.67
212.1395, 38075.60
212.6216, 38163.74
213.1037, 38253.27
213.5858, 38335.41
214.0679, 38410.58
214.5500, 38486.02
215.0322, 38571.84
215.5143, 38672.72
215.9964, 38750.41
216.4785, 38791.09
216.9606, 38822.16
217.4427, 38844.30
217.9249, 38864.21
218.4070, 38896.75
218.8891, 38959.86
219.3712, 39055.37
219.8533, 39114.87
220.3354, 39106.77
220.8176, 39091.11
221.2997, 39084.73
221.7818, 39083.01
222.2639, 39072.05
222.7460, 39039.95
223.2281, 38989.79
223.7103, 38957.84
224.1924, 38963.57
224.6745, 38967.55
225.1566, 38958.73
225.6387, 38943.53
226.1208, 38932.20
226.6030, 38930.82
227.0851, 38937.41
227.5672, 38944.50
228.0493, 38960.75
228.5314, 38964.75
229.0135, 38938.87
229.4957, 38904.81
229.9778, 38886.72
230.4599, 38895.49
230.9420, 38925.01
231.4241, 38962.24
231.9062, 39015.98
232.3884, 39061.79
232.8705, 39095.79
233.3526, 39122.18
233.8347, 39140.01
234.3168, 39149.73
234.7989, 39162.97
235.2811, 39206.92
235.7632, 39313.17
236.2453, 39373.42
236.7274, 39339.77
237.2095, 39290.54
237.6916, 39278.31
238.1738, 39312.62
238.6559, 39366.45
239.1380, 39411.26
239.6201, 39450.12
240.1022, 39467.67
240.5843, 39427.93
241.0665, 39395.76
241.5486, 39414.26
242.0307, 39477.22
242.5128, 39539.07
242.9949, 39546.52
243.4770, 39491.81
243.9592, 39477.04
244.4413, 39536.77
244.9234, 39606.88
245.4055, 39674.86
245.8876, 39734.88
246.3697, 39778.32
246.8519, 39798.25
247.3340, 39795.99
247.8161, 39780.55
248.2982, 39731.59
248.7803, 39697.32
249.2624, 39690.95
249.7446, 39709.05
250.2267, 39750.21
250.7088, 39823.48
251.1909, 39908.91
251.6730, 39942.54
252.1551, 39891.12
252.6373, 39855.52
253.1194, 39847.68
253.6015, 39877.92
254.0836, 39975.50
254.5657, 40164.61
255.0478, 40371.95
255.5300, 40474.70
256.0121, 40448.48
256.4942, 40408.34
256.9763, 40363.10
257.4584, 40329.95
257.9406, 40324.91
258.4227, 40351.93
258.9048, 40395.16
259.3869, 40444.41
259.8690, 40500.51
260.3511, 40544.12
260.8333, 40565.20
261.3154, 40577.73
261.7975, 40590.26
262.2796, 40603.48
262.7617, 40618.47
263.2438, 40626.94
263.7260, 40634.30
264.2081, 40678.30
264.6902, 40790.21
265.1723, 40896.59
265.6544, 40938.29
266.1365, 40930.41
266.6187, 40920.67
267.1008, 40931.14
267.5829, 40955.02
268.0650, 40978.65
268.5471, 41001.59
269.0292, 41024.53
269.5114, 41049.52
269.9935, 41074.61
270.4756, 41095.13
270.9577, 41094.16
271.4398, 41101.00
271.9219, 41163.53
272.4041, 41284.04
272.8862, 41382.93
273.3683, 41407.07
273.8504, 41389.88
274.3325, 41398.61
274.8146, 41446.12
275.2968, 41501.88
275.7789, 41546.19
276.2610, 41581.65
276.7431, 41620.21
277.2252, 41668.25
277.7073, 41718.25
278.1895, 41753.98
278.6716, 41769.48
279.1537, 41799.22
279.6358, 41874.38
280.1179, 41967.64
280.6000, 42026.45
281.0822, 42035.82
281.5643, 42032.62
282.0464, 42065.78
282.5285, 42139.85
283.0106, 42189.63
283.4927, 42191.03
283.9749, 42175.65
284.4570, 42170.23
284.9391, 42177.20
285.4212, 42189.68
285.9033, 42207.04
286.3854, 42227.50
286.8676, 42217.00
287.3497, 42138.95
287.8318, 42068.28
288.3139, 42044.85
288.7960, 42058.61
289.2781, 42081.93
289.7603, 42101.43
290.2424, 42115.77
290.7245, 42118.43
291.2066, 42114.64
291.6887, 42093.89
292.1708, 42038.63
292.6530, 41971.10
293.1351, 41918.70
293.6172, 41891.03
294.0993, 41879.25
294.5814, 41868.20
295.0635, 41857.03
295.5457, 41848.44
296.0278, 41841.02
296.5099, 41836.99
296.9920, 41847.56
297.4741, 41868.14
297.9562, 41872.03
298.4384, 41822.49
298.9205, 41702.05
299.4026, 41651.82
299.8847, 41735.49
300.3668, 41823.41
300.8489, 41872.00
301.3310, 41890.10
301.8131, 41905.91
302.2953, 41939.34
302.7774, 41984.11
303.2595, 42008.51
303.7416, 42010.95
304.2237, 41992.20
304.7058, 41932.96
305.1880, 41863.64
305.6701, 41818.31
306.1522, 41809.99
306.6343, 41820.69
307.1164, 41816.38
307.5985, 41785.64
308.0807, 41782.80
308.5628, 41850.51
309.0449, 41926.48
309.5270, 41979.31
310.0091, 42004.38
310.4912, 42005.69
310.9734, 41971.72
311.4555, 41907.78
311.9376, 41875.25
312.4197, 41891.63
312.9018, 41922.35
313.3839, 41954.32
313.8661, 41983.11
314.3482, 41995.59
314.8303, 41970.80
315.3124, 41932.72
315.7945, 41931.29
316.2766, 41974.74
316.7588, 42005.47
317.2409, 41969.64
317.7230, 41909.17
318.2051, 41897.57
318.6872, 41968.18
319.1693, 42045.24
319.6515, 42067.52
320.1336, 42046.03
320.6157, 42029.77
321.0978, 42033.99
321.5799, 42052.50
322.0620, 42080.17
322.5442, 42120.01
323.0263, 42149.60
323.5084, 42157.54
323.9905, 42153.96
324.4726, 42144.54
324.9547, 42130.41
325.4369, 42134.00
325.9190, 42185.62
326.4011, 42291.76
326.8832, 42353.25
327.3653, 42337.27
327.8474, 42308.99
328.3296, 42301.40
328.8117, 42312.06
329.2938, 42327.30
329.7759, 42339.59
330.2580, 42349.51
330.7401, 42359.41
331.2223, 42378.98
331.7044, 42386.44
332.1865, 42358.84
332.6686, 42327.47
333.1507, 42329.50
333.6328, 42375.02
334.1150, 42441.50
334.5971, 42501.05
335.0792, 42568.68
335.5613, 42584.77
336.0434, 42496.29
336.5255, 42409.43
337.0077, 42383.80
337.4898, 42411.04
337.9719, 42446.23
338.4540, 42453.59
338.9361, 42437.05
339.4182, 42433.02
339.9004, 42454.18
340.3825, 42469.14
340.8646, 42469.57
341.3467, 42459.10
341.8288, 42439.38
342.3109, 42408.85
342.7931, 42379.40
343.2752, 42365.51
343.7573, 42366.27
344.2394, 42391.42
344.7215, 42473.44
345.2036, 42556.84
345.6858, 42592.45
346.1679, 42579.09
346.6500, 42562.81
347.1321, 42570.29
347.6142, 42596.98
348.0963, 42634.16
348.5785, 42685.67
349.0606, 42733.13
349.5427, 42753.08
350.0248, 42756.24
350.5069, 42775.14
350.9890, 42836.35
351.4712, 42898.92
351.9533, 42929.01
352.4354, 42930.36
352.9175, 42921.10
353.3996, 42905.54
353.8817, 42889.42
354.3639, 42890.40
354.8460, 42918.38
355.3281, 42938.82
355.8102, 42930.93
356.2923, 42917.39
356.7744, 42931.84
357.2566, 42979.58
357.7387, 43028.68
358.2208, 43041.56
358.7029, 43009.00
359.1850, 42991.03
359.6671, 42996.55
360.1493, 43005.52
360.6314, 43005.83
361.1135, 43002.64
361.5956, 43010.93
362.0777, 43041.26
362.5598, 43083.76
363.0420, 43100.32
363.5241, 43062.11
364.0062, 43044.57
364.4883, 43075.15
364.9704, 43116.08
365.4525, 43132.82
365.9347, 43119.31
366.4168, 43099.31
366.8989, 43095.78
367.3810, 43108.64
367.8631, 43140.93
368.3452, 43213.25
368.8274, 43280.83
369.3095, 43318.78
369.7916, 43335.16
370.2737, 43350.68
370.7558, 43382.32
371.2379, 43412.76
371.7201, 43400.65
372.2022, 43339.18
372.6843, 43302.14
373.1664, 43333.86
373.6485, 43401.15
374.1306, 43453.26
374.6128, 43487.63
375.0949, 43510.75
375.5770, 43520.71
376.0591, 43522.42
376.5412, 43525.56
377.0233, 43532.19
377.5055, 43539.31
377.9876, 43543.53
378.4697, 43544.42
378.9518, 43547.31
379.4339, 43543.24
379.9160, 43549.28
380.3982, 43591.05
380.8803, 43652.89
381.3624, 43688.15
381.8445, 43668.94
382.3266, 43615.61
382.8087, 43589.70
383.2909, 43619.71
383.7730, 43641.71
384.2551, 43641.63
384.7372, 43641.27
385.2193, 43661.45
385.7014, 43703.54
386.1836, 43751.10
386.6657, 43786.23
387.1478, 43807.80
387.6299, 43837.07
388.1120, 43899.09
388.5941, 43938.57
389.0763, 43908.96
389.5584, 43852.54
390.0405, 43840.05
390.5226, 43909.35
391.0047, 44012.07
391.4868, 44069.88
391.9690, 44077.34
392.4511, 44091.03
392.9332, 44142.08
393.4153, 44188.90
393.8974, 44179.58
394.3795, 44114.85
394.8617, 44073.88
395.3438, 44125.89
395.8259, 44215.96
396.3080, 44243.11
396.7901, 44195.28
397.2722, 44146.36
397.7544, 44148.46
398.2365, 44193.52
398.7186, 44229.15
399.2007, 44259.51
399.6828, 44275.94
400.1649, 44266.61
400.6471, 44243.04
401.1292, 44222.09
401.6113, 44209.17
402.0934, 44205.75
402.5755, 44215.84
403.0576, 44249.10
403.5398, 44265.55
404.0219, 44251.41
404.5040, 44235.81
404.9861, 44240.75
405.4682, 44257.11
405.9503, 44255.89
406.4325, 44214.31
406.9146, 44151.71
407.3967, 44144.24
407.8788, 44234.85
408.3609, 44291.85
408.8430, 44270.56
409.3252, 44221.66
409.8073, 44177.36
410.2894, 44144.59
410.7715, 44125.48
411.2536, 44126.30
411.7357, 44143.71
412.2179, 44161.93
412.7000, 44181.91
413.1821, 44197.90
413.6642, 44207.11
414.1463, 44209.32
414.6284, 44201.13
415.1106, 44167.91
415.5927, 44141.19
416.0748, 44152.91
416.5569, 44191.03
417.0390, 44215.74
417.5211, 44211.04
418.0033, 44197.58
418.4854, 44210.13
418.9675, 44265.46
419.4496, 44286.87
419.9317, 44238.10
420.4138, 44182.11
420.8960, 44161.41
421.3781, 44171.98
421.8602, 44188.28
422.3423, 44193.74
422.8244, 44192.34
423.3065, 44203.21
423.7887, 44255.37
424.2708, 44272.78
424.7529, 44209.48
425.2350, 44137.16
425.7171, 44125.80
426.1992, 44178.73
426.6814, 44231.80
427.1635, 44206.03
427.6456, 44111.95
428.1277, 44083.46
428.6098, 44148.79
429.0919, 44226.18
429.5741, 44287.23
430.0562, 44329.88
430.5383, 44345.51
431.0204, 44322.90
431.5025, 44292.94
431.9846, 44284.87
432.4668, 44291.33
432.9489, 44279.20
433.4310, 44232.43
433.9131, 44191.85
434.3952, 44217.82
434.8773, 44320.47
435.3595, 44376.03
435.8416, 44328.59
436.3237, 44276.60
436.8058, 44300.43
437.2879, 44369.98
437.7701, 44393.57
438.2522, 44320.41
438.7343, 44198.37
439.2164, 44152.40
439.6985, 44245.82
440.1806, 44303.88
440.6628, 44285.31
441.1449, 44265.83
441.6270, 44307.20
442.1091, 44397.93
442.5912, 44475.14
443.0733, 44484.14
443.5555, 44445.43
444.0376, 44443.00
444.5197, 44493.48
445.0018, 44533.70
445.4839, 44534.70
445.9660, 44515.69
446.4482, 44490.34
446.9303, 44458.86
447.4124, 44433.54
447.8945, 44412.91
448.3766, 44405.59
448.8587, 44441.35
449.3409, 44527.85
449.8230, 44607.97
450.3051, 44638.53
450.7872, 44621.33
451.2693, 44591.75
451.7514, 44538.83
452.2336, 44487.38
452.7157, 44428.91
453.1978, 44382.89
453.6799, 44386.42
454.1620, 44446.97
454.6441, 44524.02
455.1263, 44565.82
455.6084, 44567.52
456.0905, 44561.27
456.5726, 44531.70
457.0547, 44509.98
457.5368, 44519.79
458.0190, 44540.33
458.5011, 44532.13
458.9832, 44473.07
459.4653, 44406.31
459.9474, 44395.56
460.4295, 44441.54
460.9117, 44498.90
461.3938, 44569.24
461.8759, 44634.75
462.3580, 44679.00
462.8401, 44704.80
463.3222, 44725.15
463.8044, 44745.21
464.2865, 44760.11
464.7686, 44764.32
465.2507, 44759.21
465.7328, 44747.39
466.2149, 44727.61
466.6971, 44710.24
467.1792, 44716.57
467.6613, 44762.17
468.1434, 44799.87
468.6255, 44827.86
469.1076, 44849.80
469.5898, 44871.56
470.0719, 44889.38
470.5540, 44889.31
471.0361, 44859.13
471.5182, 44814.63
472.0003, 44806.13
472.4825, 44852.09
472.9646, 44883.86
473.4467, 44874.71
473.9288, 44855.11
474.4109, 44839.63
474.8930, 44830.60
475.3752, 44831.45
475.8573, 44859.36
476.3394, 44892.41
476.8215, 44885.24
477.3036, 44836.52
477.7857, 44793.65
478.2679, 44778.17
478.7500, 44785.29
479.2321, 44803.56
479.7142, 44827.46
480.1963, 44872.19
480.6784, 44985.41
481.1606, 45090.65
481.6427, 45097.24
482.1248, 45015.89
482.6069, 44939.96
483.0890, 44941.08
483.5711, 45003.75
484.0533, 45042.45
484.5354, 45050.54
485.0175, 45043.63
485.4996, 44999.37
485.9817, 44960.11
486.4638, 44965.20
486.9460, 45015.50
487.4281, 45075.29
487.9102, 45126.07
488.3923, 45164.55
488.8744, 45177.72
489.3565, 45162.58
489.8387, 45137.37
490.3208, 45098.94
490.8029, 45063.03
491.2850, 45062.13
491.7671, 45108.59
492.2492, 45153.45
492.7314, 45178.34
493.2135, 45193.86
493.6956, 45211.80
494.1777, 45233.11
494.6598, 45254.49
495.1419, 45275.68
495.6241, 45293.21
496.1062, 45284.45
496.5883, 45234.70
497.0704, 45177.56
497.5525, 45088.21
498.0346, 45012.13
498.5168, 44996.49
498.9989, 45040.11
499.4810, 45094.44
499.9631, 45114.41
500.4452, 45113.32
500.9273, 45150.70
501.4095, 45241.59
501.8916, 45306.22
502.3737, 45293.46
502.8558, 45243.25
503.3379, 45219.84
503.8200, 45229.30
504.3022, 45244.80
504.7843, 45255.52
505.2664, 45267.53
505.7485, 45298.55
506.2306, 45343.60
506.7127, 45361.52
507.1949, 45319.18
507.6770, 45235.90
508.1591, 45196.54
508.6412, 45225.81
509.1233, 45265.67
509.6054, 45328.38
510.0876, 45388.15
510.5697, 45433.48
511.0518, 45458.96
511.5339, 45452.21
512.0161, 45383.24
512.4982, 45289.14
512.9803, 45285.73
513.4624, 45391.00
513.9445, 45477.75
514.4266, 45494.75
514.9088, 45477.32
515.3909, 45467.88
515.8730, 45465.66
516.3551, 45479.14
516.8372, 45537.16
517.3193, 45592.64
517.8015, 45598.59
518.2836, 45560.46
518.7657, 45508.07
519.2478, 45455.51
519.7299, 45406.61
520.2120, 45368.56
520.6942, 45324.99
521.1763, 45325.74
521.6584, 45419.84
522.1405, 45507.04
522.6226, 45521.34
523.1047, 45484.06
523.5869, 45462.11
524.0690, 45500.36
524.5511, 45549.70
525.0332, 45503.08
525.5153, 45361.57
525.9974, 45305.53
526.4796, 45410.72
526.9617, 45560.56
527.4438, 45633.29
527.9259, 45637.97
528.4080, 45635.63
528.8901, 45625.20
529.3723, 45619.30
529.8544, 45634.03
530.3365, 45657.05
530.8186, 45657.66
531.3007, 45626.40
531.7828, 45595.76
532.2650, 45617.09
532.7471, 45705.79
533.2292, 45750.40
533.7113, 45710.01
534.1934, 45671.02
534.6755, 45645.84
535.1577, 45642.83
535.6398, 45685.05
536.1219, 45785.51
536.6040, 45871.05
537.0861, 45850.59
537.5682, 45759.61
538.0504, 45715.30
538.5325, 45734.79
539.0146, 45776.62
539.4967, 45822.49
539.9788, 45865.91
540.4609, 45875.02
540.9431, 45813.30
541.4252, 45771.30
541.9073, 45777.10
542.3894, 45804.33
542.8715, 45837.58
543.3536, 45868.90
543.8358, 45885.50
544.3179, 45878.37
544.8000, 45847.28
545.2821, 45776.10
545.7642, 45621.53
546.2463, 45546.78
546.7285, 45677.70
547.2106, 45842.21
547.6926, 45904.14
548.1747, 45865.54
548.6569, 45821.90
549.1390, 45814.59
549.6211, 45822.93
550.1032, 45825.72
550.5853, 45824.18
551.0674, 45827.00
551.5496, 45838.47
552.0317, 45851.49
552.5138, 45852.98
552.9959, 45834.21
553.4780, 45834.06
553.9601, 45874.03
554.4423, 45906.88
554.9244, 45894.33
555.4065, 45868.13
555.8886, 45884.55
556.3707, 45965.39
556.8528, 46062.00
557.3350, 46121.58
557.8171, 46145.80
558.2992, 46142.98
558.7813, 46105.04
559.2634, 46067.88
559.7455, 46054.88
560.2277, 46061.25
560.7098, 46069.01
561.1919, 46079.61
561.6740, 46088.84
562.1561, 46082.23
562.6382, 46081.63
563.1204, 46131.36
563.6025, 46219.60
564.0846, 46269.12
564.5667, 46215.50
565.0488, 46094.18
565.5309, 46049.94
566.0131, 46119.46
566.4952, 46173.39
566.9773, 46175.39
567.4594, 46166.45
567.9415, 46163.05
568.4236, 46169.32
568.9058, 46196.75
569.3879, 46284.95
569.8700, 46365.30
570.3521, 46344.50
570.8342, 46254.57
571.3163, 46207.19
571.7985, 46238.39
572.2806, 46302.32
572.7627, 46346.68
573.2448, 46370.66
573.7269, 46383.39
574.2090, 46400.73
574.6912, 46388.70
575.1733, 46300.31
575.6554, 46198.28
576.1375, 46155.25
576.6196, 46185.32
577.1017, 46241.68
577.5839, 46283.93
578.0660, 46318.42
578.5481, 46374.07
579.0302, 46455.94
579.5123, 46516.10
579.9944, 46527.66
580.4766, 46509.00
580.9587, 46492.14
581.4408, 46475.55
581.9229, 46465.70
582.4050, 46468.71
582.8871, 46474.09
583.3693, 46476.65
583.8514, 46475.80
584.3335, 46468.57
584.8156, 46453.49
585.2977, 46442.07
585.7798, 46453.81
586.2620, 46490.24
586.7441, 46534.92
587.2262, 46601.89
587.7083, 46653.05
588.1904, 46656.49
588.6725, 46632.80
589.1547, 46611.96
589.6368, 46593.34
590.1189, 46589.71
590.6010, 46617.88
591.0831, 46658.74
591.5652, 46696.95
592.0474, 46726.04
592.5295, 46723.80
593.0116, 46670.07
593.4937, 46590.30
593.9758, 46568.81
594.4579, 46645.48
594.9401, 46685.70
595.4222, 46637.94
595.9043, 46587.89
596.3864, 46582.11
596.8685, 46608.10
597.3506, 46629.14
597.8328, 46628.90
598.3149, 46625.00
598.7970, 46627.73
599.2791, 46639.73
599.7612, 46674.40
600.2433, 46734.54
600.7255, 46790.61
601.2076, 46817.95
601.6897, 46818.92
602.1718, 46812.81
602.6539, 46789.10
603.1360, 46772.68
603.6182, 46766.43
604.1003, 46767.18
604.5824, 46778.33
605.0645, 46795.34
605.5466, 46801.77
606.0287, 46778.00
606.5109, 46752.45
606.9930, 46788.13
607.4751, 46872.42
607.9572, 46892.70
608.4393, 46806.11
608.9214, 46708.30
609.4036, 46699.09
609.8857, 46779.06
610.3678, 46835.33
610.8499, 46861.20
611.3320, 46874.27
611.8141, 46878.52
612.2963, 46871.97
612.7784, 46840.38
613.2605, 46790.72
613.7426, 46760.79
614.2247, 46787.27
614.7068, 46846.96
615.1890, 46883.86
615.6711, 46897.37
616.1532, 46901.44
616.6353, 46897.44
617.1174, 46889.98
617.5995, 46882.36
618.0817, 46874.59
618.5638, 46873.84
619.0459, 46885.78
619.5280, 46898.53
620.0101, 46918.40
620.4922, 46931.07
620.9744, 46915.63
621.4565, 46870.52
621.9386, 46812.79
622.4207, 46745.21
622.9028, 46682.48
623.3849, 46698.60
623.8671, 46811.93
624.3492, 46894.27
624.8313, 46889.16
625.3134, 46857.19
625.7955, 46878.96
626.2776, 46950.78
626.7598, 46991.48
627.2419, 46957.84
627.7240, 46925.22
628.2061, 46948.30
628.6882, 46989.68
629.1703, 46986.90
629.6525, 46929.71
630.1346, 46861.68
630.6167, 46815.13
631.0988, 46796.17
631.5809, 46858.10
632.0630, 47037.85
632.5452, 47151.80
633.0273, 47109.63
633.5094, 47011.28
633.9915, 46965.66
634.4736, 46970.02
634.9557, 46976.80
635.4379, 46971.81
635.9200, 46972.27
636.4021, 47002.33
636.8842, 47038.86
637.3663, 47034.48
637.8484, 46984.05
638.3306, 46942.31
638.8127, 46972.19
639.2948, 47056.83
639.7769, 47086.70
640.2590, 47044.13
640.7411, 47010.38
641.2233, 47017.25
641.7054, 47034.00
642.1875, 47016.11
642.6696, 46968.93
643.1517, 46964.35
643.6339, 47064.46
644.1160, 47160.33
644.5981, 47188.27
645.0802, 47174.86
645.5623, 47157.07
646.0444, 47145.18
646.5266, 47136.25
647.0087, 47128.03
647.4908, 47120.35
647.9729, 47107.51
648.4550, 47081.35
648.9371, 47087.05
649.4193, 47169.43
649.9014, 47251.28
650.3835, 47240.39
650.8656, 47152.96
651.3477, 47104.67
651.8298, 47143.82
652.3120, 47192.95
652.7941, 47224.80
653.2762, 47240.66
653.7583, 47229.93
654.2404, 47199.68
654.7225, 47194.18
655.2047, 47261.04
655.6868, 47363.97
656.1689, 47366.89
656.6510, 47247.48
657.1331, 47167.20
657.6152, 47171.73
658.0974, 47207.25
658.5795, 47240.00
659.0616, 47266.38
659.5437, 47266.30
660.0258, 47187.19
660.5079, 47144.54
660.9901, 47225.30
661.4722, 47331.47
661.9543, 47349.41
662.4364, 47282.63
662.9185, 47215.05
663.4006, 47203.63
663.8828, 47221.73
664.3649, 47209.57
664.8470, 47165.93
665.3291, 47130.86
665.8112, 47107.63
666.2933, 47100.68
666.7755, 47118.70
667.2576, 47156.30
