##NAMES=Hematite
##RRUFFID=R060190
##IDEAL CHEMISTRY=Fe^3+^_2_O_3_
##LOCALITY=Florence mine, Egremont, Cumbria, England
##OWNER=RRUFF
##SOURCE=Lloyd Twaites
##DESCRIPTION=Red tinged, steel-gray fragment of a botryoidal mass
##STATUS=The identification of this mineral has been confirmed by X-ray diffraction and chemical analysis
##URL=rruff.info/R060190
##MEASURED CHEMISTRY=Fe_2.00_O_3_
182.866, 657.476
183.348, 662.348
183.830, 667.555
184.312, 670.385
184.795, 668.030
185.277, 660.653
185.759, 657.979
186.241, 666.169
186.723, 673.482
187.205, 676.112
187.687, 675.572
188.169, 675.433
188.652, 678.548
189.134, 684.744
189.616, 688.766
190.098, 689.847
190.580, 689.270
191.062, 685.991
191.544, 681.259
192.026, 677.265
192.508, 675.581
192.991, 676.098
193.473, 676.932
193.955, 678.373
194.437, 679.886
194.919, 681.029
195.401, 682.188
195.883, 684.292
196.365, 688.246
196.848, 693.643
197.330, 696.386
197.812, 690.696
198.294, 688.229
198.776, 692.961
199.258, 702.293
199.740, 712.336
200.222, 720.959
200.704, 727.923
201.186, 731.390
201.669, 728.072
202.151, 724.331
202.633, 719.601
203.115, 715.304
203.597, 713.406
204.079, 715.118
204.561, 719.910
205.044, 725.068
205.526, 731.487
206.008, 737.268
206.490, 742.198
206.972, 746.341
207.454, 749.697
207.936, 752.225
208.418, 754.168
208.900, 756.403
209.383, 757.873
209.865, 761.102
210.347, 766.188
210.829, 773.183
211.311, 782.116
211.793, 793.055
212.275, 805.800
212.757, 820.019
213.240, 837.059
213.722, 853.851
214.204, 868.277
214.686, 883.080
215.168, 899.722
215.650, 918.965
216.132, 942.659
216.614, 975.630
217.096, 1023.357
217.579, 1072.361
218.061, 1121.676
218.543, 1171.821
219.025, 1222.864
219.507, 1274.864
219.989, 1329.440
220.471, 1390.455
220.953, 1465.037
221.435, 1532.541
221.918, 1585.483
222.400, 1637.103
222.882, 1700.718
223.364, 1777.771
223.846, 1856.117
224.328, 1920.447
224.810, 1976.657
225.292, 2002.240
225.775, 2009.031
226.257, 1982.148
226.739, 1900.585
227.221, 1767.145
227.703, 1613.540
228.185, 1474.288
228.667, 1348.817
229.149, 1241.742
229.631, 1154.880
230.113, 1083.185
230.596, 1027.234
231.078, 985.391
231.560, 953.255
232.042, 927.091
232.524, 906.918
233.006, 892.002
233.488, 884.384
233.971, 880.475
234.453, 879.479
234.935, 881.260
235.417, 886.186
235.899, 895.511
236.381, 909.158
236.863, 919.147
237.345, 919.384
237.827, 922.267
238.309, 933.175
238.792, 949.439
239.274, 965.480
239.756, 977.477
240.238, 986.253
240.720, 996.450
241.202, 1008.033
241.684, 1021.296
242.166, 1036.921
242.649, 1053.860
243.131, 1071.616
243.613, 1090.730
244.095, 1108.916
244.577, 1119.676
245.059, 1122.749
245.541, 1118.228
246.023, 1107.661
246.505, 1090.273
246.988, 1062.895
247.470, 1023.047
247.952, 979.032
248.434, 945.248
248.916, 923.549
249.398, 906.510
249.880, 895.972
250.362, 887.127
250.844, 875.743
251.327, 860.570
251.809, 845.520
252.291, 836.204
252.773, 833.475
253.255, 829.253
253.737, 816.549
254.219, 805.781
254.702, 806.263
255.184, 818.679
255.666, 832.105
256.148, 836.919
256.630, 833.630
257.112, 830.006
257.594, 825.359
258.076, 822.876
258.558, 826.040
259.040, 834.004
259.523, 840.951
260.005, 842.731
260.487, 840.586
260.969, 838.231
261.451, 834.760
261.933, 833.620
262.415, 838.880
262.897, 848.632
263.380, 857.516
263.862, 861.925
264.344, 864.626
264.826, 870.682
265.308, 880.903
265.790, 891.550
266.272, 901.473
266.754, 909.890
267.237, 914.534
267.719, 909.174
268.201, 904.243
268.683, 912.545
269.165, 933.657
269.647, 952.552
270.129, 959.335
270.611, 959.103
271.093, 966.308
271.576, 986.795
272.058, 1006.552
272.540, 1012.416
273.022, 1009.480
273.504, 1017.511
273.986, 1047.508
274.468, 1088.457
274.950, 1116.654
275.432, 1127.732
275.915, 1140.476
276.397, 1159.627
276.879, 1184.561
277.361, 1214.477
277.843, 1249.071
278.325, 1288.218
278.807, 1330.965
279.289, 1376.281
279.772, 1429.511
280.254, 1491.835
280.736, 1562.095
281.218, 1638.816
281.700, 1721.864
282.182, 1810.477
282.664, 1902.545
283.146, 1996.677
283.629, 2110.186
284.111, 2253.529
284.593, 2404.950
285.075, 2551.013
285.557, 2693.986
286.039, 2842.450
286.521, 3004.923
287.003, 3179.965
287.485, 3353.478
287.967, 3533.490
288.450, 3704.145
288.932, 3861.053
289.414, 4006.494
289.896, 4150.016
290.378, 4296.892
290.860, 4435.819
291.342, 4533.762
291.824, 4598.278
292.307, 4603.438
292.789, 4535.251
293.271, 4418.165
293.753, 4263.144
294.235, 4077.173
294.717, 3881.034
295.199, 3704.461
295.681, 3545.826
296.164, 3415.064
296.646, 3329.229
297.128, 3255.668
297.610, 3181.933
298.092, 3104.683
298.574, 3022.141
299.056, 2932.475
299.538, 2836.189
300.020, 2731.908
300.503, 2615.336
300.985, 2495.673
301.467, 2372.517
301.949, 2249.657
302.431, 2133.726
302.913, 2028.889
303.395, 1933.463
303.877, 1841.851
304.359, 1752.831
304.842, 1670.963
305.324, 1598.163
305.806, 1532.682
306.288, 1473.433
306.770, 1420.855
307.252, 1372.774
307.734, 1326.494
308.216, 1281.915
308.698, 1241.977
309.181, 1209.760
309.663, 1181.058
310.145, 1149.134
310.627, 1112.982
311.109, 1079.838
311.591, 1053.755
312.073, 1033.679
312.556, 1017.573
313.038, 1005.948
313.520, 995.283
314.002, 981.108
314.484, 963.702
314.966, 947.081
315.448, 930.337
315.930, 915.687
316.412, 907.697
316.895, 906.133
317.377, 901.879
317.859, 886.297
318.341, 860.662
318.823, 845.288
319.305, 848.222
319.787, 852.302
320.269, 850.856
320.751, 844.706
321.234, 835.497
321.716, 823.597
322.198, 810.785
322.680, 802.568
323.162, 803.722
323.644, 803.535
324.126, 799.153
324.608, 794.341
325.091, 793.474
325.573, 797.407
326.055, 802.981
326.537, 806.248
327.019, 807.567
327.501, 805.041
327.983, 792.524
328.465, 782.127
328.947, 781.636
329.430, 789.090
329.912, 796.730
330.394, 798.504
330.876, 794.938
331.358, 791.689
331.840, 789.591
332.322, 786.620
332.804, 781.655
333.286, 775.747
333.769, 769.938
334.251, 764.273
334.733, 760.059
335.215, 760.731
335.697, 767.956
336.179, 772.079
336.661, 766.216
337.143, 759.030
337.625, 758.892
338.108, 766.958
338.590, 773.307
339.072, 766.063
339.554, 749.844
340.036, 746.053
340.518, 763.102
341.000, 782.275
341.483, 784.857
341.965, 774.467
342.447, 764.667
342.929, 757.948
343.411, 754.388
343.893, 755.506
344.375, 761.042
344.857, 765.945
345.339, 766.490
345.822, 764.066
346.304, 764.976
346.786, 773.671
347.268, 780.261
347.750, 778.996
348.232, 773.559
348.714, 770.450
349.196, 772.043
349.678, 776.338
350.161, 780.143
350.643, 784.925
351.125, 785.751
351.607, 780.391
352.089, 772.857
352.571, 764.152
353.053, 755.515
353.535, 749.957
354.017, 750.479
354.500, 757.176
354.982, 764.709
355.464, 779.282
355.946, 788.018
356.428, 783.143
356.910, 771.756
357.392, 764.561
357.874, 766.946
358.357, 774.573
358.839, 778.234
359.321, 776.729
359.803, 774.915
360.285, 772.873
360.767, 771.494
361.249, 772.122
361.731, 774.757
362.214, 776.734
362.696, 774.693
363.178, 769.739
363.660, 767.657
364.142, 769.470
364.624, 773.321
365.106, 779.837
365.588, 787.494
366.070, 791.881
366.552, 787.242
367.035, 781.842
367.517, 785.742
367.999, 797.892
368.481, 808.163
368.963, 811.248
369.445, 809.392
369.927, 808.757
370.409, 809.838
370.892, 810.951
371.374, 809.487
371.856, 808.617
372.338, 814.508
372.820, 828.293
373.302, 841.982
373.784, 845.163
374.266, 833.844
374.749, 829.642
375.231, 837.993
375.713, 847.164
376.195, 851.956
376.677, 853.008
377.159, 852.456
377.641, 851.308
378.123, 850.383
378.605, 853.124
379.088, 862.020
379.570, 870.509
380.052, 878.834
380.534, 885.602
381.016, 889.212
381.498, 889.399
381.980, 888.168
382.462, 886.489
382.944, 884.400
383.427, 886.412
383.909, 894.840
384.391, 904.936
384.873, 913.581
385.355, 921.184
385.837, 928.973
386.319, 938.403
386.801, 947.743
387.284, 953.901
387.766, 956.901
388.248, 960.630
388.730, 966.515
389.212, 974.711
389.694, 985.003
390.176, 996.479
390.658, 1011.675
391.140, 1034.624
391.623, 1060.664
392.105, 1082.027
392.587, 1097.308
393.069, 1111.926
393.551, 1131.655
394.033, 1156.615
394.515, 1186.875
394.997, 1225.219
395.479, 1265.355
395.962, 1304.750
396.444, 1343.711
396.926, 1382.685
397.408, 1421.580
397.890, 1462.182
398.372, 1508.928
398.854, 1561.721
399.336, 1621.511
399.819, 1690.724
400.301, 1764.219
400.783, 1837.841
401.265, 1911.357
401.747, 1987.192
402.229, 2065.678
402.711, 2147.743
403.193, 2242.096
403.676, 2355.198
404.158, 2468.615
404.640, 2571.622
405.122, 2667.380
405.604, 2761.071
406.086, 2857.047
406.568, 2946.818
407.050, 3021.029
407.532, 3081.660
408.014, 3138.908
408.497, 3198.748
408.979, 3252.424
409.461, 3286.707
409.943, 3304.234
410.425, 3296.518
410.907, 3255.024
411.389, 3192.930
411.871, 3117.997
412.354, 3032.488
412.836, 2939.939
413.318, 2843.092
413.800, 2741.517
414.282, 2631.324
414.764, 2500.653
415.246, 2375.379
415.728, 2259.179
416.211, 2149.786
416.693, 2046.986
417.175, 1950.472
417.657, 1857.657
418.139, 1763.511
418.621, 1666.771
419.103, 1584.787
419.585, 1527.332
420.067, 1475.332
420.550, 1414.938
421.032, 1351.396
421.514, 1298.880
421.996, 1268.031
422.478, 1246.583
422.960, 1217.686
423.442, 1181.785
423.924, 1149.549
424.406, 1126.676
424.889, 1108.518
425.371, 1086.622
425.853, 1059.738
426.335, 1034.811
426.817, 1013.109
427.299, 994.759
427.781, 980.684
428.263, 970.667
428.746, 963.010
429.228, 956.903
429.710, 952.099
430.192, 943.782
430.674, 926.986
431.156, 912.667
431.638, 903.781
432.120, 897.947
432.603, 892.561
433.085, 886.749
433.567, 880.865
434.049, 875.644
434.531, 871.266
435.013, 865.971
435.495, 859.953
435.977, 852.581
436.459, 841.699
436.941, 829.292
437.424, 820.029
437.906, 815.557
438.388, 815.416
438.870, 821.588
439.352, 833.509
439.834, 841.052
440.316, 839.933
440.798, 833.397
441.281, 825.963
441.763, 817.397
442.245, 809.526
442.727, 800.000
443.209, 793.227
443.691, 796.927
444.173, 809.172
444.655, 817.440
445.138, 812.079
445.620, 795.518
446.102, 784.130
446.584, 779.063
447.066, 778.285
447.548, 785.906
448.030, 795.202
448.512, 800.034
448.994, 799.155
449.477, 795.458
449.959, 790.968
450.441, 785.695
450.923, 783.172
451.405, 785.085
451.887, 786.974
452.369, 787.406
452.851, 786.186
453.333, 782.367
453.816, 774.096
454.298, 766.339
454.780, 763.421
455.262, 764.561
455.744, 767.455
456.226, 771.898
456.708, 776.434
457.190, 779.165
457.672, 779.690
458.155, 780.838
458.637, 786.421
459.119, 789.081
459.601, 781.389
460.083, 767.685
460.565, 758.249
461.047, 758.313
461.530, 764.170
462.012, 767.240
462.494, 765.555
462.976, 765.547
463.458, 769.508
463.940, 773.515
464.422, 776.514
464.904, 777.769
465.386, 775.402
465.868, 764.883
466.351, 751.882
466.833, 751.265
467.315, 764.909
467.797, 775.879
468.279, 776.166
468.761, 771.000
469.243, 768.454
469.725, 768.333
470.208, 771.478
470.690, 782.738
471.172, 794.931
471.654, 798.460
472.136, 793.234
472.618, 786.761
473.100, 784.500
473.582, 785.802
474.065, 785.950
474.547, 779.459
475.029, 778.739
475.511, 790.255
475.993, 804.827
476.475, 813.301
476.957, 814.462
477.439, 814.350
477.921, 818.281
478.404, 826.119
478.886, 837.915
479.368, 858.127
479.850, 872.951
480.332, 870.759
480.814, 860.589
481.296, 853.743
481.778, 852.253
482.260, 853.875
482.743, 857.894
483.225, 863.878
483.707, 870.971
484.189, 879.080
484.671, 888.199
485.153, 898.732
485.635, 910.804
486.117, 920.548
486.599, 924.075
487.082, 930.206
487.564, 945.570
488.046, 963.399
488.528, 973.692
489.010, 973.789
489.492, 971.099
489.974, 975.989
490.457, 989.474
490.939, 999.787
491.421, 1005.848
491.903, 1009.897
492.385, 1011.424
492.867, 1012.198
493.349, 1015.707
493.831, 1024.319
494.313, 1032.943
494.796, 1036.984
495.278, 1037.373
495.760, 1037.521
496.242, 1038.500
496.724, 1037.602
497.206, 1030.703
497.688, 1016.821
498.170, 1009.485
498.652, 1019.792
499.135, 1024.236
499.617, 1008.326
500.099, 981.958
500.581, 960.516
501.063, 949.627
501.545, 944.245
502.027, 937.809
502.509, 930.530
502.991, 920.670
503.474, 905.998
503.956, 891.419
504.438, 878.019
504.920, 866.520
505.402, 858.646
505.884, 857.056
506.366, 855.222
506.848, 845.694
507.331, 830.708
507.813, 818.416
508.295, 810.968
508.777, 805.324
509.259, 797.919
509.741, 788.359
510.223, 782.299
510.705, 782.783
511.188, 783.230
511.670, 781.208
512.152, 777.485
512.634, 773.272
513.116, 769.019
513.598, 764.681
514.080, 760.479
514.562, 756.623
515.044, 750.843
515.526, 740.717
516.009, 732.029
516.491, 727.235
516.973, 725.731
517.455, 726.883
517.937, 731.450
518.419, 736.616
518.901, 741.002
519.383, 744.260
519.865, 745.586
520.348, 744.819
520.830, 741.912
521.312, 736.344
521.794, 728.007
522.276, 721.481
522.758, 714.728
523.240, 711.801
523.722, 717.199
524.205, 725.384
524.687, 729.765
525.169, 728.768
525.651, 725.495
526.133, 723.590
526.615, 722.899
527.097, 719.229
527.579, 710.013
528.062, 703.348
528.544, 705.595
529.026, 712.329
529.508, 717.627
529.990, 720.610
530.472, 722.792
530.954, 724.917
531.436, 726.733
531.919, 727.610
532.401, 727.570
532.883, 727.899
533.365, 730.101
533.847, 733.344
534.329, 731.606
534.811, 717.783
535.293, 708.620
535.775, 710.062
536.258, 713.589
536.740, 709.908
537.222, 699.850
537.704, 694.277
538.186, 705.633
538.668, 726.283
539.150, 734.198
539.632, 727.909
540.114, 721.931
540.597, 722.545
541.079, 726.125
541.561, 727.000
542.043, 725.372
542.525, 720.949
543.007, 707.466
543.489, 696.168
543.971, 698.479
544.453, 711.046
544.936, 722.384
545.418, 726.325
545.900, 725.608
546.382, 726.525
546.864, 730.338
547.346, 731.897
547.828, 728.304
548.310, 724.793
548.792, 723.945
549.275, 725.292
549.757, 727.418
550.239, 730.425
550.721, 733.062
551.203, 734.271
551.685, 734.055
552.167, 731.996
552.649, 727.758
553.132, 723.080
553.614, 719.200
554.096, 715.788
554.578, 717.599
555.060, 729.741
555.542, 740.251
556.024, 745.379
556.506, 747.246
556.989, 748.138
557.471, 748.806
557.953, 749.500
558.435, 750.993
558.917, 752.970
559.399, 752.582
559.881, 748.878
560.363, 746.022
560.846, 747.383
561.328, 750.220
561.810, 748.464
562.292, 739.109
562.774, 734.437
563.256, 743.486
563.738, 755.425
564.220, 759.084
564.702, 754.953
565.185, 749.745
565.667, 747.412
566.149, 747.506
566.631, 748.933
567.113, 752.201
567.595, 755.471
568.077, 759.402
568.559, 762.499
569.041, 764.832
569.524, 765.733
570.006, 763.130
570.488, 753.657
570.970, 743.604
571.452, 739.145
571.934, 739.315
572.416, 741.620
572.898, 745.610
573.380, 749.259
573.863, 749.982
574.345, 747.445
574.827, 747.724
575.309, 753.280
575.791, 758.506
576.273, 760.937
576.755, 763.088
577.237, 768.448
577.719, 777.380
578.202, 786.105
578.684, 793.491
579.166, 797.993
579.648, 790.841
580.130, 769.805
580.612, 755.810
581.094, 760.717
581.576, 775.999
582.059, 785.000
582.541, 785.839
583.023, 788.901
583.505, 798.321
583.987, 807.963
584.469, 812.275
584.951, 813.440
585.433, 817.982
585.916, 829.190
586.398, 841.912
586.880, 846.525
587.362, 841.912
587.844, 840.340
588.326, 842.616
588.808, 848.213
589.290, 860.290
589.773, 874.959
590.255, 883.567
590.737, 879.863
591.219, 879.413
591.701, 893.684
592.183, 913.757
592.665, 927.547
593.147, 933.840
593.629, 937.914
594.112, 943.646
594.594, 950.586
595.076, 956.166
595.558, 957.295
596.040, 963.927
596.522, 980.187
597.004, 1000.377
597.486, 1022.737
597.968, 1046.364
598.451, 1068.184
598.933, 1083.705
599.415, 1100.190
599.897, 1127.005
600.379, 1160.408
600.861, 1187.597
601.343, 1204.864
601.825, 1223.423
602.307, 1257.254
602.790, 1307.224
603.272, 1344.953
603.754, 1357.857
604.236, 1374.275
604.718, 1397.740
605.200, 1427.737
605.682, 1469.062
606.164, 1519.873
606.646, 1562.038
607.129, 1573.975
607.611, 1573.347
608.093, 1594.151
608.575, 1634.458
609.057, 1671.359
609.539, 1698.206
610.021, 1711.514
610.503, 1703.643
610.986, 1666.421
611.468, 1641.104
611.950, 1640.549
612.432, 1636.000
612.914, 1615.174
613.396, 1584.419
613.878, 1552.202
614.360, 1520.959
614.843, 1490.088
615.325, 1460.708
615.807, 1431.115
616.289, 1393.377
616.771, 1346.115
617.253, 1305.155
617.735, 1281.163
618.217, 1265.339
618.700, 1238.207
619.182, 1192.579
619.664, 1154.091
620.146, 1129.106
620.628, 1106.606
621.110, 1080.765
621.592, 1052.710
622.074, 1024.074
622.556, 995.433
623.039, 970.715
623.521, 958.142
624.003, 955.287
624.485, 944.247
624.967, 921.742
625.449, 899.251
625.931, 883.031
626.413, 871.911
626.895, 862.537
627.378, 855.273
627.860, 848.613
628.342, 844.498
628.824, 839.110
629.306, 827.950
629.788, 813.291
630.270, 801.425
630.752, 795.641
631.234, 792.592
631.717, 787.541
632.199, 780.572
632.681, 772.176
633.163, 761.083
633.645, 752.723
634.127, 752.455
634.609, 757.529
635.091, 757.998
635.573, 752.021
636.056, 744.878
636.538, 735.219
637.020, 726.690
637.502, 722.652
637.984, 722.461
638.466, 723.329
638.948, 723.734
639.430, 724.288
639.913, 728.019
640.395, 734.776
640.877, 731.762
641.359, 712.952
641.841, 696.248
642.323, 696.552
642.805, 709.520
643.287, 716.129
643.769, 713.289
644.252, 709.089
644.734, 702.219
645.216, 696.880
645.698, 698.232
646.180, 704.565
646.662, 709.468
647.144, 709.006
647.627, 706.460
648.109, 708.896
648.591, 716.014
649.073, 717.881
649.555, 712.319
650.037, 703.376
650.519, 690.875
651.001, 677.474
651.483, 674.766
651.966, 694.500
652.448, 706.609
652.930, 698.772
653.412, 687.211
653.894, 685.363
654.376, 691.797
654.858, 698.336
655.340, 700.744
655.822, 699.901
656.305, 695.863
656.787, 689.107
657.269, 684.818
657.751, 683.853
658.233, 684.880
658.715, 687.424
659.197, 691.117
659.679, 694.302
660.161, 696.032
660.644, 698.780
661.126, 706.302
661.608, 711.877
662.090, 709.547
662.572, 701.354
663.054, 693.207
663.536, 687.972
664.018, 683.790
664.500, 678.054
664.983, 671.258
665.465, 665.416
665.947, 660.775
666.429, 657.371
666.911, 655.328
667.393, 654.474
667.875, 654.273
668.357, 655.865
668.839, 656.255
669.322, 654.021
669.804, 651.992
670.286, 651.241
670.768, 651.970
671.250, 655.152
671.732, 661.908
672.214, 666.714
672.696, 661.991
673.179, 651.869
673.661, 646.627
674.143, 647.056
674.625, 647.861
675.107, 645.948
675.589, 642.746
676.071, 641.736
676.553, 644.011
677.036, 645.758
677.518, 648.187
678.000, 648.767
678.482, 645.310
678.964, 639.805
679.446, 634.825
679.928, 630.765
680.410, 628.824
680.893, 632.082
681.375, 636.565
681.857, 635.836
682.339, 630.846
682.821, 627.369
683.303, 628.074
683.785, 630.965
684.267, 633.389
684.749, 635.841
685.232, 633.455
685.714, 620.288
686.196, 611.966
686.678, 621.766
687.160, 635.523
687.642, 635.714
688.124, 619.779
688.606, 607.387
689.088, 607.581
689.571, 611.723
690.053, 614.366
690.535, 615.630
691.017, 616.997
691.499, 618.751
691.981, 618.629
692.463, 612.617
692.945, 602.311
693.427, 600.661
693.910, 610.187
694.392, 616.301
694.874, 612.808
695.356, 606.001
695.838, 603.410
696.320, 605.023
696.802, 605.603
697.284, 604.116
697.766, 602.408
698.249, 599.715
698.731, 598.002
699.213, 600.155
699.695, 605.857
700.177, 611.995
700.659, 617.835
701.141, 620.845
701.623, 613.920
702.106, 598.646
702.588, 587.509
703.070, 583.163
703.552, 583.211
704.034, 586.462
704.516, 592.229
704.998, 595.692
705.480, 596.024
705.963, 595.206
706.445, 593.016
706.927, 590.082
707.409, 585.185
707.891, 579.963
708.373, 578.868
708.855, 585.201
709.337, 591.077
709.820, 589.231
710.302, 583.452
710.784, 579.697
711.266, 578.470
711.748, 577.799
712.230, 576.446
712.712, 575.759
713.194, 579.858
713.676, 590.938
714.159, 594.119
714.641, 584.231
715.123, 574.910
715.605, 573.874
716.087, 577.017
716.569, 578.230
717.051, 576.763
717.533, 576.052
718.015, 578.188
718.498, 580.147
718.980, 578.072
719.462, 575.007
719.944, 577.634
720.426, 587.252
720.908, 596.196
721.390, 595.936
721.872, 589.301
722.354, 585.088
722.837, 583.286
723.319, 581.517
723.801, 578.984
724.283, 576.457
724.765, 575.114
725.247, 575.001
725.729, 572.564
726.211, 559.904
726.693, 555.444
727.176, 570.761
727.658, 587.537
728.140, 589.636
728.622, 579.695
729.104, 572.695
729.586, 576.622
730.068, 582.070
730.550, 580.846
