##NAMES=Hematite
##RRUFFID=R070240
##IDEAL CHEMISTRY=Fe^3+^_2_O_3_
##LOCALITY=Moshgai, Gobi Desert, Mongolia
##OWNER=RRUFF
##SOURCE=Michael Scott
##DESCRIPTION=Black fine-grained replacement of massive but fractured magnetite
##STATUS=The identification of this mineral has been confirmed by X-ray diffraction and chemical analysis
##URL=rruff.info/R070240
##MEASURED CHEMISTRY=(Fe^3+^_1.97_Al_0.02_Mn^3+^_0.01_)_Î£=2_O_3_
158.8221, 3311.397
159.3042, 3329.084
159.7863, 3335.969
160.2684, 3342.516
160.7505, 3352.246
161.2326, 3364.880
161.7148, 3377.602
162.1969, 3385.935
162.6790, 3395.115
163.1611, 3410.050
163.6432, 3441.627
164.1253, 3472.128
164.6075, 3483.415
165.0896, 3474.529
165.5717, 3462.083
166.0538, 3501.323
166.5359, 3529.900
167.0180, 3548.390
167.5002, 3526.579
167.9823, 3556.808
168.4644, 3566.181
168.9465, 3574.699
169.4286, 3612.254
169.9107, 3596.302
170.3929, 3633.400
170.8750, 3661.837
171.3571, 3677.372
171.8392, 3683.707
172.3213, 3683.423
172.8034, 3675.263
173.2856, 3665.693
173.7677, 3657.713
174.2498, 3652.450
174.7319, 3653.816
175.2140, 3665.918
175.6961, 3685.659
176.1783, 3710.218
176.6604, 3742.727
177.1425, 3772.826
177.6246, 3785.851
178.1067, 3783.426
178.5888, 3776.887
179.0710, 3772.147
179.5531, 3769.341
180.0352, 3768.757
180.5173, 3769.855
180.9994, 3773.863
181.4815, 3783.938
181.9637, 3800.020
182.4458, 3817.419
182.9279, 3833.341
183.4100, 3847.647
183.8921, 3859.917
184.3742, 3868.679
184.8564, 3875.949
185.3385, 3887.380
185.8206, 3903.491
186.3027, 3918.636
186.7848, 3925.241
187.2669, 3924.575
187.7491, 3926.479
188.2312, 3934.007
188.7133, 3946.693
189.1954, 3964.186
189.6775, 3987.090
190.1596, 4011.637
190.6418, 4035.923
191.1239, 4059.666
191.6060, 4076.784
192.0881, 4078.554
192.5702, 4068.051
193.0524, 4075.606
193.5345, 4105.683
194.0166, 4142.125
194.4987, 4155.426
194.9808, 4143.649
195.4629, 4138.011
195.9451, 4159.837
196.4272, 4208.579
196.9093, 4237.505
197.3914, 4240.101
197.8735, 4230.824
198.3556, 4237.623
198.8378, 4262.532
199.3199, 4290.234
199.8020, 4314.267
200.2841, 4334.626
200.7662, 4346.745
201.2483, 4346.572
201.7305, 4341.465
202.2126, 4351.197
202.6947, 4379.043
203.1768, 4409.510
203.6589, 4432.939
204.1410, 4447.904
204.6232, 4464.925
205.1053, 4486.448
205.5874, 4509.948
206.0695, 4525.840
206.5516, 4531.500
207.0337, 4536.443
207.5159, 4546.555
207.9980, 4561.635
208.4801, 4583.063
208.9622, 4615.530
209.4443, 4654.387
209.9264, 4674.375
210.4086, 4668.407
210.8907, 4657.793
211.3728, 4661.862
211.8549, 4688.732
212.3370, 4701.427
212.8191, 4688.532
213.3013, 4654.690
213.7834, 4639.087
214.2655, 4646.839
214.7476, 4664.680
215.2297, 4684.084
215.7118, 4710.687
216.1940, 4722.533
216.6761, 4709.436
217.1582, 4673.191
217.6403, 4658.100
218.1224, 4676.071
218.6045, 4699.500
219.0867, 4698.627
219.5688, 4658.340
220.0509, 4630.255
220.5330, 4631.140
221.0151, 4662.011
221.4972, 4672.101
221.9794, 4652.726
222.4615, 4622.401
222.9436, 4600.588
223.4257, 4590.826
223.9078, 4582.218
224.3899, 4572.695
224.8721, 4562.079
225.3542, 4551.022
225.8363, 4538.386
226.3184, 4526.291
226.8005, 4516.964
227.2827, 4510.606
227.7648, 4506.875
228.2469, 4506.439
228.7290, 4509.945
229.2111, 4511.970
229.6932, 4513.343
230.1754, 4512.547
230.6575, 4506.195
231.1396, 4487.541
231.6217, 4475.593
232.1038, 4478.015
232.5859, 4499.053
233.0681, 4510.991
233.5502, 4508.739
234.0323, 4501.032
234.5144, 4501.973
234.9965, 4521.353
235.4786, 4532.452
235.9608, 4522.759
236.4429, 4483.686
236.9250, 4464.972
237.4071, 4474.098
237.8892, 4499.157
238.3713, 4522.390
238.8535, 4545.582
239.3356, 4563.902
239.8177, 4574.947
240.2998, 4576.592
240.7819, 4579.318
241.2640, 4584.510
241.7462, 4590.021
242.2283, 4591.440
242.7104, 4584.288
243.1925, 4580.499
243.6746, 4585.510
244.1567, 4603.998
244.6389, 4614.883
245.1210, 4614.512
245.6031, 4608.723
246.0852, 4607.766
246.5673, 4613.304
247.0494, 4620.859
247.5316, 4629.047
248.0137, 4637.940
248.4958, 4647.792
248.9779, 4661.260
249.4600, 4674.128
249.9421, 4676.422
250.4243, 4658.951
250.9064, 4647.413
251.3885, 4652.818
251.8706, 4681.589
252.3527, 4706.422
252.8348, 4727.403
253.3170, 4744.382
253.7991, 4755.902
254.2812, 4758.237
254.7633, 4762.016
255.2454, 4771.442
255.7275, 4787.718
256.2097, 4805.553
256.6918, 4827.448
257.1739, 4848.992
257.6560, 4860.883
258.1381, 4857.860
258.6202, 4856.084
259.1024, 4862.317
259.5845, 4878.795
260.0666, 4894.018
260.5487, 4908.658
261.0308, 4921.491
261.5129, 4928.518
261.9951, 4923.745
262.4772, 4927.499
262.9593, 4951.972
263.4414, 5005.292
263.9235, 5040.158
264.4056, 5050.719
264.8878, 5048.626
265.3699, 5054.811
265.8520, 5071.962
266.3341, 5089.937
266.8162, 5106.773
267.2983, 5123.640
267.7805, 5128.702
268.2626, 5115.523
268.7447, 5097.662
269.2268, 5102.033
269.7089, 5136.087
270.1910, 5165.472
270.6732, 5172.910
271.1553, 5154.607
271.6374, 5152.211
272.1195, 5168.885
272.6016, 5196.863
273.0837, 5229.028
273.5659, 5270.184
274.0480, 5291.849
274.5301, 5273.089
275.0122, 5211.712
275.4943, 5178.965
275.9764, 5181.773
276.4586, 5200.189
276.9407, 5202.178
277.4228, 5184.957
277.9049, 5175.269
278.3870, 5188.462
278.8691, 5223.048
279.3513, 5244.546
279.8334, 5251.834
280.3155, 5248.918
280.7976, 5236.888
281.2798, 5215.212
281.7619, 5199.394
282.2440, 5199.065
282.7261, 5211.355
283.2082, 5212.120
283.6903, 5198.654
284.1725, 5183.611
284.6546, 5186.777
285.1367, 5207.200
285.6188, 5220.134
286.1009, 5211.806
286.5830, 5188.413
287.0652, 5179.066
287.5473, 5185.961
288.0294, 5194.308
288.5115, 5185.979
288.9936, 5162.813
289.4757, 5140.420
289.9579, 5123.045
290.4400, 5110.321
290.9221, 5101.727
291.4042, 5097.496
291.8863, 5094.510
292.3684, 5090.186
292.8506, 5084.595
293.3327, 5078.124
293.8148, 5071.625
294.2969, 5063.872
294.7790, 5049.760
295.2611, 5029.223
295.7433, 5011.768
296.2254, 5007.578
296.7075, 5013.106
297.1896, 5018.771
297.6717, 5023.537
298.1538, 5025.626
298.6360, 5021.010
299.1181, 5010.091
299.6002, 4998.172
300.0823, 4989.196
300.5644, 4982.014
301.0465, 4974.263
301.5287, 4964.706
302.0108, 4955.112
302.4929, 4947.008
302.9750, 4940.444
303.4571, 4936.175
303.9392, 4928.228
304.4214, 4924.725
304.9035, 4940.204
305.3856, 4991.808
305.8677, 5040.571
306.3498, 5047.412
306.8319, 5020.773
307.3141, 4990.333
307.7962, 4968.613
308.2783, 4954.178
308.7604, 4946.352
309.2425, 4947.562
309.7246, 4950.164
310.2068, 4952.517
310.6889, 4952.847
311.1710, 4946.666
311.6531, 4921.433
312.1352, 4895.177
312.6173, 4883.507
313.0995, 4894.591
313.5816, 4903.979
314.0637, 4894.728
314.5458, 4876.163
315.0279, 4865.767
315.5100, 4881.083
315.9922, 4898.160
316.4743, 4901.746
316.9564, 4885.381
317.4385, 4875.094
317.9206, 4882.207
318.4027, 4899.913
318.8849, 4918.698
319.3670, 4946.589
319.8491, 4965.830
320.3312, 4965.240
320.8133, 4939.444
321.2954, 4922.022
321.7776, 4928.690
322.2597, 4943.259
322.7418, 4948.473
323.2239, 4927.538
323.7060, 4911.315
324.1881, 4909.412
324.6703, 4923.507
325.1524, 4933.807
325.6345, 4931.854
326.1166, 4929.262
326.5987, 4935.488
327.0808, 4964.809
327.5630, 4986.245
328.0451, 4996.655
328.5272, 4996.138
329.0093, 4985.783
329.4914, 4952.897
329.9735, 4921.920
330.4557, 4909.782
330.9378, 4929.822
331.4199, 4945.200
331.9020, 4949.589
332.3841, 4946.580
332.8662, 4955.595
333.3484, 4986.713
333.8305, 5014.437
334.3126, 5022.868
334.7947, 5003.547
335.2768, 4990.687
335.7589, 4986.369
336.2411, 4989.239
336.7232, 4997.565
337.2053, 5014.039
337.6874, 5027.916
338.1695, 5033.601
338.6516, 5030.197
339.1338, 5024.908
339.6159, 5015.940
340.0980, 5008.223
340.5801, 5013.118
341.0622, 5032.466
341.5443, 5047.776
342.0265, 5047.157
342.5086, 5033.388
342.9907, 5035.884
343.4728, 5058.096
343.9549, 5082.960
344.4370, 5086.612
344.9192, 5071.249
345.4013, 5057.815
345.8834, 5054.865
346.3655, 5058.881
346.8476, 5060.390
347.3297, 5059.249
347.8119, 5059.350
348.2940, 5064.592
348.7761, 5074.074
349.2582, 5085.615
349.7403, 5102.421
350.2225, 5117.361
350.7046, 5115.082
351.1867, 5098.151
351.6688, 5086.542
352.1509, 5101.001
352.6331, 5128.319
353.1152, 5148.991
353.5973, 5158.497
354.0794, 5160.707
354.5615, 5154.875
355.0436, 5143.687
355.5258, 5135.302
356.0079, 5132.146
356.4900, 5134.902
356.9721, 5146.123
357.4542, 5169.271
357.9363, 5190.479
358.4185, 5201.414
358.9006, 5205.208
359.3827, 5207.275
359.8648, 5212.131
360.3469, 5213.898
360.8290, 5206.659
361.3112, 5187.840
361.7933, 5175.460
362.2754, 5180.679
362.7575, 5193.129
363.2396, 5201.583
363.7217, 5195.826
364.2039, 5193.401
364.6860, 5200.186
365.1681, 5216.414
365.6502, 5232.041
366.1323, 5250.640
366.6144, 5265.571
367.0966, 5272.161
367.5787, 5258.115
368.0608, 5250.563
368.5429, 5251.922
369.0250, 5261.377
369.5071, 5275.151
369.9893, 5298.790
370.4714, 5320.246
370.9535, 5332.691
371.4356, 5329.167
371.9177, 5332.940
372.3998, 5348.974
372.8820, 5370.116
373.3641, 5379.688
373.8462, 5374.382
374.3283, 5366.019
374.8104, 5357.923
375.2925, 5349.622
375.7747, 5347.880
376.2568, 5355.388
376.7389, 5364.101
377.2210, 5358.297
377.7031, 5336.070
378.1852, 5327.731
378.6674, 5349.241
379.1495, 5391.675
379.6316, 5417.412
380.1137, 5425.316
380.5958, 5424.821
381.0779, 5418.346
381.5601, 5408.738
382.0422, 5412.181
382.5243, 5438.616
383.0064, 5471.677
383.4885, 5482.576
383.9706, 5473.675
384.4528, 5461.660
384.9349, 5453.114
385.4170, 5450.042
385.8991, 5457.538
386.3812, 5479.366
386.8633, 5502.197
387.3455, 5515.502
387.8276, 5520.408
388.3097, 5519.603
388.7918, 5504.680
389.2739, 5490.794
389.7560, 5492.496
390.2382, 5512.140
390.7203, 5532.260
391.2024, 5547.131
391.6845, 5556.023
392.1666, 5558.220
392.6487, 5545.096
393.1309, 5532.949
393.6130, 5530.125
394.0951, 5535.705
394.5772, 5538.214
395.0593, 5526.073
395.5414, 5515.413
396.0236, 5516.495
396.5057, 5552.389
396.9878, 5574.392
397.4699, 5570.698
397.9520, 5548.785
398.4341, 5532.146
398.9163, 5520.963
399.3984, 5514.928
399.8805, 5514.851
400.3626, 5523.589
400.8447, 5528.757
401.3268, 5522.968
401.8090, 5519.082
402.2911, 5542.022
402.7732, 5612.150
403.2553, 5653.908
403.7374, 5636.510
404.2195, 5564.576
404.7017, 5522.917
405.1838, 5515.678
405.6659, 5527.598
406.1480, 5555.273
406.6301, 5599.496
407.1122, 5614.375
407.5944, 5581.712
408.0765, 5525.194
408.5586, 5505.061
409.0407, 5520.532
409.5228, 5537.644
410.0049, 5527.740
410.4871, 5501.918
410.9692, 5493.540
411.4513, 5508.845
411.9334, 5530.013
412.4155, 5538.661
412.8976, 5536.999
413.3798, 5531.343
413.8619, 5518.190
414.3440, 5506.183
414.8261, 5507.977
415.3082, 5523.686
415.7903, 5535.333
416.2725, 5526.716
416.7546, 5509.282
417.2367, 5495.584
417.7188, 5487.663
418.2009, 5486.719
418.6830, 5502.649
419.1652, 5528.678
419.6473, 5539.313
420.1294, 5507.841
420.6115, 5472.279
421.0937, 5453.478
421.5758, 5461.711
422.0579, 5471.330
422.5400, 5478.376
423.0221, 5484.967
423.5042, 5494.942
423.9864, 5520.468
424.4685, 5535.574
424.9506, 5529.314
425.4327, 5498.951
425.9148, 5484.688
426.3969, 5495.170
426.8791, 5511.886
427.3612, 5517.466
427.8433, 5506.054
428.3254, 5502.453
428.8075, 5512.769
429.2896, 5532.216
429.7718, 5545.290
430.2539, 5552.077
430.7360, 5552.556
431.2181, 5543.589
431.7002, 5526.094
432.1823, 5513.862
432.6645, 5508.131
433.1466, 5505.791
433.6287, 5501.417
434.1108, 5496.145
434.5929, 5495.975
435.0750, 5507.356
435.5572, 5523.690
436.0393, 5534.041
436.5214, 5538.506
437.0035, 5539.146
437.4856, 5533.740
437.9677, 5526.627
438.4499, 5524.079
438.9320, 5528.997
439.4141, 5536.614
439.8962, 5542.158
440.3783, 5547.602
440.8604, 5558.195
441.3426, 5586.624
441.8247, 5612.868
442.3068, 5624.541
442.7889, 5617.936
443.2710, 5608.150
443.7531, 5596.001
444.2353, 5583.980
444.7174, 5574.634
445.1995, 5573.370
445.6816, 5569.412
446.1637, 5558.291
446.6458, 5541.228
447.1280, 5530.239
447.6101, 5524.974
448.0922, 5526.203
448.5743, 5536.064
449.0564, 5561.295
449.5385, 5576.758
450.0207, 5578.552
450.5028, 5573.262
450.9849, 5573.398
451.4670, 5580.010
451.9491, 5586.710
452.4312, 5590.918
452.9134, 5592.994
453.3955, 5594.715
453.8776, 5595.496
454.3597, 5599.897
454.8418, 5618.867
455.3239, 5647.103
455.8061, 5660.828
456.2882, 5651.146
456.7703, 5630.368
457.2524, 5610.355
457.7345, 5592.803
458.2166, 5584.374
458.6988, 5595.602
459.1809, 5614.895
459.6630, 5630.737
460.1451, 5642.242
460.6272, 5649.151
461.1093, 5643.746
461.5915, 5635.942
462.0736, 5638.238
462.5557, 5681.235
463.0378, 5709.102
463.5199, 5685.044
464.0020, 5618.313
464.4842, 5578.333
464.9663, 5604.325
465.4484, 5642.779
465.9305, 5665.528
466.4126, 5661.706
466.8947, 5659.838
467.3769, 5662.559
467.8590, 5666.094
468.3411, 5662.470
468.8232, 5642.630
469.3053, 5634.589
469.7874, 5651.219
470.2696, 5690.320
470.7517, 5707.766
471.2338, 5697.262
471.7159, 5684.382
472.1980, 5697.487
472.6801, 5735.595
473.1623, 5751.552
473.6444, 5732.776
474.1265, 5701.009
474.6086, 5694.772
475.0907, 5710.704
475.5728, 5727.059
476.0550, 5728.957
476.5371, 5725.155
477.0192, 5732.035
477.5013, 5750.332
477.9834, 5766.464
478.4655, 5766.278
478.9477, 5758.785
479.4298, 5755.872
479.9119, 5763.760
480.3940, 5773.604
480.8761, 5785.509
481.3582, 5796.391
481.8404, 5797.109
482.3225, 5769.777
482.8046, 5743.893
483.2867, 5734.766
483.7688, 5750.084
484.2509, 5759.935
484.7331, 5752.758
485.2152, 5743.697
485.6973, 5747.487
486.1794, 5773.763
486.6615, 5796.532
487.1436, 5812.069
487.6258, 5821.435
488.1079, 5830.301
488.5900, 5840.163
489.0721, 5845.167
489.5542, 5838.298
490.0363, 5819.336
490.5185, 5814.059
491.0006, 5826.624
491.4827, 5841.332
491.9648, 5832.339
492.4470, 5804.818
492.9291, 5788.083
493.4112, 5799.468
493.8933, 5820.981
494.3754, 5821.089
494.8575, 5803.451
495.3397, 5791.090
495.8218, 5804.178
496.3039, 5827.990
496.7860, 5848.844
497.2681, 5867.342
497.7502, 5873.585
498.2324, 5853.336
498.7145, 5820.321
499.1966, 5792.803
499.6787, 5766.643
500.1608, 5756.671
500.6429, 5778.077
501.1251, 5827.901
501.6072, 5859.378
502.0893, 5853.998
502.5714, 5843.543
503.0535, 5842.609
503.5356, 5854.642
504.0178, 5868.899
504.4999, 5889.498
504.9820, 5908.392
505.4641, 5912.449
505.9462, 5899.462
506.4283, 5882.736
506.9105, 5863.811
507.3926, 5844.634
507.8747, 5832.148
508.3568, 5826.296
508.8389, 5828.148
509.3210, 5841.456
509.8032, 5863.062
510.2853, 5886.577
510.7674, 5913.107
511.2495, 5933.323
511.7316, 5930.989
512.2137, 5915.585
512.6959, 5906.439
513.1780, 5917.457
513.6601, 5932.476
514.1422, 5943.278
514.6243, 5949.575
515.1064, 5950.465
515.5886, 5939.670
516.0707, 5927.485
516.5528, 5920.478
517.0349, 5921.981
517.5170, 5923.263
517.9991, 5921.215
518.4813, 5919.401
518.9634, 5922.323
519.4455, 5930.628
519.9276, 5943.473
520.4097, 5966.813
520.8918, 5995.839
521.3740, 5996.188
521.8561, 5959.135
522.3382, 5922.296
522.8203, 5909.253
523.3024, 5919.236
523.7845, 5941.175
524.2667, 5978.139
524.7488, 6013.537
525.2309, 6023.177
525.7130, 6013.908
526.1951, 6009.798
526.6772, 6024.853
527.1594, 6043.743
527.6415, 6047.311
528.1236, 6038.307
528.6057, 6028.807
529.0878, 6023.437
529.5699, 6021.750
530.0521, 6025.580
530.5342, 6037.769
531.0163, 6043.599
531.4984, 6027.532
531.9805, 6007.405
532.4626, 6002.100
532.9448, 6034.733
533.4269, 6057.514
533.9090, 6061.580
534.3911, 6051.541
534.8732, 6044.853
535.3553, 6041.777
535.8375, 6041.370
536.3196, 6041.509
536.8017, 6041.650
537.2838, 6059.187
537.7659, 6101.409
538.2480, 6137.455
538.7302, 6121.566
539.2123, 6063.086
539.6944, 6030.129
540.1765, 6045.172
540.6586, 6077.861
541.1407, 6084.895
541.6229, 6072.772
542.1050, 6065.016
542.5871, 6079.709
543.0692, 6100.846
543.5513, 6115.453
544.0334, 6122.672
544.5156, 6124.464
544.9977, 6109.612
545.4798, 6096.678
545.9619, 6102.058
546.4440, 6156.822
546.9261, 6188.276
547.4083, 6163.376
547.8904, 6113.500
548.3725, 6096.830
548.8546, 6137.311
549.3367, 6171.321
549.8188, 6181.625
550.3010, 6170.455
550.7831, 6164.135
551.2652, 6164.026
551.7473, 6164.212
552.2294, 6157.457
552.7115, 6145.283
553.1937, 6144.118
553.6758, 6156.116
554.1579, 6175.580
554.6400, 6201.490
555.1221, 6229.853
555.6042, 6248.587
556.0864, 6249.076
556.5685, 6242.772
557.0506, 6238.647
557.5327, 6236.551
558.0148, 6236.037
558.4969, 6237.146
558.9791, 6239.586
559.4612, 6242.644
559.9433, 6245.625
560.4254, 6252.382
560.9075, 6274.034
561.3896, 6293.730
561.8718, 6296.120
562.3539, 6262.896
562.8360, 6244.041
563.3181, 6248.363
563.8002, 6266.925
564.2823, 6277.183
564.7645, 6276.199
565.2466, 6280.134
565.7287, 6299.392
566.2108, 6329.066
566.6929, 6341.723
567.1750, 6336.544
567.6572, 6330.571
568.1393, 6339.678
568.6214, 6357.988
569.1035, 6376.003
569.5856, 6394.822
570.0677, 6403.228
570.5499, 6379.566
571.0320, 6341.997
571.5141, 6319.096
571.9962, 6332.233
572.4783, 6351.133
572.9604, 6367.777
573.4426, 6381.134
573.9247, 6387.426
574.4068, 6378.026
574.8889, 6368.617
575.3710, 6365.198
575.8531, 6368.793
576.3353, 6372.671
576.8174, 6374.960
577.2995, 6380.260
577.7816, 6397.249
578.2637, 6428.217
578.7458, 6443.176
579.2280, 6433.612
579.7101, 6413.863
580.1922, 6408.674
580.6743, 6416.302
581.1564, 6426.896
581.6385, 6436.325
582.1207, 6445.923
582.6028, 6459.667
583.0849, 6476.396
583.5670, 6487.991
584.0491, 6481.898
584.5313, 6473.682
585.0134, 6477.732
585.4955, 6502.390
585.9776, 6518.908
586.4597, 6511.500
586.9418, 6495.674
587.4240, 6489.346
587.9061, 6502.344
588.3882, 6510.194
588.8703, 6508.711
589.3524, 6500.838
589.8345, 6494.397
590.3167, 6488.774
590.7988, 6486.994
591.2809, 6490.793
591.7630, 6499.572
592.2451, 6515.230
592.7272, 6538.500
593.2094, 6550.727
593.6915, 6520.604
594.1736, 6471.591
594.6557, 6450.397
595.1378, 6468.759
595.6199, 6498.813
596.1021, 6528.403
596.5842, 6554.314
597.0663, 6572.028
597.5485, 6574.858
598.0306, 6574.458
598.5127, 6571.477
598.9948, 6567.476
599.4769, 6569.211
599.9590, 6586.896
600.4412, 6598.359
600.9233, 6593.627
601.4054, 6571.050
601.8875, 6558.524
602.3696, 6558.082
602.8517, 6562.975
603.3339, 6567.766
603.8160, 6572.655
604.2981, 6582.646
604.7802, 6601.087
605.2623, 6614.484
605.7444, 6595.938
606.2266, 6557.454
606.7087, 6532.283
607.1908, 6540.225
607.6729, 6557.671
608.1550, 6568.341
608.6371, 6573.364
609.1193, 6576.775
609.6014, 6576.811
610.0835, 6578.466
610.5656, 6584.412
611.0477, 6595.263
611.5298, 6607.193
612.0120, 6624.346
612.4941, 6638.180
612.9762, 6642.649
613.4583, 6636.085
613.9404, 6625.531
614.4225, 6609.767
614.9047, 6592.737
615.3868, 6579.933
615.8689, 6571.030
616.3510, 6562.109
616.8331, 6547.779
617.3152, 6538.358
617.7974, 6559.208
618.2795, 6601.526
618.7616, 6632.218
619.2437, 6619.482
619.7258, 6598.211
620.2079, 6598.247
620.6901, 6620.867
621.1722, 6634.167
621.6543, 6616.125
622.1364, 6592.808
622.6185, 6581.058
623.1006, 6584.309
623.5828, 6593.960
624.0649, 6614.642
624.5470, 6637.477
625.0291, 6652.083
625.5112, 6657.771
625.9933, 6658.278
626.4755, 6652.791
626.9576, 6644.488
627.4397, 6638.357
627.9218, 6634.722
628.4039, 6636.042
628.8860, 6650.662
629.3682, 6667.219
629.8503, 6668.083
630.3324, 6655.032
630.8145, 6641.602
631.2966, 6635.000
631.7787, 6631.451
632.2609, 6627.047
632.7430, 6618.917
633.2251, 6619.441
633.7072, 6640.814
634.1893, 6665.817
634.6714, 6679.885
635.1536, 6676.796
635.6357, 6676.993
636.1178, 6684.155
636.5999, 6692.914
637.0820, 6690.192
637.5641, 6675.227
638.0463, 6668.790
638.5284, 6681.138
639.0105, 6703.001
639.4926, 6718.367
639.9747, 6727.358
640.4568, 6730.455
640.9390, 6718.424
641.4211, 6706.936
641.9032, 6716.234
642.3853, 6747.611
642.8674, 6768.123
643.3495, 6755.203
643.8317, 6733.065
644.3138, 6717.791
644.7959, 6711.097
645.2780, 6712.360
645.7601, 6725.433
646.2422, 6743.041
646.7244, 6756.864
647.2065, 6766.069
647.6886, 6775.758
648.1707, 6788.151
648.6528, 6799.413
649.1349, 6798.507
649.6171, 6787.534
650.0992, 6781.321
650.5813, 6794.982
651.0634, 6812.086
651.5455, 6805.872
652.0276, 6781.774
652.5098, 6769.328
652.9919, 6801.591
653.4740, 6836.969
653.9561, 6847.412
654.4382, 6825.630
654.9203, 6806.816
