##NAMES=Hematite
##RRUFFID=R040024
##IDEAL CHEMISTRY=Fe^3+^_2_O_3_
##LOCALITY=near Covered Wells, Papago Indian Reservation, Arizona, USA
##OWNER=RRUFF
##SOURCE=University of Arizona Mineral Museum
##DESCRIPTION=Reddish-black foliatated mass
##STATUS=The identification of this mineral has been confirmed by X-ray diffraction and chemical analysis
##URL=rruff.info/R040024
##MEASURED CHEMISTRY=(Fe_1.99_Al_0.01_)_Î£=2_O_3_
142.2531, 412.6470
142.7353, 409.2495
143.2174, 406.4611
143.6995, 400.9149
144.1816, 406.4413
144.6637, 409.4268
145.1458, 410.0081
145.6280, 400.9839
146.1101, 404.3631
146.5922, 402.7717
147.0743, 400.9763
147.5564, 406.1013
148.0385, 398.4743
148.5207, 403.4894
149.0028, 403.4581
149.4849, 405.7364
149.9670, 403.0133
150.4491, 401.8351
150.9312, 405.6598
151.4134, 406.7142
151.8955, 403.4154
152.3776, 405.8405
152.8597, 398.0388
153.3418, 399.2112
153.8239, 404.2557
154.3061, 401.2083
154.7882, 403.7249
155.2703, 404.1225
155.7524, 394.8897
156.2345, 402.4050
156.7166, 402.6773
157.1988, 395.5126
157.6809, 397.5255
158.1630, 398.0064
158.6451, 397.0741
159.1272, 390.6398
159.6093, 395.9883
160.0915, 398.7958
160.5736, 399.1992
161.0557, 389.9972
161.5378, 393.1985
162.0199, 391.4292
162.5020, 389.4560
162.9841, 394.4031
163.4663, 386.5980
163.9484, 391.4354
164.4305, 391.2261
164.9126, 393.3266
165.3947, 390.4256
165.8768, 387.6368
166.3590, 387.9216
166.8411, 390.5103
167.3232, 392.5854
167.8053, 390.4915
168.2874, 386.9080
168.7695, 379.5818
169.2517, 387.6573
169.7338, 392.0628
170.2159, 392.9954
170.6980, 380.0535
171.1801, 385.0277
171.6622, 382.8219
172.1444, 380.3217
172.6265, 387.8174
173.1086, 376.8935
173.5907, 385.7780
174.0728, 389.2777
174.5549, 394.6908
175.0371, 398.6617
175.5192, 395.8925
176.0013, 387.5568
176.4834, 380.1351
176.9655, 378.7178
177.4476, 381.4384
177.9298, 385.2226
178.4119, 391.1053
178.8940, 396.0316
179.3761, 394.4370
179.8582, 386.5080
180.3403, 378.2784
180.8225, 374.8489
181.3046, 375.3692
181.7867, 377.2892
182.2688, 380.7233
182.7509, 384.6958
183.2330, 386.6549
183.7152, 386.3342
184.1973, 385.9807
184.6794, 388.6511
185.1615, 393.7988
185.6436, 398.2743
186.1257, 401.3749
186.6079, 402.8146
187.0900, 400.5597
187.5721, 393.5255
188.0542, 386.3382
188.5363, 387.1515
189.0184, 395.4445
189.5006, 402.2632
189.9827, 401.3838
190.4648, 394.1506
190.9469, 388.5282
191.4290, 385.0984
191.9111, 383.6967
192.3932, 384.5752
192.8754, 387.8385
193.3575, 391.6535
193.8396, 395.1157
194.3217, 398.2445
194.8038, 400.7552
195.2859, 402.7183
195.7681, 403.9659
196.2502, 403.6020
196.7323, 401.2907
197.2144, 399.3106
197.6965, 399.5718
198.1786, 402.1381
198.6608, 405.0716
199.1429, 407.7626
199.6250, 410.5587
200.1071, 415.8545
200.5892, 424.5183
201.0714, 432.8316
201.5535, 436.2018
202.0356, 433.6789
202.5177, 433.6343
202.9998, 439.5517
203.4819, 450.6004
203.9641, 454.5618
204.4462, 449.0326
204.9283, 441.4842
205.4104, 441.2512
205.8925, 450.1642
206.3746, 458.5597
206.8568, 463.5224
207.3389, 464.9569
207.8210, 466.4253
208.3031, 467.2112
208.7852, 469.0988
209.2673, 474.9429
209.7495, 485.6002
210.2316, 497.5872
210.7137, 509.8281
211.1958, 522.2082
211.6779, 534.8990
212.1600, 546.8333
212.6422, 560.1860
213.1243, 578.9281
213.6064, 603.1105
214.0885, 632.0537
214.5706, 666.1777
215.0527, 707.1227
215.5349, 747.7413
216.0170, 786.3140
216.4991, 825.3198
216.9812, 871.7183
217.4633, 929.0275
217.9454, 985.7183
218.4276, 1034.836
218.9097, 1070.523
219.3918, 1114.983
219.8739, 1173.045
220.3560, 1239.154
220.8381, 1294.472
221.3203, 1330.422
221.8024, 1368.973
222.2845, 1424.674
222.7666, 1510.097
223.2487, 1582.415
223.7308, 1636.119
224.2129, 1673.763
224.6951, 1711.239
225.1772, 1765.210
225.6593, 1796.441
226.1414, 1778.543
226.6235, 1700.632
227.1056, 1595.318
227.5878, 1450.943
228.0699, 1276.849
228.5520, 1130.530
229.0341, 1017.388
229.5162, 927.4811
229.9983, 852.8224
230.4805, 794.2034
230.9626, 750.9893
231.4447, 726.3215
231.9268, 719.6509
232.4089, 715.4647
232.8910, 713.4400
233.3732, 714.1570
233.8553, 717.3380
234.3374, 719.4069
234.8195, 731.0967
235.3016, 757.1470
235.7837, 798.0754
236.2659, 833.6183
236.7480, 860.1926
237.2301, 884.8272
237.7122, 914.5150
238.1943, 951.4072
238.6764, 989.3873
239.1586, 1028.054
239.6407, 1067.568
240.1228, 1105.407
240.6049, 1139.019
241.0870, 1173.476
241.5691, 1214.829
242.0513, 1266.223
242.5334, 1319.059
243.0155, 1371.944
243.4976, 1425.149
243.9797, 1478.159
244.4618, 1540.913
244.9440, 1594.821
245.4261, 1617.121
245.9082, 1606.917
246.3903, 1565.927
246.8724, 1489.492
247.3545, 1371.268
247.8367, 1251.396
248.3188, 1123.978
248.8009, 1000.753
249.2830, 898.8535
249.7651, 824.0729
250.2472, 762.1359
250.7294, 710.3467
251.2115, 669.9386
251.6936, 634.0530
252.1757, 602.9216
252.6578, 576.2557
253.1399, 552.5250
253.6220, 531.3174
254.1042, 513.7526
254.5863, 500.7279
255.0684, 492.9179
255.5505, 486.4914
256.0326, 482.3259
256.5147, 478.9250
256.9969, 473.6300
257.4790, 465.9047
257.9611, 457.1920
258.4432, 447.2260
258.9253, 434.7426
259.4074, 426.1257
259.8896, 422.0927
260.3717, 421.3241
260.8538, 421.6802
261.3359, 423.6614
261.8180, 425.7217
262.3001, 428.0604
262.7823, 431.8014
263.2644, 429.9916
263.7465, 419.6476
264.2286, 406.0611
264.7107, 399.8620
265.1928, 402.9175
265.6750, 408.4218
266.1571, 414.6411
266.6392, 422.3340
267.1213, 426.5706
267.6034, 426.2224
268.0855, 423.3999
268.5677, 421.8705
269.0498, 421.6745
269.5319, 422.6677
270.0140, 425.5649
270.4961, 431.1953
270.9782, 433.5415
271.4604, 431.3788
271.9425, 427.2864
272.4246, 425.6919
272.9067, 426.5034
273.3888, 430.1492
273.8709, 438.4757
274.3531, 452.5539
274.8352, 461.0583
275.3173, 462.2213
275.7994, 459.8578
276.2815, 460.7210
276.7636, 465.1013
277.2458, 470.9900
277.7279, 477.5224
278.2100, 484.6752
278.6921, 493.0849
279.1742, 503.2435
279.6563, 513.8481
280.1385, 521.6856
280.6206, 526.0911
281.1027, 532.7192
281.5848, 546.4339
282.0669, 566.9963
282.5490, 580.2719
283.0312, 583.9985
283.5133, 584.6119
283.9954, 593.2004
284.4775, 610.2141
284.9596, 627.5632
285.4417, 640.2980
285.9239, 649.2648
286.4060, 663.0322
286.8881, 682.1684
287.3702, 704.6340
287.8523, 729.0215
288.3344, 755.2917
288.8166, 778.8212
289.2987, 795.0534
289.7808, 806.1235
290.2629, 823.6821
290.7450, 849.0997
291.2271, 876.0894
291.7093, 896.4005
292.1914, 910.5205
292.6735, 922.5789
293.1556, 935.5624
293.6377, 947.9065
294.1198, 954.0245
294.6020, 953.3156
295.0841, 949.1189
295.5662, 944.3610
296.0483, 939.1732
296.5304, 934.1942
297.0125, 931.7737
297.4947, 929.4172
297.9768, 922.6723
298.4589, 911.5709
298.9410, 894.9532
299.4231, 870.5526
299.9052, 839.3636
300.3873, 805.0793
300.8694, 766.2068
301.3516, 726.3839
301.8337, 689.8884
302.3158, 656.6103
302.7979, 627.5417
303.2800, 604.3949
303.7621, 585.9037
304.2443, 568.7363
304.7264, 552.6691
305.2085, 537.0474
305.6906, 520.2451
306.1727, 502.4091
306.6548, 486.4933
307.1370, 476.0598
307.6191, 468.9590
308.1012, 462.0251
308.5833, 455.1948
309.0654, 447.3365
309.5475, 435.8549
310.0297, 421.1470
310.5118, 409.5273
310.9939, 407.2066
311.4760, 409.6436
311.9581, 411.5244
312.4402, 409.6696
312.9224, 407.7831
313.4045, 408.9662
313.8866, 412.7440
314.3687, 414.7695
314.8508, 411.5979
315.3329, 406.2552
315.8151, 401.4853
316.2972, 398.4041
316.7793, 395.6584
317.2614, 392.2986
317.7435, 388.5934
318.2256, 386.0152
318.7078, 387.6336
319.1899, 389.1183
319.6720, 387.2828
320.1541, 375.4262
320.6362, 367.1529
321.1183, 368.8329
321.6005, 377.8619
322.0826, 384.2516
322.5647, 385.1324
323.0468, 383.1046
323.5289, 379.3006
324.0110, 369.6078
324.4932, 363.9384
324.9753, 367.2968
325.4574, 376.1838
325.9395, 380.5476
326.4216, 374.5107
326.9037, 367.7825
327.3859, 364.0762
327.8680, 363.2926
328.3501, 366.0236
328.8322, 376.6522
329.3143, 390.3322
329.7964, 396.7341
330.2786, 390.7357
330.7607, 383.0764
331.2428, 377.1538
331.7249, 373.6004
332.2070, 370.1204
332.6891, 366.0773
333.1713, 362.4265
333.6534, 360.9748
334.1355, 363.2898
334.6176, 364.9936
335.0997, 364.1624
335.5818, 359.9973
336.0640, 358.7878
336.5461, 361.4530
337.0282, 366.0588
337.5103, 370.3756
337.9924, 374.3225
338.4745, 378.1185
338.9567, 382.1448
339.4388, 386.3104
339.9209, 388.6550
340.4030, 389.0171
340.8851, 387.8811
341.3672, 385.3725
341.8494, 381.3178
342.3315, 377.5734
342.8136, 374.2510
343.2957, 371.6371
343.7778, 371.6160
344.2599, 374.6797
344.7421, 377.2758
345.2242, 374.0900
345.7063, 366.1604
346.1884, 364.0228
346.6705, 372.3152
347.1526, 385.1552
347.6348, 388.5177
348.1169, 382.6785
348.5990, 376.2632
349.0811, 376.8084
349.5632, 381.9267
350.0453, 384.7519
350.5275, 383.0021
351.0096, 380.7072
351.4917, 384.6271
351.9738, 393.4223
352.4559, 400.6652
352.9380, 401.5430
353.4202, 398.6759
353.9023, 395.1549
354.3844, 390.8623
354.8665, 387.9832
355.3486, 388.5512
355.8307, 392.0232
356.3129, 397.2336
356.7950, 408.5248
357.2771, 418.2228
357.7592, 417.3821
358.2413, 403.7535
358.7234, 392.2744
359.2056, 394.2217
359.6877, 403.2152
360.1698, 410.3246
360.6519, 411.0244
361.1340, 409.9763
361.6161, 408.7617
362.0982, 407.4500
362.5804, 407.5245
363.0625, 409.9740
363.5446, 413.8300
364.0267, 418.2161
364.5088, 424.2556
364.9909, 429.4417
365.4731, 430.9796
365.9552, 423.4716
366.4373, 433.2692
366.9194, 439.3968
367.4015, 442.0515
367.8836, 430.8317
368.3658, 437.5283
368.8479, 437.0445
369.3300, 436.2664
369.8121, 445.4842
370.2942, 436.2824
370.7763, 445.3418
371.2585, 447.1119
371.7406, 452.2179
372.2227, 450.0996
372.7048, 454.6200
373.1869, 458.0276
373.6690, 459.5377
374.1512, 461.4703
374.6333, 463.8816
375.1154, 466.5842
375.5975, 469.5628
376.0796, 472.8476
376.5617, 476.4308
377.0439, 480.6800
377.5260, 484.5560
378.0081, 486.0158
378.4902, 484.6664
378.9723, 484.7685
379.4544, 488.1047
379.9366, 493.9495
380.4187, 498.3419
380.9008, 500.9309
381.3829, 504.3454
381.8650, 512.7377
382.3471, 524.9757
382.8293, 533.0088
383.3114, 532.5912
383.7935, 529.7829
384.2756, 536.4762
384.7577, 552.1397
385.2398, 569.6635
385.7220, 585.8424
386.2041, 600.3825
386.6862, 612.0750
387.1683, 619.5063
387.6504, 627.5308
388.1325, 643.5333
388.6147, 664.7134
389.0968, 682.4511
389.5789, 689.8502
390.0610, 693.4167
390.5431, 697.0828
391.0252, 700.4181
391.5074, 709.8243
391.9895, 732.4415
392.4716, 762.9170
392.9537, 793.2888
393.4358, 818.6234
393.9179, 845.3029
394.4001, 876.7688
394.8822, 913.0374
395.3643, 950.7147
395.8464, 988.6317
396.3285, 1027.792
396.8106, 1068.529
397.2928, 1107.911
397.7749, 1152.566
398.2570, 1205.515
398.7391, 1265.446
399.2212, 1324.711
399.7033, 1380.681
400.1855, 1438.006
400.6676, 1498.968
401.1497, 1563.533
401.6318, 1630.547
402.1139, 1699.570
402.5960, 1771.250
403.0782, 1847.510
403.5603, 1930.846
404.0424, 2013.880
404.5245, 2095.224
405.0066, 2174.497
405.4887, 2248.271
405.9709, 2316.117
406.4530, 2379.465
406.9351, 2442.375
407.4172, 2505.575
407.8993, 2560.414
408.3814, 2604.485
408.8636, 2638.400
409.3457, 2666.853
409.8278, 2690.520
410.3099, 2702.407
410.7920, 2697.386
411.2741, 2675.802
411.7563, 2639.401
412.2384, 2589.433
412.7205, 2522.387
413.2026, 2425.048
413.6847, 2301.403
414.1668, 2173.545
414.6490, 2049.243
415.1311, 1929.489
415.6132, 1812.953
416.0953, 1698.076
416.5774, 1590.553
417.0595, 1492.300
417.5417, 1402.753
418.0238, 1318.859
418.5059, 1239.716
418.9880, 1166.598
419.4701, 1101.078
419.9522, 1042.653
420.4344, 991.6389
420.9165, 950.3774
421.3986, 915.4474
421.8807, 883.6991
422.3628, 856.2395
422.8449, 830.3663
423.3270, 805.9905
423.8091, 783.1306
424.2913, 761.1887
424.7734, 742.6656
425.2555, 723.2858
425.7376, 700.6577
426.2197, 669.6194
426.7018, 647.7808
427.1840, 639.9114
427.6661, 638.3842
428.1482, 630.9246
428.6303, 614.3882
429.1124, 598.3909
429.5945, 585.2395
430.0767, 574.9437
430.5588, 566.7862
431.0409, 561.5080
431.5230, 556.6326
432.0051, 549.0835
432.4872, 538.7261
432.9694, 530.7944
433.4515, 526.6848
433.9336, 524.9164
434.4157, 521.8350
434.8978, 517.5205
435.3799, 513.9940
435.8621, 514.1080
436.3442, 515.9070
436.8263, 514.2623
437.3084, 508.2742
437.7905, 500.7099
438.2726, 493.5310
438.7548, 486.9376
439.2369, 481.3918
439.7190, 477.1833
440.2011, 474.0358
440.6832, 471.5625
441.1653, 469.7693
441.6475, 469.4514
442.1296, 472.5665
442.6117, 476.6394
443.0938, 479.4245
443.5759, 480.7476
444.0580, 480.2068
444.5402, 475.1005
445.0223, 467.6036
445.5044, 464.5507
445.9865, 474.9044
446.4686, 483.6457
446.9507, 483.9264
447.4329, 471.3394
447.9150, 460.1487
448.3971, 448.2292
448.8792, 438.8666
449.3613, 436.5773
449.8434, 445.9162
450.3256, 453.7945
450.8077, 457.3098
451.2898, 456.7107
451.7719, 454.2828
452.2540, 448.8498
452.7361, 444.5398
453.2183, 447.1814
453.7004, 457.3433
454.1825, 457.1189
454.6646, 440.9382
455.1467, 419.0700
455.6288, 412.4336
456.1110, 420.0239
456.5931, 429.1075
457.0752, 432.6492
457.5573, 432.7515
458.0394, 434.2026
458.5215, 437.3274
459.0037, 439.7901
459.4858, 438.0771
459.9679, 434.3953
460.4500, 432.8907
460.9321, 437.9700
461.4142, 442.5918
461.8964, 441.2193
462.3785, 434.7221
462.8606, 418.1932
463.3427, 431.1222
463.8248, 438.6657
464.3069, 441.1132
464.7891, 423.2015
465.2712, 431.5795
465.7533, 429.4218
466.2354, 426.8320
466.7175, 438.9102
467.1996, 423.9595
467.6818, 435.8053
468.1639, 436.9543
468.6460, 442.9989
469.1281, 438.4427
469.6102, 437.1607
470.0923, 446.4830
470.5745, 435.4573
471.0566, 446.4328
471.5387, 451.8496
472.0208, 447.9256
472.5029, 439.4164
472.9850, 438.1575
473.4672, 445.0055
473.9493, 451.4851
474.4314, 451.6674
474.9135, 447.3734
475.3956, 450.1654
475.8777, 461.0197
476.3599, 472.2737
476.8420, 475.0331
477.3241, 471.6711
477.8062, 468.1941
478.2883, 465.1745
478.7704, 464.3754
479.2526, 469.8535
479.7347, 480.0162
480.2168, 488.1247
480.6989, 485.6549
481.1810, 482.5193
481.6631, 488.6971
482.1453, 509.0173
482.6274, 524.9043
483.1095, 523.6263
483.5916, 514.9765
484.0737, 511.4009
484.5558, 522.1527
485.0379, 531.3827
485.5201, 532.8257
486.0022, 526.9474
486.4843, 527.8213
486.9664, 539.2466
487.4485, 553.7002
487.9306, 567.9075
488.4128, 583.2548
488.8949, 594.1719
489.3770, 598.8938
489.8591, 600.9429
490.3412, 606.8816
490.8233, 617.4634
491.3055, 627.5128
491.7876, 634.4684
492.2697, 639.2845
492.7518, 646.5274
493.2339, 656.1564
493.7160, 667.8092
494.1982, 683.5120
494.6803, 701.0572
495.1624, 713.0535
495.6445, 716.4707
496.1266, 718.1072
496.6087, 726.1782
497.0909, 738.4991
497.5730, 749.6194
498.0551, 757.0487
498.5372, 761.9655
499.0193, 765.2171
499.5014, 766.8792
499.9836, 766.2076
500.4657, 759.9077
500.9478, 752.7803
501.4299, 748.7026
501.9120, 755.1765
502.3941, 756.9224
502.8763, 747.1944
503.3584, 730.9092
503.8405, 722.6766
504.3226, 730.4626
504.8047, 735.8006
505.2868, 732.0682
505.7690, 718.3013
506.2511, 703.2407
506.7332, 685.4539
507.2153, 669.1328
507.6974, 660.4556
508.1795, 660.1477
508.6617, 655.0482
509.1438, 641.3883
509.6259, 623.2709
510.1080, 609.2343
510.5901, 599.0165
511.0722, 589.6142
511.5544, 576.6274
512.0365, 564.1940
512.5186, 562.2830
513.0007, 572.2006
513.4828, 579.7892
513.9650, 570.7195
514.4471, 553.2462
514.9292, 538.3386
515.4113, 530.0632
515.8934, 524.4727
516.3755, 519.1498
516.8576, 514.8876
517.3397, 514.0433
517.8218, 521.3895
518.3040, 528.7637
518.7861, 532.9634
519.2682, 533.5540
519.7503, 531.4164
520.2324, 525.0950
520.7145, 517.1482
521.1967, 509.8241
521.6788, 502.5691
522.1609, 497.5180
522.6430, 496.0006
523.1251, 496.4329
523.6072, 492.7577
524.0894, 484.1997
524.5715, 477.4578
525.0536, 477.2818
525.5357, 482.3299
526.0178, 486.2066
526.4999, 488.7830
526.9821, 490.2564
527.4642, 490.6268
527.9463, 490.0727
528.4284, 488.7532
528.9105, 485.5262
529.3926, 483.2462
529.8748, 485.8040
530.3569, 491.5488
530.8390, 495.6848
531.3211, 495.1328
531.8032, 493.0691
532.2853, 491.2979
532.7675, 490.1781
533.2496, 488.0663
533.7317, 484.0895
534.2138, 479.2840
534.6959, 474.3036
535.1780, 465.7489
535.6602, 462.5947
536.1423, 468.3314
536.6244, 479.0065
537.1065, 483.0958
537.5886, 477.8480
538.0707, 474.0910
538.5529, 477.9220
539.0350, 488.4352
539.5171, 491.2597
539.9992, 485.3304
540.4813, 478.3054
540.9634, 477.5179
541.4456, 481.6942
541.9277, 487.2140
542.4098, 494.5242
542.8919, 500.1143
543.3740, 498.1752
543.8561, 491.0872
544.3383, 484.7728
544.8204, 480.2954
545.3025, 478.9632
545.7846, 483.1775
546.2667, 492.8690
546.7488, 501.5000
547.2310, 508.6208
547.7131, 512.5773
548.1952, 512.0433
548.6773, 500.9757
549.1594, 494.2889
549.6415, 494.9186
550.1237, 499.0560
550.6058, 500.0541
551.0879, 495.4630
551.5700, 493.5876
552.0521, 497.5909
552.5342, 506.2906
553.0164, 511.7156
553.4985, 513.4127
553.9806, 514.6046
554.4627, 517.7973
554.9448, 522.5388
555.4269, 527.8264
555.9091, 534.3846
556.3912, 537.4069
556.8733, 527.4725
557.3554, 510.3678
557.8375, 497.9514
558.3196, 497.1773
558.8018, 500.3771
559.2839, 502.7189
559.7660, 504.6057
560.2481, 507.6904
560.7302, 513.8862
561.2123, 520.4003
561.6945, 525.9231
562.1766, 530.2098
562.6587, 533.7178
563.1408, 536.9034
563.6229, 538.9929
564.1050, 539.3370
564.5872, 537.7908
565.0693, 534.4257
565.5514, 527.8560
566.0335, 520.4079
566.5156, 518.8426
566.9977, 523.6704
567.4799, 528.7762
567.9620, 530.4488
568.4441, 530.2290
568.9262, 534.3023
569.4083, 542.7231
569.8904, 550.4061
570.3726, 551.4733
570.8547, 549.6721
571.3368, 551.1164
571.8189, 558.1179
572.3010, 565.2928
572.7831, 568.3859
573.2653, 569.4871
573.7474, 571.8311
574.2295, 581.5302
574.7116, 587.4684
575.1937, 583.3221
575.6758, 570.2783
576.1580, 562.7896
576.6401, 563.1791
577.1222, 566.8649
577.6043, 572.1563
578.0864, 579.5055
578.5685, 587.4185
579.0507, 597.1182
579.5328, 605.0073
580.0149, 604.6715
580.4970, 596.4647
580.9791, 593.9017
581.4612, 601.9229
581.9434, 613.6721
582.4255, 616.2184
582.9076, 611.5841
583.3897, 607.9759
583.8718, 609.1428
584.3539, 613.8343
584.8361, 623.1095
585.3182, 636.6572
585.8003, 646.6033
586.2824, 643.7013
586.7645, 638.8768
587.2466, 640.4486
587.7288, 653.4034
588.2109, 666.1016
588.6930, 676.8702
589.1751, 686.8401
589.6572, 697.8320
590.1393, 712.1573
590.6215, 722.5056
591.1036, 725.8392
591.5857, 724.5471
592.0678, 729.1110
592.5499, 740.2537
593.0320, 751.9808
593.5142, 759.2618
593.9963, 764.1348
594.4784, 775.0657
594.9605, 792.6450
595.4426, 811.6377
595.9247, 827.3500
596.4069, 841.6220
596.8890, 857.4957
597.3711, 877.0786
597.8532, 895.9166
598.3353, 912.3787
598.8174, 926.5405
599.2996, 938.5846
599.7817, 940.8007
600.2638, 948.6602
600.7459, 970.2003
601.2280, 1004.241
601.7101, 1031.560
602.1923, 1048.199
602.6744, 1063.932
603.1565, 1083.524
603.6386, 1107.717
604.1207, 1132.035
604.6028, 1157.238
605.0850, 1180.715
605.5671, 1197.373
606.0492, 1208.735
606.5313, 1222.521
607.0134, 1240.127
607.4955, 1261.722
607.9777, 1294.685
608.4598, 1332.433
608.9419, 1358.752
609.4240, 1354.313
609.9061, 1345.103
610.3882, 1349.962
610.8704, 1367.794
611.3525, 1377.607
611.8346, 1371.254
612.3167, 1357.248
612.7988, 1339.805
613.2809, 1318.420
613.7631, 1294.829
614.2452, 1266.758
614.7273, 1238.952
615.2094, 1219.912
615.6915, 1212.538
616.1736, 1191.662
616.6558, 1148.871
617.1379, 1096.986
617.6200, 1061.201
618.1021, 1039.732
618.5842, 1021.050
619.0663, 1000.640
619.5485, 979.3251
620.0306, 957.7193
620.5127, 935.9053
620.9948, 913.8062
621.4769, 888.4502
621.9590, 865.0767
622.4412, 847.5111
622.9233, 836.5610
623.4054, 829.6660
623.8875, 833.1516
624.3696, 836.6293
624.8517, 829.6279
625.3339, 803.8170
625.8160, 785.9001
626.2981, 781.3525
626.7802, 783.4516
627.2623, 776.9057
627.7444, 761.0493
628.2266, 745.6273
628.7087, 732.5701
629.1908, 723.3005
629.6729, 724.0333
630.1550, 733.6378
630.6371, 742.4460
631.1193, 743.8189
631.6014, 740.9725
632.0835, 736.8251
632.5656, 731.6006
633.0477, 725.8234
633.5298, 717.0829
634.0120, 709.2519
634.4941, 705.7644
634.9762, 711.4924
635.4583, 715.8746
635.9404, 718.4485
636.4225, 719.5314
636.9047, 719.3578
637.3868, 717.2605
637.8689, 716.0657
638.3510, 716.5766
