##NAMES=Hematite
##RRUFFID=R040024
##IDEAL CHEMISTRY=Fe^3+^_2_O_3_
##LOCALITY=near Covered Wells, Papago Indian Reservation, Arizona, USA
##OWNER=RRUFF
##SOURCE=University of Arizona Mineral Museum
##DESCRIPTION=Reddish-black foliatated mass
##STATUS=The identification of this mineral has been confirmed by X-ray diffraction and chemical analysis
##URL=rruff.info/R040024
##MEASURED CHEMISTRY=(Fe_1.99_Al_0.01_)_Î£=2_O_3_
206.862, 2272.113
207.344, 2265.746
207.826, 2264.417
208.308, 2268.082
208.791, 2277.160
209.273, 2288.526
209.755, 2306.889
210.237, 2322.883
210.719, 2331.367
211.201, 2333.662
211.683, 2334.196
212.165, 2336.029
212.648, 2338.902
213.130, 2347.792
213.612, 2370.985
214.094, 2391.457
214.576, 2399.527
215.058, 2399.837
215.540, 2403.771
216.022, 2420.288
216.504, 2448.906
216.986, 2474.007
217.469, 2491.031
217.951, 2509.303
218.433, 2532.551
218.915, 2558.818
219.397, 2584.802
219.879, 2608.718
220.361, 2630.257
220.844, 2646.580
221.326, 2659.679
221.808, 2664.956
222.290, 2656.476
222.772, 2640.522
223.254, 2626.899
223.736, 2621.556
224.218, 2621.145
224.700, 2611.002
225.182, 2579.895
225.665, 2551.636
226.147, 2529.833
226.629, 2512.125
227.111, 2494.818
227.593, 2476.120
228.075, 2458.469
228.557, 2449.156
229.040, 2457.847
229.522, 2461.256
230.004, 2452.057
230.486, 2439.398
230.968, 2431.752
231.450, 2432.276
231.932, 2438.885
232.414, 2448.028
232.896, 2462.918
233.378, 2474.331
233.861, 2479.570
234.343, 2482.973
234.825, 2487.253
235.307, 2493.341
235.789, 2501.362
236.271, 2511.070
236.753, 2521.184
237.236, 2536.622
237.718, 2567.051
238.200, 2595.231
238.682, 2608.913
239.164, 2607.389
239.646, 2600.529
240.128, 2598.286
240.610, 2599.835
241.092, 2609.565
241.574, 2647.055
242.057, 2676.294
242.539, 2673.776
243.021, 2644.208
243.503, 2613.358
243.985, 2606.931
244.467, 2627.011
244.949, 2639.867
245.432, 2638.377
245.914, 2636.061
246.396, 2640.753
246.878, 2648.991
247.360, 2651.556
247.842, 2640.525
248.324, 2617.399
248.806, 2595.696
249.288, 2573.939
249.770, 2555.897
250.253, 2542.492
250.735, 2533.228
251.217, 2528.061
251.699, 2529.190
252.181, 2532.713
252.663, 2524.877
253.145, 2496.771
253.627, 2475.164
254.110, 2476.351
254.592, 2486.344
255.074, 2487.943
255.556, 2472.823
256.038, 2450.444
256.520, 2435.645
257.002, 2428.973
257.484, 2428.152
257.966, 2437.077
258.449, 2449.372
258.931, 2459.501
259.413, 2465.738
259.895, 2472.079
260.377, 2486.258
260.859, 2509.189
261.341, 2521.362
261.823, 2508.282
262.306, 2489.368
262.788, 2482.304
263.270, 2488.961
263.752, 2498.355
264.234, 2501.818
264.716, 2500.660
265.198, 2502.769
265.680, 2509.769
266.163, 2520.496
266.645, 2535.608
267.127, 2554.586
267.609, 2569.864
268.091, 2575.331
268.573, 2574.831
269.055, 2577.451
269.537, 2585.320
270.019, 2593.170
270.501, 2591.950
270.984, 2585.243
271.466, 2587.765
271.948, 2610.215
272.430, 2640.292
272.912, 2661.757
273.394, 2673.438
273.876, 2687.394
274.358, 2715.071
274.841, 2752.514
275.323, 2780.599
275.805, 2786.272
276.287, 2792.592
276.769, 2819.067
277.251, 2861.863
277.733, 2900.347
278.215, 2921.080
278.698, 2931.180
279.180, 2954.878
279.662, 2991.500
280.144, 3039.879
280.626, 3108.387
281.108, 3187.459
281.590, 3257.705
282.072, 3310.604
282.555, 3354.415
283.037, 3405.719
283.519, 3466.478
284.001, 3530.283
284.483, 3599.521
284.965, 3670.114
285.447, 3735.793
285.929, 3795.648
286.411, 3858.400
286.893, 3935.891
287.376, 4036.113
287.858, 4127.157
288.340, 4203.990
288.822, 4276.897
289.304, 4355.366
289.786, 4437.671
290.268, 4514.641
290.750, 4578.940
291.233, 4630.970
291.715, 4667.097
292.197, 4679.731
292.679, 4685.917
293.161, 4693.531
293.643, 4698.311
294.125, 4692.457
294.607, 4671.675
295.090, 4635.956
295.572, 4585.107
296.054, 4518.956
296.536, 4435.592
297.018, 4322.042
297.500, 4198.398
297.982, 4085.913
298.464, 3991.839
298.946, 3909.490
299.429, 3826.667
299.911, 3741.640
300.393, 3660.513
300.875, 3583.757
301.357, 3511.214
301.839, 3441.879
302.321, 3376.126
302.803, 3314.942
303.285, 3262.654
303.768, 3219.535
304.250, 3166.582
304.732, 3085.838
305.214, 3014.486
305.696, 2978.404
306.178, 2969.175
306.660, 2960.093
307.142, 2935.637
307.625, 2900.228
308.107, 2863.005
308.589, 2820.386
309.071, 2786.630
309.553, 2781.767
310.035, 2789.110
310.517, 2782.899
310.999, 2749.939
311.482, 2709.216
311.964, 2678.336
312.446, 2656.954
312.928, 2643.631
313.410, 2643.025
313.892, 2646.214
314.374, 2636.794
314.856, 2610.872
315.338, 2583.671
315.820, 2558.737
316.303, 2538.051
316.785, 2526.943
317.267, 2527.722
317.749, 2534.890
318.231, 2542.390
318.713, 2550.792
319.195, 2556.113
319.677, 2560.304
320.160, 2559.696
320.642, 2548.514
321.124, 2527.321
321.606, 2504.221
322.088, 2485.669
322.570, 2471.741
323.052, 2461.590
323.534, 2456.456
324.017, 2453.091
324.499, 2450.742
324.981, 2449.147
325.463, 2447.772
325.945, 2446.199
326.427, 2445.082
326.909, 2446.888
327.391, 2457.426
327.874, 2463.070
328.356, 2460.685
328.838, 2454.445
329.320, 2446.730
329.802, 2438.719
330.284, 2432.879
330.766, 2433.793
331.248, 2444.940
331.730, 2451.542
332.212, 2451.562
332.695, 2448.697
333.177, 2442.340
333.659, 2434.055
334.141, 2428.268
334.623, 2430.652
335.105, 2438.945
335.587, 2436.696
336.069, 2414.233
336.552, 2398.430
337.034, 2408.071
337.516, 2428.757
337.998, 2439.134
338.480, 2428.714
338.962, 2410.489
339.444, 2401.332
339.926, 2401.617
340.409, 2404.706
340.891, 2410.889
341.373, 2416.878
341.855, 2418.677
342.337, 2415.673
342.819, 2411.247
343.301, 2404.250
343.783, 2397.398
344.265, 2398.653
344.748, 2411.154
345.230, 2425.124
345.712, 2430.457
346.194, 2427.118
346.676, 2421.199
347.158, 2406.572
347.640, 2394.618
348.122, 2396.477
348.604, 2410.510
349.087, 2426.554
349.569, 2439.350
350.051, 2448.231
350.533, 2448.415
351.015, 2427.031
351.497, 2413.622
351.979, 2417.786
352.461, 2432.266
352.944, 2449.630
353.426, 2466.848
353.908, 2481.050
354.390, 2487.118
354.872, 2482.467
355.354, 2474.735
355.836, 2457.047
356.318, 2442.548
356.801, 2441.145
357.283, 2451.011
357.765, 2461.942
358.247, 2464.427
358.729, 2459.618
359.211, 2463.291
359.693, 2484.700
360.175, 2501.189
360.657, 2502.634
361.140, 2496.053
361.622, 2491.423
362.104, 2493.264
362.586, 2496.280
363.068, 2490.623
363.550, 2475.021
364.032, 2466.289
364.514, 2473.285
364.996, 2485.824
365.479, 2493.450
365.961, 2495.606
366.443, 2497.442
366.925, 2501.075
367.407, 2506.359
367.889, 2512.940
368.371, 2520.704
368.853, 2530.354
369.336, 2544.077
369.818, 2561.012
370.300, 2572.903
370.782, 2571.299
371.264, 2571.844
371.746, 2586.837
372.228, 2612.142
372.710, 2636.151
373.193, 2653.758
373.675, 2664.869
374.157, 2668.698
374.639, 2647.606
375.121, 2644.016
375.603, 2675.297
376.085, 2714.936
376.567, 2738.273
377.049, 2742.090
377.531, 2741.219
378.014, 2752.317
378.496, 2777.296
378.978, 2795.997
379.460, 2798.697
379.942, 2804.542
380.424, 2823.009
380.906, 2847.838
381.388, 2867.135
381.871, 2873.556
382.353, 2874.520
382.835, 2887.003
383.317, 2914.590
383.799, 2940.218
384.281, 2956.311
384.763, 2970.297
385.245, 2986.719
385.728, 3006.056
386.210, 3030.218
386.692, 3063.988
387.174, 3103.624
387.656, 3136.149
388.138, 3157.312
388.620, 3181.303
389.102, 3222.781
389.584, 3278.464
390.067, 3331.167
390.549, 3372.841
391.031, 3416.650
391.513, 3471.409
391.995, 3535.777
392.477, 3604.260
392.959, 3674.050
393.441, 3747.284
393.923, 3828.259
394.406, 3921.546
394.888, 4016.256
395.370, 4109.168
395.852, 4204.929
396.334, 4309.088
396.816, 4421.385
397.298, 4534.428
397.780, 4640.448
398.263, 4739.199
398.745, 4846.422
399.227, 4971.644
399.709, 5094.854
400.191, 5207.186
400.673, 5314.879
401.155, 5429.180
401.637, 5556.471
402.120, 5680.893
402.602, 5778.676
403.084, 5846.891
403.566, 5909.011
404.048, 5974.366
404.530, 6028.851
405.012, 6061.857
405.494, 6073.987
405.976, 6074.730
406.459, 6073.938
406.941, 6062.551
407.423, 6023.923
407.905, 5956.606
408.387, 5875.790
408.869, 5790.964
409.351, 5699.330
409.833, 5592.349
410.315, 5464.967
410.798, 5329.604
411.280, 5182.618
411.762, 5032.313
412.244, 4894.636
412.726, 4773.459
413.208, 4654.825
413.690, 4519.558
414.172, 4356.568
414.655, 4217.988
415.137, 4117.352
415.619, 4023.806
416.101, 3923.906
416.583, 3821.243
417.065, 3725.507
417.547, 3643.233
418.029, 3570.516
418.512, 3494.875
418.994, 3411.542
419.476, 3339.105
419.958, 3290.115
420.440, 3248.423
420.922, 3202.672
421.404, 3151.801
421.886, 3103.642
422.368, 3064.571
422.850, 3032.639
423.333, 3003.341
423.815, 2977.186
424.297, 2950.144
424.779, 2917.766
425.261, 2882.141
425.743, 2850.865
426.225, 2828.367
426.707, 2805.819
427.190, 2776.627
427.672, 2744.470
428.154, 2715.687
428.636, 2692.259
429.118, 2674.479
429.600, 2663.567
430.082, 2663.576
430.564, 2657.857
431.047, 2642.222
431.529, 2625.447
432.011, 2612.468
432.493, 2602.121
432.975, 2590.550
433.457, 2575.270
433.939, 2557.615
434.421, 2541.279
434.903, 2524.472
435.386, 2513.416
435.868, 2515.855
436.350, 2520.054
436.832, 2517.086
437.314, 2506.225
437.796, 2494.100
438.278, 2483.148
438.760, 2474.592
439.242, 2473.987
439.725, 2483.881
440.207, 2490.028
440.689, 2479.569
441.171, 2458.417
441.653, 2447.355
442.135, 2454.166
442.617, 2461.689
443.099, 2465.419
443.582, 2464.087
444.064, 2451.839
444.546, 2427.266
445.028, 2403.665
445.510, 2398.541
445.992, 2416.599
446.474, 2431.219
446.956, 2444.763
447.439, 2453.115
447.921, 2452.353
448.403, 2445.609
448.885, 2438.036
449.367, 2432.135
449.849, 2427.101
450.331, 2421.642
450.813, 2415.871
451.295, 2409.189
451.778, 2399.417
452.260, 2390.731
452.742, 2385.761
453.224, 2384.490
453.706, 2385.737
454.188, 2391.338
454.670, 2398.012
455.152, 2401.174
455.634, 2400.756
456.117, 2396.860
456.599, 2387.347
457.081, 2376.098
457.563, 2374.941
458.045, 2391.506
458.527, 2400.806
459.009, 2393.445
459.491, 2379.414
459.974, 2365.803
460.456, 2354.896
460.938, 2349.448
461.420, 2352.673
461.902, 2363.900
462.384, 2372.719
462.866, 2380.918
463.348, 2383.791
463.831, 2372.814
464.313, 2360.394
464.795, 2361.781
465.277, 2380.646
465.759, 2401.068
466.241, 2404.921
466.723, 2394.763
467.205, 2389.577
467.687, 2392.259
468.169, 2397.161
468.652, 2402.127
469.134, 2406.242
469.616, 2406.665
470.098, 2400.850
470.580, 2393.739
471.062, 2386.550
471.544, 2380.365
472.026, 2377.696
472.509, 2379.304
472.991, 2383.936
473.473, 2390.513
473.955, 2400.494
474.437, 2405.881
474.919, 2401.376
475.401, 2398.525
475.883, 2403.982
476.366, 2413.966
476.848, 2421.283
477.330, 2422.470
477.812, 2420.889
478.294, 2421.862
478.776, 2425.402
479.258, 2431.814
479.740, 2444.131
480.222, 2456.065
480.705, 2462.426
481.187, 2464.375
481.669, 2467.293
482.151, 2472.781
482.633, 2480.476
483.115, 2493.798
483.597, 2510.458
484.079, 2516.885
484.561, 2505.263
485.044, 2486.571
485.526, 2480.865
486.008, 2495.150
486.490, 2507.037
486.972, 2517.268
487.454, 2524.220
487.936, 2524.218
488.418, 2519.901
488.901, 2518.342
489.383, 2524.247
489.865, 2534.362
490.347, 2539.844
490.829, 2539.760
491.311, 2537.709
491.793, 2531.352
492.275, 2525.490
492.758, 2523.067
493.240, 2524.136
493.722, 2527.611
494.204, 2539.377
494.686, 2549.979
495.168, 2542.272
495.650, 2517.243
496.132, 2492.765
496.614, 2476.177
497.097, 2466.758
497.579, 2463.831
498.061, 2471.620
498.543, 2475.977
499.025, 2473.247
499.507, 2468.491
499.989, 2466.249
500.471, 2465.761
500.953, 2463.471
501.436, 2457.294
501.918, 2446.819
502.400, 2429.126
502.882, 2398.866
503.364, 2374.521
503.846, 2360.277
504.328, 2352.831
504.810, 2354.461
505.293, 2363.424
505.775, 2366.952
506.257, 2353.195
506.739, 2331.898
507.221, 2318.406
507.703, 2312.755
508.185, 2308.887
508.667, 2304.411
509.150, 2299.285
509.632, 2293.216
510.114, 2285.114
510.596, 2278.549
511.078, 2272.734
511.560, 2269.404
512.042, 2274.047
512.524, 2282.994
513.006, 2283.620
513.489, 2265.810
513.971, 2238.353
514.453, 2230.013
514.935, 2248.663
515.417, 2263.681
515.899, 2268.193
516.381, 2267.406
516.863, 2264.029
517.346, 2258.346
517.828, 2250.966
518.310, 2235.555
518.792, 2222.564
519.274, 2233.075
519.756, 2262.692
520.238, 2274.738
520.720, 2248.713
521.202, 2207.040
521.685, 2192.767
522.167, 2223.434
522.649, 2244.271
523.131, 2249.916
523.613, 2250.613
524.095, 2251.679
524.577, 2252.866
525.059, 2251.759
525.541, 2246.828
526.024, 2239.836
526.506, 2234.298
526.988, 2230.401
527.470, 2226.916
527.952, 2224.643
528.434, 2221.568
528.916, 2215.569
529.398, 2207.355
529.880, 2199.858
530.363, 2192.013
530.845, 2187.012
531.327, 2188.463
531.809, 2194.919
532.291, 2204.200
532.773, 2216.017
533.255, 2224.362
533.737, 2218.704
534.219, 2191.943
534.702, 2182.777
535.184, 2211.008
535.666, 2233.989
536.148, 2232.387
536.630, 2217.429
537.112, 2205.458
537.594, 2202.289
538.076, 2206.863
538.559, 2223.367
539.041, 2249.296
539.523, 2260.869
540.005, 2251.462
540.487, 2238.110
540.969, 2233.563
541.451, 2235.283
541.933, 2232.882
542.416, 2218.920
542.898, 2209.770
543.380, 2215.358
543.862, 2227.460
544.344, 2236.309
544.826, 2239.806
545.308, 2239.643
545.790, 2236.337
546.273, 2230.603
546.755, 2232.555
547.237, 2250.012
547.719, 2261.702
548.201, 2261.541
548.683, 2254.424
549.165, 2242.474
549.647, 2226.386
550.130, 2212.495
550.612, 2202.668
551.094, 2198.407
551.576, 2204.669
552.058, 2220.852
552.540, 2236.874
553.022, 2248.410
553.504, 2255.236
553.986, 2256.542
554.469, 2248.310
554.951, 2241.692
555.433, 2236.965
555.915, 2233.565
556.397, 2230.066
556.879, 2227.662
557.361, 2230.090
557.843, 2240.287
558.325, 2252.549
558.808, 2254.827
559.290, 2246.383
559.772, 2242.996
560.254, 2248.950
560.736, 2258.264
561.218, 2266.915
561.700, 2274.807
562.182, 2281.095
562.664, 2281.519
563.147, 2284.720
563.629, 2300.981
564.111, 2321.243
564.593, 2329.864
565.075, 2323.231
565.557, 2309.257
566.039, 2295.152
566.521, 2280.908
567.003, 2274.645
567.486, 2284.577
567.968, 2289.627
568.450, 2275.932
568.932, 2259.643
569.414, 2259.712
569.896, 2279.132
570.378, 2297.864
570.860, 2301.051
571.343, 2296.597
571.825, 2284.627
572.307, 2269.532
572.789, 2257.574
573.271, 2287.739
573.753, 2307.677
574.235, 2317.941
574.717, 2289.553
575.200, 2311.076
575.682, 2312.596
576.164, 2313.299
576.646, 2341.846
577.128, 2319.080
577.610, 2347.186
578.092, 2354.985
578.574, 2358.076
579.057, 2370.222
579.539, 2392.420
580.021, 2407.910
580.503, 2413.386
580.985, 2413.009
581.467, 2405.247
581.949, 2393.039
582.431, 2396.562
582.913, 2430.116
583.396, 2461.784
583.878, 2483.238
584.360, 2497.018
584.842, 2503.721
585.324, 2504.875
585.806, 2504.393
586.288, 2503.090
586.770, 2504.398
587.252, 2528.982
587.735, 2587.882
588.217, 2631.215
588.699, 2634.543
589.181, 2624.793
589.663, 2627.874
590.145, 2643.733
590.627, 2662.929
591.109, 2682.654
591.591, 2704.820
592.074, 2734.271
592.556, 2767.188
593.038, 2793.180
593.520, 2808.695
594.002, 2820.825
594.484, 2838.166
594.966, 2860.287
595.448, 2892.161
595.930, 2943.046
596.413, 2990.711
596.895, 3028.577
597.377, 3058.614
597.859, 3079.706
598.341, 3090.002
598.823, 3108.405
599.305, 3155.089
599.787, 3213.114
600.270, 3255.896
600.752, 3283.151
601.234, 3309.286
601.716, 3342.599
602.198, 3378.817
602.680, 3408.243
603.162, 3431.924
603.644, 3446.235
604.127, 3445.663
604.609, 3442.137
605.091, 3440.670
605.573, 3440.434
606.055, 3439.061
606.537, 3435.660
607.019, 3430.875
607.501, 3428.051
607.984, 3424.365
608.466, 3409.524
608.948, 3381.406
609.430, 3350.667
609.912, 3325.987
610.394, 3304.743
610.876, 3273.754
611.358, 3221.079
611.840, 3174.568
612.323, 3142.916
612.805, 3111.749
613.287, 3066.861
613.769, 3012.417
614.251, 2966.034
614.733, 2939.709
615.215, 2921.416
615.697, 2892.749
616.179, 2854.877
616.662, 2816.766
617.144, 2780.940
617.626, 2742.734
618.108, 2693.935
618.590, 2636.313
619.072, 2597.593
619.554, 2593.909
620.036, 2587.118
620.518, 2565.152
621.001, 2538.943
621.483, 2519.110
621.965, 2506.355
622.447, 2494.663
622.929, 2480.434
623.411, 2463.479
623.893, 2442.311
624.375, 2416.699
624.857, 2391.708
625.340, 2366.670
625.822, 2346.848
626.304, 2340.662
626.786, 2348.927
627.268, 2349.394
627.750, 2335.058
628.232, 2320.893
628.714, 2312.917
629.197, 2307.539
629.679, 2299.464
630.161, 2288.348
630.643, 2279.411
631.125, 2280.230
631.607, 2285.534
632.089, 2274.526
632.571, 2244.516
633.054, 2223.516
633.536, 2226.110
634.018, 2233.529
634.500, 2219.273
634.982, 2181.770
635.464, 2154.496
635.946, 2141.109
636.428, 2136.684
636.911, 2145.618
637.393, 2159.300
637.875, 2166.273
638.357, 2164.040
638.839, 2158.580
639.321, 2154.558
639.803, 2152.174
640.285, 2152.682
640.768, 2156.394
641.250, 2160.789
641.732, 2165.148
642.214, 2169.540
642.696, 2175.177
643.178, 2182.720
643.660, 2184.500
644.142, 2177.035
644.624, 2166.831
645.107, 2154.484
645.589, 2142.348
646.071, 2132.521
646.553, 2125.888
647.035, 2124.278
647.517, 2134.128
647.999, 2150.497
648.481, 2148.437
648.963, 2125.011
649.446, 2107.432
649.928, 2107.066
650.410, 2115.933
650.892, 2125.240
651.374, 2136.408
651.856, 2137.417
652.338, 2112.243
652.820, 2093.711
653.302, 2102.357
653.785, 2123.636
654.267, 2137.781
654.749, 2139.791
655.231, 2137.599
655.713, 2137.660
656.195, 2139.587
656.677, 2143.586
657.159, 2150.081
657.641, 2150.951
658.124, 2141.589
658.606, 2128.085
659.088, 2118.367
659.570, 2112.825
660.052, 2109.254
660.534, 2109.148
661.016, 2109.270
661.498, 2110.510
661.981, 2110.306
662.463, 2103.534
662.945, 2090.350
663.427, 2079.782
663.909, 2081.527
664.391, 2090.169
664.873, 2093.978
665.355, 2093.067
665.838, 2089.265
666.320, 2082.455
666.802, 2075.328
667.284, 2071.512
667.766, 2071.594
668.248, 2069.563
668.730, 2061.570
669.212, 2056.440
669.695, 2058.062
670.177, 2062.262
670.659, 2066.165
671.141, 2068.696
671.623, 2067.849
672.105, 2062.340
672.587, 2052.661
673.069, 2034.312
673.551, 2011.065
674.034, 2002.883
674.516, 2016.243
674.998, 2035.967
675.480, 2046.390
675.962, 2047.652
676.444, 2046.152
676.926, 2036.746
677.408, 2032.364
677.890, 2041.199
678.373, 2050.663
678.855, 2049.226
679.337, 2038.330
679.819, 2029.772
680.301, 2033.296
680.783, 2036.034
681.265, 2020.597
681.747, 1996.999
682.229, 1989.237
682.712, 2001.245
683.194, 2015.831
683.676, 2018.559
684.158, 2011.408
684.640, 2003.523
685.122, 1993.986
685.604, 1986.198
686.086, 1978.881
686.568, 1975.442
687.051, 1981.375
687.533, 1993.134
688.015, 1998.870
688.497, 1993.100
688.979, 1985.639
689.461, 1981.599
689.943, 1978.156
690.425, 1970.446
690.908, 1959.442
691.390, 1951.447
691.872, 1950.772
692.354, 1954.028
692.836, 1953.242
693.318, 1947.972
693.800, 1948.306
694.282, 1958.204
694.765, 1966.915
695.247, 1967.117
695.729, 1960.829
696.211, 1954.179
696.693, 1943.814
697.175, 1939.908
697.657, 1951.045
698.139, 1962.775
698.622, 1966.132
699.104, 1962.169
699.586, 1952.794
700.068, 1938.378
700.550, 1927.344
701.032, 1931.745
701.514, 1947.057
701.996, 1960.296
702.478, 1970.772
702.961, 1972.825
703.443, 1961.795
703.925, 1945.406
704.407, 1937.624
704.889, 1940.452
705.371, 1944.539
705.853, 1959.197
706.335, 1964.198
706.817, 1942.975
707.300, 1914.658
707.782, 1904.254
708.264, 1915.185
708.746, 1923.961
709.228, 1912.881
709.710, 1896.635
710.192, 1891.093
710.674, 1894.120
711.157, 1899.778
711.639, 1906.049
712.121, 1911.017
712.603, 1912.694
713.085, 1911.163
713.567, 1906.296
714.049, 1895.203
714.531, 1889.481
715.013, 1896.444
715.496, 1905.144
715.978, 1904.456
716.460, 1896.162
716.942, 1890.679
717.424, 1893.263
717.906, 1894.307
718.388, 1886.682
718.870, 1878.150
719.352, 1878.495
719.835, 1886.472
720.317, 1893.336
720.799, 1894.271
721.281, 1889.924
721.763, 1878.031
722.245, 1860.446
722.727, 1850.840
723.209, 1851.360
723.692, 1857.916
724.174, 1870.440
724.656, 1884.586
725.138, 1886.939
725.620, 1866.300
726.102, 1856.271
726.584, 1864.817
727.066, 1874.332
727.549, 1878.676
728.031, 1878.545
728.513, 1874.958
728.995, 1867.908
729.477, 1860.925
729.959, 1853.322
730.441, 1848.977
