##NAMES=Hematophanite
##RRUFFID=R070638
##IDEAL CHEMISTRY=Pb^2+^_4_Fe^3+^_3_O_8_Cl
##LOCALITY=Kombat mine, Kombat, Grootfontein District, Otjozondjupa Region, Namibia
##OWNER=RRUFF
##SOURCE=William W. Pinch
##DESCRIPTION=Submetallic deep red-brown tabular crystals with colorless calcite, also associated with R070639 britvinite
##STATUS=The identification of this mineral has been confirmed by single-crystal X-ray diffraction.
##URL=rruff.info/R070638
##MEASURED CHEMISTRY=Pb_4.00_(Fe^3+^_2.99_Mn^3+^_0.01_)_Î£=3_O_8_Cl_1.00_ ; Mn^3+^ by charge balance
145.6795, 1165.781
146.1616, 1161.199
146.6437, 1184.801
147.1258, 1207.689
147.6079, 1238.765
148.0901, 1268.962
148.5722, 1271.862
149.0543, 1215.177
149.5364, 1159.795
150.0185, 1132.578
150.5006, 1169.152
150.9828, 1191.619
151.4649, 1187.430
151.9470, 1159.997
152.4291, 1148.757
152.9112, 1169.875
153.3933, 1199.567
153.8755, 1221.282
154.3576, 1235.671
154.8397, 1239.639
155.3218, 1229.435
155.8039, 1202.607
156.2860, 1177.402
156.7682, 1157.312
157.2503, 1140.726
157.7324, 1125.527
158.2145, 1101.973
158.6966, 1087.048
159.1787, 1091.413
159.6609, 1128.992
160.1430, 1157.104
160.6251, 1156.393
161.1072, 1136.294
161.5893, 1118.351
162.0714, 1112.426
162.5536, 1110.349
163.0357, 1106.532
163.5178, 1097.228
163.9999, 1088.635
164.4820, 1083.967
164.9641, 1082.764
165.4463, 1082.334
165.9284, 1079.776
166.4105, 1077.773
166.8926, 1079.214
167.3747, 1092.651
167.8568, 1104.596
168.3390, 1102.208
168.8211, 1084.043
169.3032, 1069.807
169.7853, 1080.686
170.2674, 1103.817
170.7495, 1116.731
171.2317, 1095.980
171.7138, 1066.064
172.1959, 1053.252
172.6780, 1063.889
173.1601, 1079.225
173.6422, 1084.290
174.1244, 1080.993
174.6065, 1075.464
175.0886, 1067.250
175.5707, 1060.012
176.0528, 1060.080
176.5349, 1072.129
177.0171, 1086.996
177.4992, 1094.937
177.9813, 1096.200
178.4634, 1093.597
178.9455, 1088.737
179.4276, 1081.569
179.9098, 1071.477
180.3919, 1053.451
180.8740, 1034.896
181.3561, 1030.301
181.8382, 1040.285
182.3203, 1052.239
182.8025, 1051.771
183.2846, 1041.854
183.7667, 1034.470
184.2488, 1034.693
184.7309, 1041.345
185.2130, 1052.729
185.6951, 1070.282
186.1773, 1087.452
186.6594, 1095.945
187.1415, 1096.102
187.6236, 1092.032
188.1057, 1081.854
188.5878, 1067.968
189.0700, 1062.814
189.5521, 1069.961
190.0342, 1082.292
190.5163, 1085.157
190.9984, 1078.122
191.4805, 1072.616
191.9627, 1078.575
192.4448, 1094.974
192.9269, 1109.810
193.4090, 1121.692
193.8911, 1130.343
194.3732, 1135.193
194.8554, 1136.398
195.3375, 1133.267
195.8196, 1121.560
196.3017, 1100.956
196.7838, 1087.714
197.2659, 1087.021
197.7481, 1097.476
198.2302, 1111.315
198.7123, 1130.036
199.1944, 1148.017
199.6765, 1155.630
200.1586, 1150.883
200.6408, 1152.055
201.1229, 1171.324
201.6050, 1209.074
202.0871, 1224.238
202.5692, 1209.713
203.0513, 1183.509
203.5335, 1176.704
204.0156, 1193.071
204.4977, 1212.828
204.9798, 1227.222
205.4619, 1235.246
205.9440, 1244.400
206.4262, 1255.839
206.9083, 1267.799
207.3904, 1275.051
207.8725, 1275.833
208.3546, 1276.645
208.8367, 1281.145
209.3189, 1289.793
209.8010, 1300.835
210.2831, 1315.781
210.7652, 1332.940
211.2473, 1344.110
211.7294, 1347.068
212.2116, 1348.513
212.6937, 1353.802
213.1758, 1364.513
213.6579, 1374.277
214.1400, 1382.443
214.6221, 1389.064
215.1043, 1393.431
215.5864, 1394.162
216.0685, 1394.802
216.5506, 1397.895
217.0327, 1401.639
217.5148, 1413.127
217.9970, 1438.766
218.4791, 1480.209
218.9612, 1502.312
219.4433, 1496.369
219.9254, 1479.596
220.4075, 1474.851
220.8897, 1487.668
221.3718, 1501.003
221.8539, 1508.424
222.3360, 1507.294
222.8181, 1513.859
223.3002, 1532.292
223.7824, 1555.739
224.2645, 1571.075
224.7466, 1574.682
225.2287, 1576.700
225.7108, 1580.549
226.1929, 1585.825
226.6750, 1594.742
227.1572, 1611.076
227.6393, 1629.896
228.1214, 1638.170
228.6035, 1632.019
229.0856, 1621.024
229.5677, 1607.557
230.0499, 1583.783
230.5320, 1576.682
231.0141, 1594.835
231.4962, 1630.817
231.9783, 1653.353
232.4604, 1652.188
232.9426, 1650.460
233.4247, 1664.938
233.9068, 1712.916
234.3889, 1740.057
234.8710, 1733.309
235.3531, 1697.503
235.8353, 1677.725
236.3174, 1681.285
236.7995, 1692.605
237.2816, 1700.414
237.7637, 1703.648
238.2458, 1705.512
238.7280, 1706.661
239.2101, 1707.080
239.6922, 1704.646
240.1743, 1696.295
240.6564, 1688.112
241.1385, 1687.018
241.6207, 1701.535
242.1028, 1707.437
242.5849, 1695.977
243.0670, 1664.677
243.5491, 1648.389
244.0313, 1655.840
244.5134, 1671.004
244.9955, 1674.757
245.4776, 1659.931
245.9597, 1645.942
246.4418, 1636.011
246.9240, 1629.185
247.4061, 1633.000
247.8882, 1653.278
248.3703, 1679.954
248.8524, 1698.952
249.3345, 1710.045
249.8167, 1713.710
250.2988, 1708.127
250.7809, 1689.329
251.2630, 1676.352
251.7451, 1667.358
252.2272, 1665.301
252.7094, 1678.517
253.1915, 1720.616
253.6736, 1754.682
254.1557, 1763.978
254.6378, 1735.879
255.1199, 1723.741
255.6021, 1734.596
256.0842, 1758.083
256.5663, 1771.868
257.0484, 1773.829
257.5305, 1769.776
258.0126, 1760.404
258.4948, 1740.563
258.9769, 1730.411
259.4590, 1733.812
259.9411, 1745.689
260.4232, 1751.442
260.9053, 1746.925
261.3875, 1743.947
261.8696, 1750.844
262.3517, 1774.076
262.8338, 1785.460
263.3159, 1779.266
263.7980, 1761.250
264.2802, 1752.073
264.7623, 1755.838
265.2444, 1760.014
265.7265, 1755.927
266.2086, 1740.215
266.6907, 1729.348
267.1729, 1727.577
267.6550, 1731.152
268.1371, 1723.974
268.6192, 1701.448
269.1013, 1678.480
269.5834, 1667.624
270.0656, 1673.258
270.5477, 1671.130
271.0298, 1657.354
271.5119, 1633.928
271.9940, 1606.672
272.4761, 1572.730
272.9583, 1542.857
273.4404, 1527.772
273.9225, 1531.291
274.4046, 1528.470
274.8867, 1514.208
275.3688, 1491.049
275.8510, 1469.173
276.3331, 1448.301
276.8152, 1429.979
277.2973, 1418.931
277.7794, 1417.025
278.2615, 1402.951
278.7437, 1365.837
279.2258, 1314.285
279.7079, 1291.513
280.1900, 1303.316
280.6721, 1321.443
281.1542, 1320.369
281.6364, 1299.357
282.1185, 1274.506
282.6006, 1244.095
283.0827, 1213.345
283.5648, 1210.260
284.0469, 1240.297
284.5291, 1269.703
285.0112, 1261.094
285.4933, 1215.727
285.9754, 1174.204
286.4575, 1145.238
286.9396, 1128.177
287.4217, 1124.724
287.9038, 1136.321
288.3860, 1150.912
288.8681, 1157.740
289.3502, 1157.136
289.8323, 1152.549
290.3144, 1143.565
290.7965, 1131.767
291.2787, 1121.910
291.7608, 1114.134
292.2429, 1106.343
292.7250, 1094.929
293.2071, 1081.041
293.6892, 1070.484
294.1714, 1067.034
294.6535, 1067.440
295.1356, 1063.633
295.6177, 1055.391
296.0998, 1048.055
296.5819, 1047.933
297.0641, 1053.110
297.5462, 1057.306
298.0283, 1059.844
298.5104, 1059.442
298.9925, 1052.545
299.4746, 1039.061
299.9568, 1024.483
300.4389, 1009.748
300.9210, 997.3635
301.4031, 993.0408
301.8852, 1004.948
302.3673, 1022.461
302.8495, 1032.792
303.3316, 1035.882
303.8137, 1034.363
304.2958, 1030.261
304.7779, 1022.973
305.2600, 1011.411
305.7422, 959.2658
306.2243, 992.9610
306.7064, 1011.428
307.1885, 1015.486
307.6706, 961.9746
308.1527, 982.8013
308.6349, 973.8367
309.1170, 963.6505
309.5991, 994.9400
310.0812, 949.8021
310.5633, 980.4339
311.0454, 980.8197
311.5276, 995.0482
312.0097, 979.3016
312.4918, 972.8135
312.9739, 996.3101
313.4560, 1003.204
313.9381, 984.0067
314.4203, 999.1151
314.9024, 952.9302
315.3845, 960.5312
315.8666, 991.3383
316.3487, 973.6483
316.8308, 989.3049
317.3130, 992.2611
317.7951, 937.5002
318.2772, 983.1155
318.7593, 985.3213
319.2414, 942.9552
319.7235, 985.1311
320.2057, 948.9095
320.6878, 940.6711
321.1699, 953.4919
321.6520, 944.3593
322.1341, 969.8386
322.6162, 961.9738
323.0984, 951.1296
323.5805, 953.2867
324.0626, 918.6027
324.5447, 952.2665
325.0268, 939.2430
325.5089, 949.4267
325.9911, 964.8705
326.4732, 940.0369
326.9553, 957.2330
327.4374, 966.0811
327.9195, 966.3858
328.4016, 957.5942
328.8838, 919.8177
329.3659, 898.0027
329.8480, 903.4373
330.3301, 930.6037
330.8122, 944.4655
331.2943, 933.5781
331.7765, 920.8317
332.2586, 919.9803
332.7407, 943.1615
333.2228, 955.8056
333.7049, 950.7795
334.1870, 933.5533
334.6692, 927.6829
335.1513, 939.7892
335.6334, 952.5619
336.1155, 956.1726
336.5976, 948.1237
337.0797, 938.2738
337.5619, 924.7667
338.0440, 910.8975
338.5261, 907.5754
339.0082, 917.2704
339.4903, 929.9820
339.9724, 941.0643
340.4546, 950.7696
340.9367, 957.7466
341.4188, 962.7288
341.9009, 964.0844
342.3830, 954.6924
342.8651, 932.8093
343.3473, 916.7856
343.8294, 920.7002
344.3115, 942.6630
344.7936, 957.6039
345.2757, 964.0562
345.7578, 964.1455
346.2400, 958.5134
346.7221, 947.6957
347.2042, 939.3852
347.6863, 938.5898
348.1684, 943.4404
348.6505, 948.0410
349.1327, 952.1995
349.6148, 955.8726
350.0969, 962.8870
350.5790, 970.5930
351.0611, 968.8364
351.5432, 937.4858
352.0254, 898.5949
352.5075, 892.8316
352.9896, 924.6591
353.4717, 958.9503
353.9538, 959.2162
354.4359, 938.6399
354.9181, 923.0308
355.4002, 929.0059
355.8823, 941.5394
356.3644, 946.5841
356.8465, 943.8304
357.3286, 940.1747
357.8108, 940.1390
358.2929, 941.8749
358.7750, 942.9450
359.2571, 938.5830
359.7392, 936.5638
360.2213, 944.7557
360.7035, 962.1401
361.1856, 973.6069
361.6677, 970.7198
362.1498, 959.8012
362.6319, 946.3309
363.1140, 921.5352
363.5962, 904.6512
364.0783, 903.8132
364.5604, 917.2495
365.0425, 932.3479
365.5246, 953.1224
366.0067, 970.2784
366.4889, 978.1400
366.9710, 965.4308
367.4531, 955.9393
367.9352, 952.6140
368.4173, 954.3947
368.8994, 956.6642
369.3815, 962.0869
369.8636, 965.5728
370.3458, 964.7795
370.8279, 957.1490
371.3100, 949.3860
371.7921, 939.6320
372.2742, 930.0875
372.7563, 926.1663
373.2385, 928.5425
373.7206, 935.5318
374.2027, 948.3741
374.6848, 970.5056
375.1669, 983.7372
375.6490, 986.1935
376.1312, 981.6812
376.6133, 975.1947
377.0954, 965.5682
377.5775, 958.6198
378.0596, 956.3942
378.5417, 958.8749
379.0239, 965.9552
379.5060, 979.1609
379.9881, 992.2505
380.4702, 995.4521
380.9523, 989.1991
381.4344, 985.1918
381.9166, 988.8999
382.3987, 997.3892
382.8808, 1002.091
383.3629, 1002.860
383.8450, 1001.331
384.3271, 999.3107
384.8093, 996.2609
385.2914, 989.7726
385.7735, 974.1453
386.2556, 959.5378
386.7377, 963.1323
387.2198, 982.9567
387.7020, 1004.409
388.1841, 1017.855
388.6662, 1026.201
389.1483, 1034.046
389.6304, 1045.141
390.1125, 1051.572
390.5947, 1044.403
391.0768, 1027.116
391.5589, 1010.717
392.0410, 993.5402
392.5231, 983.8501
393.0052, 990.7155
393.4874, 1024.819
393.9695, 1052.707
394.4516, 1057.440
394.9337, 1047.706
395.4158, 1039.417
395.8979, 1033.005
396.3801, 1032.168
396.8622, 1040.488
397.3443, 1062.049
397.8264, 1078.795
398.3085, 1086.403
398.7906, 1088.523
399.2728, 1089.368
399.7549, 1084.446
400.2370, 1083.527
400.7191, 1089.837
401.2012, 1104.042
401.6833, 1115.697
402.1655, 1123.950
402.6476, 1130.418
403.1297, 1136.313
403.6118, 1141.435
404.0939, 1146.793
404.5760, 1153.677
405.0582, 1161.014
405.5403, 1160.222
406.0224, 1146.981
406.5045, 1138.135
406.9866, 1149.765
407.4688, 1183.603
407.9509, 1207.128
408.4330, 1215.643
408.9151, 1214.273
409.3972, 1210.334
409.8793, 1203.849
410.3615, 1203.006
410.8436, 1217.074
411.3257, 1241.098
411.8078, 1257.642
412.2899, 1265.038
412.7720, 1267.955
413.2542, 1266.539
413.7363, 1264.174
414.2184, 1271.035
414.7005, 1299.615
415.1826, 1335.946
415.6647, 1364.133
416.1469, 1383.427
416.6290, 1399.081
417.1111, 1414.425
417.5932, 1428.348
418.0753, 1438.944
418.5574, 1439.997
419.0396, 1442.762
419.5217, 1450.945
420.0038, 1464.934
420.4859, 1487.786
420.9680, 1532.451
421.4501, 1579.301
421.9323, 1613.722
422.4144, 1626.733
422.8965, 1637.172
423.3786, 1642.909
423.8607, 1648.003
424.3428, 1663.928
424.8250, 1694.931
425.3071, 1734.642
425.7892, 1782.632
426.2713, 1847.843
426.7534, 1898.776
427.2355, 1926.403
427.7177, 1945.438
428.1998, 1977.467
428.6819, 2027.931
429.1640, 2078.860
429.6461, 2125.512
430.1282, 2167.396
430.6104, 2211.629
431.0925, 2257.222
431.5746, 2307.076
432.0567, 2364.037
432.5388, 2428.163
433.0209, 2495.946
433.5031, 2569.132
433.9852, 2643.409
434.4673, 2708.062
434.9494, 2763.083
435.4315, 2818.776
435.9136, 2879.866
436.3958, 2946.883
436.8779, 3022.867
437.3600, 3109.720
437.8421, 3199.356
438.3242, 3287.554
438.8063, 3371.836
439.2885, 3445.126
439.7706, 3490.302
440.2527, 3530.846
440.7348, 3592.455
441.2169, 3679.780
441.6990, 3761.429
442.1812, 3813.446
442.6633, 3852.417
443.1454, 3898.865
443.6275, 3977.324
444.1096, 4046.517
444.5917, 4089.235
445.0739, 4106.808
445.5560, 4120.432
446.0381, 4137.177
446.5202, 4149.343
447.0023, 4152.389
447.4844, 4156.385
447.9666, 4137.519
448.4487, 4087.942
448.9308, 4016.045
449.4129, 3943.989
449.8950, 3877.171
450.3771, 3804.057
450.8592, 3718.636
451.3413, 3619.324
451.8235, 3521.845
452.3056, 3426.591
452.7877, 3332.336
453.2698, 3233.524
453.7519, 3129.623
454.2340, 3033.084
454.7162, 2948.706
455.1983, 2873.870
455.6804, 2797.074
456.1625, 2717.933
456.6446, 2637.827
457.1267, 2556.854
457.6089, 2475.762
458.0910, 2390.669
458.5731, 2298.419
459.0552, 2207.990
459.5373, 2128.261
460.0194, 2059.981
460.5016, 2004.210
460.9837, 1975.118
461.4658, 1951.709
461.9479, 1914.404
462.4300, 1859.325
462.9121, 1800.791
463.3943, 1740.340
463.8764, 1682.607
464.3585, 1634.522
464.8406, 1607.621
465.3227, 1581.322
465.8048, 1547.538
466.2870, 1506.133
466.7691, 1469.177
467.2512, 1442.393
467.7333, 1417.037
468.2154, 1386.950
468.6975, 1339.421
469.1797, 1309.007
469.6618, 1308.567
470.1439, 1323.411
470.6260, 1311.457
471.1081, 1259.277
471.5902, 1212.853
472.0724, 1196.953
472.5545, 1214.359
473.0366, 1208.021
473.5187, 1170.903
474.0008, 1129.979
474.4829, 1124.725
474.9651, 1151.640
475.4472, 1168.155
475.9293, 1158.160
476.4114, 1131.981
476.8935, 1106.199
477.3756, 1081.535
477.8578, 1064.135
478.3399, 1067.477
478.8220, 1078.416
479.3041, 1075.266
479.7862, 1048.018
480.2683, 1020.930
480.7505, 1014.948
481.2326, 1022.603
481.7147, 1028.014
482.1968, 1023.437
482.6789, 1015.889
483.1610, 1008.148
483.6432, 1000.230
484.1253, 993.8974
484.6074, 991.5676
485.0895, 990.0314
485.5716, 986.4822
486.0537, 979.1332
486.5359, 971.5891
487.0180, 965.2406
487.5001, 959.1367
487.9822, 947.5901
488.4643, 924.4055
488.9464, 906.1389
489.4286, 903.5494
489.9107, 921.4122
490.3928, 928.9133
490.8749, 923.6780
491.3570, 912.0388
491.8391, 901.9340
492.3213, 893.4583
492.8034, 887.3505
493.2855, 885.0741
493.7676, 884.9827
494.2497, 882.5647
494.7318, 877.9021
495.2140, 873.3030
495.6961, 870.2565
496.1782, 868.6489
496.6603, 868.5452
497.1424, 870.4011
497.6245, 872.7058
498.1067, 876.3134
498.5888, 879.5103
499.0709, 878.4176
499.5530, 866.8962
500.0351, 854.1578
500.5172, 843.8463
500.9994, 836.0783
501.4815, 833.8295
501.9636, 840.9482
502.4457, 852.2469
502.9278, 863.0869
503.4099, 878.5026
503.8921, 886.7676
504.3742, 885.3670
504.8563, 875.9498
505.3384, 864.6340
505.8205, 849.6417
506.3026, 836.2407
506.7848, 826.2697
507.2669, 819.3002
507.7490, 820.2159
508.2311, 831.9119
508.7132, 844.8560
509.1953, 844.6605
509.6775, 832.5272
510.1596, 821.7947
510.6417, 816.5210
511.1238, 815.5924
511.6059, 818.1013
512.0880, 823.7484
512.5701, 829.2538
513.0522, 835.2719
513.5344, 838.6426
514.0165, 832.7949
514.4986, 811.4988
514.9807, 796.0519
515.4628, 807.3792
515.9449, 832.3945
516.4271, 848.6927
516.9092, 847.7454
517.3913, 838.0383
517.8734, 815.2004
518.3555, 778.2185
518.8376, 760.9261
519.3198, 790.5980
519.8019, 824.3878
520.2840, 835.4791
520.7661, 806.9754
521.2482, 789.0848
521.7303, 786.6772
522.2125, 794.5084
522.6946, 802.0623
523.1767, 810.1141
523.6588, 814.7836
524.1409, 813.7592
524.6230, 807.6917
525.1052, 799.8726
525.5873, 789.7213
526.0694, 782.3997
526.5515, 788.5453
527.0336, 802.0704
527.5157, 803.4915
527.9979, 781.9248
528.4800, 757.6968
528.9621, 752.8392
529.4442, 763.3241
529.9263, 777.1014
530.4084, 793.9337
530.8906, 807.4575
531.3727, 812.0468
531.8548, 806.4398
532.3369, 799.1898
532.8190, 791.6880
533.3011, 784.5134
533.7833, 778.3093
534.2654, 765.8063
534.7475, 763.4998
535.2296, 780.9729
535.7117, 810.1382
536.1938, 821.5958
536.6760, 807.3471
537.1581, 790.9019
537.6402, 782.1817
538.1223, 781.9500
538.6044, 779.9116
539.0865, 775.2864
539.5687, 771.1160
540.0508, 773.2090
540.5329, 780.2250
541.0150, 781.1666
541.4971, 770.0376
541.9792, 755.6231
542.4614, 752.6670
542.9435, 759.3121
543.4256, 766.9113
543.9077, 771.9930
544.3898, 774.5581
544.8719, 773.1287
545.3541, 766.6705
545.8362, 763.1372
546.3183, 771.0198
546.8004, 781.9175
547.2825, 786.7315
547.7646, 776.0093
548.2468, 767.1469
548.7289, 763.5017
549.2110, 764.3904
549.6931, 766.9337
550.1752, 772.4264
550.6573, 777.8239
551.1395, 782.5303
551.6216, 787.0960
552.1037, 786.9902
552.5858, 781.1391
553.0679, 773.0076
553.5500, 765.7571
554.0322, 759.4982
554.5143, 755.5115
554.9964, 754.3935
555.4785, 755.3651
555.9606, 757.7607
556.4427, 761.2977
556.9249, 764.3676
557.4070, 764.3481
557.8891, 764.1763
558.3712, 769.6705
558.8533, 782.5103
559.3354, 788.7150
559.8176, 770.9241
560.2997, 746.7686
560.7818, 734.3047
561.2639, 747.6454
561.7460, 762.5393
562.2281, 777.0494
562.7103, 789.8837
563.1924, 796.4357
563.6745, 793.7417
564.1566, 788.6849
564.6387, 783.3270
565.1208, 777.5898
565.6030, 772.3669
566.0851, 768.1512
566.5672, 763.4871
567.0493, 754.6110
567.5314, 742.1431
568.0135, 737.5877
568.4957, 745.2770
568.9778, 758.0445
569.4599, 764.7936
569.9420, 766.4243
570.4241, 766.4539
570.9063, 767.6308
571.3884, 767.6296
571.8705, 761.5110
572.3526, 749.2454
572.8347, 742.2531
573.3168, 752.1924
573.7990, 767.0060
574.2811, 776.2706
574.7632, 772.6090
575.2453, 770.9587
575.7274, 777.8710
576.2095, 787.6040
576.6917, 788.0920
577.1738, 771.9365
577.6559, 758.7664
578.1380, 754.9011
578.6201, 759.6548
579.1022, 761.2462
579.5844, 758.5201
580.0665, 756.8937
580.5486, 761.1577
581.0307, 770.6044
581.5128, 781.3055
581.9949, 794.1799
582.4771, 803.3462
582.9592, 797.3202
583.4413, 781.6985
583.9234, 770.3223
584.4055, 772.0165
584.8876, 777.8428
585.3698, 781.9944
585.8519, 784.6328
586.3340, 786.8738
586.8161, 792.7274
587.2982, 795.5875
587.7803, 789.7017
588.2625, 766.5617
588.7446, 755.9551
589.2267, 768.1823
589.7088, 787.2230
590.1909, 795.0536
590.6730, 785.9459
591.1552, 781.9312
591.6373, 789.9785
592.1194, 803.4088
592.6015, 799.1594
593.0836, 775.9449
593.5657, 755.6546
594.0479, 752.3486
594.5300, 760.5902
595.0121, 766.7413
595.4942, 770.5024
595.9763, 771.8645
596.4584, 768.5157
596.9406, 763.5648
597.4227, 761.0747
597.9048, 762.7153
598.3869, 765.8489
598.8690, 772.0399
599.3511, 778.5594
599.8333, 780.2416
600.3154, 767.0248
600.7975, 758.2961
601.2796, 761.4250
601.7617, 776.0327
602.2438, 785.3732
602.7260, 789.4805
603.2081, 788.3924
603.6902, 779.6657
604.1723, 762.1403
604.6544, 752.0720
605.1365, 751.0674
605.6187, 755.2108
606.1008, 761.7475
606.5829, 769.6168
607.0650, 774.4363
607.5471, 775.2936
608.0292, 771.9257
608.5114, 760.2334
608.9935, 743.1317
609.4756, 730.7349
609.9577, 731.2123
610.4398, 736.0869
610.9219, 742.2265
611.4041, 750.3721
611.8862, 751.9824
612.3683, 736.1287
612.8504, 719.0576
613.3325, 713.5990
613.8146, 728.2640
614.2968, 737.5129
614.7789, 738.3425
615.2610, 734.7344
615.7431, 733.7200
616.2252, 735.2529
616.7073, 740.0502
617.1895, 751.1071
617.6716, 764.4599
618.1537, 767.4720
618.6358, 760.9313
619.1179, 753.8660
619.6000, 757.4030
620.0822, 761.9304
620.5643, 752.0518
621.0464, 722.2662
621.5285, 699.2059
622.0106, 705.2879
622.4927, 722.4618
622.9749, 731.4324
623.4570, 714.0033
623.9391, 705.0429
624.4212, 714.9490
624.9033, 736.0228
625.3854, 748.2635
625.8676, 747.1757
626.3497, 747.0104
626.8318, 753.7598
627.3139, 766.3126
627.7960, 774.8065
628.2781, 779.4603
628.7603, 778.2321
629.2424, 761.9267
629.7245, 738.8102
630.2066, 733.5019
630.6887, 752.8806
631.1708, 772.4052
631.6530, 766.1299
632.1351, 746.7413
632.6172, 733.3920
633.0993, 735.1055
633.5814, 741.9888
634.0635, 754.8326
634.5457, 770.9679
635.0278, 780.1088
635.5099, 771.8555
635.9920, 767.2527
636.4741, 776.4014
636.9562, 801.0348
637.4384, 805.0361
637.9205, 781.1290
638.4026, 756.7841
