##NAMES=Hematite
##RRUFFID=R060190
##IDEAL CHEMISTRY=Fe^3+^_2_O_3_
##LOCALITY=Florence mine, Egremont, Cumbria, England
##OWNER=RRUFF
##SOURCE=Lloyd Twaites
##DESCRIPTION=Red tinged, steel-gray fragment of a botryoidal mass
##STATUS=The identification of this mineral has been confirmed by X-ray diffraction and chemical analysis
##URL=rruff.info/R060190
##MEASURED CHEMISTRY=Fe_2.00_O_3_
91.88672, 83.36670
92.36884, 85.64528
92.85095, 87.06490
93.33307, 86.16809
93.81519, 84.11333
94.29730, 81.91135
94.77942, 80.07226
95.26154, 78.54279
95.74365, 76.58184
96.22577, 73.50931
96.70789, 70.83739
97.19000, 69.05753
97.67212, 67.94968
98.15424, 66.97002
98.63635, 65.75198
99.11847, 64.14803
99.60059, 62.69979
100.0827, 61.50500
100.5648, 60.37849
101.0469, 59.10838
101.5291, 57.64302
102.0112, 56.25296
102.4933, 55.12265
102.9754, 54.20913
103.4575, 53.53390
103.9396, 53.20117
104.4218, 53.11298
104.9039, 52.96281
105.3860, 52.65266
105.8681, 52.37225
106.3502, 52.44842
106.8323, 52.72104
107.3145, 52.62993
107.7966, 51.42068
108.2787, 48.72647
108.7608, 46.80079
109.2429, 46.12456
109.7250, 45.87593
110.2072, 45.83756
110.6893, 45.89457
111.1714, 45.89963
111.6535, 45.58747
112.1356, 44.53957
112.6177, 43.79283
113.0998, 43.23817
113.5820, 42.99593
114.0641, 43.36982
114.5462, 44.51122
115.0283, 46.01284
115.5104, 46.59487
115.9925, 45.75314
116.4747, 44.81433
116.9568, 44.05433
117.4389, 43.43048
117.9210, 42.80989
118.4031, 42.07133
118.8852, 41.33739
119.3674, 40.90095
119.8495, 40.85160
120.3316, 40.99712
120.8137, 41.29073
121.2958, 41.76078
121.7779, 42.07314
122.2601, 41.89734
122.7422, 41.46131
123.2243, 40.99538
123.7064, 40.57818
124.1885, 40.17797
124.6706, 39.66425
125.1528, 38.80745
125.6349, 38.25160
126.1170, 38.36884
126.5991, 38.88225
127.0812, 39.37680
127.5633, 39.60398
128.0455, 39.56392
128.5276, 39.29111
129.0097, 38.38469
129.4918, 37.60065
129.9739, 37.18346
130.4561, 37.09068
130.9382, 37.13526
131.4203, 37.15436
131.9024, 37.18143
132.3845, 37.00561
132.8666, 36.33500
133.3487, 35.71538
133.8309, 35.63878
134.3130, 36.12526
134.7951, 36.62000
135.2772, 36.29729
135.7593, 34.67622
136.2414, 33.79502
136.7236, 34.43328
137.2057, 35.65337
137.6878, 36.21667
138.1699, 35.67922
138.6520, 34.77895
139.1341, 34.77438
139.6163, 35.72152
140.0984, 36.43157
140.5805, 36.21776
141.0626, 35.29758
141.5447, 34.52673
142.0268, 34.22057
142.5090, 34.09376
142.9911, 33.79696
143.4732, 33.29834
143.9553, 32.85478
144.4374, 32.79891
144.9195, 33.21059
145.4017, 33.42784
145.8838, 33.07113
146.3659, 32.58074
146.8480, 32.18979
147.3301, 31.96447
147.8122, 31.88167
148.2944, 31.91458
148.7765, 32.11000
149.2586, 32.33969
149.7407, 32.76512
150.2228, 33.13183
150.7049, 33.15218
151.1871, 32.69785
151.6692, 31.94156
152.1513, 31.43066
152.6334, 31.21487
153.1155, 31.24226
153.5976, 31.80229
154.0798, 32.55178
154.5619, 32.99379
155.0440, 32.82921
155.5261, 32.15758
156.0082, 31.68458
156.4903, 31.58774
156.9725, 31.45758
157.4546, 31.10320
157.9367, 30.59607
158.4188, 30.14567
158.9009, 29.88919
159.3830, 29.82043
159.8652, 29.79167
160.3473, 29.93475
160.8294, 30.01413
161.3115, 29.78659
161.7936, 29.25378
162.2757, 28.77888
162.7579, 28.62658
163.2400, 28.72321
163.7221, 28.89223
164.2042, 29.23110
164.6863, 29.56757
165.1684, 29.60392
165.6506, 29.22600
166.1327, 28.90965
166.6148, 29.09248
167.0969, 29.50094
167.5790, 29.71395
168.0611, 29.41756
168.5433, 28.80305
169.0254, 28.53444
169.5075, 28.93661
169.9896, 29.20614
170.4717, 28.88087
170.9538, 28.22501
171.4360, 27.70479
171.9181, 27.66430
172.4002, 28.07604
172.8823, 28.39454
173.3644, 28.55032
173.8465, 28.66507
174.3287, 28.79348
174.8108, 28.90899
175.2929, 28.94531
175.7750, 28.83860
176.2571, 28.57191
176.7392, 28.31832
177.2214, 27.99265
177.7035, 27.75068
178.1856, 27.65947
178.6677, 27.71463
179.1498, 27.88486
179.6319, 28.16398
180.1141, 28.60653
180.5962, 28.82585
181.0783, 28.71095
181.5604, 28.49483
182.0425, 28.32034
182.5246, 28.20213
183.0068, 28.06754
183.4889, 27.83264
183.9710, 27.47130
184.4531, 27.14714
184.9352, 26.69458
185.4173, 26.36856
185.8995, 26.50579
186.3816, 27.18687
186.8637, 28.00224
187.3458, 28.53855
187.8279, 28.82250
188.3100, 28.98133
188.7922, 29.02819
189.2743, 28.96964
189.7564, 28.73569
190.2385, 28.19755
190.7206, 27.80250
191.2027, 28.10539
191.6849, 28.93808
192.1670, 29.69758
192.6491, 30.06244
193.1312, 30.13134
193.6133, 30.23053
194.0954, 30.40891
194.5776, 30.59330
195.0597, 30.83289
195.5418, 31.06857
196.0239, 31.09777
196.5060, 30.40102
196.9881, 29.07368
197.4703, 28.89492
197.9524, 31.17849
198.4345, 33.38279
198.9166, 34.22342
199.3987, 33.93469
199.8808, 33.45555
200.3630, 33.61650
200.8451, 34.49389
201.3272, 35.22715
201.8093, 35.91159
202.2914, 36.35418
202.7735, 36.26837
203.2557, 35.80157
203.7378, 35.41232
204.2199, 35.57015
204.7020, 36.38447
205.1841, 37.19637
205.6662, 38.02326
206.1484, 38.83595
206.6305, 39.65246
207.1126, 40.45363
207.5947, 41.17808
208.0768, 41.75426
208.5589, 42.13106
209.0411, 42.56399
209.5232, 43.09623
210.0053, 43.63665
210.4874, 44.19408
210.9695, 44.73802
211.4516, 45.15674
211.9338, 45.30407
212.4159, 45.08578
212.8980, 45.02654
213.3801, 45.28977
213.8622, 45.58272
214.3443, 45.67477
214.8265, 45.54879
215.3086, 45.36788
215.7907, 45.28099
216.2728, 45.30286
216.7549, 45.40259
217.2370, 45.71664
217.7191, 46.02788
218.2013, 46.04406
218.6834, 45.72647
219.1655, 45.48872
219.6476, 45.81680
220.1297, 46.03843
220.6118, 46.77773
221.0940, 47.17965
221.5761, 47.26233
222.0582, 46.06956
222.5403, 46.52377
223.0224, 46.31794
223.5045, 46.08505
223.9867, 46.77104
224.4688, 45.76379
224.9509, 46.43522
225.4330, 46.43656
225.9151, 46.74458
226.3972, 46.38849
226.8794, 46.23752
227.3615, 44.77458
227.8436, 43.03780
228.3257, 41.42426
228.8078, 40.06595
229.2899, 38.93391
229.7721, 37.98122
230.2542, 37.26500
230.7363, 36.60246
231.2184, 35.72662
231.7005, 34.85900
232.1826, 34.37237
232.6648, 34.57750
233.1469, 35.20504
233.6290, 35.52050
234.1111, 35.34750
234.5932, 35.18662
235.0753, 35.31252
235.5575, 35.54317
236.0396, 35.60284
236.5217, 35.28932
237.0038, 34.79533
237.4859, 34.74524
237.9680, 35.47323
238.4502, 36.11476
238.9323, 36.33009
239.4144, 36.37452
239.8965, 36.59345
240.3786, 37.18775
240.8607, 37.96448
241.3429, 38.27032
241.8250, 37.60262
242.3071, 37.20031
242.7892, 37.56424
243.2713, 38.17440
243.7534, 38.40743
244.2356, 37.95922
244.7177, 37.10158
245.1998, 36.66809
245.6819, 37.29301
246.1640, 37.45123
246.6461, 36.59190
247.1283, 35.38528
247.6104, 34.59322
248.0925, 34.53841
248.5746, 34.86494
249.0567, 34.65950
249.5388, 33.13672
250.0210, 32.10306
250.5031, 31.86002
250.9852, 32.01040
251.4673, 32.18470
251.9494, 32.24226
252.4315, 32.25468
252.9137, 32.37391
253.3958, 32.84255
253.8779, 33.08033
254.3600, 32.73858
254.8421, 32.34062
255.3242, 32.50505
255.8064, 33.39884
256.2885, 34.54290
256.7706, 35.12197
257.2527, 34.61393
257.7348, 34.44575
258.2169, 34.83929
258.6991, 35.45490
259.1812, 36.04216
259.6633, 36.52804
260.1454, 36.85959
260.6275, 36.89672
261.1096, 36.35466
261.5918, 36.38602
262.0739, 37.37693
262.5560, 38.73513
263.0381, 40.00077
263.5202, 41.07565
264.0023, 42.00753
264.4845, 42.81197
264.9666, 43.45626
265.4487, 44.17332
265.9308, 45.19956
266.4129, 46.15676
266.8951, 46.55302
267.3772, 46.37304
267.8593, 46.29475
268.3414, 47.00444
268.8235, 48.53661
269.3056, 49.84695
269.7878, 50.71077
270.2699, 51.48105
270.7520, 52.43549
271.2341, 53.58767
271.7162, 54.79918
272.1983, 56.00457
272.6805, 57.17976
273.1626, 58.22070
273.6447, 59.00343
274.1268, 59.75097
274.6089, 60.72129
275.0910, 61.88168
275.5732, 62.83329
276.0553, 63.25700
276.5374, 63.31493
277.0195, 63.57783
277.5016, 64.05481
277.9837, 64.72746
278.4659, 65.68674
278.9480, 66.88406
279.4301, 68.02438
279.9122, 68.96221
280.3943, 69.75941
280.8764, 70.53591
281.3586, 71.25301
281.8407, 72.05019
282.3228, 73.02308
282.8049, 74.15427
283.2870, 75.38315
283.7691, 76.76341
284.2513, 78.14510
284.7334, 79.29517
285.2155, 80.17947
285.6976, 81.11086
286.1797, 82.27573
286.6618, 83.62282
287.1440, 85.01514
287.6261, 86.47756
288.1082, 87.86342
288.5903, 89.07359
289.0724, 90.11666
289.5545, 90.89410
290.0367, 91.38316
290.5188, 91.57102
291.0009, 91.46223
291.4830, 91.12366
291.9651, 90.31980
292.4472, 88.74349
292.9294, 86.55928
293.4115, 84.16439
293.8936, 81.62785
294.3757, 79.00350
294.8578, 76.36499
295.3399, 73.66127
295.8221, 71.07360
296.3042, 68.72520
296.7863, 66.56235
297.2684, 64.55626
297.7505, 62.72297
298.2326, 60.99656
298.7148, 59.35019
299.1969, 57.82451
299.6790, 56.13215
300.1611, 53.96492
300.6432, 51.60305
301.1253, 49.37930
301.6075, 47.35907
302.0896, 45.50178
302.5717, 43.79231
303.0538, 42.23889
303.5359, 40.77344
304.0180, 39.32395
304.5002, 38.01707
304.9823, 37.07281
305.4644, 36.56687
305.9465, 35.97882
306.4286, 34.71327
306.9107, 32.83130
307.3929, 31.28585
307.8750, 30.43798
308.3571, 29.84719
308.8392, 29.09941
309.3213, 28.20625
309.8034, 27.40759
310.2856, 26.76017
310.7677, 26.30570
311.2498, 26.34686
311.7319, 27.31466
312.2140, 28.13577
312.6961, 28.01308
313.1783, 27.16956
313.6604, 26.20808
314.1425, 25.34323
314.6246, 24.57777
315.1067, 23.91126
315.5888, 23.31901
316.0710, 22.89683
316.5531, 22.80021
317.0352, 22.87838
317.5173, 22.91586
317.9994, 22.80171
318.4815, 22.65665
318.9637, 22.69113
319.4458, 22.94576
319.9279, 23.15505
320.4100, 23.22691
320.8921, 23.17706
321.3742, 22.97231
321.8564, 22.56715
322.3385, 22.16099
322.8206, 21.97035
323.3027, 21.99454
323.7848, 22.04775
324.2669, 22.12326
324.7491, 22.16912
325.2312, 22.10186
325.7133, 21.91904
326.1954, 21.80105
326.6775, 21.98821
327.1596, 22.38907
327.6418, 22.49347
328.1239, 22.04990
328.6060, 21.57099
329.0881, 21.52549
329.5702, 21.80089
330.0523, 21.98709
330.5345, 21.81371
331.0166, 21.42720
331.4987, 21.16084
331.9808, 21.04820
332.4629, 20.98148
332.9450, 20.86718
333.4272, 20.75430
333.9093, 20.72693
334.3914, 20.78993
334.8735, 20.96768
335.3556, 21.41083
335.8377, 22.16669
336.3199, 22.64458
336.8020, 22.43053
337.2841, 21.85686
337.7662, 21.29242
338.2483, 20.69382
338.7304, 20.35505
339.2125, 20.77058
339.6946, 21.78988
340.1768, 22.29072
340.6589, 21.71645
341.1410, 20.82056
341.6231, 20.54082
342.1052, 20.87088
342.5873, 21.11778
343.0695, 20.71045
343.5516, 19.99633
344.0337, 19.89054
344.5158, 20.69967
344.9979, 21.58191
345.4800, 21.57341
345.9622, 20.97583
346.4443, 20.67209
346.9264, 21.17833
347.4085, 21.94499
347.8906, 22.28477
348.3727, 22.16683
348.8549, 22.00869
349.3370, 22.10189
349.8191, 22.31867
350.3012, 22.32092
350.7833, 21.90055
351.2654, 21.52865
351.7476, 21.63497
352.2297, 22.10281
352.7118, 22.36055
353.1939, 22.08860
353.6760, 21.63743
354.1581, 21.67892
354.6403, 22.31707
355.1224, 22.84231
355.6045, 22.96452
356.0866, 22.81425
356.5687, 22.58138
357.0508, 22.29440
357.5330, 21.99928
358.0151, 21.66943
358.4972, 21.30366
358.9793, 21.31856
359.4614, 22.07796
359.9435, 23.02526
360.4257, 23.75804
360.9078, 24.23402
361.3899, 24.41088
361.8720, 24.15618
362.3541, 23.56923
362.8362, 23.30966
363.3184, 23.67431
363.8005, 24.02490
364.2826, 24.00051
364.7647, 23.76026
365.2468, 23.67467
365.7289, 23.90891
366.2111, 24.36188
366.6932, 24.83602
367.1753, 25.43213
367.6574, 25.83573
368.1395, 25.81527
368.6216, 25.67570
369.1038, 25.78251
369.5859, 26.20075
370.0680, 26.68923
370.5501, 26.96717
371.0322, 26.97379
371.5143, 27.07003
371.9965, 27.25097
372.4786, 27.51595
372.9607, 27.92331
373.4428, 28.42450
373.9249, 28.87086
374.4070, 29.14488
374.8892, 29.28531
375.3713, 29.57712
375.8534, 30.29121
376.3355, 30.82682
376.8176, 30.96787
377.2997, 30.91220
377.7819, 30.90305
378.2640, 31.03410
378.7461, 31.25551
379.2282, 31.47489
379.7103, 31.65426
380.1924, 31.90989
380.6746, 32.19097
381.1567, 32.57338
381.6388, 33.18283
382.1209, 33.97771
382.6030, 34.75512
383.0851, 35.32861
383.5673, 35.68821
384.0494, 35.98590
384.5315, 36.11642
385.0136, 36.28978
385.4957, 36.50230
385.9778, 36.80399
386.4600, 37.30923
386.9421, 38.09819
387.4242, 39.01913
387.9063, 39.60707
388.3884, 39.61263
388.8705, 39.77538
389.3527, 40.24662
389.8348, 40.86589
390.3169, 41.50373
390.7990, 42.13832
391.2811, 42.84871
391.7632, 43.82016
392.2454, 45.11785
392.7275, 46.05763
393.2096, 46.33641
393.6917, 46.51781
394.1738, 46.78579
394.6559, 47.16426
395.1381, 47.65976
395.6202, 48.24688
396.1023, 48.97154
396.5844, 50.09371
397.0665, 51.88462
397.5486, 53.30418
398.0308, 53.50985
398.5129, 53.30095
398.9950, 53.42901
399.4771, 54.06847
399.9592, 55.03049
400.4413, 56.25861
400.9235, 57.72451
401.4056, 59.00387
401.8877, 59.91760
402.3698, 60.72002
402.8519, 61.63503
403.3340, 62.65429
403.8162, 63.74269
404.2983, 65.14063
404.7804, 66.51557
405.2625, 67.17567
405.7446, 67.00626
406.2267, 66.78078
406.7089, 67.07353
407.1910, 67.68696
407.6731, 68.06190
408.1552, 68.22199
408.6373, 68.05924
409.1194, 67.45311
409.6016, 66.46265
410.0837, 65.22269
410.5658, 63.74029
411.0479, 62.14139
411.5300, 60.68106
412.0121, 59.40888
412.4943, 57.98652
412.9764, 56.42647
413.4585, 54.64539
413.9406, 52.38772
414.4227, 49.69596
414.9048, 47.16291
415.3870, 45.32770
415.8691, 44.17922
416.3512, 42.81536
416.8333, 41.06877
417.3154, 39.33080
417.7975, 37.69881
418.2797, 36.17857
418.7618, 34.78338
419.2439, 33.52320
419.7260, 32.31142
420.2081, 30.94376
420.6902, 28.91720
421.1724, 27.65844
421.6545, 27.70737
422.1366, 28.03043
422.6187, 27.92046
423.1008, 27.34820
423.5829, 26.69177
424.0651, 26.30098
424.5472, 26.16937
425.0293, 25.91138
425.5114, 25.38376
425.9935, 24.88732
426.4756, 24.51331
426.9578, 24.19741
427.4399, 23.84139
427.9220, 23.40182
428.4041, 22.95975
428.8862, 22.64950
429.3683, 22.48586
429.8505, 22.39860
430.3326, 22.63460
430.8147, 22.74173
431.2968, 22.32101
431.7789, 21.47602
432.2610, 20.74866
432.7432, 20.57712
433.2253, 20.84307
433.7074, 21.11837
434.1895, 21.46054
434.6716, 21.66555
435.1537, 21.50113
435.6359, 21.17981
436.1180, 20.96474
436.6001, 20.93671
437.0822, 20.96406
437.5643, 20.95840
438.0464, 20.91479
438.5286, 20.79695
439.0107, 20.58165
439.4928, 20.31160
439.9749, 19.98430
440.4570, 19.60703
440.9391, 19.36270
441.4213, 19.44756
441.9034, 19.60111
442.3855, 19.48581
442.8676, 19.10708
443.3497, 18.79333
443.8318, 18.77246
444.3140, 18.96789
444.7961, 19.03827
445.2782, 18.80710
445.7603, 18.71495
446.2424, 19.07564
446.7245, 19.57761
447.2067, 19.75719
447.6888, 19.49890
448.1709, 19.06923
448.6530, 18.78283
449.1351, 18.63851
449.6172, 18.67606
450.0994, 19.15827
450.5815, 19.53598
451.0636, 19.46913
451.5457, 19.10369
452.0278, 18.76788
452.5099, 18.64252
452.9921, 18.68998
453.4742, 18.81474
453.9563, 19.14329
454.4384, 19.31619
454.9205, 19.18884
455.4026, 19.00113
455.8848, 18.93668
456.3669, 19.00565
456.8490, 19.08335
457.3311, 19.03417
457.8132, 18.87143
458.2953, 18.81427
458.7775, 18.97075
459.2596, 19.06048
459.7417, 18.85732
460.2238, 18.56562
460.7059, 18.48203
461.1880, 18.73236
461.6702, 19.09544
462.1523, 19.38181
462.6344, 19.58583
463.1165, 19.54155
463.5986, 19.02704
464.0807, 18.50939
464.5629, 18.50094
465.0450, 18.93333
465.5271, 19.34830
466.0092, 19.49787
466.4913, 19.60646
466.9734, 20.05473
467.4556, 20.81504
467.9377, 21.32659
468.4198, 21.22882
468.9019, 20.71241
469.3840, 20.33101
469.8661, 20.06099
470.3483, 19.93754
470.8304, 20.09594
471.3125, 20.34488
471.7946, 20.40598
472.2767, 20.24949
472.7589, 20.14906
473.2410, 20.42038
473.7231, 21.10778
474.2052, 21.41178
474.6873, 21.05868
475.1694, 20.68624
475.6516, 20.41957
476.1337, 20.27343
476.6158, 20.26584
477.0979, 20.40126
477.5800, 20.62820
478.0621, 20.86471
478.5443, 21.12572
479.0264, 21.35388
479.5085, 21.60774
479.9906, 21.77411
480.4727, 21.68080
480.9548, 21.44768
481.4370, 21.38918
481.9191, 21.74801
482.4012, 22.34269
482.8833, 22.72668
483.3654, 22.84800
483.8475, 22.96613
484.3297, 23.21211
484.8118, 23.45845
485.2939, 23.57003
485.7760, 23.53329
486.2581, 23.49593
486.7402, 23.53952
487.2224, 23.64489
487.7045, 23.81696
488.1866, 24.07738
488.6687, 23.57484
489.1508, 24.30438
489.6329, 24.69654
490.1151, 24.76945
490.5972, 23.56693
491.0793, 24.01136
491.5614, 23.79578
492.0435, 23.55313
492.5256, 24.22936
493.0078, 23.21234
493.4899, 23.87401
493.9720, 23.33019
494.4541, 24.00734
494.9362, 24.34713
495.4183, 24.36766
495.9005, 23.11274
496.3826, 23.50480
496.8647, 23.23684
497.3468, 22.06484
497.8289, 22.81339
498.3110, 23.22456
498.7932, 23.31648
499.2753, 22.13297
499.7574, 22.59641
500.2395, 22.39983
500.7216, 22.17619
501.2037, 22.87143
501.6859, 21.92974
502.1680, 21.13815
502.6501, 20.94551
503.1322, 21.05017
503.6143, 20.66834
504.0964, 19.66290
504.5785, 18.88496
505.0606, 18.72024
505.5428, 18.86102
506.0249, 19.05007
506.5070, 19.28513
506.9891, 19.34614
507.4712, 18.95984
507.9533, 18.39505
508.4355, 18.09794
508.9176, 18.10626
509.3997, 18.18023
509.8818, 18.17484
510.3639, 18.10928
510.8460, 18.06678
511.3282, 18.02183
511.8103, 18.03222
512.2924, 18.19640
512.7745, 18.38276
513.2567, 18.46966
513.7388, 18.42029
514.2209, 18.18423
514.7030, 17.65434
515.1851, 16.81020
515.6672, 16.36735
516.1494, 16.72871
516.6315, 17.03869
517.1136, 17.14861
517.5957, 17.10542
518.0778, 16.90694
518.5599, 16.57113
519.0421, 16.29745
519.5242, 16.42805
520.0063, 17.00303
520.4884, 17.27623
520.9705, 17.01105
521.4526, 16.72315
521.9348, 16.69471
522.4169, 16.82557
522.8990, 16.93633
523.3811, 16.97012
523.8632, 16.96810
524.3453, 17.00124
524.8275, 17.04645
525.3096, 16.93172
525.7917, 16.53915
526.2738, 16.17298
526.7559, 16.26708
527.2380, 16.80274
527.7202, 17.11485
528.2023, 17.00433
528.6844, 16.77383
529.1665, 16.55913
529.6486, 16.37525
530.1307, 16.21828
530.6129, 16.08278
531.0950, 16.02800
531.5771, 16.18855
532.0592, 16.75938
532.5413, 17.04036
533.0234, 16.85425
533.5056, 16.59054
533.9877, 16.39861
534.4698, 16.28535
534.9519, 16.21727
535.4340, 16.17783
535.9161, 16.17128
536.3983, 16.21886
536.8804, 16.33895
537.3625, 16.42824
537.8446, 16.37997
538.3267, 16.38169
538.8088, 16.64911
539.2910, 17.10069
539.7731, 17.39123
540.2552, 17.17189
540.7373, 16.81978
541.2194, 16.91854
541.7015, 17.43121
542.1837, 17.85138
542.6658, 17.97471
543.1479, 17.91566
543.6300, 17.85177
544.1121, 17.78637
544.5942, 17.70140
545.0764, 17.59806
545.5585, 17.47079
546.0406, 17.22365
546.5227, 16.93512
547.0048, 16.88598
547.4869, 17.25688
547.9691, 17.84802
548.4512, 18.09195
548.9333, 17.68379
549.4154, 17.48939
549.8975, 17.70485
550.3796, 17.95432
550.8618, 18.02314
551.3439, 17.92681
551.8260, 17.76635
552.3081, 17.56282
552.7902, 17.39751
553.2723, 17.52199
553.7545, 18.01111
554.2366, 18.34243
554.7187, 18.19930
555.2008, 18.00682
555.6829, 18.27362
556.1650, 18.95306
556.6472, 19.39739
557.1293, 19.21684
557.6114, 18.77226
558.0935, 18.37086
558.5756, 18.04291
559.0577, 17.88596
559.5399, 17.95738
560.0220, 18.19770
560.5041, 18.50849
560.9862, 18.99490
561.4683, 19.29509
561.9504, 19.39410
562.4326, 19.31190
562.9147, 18.84190
563.3968, 18.20327
563.8789, 17.93831
564.3610, 18.37238
564.8431, 19.19748
565.3253, 19.70738
565.8074, 19.84892
566.2895, 19.84054
566.7716, 19.47769
567.2537, 19.16809
567.7358, 19.15625
568.2180, 19.37826
568.7001, 19.63546
569.1822, 19.89734
569.6643, 20.06930
570.1464, 19.90804
570.6285, 19.46124
571.1107, 19.28437
571.5928, 19.63270
572.0749, 20.12816
572.5570, 20.27072
573.0391, 20.05211
573.5212, 19.94223
574.0034, 19.98174
574.4855, 20.14556
574.9676, 20.52274
575.4497, 20.99830
575.9318, 21.34741
576.4139, 21.48181
576.8961, 21.47033
577.3782, 21.37766
577.8603, 21.10091
578.3424, 21.15999
578.8245, 21.95654
579.3066, 22.67427
579.7888, 23.01229
580.2709, 23.10879
580.7530, 23.22341
581.2351, 23.46023
581.7172, 23.62455
582.1993, 23.30188
582.6815, 22.58954
583.1636, 22.46835
583.6457, 23.25118
584.1278, 24.14904
584.6099, 24.62110
585.0920, 24.75011
585.5741, 24.76812
586.0562, 24.53622
586.5383, 24.43047
587.0204, 24.75899
587.5026, 25.27279
587.9847, 25.56926
588.4668, 25.58292
588.9489, 25.55811
