##NAMES=Hematite
##RRUFFID=R110013
##IDEAL CHEMISTRY=Fe^3+^_2_O_3_
##LOCALITY=Itabira, Minas Gerais, Brazil
##OWNER=RRUFF
##SOURCE=University of Arizona Mineral Museum
##DESCRIPTION=A group of black lustrous euhedral crystals
##STATUS=The identification of this mineral is confirmed by single-crystal X-ray diffraction and chemical analysis.
##URL=rruff.info/R110013
##MEASURED CHEMISTRY=Fe_2_O_3_ ; (Pure phase as determined by WDS analysis)
170.1024, 41.18829
170.5845, 42.87039
171.0666, 45.14446
171.5487, 47.22307
172.0309, 49.07393
172.5130, 50.03066
172.9951, 48.69390
173.4772, 46.31389
173.9593, 44.83887
174.4414, 45.83728
174.9236, 47.66205
175.4057, 48.33169
175.8878, 47.83241
176.3699, 47.49212
176.8520, 49.07106
177.3341, 51.66032
177.8163, 53.27934
178.2984, 52.32092
178.7805, 50.16503
179.2626, 48.61056
179.7447, 47.67694
180.2268, 47.61564
180.7090, 49.58761
181.1911, 52.85811
181.6732, 55.11821
182.1553, 54.42212
182.6374, 52.11173
183.1195, 51.30137
183.6017, 52.28670
184.0838, 53.42062
184.5659, 52.36530
185.0480, 49.56997
185.5301, 47.25928
186.0123, 46.45204
186.4944, 46.95132
186.9765, 48.55770
187.4586, 51.57081
187.9407, 54.58761
188.4228, 55.43567
188.9050, 54.28846
189.3871, 52.91820
189.8692, 52.31820
190.3513, 52.30276
190.8334, 51.75190
191.3155, 50.40720
191.7977, 49.06274
192.2798, 49.14189
192.7619, 50.63793
193.2440, 52.30896
193.7261, 53.80497
194.2082, 55.06960
194.6904, 55.29046
195.1725, 54.13682
195.6546, 52.49562
196.1367, 52.01656
196.6188, 52.73505
197.1009, 53.98325
197.5831, 55.77757
198.0652, 58.12925
198.5473, 59.37973
199.0294, 59.17128
199.5115, 58.20593
199.9937, 57.93284
200.4758, 58.44097
200.9579, 59.06810
201.4400, 59.34478
201.9221, 59.21170
202.4042, 59.68223
202.8864, 61.13985
203.3685, 62.90344
203.8506, 63.08898
204.3327, 61.27715
204.8148, 59.58606
205.2969, 59.25880
205.7791, 60.47823
206.2612, 61.68856
206.7433, 62.72622
207.2254, 63.75841
207.7075, 65.20319
208.1896, 67.08817
208.6718, 69.31478
209.1539, 71.98666
209.6360, 75.23190
210.1181, 78.16223
210.6002, 80.75300
211.0823, 82.99379
211.5645, 84.74745
212.0466, 85.79774
212.5287, 86.89600
213.0108, 88.24470
213.4929, 89.56965
213.9750, 92.34528
214.4572, 97.20206
214.9393, 103.3280
215.4214, 108.2309
215.9035, 111.0619
216.3856, 114.4441
216.8678, 119.7500
217.3499, 127.4252
217.8320, 135.6510
218.3141, 143.9035
218.7962, 152.7107
219.2783, 163.8206
219.7605, 177.7085
220.2426, 192.8438
220.7247, 207.7850
221.2068, 220.7792
221.6889, 238.2802
222.1710, 260.1435
222.6532, 286.7426
223.1353, 318.5568
223.6174, 356.5099
224.0995, 398.7098
224.5816, 444.2153
225.0637, 493.7287
225.5459, 547.9208
226.0280, 616.6414
226.5101, 688.1456
226.9922, 725.3381
227.4743, 727.0850
227.9564, 697.3015
228.4386, 631.2455
228.9207, 506.7247
229.4028, 402.4005
229.8849, 320.3407
230.3670, 258.6651
230.8492, 210.7099
231.3313, 179.9294
231.8134, 158.2529
232.2955, 142.5847
232.7776, 135.6557
233.2597, 128.9359
233.7419, 121.8451
234.2240, 115.0418
234.7061, 110.5181
235.1882, 109.0057
235.6703, 108.6471
236.1524, 108.6530
236.6346, 108.7998
237.1167, 109.8375
237.5988, 111.7967
238.0809, 114.6178
238.5630, 118.1803
239.0451, 122.2190
239.5273, 127.3595
240.0094, 133.6755
240.4915, 140.6162
240.9736, 150.2620
241.4557, 162.9445
241.9378, 178.2173
242.4200, 195.2031
242.9021, 214.5519
243.3842, 234.9030
243.8663, 255.8914
244.3484, 277.7437
244.8306, 300.2709
245.3127, 327.0239
245.7948, 352.4159
246.2769, 366.4530
246.7590, 369.7415
247.2411, 360.4276
247.7233, 335.4097
248.2054, 289.1629
248.6875, 247.3709
249.1696, 209.8109
249.6517, 177.2099
250.1338, 151.3364
250.6160, 133.7130
251.0981, 120.0271
251.5802, 109.4330
252.0623, 102.1888
252.5444, 96.46786
253.0265, 92.98611
253.5087, 90.47997
253.9908, 87.01707
254.4729, 81.45860
254.9550, 77.22511
255.4371, 75.62346
255.9192, 77.07417
256.4014, 77.79101
256.8835, 77.44722
257.3656, 76.69275
257.8477, 76.35657
258.3298, 76.72366
258.8120, 76.86489
259.2941, 76.51768
259.7762, 75.65178
260.2583, 74.57774
260.7404, 72.64497
261.2225, 71.29491
261.7047, 72.20808
262.1868, 76.11790
262.6689, 80.56651
263.1510, 86.09441
263.6331, 92.51173
264.1152, 93.48547
264.5974, 86.60880
265.0795, 77.98387
265.5616, 73.76867
266.0437, 75.14008
266.5258, 76.81774
267.0079, 77.89388
267.4901, 78.46177
267.9722, 79.24639
268.4543, 80.28238
268.9364, 81.48699
269.4185, 82.82236
269.9006, 84.31773
270.3828, 85.78007
270.8649, 87.06035
271.3470, 88.30350
271.8291, 90.27021
272.3112, 93.13282
272.7933, 96.32788
273.2755, 99.37280
273.7576, 102.1885
274.2397, 105.4943
274.7218, 109.6603
275.2039, 114.1764
275.6860, 116.9284
276.1682, 117.2045
276.6503, 118.4914
277.1324, 123.4896
277.6145, 132.4578
278.0966, 141.0415
278.5787, 148.8493
279.0609, 156.1375
279.5430, 163.4485
280.0251, 170.6900
280.5072, 178.3482
280.9893, 186.6150
281.4715, 195.4246
281.9536, 204.9359
282.4357, 214.8636
282.9178, 226.0649
283.3999, 240.2047
283.8820, 257.3638
284.3642, 275.9996
284.8463, 294.8350
285.3284, 314.2115
285.8105, 336.4230
286.2926, 361.1969
286.7747, 390.0205
287.2569, 425.0258
287.7390, 466.1464
288.2211, 511.9281
288.7032, 562.3646
289.1853, 617.0497
289.6674, 675.4255
290.1496, 737.9971
290.6317, 802.6266
291.1138, 869.5625
291.5959, 938.0435
292.0780, 1001.371
292.5602, 1065.042
293.0423, 1119.932
293.5244, 1143.533
294.0065, 1135.473
294.4886, 1100.108
294.9707, 1027.859
295.4529, 928.0222
295.9350, 834.7840
296.4171, 752.8362
296.8992, 685.0325
297.3813, 640.2452
297.8634, 617.5637
298.3456, 605.3892
298.8277, 602.0449
299.3098, 602.6101
299.7919, 596.3733
300.2740, 581.0890
300.7561, 558.2184
301.2383, 527.9412
301.7204, 491.0505
302.2025, 453.1011
302.6846, 415.3876
303.1667, 379.2040
303.6488, 345.6084
304.1310, 315.0003
304.6131, 287.2881
305.0952, 262.8652
305.5773, 241.6194
306.0594, 223.3269
306.5415, 208.5770
307.0237, 196.2269
307.5058, 185.0840
307.9879, 175.2036
308.4700, 165.8879
308.9521, 155.8087
309.4343, 145.9710
309.9164, 137.8931
310.3985, 133.4021
310.8806, 130.0481
311.3627, 125.7274
311.8448, 120.2897
312.3270, 115.6254
312.8091, 114.0224
313.2912, 113.4525
313.7733, 111.5205
314.2554, 105.4203
314.7375, 99.43554
315.2197, 96.33108
315.7018, 95.72733
316.1839, 94.55140
316.6660, 90.08016
317.1481, 85.12621
317.6302, 82.09587
318.1124, 83.20406
318.5945, 84.23061
319.0766, 83.70078
319.5587, 81.93802
320.0408, 80.06995
320.5229, 77.92323
321.0051, 76.13671
321.4872, 75.22582
321.9693, 76.24468
322.4514, 76.31738
322.9335, 73.79414
323.4156, 70.01824
323.8978, 67.57879
324.3799, 68.18284
324.8620, 69.09683
325.3441, 69.32043
325.8262, 68.50452
326.3083, 67.87629
326.7905, 67.77378
327.2726, 67.82784
327.7547, 67.58633
328.2368, 66.79059
328.7189, 65.94730
329.2010, 64.95522
329.6832, 63.73713
330.1653, 63.34071
330.6474, 64.64388
331.1295, 66.13637
331.6116, 66.56936
332.0938, 65.20356
332.5759, 63.94747
333.0580, 63.07266
333.5401, 62.51824
334.0222, 61.88597
334.5043, 61.10659
334.9865, 60.33707
335.4686, 59.64935
335.9507, 59.01405
336.4328, 58.54357
336.9149, 58.27363
337.3970, 58.15224
337.8792, 58.02755
338.3613, 57.84666
338.8434, 57.80560
339.3255, 58.08114
339.8076, 58.75637
340.2898, 59.12008
340.7719, 59.16095
341.2540, 58.91962
341.7361, 58.24048
342.2182, 57.03628
342.7003, 56.36493
343.1825, 56.93390
343.6646, 58.45465
344.1467, 58.83266
344.6288, 57.91947
345.1109, 56.63102
345.5930, 55.63224
346.0752, 54.97234
346.5573, 55.10760
347.0394, 56.55879
347.5215, 58.51551
348.0036, 58.96716
348.4857, 57.94450
348.9679, 56.88258
349.4500, 57.01403
349.9321, 57.95245
350.4142, 58.57049
350.8963, 58.66320
351.3784, 58.47628
351.8606, 58.22291
352.3427, 57.93151
352.8248, 57.70176
353.3069, 57.39404
353.7890, 57.26122
354.2711, 57.93058
354.7533, 59.57729
355.2354, 60.84454
355.7175, 59.95714
356.1996, 57.94703
356.6817, 56.61384
357.1638, 57.65365
357.6460, 58.97349
358.1281, 58.69341
358.6102, 56.93981
359.0923, 55.51194
359.5744, 55.58924
360.0565, 56.42772
360.5387, 57.33374
361.0208, 58.38135
361.5029, 59.13157
361.9850, 59.10231
362.4671, 58.56372
362.9492, 58.34732
363.4314, 59.17383
363.9135, 60.08646
364.3956, 60.55376
364.8777, 60.38442
365.3598, 60.05227
365.8419, 59.54999
366.3241, 58.97009
366.8062, 58.45415
367.2883, 57.68544
367.7704, 57.30621
368.2526, 57.62899
368.7347, 58.82306
369.2168, 59.76505
369.6989, 60.23409
370.1810, 60.57381
370.6631, 61.11281
371.1453, 62.51693
371.6274, 63.08680
372.1095, 62.13384
372.5916, 60.00861
373.0737, 59.15316
373.5558, 60.25180
374.0380, 61.59126
374.5201, 62.11039
375.0022, 61.31587
375.4843, 61.44113
375.9664, 63.02437
376.4485, 65.15173
376.9307, 65.96841
377.4128, 65.24267
377.8949, 64.13825
378.3770, 62.83101
378.8591, 61.37926
379.3412, 61.11345
379.8234, 62.24329
380.3055, 63.82674
380.7876, 64.90784
381.2697, 65.50503
381.7518, 65.76749
382.2339, 65.69761
382.7161, 65.35142
383.1982, 64.64436
383.6803, 63.60450
384.1624, 62.87885
384.6445, 63.30016
385.1266, 64.40136
385.6088, 64.88786
386.0909, 64.36477
386.5730, 63.82393
387.0551, 64.59700
387.5372, 66.32479
388.0193, 67.99810
388.5015, 68.95802
388.9836, 69.65133
389.4657, 70.63335
389.9478, 71.94716
390.4299, 73.07945
390.9120, 73.31667
391.3942, 73.28366
391.8763, 73.75179
392.3584, 75.46467
392.8405, 77.28593
393.3226, 78.62103
393.8047, 79.55941
394.2869, 80.50986
394.7690, 81.54257
395.2511, 82.69767
395.7332, 83.99544
396.2154, 85.42429
396.6975, 87.02109
397.1796, 88.58511
397.6617, 90.37359
398.1438, 92.80302
398.6259, 96.42146
399.1081, 100.2220
399.5902, 103.9404
400.0723, 107.5504
400.5544, 111.2180
401.0365, 114.2918
401.5186, 117.9250
402.0008, 123.0353
402.4829, 130.0899
402.9650, 137.8156
403.4471, 146.2779
403.9292, 155.3386
404.4113, 164.1717
404.8935, 172.6823
405.3756, 181.2966
405.8577, 190.1015
406.3398, 198.8999
406.8219, 208.7541
407.3040, 219.7524
407.7862, 231.7023
408.2683, 245.1372
408.7504, 260.1414
409.2325, 273.9704
409.7146, 285.7713
410.1967, 295.6086
410.6789, 304.9737
411.1610, 313.9577
411.6431, 320.3676
412.1252, 322.4352
412.6073, 320.4184
413.0894, 314.6051
413.5716, 304.6268
414.0537, 292.1132
414.5358, 278.5279
415.0179, 264.0563
415.5000, 248.8278
415.9821, 232.2583
416.4643, 215.5103
416.9464, 199.5690
417.4285, 184.5575
417.9106, 170.8831
418.3927, 158.6980
418.8748, 147.9981
419.3570, 138.9954
419.8391, 132.7726
420.3212, 127.1653
420.8033, 121.0031
421.2854, 114.5634
421.7675, 109.0174
422.2497, 105.7548
422.7318, 102.7070
423.2139, 98.58549
423.6960, 92.01140
424.1781, 87.09752
424.6602, 85.59724
425.1424, 85.68291
425.6245, 84.68096
426.1066, 81.29927
426.5887, 78.48060
427.0709, 77.21146
427.5530, 77.48947
428.0351, 76.50757
428.5172, 73.50218
428.9993, 70.26276
429.4814, 68.02077
429.9636, 66.88695
430.4457, 66.40382
430.9278, 66.75304
431.4099, 67.51617
431.8920, 67.73106
432.3741, 67.32887
432.8563, 66.93077
433.3384, 66.99432
433.8205, 67.37418
434.3026, 66.95316
434.7847, 65.64913
435.2668, 64.19597
435.7490, 63.40154
436.2311, 63.09283
436.7132, 62.66936
437.1953, 61.90791
437.6774, 61.05056
438.1595, 60.24877
438.6417, 59.57228
439.1238, 59.31033
439.6059, 60.15339
440.0880, 61.23621
440.5701, 61.49768
441.0522, 60.69807
441.5344, 59.97671
442.0165, 60.42665
442.4986, 61.24797
442.9807, 61.45726
443.4628, 59.90417
443.9449, 58.48716
444.4271, 57.98518
444.9092, 58.28730
445.3913, 58.70832
445.8734, 59.51164
446.3555, 60.05428
446.8376, 59.91134
447.3198, 58.32268
447.8019, 57.52240
448.2840, 58.27565
448.7661, 59.53904
449.2482, 59.78462
449.7303, 58.10355
450.2125, 56.96764
450.6946, 57.10400
451.1767, 58.39641
451.6588, 59.08615
452.1409, 59.05351
452.6230, 58.71220
453.1052, 58.05925
453.5873, 56.98064
454.0694, 57.31268
454.5515, 59.63604
455.0337, 62.50568
455.5158, 63.37775
455.9979, 62.36515
456.4800, 61.00823
456.9621, 59.55261
457.4442, 58.32051
457.9264, 58.18943
458.4085, 59.13036
458.8906, 60.44456
459.3727, 62.12332
459.8548, 63.66150
460.3369, 64.07119
460.8191, 62.75480
461.3012, 61.20909
461.7833, 60.58554
462.2654, 60.62295
462.7475, 60.77784
463.2296, 60.98262
463.7118, 61.10245
464.1939, 61.05653
464.6760, 60.83858
465.1581, 60.52639
465.6402, 59.57418
466.1223, 58.87981
466.6045, 59.09313
467.0866, 61.79574
467.5687, 63.54919
468.0508, 63.55334
468.5329, 62.55450
469.0150, 62.21430
469.4972, 62.88867
469.9793, 63.69051
470.4614, 64.38831
470.9435, 64.98371
471.4256, 65.42990
471.9077, 65.67962
472.3899, 65.87665
472.8720, 66.22818
473.3541, 66.78026
473.8362, 66.87084
474.3183, 66.19024
474.8004, 65.35213
475.2826, 65.71068
475.7647, 67.19044
476.2468, 68.72517
476.7289, 69.93020
477.2110, 70.77812
477.6931, 71.03673
478.1753, 70.71058
478.6574, 70.38964
479.1395, 70.66548
479.6216, 71.22747
480.1037, 71.54086
480.5858, 71.14503
481.0680, 71.08618
481.5501, 72.25164
482.0322, 74.27145
482.5143, 76.36977
482.9964, 78.70822
483.4786, 80.65669
483.9607, 81.63580
484.4428, 81.50818
484.9249, 81.97013
485.4070, 84.34113
485.8892, 86.78767
486.3713, 87.96464
486.8534, 86.40385
487.3355, 85.69518
487.8176, 85.96237
488.2997, 87.11525
488.7819, 89.15820
489.2640, 92.69971
489.7461, 95.76273
490.2282, 97.61279
490.7103, 98.33179
491.1924, 99.02143
491.6746, 99.65676
492.1567, 100.3774
492.6388, 101.1555
493.1209, 102.0566
493.6030, 103.6351
494.0851, 106.1248
494.5673, 108.9176
495.0494, 111.3824
495.5315, 113.4578
496.0136, 114.8341
496.4957, 114.8828
496.9778, 114.4620
497.4600, 114.6741
497.9421, 115.4352
498.4242, 115.8806
498.9063, 115.4403
499.3884, 114.4927
499.8705, 113.3336
500.3527, 111.9958
500.8348, 110.5304
501.3169, 108.9643
501.7990, 107.3079
502.2811, 105.5603
502.7632, 103.7888
503.2454, 101.8796
503.7275, 99.65795
504.2096, 97.18533
504.6917, 95.03247
505.1738, 93.40168
505.6559, 91.85164
506.1381, 90.20523
506.6202, 88.49202
507.1023, 86.46985
507.5844, 83.93443
508.0665, 81.46281
508.5486, 79.84962
509.0308, 79.09971
509.5129, 78.98504
509.9950, 79.86492
510.4771, 80.91708
510.9592, 79.99166
511.4413, 77.28697
511.9235, 74.69968
512.4056, 73.64371
512.8877, 73.38268
513.3698, 72.89497
513.8519, 72.11047
514.3340, 70.99437
514.8162, 68.80165
515.2983, 66.52586
515.7804, 65.41350
516.2625, 66.94751
516.7446, 68.29044
517.2267, 68.10868
517.7089, 66.88622
518.1910, 65.80501
518.6731, 65.26993
519.1552, 64.77174
519.6373, 64.10603
520.1194, 63.23513
520.6016, 62.49252
521.0837, 61.60083
521.5658, 61.15143
522.0479, 61.79590
522.5300, 64.07563
523.0121, 65.41992
523.4943, 65.51925
523.9764, 64.79546
524.4585, 63.91038
524.9406, 62.87847
525.4227, 61.67840
525.9048, 60.03864
526.3870, 58.36163
526.8691, 57.64436
527.3513, 57.85913
527.8334, 58.58357
528.3155, 60.43272
528.7976, 62.27113
529.2797, 62.00901
529.7618, 59.01328
530.2440, 56.31184
530.7261, 56.37745
531.2082, 57.91513
531.6903, 59.26529
532.1724, 59.98043
532.6545, 60.34095
533.1367, 60.39759
533.6188, 60.17275
534.1009, 59.74731
534.5830, 58.73878
535.0651, 57.91158
535.5472, 57.45188
536.0294, 57.32642
536.5115, 57.94183
536.9936, 60.00867
537.4757, 61.82555
537.9578, 61.70956
538.4399, 59.25744
538.9221, 57.37454
539.4042, 56.28654
539.8863, 55.97344
540.3684, 56.75932
540.8505, 58.53156
541.3326, 59.92752
541.8148, 60.14020
542.2969, 59.78550
542.7790, 60.18471
543.2611, 61.19485
543.7432, 61.69954
544.2253, 59.94753
544.7075, 57.83503
545.1896, 57.67995
545.6717, 60.21404
546.1538, 62.30933
546.6359, 61.94857
547.1180, 60.55606
547.6002, 59.64747
548.0823, 60.04654
548.5644, 60.41224
549.0465, 60.40074
549.5286, 60.17898
550.0107, 60.27023
550.4929, 61.09501
550.9750, 61.58180
551.4571, 61.20494
551.9392, 59.95546
552.4213, 59.49334
552.9034, 59.99925
553.3856, 60.71314
553.8677, 60.89007
554.3498, 60.61047
554.8319, 60.98491
555.3140, 62.27116
555.7961, 63.68124
556.2783, 64.27713
556.7604, 64.16734
557.2425, 63.59985
557.7246, 62.22807
558.2067, 60.89557
558.6888, 60.50393
559.1710, 60.86728
559.6531, 61.36958
560.1352, 61.95988
560.6173, 62.40072
561.0994, 62.25395
561.5815, 61.31153
562.0637, 61.38023
562.5458, 64.42151
563.0279, 67.54454
563.5100, 68.60390
563.9921, 65.75301
564.4742, 64.12080
564.9564, 64.27731
565.4385, 65.33993
565.9206, 65.77309
566.4027, 65.39997
566.8848, 65.30743
567.3669, 66.00420
567.8491, 67.09635
568.3312, 67.15675
568.8133, 66.22332
569.2954, 65.26640
569.7775, 64.85562
570.2596, 64.86642
570.7418, 65.20900
571.2239, 65.89413
571.7060, 66.45969
572.1881, 66.06345
572.6702, 65.57301
573.1523, 66.08248
573.6345, 68.72286
574.1166, 70.81972
574.5987, 70.80354
575.0808, 69.70181
575.5629, 69.22005
576.0450, 71.01559
576.5272, 71.85977
577.0093, 70.48164
577.4914, 67.40456
577.9735, 66.24448
578.4556, 67.89967
578.9377, 69.63587
579.4199, 69.98483
579.9020, 68.90902
580.3841, 68.39389
580.8662, 68.49409
581.3483, 68.86436
581.8304, 69.05820
582.3126, 69.22115
582.7947, 70.01778
583.2768, 71.81957
583.7589, 73.52159
584.2410, 73.93740
584.7231, 73.38892
585.2053, 72.51340
585.6874, 71.01795
586.1696, 69.78582
586.6517, 69.31525
587.1338, 69.52202
587.6159, 70.01433
588.0980, 70.99227
588.5801, 71.96381
589.0623, 72.67081
589.5444, 73.04240
590.0265, 73.64499
590.5086, 74.74296
590.9907, 75.73478
591.4728, 76.05861
591.9550, 75.56934
592.4371, 75.31579
592.9192, 75.35583
593.4013, 75.70009
593.8834, 76.38822
594.3655, 77.40756
594.8477, 78.71922
595.3298, 80.48553
595.8119, 82.29591
596.2940, 83.33018
596.7761, 83.86495
597.2582, 84.86050
597.7404, 87.03720
598.2225, 89.68821
598.7046, 92.73188
599.1867, 96.11238
599.6688, 98.42337
600.1509, 98.05944
600.6331, 97.37807
601.1152, 97.82579
601.5973, 99.71387
602.0794, 102.1445
602.5615, 105.3650
603.0436, 108.8713
603.5258, 111.9592
604.0079, 114.4472
604.4900, 117.5039
604.9721, 121.4569
605.4542, 125.8079
605.9363, 129.4313
606.4185, 132.3948
606.9006, 135.5658
607.3827, 138.6356
607.8648, 142.5121
608.3469, 149.4601
608.8290, 158.8862
609.3112, 167.0678
609.7933, 171.5985
610.2754, 174.2666
610.7575, 176.2080
611.2396, 177.4138
611.7217, 178.7104
612.2039, 181.4157
612.6860, 183.5831
613.1681, 183.7048
613.6502, 181.0518
614.1323, 177.5485
614.6144, 172.8010
615.0966, 167.6085
615.5787, 163.1562
616.0608, 159.6855
616.5429, 155.4851
617.0250, 149.9695
617.5071, 143.7170
617.9893, 137.9415
618.4714, 132.6423
618.9535, 128.0229
619.4356, 124.6728
619.9177, 121.6911
620.3998, 117.5208
620.8820, 112.3502
621.3641, 107.9862
621.8462, 106.2054
622.3283, 105.0274
622.8104, 102.8088
623.2925, 98.82381
623.7747, 95.86370
624.2568, 95.78835
624.7389, 96.07881
625.2210, 94.54831
625.7031, 89.60237
626.1852, 86.46877
626.6674, 86.08548
627.1495, 86.90231
627.6316, 86.08324
628.1137, 83.52257
628.5958, 82.03175
629.0779, 82.85061
629.5601, 84.71072
630.0422, 85.13024
630.5243, 84.32901
631.0064, 83.36073
631.4885, 82.70523
631.9706, 82.22633
632.4528, 81.85300
632.9349, 81.57089
633.4170, 81.23625
633.8991, 80.85039
634.3812, 80.34566
634.8633, 79.60575
635.3455, 78.44221
635.8276, 77.65115
636.3097, 77.34616
636.7918, 77.32736
637.2739, 77.51285
637.7560, 78.04094
638.2382, 78.15015
638.7203, 77.65483
639.2024, 76.95716
639.6845, 76.67828
640.1666, 76.77261
640.6487, 76.83955
641.1309, 76.58851
641.6130, 76.49238
642.0951, 77.61236
642.5772, 79.47865
643.0594, 80.71967
643.5415, 80.21166
644.0236, 79.28733
644.5057, 78.48335
644.9879, 77.87482
645.4700, 77.86353
645.9521, 79.24065
646.4342, 80.60218
646.9163, 81.29658
647.3984, 81.20572
647.8806, 81.28688
648.3627, 81.55235
648.8448, 81.97200
649.3269, 82.69827
649.8090, 83.72886
650.2911, 83.99027
650.7733, 83.23254
651.2554, 82.48470
651.7375, 83.46477
652.2196, 85.39392
652.7017, 86.26475
653.1838, 85.03843
653.6660, 83.54432
654.1481, 82.88670
654.6302, 82.98989
655.1123, 83.72042
655.5944, 86.02876
656.0765, 87.90285
656.5587, 88.47216
657.0408, 88.00684
657.5229, 87.83060
658.0050, 87.94888
658.4871, 88.36780
658.9692, 89.21833
659.4514, 90.43132
659.9335, 91.24348
660.4156, 91.63679
660.8977, 91.76576
661.3798, 91.69641
661.8619, 91.44793
662.3441, 91.00767
662.8262, 90.36972
663.3083, 89.77565
663.7904, 89.46830
664.2725, 89.28574
664.7546, 89.06703
665.2368, 88.80849
665.7189, 88.43357
