##NAMES=Hematite
##RRUFFID=R060190
##IDEAL CHEMISTRY=Fe^3+^_2_O_3_
##LOCALITY=Florence mine, Egremont, Cumbria, England
##OWNER=RRUFF
##SOURCE=Lloyd Twaites
##DESCRIPTION=Red tinged, steel-gray fragment of a botryoidal mass
##STATUS=The identification of this mineral has been confirmed by X-ray diffraction and chemical analysis
##URL=rruff.info/R060190
##MEASURED CHEMISTRY=Fe_2.00_O_3_
91.93750, 12.20331
92.41962, 12.56233
92.90173, 12.24325
93.38385, 11.44803
93.86597, 10.87584
94.34808, 11.25975
94.83020, 12.16014
95.31232, 12.27718
95.79443, 11.25297
96.27655, 9.926589
96.75867, 9.939027
97.24078, 11.29822
97.72290, 12.55925
98.20502, 12.54641
98.68713, 11.32890
99.16925, 10.36641
99.65137, 9.920362
100.1335, 9.856792
100.6156, 9.683781
101.0977, 9.357679
101.5798, 9.047743
102.0620, 8.939850
102.5441, 9.117583
103.0262, 9.163494
103.5083, 8.952932
103.9904, 8.488458
104.4725, 8.095609
104.9546, 7.673648
105.4368, 7.427503
105.9189, 7.668643
106.4010, 8.884537
106.8831, 9.829480
107.3652, 10.16128
107.8473, 9.679493
108.3295, 9.274232
108.8116, 8.964618
109.2937, 8.725947
109.7758, 8.509586
110.2579, 8.494526
110.7400, 8.350381
111.2222, 7.933455
111.7043, 6.867993
112.1864, 6.185403
112.6685, 6.027878
113.1506, 6.302027
113.6327, 6.763492
114.1149, 7.722501
114.5970, 8.632006
115.0791, 9.210855
115.5612, 9.449757
116.0433, 9.318861
116.5254, 8.519491
117.0076, 7.222987
117.4897, 6.227601
117.9718, 5.936707
118.4539, 6.012055
118.9360, 6.170084
119.4181, 6.294393
119.9003, 6.504961
120.3824, 6.984555
120.8645, 7.698097
121.3466, 8.232533
121.8287, 8.315279
122.3108, 8.070375
122.7930, 7.663143
123.2751, 6.993953
123.7572, 6.290808
124.2393, 5.645738
124.7214, 5.042644
125.2035, 4.816607
125.6857, 5.587494
126.1678, 6.992109
126.6499, 8.171793
127.1320, 8.508905
127.6141, 8.398831
128.0962, 8.504732
128.5784, 8.916390
129.0605, 9.341317
129.5426, 9.222396
130.0247, 8.688114
130.5068, 8.467523
130.9889, 9.446421
131.4711, 11.16204
131.9532, 11.88654
132.4353, 11.19268
132.9174, 9.905178
133.3995, 9.679926
133.8816, 10.53986
134.3638, 11.37266
134.8459, 11.05195
135.3280, 9.641266
135.8101, 9.386961
136.2922, 10.97455
136.7743, 13.64659
137.2565, 14.79520
137.7386, 14.09428
138.2207, 13.20047
138.7028, 13.62894
139.1849, 15.68190
139.6670, 17.24142
140.1492, 17.94209
140.6313, 17.84435
141.1134, 17.40434
141.5955, 16.48356
142.0776, 15.46194
142.5597, 14.64524
143.0419, 13.96244
143.5240, 13.70717
144.0061, 14.13254
144.4882, 15.31125
144.9703, 15.82950
145.4524, 15.26956
145.9346, 14.40134
146.4167, 14.10702
146.8988, 14.75660
147.3809, 15.45307
147.8630, 16.01438
148.3451, 16.45599
148.8273, 16.72975
149.3094, 16.76542
149.7915, 16.65872
150.2736, 16.54031
150.7557, 16.12138
151.2378, 15.96442
151.7200, 15.84794
152.2021, 16.43015
152.6842, 16.80501
153.1663, 16.98364
153.6484, 16.37837
154.1305, 16.78535
154.6127, 16.78669
155.0948, 16.77137
155.5769, 17.32083
156.0590, 16.82957
156.5411, 17.37007
157.0232, 17.49870
157.5054, 17.81586
157.9875, 17.72483
158.4696, 17.75986
158.9517, 18.20320
159.4338, 18.42046
159.9159, 18.28244
160.3981, 18.52452
160.8802, 18.12942
161.3623, 17.21398
161.8444, 16.70239
162.3265, 17.33550
162.8086, 18.22122
163.2908, 18.76899
163.7729, 18.74668
164.2550, 18.50394
164.7371, 18.05025
165.2192, 17.45519
165.7013, 16.99825
166.1834, 16.92915
166.6656, 16.99957
167.1477, 16.98001
167.6298, 16.60885
168.1119, 16.33901
168.5940, 16.60738
169.0761, 17.31128
169.5583, 17.82798
170.0404, 17.49746
170.5225, 16.86123
171.0046, 16.57805
171.4867, 17.27320
171.9688, 18.07215
172.4510, 18.13779
172.9331, 17.53407
173.4152, 16.98382
173.8973, 17.19291
174.3794, 17.77256
174.8615, 18.10606
175.3437, 17.79892
175.8258, 17.22750
176.3079, 16.77388
176.7900, 16.43216
177.2721, 16.25106
177.7542, 16.40523
178.2364, 16.75576
178.7185, 16.99721
179.2006, 16.86392
179.6827, 16.59508
180.1648, 16.64583
180.6469, 17.03500
181.1291, 17.01185
181.6112, 17.54252
182.0933, 17.86584
182.5754, 17.99293
183.0575, 17.33611
183.5396, 17.69155
184.0218, 17.64134
184.5039, 17.57448
184.9860, 18.07239
185.4681, 17.52959
185.9502, 18.01854
186.4323, 18.09564
186.9145, 18.36125
187.3966, 17.89187
187.8787, 17.78321
188.3608, 17.40884
188.8429, 17.86745
189.3250, 18.11870
189.8072, 18.17373
190.2893, 17.44485
190.7714, 17.72824
191.2535, 17.60595
191.7356, 17.46703
192.2177, 17.89288
192.6999, 17.27801
193.1820, 17.69491
193.6641, 17.69994
194.1462, 17.89348
194.6283, 17.27491
195.1104, 17.82297
195.5926, 18.16368
196.0747, 18.30816
196.5568, 17.66873
197.0389, 18.04156
197.5210, 18.00871
198.0031, 17.95924
198.4853, 18.47455
198.9674, 17.11156
199.4495, 16.60581
199.9316, 16.97202
200.4137, 17.74122
200.8958, 18.07178
201.3780, 17.92597
201.8601, 17.61449
202.3422, 17.13604
202.8243, 16.44223
203.3064, 16.30465
203.7885, 16.89098
204.2707, 17.85196
204.7528, 18.46260
205.2349, 18.62674
205.7170, 18.80556
206.1991, 19.17676
206.6812, 19.73210
207.1634, 20.56916
207.6455, 21.77090
208.1276, 23.16301
208.6097, 24.40395
209.0918, 25.48706
209.5739, 26.40351
210.0561, 27.14968
210.5382, 27.72855
211.0203, 28.07486
211.5024, 28.03992
211.9845, 27.88318
212.4666, 28.28508
212.9488, 29.50923
213.4309, 30.60370
213.9130, 31.06304
214.3951, 30.65561
214.8772, 30.45762
215.3593, 30.44539
215.8414, 30.66570
216.3236, 31.28574
216.8057, 32.46692
217.2878, 33.69176
217.7699, 34.70052
218.2520, 35.32719
218.7341, 36.25564
219.2163, 37.57274
219.6984, 39.14338
220.1805, 40.69202
220.6626, 42.18956
221.1447, 43.73083
221.6268, 45.34963
222.1090, 46.94062
222.5911, 48.91259
223.0732, 51.48575
223.5553, 54.33077
224.0374, 56.79475
224.5195, 58.82777
225.0017, 60.54364
225.4838, 62.08361
225.9659, 63.88808
226.4480, 64.30444
226.9301, 63.09640
227.4122, 60.61707
227.8944, 57.53677
228.3765, 53.52321
228.8586, 49.39893
229.3407, 45.40072
229.8228, 41.40117
230.3049, 37.90283
230.7871, 34.80193
231.2692, 32.28020
231.7513, 30.79038
232.2334, 30.98498
232.7155, 31.18393
233.1976, 30.67352
233.6798, 29.00336
234.1619, 28.07010
234.6440, 28.21907
235.1261, 28.92459
235.6082, 29.17947
236.0903, 28.68159
236.5725, 28.21797
237.0546, 28.06553
237.5367, 28.31605
238.0188, 28.55002
238.5009, 28.65850
238.9830, 28.81159
239.4652, 29.31938
239.9473, 30.37576
240.4294, 31.48554
240.9115, 32.51085
241.3936, 33.43637
241.8757, 34.31332
242.3579, 35.20257
242.8400, 36.00533
243.3221, 36.55146
243.8042, 36.71292
244.2863, 36.84562
244.7684, 37.12348
245.2506, 37.66724
245.7327, 37.73071
246.2148, 37.20338
246.6969, 36.28907
247.1790, 35.27472
247.6611, 34.28542
248.1433, 32.95833
248.6254, 31.05378
249.1075, 28.40127
249.5896, 26.29323
250.0717, 24.87625
250.5538, 23.85391
251.0360, 22.84344
251.5181, 21.74235
252.0002, 20.48071
252.4823, 20.46556
252.9644, 20.28534
253.4465, 19.95120
253.9287, 18.87537
254.4108, 18.85416
254.8929, 18.46958
255.3750, 18.11065
255.8571, 18.35879
256.3392, 17.60851
256.8214, 17.93225
257.3035, 17.88646
257.7856, 18.07146
258.2677, 17.89057
258.7498, 17.87804
259.2319, 18.31611
259.7141, 17.29302
260.1962, 17.66798
260.6783, 17.64632
261.1604, 17.82839
261.6425, 17.61751
262.1246, 17.54793
262.6068, 17.90189
263.0889, 18.04499
263.5710, 17.84804
264.0531, 18.13346
264.5352, 17.59948
265.0173, 17.81313
265.4995, 18.35803
265.9816, 18.25775
266.4637, 18.62679
266.9458, 18.83811
267.4279, 18.27872
267.9100, 18.77271
268.3922, 19.29972
268.8743, 19.72134
269.3564, 20.00948
269.8385, 20.27062
270.3206, 20.53757
270.8027, 20.76650
271.2849, 21.25090
271.7670, 22.17212
272.2491, 23.27434
272.7312, 23.74426
273.2133, 23.37646
273.6954, 23.03608
274.1776, 23.27387
274.6597, 24.19390
275.1418, 24.84221
275.6239, 25.06767
276.1060, 25.11393
276.5881, 25.50858
277.0703, 26.29880
277.5524, 27.20337
278.0345, 28.08700
278.5166, 28.95176
278.9987, 29.87136
279.4808, 30.91681
279.9630, 31.89268
280.4451, 32.35344
280.9272, 32.22131
281.4093, 32.26810
281.8914, 32.86591
282.3735, 33.98627
282.8557, 35.09509
283.3378, 36.19015
283.8199, 37.27920
284.3020, 38.36604
284.7841, 39.45007
285.2662, 40.54776
285.7484, 41.62156
286.2305, 42.69993
286.7126, 44.07388
287.1947, 45.80434
287.6768, 47.53056
288.1589, 48.77836
288.6411, 49.59228
289.1232, 50.44215
289.6053, 51.52362
290.0874, 52.70960
290.5695, 53.70028
291.0516, 54.50294
291.5338, 55.04559
292.0159, 55.24578
292.4980, 55.12636
292.9801, 54.82020
293.4622, 54.38877
293.9443, 53.75033
294.4265, 52.63906
294.9086, 51.07002
295.3907, 49.38646
295.8728, 47.75604
296.3549, 46.21645
296.8370, 44.91869
297.3192, 43.94409
297.8013, 43.13975
298.2834, 42.31987
298.7655, 41.49450
299.2476, 40.69507
299.7297, 39.99874
300.2119, 39.33921
300.6940, 38.57728
301.1761, 37.70592
301.6582, 36.71596
302.1403, 35.49665
302.6224, 34.12711
303.1046, 32.81321
303.5867, 31.67156
304.0688, 30.65600
304.5509, 29.74951
305.0330, 28.95097
305.5151, 28.18131
305.9973, 27.36938
306.4794, 26.53147
306.9615, 25.70396
307.4436, 24.92434
307.9257, 24.14346
308.4078, 23.20197
308.8900, 22.10520
309.3721, 21.22886
309.8542, 20.95236
310.3363, 21.02570
310.8184, 21.12082
311.3005, 21.27503
311.7827, 21.28506
312.2648, 20.94015
312.7469, 20.28301
313.2290, 19.60571
313.7111, 19.09750
314.1932, 18.64113
314.6754, 18.10378
315.1575, 17.25119
315.6396, 16.59449
316.1217, 16.54263
316.6038, 16.92122
317.0859, 17.19606
317.5681, 17.03840
318.0502, 16.76604
318.5323, 16.58537
319.0144, 16.56856
319.4965, 16.56252
319.9786, 16.57145
320.4608, 16.55212
320.9429, 16.42528
321.4250, 15.96953
321.9071, 15.56620
322.3892, 15.39489
322.8713, 15.52299
323.3535, 15.67688
323.8356, 15.89662
324.3177, 16.08199
324.7998, 16.11431
325.2819, 15.71111
325.7640, 15.41069
326.2462, 15.47326
326.7283, 15.95202
327.2104, 16.11279
327.6925, 15.51528
328.1746, 14.79524
328.6567, 14.44614
329.1389, 15.01793
329.6210, 15.32645
330.1031, 14.99448
330.5852, 14.15994
331.0673, 14.00106
331.5494, 15.28139
332.0316, 16.51104
332.5137, 16.83382
332.9958, 15.47928
333.4779, 14.60329
333.9600, 14.38298
334.4421, 14.65853
334.9243, 15.03873
335.4064, 15.69182
335.8885, 16.17104
336.3706, 16.27104
336.8527, 15.92174
337.3348, 15.43947
337.8170, 14.67582
338.2991, 13.93985
338.7812, 13.80924
339.2633, 14.52612
339.7454, 14.99531
340.2275, 14.72603
340.7096, 13.75885
341.1917, 13.42363
341.6739, 13.90789
342.1560, 14.52721
342.6381, 14.45081
343.1202, 13.62019
343.6023, 13.21168
344.0844, 13.65800
344.5666, 14.62683
345.0487, 14.92209
345.5308, 14.48371
346.0129, 14.02410
346.4950, 14.19907
346.9771, 14.88870
347.4593, 15.32812
347.9414, 15.39850
348.4235, 15.21727
348.9056, 14.90367
349.3877, 14.47546
349.8698, 14.07800
350.3520, 13.66074
350.8341, 13.34879
351.3162, 13.56405
351.7983, 14.40744
352.2804, 15.24991
352.7625, 15.24174
353.2447, 14.67342
353.7268, 14.29939
354.2089, 14.76558
354.6910, 15.43336
355.1731, 15.47694
355.6552, 14.91928
356.1374, 14.29770
356.6195, 13.93779
357.1016, 13.76314
357.5837, 13.66681
358.0658, 13.60064
358.5479, 13.62535
359.0301, 13.84697
359.5122, 14.21313
359.9943, 14.53752
360.4764, 14.77098
360.9585, 14.90005
361.4406, 14.87981
361.9228, 14.61512
362.4049, 14.43182
362.8870, 14.45652
363.3691, 14.64880
363.8512, 14.94137
364.3333, 15.65127
364.8155, 16.16388
365.2976, 16.10181
365.7797, 15.32491
366.2618, 14.80300
366.7439, 14.92796
367.2260, 15.29065
367.7082, 15.51453
368.1903, 15.34297
368.6724, 15.26186
369.1545, 15.43008
369.6366, 15.81842
370.1187, 16.01987
370.6009, 15.92041
371.0830, 15.73423
371.5651, 15.55386
372.0472, 15.25080
372.5293, 15.18686
373.0114, 15.47790
373.4936, 15.97662
373.9757, 16.33601
374.4578, 16.48432
374.9399, 16.62664
375.4220, 16.89684
375.9041, 17.36007
376.3863, 17.41968
376.8684, 16.93047
377.3505, 16.26948
377.8326, 15.89279
378.3147, 15.84244
378.7968, 15.83542
379.2790, 15.79550
379.7611, 15.74470
380.2432, 15.76921
380.7253, 15.86573
381.2074, 16.05714
381.6895, 16.41691
382.1717, 16.91710
382.6538, 17.34699
383.1359, 17.69625
383.6180, 17.93203
384.1001, 17.92125
384.5822, 17.70306
385.0644, 17.55978
385.5465, 17.73086
386.0286, 18.06864
386.5107, 18.24517
386.9928, 18.22319
387.4749, 18.26182
387.9571, 18.70823
388.4392, 19.38730
388.9213, 19.96173
389.4034, 20.18470
389.8855, 20.33258
390.3676, 20.61692
390.8498, 21.04049
391.3319, 21.60646
391.8140, 22.48691
392.2961, 23.42192
392.7782, 24.16149
393.2603, 24.53856
393.7425, 24.92202
394.2246, 25.53070
394.7067, 26.26423
395.1888, 26.93195
395.6709, 27.16697
396.1530, 27.56838
396.6352, 28.55857
397.1173, 30.32712
397.5994, 31.71525
398.0815, 32.09382
398.5636, 32.16097
399.0457, 32.57428
399.5279, 33.79900
400.0100, 34.91893
400.4921, 35.71317
400.9742, 36.24401
401.4563, 37.02835
401.9384, 38.25417
402.4206, 39.51765
402.9027, 40.59035
403.3848, 41.28396
403.8669, 42.24086
404.3490, 43.61084
404.8311, 45.14277
405.3133, 46.37524
405.7954, 47.27146
406.2775, 47.97176
406.7596, 48.42002
407.2417, 48.64286
407.7238, 49.37160
408.2060, 50.77496
408.6881, 52.11858
409.1702, 52.61727
409.6523, 52.29218
410.1344, 51.86498
410.6165, 51.46347
411.0987, 51.04814
411.5808, 50.59569
412.0629, 50.09377
412.5450, 49.40468
413.0271, 48.48779
413.5092, 47.31273
413.9914, 45.68979
414.4735, 43.52141
414.9556, 41.38261
415.4377, 39.94154
415.9198, 38.93333
416.4019, 37.78118
416.8841, 36.10586
417.3662, 34.28033
417.8483, 32.60710
418.3304, 31.07804
418.8125, 29.57681
419.2946, 28.00183
419.7768, 26.45985
420.2589, 25.03540
420.7410, 23.61286
421.2231, 22.53589
421.7052, 22.15088
422.1873, 22.17886
422.6695, 22.09731
423.1516, 21.74351
423.6337, 21.28491
424.1158, 20.73529
424.5979, 20.06735
425.0800, 19.51904
425.5622, 19.22096
426.0443, 18.99033
426.5264, 18.68412
427.0085, 18.22797
427.4906, 17.80860
427.9727, 17.42883
428.4549, 17.09952
428.9370, 16.86409
429.4191, 16.73374
429.9012, 16.67487
430.3833, 16.75108
430.8654, 17.03854
431.3476, 16.85220
431.8297, 16.02426
432.3118, 15.04406
432.7939, 14.55874
433.2760, 14.58303
433.7581, 14.73728
434.2403, 14.97212
434.7224, 15.23074
435.2045, 15.30405
435.6866, 15.19282
436.1687, 15.10994
436.6508, 15.30065
437.1330, 15.63820
437.6151, 15.78694
438.0972, 15.68857
438.5793, 15.46539
439.0614, 15.17023
439.5435, 14.84791
440.0256, 14.60170
440.5078, 14.52159
440.9899, 14.50824
441.4720, 14.55815
441.9541, 14.65127
442.4362, 14.55336
442.9183, 13.85259
443.4005, 13.05838
443.8826, 12.61890
444.3647, 12.82138
444.8468, 13.08158
445.3289, 13.19965
445.8110, 13.24600
446.2932, 13.36404
446.7753, 13.75967
447.2574, 14.06349
447.7395, 14.10710
448.2216, 13.82864
448.7037, 13.66128
449.1859, 13.68260
449.6680, 13.75431
450.1501, 13.77019
450.6322, 13.71744
451.1143, 13.63332
451.5964, 13.50653
452.0786, 13.35698
452.5607, 13.22764
453.0428, 13.09969
453.5249, 13.06079
454.0070, 13.19871
454.4891, 13.50496
454.9713, 13.71176
455.4534, 13.82137
455.9355, 13.81520
456.4176, 13.57285
456.8997, 13.15111
457.3818, 12.91334
457.8640, 13.02441
458.3461, 13.27599
458.8282, 13.32520
459.3103, 13.20646
459.7924, 13.09431
460.2745, 13.11480
460.7567, 13.19348
461.2388, 13.20796
461.7209, 13.13349
462.2030, 13.13906
462.6851, 13.51884
463.1672, 13.98990
463.6494, 14.19610
464.1315, 13.62303
464.6136, 13.15339
465.0957, 13.23831
465.5778, 13.75570
466.0599, 14.19316
466.5421, 14.41433
467.0242, 14.53229
467.5063, 14.59920
467.9884, 14.63959
468.4705, 14.57148
468.9526, 14.30706
469.4348, 13.98336
469.9169, 13.73154
470.3990, 13.50357
470.8811, 13.45865
471.3632, 13.73746
471.8453, 14.22988
472.3275, 14.26828
472.8096, 13.66120
473.2917, 13.18252
473.7738, 13.44577
474.2559, 14.44131
474.7380, 14.92338
475.2202, 14.78670
475.7023, 14.38298
476.1844, 14.04097
476.6665, 13.78606
477.1486, 13.78608
477.6307, 14.21502
478.1129, 14.80819
478.5950, 15.17612
479.0771, 15.33842
479.5592, 15.40324
480.0413, 15.33992
480.5234, 15.26809
481.0056, 15.32521
481.4877, 15.53801
481.9698, 15.81498
482.4519, 16.12596
482.9340, 16.46284
483.4161, 16.81709
483.8983, 17.27710
484.3804, 17.65564
484.8625, 17.85984
485.3446, 17.91717
485.8267, 17.98266
486.3088, 18.12469
486.7910, 18.23658
487.2731, 18.23240
487.7552, 17.97525
488.2373, 18.05091
488.7194, 18.68341
489.2015, 19.44677
489.6837, 19.87149
490.1658, 19.87653
490.6479, 19.77827
491.1300, 19.57028
491.6121, 19.32734
492.0942, 19.26917
492.5764, 19.39369
493.0585, 19.72394
493.5406, 20.50983
494.0227, 21.56150
494.5048, 21.91171
494.9869, 21.46079
495.4691, 20.90912
495.9512, 21.01941
496.4333, 21.58301
496.9154, 22.12967
497.3975, 22.60901
497.8796, 22.91178
498.3618, 22.85282
498.8439, 22.52597
499.3260, 22.19868
499.8081, 21.88484
500.2902, 21.70621
500.7723, 21.81770
501.2545, 22.26804
501.7366, 22.59243
502.2187, 22.55803
502.7008, 22.38977
503.1829, 22.26671
503.6650, 22.51624
504.1472, 22.42070
504.6293, 21.73663
505.1114, 20.72049
505.5935, 19.97061
506.0756, 19.57031
506.5577, 19.28589
507.0399, 19.07398
507.5220, 18.93295
508.0041, 18.73179
508.4862, 18.44771
508.9683, 18.17610
509.4504, 18.00613
509.9326, 17.93159
510.4147, 17.87726
510.8968, 17.84382
511.3789, 17.79952
511.8610, 17.65618
512.3431, 17.44950
512.8253, 17.32106
513.3074, 17.41767
513.7895, 17.57451
514.2716, 17.68911
514.7537, 17.73360
515.2358, 17.50378
515.7180, 16.44238
516.2001, 15.30539
516.6822, 14.81533
517.1643, 15.29995
517.6464, 15.75228
518.1285, 15.83292
518.6107, 15.68733
519.0928, 15.49057
519.5749, 15.11562
520.0570, 14.86841
520.5391, 14.86936
521.0212, 15.05698
521.5034, 15.11753
521.9855, 14.99529
522.4676, 14.83530
522.9497, 14.67195
523.4318, 14.48684
523.9139, 14.47777
524.3961, 14.68518
524.8782, 14.96494
525.3603, 15.25498
525.8424, 15.53616
526.3245, 15.45785
526.8066, 14.81438
527.2888, 14.02658
527.7709, 13.86618
528.2530, 14.20369
528.7351, 14.51007
529.2172, 14.44416
529.6993, 14.23595
530.1815, 14.10335
530.6636, 14.05585
531.1457, 13.69672
531.6278, 14.16275
532.1099, 14.42142
532.5920, 14.48388
533.0742, 13.76242
533.5563, 14.05322
534.0384, 13.93836
534.5205, 13.80686
535.0026, 14.24014
535.4847, 13.63270
535.9669, 14.05701
536.4490, 14.06947
536.9311, 14.27043
537.4132, 14.06322
537.8953, 13.98207
538.3774, 14.30923
538.8596, 14.41031
539.3417, 14.15610
539.8238, 14.36904
540.3059, 13.74735
540.7880, 13.85805
541.2701, 14.28476
541.7523, 14.05108
542.2344, 14.27148
542.7165, 14.26655
543.1986, 14.69209
543.6807, 14.92306
544.1628, 14.97822
544.6450, 14.92858
545.1271, 14.73053
545.6092, 14.49995
546.0913, 14.31397
546.5734, 14.17677
547.0555, 14.09226
547.5377, 14.00859
548.0198, 14.01401
548.5019, 14.20844
548.9840, 14.90199
549.4661, 15.20798
549.9482, 14.67658
550.4304, 13.89265
550.9125, 13.60957
551.3946, 14.14902
551.8767, 14.54197
552.3588, 14.58126
552.8409, 14.35299
553.3231, 14.12653
553.8052, 13.86667
554.2873, 13.80879
554.7694, 14.25417
555.2515, 15.06333
555.7336, 15.37224
556.2158, 15.14280
556.6979, 14.88010
557.1800, 15.23671
557.6621, 15.85719
558.1442, 16.03450
558.6263, 15.49866
559.1085, 14.79668
559.5906, 14.18155
560.0727, 13.72875
560.5548, 13.57497
561.0369, 14.01964
561.5190, 14.53247
562.0012, 14.95213
562.4833, 15.27243
562.9654, 15.48199
563.4475, 15.61296
563.9296, 15.59969
564.4117, 15.35379
564.8939, 14.75889
565.3760, 14.47059
565.8581, 14.56903
566.3402, 14.85689
566.8223, 15.22095
567.3044, 15.68883
567.7866, 15.86892
568.2687, 15.63212
568.7508, 15.22449
569.2329, 15.06983
569.7150, 15.13690
570.1971, 15.23557
570.6793, 15.33513
571.1614, 15.38545
571.6435, 15.25075
572.1256, 14.96846
572.6077, 14.76950
573.0898, 14.90710
573.5720, 15.10444
574.0541, 15.10937
574.5362, 14.83288
575.0183, 14.65545
575.5004, 14.70276
575.9825, 14.90117
576.4647, 15.19076
576.9468, 15.79746
577.4289, 16.16055
577.9110, 16.13428
578.3931, 15.89563
578.8752, 15.81897
579.3574, 15.94963
579.8395, 16.10181
580.3216, 16.22480
580.8037, 16.32302
581.2858, 16.39798
581.7679, 16.44746
582.2501, 16.52555
582.7322, 16.81477
583.2143, 17.13787
583.6964, 16.94896
584.1785, 16.15989
584.6606, 15.53974
585.1428, 15.97610
585.6249, 16.86236
586.1069, 17.40259
586.5891, 17.18773
587.0712, 16.92022
587.5533, 16.82801
588.0354, 16.89057
588.5175, 17.07053
588.9996, 17.63949
