##NAMES=Hematite
##RRUFFID=R110013
##IDEAL CHEMISTRY=Fe^3+^_2_O_3_
##LOCALITY=Itabira, Minas Gerais, Brazil
##OWNER=RRUFF
##SOURCE=University of Arizona Mineral Museum
##DESCRIPTION=A group of black lustrous euhedral crystals
##STATUS=The identification of this mineral is confirmed by single-crystal X-ray diffraction and chemical analysis.
##URL=rruff.info/R110013
##MEASURED CHEMISTRY=Fe_2_O_3_ ; (Pure phase as determined by WDS analysis)
144.1204, 208.3070
144.6025, 208.8650
145.0846, 211.3841
145.5667, 213.1344
146.0488, 213.8831
146.5310, 213.8742
147.0131, 213.1513
147.4952, 211.6022
147.9773, 209.9447
148.4594, 208.7734
148.9415, 208.0303
149.4237, 208.1632
149.9058, 209.8373
150.3879, 212.5571
150.8700, 214.9156
151.3521, 216.6005
151.8342, 217.9951
152.3164, 219.6688
152.7985, 221.5302
153.2806, 222.9290
153.7627, 223.5379
154.2448, 223.3676
154.7269, 222.0461
155.2091, 218.2445
155.6912, 214.1651
156.1733, 210.7885
156.6554, 208.2276
157.1375, 206.2062
157.6196, 204.3092
158.1018, 202.2806
158.5839, 201.2072
159.0660, 202.0608
159.5481, 203.1320
160.0302, 203.1505
160.5123, 201.8844
160.9945, 200.2310
161.4766, 199.8322
161.9587, 202.0887
162.4408, 203.5506
162.9229, 203.6475
163.4050, 203.2649
163.8871, 203.2374
164.3693, 203.8754
164.8514, 204.8656
165.3335, 205.4599
165.8156, 205.8521
166.2977, 205.5769
166.7798, 204.0279
167.2620, 201.8723
167.7441, 200.1625
168.2262, 199.4037
168.7083, 199.2478
169.1904, 198.6606
169.6725, 197.1256
170.1547, 196.1258
170.6368, 196.7632
171.1189, 198.5503
171.6010, 199.7732
172.0831, 199.4771
172.5652, 198.2584
173.0474, 197.4299
173.5295, 196.9904
174.0116, 196.9351
174.4937, 197.4314
174.9758, 198.4785
175.4579, 199.4329
175.9401, 199.9253
176.4222, 200.2218
176.9043, 200.6305
177.3864, 201.2660
177.8685, 201.8872
178.3506, 202.1554
178.8328, 201.9776
179.3149, 201.7752
179.7970, 201.2859
180.2791, 201.0152
180.7612, 201.6172
181.2433, 203.4531
181.7255, 205.7993
182.2076, 207.0405
182.6897, 206.4875
183.1718, 206.0343
183.6539, 206.1209
184.1360, 206.4743
184.6181, 206.6698
185.1003, 206.4586
185.5824, 206.2141
186.0645, 207.2853
186.5466, 210.9370
187.0287, 214.4900
187.5108, 218.1114
187.9930, 221.2881
188.4751, 223.3562
188.9572, 223.9111
189.4393, 223.1565
189.9214, 222.1645
190.4035, 220.5349
190.8857, 219.1177
191.3678, 218.0598
191.8499, 217.3296
192.3320, 216.8779
192.8141, 216.6997
193.2962, 216.7599
193.7784, 216.7885
194.2605, 216.8428
194.7426, 216.8169
195.2247, 216.3429
195.7068, 215.6955
196.1889, 215.6601
196.6711, 216.7870
197.1532, 218.9266
197.6353, 221.0457
198.1174, 223.2163
198.5995, 225.3125
199.0816, 227.4227
199.5638, 229.4918
200.0459, 231.0776
200.5280, 231.6514
201.0101, 231.6260
201.4922, 232.2006
201.9743, 233.4571
202.4565, 235.2874
202.9386, 237.7202
203.4207, 240.7710
203.9028, 244.0270
204.3849, 247.2762
204.8670, 250.6024
205.3492, 254.0879
205.8313, 257.7211
206.3134, 261.5563
206.7955, 265.6170
207.2776, 269.8905
207.7597, 274.4551
208.2419, 279.5135
208.7240, 284.8313
209.2061, 290.1006
209.6882, 295.0981
210.1703, 300.2679
210.6524, 306.4196
211.1346, 313.7074
211.6167, 321.5359
212.0988, 329.2474
212.5809, 337.4828
213.0630, 346.7643
213.5451, 357.1437
214.0273, 369.0702
214.5094, 383.5619
214.9915, 401.0707
215.4736, 420.7489
215.9557, 440.1524
216.4378, 462.0778
216.9200, 488.4364
217.4021, 519.7819
217.8842, 557.8231
218.3663, 606.1136
218.8484, 658.0607
219.3305, 733.1081
219.8127, 820.9414
220.2948, 935.3473
220.7769, 1083.439
221.2590, 1268.382
221.7411, 1501.171
222.2232, 1814.140
222.7054, 2219.360
223.1875, 2706.764
223.6696, 3353.814
224.1517, 4055.360
224.6338, 4741.865
225.1159, 5387.521
225.5980, 5910.974
226.0802, 6065.940
226.5623, 5634.162
227.0444, 5073.308
227.5265, 4294.212
228.0086, 3436.202
228.4907, 2673.128
228.9729, 2076.097
229.4550, 1622.993
229.9371, 1277.648
230.4192, 1074.267
230.9013, 914.4911
231.3834, 798.2279
231.8656, 714.7233
232.3477, 650.8065
232.8298, 602.7373
233.3119, 567.0472
233.7940, 537.4683
234.2761, 513.3044
234.7583, 494.6749
235.2404, 482.6261
235.7225, 476.0340
236.2046, 472.8222
236.6867, 472.2657
237.1688, 475.0482
237.6510, 482.2829
238.1331, 492.8377
238.6152, 509.2298
239.0973, 529.5826
239.5794, 556.5717
240.0615, 594.3127
240.5437, 642.1782
241.0258, 706.0568
241.5079, 795.2552
241.9900, 908.1438
242.4721, 1033.151
242.9542, 1181.633
243.4364, 1338.781
243.9185, 1473.137
244.4006, 1591.549
244.8827, 1657.882
245.3648, 1631.258
245.8469, 1521.768
246.3290, 1379.775
246.8112, 1207.368
247.2933, 1019.759
247.7754, 859.2073
248.2575, 732.7852
248.7396, 634.6113
249.2217, 561.4017
249.7039, 509.5607
250.1860, 469.6925
250.6681, 439.6322
251.1502, 418.1119
251.6323, 400.1659
252.1144, 386.2736
252.5966, 375.4122
253.0787, 367.4009
253.5608, 361.5235
254.0429, 356.0643
254.5250, 349.4476
255.0071, 342.4932
255.4893, 338.5692
255.9714, 339.1032
256.4535, 340.6162
256.9356, 341.7439
257.4177, 342.5850
257.8998, 343.2748
258.3820, 343.7911
258.8641, 344.2486
259.3462, 345.0076
259.8283, 345.8964
260.3104, 347.4533
260.7925, 349.9793
261.2747, 353.1197
261.7568, 356.3550
262.2389, 359.3874
262.7210, 362.4619
263.2031, 366.3801
263.6852, 371.5391
264.1674, 376.9423
264.6495, 382.1994
265.1316, 387.5759
265.6137, 393.2816
266.0958, 399.3903
266.5779, 405.9486
267.0601, 412.9581
267.5422, 419.8587
268.0243, 428.3751
268.5064, 438.8486
268.9885, 450.6734
269.4706, 463.3499
269.9528, 476.6956
270.4349, 490.6954
270.9170, 505.3076
271.3991, 520.2054
271.8812, 536.3278
272.3633, 552.7845
272.8455, 570.7799
273.3276, 591.3020
273.8097, 614.5664
274.2918, 639.7774
274.7739, 665.9088
275.2560, 693.5966
275.7382, 720.9256
276.2202, 745.9767
276.7024, 772.1743
277.1845, 800.8663
277.6666, 832.7875
278.1487, 868.8346
278.6308, 910.3180
279.1129, 957.9382
279.5951, 1008.722
280.0772, 1057.933
280.5593, 1113.621
281.0414, 1177.869
281.5235, 1252.127
282.0056, 1338.073
282.4878, 1436.084
282.9699, 1545.194
283.4520, 1680.617
283.9341, 1831.604
284.4162, 2014.637
284.8983, 2225.592
285.3805, 2473.234
285.8626, 2771.470
286.3447, 3127.555
286.8268, 3540.772
287.3089, 4072.489
287.7910, 4698.948
288.2732, 5453.754
288.7553, 6370.675
289.2374, 7421.706
289.7195, 8583.252
290.2016, 9860.799
290.6837, 11195.41
291.1659, 12279.14
291.6480, 13270.03
292.1301, 13821.48
292.6122, 13784.85
293.0943, 13293.29
293.5764, 12460.23
294.0586, 11322.66
294.5407, 10013.89
295.0228, 8890.034
295.5049, 7969.374
295.9870, 7231.274
296.4691, 6743.993
296.9513, 6409.962
297.4334, 6156.409
297.9155, 5956.117
298.3976, 5765.086
298.8797, 5510.703
299.3618, 5166.436
299.8440, 4796.070
300.3261, 4373.246
300.8082, 3944.169
301.2903, 3532.729
301.7724, 3149.041
302.2545, 2800.269
302.7367, 2493.371
303.2188, 2235.328
303.7009, 2009.785
304.1830, 1819.802
304.6651, 1654.995
305.1472, 1512.187
305.6294, 1389.266
306.1115, 1282.118
306.5936, 1188.229
307.0757, 1107.867
307.5578, 1034.968
308.0399, 969.7682
308.5221, 910.0815
309.0042, 855.6578
309.4863, 806.0410
309.9684, 761.4214
310.4505, 722.3015
310.9326, 688.1146
311.4148, 656.4278
311.8969, 626.3818
312.3790, 599.1748
312.8611, 575.8808
313.3432, 555.5315
313.8253, 536.4495
314.3075, 517.9748
314.7896, 500.3022
315.2717, 483.8899
315.7538, 469.6828
316.2359, 455.3179
316.7180, 439.2799
317.2001, 423.5773
317.6823, 410.7147
318.1644, 401.3153
318.6465, 393.8096
319.1286, 385.8875
319.6107, 377.4434
320.0928, 368.8551
320.5750, 359.2142
321.0571, 350.0116
321.5392, 342.6220
322.0213, 337.0851
322.5034, 332.1134
322.9855, 326.4474
323.4677, 319.8537
323.9498, 314.0438
324.4319, 309.2409
324.9140, 304.8601
325.3961, 300.7679
325.8782, 296.8654
326.3604, 292.8869
326.8425, 288.6021
327.3246, 284.0839
327.8067, 280.0760
328.2888, 276.7633
328.7709, 273.6692
329.2531, 270.6950
329.7352, 267.8719
330.2173, 265.3126
330.6994, 263.0843
331.1815, 261.0468
331.6636, 258.7982
332.1458, 256.1224
332.6279, 253.4960
333.1100, 250.7470
333.5921, 248.1594
334.0742, 246.0504
334.5563, 244.5092
335.0385, 243.2842
335.5206, 242.0040
336.0027, 240.4625
336.4848, 239.4487
336.9669, 239.2632
337.4490, 239.2959
337.9312, 239.1370
338.4133, 238.7797
338.8954, 238.5241
339.3775, 238.7314
339.8596, 239.5099
340.3417, 239.3555
340.8239, 237.3690
341.3060, 235.5164
341.7881, 234.5111
342.2702, 234.1692
342.7523, 234.0728
343.2344, 233.9918
343.7166, 233.8801
344.1987, 233.5129
344.6808, 232.3455
345.1629, 231.5458
345.6450, 231.0925
346.1271, 231.1174
346.6093, 232.0246
347.0914, 233.9018
347.5735, 236.0476
348.0556, 237.0424
348.5377, 235.9639
349.0198, 235.3765
349.5020, 235.4212
349.9841, 235.7802
350.4662, 236.3963
350.9483, 237.1692
351.4304, 237.8370
351.9125, 238.0487
352.3947, 237.6731
352.8768, 237.7240
353.3589, 238.5178
353.8410, 239.4168
354.3231, 240.3151
354.8052, 241.1423
355.2874, 241.7607
355.7695, 242.0088
356.2516, 242.0331
356.7337, 242.7260
357.2158, 244.8572
357.6979, 246.6214
358.1800, 247.3786
358.6621, 247.7617
359.1443, 248.4252
359.6264, 249.6258
360.1085, 251.2244
360.5906, 252.9870
361.0727, 254.8938
361.5548, 257.0393
362.0370, 259.5788
362.5191, 262.2264
363.0012, 264.8240
363.4833, 267.3667
363.9654, 269.8826
364.4475, 272.4591
364.9297, 275.1143
365.4118, 277.4969
365.8939, 279.1906
366.3760, 281.0676
366.8581, 283.3622
367.3402, 286.0868
367.8224, 289.2802
368.3045, 293.0858
368.7866, 297.2484
369.2687, 300.9743
369.7508, 303.9992
370.2329, 307.1571
370.7151, 311.3023
371.1972, 315.4497
371.6793, 318.4068
372.1614, 319.6714
372.6435, 320.7366
373.1256, 323.5595
373.6078, 328.2607
374.0899, 332.8598
374.5720, 336.4726
375.0541, 340.3306
375.5362, 345.6694
376.0183, 352.3481
376.5005, 358.6913
376.9826, 363.4327
377.4647, 366.9463
377.9468, 370.4704
378.4289, 373.7233
378.9110, 377.7901
379.3932, 383.7509
379.8753, 390.9748
380.3574, 398.3861
380.8395, 405.6068
381.3216, 412.9215
381.8037, 420.7374
382.2859, 429.0811
382.7680, 437.3274
383.2501, 445.1113
383.7322, 452.7009
384.2143, 460.5517
384.6964, 468.6180
385.1786, 477.0012
385.6607, 485.3820
386.1428, 494.0450
386.6249, 503.9458
387.1070, 515.4478
387.5891, 527.7213
388.0713, 539.8459
388.5534, 551.8376
389.0355, 564.5426
389.5176, 577.8719
389.9997, 592.1594
390.4818, 607.5941
390.9640, 624.2742
391.4461, 642.3196
391.9282, 661.6466
392.4103, 682.5702
392.8924, 706.0234
393.3745, 732.1298
393.8567, 760.3805
394.3388, 789.8876
394.8209, 821.4506
395.3030, 856.1813
395.7851, 894.8355
396.2672, 936.8478
396.7494, 981.5027
397.2315, 1027.014
397.7136, 1079.933
398.1957, 1141.151
398.6778, 1209.952
399.1599, 1285.759
399.6420, 1368.588
400.1241, 1458.380
400.6063, 1553.873
401.0884, 1655.074
401.5705, 1776.135
402.0526, 1916.201
402.5347, 2073.748
403.0168, 2245.260
403.4990, 2434.927
403.9811, 2647.641
404.4632, 2884.800
404.9453, 3147.260
405.4274, 3437.457
405.9095, 3761.719
406.3917, 4103.308
406.8738, 4471.024
407.3559, 4845.475
407.8380, 5229.195
408.3201, 5612.983
408.8022, 5969.874
409.2844, 6284.189
409.7665, 6557.029
410.2486, 6743.094
410.7307, 6838.861
411.2128, 6839.216
411.6949, 6727.894
412.1771, 6524.151
412.6592, 6250.896
413.1413, 5913.947
413.6234, 5532.246
414.1055, 5141.213
414.5876, 4731.429
415.0698, 4335.534
415.5519, 3954.066
416.0340, 3595.785
416.5161, 3269.128
416.9982, 2973.270
417.4803, 2706.680
417.9625, 2467.515
418.4446, 2255.857
418.9267, 2066.059
419.4088, 1901.004
419.8909, 1754.834
420.3730, 1627.816
420.8552, 1515.880
421.3373, 1413.599
421.8194, 1320.281
422.3015, 1234.671
422.7836, 1155.447
423.2657, 1082.779
423.7479, 1017.149
424.2300, 959.5109
424.7121, 909.0613
425.1942, 863.0692
425.6763, 821.6705
426.1584, 784.1310
426.6406, 751.3112
427.1227, 721.7591
427.6048, 693.1235
428.0869, 664.7444
428.5690, 638.1387
429.0511, 614.8544
429.5333, 595.0873
430.0154, 576.8278
430.4975, 560.6591
430.9796, 545.4077
431.4617, 530.4620
431.9438, 515.9742
432.4260, 502.2947
432.9081, 489.6791
433.3902, 477.9441
433.8723, 466.7331
434.3544, 456.2304
434.8365, 446.0270
435.3187, 435.9541
435.8008, 426.2699
436.2829, 417.2250
436.7650, 408.8495
437.2471, 401.0557
437.7292, 393.7761
438.2114, 386.9825
438.6935, 380.7641
439.1756, 375.3871
439.6577, 370.2909
440.1398, 365.4979
440.6219, 360.8832
441.1040, 356.4080
441.5862, 352.0718
442.0683, 347.6814
442.5504, 342.7467
443.0325, 336.7401
443.5146, 331.7839
443.9967, 328.6440
444.4789, 326.1283
444.9610, 324.0683
445.4431, 322.2050
445.9252, 319.8377
446.4073, 315.9936
446.8894, 311.3347
447.3716, 308.6855
447.8537, 308.9328
448.3358, 308.9772
448.8179, 306.9464
449.3000, 304.2052
449.7821, 302.2235
450.2643, 301.3873
450.7464, 300.9043
451.2285, 300.2644
451.7106, 299.4397
452.1927, 298.1385
452.6748, 295.9432
453.1570, 294.0159
453.6391, 294.0160
454.1212, 295.4940
454.6033, 296.4181
455.0854, 296.2215
455.5675, 295.3482
456.0497, 293.6785
456.5318, 291.4751
457.0139, 290.2112
457.4960, 290.8501
457.9781, 292.6531
458.4602, 293.6505
458.9424, 293.8120
459.4245, 293.4326
459.9066, 292.0363
460.3887, 290.4163
460.8708, 289.2855
461.3529, 288.7890
461.8351, 288.9138
462.3172, 289.8151
462.7993, 291.5486
463.2814, 292.0844
463.7635, 289.9829
464.2456, 288.4203
464.7278, 288.0994
465.2099, 288.8214
465.6920, 290.4289
466.1741, 292.8365
466.6562, 295.5720
467.1383, 297.7474
467.6205, 299.0051
468.1026, 300.8814
468.5847, 304.0700
469.0668, 307.3170
469.5489, 309.8389
470.0310, 311.9255
470.5132, 314.4013
470.9953, 317.7858
471.4774, 321.8885
471.9595, 326.3158
472.4416, 331.1694
472.9237, 335.9374
473.4059, 339.7638
473.8880, 343.8428
474.3701, 349.5349
474.8522, 357.0084
475.3343, 364.5881
475.8164, 370.8283
476.2986, 376.3623
476.7807, 382.7463
477.2628, 390.0959
477.7449, 398.4420
478.2270, 408.0287
478.7091, 418.7285
479.1913, 429.6676
479.6734, 440.6306
480.1555, 451.9927
480.6376, 463.4832
481.1197, 475.5562
481.6018, 489.4252
482.0839, 505.5448
482.5660, 522.7703
483.0482, 539.5700
483.5303, 555.5039
484.0124, 572.6076
484.4945, 591.0681
484.9766, 610.3873
485.4587, 630.0813
485.9409, 650.5092
486.4230, 672.3815
486.9051, 696.1693
487.3872, 721.8274
487.8693, 749.1875
488.3514, 780.2787
488.8336, 809.6551
489.3157, 835.1886
489.7978, 860.4776
490.2799, 887.5831
490.7620, 916.6937
491.2441, 946.9600
491.7263, 977.7661
492.2084, 1009.069
492.6905, 1041.177
493.1726, 1075.445
493.6547, 1107.076
494.1368, 1134.081
494.6190, 1157.222
495.1011, 1177.337
495.5832, 1194.778
496.0653, 1207.396
496.5474, 1213.593
497.0295, 1213.581
497.5117, 1207.672
497.9938, 1195.651
498.4759, 1178.741
498.9580, 1157.669
499.4401, 1132.048
499.9222, 1101.385
500.4044, 1062.558
500.8865, 1021.806
501.3686, 981.3821
501.8507, 941.2914
502.3328, 900.7773
502.8149, 859.6936
503.2971, 818.5477
503.7792, 778.0626
504.2613, 737.6135
504.7434, 699.2060
505.2255, 662.8488
505.7076, 628.3012
506.1898, 594.9244
506.6719, 563.2694
507.1540, 534.9156
507.6361, 510.7183
508.1182, 489.5547
508.6003, 469.1209
509.0825, 449.4268
509.5646, 430.3744
510.0467, 411.3275
510.5288, 393.5103
511.0109, 377.5254
511.4930, 363.3390
511.9752, 350.6526
512.4573, 339.5878
512.9394, 329.6942
513.4215, 319.6915
513.9036, 309.3171
514.3857, 300.3144
514.8679, 293.9719
515.3500, 288.8936
515.8321, 283.1812
516.3142, 276.6909
516.7963, 270.5704
517.2784, 265.3691
517.7606, 260.7754
518.2427, 256.4321
518.7248, 252.2890
519.2069, 248.1438
519.6890, 243.7243
520.1711, 239.2308
520.6533, 235.8583
521.1354, 234.3992
521.6175, 232.7884
522.0996, 230.5547
522.5817, 228.0971
523.0638, 225.8436
523.5460, 223.8568
524.0281, 221.8290
524.5102, 219.3415
524.9923, 216.4460
525.4744, 214.8740
525.9565, 215.7001
526.4387, 216.5293
526.9208, 217.0792
527.4029, 217.2878
527.8850, 216.9087
528.3671, 215.9301
528.8492, 215.0621
529.3314, 215.1507
529.8135, 216.0965
530.2956, 217.0755
530.7777, 218.4446
531.2598, 219.0006
531.7419, 217.2283
532.2241, 214.3125
532.7062, 212.0150
533.1883, 210.4688
533.6704, 209.9778
534.1525, 211.5164
534.6346, 214.1876
535.1168, 215.8382
535.5989, 215.9445
536.0810, 215.3591
536.5631, 214.7472
537.0452, 214.1019
537.5273, 214.2558
538.0095, 215.7294
538.4916, 217.3424
538.9737, 218.6687
539.4558, 219.8619
539.9379, 221.1742
540.4200, 222.6868
540.9022, 224.3463
541.3843, 226.1950
541.8664, 228.4346
542.3485, 229.7076
542.8306, 228.5772
543.3127, 228.0253
543.7948, 229.4646
544.2769, 231.9402
544.7590, 233.8945
545.2411, 234.7001
545.7233, 235.2900
546.2054, 236.9846
546.6875, 239.6885
547.1696, 241.8140
547.6517, 242.8535
548.1339, 243.7773
548.6160, 245.5266
549.0981, 247.8209
549.5802, 249.9079
550.0623, 251.1751
550.5444, 252.6894
551.0266, 255.3654
551.5087, 258.7943
551.9908, 262.0820
552.4729, 264.9617
552.9550, 267.5868
553.4371, 270.0968
553.9193, 272.4389
554.4014, 275.0693
554.8835, 278.5590
555.3656, 281.6674
555.8477, 283.9368
556.3298, 285.5627
556.8120, 286.7076
557.2941, 287.4670
557.7762, 288.1553
558.2583, 289.2570
558.7404, 290.8202
559.2225, 292.3394
559.7047, 293.7453
560.1868, 295.1632
560.6689, 297.0272
561.1510, 298.8548
561.6331, 299.7373
562.1152, 299.1510
562.5974, 298.2558
563.0795, 298.0643
563.5616, 298.4477
564.0437, 298.9213
564.5258, 299.3675
565.0079, 300.0067
565.4901, 301.0571
565.9722, 302.5273
566.4543, 304.1257
566.9364, 305.8222
567.4185, 307.6799
567.9006, 309.7437
568.3828, 311.9756
568.8649, 314.4122
569.3470, 317.0190
569.8291, 319.5727
570.3112, 321.6439
570.7933, 323.1497
571.2755, 325.8712
571.7576, 331.2604
572.2397, 336.0697
572.7218, 339.2893
573.2039, 341.6754
573.6860, 344.1061
574.1682, 346.8071
574.6503, 349.3486
575.1324, 351.1627
575.6145, 352.4413
576.0966, 354.0448
576.5787, 356.0515
577.0609, 358.2774
577.5430, 360.6947
578.0251, 363.2155
578.5072, 365.5450
578.9893, 367.3666
579.4714, 369.6989
579.9536, 373.1945
580.4357, 377.2740
580.9178, 381.4421
581.3999, 385.5337
581.8820, 389.2368
582.3641, 392.2269
582.8463, 394.6972
583.3284, 397.8014
583.8105, 401.9805
584.2926, 406.2131
584.7747, 409.8446
585.2568, 413.9479
585.7390, 419.3951
586.2211, 426.1624
586.7032, 433.6591
587.1853, 441.5649
587.6674, 449.8304
588.1495, 458.1999
588.6317, 466.6552
589.1138, 475.3874
589.5959, 484.2453
590.0780, 493.7081
590.5601, 503.8469
591.0422, 514.6671
591.5244, 527.2543
592.0065, 542.1990
592.4886, 558.8093
592.9707, 576.5699
593.4528, 595.3104
593.9349, 614.7344
594.4171, 634.6209
594.8992, 655.2064
595.3813, 676.8714
595.8634, 699.0421
596.3455, 724.3113
596.8276, 752.3826
597.3098, 783.3318
597.7919, 817.2049
598.2740, 854.0856
598.7561, 893.8608
599.2382, 936.5067
599.7203, 983.0807
600.2025, 1034.836
600.6846, 1091.983
601.1667, 1155.591
601.6488, 1226.476
602.1309, 1301.911
602.6130, 1377.375
603.0952, 1456.477
603.5773, 1545.603
604.0594, 1646.001
604.5415, 1756.405
605.0236, 1878.925
605.5057, 2010.660
605.9879, 2146.833
606.4700, 2286.387
606.9521, 2431.649
607.4342, 2585.003
607.9163, 2744.458
608.3984, 2897.766
608.8806, 3051.046
609.3627, 3187.674
609.8448, 3312.026
610.3269, 3415.463
610.8090, 3495.452
611.2911, 3548.935
611.7733, 3568.232
612.2554, 3545.714
612.7375, 3487.447
613.2196, 3405.825
613.7017, 3299.949
614.1838, 3173.336
614.6660, 3019.871
615.1481, 2853.668
615.6302, 2687.368
616.1123, 2520.826
616.5944, 2358.086
617.0765, 2197.034
617.5587, 2042.982
618.0408, 1898.037
618.5229, 1763.211
619.0050, 1640.156
619.4871, 1529.389
619.9692, 1428.855
620.4514, 1336.223
620.9335, 1251.325
621.4156, 1172.893
621.8977, 1102.384
622.3798, 1037.047
622.8619, 976.4533
623.3441, 920.6951
623.8262, 870.9876
624.3083, 827.6992
624.7904, 787.8356
625.2725, 748.8635
625.7546, 711.5831
626.2367, 678.8287
626.7188, 650.8961
627.2009, 625.1337
627.6830, 600.1270
628.1652, 576.3074
628.6473, 554.5450
629.1294, 535.0776
629.6115, 516.5712
630.0936, 498.5014
630.5757, 481.5371
631.0579, 466.2606
631.5400, 452.4292
632.0221, 439.3233
632.5042, 426.6461
632.9863, 414.3896
633.4684, 402.5479
633.9506, 390.9953
634.4327, 380.2184
634.9148, 370.2401
635.3969, 361.1758
635.8790, 353.3784
636.3611, 346.3678
636.8433, 339.3398
637.3254, 332.1495
637.8075, 324.8320
638.2896, 316.9207
638.7717, 309.0958
639.2538, 302.9463
639.7360, 298.6537
