##NAMES=Hemimorphite
##RRUFFID=R040117
##IDEAL CHEMISTRY=Zn^2+^_4_Si_2_O_7_(OH)_2_&#183;H_2_O
##LOCALITY=Durango, Mexico
##OWNER=RRUFF
##SOURCE=University of Arizona Mineral Museum
##DESCRIPTION=Colorless thin tabular crystals in a sheaflike aggregate
##STATUS=The identification of this mineral has been confirmed by X-ray diffraction and chemical analysis
##URL=rruff.info/R040117
##MEASURED CHEMISTRY=Zn_4.05_Si_1.97_O_7_((OH)_0.99_F_0.01_)_2_Â·H_2_O
118.8063, 472.0020
119.2885, 512.5045
119.7706, 559.4784
120.2527, 611.1501
120.7348, 669.5375
121.2169, 738.6379
121.6990, 819.8752
122.1812, 912.3159
122.6633, 1014.569
123.1454, 1126.153
123.6275, 1248.403
124.1096, 1381.615
124.5917, 1526.217
125.0739, 1683.956
125.5560, 1857.116
126.0381, 2043.483
126.5202, 2243.561
127.0023, 2461.294
127.4844, 2688.319
127.9666, 2907.939
128.4487, 3120.349
128.9308, 3342.038
129.4129, 3597.997
129.8950, 3881.298
130.3772, 4142.680
130.8593, 4364.904
131.3414, 4555.875
131.8235, 4751.739
132.3056, 4957.063
132.7877, 5139.405
133.2699, 5254.946
133.7520, 5302.431
134.2341, 5315.948
134.7162, 5310.741
135.1983, 5286.977
135.6804, 5223.892
136.1626, 5118.592
136.6447, 4979.096
137.1268, 4813.864
137.6089, 4617.715
138.0910, 4418.316
138.5731, 4232.466
139.0553, 4058.308
139.5374, 3896.708
140.0195, 3752.021
140.5016, 3619.607
140.9837, 3485.724
141.4658, 3342.716
141.9480, 3208.219
142.4301, 3095.386
142.9122, 3008.514
143.3943, 2934.668
143.8764, 2872.913
144.3585, 2823.653
144.8407, 2782.149
145.3228, 2751.879
145.8049, 2727.021
146.2870, 2702.001
146.7691, 2669.653
147.2512, 2646.854
147.7334, 2637.209
148.2155, 2641.903
148.6976, 2654.282
149.1797, 2676.764
149.6618, 2706.336
150.1439, 2738.726
150.6261, 2779.478
151.1082, 2817.700
151.5903, 2848.122
152.0724, 2861.339
152.5545, 2887.595
153.0366, 2938.072
153.5188, 3002.617
154.0009, 3061.027
154.4830, 3102.717
154.9651, 3144.020
155.4472, 3193.215
155.9293, 3259.865
156.4115, 3321.587
156.8936, 3368.426
157.3757, 3405.610
157.8578, 3451.923
158.3399, 3514.427
158.8221, 3586.758
159.3042, 3665.411
159.7863, 3760.025
160.2684, 3850.532
160.7505, 3921.834
161.2326, 3978.377
161.7148, 4049.603
162.1969, 4158.045
162.6790, 4283.828
163.1611, 4406.317
163.6432, 4518.156
164.1253, 4626.676
164.6075, 4735.335
165.0896, 4844.241
165.5717, 4952.571
166.0538, 5070.681
166.5359, 5186.054
167.0180, 5281.267
167.5002, 5353.667
167.9823, 5401.386
168.4644, 5425.307
168.9465, 5426.698
169.4286, 5395.893
169.9107, 5324.458
170.3929, 5215.774
170.8750, 5074.903
171.3571, 4896.665
171.8392, 4692.462
172.3213, 4470.020
172.8034, 4228.020
173.2856, 3982.894
173.7677, 3742.703
174.2498, 3509.542
174.7319, 3294.866
175.2140, 3111.298
175.6961, 2948.786
176.1783, 2792.423
176.6604, 2639.713
177.1425, 2495.353
177.6246, 2366.480
178.1067, 2253.266
178.5888, 2148.162
179.0710, 2045.197
179.5531, 1947.953
180.0352, 1867.406
180.5173, 1811.358
180.9994, 1768.789
181.4815, 1724.333
181.9637, 1677.695
182.4458, 1631.960
182.9279, 1586.231
183.4100, 1542.375
183.8921, 1506.683
184.3742, 1482.090
184.8564, 1466.225
185.3385, 1454.217
185.8206, 1445.853
186.3027, 1442.669
186.7848, 1447.688
187.2669, 1460.149
187.7491, 1474.207
188.2312, 1486.425
188.7133, 1498.516
189.1954, 1518.823
189.6775, 1548.586
190.1596, 1580.476
190.6418, 1605.227
191.1239, 1622.916
191.6060, 1641.234
192.0881, 1667.509
192.5702, 1699.528
193.0524, 1716.719
193.5345, 1717.193
194.0166, 1707.755
194.4987, 1698.899
194.9808, 1690.993
195.4629, 1678.013
195.9451, 1654.704
196.4272, 1621.052
196.9093, 1591.962
197.3914, 1568.046
197.8735, 1548.456
198.3556, 1532.175
198.8378, 1519.534
199.3199, 1508.401
199.8020, 1497.083
200.2841, 1485.403
200.7662, 1477.776
201.2483, 1474.950
201.7305, 1475.865
202.2126, 1478.443
202.6947, 1483.077
203.1768, 1487.902
203.6589, 1490.846
204.1410, 1491.036
204.6232, 1495.493
205.1053, 1505.431
205.5874, 1519.772
206.0695, 1535.038
206.5516, 1551.133
207.0337, 1568.408
207.5159, 1585.998
207.9980, 1602.068
208.4801, 1626.162
208.9622, 1662.010
209.4443, 1706.713
209.9264, 1747.380
210.4086, 1785.917
210.8907, 1816.677
211.3728, 1832.946
211.8549, 1830.235
212.3370, 1828.933
212.8191, 1832.729
213.3013, 1840.751
213.7834, 1846.920
214.2655, 1853.589
214.7476, 1854.588
215.2297, 1843.579
215.7118, 1816.789
216.1940, 1788.102
216.6761, 1760.315
217.1582, 1733.137
217.6403, 1700.773
218.1224, 1657.950
218.6045, 1617.466
219.0867, 1594.414
219.5688, 1599.769
220.0509, 1596.733
220.5330, 1575.759
221.0151, 1536.126
221.4972, 1499.862
221.9794, 1464.975
222.4615, 1435.309
222.9436, 1416.034
223.4257, 1413.585
223.9078, 1408.015
224.3899, 1393.833
224.8721, 1369.940
225.3542, 1349.734
225.8363, 1335.044
226.3184, 1322.141
226.8005, 1305.755
227.2827, 1282.694
227.7648, 1262.555
228.2469, 1248.711
228.7290, 1242.380
229.2111, 1232.885
229.6932, 1217.758
230.1754, 1201.578
230.6575, 1190.656
231.1396, 1188.573
231.6217, 1185.505
232.1038, 1178.146
232.5859, 1165.175
233.0681, 1155.238
233.5502, 1150.040
234.0323, 1146.682
234.5144, 1140.214
234.9965, 1126.526
235.4786, 1116.944
235.9608, 1117.119
236.4429, 1131.335
236.9250, 1134.897
237.4071, 1123.012
237.8892, 1103.388
238.3713, 1087.701
238.8535, 1075.707
239.3356, 1068.143
239.8177, 1066.347
240.2998, 1072.651
240.7819, 1075.841
241.2640, 1075.850
241.7462, 1072.840
242.2283, 1066.186
242.7104, 1051.291
243.1925, 1040.433
243.6746, 1039.720
244.1567, 1055.184
244.6389, 1059.402
245.1210, 1047.231
245.6031, 1026.925
246.0852, 1012.870
246.5673, 1006.553
247.0494, 1004.044
247.5316, 1005.369
248.0137, 1013.649
248.4958, 1014.575
248.9779, 1004.307
249.4600, 988.8287
249.9421, 979.6742
250.4243, 979.4893
250.9064, 980.7654
251.3885, 980.8799
251.8706, 979.4553
252.3527, 977.9551
252.8348, 975.7217
253.3170, 973.8139
253.7991, 974.9326
254.2812, 981.7217
254.7633, 986.4115
255.2454, 984.8739
255.7275, 973.9251
256.2097, 969.0931
256.6918, 973.1138
257.1739, 981.4219
257.6560, 985.0988
258.1381, 981.3846
258.6202, 978.7277
259.1024, 980.1243
259.5845, 985.8217
260.0666, 994.9125
260.5487, 1009.231
261.0308, 1025.532
261.5129, 1038.343
261.9951, 1046.598
262.4772, 1053.609
262.9593, 1059.693
263.4414, 1063.812
263.9235, 1072.869
264.4056, 1089.376
264.8878, 1108.595
265.3699, 1122.337
265.8520, 1129.352
266.3341, 1134.747
266.8162, 1139.378
267.2983, 1142.243
267.7805, 1151.068
268.2626, 1167.606
268.7447, 1188.101
269.2268, 1207.364
269.7089, 1226.533
270.1910, 1240.292
270.6732, 1244.952
271.1553, 1239.229
271.6374, 1236.637
272.1195, 1237.489
272.6016, 1241.020
273.0837, 1247.452
273.5659, 1258.139
274.0480, 1265.045
274.5301, 1265.085
275.0122, 1258.131
275.4943, 1246.147
275.9764, 1227.532
276.4586, 1206.899
276.9407, 1191.911
277.4228, 1183.546
277.9049, 1173.923
278.3870, 1158.763
278.8691, 1138.478
279.3513, 1124.082
279.8334, 1117.765
280.3155, 1111.702
280.7976, 1092.345
281.2798, 1059.108
281.7619, 1030.257
282.2440, 1014.257
282.7261, 1009.391
283.2082, 1002.715
283.6903, 993.9450
284.1725, 984.4026
284.6546, 976.8467
285.1367, 971.1426
285.6188, 961.7574
286.1009, 943.8892
286.5830, 920.4873
287.0652, 905.2537
287.5473, 899.2600
288.0294, 895.8532
288.5115, 887.7726
288.9936, 875.4900
289.4757, 863.2128
289.9579, 851.3436
290.4400, 840.6729
290.9221, 834.2575
291.4042, 832.4514
291.8863, 830.4833
292.3684, 821.9617
292.8506, 808.6184
293.3327, 798.0250
293.8148, 794.3574
294.2969, 793.8054
294.7790, 787.7972
295.2611, 776.2929
295.7433, 765.2984
296.2254, 761.9493
296.7075, 763.3638
297.1896, 761.2973
297.6717, 750.8868
298.1538, 737.8741
298.6360, 731.1277
299.1181, 730.2552
299.6002, 731.3380
300.0823, 731.9619
300.5644, 732.3325
301.0465, 732.8111
301.5287, 733.3527
302.0108, 734.2134
302.4929, 737.0051
302.9750, 741.0798
303.4571, 742.5722
303.9392, 736.0763
304.4214, 726.2883
304.9035, 719.5061
305.3856, 718.1797
305.8677, 718.9540
306.3498, 719.0424
306.8319, 718.8249
307.3141, 719.6650
307.7962, 724.1110
308.2783, 729.1803
308.7604, 731.4192
309.2425, 728.3322
309.7246, 726.2055
310.2068, 729.2529
310.6889, 736.4359
311.1710, 745.0463
311.6531, 752.9354
312.1352, 762.2747
312.6173, 774.7609
313.0995, 790.9617
313.5816, 809.0105
314.0637, 830.4491
314.5458, 853.0771
315.0279, 872.9362
315.5100, 881.4709
315.9922, 892.1410
316.4743, 912.8834
316.9564, 946.4376
317.4385, 982.4885
317.9206, 1019.785
318.4027, 1057.058
318.8849, 1092.533
319.3670, 1113.772
319.8491, 1143.651
320.3312, 1193.058
320.8133, 1265.983
321.2954, 1340.052
321.7776, 1407.930
322.2597, 1476.446
322.7418, 1552.875
323.2239, 1641.155
323.7060, 1734.555
324.1881, 1829.892
324.6703, 1926.381
325.1524, 2034.456
325.6345, 2161.772
326.1166, 2296.083
326.5987, 2428.838
327.0808, 2568.959
327.5630, 2697.022
328.0451, 2816.302
328.5272, 2925.804
329.0093, 3004.999
329.4914, 3059.817
329.9735, 3077.596
330.4557, 3047.533
330.9378, 2949.020
331.4199, 2837.423
331.9020, 2712.644
332.3841, 2576.978
332.8662, 2440.198
333.3484, 2300.105
333.8305, 2164.255
334.3126, 2034.163
334.7947, 1908.608
335.2768, 1796.438
335.7589, 1698.181
336.2411, 1613.755
336.7232, 1542.217
337.2053, 1487.176
337.6874, 1436.004
338.1695, 1380.006
338.6516, 1317.671
339.1338, 1268.933
339.6159, 1237.164
340.0980, 1214.934
340.5801, 1191.178
341.0622, 1165.387
341.5443, 1140.037
342.0265, 1114.073
342.5086, 1088.367
342.9907, 1070.350
343.4728, 1061.510
343.9549, 1055.115
344.4370, 1041.401
344.9192, 1021.488
345.4013, 1005.541
345.8834, 998.8076
346.3655, 998.3304
346.8476, 997.9786
347.3297, 997.8549
347.8119, 995.3071
348.2940, 985.3599
348.7761, 970.6204
349.2582, 959.2031
349.7403, 954.0806
350.2225, 952.3376
350.7046, 950.6497
351.1867, 948.9054
351.6688, 946.3569
352.1509, 940.8955
352.6331, 934.6812
353.1152, 931.4824
353.5973, 933.8752
354.0794, 936.1920
354.5615, 930.8661
355.0436, 920.7625
355.5258, 914.5989
356.0079, 923.1334
356.4900, 934.3954
356.9721, 935.9736
357.4542, 922.0407
357.9363, 911.7351
358.4185, 922.4821
358.9006, 943.4175
359.3827, 955.7448
359.8648, 943.1826
360.3469, 927.2220
360.8290, 917.9158
361.3112, 916.2762
361.7933, 920.4584
362.2754, 937.9708
362.7575, 957.9651
363.2396, 968.6934
363.7217, 955.1680
364.2039, 944.3066
364.6860, 943.8555
365.1681, 954.1038
365.6502, 965.3075
366.1323, 979.6663
366.6144, 992.7115
367.0966, 1001.346
367.5787, 1000.227
368.0608, 1001.044
368.5429, 1005.326
369.0250, 1012.393
369.5071, 1018.478
369.9893, 1021.609
370.4714, 1026.009
370.9535, 1034.387
371.4356, 1050.448
371.9177, 1061.244
372.3998, 1062.988
372.8820, 1061.259
373.3641, 1069.412
373.8462, 1091.227
374.3283, 1113.044
374.8104, 1129.247
375.2925, 1139.558
375.7747, 1148.838
376.2568, 1156.871
376.7389, 1164.455
377.2210, 1172.112
377.7031, 1179.734
378.1852, 1189.026
378.6674, 1200.944
379.1495, 1214.933
379.6316, 1229.608
380.1137, 1244.980
380.5958, 1259.806
381.0779, 1271.856
381.5601, 1281.986
382.0422, 1293.565
382.5243, 1308.002
383.0064, 1323.767
383.4885, 1337.125
383.9706, 1348.822
384.4528, 1363.405
384.9349, 1388.168
385.4170, 1416.906
385.8991, 1438.837
386.3812, 1450.764
386.8633, 1461.677
387.3455, 1481.610
387.8276, 1507.004
388.3097, 1530.072
388.7918, 1543.270
389.2739, 1554.626
389.7560, 1571.463
390.2382, 1594.865
390.7203, 1617.370
391.2024, 1633.804
391.6845, 1647.443
392.1666, 1662.275
392.6487, 1677.784
393.1309, 1696.353
393.6130, 1723.426
394.0951, 1757.550
394.5772, 1781.292
395.0593, 1778.986
395.5414, 1772.037
396.0236, 1773.862
396.5057, 1801.158
396.9878, 1819.696
397.4699, 1821.010
397.9520, 1810.503
398.4341, 1805.061
398.9163, 1804.819
399.3984, 1809.603
399.8805, 1821.419
400.3626, 1846.719
400.8447, 1859.178
401.3268, 1852.790
401.8090, 1837.978
402.2911, 1830.471
402.7732, 1835.452
403.2553, 1834.291
403.7374, 1820.963
404.2195, 1796.100
404.7017, 1770.515
405.1838, 1743.443
405.6659, 1717.456
406.1480, 1696.293
406.6301, 1679.990
407.1122, 1660.090
407.5944, 1634.245
408.0765, 1604.685
408.5586, 1576.927
409.0407, 1550.830
409.5228, 1525.133
410.0049, 1498.856
410.4871, 1472.599
410.9692, 1448.232
411.4513, 1426.428
411.9334, 1404.273
412.4155, 1376.379
412.8976, 1344.640
413.3798, 1315.624
413.8619, 1294.864
414.3440, 1276.292
414.8261, 1252.430
415.3082, 1223.048
415.7903, 1194.426
416.2725, 1170.966
416.7546, 1150.202
417.2367, 1128.689
417.7188, 1101.312
418.2009, 1078.044
418.6830, 1068.922
419.1652, 1069.248
419.6473, 1062.135
420.1294, 1032.924
420.6115, 1001.374
421.0937, 978.2247
421.5758, 969.5029
422.0579, 960.2283
422.5400, 946.9361
423.0221, 932.2327
423.5042, 920.1431
423.9864, 913.3126
424.4685, 906.3644
424.9506, 897.1263
425.4327, 885.2247
425.9148, 877.8014
426.3969, 877.3671
426.8791, 878.5481
427.3612, 876.1290
427.8433, 867.9236
428.3254, 863.1024
428.8075, 863.5087
429.2896, 867.9777
429.7718, 873.3875
430.2539, 880.3120
430.7360, 885.2816
431.2181, 883.8926
431.7002, 876.9432
432.1823, 876.4250
432.6645, 883.4476
433.1466, 895.2253
433.6287, 909.4236
434.1108, 925.4804
434.5929, 940.5803
435.0750, 950.0536
435.5572, 959.2336
436.0393, 978.5758
436.5214, 1007.749
437.0035, 1039.849
437.4856, 1068.718
437.9677, 1097.087
438.4499, 1128.885
438.9320, 1166.626
439.4141, 1205.437
439.8962, 1238.566
440.3783, 1269.587
440.8604, 1308.713
441.3426, 1363.426
441.8247, 1424.721
442.3068, 1488.182
442.7889, 1553.642
443.2710, 1619.685
443.7531, 1682.976
444.2353, 1747.650
444.7174, 1819.392
445.1995, 1903.107
445.6816, 1988.402
446.1637, 2072.753
446.6458, 2155.974
447.1280, 2245.623
447.6101, 2349.477
448.0922, 2451.563
448.5743, 2542.406
449.0564, 2621.475
449.5385, 2693.956
450.0207, 2763.212
450.5028, 2822.891
450.9849, 2861.355
451.4670, 2878.296
451.9491, 2873.966
452.4312, 2847.148
452.9134, 2798.515
453.3955, 2730.744
453.8776, 2643.014
454.3597, 2544.228
454.8418, 2444.346
455.3239, 2341.328
455.8061, 2229.624
456.2882, 2102.589
456.7703, 1972.448
457.2524, 1853.434
457.7345, 1745.622
458.2166, 1646.606
458.6988, 1558.094
459.1809, 1477.099
459.6630, 1402.418
460.1451, 1333.428
460.6272, 1268.647
461.1093, 1207.951
461.5915, 1150.886
462.0736, 1098.144
462.5557, 1048.453
463.0378, 1004.470
463.5199, 969.2288
464.0020, 941.9853
464.4842, 915.9644
464.9663, 888.3607
465.4484, 862.9875
465.9305, 842.0501
466.4126, 829.3431
466.8947, 814.0539
467.3769, 795.2756
467.8590, 774.3959
468.3411, 752.9057
468.8232, 729.0768
469.3053, 708.3284
469.7874, 692.2029
470.2696, 680.5427
470.7517, 671.0664
471.2338, 664.5978
471.7159, 657.8622
472.1980, 646.9943
472.6801, 632.1155
473.1623, 620.7816
473.6444, 614.8011
474.1265, 611.1686
474.6086, 604.4471
475.0907, 595.1544
475.5728, 586.6378
476.0550, 580.8098
476.5371, 576.8174
477.0192, 573.6564
477.5013, 571.2849
477.9834, 568.9980
478.4655, 567.9159
478.9477, 566.0566
479.4298, 560.5147
479.9119, 545.6267
480.3940, 532.8479
480.8761, 530.4038
481.3582, 535.1334
481.8404, 538.0100
482.3225, 536.1582
482.8046, 531.7305
483.2867, 525.3480
483.7688, 516.5196
484.2509, 507.6398
484.7331, 495.2550
485.2152, 484.8615
485.6973, 482.1718
486.1794, 495.0797
486.6615, 501.8485
487.1436, 496.7947
487.6258, 483.1827
488.1079, 477.3440
488.5900, 482.0675
489.0721, 486.9632
489.5542, 485.7813
490.0363, 478.4657
490.5185, 472.0559
491.0006, 466.5396
491.4827, 462.7485
491.9648, 462.0438
492.4470, 464.1773
492.9291, 468.2901
493.4112, 476.6699
493.8933, 484.5515
494.3754, 482.2348
494.8575, 471.2451
495.3397, 461.3257
495.8218, 460.1226
496.3039, 462.6419
496.7860, 463.0028
497.2681, 459.3754
497.7502, 457.3565
498.2324, 462.6625
498.7145, 470.5894
499.1966, 474.8411
499.6787, 471.1898
500.1608, 465.9190
500.6429, 459.8724
501.1251, 453.2744
501.6072, 448.7336
502.0893, 448.0426
502.5714, 447.9515
503.0535, 446.9477
503.5356, 444.5898
504.0178, 442.2409
504.4999, 439.3105
504.9820, 436.9601
505.4641, 438.0226
505.9462, 443.8260
506.4283, 445.7306
506.9105, 439.0239
507.3926, 427.0183
507.8747, 424.3365
508.3568, 431.4657
508.8389, 438.9044
509.3210, 438.6489
509.8032, 433.3067
510.2853, 430.0436
510.7674, 429.8872
511.2495, 431.2520
511.7316, 433.8192
512.2137, 436.6471
512.6959, 437.7973
513.1780, 434.3661
513.6601, 430.7540
514.1422, 430.5645
514.6243, 433.2177
515.1064, 434.5829
515.5886, 431.0258
516.0707, 427.0909
516.5528, 425.9473
517.0349, 430.6134
517.5170, 432.5614
517.9991, 428.7018
518.4813, 422.5703
518.9634, 418.7888
519.4455, 419.8569
519.9276, 418.7657
520.4097, 412.4888
520.8918, 402.5413
521.3740, 398.8133
521.8561, 402.5948
522.3382, 408.3255
522.8203, 413.0936
523.3024, 416.8412
523.7845, 418.9306
524.2667, 419.0298
524.7488, 418.6266
525.2309, 420.5953
525.7130, 423.8326
526.1951, 424.3869
526.6772, 419.5367
527.1594, 412.6352
527.6415, 406.6995
528.1236, 401.9004
528.6057, 398.8813
529.0878, 398.6219
529.5699, 399.9340
530.0521, 402.2434
530.5342, 405.8012
531.0163, 408.9320
531.4984, 410.8702
531.9805, 412.2390
532.4626, 413.7128
532.9448, 415.7802
533.4269, 417.4725
533.9090, 418.7049
534.3911, 419.4864
534.8732, 419.6188
535.3553, 418.2876
535.8375, 417.8136
536.3196, 418.7159
536.8017, 420.8962
537.2838, 427.5704
537.7659, 440.0215
538.2480, 452.9449
538.7302, 459.6502
539.2123, 461.1967
539.6944, 464.5110
540.1765, 471.3191
540.6586, 480.1330
541.1407, 489.2168
541.6229, 498.7053
542.1050, 509.1979
542.5871, 523.2286
543.0692, 536.9772
543.5513, 544.4104
544.0334, 545.2950
544.5156, 551.6929
544.9977, 573.0731
545.4798, 600.1002
545.9619, 625.3239
546.4440, 647.0159
546.9261, 667.3684
547.4083, 685.7629
547.8904, 703.2505
548.3725, 721.1523
548.8546, 737.8664
549.3367, 757.8279
549.8188, 782.4259
550.3010, 811.4152
550.7831, 842.8586
551.2652, 877.9571
551.7473, 911.6252
552.2294, 942.3027
552.7115, 969.4013
553.1937, 984.1593
553.6758, 984.7047
554.1579, 977.8022
554.6400, 971.4167
555.1221, 964.2949
555.6042, 953.0291
556.0864, 935.7180
556.5685, 914.2598
557.0506, 887.9977
557.5327, 858.5298
558.0148, 832.2321
558.4969, 814.1914
558.9791, 798.7123
559.4612, 782.2300
559.9433, 763.8287
560.4254, 747.5499
560.9075, 735.3015
561.3896, 724.9110
561.8718, 714.1938
562.3539, 702.0157
562.8360, 691.4284
563.3181, 682.8746
563.8002, 676.0428
564.2823, 670.7020
564.7645, 667.6130
565.2466, 662.6640
565.7287, 653.0095
566.2108, 640.1030
566.6929, 632.1757
567.1750, 629.5120
567.6572, 626.8200
568.1393, 619.0128
568.6214, 608.1690
569.1035, 598.7101
569.5856, 591.4144
570.0677, 584.8273
570.5499, 577.7438
571.0320, 570.4829
571.5141, 563.5027
571.9962, 557.4977
572.4783, 551.2807
572.9604, 544.1294
573.4426, 536.3146
573.9247, 529.0472
574.4068, 522.2210
574.8889, 516.3688
575.3710, 512.2702
575.8531, 510.8184
576.3353, 506.5010
576.8174, 498.1747
577.2995, 488.7398
577.7816, 480.0142
578.2637, 471.7579
578.7458, 467.9890
579.2280, 470.5153
579.7101, 475.5256
580.1922, 477.1354
580.6743, 475.4260
581.1564, 470.8575
581.6385, 460.7698
582.1207, 449.4695
582.6028, 443.6309
583.0849, 442.6064
583.5670, 440.9162
584.0491, 432.6043
584.5313, 424.0903
585.0134, 421.4509
585.4955, 428.4543
585.9776, 431.9349
586.4597, 425.3774
586.9418, 414.8840
587.4240, 407.4297
587.9061, 404.7872
588.3882, 402.7057
588.8703, 400.8825
589.3524, 399.2903
589.8345, 398.1856
590.3167, 398.0536
590.7988, 396.4734
591.2809, 391.8553
591.7630, 384.8641
592.2451, 378.6227
592.7272, 373.0921
593.2094, 369.2644
593.6915, 369.8138
594.1736, 372.2790
594.6557, 371.3734
595.1378, 365.4577
595.6199, 359.6210
596.1021, 357.6298
596.5842, 358.1494
597.0663, 359.2815
597.5485, 361.2444
598.0306, 362.8045
598.5127, 362.8340
598.9948, 361.9338
599.4769, 362.8249
599.9590, 369.1786
600.4412, 373.0665
600.9233, 370.8105
601.4054, 361.7697
601.8875, 357.1075
602.3696, 358.3112
602.8517, 360.3276
603.3339, 358.8716
603.8160, 354.1641
604.2981, 348.1335
604.7802, 340.1069
605.2623, 334.1367
605.7444, 338.5114
606.2266, 349.4493
606.7087, 356.4527
607.1908, 351.6848
607.6729, 345.7926
608.1550, 349.6613
608.6371, 359.8542
609.1193, 365.3327
609.6014, 355.3826
610.0835, 345.0308
610.5656, 342.3485
611.0477, 349.0924
611.5298, 353.5375
612.0120, 354.7251
612.4941, 354.0533
612.9762, 352.1664
613.4583, 348.6157
613.9404, 345.5754
