##NAMES=Hemihedrite
##RRUFFID=R050551
##IDEAL CHEMISTRY=Pb^2+^_10_Zn^2+^(Cr^6+^O_4_)_6_(SiO_4_)_2_(OH)_2_
##LOCALITY=Belmont Mountains, Wickenberg, Maricopa County, Arizona, USA
##OWNER=RRUFF
##SOURCE=Dave Bunk Minerals
##DESCRIPTION=Orange fragments and bladed crystals
##STATUS=The identification of this mineral is confirmed by single-crystal X-ray diffraction and chemical analysis.
##URL=rruff.info/R050551
##MEASURED CHEMISTRY=Pb_10.06_(Zn_0.96_Mg_0.02_)_∑=0.98_(Cr_5.97_S_0.02_P_0.01_)_∑=6.00_Si_2.02_O_34_H_1.85_ ; H_2_O calculated to achieve 34 O atoms.
92.37695, 17976.21
92.85907, 17744.60
93.34119, 17793.56
93.82330, 17973.89
94.30542, 18118.40
94.78754, 18207.59
95.26965, 18273.01
95.75177, 18307.11
96.23389, 18314.14
96.71600, 18300.25
97.19812, 18282.94
97.68024, 18268.35
98.16235, 18256.65
98.64447, 18247.44
99.12659, 18217.09
99.60870, 18194.98
100.0908, 18151.05
100.5729, 18111.02
101.0551, 18067.77
101.5372, 18016.03
102.0193, 17952.60
102.5014, 17871.05
102.9835, 17771.48
103.4656, 17646.19
103.9478, 17503.36
104.4299, 17332.06
104.9120, 17115.17
105.3941, 16839.68
105.8762, 16498.90
106.3583, 16111.50
106.8405, 15653.74
107.3226, 15173.96
107.8047, 14687.60
108.2868, 14200.31
108.7689, 13723.19
109.2510, 13268.30
109.7332, 12834.32
110.2153, 12440.26
110.6974, 12100.16
111.1795, 11798.79
111.6616, 11511.66
112.1437, 11235.77
112.6259, 10976.16
113.1080, 10736.10
113.5901, 10515.40
114.0722, 10308.62
114.5543, 10116.07
115.0364, 9936.710
115.5185, 9768.171
116.0007, 9610.068
116.4828, 9463.693
116.9649, 9331.931
117.4470, 9215.423
117.9291, 9104.229
118.4112, 8982.986
118.8934, 8844.395
119.3755, 8714.691
119.8576, 8599.786
120.3397, 8491.032
120.8218, 8382.384
121.3039, 8271.295
121.7861, 8158.347
122.2682, 8044.201
122.7503, 7929.689
123.2324, 7813.086
123.7145, 7693.659
124.1966, 7571.910
124.6788, 7449.061
125.1609, 7324.301
125.6430, 7198.295
126.1251, 7077.015
126.6072, 6957.141
127.0893, 6843.256
127.5715, 6736.463
128.0536, 6636.815
128.5357, 6545.849
129.0178, 6466.206
129.4999, 6397.076
129.9821, 6327.776
130.4642, 6252.079
130.9463, 6178.577
131.4284, 6116.167
131.9105, 6066.056
132.3926, 6023.063
132.8748, 5986.269
133.3569, 5953.433
133.8390, 5921.865
134.3211, 5887.019
134.8032, 5852.071
135.2853, 5828.367
135.7674, 5822.561
136.2496, 5820.077
136.7317, 5814.785
137.2138, 5806.761
137.6959, 5796.738
138.1780, 5784.864
138.6601, 5770.980
139.1423, 5757.140
139.6244, 5741.630
140.1065, 5727.639
140.5886, 5720.220
141.0707, 5717.235
141.5528, 5710.334
142.0350, 5688.540
142.5171, 5643.532
142.9992, 5604.310
143.4813, 5576.942
143.9634, 5550.255
144.4455, 5517.427
144.9277, 5476.662
145.4098, 5429.081
145.8919, 5375.876
146.3740, 5311.475
146.8561, 5251.583
147.3382, 5197.556
147.8204, 5147.890
148.3025, 5101.113
148.7846, 5056.899
149.2667, 5014.485
149.7488, 4971.588
150.2309, 4926.964
150.7131, 4884.740
151.1952, 4849.231
151.6773, 4817.923
152.1594, 4782.470
152.6415, 4736.048
153.1236, 4687.604
153.6058, 4650.591
154.0879, 4627.743
154.5700, 4608.438
155.0521, 4584.611
155.5342, 4556.167
156.0163, 4527.420
156.4985, 4499.470
156.9806, 4472.405
157.4627, 4446.715
157.9448, 4422.723
158.4269, 4399.219
158.9090, 4373.504
159.3912, 4343.417
159.8733, 4316.964
160.3554, 4297.272
160.8375, 4280.969
161.3196, 4265.539
161.8017, 4250.058
162.2839, 4234.227
162.7660, 4217.229
163.2481, 4197.553
163.7302, 4178.640
164.2123, 4161.999
164.6944, 4146.085
165.1766, 4128.436
165.6587, 4107.291
166.1408, 4083.951
166.6229, 4066.625
167.1050, 4065.125
167.5871, 4059.001
168.0693, 4040.223
168.5514, 4013.682
169.0335, 3989.507
169.5156, 3974.887
169.9977, 3968.852
170.4798, 3957.171
170.9620, 3936.537
171.4441, 3914.766
171.9262, 3895.620
172.4083, 3878.688
172.8904, 3861.158
173.3725, 3841.150
173.8547, 3818.620
174.3368, 3795.197
174.8189, 3770.195
175.3010, 3744.645
175.7831, 3719.535
176.2652, 3694.866
176.7474, 3670.075
177.2295, 3647.091
177.7116, 3623.532
178.1937, 3593.842
178.6758, 3549.085
179.1579, 3500.197
179.6401, 3464.707
180.1222, 3447.046
180.6043, 3430.350
181.0864, 3406.633
181.5685, 3376.650
182.0506, 3340.193
182.5328, 3292.538
183.0149, 3238.874
183.4970, 3195.374
183.9791, 3166.198
184.4612, 3142.140
184.9433, 3119.061
185.4255, 3097.386
185.9076, 3078.119
186.3897, 3063.370
186.8718, 3052.265
187.3539, 3035.529
187.8360, 3008.719
188.3182, 2980.252
188.8003, 2949.648
189.2824, 2919.230
189.7645, 2892.934
190.2466, 2874.385
190.7287, 2863.817
191.2109, 2853.763
191.6930, 2848.955
192.1751, 2840.095
192.6572, 2819.561
193.1393, 2791.521
193.6214, 2766.821
194.1036, 2755.877
194.5857, 2761.113
195.0678, 2760.117
195.5499, 2750.602
196.0320, 2738.576
196.5141, 2725.381
196.9963, 2711.871
197.4784, 2699.662
197.9605, 2690.658
198.4426, 2685.509
198.9247, 2678.246
199.4068, 2666.452
199.8890, 2654.575
200.3711, 2644.749
200.8532, 2637.363
201.3353, 2633.333
201.8174, 2635.285
202.2995, 2643.483
202.7817, 2644.591
203.2638, 2633.011
203.7459, 2617.065
204.2280, 2604.088
204.7101, 2594.854
205.1922, 2587.264
205.6744, 2578.845
206.1565, 2570.218
206.6386, 2564.928
207.1207, 2566.975
207.6028, 2571.518
208.0849, 2571.092
208.5671, 2563.868
209.0492, 2556.687
209.5313, 2556.410
210.0134, 2560.380
210.4955, 2563.133
210.9776, 2561.037
211.4598, 2556.562
211.9419, 2555.613
212.4240, 2559.844
212.9061, 2564.316
213.3882, 2566.202
213.8703, 2566.240
214.3525, 2565.553
214.8346, 2563.665
215.3167, 2561.489
215.7988, 2562.858
216.2809, 2570.536
216.7630, 2577.545
217.2451, 2581.306
217.7273, 2582.430
218.2094, 2581.840
218.6915, 2579.483
219.1736, 2575.864
219.6557, 2574.021
220.1378, 2574.209
220.6200, 2576.205
221.1021, 2583.115
221.5842, 2591.302
222.0663, 2594.377
222.5484, 2586.866
223.0305, 2570.493
223.5127, 2562.092
223.9948, 2575.374
224.4769, 2582.480
224.9590, 2573.430
225.4411, 2554.534
225.9232, 2536.698
226.4054, 2527.087
226.8875, 2525.123
227.3696, 2523.515
227.8517, 2523.368
228.3338, 2522.445
228.8159, 2518.829
229.2981, 2514.192
229.7802, 2511.615
230.2623, 2513.237
230.7444, 2518.625
231.2265, 2522.798
231.7086, 2528.991
232.1908, 2530.659
232.6729, 2521.197
233.1550, 2506.078
233.6371, 2496.638
234.1192, 2500.655
234.6013, 2515.450
235.0835, 2520.673
235.5656, 2505.752
236.0477, 2494.750
236.5298, 2498.402
237.0119, 2511.451
237.4940, 2522.040
237.9762, 2523.347
238.4583, 2517.296
238.9404, 2513.046
239.4225, 2511.769
239.9046, 2510.591
240.3867, 2507.360
240.8689, 2503.373
241.3510, 2502.288
241.8331, 2506.683
242.3152, 2514.367
242.7973, 2518.604
243.2794, 2517.269
243.7616, 2516.480
244.2437, 2519.918
244.7258, 2526.166
245.2079, 2530.679
245.6900, 2530.912
246.1721, 2529.164
246.6543, 2530.479
247.1364, 2536.193
247.6185, 2541.074
248.1006, 2542.947
248.5827, 2541.944
249.0648, 2537.657
249.5470, 2527.174
250.0291, 2516.772
250.5112, 2515.928
250.9933, 2525.740
251.4754, 2536.860
251.9576, 2546.134
252.4397, 2552.971
252.9218, 2554.423
253.4039, 2547.115
253.8860, 2537.171
254.3681, 2531.856
254.8503, 2531.128
255.3324, 2530.087
255.8145, 2524.483
256.2966, 2515.527
256.7787, 2509.869
257.2608, 2511.065
257.7430, 2512.687
258.2251, 2508.736
258.7072, 2500.019
259.1893, 2491.823
259.6714, 2488.141
260.1535, 2488.132
260.6357, 2487.071
261.1178, 2484.560
261.5999, 2480.791
262.0820, 2474.875
262.5641, 2467.738
263.0462, 2462.194
263.5284, 2460.941
264.0105, 2463.191
264.4926, 2464.382
264.9747, 2465.087
265.4568, 2463.614
265.9389, 2457.675
266.4211, 2449.286
266.9032, 2442.619
267.3853, 2440.782
267.8674, 2442.580
268.3495, 2442.216
268.8316, 2435.566
269.3138, 2433.400
269.7959, 2442.911
270.2780, 2458.103
270.7601, 2469.613
271.2422, 2471.426
271.7243, 2467.257
272.2065, 2470.215
272.6886, 2486.813
273.1707, 2499.476
273.6528, 2498.642
274.1349, 2493.614
274.6170, 2495.511
275.0992, 2509.726
275.5813, 2531.768
276.0634, 2549.891
276.5455, 2559.568
277.0276, 2574.188
277.5097, 2602.517
277.9919, 2632.841
278.4740, 2651.949
278.9561, 2655.332
279.4382, 2653.295
279.9203, 2666.159
280.4024, 2701.908
280.8846, 2736.063
281.3667, 2765.498
281.8488, 2793.001
282.3309, 2820.030
282.8130, 2847.121
283.2951, 2874.493
283.7773, 2902.145
284.2594, 2929.000
284.7415, 2959.056
285.2236, 2991.537
285.7057, 3027.364
286.1878, 3068.151
286.6700, 3113.385
287.1521, 3160.679
287.6342, 3207.531
288.1163, 3253.079
288.5984, 3300.452
289.0805, 3348.133
289.5627, 3398.524
290.0448, 3452.806
290.5269, 3511.000
291.0090, 3572.493
291.4911, 3637.475
291.9732, 3706.353
292.4554, 3771.727
292.9375, 3828.680
293.4196, 3887.255
293.9017, 3950.066
294.3838, 4017.144
294.8659, 4088.356
295.3481, 4164.080
295.8302, 4243.974
296.3123, 4319.221
296.7944, 4381.090
297.2765, 4447.820
297.7586, 4526.085
298.2408, 4610.778
298.7229, 4693.252
299.2050, 4768.299
299.6871, 4838.280
300.1692, 4911.848
300.6513, 4991.983
301.1335, 5072.063
301.6156, 5148.368
302.0977, 5224.969
302.5798, 5306.581
303.0619, 5394.827
303.5440, 5488.256
304.0262, 5585.567
304.5083, 5689.708
304.9904, 5792.588
305.4725, 5891.860
305.9546, 5991.025
306.4367, 6093.444
306.9189, 6199.607
307.4010, 6308.208
307.8831, 6417.442
308.3652, 6526.999
308.8473, 6637.858
309.3294, 6751.181
309.8116, 6865.233
310.2937, 6977.434
310.7758, 7088.581
311.2579, 7202.051
311.7400, 7320.660
312.2221, 7446.341
312.7043, 7570.115
313.1864, 7689.235
313.6685, 7809.931
314.1506, 7930.081
314.6327, 8053.897
315.1148, 8190.033
315.5970, 8344.432
316.0791, 8516.584
316.5612, 8699.519
317.0433, 8894.713
317.5254, 9100.527
318.0075, 9313.827
318.4897, 9537.842
318.9718, 9777.405
319.4539, 10035.06
319.9360, 10308.79
320.4181, 10595.31
320.9002, 10881.65
321.3824, 11197.46
321.8645, 11558.73
322.3466, 11941.46
322.8287, 12323.98
323.3108, 12696.58
323.7929, 13071.44
324.2751, 13466.35
324.7572, 13895.15
325.2393, 14320.72
325.7214, 14748.33
326.2035, 15172.09
326.6856, 15590.59
327.1678, 16003.08
327.6499, 16411.70
328.1320, 16820.72
328.6141, 17232.07
329.0962, 17637.47
329.5783, 18033.92
330.0605, 18428.56
330.5426, 18826.62
331.0247, 19226.56
331.5068, 19620.58
331.9889, 20004.15
332.4710, 20376.94
332.9532, 20732.16
333.4353, 21077.55
333.9174, 21398.29
334.3995, 21698.21
334.8816, 21968.87
335.3637, 22197.25
335.8459, 22375.18
336.3280, 22510.46
336.8101, 22621.21
337.2922, 22709.46
337.7743, 22766.09
338.2564, 22785.82
338.7386, 22780.06
339.2206, 22760.63
339.7028, 22730.07
340.1849, 22679.82
340.6670, 22598.67
341.1491, 22491.26
341.6312, 22338.32
342.1133, 22143.07
342.5955, 21907.82
343.0776, 21625.98
343.5597, 21302.29
344.0418, 20951.45
344.5239, 20584.33
345.0060, 20200.06
345.4882, 19814.69
345.9703, 19406.13
346.4524, 19018.75
346.9345, 18658.66
347.4166, 18329.38
347.8987, 18033.22
348.3809, 17772.41
348.8630, 17547.17
349.3451, 17364.30
349.8272, 17231.64
350.3093, 17132.09
350.7914, 17065.01
351.2736, 17022.76
351.7557, 17002.39
352.2378, 17002.39
352.7199, 17013.57
353.2020, 17024.53
353.6841, 17041.93
354.1663, 17037.71
354.6484, 17020.28
355.1305, 16972.51
355.6126, 16884.25
356.0947, 16754.11
356.5768, 16585.29
357.0590, 16384.47
357.5411, 16154.06
358.0232, 15865.67
358.5053, 15485.08
358.9874, 15080.01
359.4695, 14667.97
359.9517, 14255.74
360.4338, 13854.04
360.9159, 13465.60
361.3980, 13094.66
361.8801, 12748.08
362.3622, 12427.18
362.8444, 12133.33
363.3265, 11875.07
363.8086, 11637.47
364.2907, 11405.80
364.7728, 11174.23
365.2549, 10949.21
365.7371, 10739.38
366.2192, 10544.69
366.7013, 10357.05
367.1834, 10165.02
367.6655, 9988.908
368.1476, 9843.480
368.6298, 9728.564
369.1119, 9635.343
369.5940, 9564.686
370.0761, 9512.490
370.5582, 9461.253
371.0403, 9413.203
371.5225, 9359.216
372.0046, 9300.410
372.4867, 9232.278
372.9688, 9140.450
373.4509, 9010.401
373.9330, 8859.755
374.4152, 8709.330
374.8973, 8558.201
375.3794, 8419.276
375.8615, 8295.141
376.3436, 8191.512
376.8257, 8114.553
377.3079, 8065.690
377.7900, 8041.577
378.2721, 8041.351
378.7542, 8064.190
379.2363, 8108.596
379.7184, 8179.294
380.2006, 8263.867
380.6827, 8351.109
381.1648, 8441.006
381.6469, 8521.604
382.1290, 8587.436
382.6111, 8642.793
383.0933, 8689.386
383.5754, 8726.956
384.0575, 8769.131
384.5396, 8828.052
385.0217, 8902.826
385.5038, 8980.386
385.9860, 9052.722
386.4681, 9134.339
386.9502, 9239.270
387.4323, 9361.843
387.9144, 9487.948
388.3965, 9615.279
388.8787, 9734.022
389.3608, 9816.243
389.8429, 9866.121
390.3250, 9882.666
390.8071, 9865.388
391.2892, 9814.697
391.7714, 9730.361
392.2535, 9612.714
392.7356, 9462.862
393.2177, 9281.572
393.6998, 9063.986
394.1819, 8826.962
394.6641, 8566.427
395.1462, 8290.915
395.6283, 8000.099
396.1104, 7698.569
396.5925, 7399.033
397.0746, 7106.675
397.5568, 6824.753
398.0389, 6561.060
398.5210, 6311.258
399.0031, 6088.757
399.4852, 5901.216
399.9673, 5738.610
400.4495, 5589.319
400.9316, 5450.040
401.4137, 5323.419
401.8958, 5214.663
402.3779, 5129.593
402.8600, 5047.596
403.3422, 4968.029
403.8243, 4891.101
404.3064, 4820.757
404.7885, 4753.663
405.2706, 4680.888
405.7527, 4595.627
406.2349, 4498.831
406.7170, 4402.221
407.1991, 4310.896
407.6812, 4212.609
408.1633, 4104.329
408.6454, 3988.621
409.1276, 3867.004
409.6097, 3740.219
410.0918, 3611.379
410.5739, 3481.909
411.0560, 3350.167
411.5381, 3229.286
412.0203, 3125.597
412.5024, 3031.130
412.9845, 2944.077
413.4666, 2863.519
413.9487, 2786.035
414.4308, 2708.708
414.9130, 2632.778
415.3951, 2562.753
415.8772, 2498.529
416.3593, 2440.608
416.8414, 2391.816
417.3235, 2348.650
417.8057, 2306.767
418.2878, 2264.439
418.7699, 2224.419
419.2520, 2190.804
419.7341, 2162.807
420.2162, 2132.459
420.6984, 2096.297
421.1805, 2058.412
421.6626, 2024.763
422.1447, 1995.090
422.6268, 1964.764
423.1089, 1927.931
423.5911, 1891.311
424.0732, 1865.964
424.5553, 1853.262
425.0374, 1841.438
425.5195, 1820.907
426.0016, 1793.367
426.4838, 1771.412
426.9659, 1759.940
427.4480, 1748.707
427.9301, 1733.650
428.4122, 1715.451
428.8943, 1694.687
429.3765, 1671.119
429.8586, 1647.930
430.3407, 1630.863
430.8228, 1623.255
431.3049, 1615.059
431.7870, 1606.776
432.2692, 1597.522
432.7513, 1584.918
433.2334, 1570.132
433.7155, 1558.410
434.1976, 1554.963
434.6797, 1558.744
435.1619, 1554.034
435.6440, 1530.256
436.1261, 1509.936
436.6082, 1497.275
437.0903, 1489.742
437.5724, 1484.998
438.0546, 1482.035
438.5367, 1479.452
439.0188, 1475.157
439.5009, 1469.062
439.9830, 1461.485
440.4651, 1449.650
440.9473, 1438.754
441.4294, 1431.611
441.9115, 1427.536
442.3936, 1424.254
442.8757, 1420.532
443.3578, 1416.337
443.8400, 1411.580
444.3221, 1406.036
444.8042, 1400.465
445.2863, 1394.477
445.7684, 1388.927
446.2505, 1385.357
446.7327, 1384.277
447.2148, 1382.427
447.6969, 1376.686
448.1790, 1367.593
448.6611, 1357.499
449.1432, 1345.560
449.6254, 1335.110
450.1075, 1328.859
450.5896, 1326.279
451.0717, 1326.679
451.5538, 1333.149
452.0359, 1340.186
452.5181, 1343.806
453.0002, 1343.749
453.4823, 1337.065
453.9644, 1319.529
454.4465, 1298.000
454.9286, 1289.622
455.4108, 1299.116
455.8929, 1304.703
456.3750, 1298.722
456.8571, 1287.862
457.3392, 1277.758
457.8214, 1269.820
458.3035, 1266.083
458.7856, 1269.313
459.2677, 1279.650
459.7498, 1284.388
460.2319, 1279.530
460.7141, 1274.651
461.1962, 1272.709
461.6783, 1272.299
462.1604, 1271.582
462.6425, 1269.806
463.1246, 1266.803
463.6068, 1261.383
464.0889, 1249.987
464.5710, 1245.912
465.0531, 1258.445
465.5352, 1269.234
466.0173, 1268.593
466.4995, 1258.721
466.9816, 1246.873
467.4637, 1237.041
467.9458, 1229.424
468.4279, 1224.878
468.9100, 1224.246
469.3922, 1224.488
469.8743, 1225.388
470.3564, 1226.381
470.8385, 1226.753
471.3206, 1226.425
471.8027, 1226.598
472.2849, 1229.047
472.7670, 1232.886
473.2491, 1234.245
473.7312, 1231.845
474.2133, 1229.656
474.6954, 1230.949
475.1776, 1234.584
475.6597, 1238.074
476.1418, 1241.117
476.6239, 1243.789
477.1060, 1245.443
477.5881, 1246.684
478.0703, 1249.657
478.5524, 1255.322
479.0345, 1261.997
479.5166, 1267.626
479.9987, 1272.546
480.4808, 1274.460
480.9630, 1270.284
481.4451, 1265.523
481.9272, 1261.928
482.4093, 1260.835
482.8914, 1266.126
483.3735, 1280.985
483.8557, 1301.535
484.3378, 1313.894
484.8199, 1311.256
485.3020, 1309.630
485.7841, 1308.371
486.2662, 1309.178
486.7484, 1316.010
487.2305, 1327.473
487.7126, 1335.626
488.1947, 1331.713
488.6768, 1316.850
489.1589, 1309.581
489.6411, 1315.534
490.1232, 1320.272
490.6053, 1318.112
491.0874, 1312.999
491.5695, 1309.540
492.0516, 1309.110
492.5338, 1309.191
493.0159, 1307.104
493.4980, 1303.076
493.9801, 1299.394
494.4622, 1297.069
494.9443, 1293.854
495.4265, 1288.873
495.9086, 1281.753
496.3907, 1270.604
496.8728, 1253.030
497.3549, 1232.952
497.8370, 1212.076
498.3192, 1191.179
498.8013, 1173.344
499.2834, 1160.027
499.7655, 1149.691
500.2476, 1140.278
500.7297, 1132.657
501.2119, 1122.649
501.6940, 1106.693
502.1761, 1090.975
502.6582, 1079.381
503.1403, 1071.897
503.6224, 1067.322
504.1045, 1065.196
504.5866, 1064.583
505.0688, 1062.050
505.5509, 1056.270
506.0330, 1050.545
506.5151, 1044.802
506.9972, 1039.363
507.4793, 1033.254
507.9615, 1027.245
508.4436, 1024.709
508.9257, 1030.650
509.4078, 1042.597
509.8899, 1044.371
510.3720, 1031.467
510.8542, 1018.165
511.3363, 1008.696
511.8184, 1002.027
512.3005, 997.5609
512.7827, 995.2541
513.2648, 994.3690
513.7469, 994.3401
514.2290, 995.2853
514.7111, 998.0729
515.1932, 1003.301
515.6754, 1007.937
516.1575, 1008.472
516.6396, 1006.369
517.1217, 1008.369
517.6038, 1021.217
518.0859, 1030.619
518.5681, 1025.563
519.0502, 1013.940
519.5323, 1010.686
520.0144, 1019.851
520.4965, 1031.431
520.9786, 1033.070
521.4608, 1022.921
521.9429, 1013.798
522.4250, 1003.912
522.9071, 996.6798
523.3892, 992.7500
523.8713, 992.4423
524.3535, 997.3258
524.8356, 1007.914
525.3177, 1020.229
525.7998, 1027.056
526.2819, 1026.967
526.7640, 1028.567
527.2462, 1034.537
527.7283, 1039.968
528.2104, 1042.803
528.6925, 1043.287
529.1746, 1041.631
529.6567, 1035.960
530.1389, 1031.343
530.6210, 1037.329
531.1031, 1053.058
531.5852, 1063.060
532.0673, 1061.757
532.5494, 1054.863
533.0316, 1047.256
533.5137, 1039.016
533.9958, 1035.158
534.4779, 1041.820
534.9600, 1049.003
535.4421, 1048.909
535.9243, 1042.468
536.4064, 1033.281
536.8885, 1022.686
537.3706, 1012.404
537.8527, 1006.542
538.3348, 1009.984
538.8170, 1007.778
539.2991, 996.1646
539.7812, 982.7687
540.2633, 971.2418
540.7454, 961.6842
541.2275, 952.4373
541.7097, 942.1803
542.1918, 932.6041
542.6739, 929.6678
543.1560, 937.3445
543.6381, 938.8382
544.1202, 925.3126
544.6024, 908.9772
545.0845, 896.1274
545.5666, 887.1253
546.0487, 881.4320
546.5308, 881.2513
547.0129, 882.8592
547.4951, 879.7865
547.9772, 872.1608
548.4593, 864.9642
548.9414, 860.2503
549.4235, 857.1199
549.9056, 854.0490
550.3878, 850.8898
550.8699, 848.4811
551.3520, 846.5723
551.8341, 845.8118
552.3162, 847.7835
552.7983, 851.6008
553.2805, 854.1215
553.7626, 853.4331
554.2447, 850.5882
554.7268, 848.7329
555.2089, 849.3737
555.6910, 848.2609
556.1732, 843.9287
556.6553, 839.2025
557.1374, 835.0132
557.6195, 831.8992
558.1016, 830.9907
558.5837, 833.7327
559.0659, 838.0456
559.5480, 838.5568
560.0301, 834.5135
560.5122, 831.2191
560.9943, 831.2215
561.4764, 831.4962
561.9586, 829.0259
562.4407, 823.9427
562.9228, 818.4595
563.4049, 812.5462
563.8870, 807.2121
564.3691, 803.8048
564.8513, 802.1043
565.3334, 800.8094
565.8155, 799.3320
566.2976, 797.9777
566.7797, 797.4244
567.2618, 798.5277
567.7440, 798.3743
568.2261, 794.0838
568.7082, 791.1880
569.1903, 795.4634
569.6724, 803.6160
570.1545, 807.6565
570.6367, 803.1670
571.1188, 793.5177
571.6009, 785.1913
572.0830, 777.5618
572.5651, 773.4871
573.0472, 775.9334
573.5294, 779.5084
574.0115, 782.2106
574.4936, 783.7056
574.9757, 783.0663
575.4578, 777.7366
575.9399, 773.0872
576.4221, 778.7473
576.9042, 792.0316
577.3863, 796.0712
577.8684, 783.8105
578.3505, 767.6252
578.8326, 762.1898
579.3148, 768.4792
579.7969, 772.7494
580.2790, 775.3246
580.7611, 775.1344
581.2432, 769.0346
581.7253, 760.5677
582.2075, 755.7619
582.6896, 756.6329
583.1717, 759.8566
583.6538, 760.6258
584.1359, 758.2386
584.6180, 758.4835
585.1002, 764.0998
