##NAMES=Hemihedrite
##RRUFFID=R050551
##IDEAL CHEMISTRY=Pb^2+^_10_Zn^2+^(Cr^6+^O_4_)_6_(SiO_4_)_2_(OH)_2_
##LOCALITY=Belmont Mountains, Wickenberg, Maricopa County, Arizona, USA
##OWNER=RRUFF
##SOURCE=Dave Bunk Minerals
##DESCRIPTION=Orange fragments and bladed crystals
##STATUS=The identification of this mineral is confirmed by single-crystal X-ray diffraction and chemical analysis.
##URL=rruff.info/R050551
##MEASURED CHEMISTRY=Pb_10.06_(Zn_0.96_Mg_0.02_)_∑=0.98_(Cr_5.97_S_0.02_P_0.01_)_∑=6.00_Si_2.02_O_34_H_1.85_ ; H_2_O calculated to achieve 34 O atoms.
90.92609, 0.0000000E+00
91.40820, 119.3690
91.89032, 121.8690
92.37244, 121.3140
92.85455, 117.9902
93.33667, 113.6174
93.81879, 110.2466
94.30090, 106.9458
94.78302, 99.88142
95.26514, 85.48454
95.74725, 69.20213
96.22937, 65.13113
96.71149, 74.17125
97.19360, 85.61147
97.67572, 89.19320
98.15784, 84.97570
98.63995, 80.13740
99.12207, 75.90240
99.60419, 72.48857
100.0863, 71.90087
100.5684, 74.82256
101.0505, 79.21669
101.5327, 82.65116
102.0148, 84.96893
102.4969, 86.74093
102.9790, 87.85506
103.4611, 87.93945
103.9432, 89.96736
104.4253, 96.66208
104.9075, 103.8028
105.3896, 101.8143
105.8717, 82.21140
106.3538, 64.96672
106.8359, 57.65126
107.3180, 66.01973
107.8002, 74.44186
108.2823, 81.90486
108.7644, 89.20531
109.2465, 99.63188
109.7286, 118.3067
110.2107, 136.2750
110.6929, 150.0005
111.1750, 156.0067
111.6571, 161.3396
112.1392, 164.8539
112.6213, 167.2332
113.1034, 173.5899
113.5856, 185.6027
114.0677, 201.5268
114.5498, 219.9659
115.0319, 237.1760
115.5140, 260.2440
115.9961, 292.9676
116.4783, 335.2636
116.9604, 378.6253
117.4425, 419.1213
117.9246, 459.8338
118.4067, 503.7916
118.8888, 551.3901
119.3710, 603.4481
119.8531, 662.5995
120.3352, 729.5613
120.8173, 795.2745
121.2994, 853.9994
121.7815, 907.0949
122.2637, 957.1348
122.7458, 1007.498
123.2279, 1053.833
123.7100, 1089.828
124.1921, 1112.932
124.6742, 1133.595
125.1564, 1160.976
125.6385, 1193.801
126.1206, 1228.177
126.6027, 1258.222
127.0848, 1288.590
127.5669, 1327.963
128.0491, 1379.172
128.5312, 1436.576
129.0133, 1491.464
129.4954, 1544.080
129.9775, 1601.272
130.4596, 1674.258
130.9418, 1757.141
131.4239, 1828.595
131.9060, 1881.460
132.3881, 1923.743
132.8702, 1971.906
133.3523, 2026.254
133.8345, 2085.030
134.3166, 2152.204
134.7987, 2228.068
135.2808, 2289.131
135.7629, 2327.062
136.2450, 2347.230
136.7272, 2376.257
137.2093, 2416.651
137.6914, 2458.673
138.1735, 2490.642
138.6556, 2509.735
139.1377, 2533.168
139.6199, 2569.740
140.1020, 2619.010
140.5841, 2647.903
141.0662, 2648.221
141.5483, 2638.754
142.0304, 2643.108
142.5126, 2665.229
142.9947, 2691.172
143.4768, 2710.492
143.9589, 2718.688
144.4410, 2719.162
144.9231, 2706.720
145.4053, 2690.259
145.8874, 2683.842
146.3695, 2695.034
146.8516, 2705.432
147.3337, 2708.580
147.8158, 2699.579
148.2980, 2696.478
148.7801, 2702.897
149.2622, 2714.468
149.7443, 2722.258
150.2264, 2725.015
150.7085, 2725.389
151.1907, 2723.969
151.6728, 2718.071
152.1549, 2714.763
152.6370, 2715.916
153.1191, 2719.736
153.6012, 2721.842
154.0834, 2723.006
154.5655, 2721.495
155.0476, 2716.373
155.5297, 2704.590
156.0118, 2693.250
156.4939, 2684.284
156.9761, 2676.648
157.4582, 2667.170
157.9403, 2647.800
158.4224, 2631.048
158.9045, 2624.410
159.3866, 2639.365
159.8688, 2653.005
160.3509, 2657.954
160.8330, 2655.914
161.3151, 2654.645
161.7972, 2657.825
162.2793, 2662.408
162.7615, 2666.094
163.2436, 2670.347
163.7257, 2671.640
164.2078, 2665.303
164.6899, 2652.815
165.1720, 2644.817
165.6541, 2653.513
166.1363, 2666.452
166.6184, 2671.349
167.1005, 2656.918
167.5826, 2638.841
168.0647, 2626.411
168.5468, 2619.288
169.0290, 2612.885
169.5111, 2605.406
169.9932, 2596.712
170.4753, 2586.575
170.9574, 2575.318
171.4395, 2562.494
171.9217, 2546.056
172.4038, 2526.057
172.8859, 2508.061
173.3680, 2497.690
173.8501, 2492.199
174.3322, 2486.533
174.8144, 2478.698
175.2965, 2469.502
175.7786, 2461.233
176.2607, 2454.021
176.7428, 2443.714
177.2249, 2418.853
177.7071, 2387.223
178.1892, 2367.368
178.6713, 2380.783
179.1534, 2407.487
179.6355, 2413.080
180.1176, 2395.257
180.5998, 2369.217
181.0819, 2347.144
181.5640, 2329.272
182.0461, 2315.706
182.5282, 2308.945
183.0103, 2306.403
183.4925, 2301.623
183.9746, 2293.818
184.4567, 2286.759
184.9388, 2287.560
185.4209, 2294.643
185.9030, 2298.345
186.3852, 2292.939
186.8673, 2280.358
187.3494, 2266.034
187.8315, 2249.493
188.3136, 2233.942
188.7957, 2224.029
189.2779, 2219.524
189.7600, 2215.911
190.2421, 2211.396
190.7242, 2206.043
191.2063, 2199.690
191.6884, 2191.964
192.1706, 2184.183
192.6527, 2177.866
193.1348, 2173.013
193.6169, 2169.803
194.0990, 2170.565
194.5811, 2174.628
195.0633, 2171.533
195.5454, 2159.478
196.0275, 2142.724
196.5096, 2128.762
196.9917, 2117.552
197.4738, 2108.601
197.9560, 2102.028
198.4381, 2097.871
198.9202, 2094.543
199.4023, 2091.954
199.8844, 2090.345
200.3665, 2091.527
200.8487, 2096.515
201.3308, 2098.587
201.8129, 2092.813
202.2950, 2078.406
202.7771, 2066.744
203.2592, 2058.227
203.7414, 2052.496
204.2235, 2049.587
204.7056, 2050.507
205.1877, 2050.364
205.6698, 2045.864
206.1519, 2035.974
206.6341, 2028.267
207.1162, 2023.211
207.5983, 2020.287
208.0804, 2018.951
208.5625, 2019.919
209.0446, 2020.269
209.5268, 2018.086
210.0089, 2012.490
210.4910, 2008.938
210.9731, 2008.783
211.4552, 2009.937
211.9373, 2006.920
212.4195, 1998.179
212.9016, 1989.342
213.3837, 1982.692
213.8658, 1977.934
214.3479, 1976.791
214.8300, 1980.508
215.3121, 1987.135
215.7943, 1992.247
216.2764, 1996.133
216.7585, 1997.742
217.2406, 1995.795
217.7227, 1988.256
218.2048, 1983.650
218.6870, 1982.313
219.1691, 1983.745
219.6512, 1987.696
220.1333, 1997.187
220.6154, 2003.571
221.0975, 2002.019
221.5797, 1988.035
222.0618, 1979.862
222.5439, 1980.961
223.0260, 1986.298
223.5081, 1983.583
223.9902, 1967.512
224.4724, 1952.786
224.9545, 1946.309
225.4366, 1951.519
225.9187, 1954.803
226.4008, 1955.408
226.8829, 1954.507
227.3651, 1954.604
227.8472, 1956.169
228.3293, 1957.933
228.8114, 1959.081
229.2935, 1958.551
229.7757, 1961.135
230.2578, 1970.364
230.7399, 1980.920
231.2220, 1981.132
231.7041, 1962.736
232.1862, 1947.206
232.6684, 1943.768
233.1505, 1958.572
233.6326, 1964.822
234.1147, 1957.159
234.5968, 1943.821
235.0789, 1940.683
235.5611, 1954.747
236.0432, 1967.661
236.5253, 1973.440
237.0074, 1970.464
237.4895, 1965.761
237.9716, 1958.207
238.4538, 1949.633
238.9359, 1942.817
239.4180, 1937.251
239.9001, 1934.255
240.3822, 1935.110
240.8643, 1941.306
241.3465, 1944.122
241.8286, 1941.365
242.3107, 1936.761
242.7928, 1935.958
243.2749, 1941.885
243.7570, 1946.515
244.2392, 1947.339
244.7213, 1943.632
245.2034, 1940.458
245.6855, 1937.863
246.1676, 1935.749
246.6497, 1934.385
247.1319, 1935.691
247.6140, 1934.080
248.0961, 1925.920
248.5782, 1909.448
249.0603, 1903.833
249.5424, 1914.254
250.0246, 1930.563
250.5067, 1942.032
250.9888, 1947.644
251.4709, 1950.333
251.9530, 1949.892
252.4351, 1946.083
252.9173, 1943.703
253.3994, 1943.242
253.8815, 1943.500
254.3636, 1942.921
254.8457, 1939.788
255.3278, 1939.690
255.8100, 1945.179
256.2921, 1955.996
256.7742, 1961.373
257.2563, 1958.525
257.7384, 1953.972
258.2205, 1953.240
258.7026, 1957.457
259.1848, 1963.116
259.6669, 1971.793
260.1490, 1982.359
260.6311, 1982.745
261.1132, 1967.206
261.5953, 1950.965
262.0775, 1946.226
262.5596, 1957.177
263.0417, 1967.598
263.5238, 1977.100
264.0059, 1984.694
264.4880, 1984.786
264.9702, 1973.888
265.4523, 1962.189
265.9344, 1956.044
266.4165, 1956.246
266.8986, 1959.060
267.3807, 1965.060
267.8629, 1973.169
268.3450, 1980.606
268.8271, 1988.563
269.3092, 1993.152
269.7913, 1990.146
270.2734, 1976.413
270.7556, 1971.873
271.2377, 1981.150
271.7198, 1997.150
272.2019, 2001.848
272.6840, 1991.682
273.1661, 1982.618
273.6483, 1982.913
274.1304, 1993.727
274.6125, 2004.047
275.0946, 2013.093
275.5767, 2022.337
276.0588, 2036.510
276.5410, 2057.614
277.0231, 2072.682
277.5052, 2071.572
277.9873, 2053.764
278.4694, 2050.915
278.9515, 2066.448
279.4337, 2089.529
279.9158, 2105.084
280.3979, 2112.391
280.8800, 2119.171
281.3621, 2129.051
281.8442, 2141.299
282.3264, 2147.506
282.8085, 2146.533
283.2906, 2143.613
283.7727, 2144.253
284.2548, 2148.493
284.7369, 2155.094
285.2191, 2164.112
285.7012, 2175.173
286.1833, 2187.965
286.6654, 2202.938
287.1475, 2216.761
287.6296, 2225.272
288.1118, 2228.998
288.5939, 2232.627
289.0760, 2236.235
289.5581, 2241.126
290.0402, 2251.908
290.5223, 2268.792
291.0045, 2286.141
291.4866, 2299.222
291.9687, 2308.949
292.4508, 2319.463
292.9329, 2331.223
293.4150, 2344.626
293.8972, 2362.863
294.3793, 2385.368
294.8614, 2405.360
295.3435, 2414.596
295.8256, 2417.574
296.3077, 2427.344
296.7899, 2446.524
297.2720, 2469.562
297.7541, 2489.707
298.2362, 2507.165
298.7183, 2523.257
299.2004, 2538.448
299.6826, 2552.710
300.1647, 2565.784
300.6468, 2577.244
301.1289, 2589.345
301.6110, 2604.401
302.0931, 2621.922
302.5753, 2641.140
303.0574, 2663.651
303.5395, 2686.658
304.0216, 2705.552
304.5037, 2720.335
304.9858, 2734.359
305.4680, 2751.441
305.9501, 2769.642
306.4322, 2785.454
306.9143, 2792.975
307.3964, 2801.158
307.8785, 2821.664
308.3607, 2852.993
308.8428, 2881.402
309.3249, 2891.923
309.8070, 2896.518
310.2891, 2909.406
310.7712, 2938.213
311.2534, 2971.886
311.7355, 3005.558
312.2176, 3038.649
312.6997, 3067.976
313.1818, 3087.649
313.6639, 3104.801
314.1461, 3124.317
314.6282, 3144.699
315.1103, 3172.701
315.5924, 3214.210
316.0745, 3265.558
316.5566, 3319.910
317.0388, 3375.012
317.5209, 3431.434
318.0030, 3488.747
318.4851, 3545.352
318.9672, 3609.361
319.4493, 3684.467
319.9315, 3768.028
320.4136, 3857.675
320.8957, 3952.657
321.3778, 4052.876
321.8599, 4159.741
322.3420, 4273.589
322.8242, 4390.242
323.3063, 4504.500
323.7884, 4623.241
324.2705, 4752.458
324.7526, 4896.819
325.2347, 5048.996
325.7169, 5203.623
326.1990, 5362.338
326.6811, 5531.241
327.1632, 5720.799
327.6453, 5913.809
328.1274, 6100.618
328.6096, 6267.991
329.0917, 6446.555
329.5738, 6641.956
330.0559, 6848.065
330.5380, 7048.675
331.0201, 7241.272
331.5023, 7431.134
331.9844, 7620.787
332.4665, 7807.669
332.9486, 7996.970
333.4307, 8189.468
333.9128, 8383.118
334.3950, 8570.289
334.8771, 8751.395
335.3592, 8928.523
335.8413, 9102.986
336.3234, 9277.209
336.8055, 9431.984
337.2877, 9561.604
337.7698, 9677.415
338.2519, 9796.078
338.7340, 9922.221
339.2161, 10029.75
339.6982, 10113.56
340.1803, 10174.02
340.6624, 10208.58
341.1446, 10217.18
341.6267, 10201.13
342.1088, 10161.60
342.5909, 10099.07
343.0730, 10010.88
343.5551, 9897.013
344.0373, 9757.740
344.5194, 9593.924
345.0015, 9403.631
345.4836, 9199.363
345.9657, 8982.480
346.4478, 8755.743
346.9300, 8533.510
347.4121, 8313.550
347.8942, 8102.450
348.3763, 7903.112
348.8584, 7716.827
349.3405, 7545.502
349.8227, 7390.026
350.3048, 7250.191
350.7869, 7129.206
351.2690, 7027.878
351.7511, 6932.450
352.2332, 6826.383
352.7154, 6718.005
353.1975, 6626.071
353.6796, 6564.028
354.1617, 6513.048
354.6438, 6451.905
355.1259, 6382.396
355.6081, 6314.896
356.0902, 6264.082
356.5723, 6214.789
357.0544, 6146.706
357.5365, 6049.447
358.0186, 5949.510
358.5008, 5868.744
358.9829, 5798.917
359.4650, 5722.375
359.9471, 5624.884
360.4292, 5522.649
360.9113, 5423.780
361.3935, 5329.574
361.8756, 5242.885
362.3577, 5164.559
362.8398, 5094.779
363.3219, 5033.743
363.8040, 4984.952
364.2862, 4941.700
364.7683, 4902.634
365.2504, 4867.500
365.7325, 4835.395
366.2146, 4804.843
366.6967, 4777.804
367.1789, 4755.491
367.6610, 4740.364
368.1431, 4727.193
368.6252, 4715.278
369.1073, 4704.935
369.5894, 4697.249
370.0716, 4693.446
370.5537, 4690.939
371.0358, 4688.657
371.5179, 4685.977
372.0000, 4685.226
372.4821, 4685.694
372.9643, 4688.499
373.4464, 4695.066
373.9285, 4705.149
374.4106, 4719.370
374.8927, 4738.469
375.3748, 4762.372
375.8570, 4785.805
376.3391, 4805.595
376.8212, 4831.773
377.3033, 4874.399
377.7854, 4934.902
378.2675, 5000.812
378.7497, 5073.943
379.2318, 5148.797
379.7139, 5216.035
380.1960, 5275.659
380.6781, 5321.674
381.1602, 5347.913
381.6424, 5356.165
382.1245, 5356.917
382.6066, 5350.454
383.0887, 5337.782
383.5708, 5315.751
384.0529, 5287.000
384.5351, 5262.929
385.0172, 5245.149
385.4993, 5236.662
385.9814, 5245.124
386.4635, 5269.935
386.9456, 5300.299
387.4278, 5333.773
387.9099, 5365.287
388.3920, 5388.249
388.8741, 5404.378
389.3562, 5404.802
389.8383, 5381.611
390.3205, 5336.441
390.8026, 5274.487
391.2847, 5193.226
391.7668, 5099.970
392.2489, 4997.962
392.7310, 4887.295
393.2132, 4772.192
393.6953, 4655.007
394.1774, 4535.976
394.6595, 4414.353
395.1416, 4285.490
395.6237, 4159.645
396.1059, 4039.165
396.5880, 3924.311
397.0701, 3816.503
397.5522, 3714.240
398.0343, 3621.484
398.5164, 3540.982
398.9986, 3481.896
399.4807, 3423.567
399.9628, 3363.155
400.4449, 3303.187
400.9270, 3249.109
401.4091, 3200.873
401.8913, 3159.426
402.3734, 3126.318
402.8555, 3103.150
403.3376, 3079.403
403.8197, 3055.236
404.3018, 3030.261
404.7840, 3004.335
405.2661, 2977.775
405.7482, 2948.374
406.2303, 2914.027
406.7124, 2876.739
407.1945, 2844.533
407.6767, 2818.401
408.1588, 2792.296
408.6409, 2762.656
409.1230, 2729.576
409.6051, 2691.674
410.0872, 2646.818
410.5694, 2602.146
411.0515, 2569.598
411.5336, 2547.789
412.0157, 2529.100
412.4978, 2512.763
412.9799, 2496.563
413.4621, 2474.955
413.9442, 2447.898
414.4263, 2420.664
414.9084, 2395.889
415.3905, 2373.985
415.8727, 2355.572
416.3548, 2342.459
416.8369, 2330.088
417.3190, 2313.327
417.8011, 2294.105
418.2832, 2277.251
418.7654, 2268.554
419.2475, 2260.844
419.7296, 2248.815
420.2117, 2231.035
420.6938, 2213.615
421.1759, 2199.580
421.6581, 2186.900
422.1402, 2173.252
422.6223, 2155.479
423.1044, 2139.559
423.5865, 2127.258
424.0686, 2118.375
424.5508, 2110.746
425.0329, 2106.061
425.5150, 2101.171
425.9971, 2094.580
426.4792, 2085.130
426.9613, 2076.574
427.4435, 2070.111
427.9256, 2063.971
428.4077, 2054.916
428.8898, 2040.689
429.3719, 2028.453
429.8540, 2020.802
430.3362, 2017.317
430.8183, 2010.876
431.3004, 2000.424
431.7825, 1990.148
432.2646, 1982.759
432.7467, 1978.253
433.2289, 1979.365
433.7110, 1989.060
434.1931, 1999.927
434.6752, 1995.955
435.1573, 1978.440
435.6394, 1961.693
436.1216, 1953.017
436.6036, 1950.368
437.0858, 1950.392
437.5679, 1953.082
438.0500, 1955.623
438.5321, 1956.795
439.0142, 1955.913
439.4963, 1951.451
439.9785, 1940.720
440.4606, 1929.394
440.9427, 1921.228
441.4248, 1916.116
441.9069, 1913.866
442.3890, 1917.653
442.8712, 1921.983
443.3533, 1923.277
443.8354, 1920.769
444.3175, 1917.070
444.7996, 1911.026
445.2817, 1905.093
445.7639, 1901.783
446.2460, 1904.617
446.7281, 1906.691
447.2102, 1907.112
447.6923, 1905.793
448.1744, 1902.323
448.6566, 1893.634
449.1387, 1885.929
449.6208, 1882.271
450.1029, 1884.400
450.5850, 1885.065
451.0671, 1883.460
451.5493, 1881.204
452.0314, 1881.360
452.5135, 1885.175
452.9956, 1885.740
453.4777, 1879.797
453.9598, 1869.472
454.4420, 1864.980
454.9241, 1867.073
455.4062, 1868.513
455.8883, 1862.225
456.3704, 1850.255
456.8525, 1842.062
457.3347, 1839.125
457.8168, 1838.879
458.2989, 1839.458
458.7810, 1840.391
459.2631, 1840.267
459.7452, 1836.983
460.2274, 1833.225
460.7095, 1832.802
461.1916, 1835.202
461.6737, 1836.523
462.1558, 1833.917
462.6379, 1829.398
463.1201, 1823.926
463.6022, 1815.134
464.0843, 1811.399
464.5664, 1822.776
465.0485, 1840.064
465.5306, 1848.589
466.0128, 1838.319
466.4949, 1825.371
466.9770, 1813.495
467.4591, 1802.846
467.9412, 1793.895
468.4233, 1784.780
468.9055, 1778.888
469.3876, 1778.778
469.8697, 1789.161
470.3518, 1794.800
470.8339, 1793.516
471.3160, 1788.744
471.7982, 1787.004
472.2803, 1789.039
472.7624, 1791.241
473.2445, 1792.716
473.7266, 1793.374
474.2087, 1792.070
474.6909, 1788.533
475.1730, 1785.220
475.6551, 1784.684
476.1372, 1786.252
476.6193, 1786.700
477.1014, 1784.871
477.5836, 1783.872
478.0657, 1789.583
478.5478, 1799.582
479.0299, 1806.846
479.5120, 1807.252
479.9941, 1804.063
480.4763, 1798.966
480.9584, 1792.341
481.4405, 1787.353
481.9226, 1782.632
482.4047, 1782.095
482.8868, 1790.259
483.3690, 1814.100
483.8511, 1833.762
484.3332, 1842.567
484.8153, 1843.860
485.2974, 1843.285
485.7795, 1836.511
486.2617, 1833.430
486.7438, 1837.854
487.2259, 1849.623
487.7080, 1857.760
488.1901, 1860.828
488.6722, 1862.244
489.1544, 1863.969
489.6365, 1866.092
490.1186, 1867.915
490.6007, 1868.843
491.0828, 1870.321
491.5649, 1875.908
492.0471, 1885.851
492.5292, 1892.955
493.0113, 1893.570
493.4934, 1890.284
493.9755, 1890.809
494.4576, 1894.908
494.9398, 1897.820
495.4219, 1897.317
495.9040, 1892.860
496.3861, 1882.508
496.8682, 1865.054
497.3503, 1846.645
497.8325, 1831.623
498.3146, 1819.062
498.7967, 1807.220
499.2788, 1796.726
499.7609, 1785.778
500.2430, 1772.327
500.7252, 1757.360
501.2073, 1744.839
501.6894, 1739.011
502.1715, 1733.642
502.6536, 1724.933
503.1357, 1709.687
503.6179, 1699.808
504.1000, 1699.401
504.5821, 1701.908
505.0642, 1700.868
505.5463, 1695.061
506.0284, 1688.215
506.5106, 1680.248
506.9927, 1671.804
507.4748, 1664.587
507.9569, 1658.230
508.4390, 1654.765
508.9211, 1657.235
509.4033, 1664.476
509.8854, 1666.285
510.3675, 1662.240
510.8496, 1656.277
511.3317, 1652.180
511.8138, 1649.236
512.2960, 1645.266
512.7781, 1638.797
513.2602, 1633.100
513.7423, 1632.132
514.2244, 1634.650
514.7065, 1637.613
515.1887, 1640.581
515.6708, 1642.722
516.1529, 1642.485
516.6350, 1639.994
517.1171, 1639.540
517.5992, 1646.418
518.0814, 1653.316
518.5635, 1655.044
519.0456, 1644.512
519.5277, 1639.615
520.0098, 1645.835
520.4919, 1656.142
520.9741, 1660.092
521.4562, 1655.318
521.9383, 1648.667
522.4204, 1640.691
522.9025, 1631.922
523.3846, 1625.224
523.8668, 1620.168
524.3489, 1619.138
524.8310, 1625.744
525.3131, 1638.855
525.7952, 1648.226
526.2773, 1653.194
526.7595, 1656.054
527.2416, 1659.379
527.7237, 1662.629
528.2058, 1664.318
528.6879, 1663.243
529.1700, 1661.530
529.6522, 1660.647
530.1343, 1660.761
530.6164, 1662.312
531.0985, 1668.396
531.5806, 1673.746
532.0627, 1674.932
532.5449, 1671.568
533.0270, 1666.740
533.5091, 1659.061
533.9912, 1651.612
534.4733, 1646.710
534.9554, 1647.868
535.4376, 1646.687
535.9197, 1642.217
536.4018, 1635.851
536.8839, 1629.790
537.3660, 1623.288
537.8481, 1619.085
538.3303, 1618.849
538.8124, 1621.464
539.2945, 1621.231
539.7766, 1618.125
540.2587, 1612.409
540.7408, 1603.431
541.2230, 1591.863
541.7051, 1578.978
542.1872, 1564.227
542.6693, 1553.512
543.1514, 1557.801
543.6335, 1569.475
544.1157, 1574.161
544.5978, 1563.573
545.0799, 1550.233
545.5620, 1541.226
546.0441, 1536.155
546.5262, 1534.032
547.0084, 1539.329
547.4905, 1543.099
547.9726, 1539.794
548.4547, 1528.325
548.9368, 1521.498
549.4189, 1525.233
549.9011, 1529.948
550.3832, 1529.881
550.8653, 1521.664
551.3474, 1516.516
551.8295, 1515.204
552.3116, 1516.262
552.7938, 1518.078
553.2759, 1520.817
553.7580, 1522.701
554.2401, 1523.365
554.7222, 1522.793
555.2043, 1520.122
555.6865, 1515.630
556.1686, 1512.065
556.6507, 1512.179
557.1328, 1513.897
557.6149, 1513.688
558.0970, 1511.358
558.5792, 1509.636
559.0613, 1512.273
559.5434, 1515.650
560.0255, 1515.798
560.5076, 1509.523
560.9897, 1504.103
561.4719, 1503.291
561.9540, 1504.546
562.4361, 1503.654
562.9182, 1497.016
563.4003, 1491.634
563.8824, 1489.161
564.3646, 1489.154
564.8467, 1488.425
565.3288, 1486.816
565.8109, 1484.724
566.2930, 1481.374
566.7751, 1476.581
567.2573, 1477.306
567.7394, 1484.796
568.2215, 1492.029
568.7036, 1489.093
569.1857, 1479.277
569.6678, 1475.822
570.1500, 1483.752
570.6321, 1493.334
571.1142, 1492.453
571.5963, 1484.643
572.0784, 1477.873
572.5605, 1476.110
573.0427, 1476.072
573.5248, 1476.322
574.0069, 1476.740
574.4890, 1476.806
574.9711, 1476.825
575.4532, 1476.102
575.9354, 1473.505
576.4175, 1467.172
576.8996, 1465.904
577.3817, 1474.281
577.8638, 1483.243
578.3459, 1483.652
578.8281, 1472.506
579.3102, 1465.143
579.7923, 1463.870
580.2744, 1466.115
580.7565, 1467.974
581.2386, 1469.359
581.7208, 1468.719
582.2029, 1463.855
582.6850, 1457.708
583.1671, 1456.197
