##NAMES=Hemimorphite
##RRUFFID=R040117
##IDEAL CHEMISTRY=Zn^2+^_4_Si_2_O_7_(OH)_2_&#183;H_2_O
##LOCALITY=Durango, Mexico
##OWNER=RRUFF
##SOURCE=University of Arizona Mineral Museum
##DESCRIPTION=Colorless thin tabular crystals in a sheaflike aggregate
##STATUS=The identification of this mineral has been confirmed by X-ray diffraction and chemical analysis
##URL=rruff.info/R040117
##MEASURED CHEMISTRY=Zn_4.05_Si_1.97_O_7_((OH)_0.99_F_0.01_)_2_Â·H_2_O
124.8763, 318.6148
125.3585, 351.6666
125.8406, 391.0905
126.3227, 438.0735
126.8048, 489.1946
127.2869, 540.3038
127.7690, 588.3549
128.2512, 636.0723
128.7333, 693.1033
129.2154, 767.8110
129.6975, 842.2949
130.1796, 912.8390
130.6617, 981.0759
131.1439, 1050.862
131.6260, 1125.849
132.1081, 1203.219
132.5902, 1260.568
133.0723, 1292.425
133.5544, 1307.845
134.0366, 1304.331
134.5187, 1285.281
135.0008, 1255.027
135.4829, 1216.042
135.9650, 1168.681
136.4471, 1119.438
136.9293, 1058.679
137.4114, 1006.012
137.8935, 970.8548
138.3756, 948.9737
138.8577, 928.9268
139.3398, 901.7008
139.8220, 867.1060
140.3041, 845.2389
140.7862, 840.4626
141.2683, 840.9216
141.7504, 842.3206
142.2325, 844.6343
142.7147, 849.1255
143.1968, 856.3270
143.6789, 866.5625
144.1610, 883.6856
144.6431, 909.3144
145.1252, 939.4162
145.6074, 974.4120
146.0895, 1013.107
146.5716, 1049.534
147.0537, 1077.642
147.5358, 1097.466
148.0179, 1124.246
148.5001, 1162.497
148.9822, 1204.151
149.4643, 1245.063
149.9464, 1284.970
150.4285, 1322.120
150.9106, 1355.839
151.3928, 1385.419
151.8749, 1409.784
152.3570, 1423.418
152.8391, 1435.060
153.3212, 1452.751
153.8033, 1477.095
154.2855, 1504.519
154.7676, 1533.710
155.2497, 1564.154
155.7318, 1593.224
156.2139, 1619.203
156.6960, 1644.260
157.1782, 1670.032
157.6603, 1696.203
158.1424, 1725.285
158.6245, 1757.125
159.1066, 1793.129
159.5887, 1838.674
160.0709, 1896.901
160.5530, 1964.685
161.0351, 2039.811
161.5172, 2124.384
161.9993, 2206.882
162.4814, 2271.803
162.9636, 2328.412
163.4457, 2395.990
163.9278, 2485.623
164.4099, 2588.687
164.8920, 2690.689
165.3741, 2792.968
165.8563, 2889.605
166.3384, 2977.757
166.8205, 3058.134
167.3026, 3131.152
167.7847, 3203.206
168.2668, 3266.319
168.7490, 3303.265
169.2311, 3311.675
169.7132, 3297.578
170.1953, 3266.648
170.6774, 3217.768
171.1595, 3146.037
171.6417, 3044.788
172.1238, 2921.075
172.6059, 2791.153
173.0880, 2652.573
173.5701, 2512.149
174.0522, 2368.576
174.5344, 2224.998
175.0165, 2087.980
175.4986, 1959.343
175.9807, 1839.283
176.4628, 1726.632
176.9449, 1620.991
177.4271, 1524.528
177.9092, 1437.737
178.3913, 1359.172
178.8734, 1287.630
179.3555, 1222.421
179.8376, 1162.946
180.3197, 1106.567
180.8019, 1052.729
181.2840, 1003.598
181.7661, 957.7103
182.2482, 916.4026
182.7303, 882.5771
183.2124, 858.7969
183.6946, 841.4318
184.1767, 819.4177
184.6588, 787.8165
185.1409, 760.6526
185.6230, 741.6133
186.1051, 728.3163
186.5873, 717.9456
187.0694, 709.1945
187.5515, 702.6892
188.0336, 700.5059
188.5157, 706.0745
188.9978, 710.1675
189.4800, 708.3298
189.9621, 705.2071
190.4442, 706.1079
190.9263, 713.6166
191.4084, 724.8568
191.8905, 733.0155
192.3727, 737.5157
192.8548, 739.5856
193.3369, 738.9260
193.8190, 736.6792
194.3011, 733.8602
194.7832, 730.8680
195.2654, 727.5400
195.7475, 723.3463
196.2296, 716.9930
196.7117, 712.2408
197.1938, 710.8389
197.6759, 710.2657
198.1581, 707.8119
198.6402, 702.6357
199.1223, 696.9358
199.6044, 695.5596
200.0865, 703.3267
200.5686, 705.5142
201.0508, 693.9540
201.5329, 681.5436
202.0150, 679.7278
202.4971, 691.1751
202.9792, 708.0173
203.4613, 716.5391
203.9435, 709.1697
204.4256, 710.8023
204.9077, 729.7614
205.3898, 751.6498
205.8719, 765.9911
206.3540, 771.0933
206.8362, 773.4070
207.3183, 781.5481
207.8004, 796.6091
208.2825, 815.0527
208.7646, 838.6909
209.2467, 863.8166
209.7289, 889.7969
210.2110, 915.6259
210.6931, 939.0038
211.1752, 955.9826
211.6573, 963.0182
212.1395, 976.5287
212.6216, 1008.765
213.1037, 1036.617
213.5858, 1048.178
214.0679, 1043.793
214.5500, 1030.798
215.0322, 1014.733
215.5143, 994.2309
215.9964, 980.2798
216.4785, 983.9680
216.9606, 983.7997
217.4427, 969.7576
217.9249, 944.2114
218.4070, 915.3425
218.8891, 888.8021
219.3712, 864.4420
219.8533, 847.9810
220.3354, 850.9354
220.8176, 850.8972
221.2997, 840.4903
221.7818, 822.3737
222.2639, 802.6617
222.7460, 785.6713
223.2281, 770.9531
223.7103, 755.1276
224.1924, 734.5884
224.6745, 716.9503
225.1566, 704.4499
225.6387, 695.6459
226.1208, 688.6552
226.6030, 682.6487
227.0851, 677.1515
227.5672, 670.2209
228.0493, 661.8124
228.5314, 651.7043
229.0135, 637.3455
229.4957, 622.3382
229.9778, 611.2130
230.4599, 606.1131
230.9420, 604.5700
231.4241, 599.9968
231.9062, 587.9810
232.3884, 580.8441
232.8705, 582.6733
233.3526, 587.8860
233.8347, 592.6641
234.3168, 595.5670
234.7989, 595.7361
235.2811, 590.9488
235.7632, 578.0779
236.2453, 567.6282
236.7274, 561.5484
237.2095, 557.0272
237.6916, 551.9796
238.1738, 546.1171
238.6559, 540.8283
239.1380, 538.5002
239.6201, 540.6604
240.1022, 540.0344
240.5843, 533.3362
241.0665, 526.2882
241.5486, 521.7618
242.0307, 519.7039
242.5128, 518.1196
242.9949, 514.1134
243.4770, 507.0627
243.9592, 505.3021
244.4413, 518.5096
244.9234, 527.8343
245.4055, 523.1699
245.8876, 508.4149
246.3697, 494.3265
246.8519, 488.4456
247.3340, 490.0580
247.8161, 493.4030
248.2982, 502.0833
248.7803, 507.4565
249.2624, 504.5173
249.7446, 496.9851
250.2267, 490.8521
250.7088, 489.3871
251.1909, 491.2898
251.6730, 492.9844
252.1551, 494.7054
252.6373, 495.6939
253.1194, 495.3005
253.6015, 494.3110
254.0836, 493.1233
254.5657, 491.5485
255.0478, 491.1007
255.5300, 495.5386
256.0121, 507.0859
256.4942, 514.9717
256.9763, 514.0815
257.4584, 509.4209
257.9406, 502.3891
258.4227, 493.0533
258.9048, 487.0541
259.3869, 493.6312
259.8690, 513.6428
260.3511, 526.0154
260.8333, 520.2930
261.3154, 511.2872
261.7975, 509.3680
262.2796, 514.7940
262.7617, 522.6716
263.2438, 530.4911
263.7260, 538.1404
264.2081, 544.9973
264.6902, 551.4355
265.1723, 556.2516
265.6544, 557.9962
266.1365, 557.4501
266.6187, 557.1258
267.1008, 557.4091
267.5829, 558.8568
268.0650, 563.1320
268.5471, 570.9913
269.0292, 579.2968
269.5114, 587.1202
269.9935, 593.7904
270.4756, 597.5994
270.9577, 595.9945
271.4398, 593.0745
271.9219, 594.0297
272.4041, 598.9969
272.8862, 603.2957
273.3683, 605.0568
273.8504, 604.3039
274.3325, 601.5048
274.8146, 596.1192
275.2968, 589.6707
275.7789, 582.0522
276.2610, 573.9003
276.7431, 567.9067
277.2252, 565.3694
277.7073, 565.0198
278.1895, 565.0107
278.6716, 565.5881
279.1537, 565.4187
279.6358, 564.9763
280.1179, 563.2545
280.6000, 558.3166
281.0822, 549.5786
281.5643, 538.4380
282.0464, 524.8855
282.5285, 505.0737
283.0106, 503.9282
283.4927, 500.9478
283.9749, 496.2304
284.4570, 484.5789
284.9391, 481.8831
285.4212, 475.5980
285.9033, 469.1660
286.3854, 467.7303
286.8676, 457.0863
287.3497, 455.5718
287.8318, 450.4135
288.3139, 446.9225
288.7960, 439.8207
289.2781, 433.8339
289.7603, 431.4585
290.2424, 427.0843
290.7245, 419.5668
291.2066, 416.1819
291.6887, 405.4131
292.1708, 400.1906
292.6530, 398.4479
293.1351, 398.5309
293.6172, 399.2346
294.0993, 399.8149
294.5814, 398.9388
295.0635, 395.9105
295.5457, 392.5749
296.0278, 388.3860
296.5099, 384.3241
296.9920, 381.2921
297.4741, 379.2524
297.9562, 377.2872
298.4384, 374.0774
298.9205, 368.9583
299.4026, 367.3498
299.8847, 374.5504
300.3668, 379.8741
300.8489, 376.9519
301.3311, 369.2766
301.8131, 365.0251
302.2953, 370.3053
302.7774, 382.5546
303.2595, 388.4290
303.7416, 383.5031
304.2237, 378.3356
304.7058, 374.1018
305.1880, 371.2137
305.6701, 370.1662
306.1522, 371.1620
306.6343, 373.6629
307.1164, 377.2569
307.5985, 382.5873
308.0807, 386.5475
308.5628, 386.9852
309.0449, 386.9720
309.5270, 388.2702
310.0091, 391.0438
310.4912, 394.3439
310.9734, 396.6416
311.4555, 398.2550
311.9376, 402.8267
312.4197, 411.3914
312.9018, 422.0026
313.3839, 433.3099
313.8661, 445.4566
314.3482, 458.7480
314.8303, 473.2397
315.3124, 489.0053
315.7945, 506.8232
316.2766, 527.1559
316.7588, 546.5830
317.2409, 560.9614
317.7230, 573.9293
318.2051, 591.5300
318.6872, 615.4378
319.1693, 642.1852
319.6515, 669.3423
320.1336, 697.0345
320.6157, 726.0841
321.0978, 756.0432
321.5799, 788.3292
322.0620, 825.9811
322.5442, 868.6991
323.0263, 914.5002
323.5084, 960.4103
323.9905, 1010.300
324.4726, 1069.963
324.9547, 1140.600
325.4369, 1217.478
325.9190, 1297.076
326.4011, 1379.700
326.8832, 1461.612
327.3653, 1550.080
327.8474, 1631.694
328.3296, 1702.619
328.8117, 1760.990
329.2938, 1802.519
329.7759, 1824.585
330.2580, 1828.696
330.7401, 1820.833
331.2223, 1812.271
331.7044, 1777.282
332.1865, 1697.511
332.6686, 1596.993
333.1507, 1498.735
333.6328, 1410.637
334.1150, 1329.628
334.5971, 1250.073
335.0792, 1169.075
335.5613, 1098.952
336.0434, 1044.338
336.5255, 995.1718
337.0077, 947.0284
337.4898, 900.0457
337.9719, 856.1123
338.4540, 816.6277
338.9361, 781.6990
339.4182, 752.6482
339.9004, 733.2374
340.3825, 714.7328
340.8646, 693.2696
341.3467, 671.4485
341.8288, 652.3802
342.3109, 637.0515
342.7931, 625.3115
343.2752, 618.5140
343.7573, 617.7780
344.2394, 613.8265
344.7215, 602.2246
345.2036, 588.2163
345.6858, 574.7390
346.1679, 562.0896
346.6500, 552.5936
347.1321, 550.7181
347.6142, 553.0804
348.0963, 548.7841
348.5785, 534.2687
349.0606, 520.8820
349.5427, 519.7526
350.0248, 527.2112
350.5069, 532.7192
350.9890, 535.2642
351.4712, 534.5631
351.9533, 528.2348
352.4354, 517.5668
352.9175, 509.2321
353.3996, 506.5104
353.8817, 507.8950
354.3639, 509.8769
354.8460, 513.0259
355.3281, 515.4617
355.8102, 516.7700
356.2923, 517.1420
356.7744, 516.6689
357.2566, 515.3990
357.7387, 513.5129
358.2208, 511.0035
358.7029, 507.4492
359.1850, 505.7807
359.6671, 507.3705
360.1493, 509.1848
360.6314, 509.2313
361.1135, 508.4578
361.5956, 508.8740
362.0777, 511.6089
362.5598, 516.6259
363.0420, 524.4272
363.5241, 541.2478
364.0062, 550.3597
364.4883, 544.5144
364.9704, 534.4009
365.4525, 528.1293
365.9347, 527.7235
366.4168, 531.2274
366.8989, 537.4849
367.3810, 546.7917
367.8631, 554.7992
368.3452, 561.9893
368.8274, 566.8978
369.3095, 566.7225
369.7916, 563.8882
370.2737, 564.1174
370.7558, 570.5334
371.2379, 581.1664
371.7201, 593.8527
372.2022, 608.9985
372.6843, 622.1176
373.1664, 631.1329
373.6485, 636.8697
374.1306, 640.3447
374.6128, 640.5663
375.0949, 642.1778
375.5770, 648.8314
376.0591, 658.3469
376.5412, 665.9897
377.0233, 670.5692
377.5055, 675.0907
377.9876, 682.9393
378.4697, 694.5365
378.9518, 704.7425
379.4339, 711.8795
379.9160, 719.0381
380.3982, 728.9188
380.8803, 740.3947
381.3624, 750.1309
381.8445, 756.3123
382.3266, 759.5954
382.8087, 761.9259
383.2909, 757.1685
383.7730, 759.9927
384.2551, 774.7532
384.7372, 794.4156
385.2193, 815.6194
385.7014, 836.5021
386.1836, 853.6280
386.6657, 861.5300
387.1478, 859.2462
387.6299, 866.0503
388.1120, 893.7000
388.5941, 917.0019
389.0763, 924.2952
389.5584, 922.8357
390.0405, 923.7436
390.5226, 931.5697
391.0047, 944.4645
391.4868, 961.3275
391.9690, 982.8662
392.4511, 1000.924
392.9332, 1011.947
393.4153, 1019.630
393.8974, 1026.962
394.3795, 1034.069
394.8617, 1041.973
395.3438, 1052.480
395.8259, 1063.652
396.3080, 1072.111
396.7901, 1077.458
397.2722, 1081.916
397.7544, 1087.930
398.2365, 1094.204
398.7186, 1095.099
399.2007, 1084.045
399.6828, 1075.077
400.1649, 1074.845
400.6471, 1079.987
401.1292, 1086.000
401.6113, 1091.453
402.0934, 1094.536
402.5755, 1092.426
403.0576, 1083.542
403.5398, 1073.890
404.0219, 1066.257
404.5040, 1055.339
404.9861, 1034.832
405.4682, 1008.608
405.9503, 986.5670
406.4325, 975.4779
406.9146, 972.0032
407.3967, 965.0421
407.8788, 955.4825
408.3609, 940.2974
408.8430, 912.9216
409.3252, 884.0241
409.8073, 862.2994
410.2894, 848.9182
410.7715, 838.2190
411.2536, 827.7392
411.7357, 816.4738
412.2179, 798.0405
412.7000, 768.7265
413.1821, 740.3566
413.6642, 723.0905
414.1463, 712.5084
414.6284, 700.7422
415.1106, 685.5336
415.5927, 669.6326
416.0748, 655.6695
416.5569, 642.7212
417.0390, 627.5148
417.5211, 608.5614
418.0033, 588.4781
418.4854, 570.8800
418.9675, 555.8290
419.4496, 543.8008
419.9317, 537.1311
420.4138, 531.7175
420.8960, 525.3287
421.3781, 517.7339
421.8602, 509.1028
422.3423, 499.3874
422.8244, 488.9322
423.3065, 479.2119
423.7887, 469.9633
424.2708, 461.9382
424.7529, 455.0266
425.2350, 449.3400
425.7171, 445.8839
426.1992, 444.3206
426.6814, 442.0917
427.1635, 435.3256
427.6456, 424.6799
428.1277, 419.1175
428.6098, 420.8609
429.0919, 423.4761
429.5741, 424.3204
430.0562, 423.7240
430.5383, 421.8012
431.0204, 417.9148
431.5025, 414.1478
431.9846, 412.3808
432.4668, 412.1932
432.9489, 411.7057
433.4310, 410.0141
433.9131, 409.3451
434.3952, 412.3463
434.8773, 419.2631
435.3595, 428.1845
435.8416, 442.9281
436.3237, 456.1126
436.8058, 462.1940
437.2879, 462.9843
437.7701, 462.9710
438.2522, 464.2183
438.7343, 467.5836
439.2164, 475.1688
439.6985, 487.2081
440.1806, 503.4662
440.6628, 528.0472
441.1449, 553.0209
441.6270, 572.6484
442.1091, 587.5755
442.5912, 602.5432
443.0733, 620.7610
443.5555, 641.8307
444.0376, 664.7453
444.5197, 690.6459
445.0018, 715.1915
445.4839, 732.8873
445.9660, 750.6741
446.4482, 776.8670
446.9303, 813.4371
447.4124, 849.9074
447.8945, 878.9542
448.3766, 903.5649
448.8587, 930.1107
449.3409, 959.7278
449.8230, 988.9890
450.3051, 1016.775
450.7872, 1042.195
451.2693, 1059.087
451.7514, 1068.918
452.2336, 1069.358
452.7157, 1057.290
453.1978, 1036.161
453.6799, 1010.051
454.1620, 980.3479
454.6441, 947.3063
455.1263, 910.8646
455.6084, 870.4176
456.0905, 830.2750
456.5726, 790.8564
457.0547, 751.6735
457.5368, 712.3608
458.0190, 673.2635
458.5011, 634.5804
458.9832, 596.0759
459.4653, 559.3182
459.9474, 525.2841
460.4295, 494.0486
460.9117, 469.6104
461.3938, 455.8519
461.8759, 445.0026
462.3580, 429.8966
462.8401, 411.3600
463.3222, 393.4793
463.8044, 376.8161
464.2865, 361.5990
464.7686, 348.0866
465.2507, 336.2534
465.7328, 326.0406
466.2149, 317.4848
466.6971, 310.3654
467.1792, 304.5310
467.6613, 301.2872
468.1434, 296.4919
468.6255, 288.2247
469.1076, 280.0908
469.5898, 274.7145
470.0719, 271.5230
470.5540, 268.5461
471.0361, 264.6127
471.5182, 259.7958
472.0003, 253.8121
472.4825, 245.6197
472.9646, 239.2200
473.4467, 236.6699
473.9288, 235.4074
474.4109, 234.4030
474.8930, 233.3948
475.3752, 231.5234
475.8573, 227.5462
476.3394, 222.6957
476.8215, 218.8622
477.3036, 216.1014
477.7857, 214.7086
478.2679, 215.7648
478.7500, 217.5236
479.2321, 215.2507
479.7142, 207.0143
480.1963, 200.2995
480.6784, 195.8948
481.1606, 194.0401
481.6427, 197.5174
482.1248, 204.7055
482.6069, 208.0045
483.0890, 200.9476
483.5711, 186.1271
484.0533, 177.9229
484.5354, 179.5539
485.0175, 182.8697
485.4996, 189.4121
485.9817, 195.0541
486.4638, 196.0581
486.9460, 192.2990
487.4281, 186.9305
487.9102, 180.6165
488.3923, 174.6614
488.8744, 174.0562
489.3565, 179.8498
489.8387, 185.0984
490.3208, 186.1539
490.8029, 184.4797
491.2850, 183.3113
491.7671, 182.7342
492.2492, 182.3913
492.7314, 182.7373
493.2135, 182.9395
493.6956, 181.9450
494.1777, 179.7318
494.6598, 176.9287
495.1419, 173.8485
495.6241, 170.7047
496.1062, 168.7763
496.5883, 167.6411
497.0704, 168.5190
497.5525, 174.1242
498.0346, 179.9101
498.5168, 181.9272
498.9989, 179.9108
499.4810, 176.4563
499.9631, 173.0445
500.4452, 169.9238
500.9273, 168.2886
501.4095, 168.4503
501.8916, 168.8019
502.3737, 168.8392
502.8558, 168.5404
503.3379, 167.7741
503.8200, 166.3198
504.3022, 165.3392
504.7843, 165.3400
505.2664, 166.0043
505.7485, 167.4040
506.2306, 169.3087
506.7127, 170.5266
507.1949, 170.2152
507.6770, 168.6591
508.1591, 167.1016
508.6412, 165.4363
509.1233, 163.9236
509.6054, 162.2516
510.0876, 160.9741
510.5697, 160.6160
511.0518, 161.1000
511.5339, 161.9106
512.0161, 162.8102
512.4982, 163.6855
512.9803, 164.2502
513.4624, 164.5006
513.9445, 164.4230
514.4266, 163.9007
514.9088, 163.1283
515.3909, 162.2350
515.8730, 161.1687
516.3551, 160.5962
516.8372, 161.3028
517.3193, 162.1583
517.8015, 162.1017
518.2836, 161.2099
518.7657, 160.1441
519.2478, 159.2937
519.7299, 158.3098
520.2120, 156.2187
520.6942, 151.4809
521.1763, 148.6122
521.6584, 147.9226
522.1405, 148.5601
522.6226, 151.4404
523.1047, 155.2593
523.5869, 156.7936
524.0690, 153.6563
524.5511, 148.9775
525.0332, 148.3519
525.5153, 151.7481
525.9974, 153.9373
526.4796, 152.9923
526.9617, 151.6061
527.4438, 153.7384
527.9259, 158.7797
528.4080, 160.5698
528.8901, 154.8959
529.3723, 149.0540
529.8544, 147.4715
530.3365, 148.8121
530.8186, 150.3695
531.3007, 151.2115
531.7828, 152.0096
532.2650, 153.7223
532.7471, 156.5047
533.2292, 159.2823
533.7113, 162.0645
534.1934, 164.8481
534.6755, 168.2784
535.1577, 171.4599
535.6398, 172.9431
536.1219, 172.1730
536.6040, 171.0827
537.0861, 170.4644
537.5682, 170.9312
538.0504, 175.9771
538.5325, 186.8682
539.0146, 195.1533
539.4967, 192.6351
539.9788, 182.6588
540.4609, 181.9168
540.9431, 198.1769
541.4252, 211.9232
541.9073, 217.1111
542.3894, 219.3976
542.8715, 223.0957
543.3536, 229.3206
543.8358, 238.7068
544.3179, 252.5279
544.8000, 269.1783
545.2821, 280.4791
545.7642, 282.5273
546.2463, 289.9908
546.7285, 313.9981
547.2106, 339.2033
547.6927, 351.2763
548.1748, 351.1903
548.6569, 355.6450
549.1390, 376.8466
549.6211, 402.6498
550.1032, 419.1043
550.5853, 427.9582
551.0674, 437.3052
551.5496, 450.3318
552.0317, 466.3015
552.5138, 484.9467
552.9959, 509.7881
553.4780, 525.2152
553.9601, 528.5833
554.4423, 526.9078
554.9244, 521.8475
555.4065, 513.9678
555.8886, 504.2206
556.3707, 492.9738
556.8528, 478.1087
557.3350, 455.1173
557.8171, 425.1944
558.2992, 397.7219
558.7813, 373.1647
559.2634, 352.3745
559.7455, 337.1355
560.2277, 326.0990
560.7098, 314.4643
561.1919, 300.8071
561.6740, 288.9131
562.1561, 281.6652
562.6382, 275.7383
563.1204, 266.6162
563.6025, 254.6609
564.0846, 244.3251
564.5667, 238.9000
565.0488, 237.3578
565.5309, 235.6371
566.0131, 233.6763
566.4952, 231.7013
566.9773, 230.5971
567.4594, 228.7570
567.9415, 224.7324
568.4236, 218.9038
568.9058, 213.1691
569.3879, 207.9257
569.8700, 203.4541
570.3521, 200.3323
570.8342, 198.2274
571.3163, 196.2344
571.7985, 194.1492
572.2806, 191.2683
572.7627, 186.3544
573.2448, 178.8592
573.7269, 174.4355
574.2090, 175.9978
574.6912, 176.9349
575.1733, 175.2892
575.6554, 172.3288
576.1375, 169.2067
576.6196, 166.2986
577.1017, 164.0493
577.5839, 163.0751
578.0660, 163.0758
578.5481, 163.3471
579.0302, 164.0250
579.5123, 163.4490
579.9944, 159.8512
580.4766, 155.4469
580.9587, 155.3187
581.4408, 161.0315
581.9229, 163.7549
582.4050, 159.5502
582.8871, 154.4574
583.3693, 153.4075
583.8514, 154.5656
584.3335, 152.6452
584.8156, 145.2011
585.2977, 136.5121
585.7798, 133.8638
586.2620, 137.8665
586.7441, 141.0222
587.2262, 143.5068
587.7083, 144.2580
588.1904, 140.5725
588.6725, 135.3206
589.1547, 133.5485
589.6368, 137.1700
590.1189, 140.9519
590.6010, 143.0273
591.0831, 143.4979
591.5652, 142.1132
592.0474, 139.1078
592.5295, 135.4225
593.0116, 131.5854
593.4937, 127.8105
593.9758, 124.4292
594.4579, 120.2438
594.9401, 119.3439
595.4222, 125.9831
595.9043, 132.4535
596.3864, 134.9195
596.8685, 134.1279
597.3506, 132.2253
597.8328, 129.2946
598.3149, 126.8937
598.7970, 126.9782
599.2791, 128.6410
599.7612, 129.3520
600.2433, 128.6224
600.7255, 128.0527
601.2076, 129.1525
601.6897, 131.6128
602.1718, 132.9227
602.6539, 133.3398
603.1360, 132.1206
603.6182, 127.0272
604.1003, 122.0240
604.5824, 120.9321
605.0645, 122.9589
605.5466, 123.6051
606.0287, 118.7145
606.5109, 113.1856
606.9930, 116.4646
607.4751, 127.0732
607.9572, 132.4511
608.4393, 128.5301
608.9214, 122.5682
609.4036, 122.2902
609.8857, 127.7219
610.3678, 129.1291
610.8499, 122.6986
611.3320, 117.4768
611.8141, 115.7048
612.2963, 116.0322
612.7784, 117.5920
613.2605, 119.9295
613.7426, 122.2910
614.2247, 124.3402
614.7068, 125.8180
615.1890, 125.9998
615.6711, 124.8559
616.1532, 122.8041
616.6353, 119.1965
617.1174, 116.1341
617.5995, 116.7346
618.0817, 121.0911
618.5638, 123.0830
619.0459, 119.3379
619.5280, 116.8188
620.0101, 119.6949
