##NAMES=Henmilite
##RRUFFID=R060257
##IDEAL CHEMISTRY=Ca_2_Cu^2+^[B(OH)_4_]_2_(OH)_4_
##LOCALITY=Fuka mine, Okayama Prefecture, Honshu Island, Japan
##OWNER=RRUFF
##SOURCE=Michael Scott
##DESCRIPTION=Deep blue prismatic pinacoidal crystals with a melted looking exterior
##STATUS=The identification of this mineral is confirmed by single-crystal X-ray diffraction and chemical analysis.
##URL=rruff.info/R060257
##MEASURED CHEMISTRY=Ca_1.94_Cu_1.06_[B(OH)_4_]_2_(OH)_4_ ; B, H not measured but assumed by stoichiometry
89.60352, 19.52766
90.08563, 18.33854
90.56775, 18.22237
91.04987, 20.40338
91.53198, 22.52616
92.01410, 20.30511
92.49622, 14.00523
92.97833, 8.702256
93.46045, 11.01737
93.94257, 18.65353
94.42468, 23.62436
94.90680, 20.38856
95.38892, 12.34920
95.87103, 11.20514
96.35315, 18.20971
96.83527, 27.12396
97.31738, 29.07254
97.79950, 23.83612
98.28162, 18.87942
98.76373, 18.34579
99.24585, 22.40920
99.72797, 24.11042
100.2101, 22.63463
100.6922, 19.34181
101.1743, 17.24972
101.6564, 16.39287
102.1385, 16.59173
102.6207, 18.26451
103.1028, 22.49719
103.5849, 24.58324
104.0670, 23.06172
104.5491, 18.64099
105.0313, 16.98829
105.5134, 20.14392
105.9955, 23.93774
106.4776, 24.99085
106.9597, 20.22171
107.4418, 17.09672
107.9240, 17.61118
108.4061, 22.52443
108.8882, 25.15210
109.3703, 23.32116
109.8524, 20.01994
110.3345, 18.41776
110.8167, 22.15754
111.2988, 24.31303
111.7809, 22.37442
112.2630, 13.99381
112.7451, 8.121737
113.2272, 7.319613
113.7094, 9.606493
114.1915, 11.70665
114.6736, 12.76907
115.1557, 13.52841
115.6378, 14.38939
116.1199, 15.77613
116.6021, 16.66443
117.0842, 16.69955
117.5663, 15.96440
118.0484, 14.70818
118.5305, 11.49717
119.0126, 8.537546
119.4948, 7.763145
119.9769, 11.59417
120.4590, 15.85850
120.9411, 17.77854
121.4232, 17.60798
121.9053, 17.13928
122.3875, 16.89773
122.8696, 17.17928
123.3517, 18.39485
123.8338, 22.88090
124.3159, 27.27522
124.7980, 26.61323
125.2802, 20.68042
125.7623, 15.43193
126.2444, 17.81861
126.7265, 25.39003
127.2086, 31.61426
127.6907, 31.06415
128.1729, 27.42252
128.6550, 28.66413
129.1371, 35.94816
129.6192, 45.14132
130.1013, 51.28164
130.5834, 54.55360
131.0656, 56.89266
131.5477, 59.06684
132.0298, 61.11617
132.5119, 63.37737
132.9940, 66.13274
133.4761, 68.73625
133.9583, 69.67381
134.4404, 68.79613
134.9225, 67.91762
135.4046, 68.07741
135.8867, 69.26814
136.3688, 71.73318
136.8510, 75.96325
137.3331, 81.33012
137.8152, 85.55571
138.2973, 88.26011
138.7794, 90.90260
139.2615, 94.69709
139.7437, 99.70372
140.2258, 105.3363
140.7079, 110.9808
141.1900, 116.7604
141.6721, 126.6388
142.1542, 142.9685
142.6364, 160.2794
143.1185, 171.8962
143.6006, 173.4626
144.0827, 178.0299
144.5648, 190.4098
145.0469, 213.5347
145.5291, 228.0034
146.0112, 229.6472
146.4933, 225.1829
146.9754, 224.3923
147.4575, 232.7046
147.9396, 238.1622
148.4218, 237.6305
148.9039, 230.4837
149.3860, 218.6942
149.8681, 197.3407
150.3502, 171.9505
150.8323, 153.5202
151.3145, 145.8508
151.7966, 142.0813
152.2787, 140.0325
152.7608, 139.8667
153.2429, 141.1331
153.7250, 144.8736
154.2072, 150.1752
154.6893, 154.4785
155.1714, 154.4793
155.6535, 154.2298
156.1356, 156.6989
156.6177, 163.9387
157.0999, 171.7863
157.5820, 179.9376
158.0641, 188.2402
158.5462, 196.0184
159.0283, 202.6945
159.5104, 209.0579
159.9926, 215.6248
160.4747, 226.2743
160.9568, 233.5404
161.4389, 234.7812
161.9210, 230.4062
162.4031, 223.1630
162.8853, 211.7231
163.3674, 198.9859
163.8495, 187.6040
164.3316, 177.9836
164.8137, 170.2179
165.2958, 164.6185
165.7780, 161.1204
166.2601, 158.7057
166.7422, 156.6636
167.2243, 155.3596
167.7064, 155.2767
168.1885, 156.7431
168.6707, 159.3465
169.1528, 163.4927
169.6349, 169.3586
170.1170, 174.2618
170.5991, 177.5077
171.0812, 178.5399
171.5634, 176.3637
172.0455, 170.1620
172.5276, 160.8231
173.0097, 147.8480
173.4918, 130.3428
173.9739, 114.2480
174.4561, 104.4217
174.9382, 99.57899
175.4203, 96.66563
175.9024, 94.74249
176.3845, 93.61352
176.8666, 93.19864
177.3488, 93.63435
177.8309, 94.21484
178.3130, 94.15621
178.7951, 93.57998
179.2772, 92.93616
179.7593, 92.87315
180.2415, 92.87009
180.7236, 91.62313
181.2057, 88.53936
181.6878, 85.26416
182.1699, 84.04688
182.6520, 84.70643
183.1342, 85.91453
183.6163, 86.91861
184.0984, 87.81037
184.5805, 88.68101
185.0626, 89.29131
185.5447, 90.31429
186.0269, 93.84887
186.5090, 99.73778
186.9911, 104.5273
187.4732, 104.3230
187.9553, 100.3852
188.4374, 98.73652
188.9196, 100.4950
189.4017, 104.9317
189.8838, 111.0111
190.3659, 118.8873
190.8480, 126.9303
191.3301, 133.6966
191.8123, 139.4143
192.2944, 145.7280
192.7765, 152.8556
193.2586, 160.8572
193.7407, 170.6710
194.2228, 182.7685
194.7050, 193.3282
195.1871, 199.0637
195.6692, 200.0131
196.1513, 198.5902
196.6334, 195.7287
197.1155, 190.8249
197.5977, 180.2434
198.0798, 162.9933
198.5619, 144.1508
199.0440, 127.7526
199.5261, 113.6159
200.0082, 103.2978
200.4904, 97.86623
200.9725, 96.63490
201.4546, 94.87258
201.9367, 92.26289
202.4188, 90.00068
202.9009, 89.86297
203.3831, 92.34427
203.8652, 93.39944
204.3473, 91.33062
204.8294, 86.58706
205.3115, 84.47408
205.7936, 85.53776
206.2758, 88.05491
206.7579, 90.36594
207.2400, 92.45589
207.7221, 94.30715
208.2042, 95.83978
208.6863, 97.07052
209.1685, 98.40611
209.6506, 99.77234
210.1327, 101.3815
210.6148, 103.6138
211.0969, 106.6962
211.5790, 109.5390
212.0612, 111.7229
212.5433, 113.2051
213.0254, 115.3706
213.5075, 118.6493
213.9896, 122.0406
214.4717, 123.9266
214.9538, 123.2784
215.4360, 123.9961
215.9181, 127.3295
216.4002, 133.3982
216.8823, 139.7086
217.3644, 146.3538
217.8465, 153.1369
218.3287, 159.8947
218.8108, 166.6064
219.2929, 173.4244
219.7750, 180.5530
220.2571, 188.0884
220.7392, 195.2833
221.2214, 202.0488
221.7035, 208.6281
222.1856, 216.0341
222.6677, 226.2427
223.1498, 232.9426
223.6319, 233.6793
224.1141, 227.6967
224.5962, 222.2169
225.0783, 218.7019
225.5604, 214.4715
226.0425, 205.5297
226.5246, 189.9236
227.0068, 173.4173
227.4889, 157.3757
227.9710, 141.2718
228.4531, 127.5349
228.9352, 116.0731
229.4173, 107.0235
229.8995, 101.0133
230.3816, 99.25480
230.8637, 98.26086
231.3458, 97.41409
231.8279, 96.91100
232.3100, 95.09120
232.7922, 91.12299
233.2743, 86.53064
233.7564, 83.05082
234.2385, 80.18259
234.7206, 79.42293
235.2027, 81.80895
235.6849, 88.09243
236.1670, 92.56093
236.6491, 94.52637
237.1312, 95.23929
237.6133, 96.31040
238.0954, 98.21844
238.5776, 99.66521
239.0597, 100.2485
239.5418, 99.84445
240.0239, 99.34559
240.5060, 98.34225
240.9881, 97.57878
241.4703, 98.20348
241.9524, 101.4881
242.4345, 103.8434
242.9166, 104.1310
243.3987, 102.0229
243.8808, 100.1797
244.3630, 97.94653
244.8451, 96.51753
245.3272, 97.55680
245.8093, 102.5855
246.2914, 107.3037
246.7735, 110.5759
247.2557, 112.2092
247.7378, 114.5754
248.2199, 118.2522
248.7020, 122.1181
249.1841, 124.7296
249.6662, 124.9124
250.1484, 126.1609
250.6305, 129.5810
251.1126, 135.2958
251.5947, 140.4451
252.0768, 145.3553
252.5589, 149.2874
253.0411, 151.1324
253.5232, 149.5281
254.0053, 148.8139
254.4874, 150.4548
254.9695, 154.5335
255.4516, 156.2470
255.9338, 155.0528
256.4159, 152.1898
256.8980, 148.5640
257.3801, 143.3653
257.8622, 139.4810
258.3444, 138.6073
258.8265, 140.4762
259.3086, 136.9166
259.7907, 124.5719
260.2728, 111.7887
260.7549, 106.7792
261.2371, 112.7038
261.7192, 117.3629
262.2013, 118.1000
262.6834, 115.4400
263.1655, 115.2059
263.6476, 119.0720
264.1298, 122.5312
264.6119, 121.3938
265.0940, 113.7741
265.5761, 108.0326
266.0582, 106.0355
266.5403, 107.0016
267.0225, 106.4235
267.5046, 104.0457
267.9867, 100.6499
268.4688, 96.35755
268.9509, 90.53471
269.4330, 86.49964
269.9152, 85.19186
270.3973, 85.82854
270.8794, 85.38988
271.3615, 83.76871
271.8436, 81.38093
272.3257, 78.21504
272.8079, 73.99606
273.2900, 70.80296
273.7721, 69.10705
274.2542, 68.35770
274.7363, 66.82300
275.2184, 64.29286
275.7006, 61.81296
276.1827, 60.01410
276.6648, 58.90236
277.1469, 58.37899
277.6290, 58.72683
278.1111, 59.33065
278.5933, 58.64404
279.0754, 56.45372
279.5575, 54.19894
280.0396, 52.62771
280.5217, 51.75427
281.0038, 51.05296
281.4860, 50.42275
281.9681, 50.09452
282.4502, 50.75434
282.9323, 52.49022
283.4144, 53.93473
283.8965, 54.43186
284.3787, 54.01921
284.8608, 52.75946
285.3429, 50.19223
285.8250, 48.07280
286.3071, 49.87315
286.7892, 55.49215
287.2714, 60.15026
287.7535, 61.37635
288.2356, 59.72795
288.7177, 58.19836
289.1998, 56.75755
289.6819, 55.49970
290.1641, 54.87074
290.6462, 54.72851
291.1283, 53.89650
291.6104, 51.54578
292.0925, 48.22984
292.5746, 45.65903
293.0568, 43.85921
293.5389, 42.29766
294.0210, 40.11818
294.5031, 37.62251
294.9852, 36.08155
295.4673, 36.22808
295.9495, 37.40232
296.4316, 38.90038
296.9137, 40.67785
297.3958, 41.33197
297.8779, 37.80984
298.3600, 32.17910
298.8422, 29.83824
299.3243, 33.87274
299.8064, 39.97267
300.2885, 42.06531
300.7706, 40.53145
301.2527, 37.98954
301.7349, 35.48915
302.2170, 33.39106
302.6991, 32.43526
303.1812, 32.99178
303.6633, 34.29880
304.1454, 35.84704
304.6276, 37.53414
305.1097, 39.02723
305.5918, 40.50991
306.0739, 41.52142
306.5560, 41.22484
307.0381, 39.06328
307.5203, 36.90361
308.0024, 36.37493
308.4845, 37.03798
308.9666, 37.86378
309.4487, 38.76921
309.9308, 39.35876
310.4130, 38.90178
310.8951, 37.04055
311.3772, 35.88507
311.8593, 37.92772
312.3414, 41.38944
312.8235, 43.48077
313.3057, 40.78468
313.7878, 38.12141
314.2699, 39.23445
314.7520, 44.53441
315.2341, 48.80076
315.7162, 48.08684
316.1984, 45.48820
316.6805, 44.47810
317.1626, 47.74598
317.6447, 51.31562
318.1268, 53.78045
318.6089, 55.15361
319.0911, 55.91421
319.5732, 56.13684
320.0553, 55.85947
320.5374, 55.11334
321.0195, 52.26625
321.5016, 50.69820
321.9838, 51.99131
322.4659, 55.51343
322.9480, 58.17707
323.4301, 58.58651
323.9122, 58.55461
324.3943, 59.06870
324.8765, 61.11011
325.3586, 62.43454
325.8407, 62.21162
326.3228, 61.09689
326.8049, 60.75906
327.2870, 61.52635
327.7692, 62.88857
328.2513, 64.67838
328.7334, 66.82255
329.2155, 69.56404
329.6976, 74.22686
330.1797, 79.05492
330.6619, 81.19460
331.1440, 78.95487
331.6261, 76.27391
332.1082, 73.64535
332.5903, 70.75879
333.0724, 70.59977
333.5546, 74.84772
334.0367, 80.29391
334.5188, 83.50568
335.0009, 84.07420
335.4830, 83.26071
335.9651, 80.51370
336.4473, 76.14577
336.9294, 74.70141
337.4115, 77.15550
337.8936, 80.60172
338.3757, 82.66879
338.8578, 83.04140
339.3399, 83.66197
339.8221, 84.65949
340.3042, 86.14865
340.7863, 88.38580
341.2684, 91.39775
341.7505, 95.15210
342.2326, 99.94351
342.7148, 105.7226
343.1969, 111.2779
343.6790, 116.4615
344.1611, 121.4194
344.6432, 125.9302
345.1253, 130.0095
345.6075, 134.9920
346.0896, 142.5131
346.5717, 151.7226
347.0538, 158.1226
347.5359, 161.3049
348.0180, 164.0485
348.5002, 170.0192
348.9823, 178.4994
349.4644, 186.4945
349.9465, 192.4166
350.4286, 197.4169
350.9107, 203.9682
351.3929, 211.9794
351.8750, 219.4739
352.3571, 223.7823
352.8392, 226.5955
353.3213, 231.2125
353.8034, 239.6111
354.2856, 248.5074
354.7677, 254.0191
355.2498, 256.9687
355.7319, 260.7896
356.2140, 268.0250
356.6961, 276.9254
357.1783, 285.5507
357.6604, 292.9896
358.1425, 301.7961
358.6246, 315.5621
359.1067, 331.8002
359.5888, 345.7977
360.0710, 353.9085
360.5531, 360.3748
361.0352, 367.8555
361.5173, 376.7716
361.9994, 384.9431
362.4815, 394.0456
362.9637, 401.0321
363.4458, 402.6366
363.9279, 395.3037
364.4100, 385.1114
364.8921, 374.0525
365.3742, 362.0014
365.8564, 347.4034
366.3385, 328.5183
366.8206, 307.9930
367.3027, 287.4220
367.7848, 265.5496
368.2669, 245.1600
368.7491, 226.9651
369.2312, 210.5230
369.7133, 195.0170
370.1954, 179.4590
370.6775, 165.8638
371.1596, 155.3707
371.6418, 149.0604
372.1239, 142.4646
372.6060, 135.0571
373.0881, 127.8124
373.5702, 122.3195
374.0523, 119.6091
374.5345, 116.2236
375.0166, 110.9232
375.4987, 103.7198
375.9808, 97.13908
376.4629, 90.58924
376.9450, 85.80114
377.4272, 85.14013
377.9093, 89.21053
378.3914, 91.74267
378.8735, 91.47201
379.3556, 89.12557
379.8377, 86.47007
380.3199, 83.48600
380.8020, 80.58558
381.2841, 77.93407
381.7662, 75.55073
382.2483, 73.59869
382.7304, 72.00125
383.2126, 71.07591
383.6947, 71.82681
384.1768, 73.87263
384.6589, 75.28965
385.1410, 74.68847
385.6231, 73.07835
386.1053, 72.26636
386.5874, 72.30211
387.0695, 72.23815
387.5516, 70.62520
388.0337, 68.46014
388.5158, 67.53702
388.9980, 69.29898
389.4801, 71.52236
389.9622, 72.14887
390.4443, 71.54698
390.9264, 71.26241
391.4085, 72.01991
391.8907, 73.52516
392.3728, 75.77473
392.8549, 79.26534
393.3370, 82.10783
393.8191, 82.80711
394.3012, 82.39732
394.7834, 82.62276
395.2655, 84.93493
395.7476, 87.14603
396.2297, 88.19661
396.7118, 87.82478
397.1939, 87.96203
397.6761, 89.41100
398.1582, 91.23180
398.6403, 92.63944
399.1224, 92.91257
399.6045, 93.55222
400.0866, 94.79597
400.5688, 96.56344
401.0509, 98.30517
401.5330, 99.79622
402.0151, 101.5522
402.4972, 103.8670
402.9793, 107.0008
403.4615, 110.0531
403.9436, 113.0217
404.4257, 115.8906
404.9078, 118.7306
405.3899, 121.7949
405.8720, 123.8516
406.3542, 123.7781
406.8363, 121.9088
407.3184, 123.2336
407.8005, 128.4043
408.2826, 134.0708
408.7647, 136.6516
409.2469, 136.3864
409.7290, 136.7145
410.2111, 138.5635
410.6932, 141.0335
411.1753, 142.2591
411.6574, 142.3437
412.1396, 142.3981
412.6217, 143.4734
413.1038, 144.9315
413.5859, 145.8241
414.0680, 146.1890
414.5501, 145.2054
415.0323, 141.0540
415.5144, 135.0614
415.9965, 129.7178
416.4786, 126.7008
416.9607, 124.3659
417.4428, 121.5756
417.9250, 118.3496
418.4071, 114.7787
418.8892, 110.3917
419.3713, 105.9847
419.8534, 102.3018
420.3355, 99.66965
420.8177, 97.43577
421.2998, 96.25991
421.7819, 95.28333
422.2640, 92.60639
422.7461, 85.60267
423.2282, 78.83802
423.7104, 73.71313
424.1925, 70.36464
424.6746, 68.66464
425.1567, 70.59574
425.6388, 72.94907
426.1209, 72.76841
426.6031, 67.88914
427.0852, 63.98381
427.5673, 61.94996
428.0494, 61.48907
428.5315, 61.20182
429.0136, 61.36420
429.4958, 61.12799
429.9779, 59.64994
430.4600, 56.53291
430.9421, 55.12380
431.4242, 55.95506
431.9063, 57.65472
432.3885, 58.08839
432.8706, 57.24105
433.3527, 56.25428
433.8348, 55.45894
434.3169, 54.83968
434.7990, 54.29724
435.2812, 53.83160
435.7633, 53.63748
436.2454, 54.20488
436.7275, 55.15585
437.2096, 55.66786
437.6917, 55.63890
438.1739, 54.99018
438.6560, 52.99540
439.1381, 50.23500
439.6202, 48.24340
440.1023, 48.06725
440.5844, 48.81616
441.0666, 49.88686
441.5487, 51.23471
442.0308, 52.69452
442.5129, 54.99941
442.9950, 57.00518
443.4771, 57.61858
443.9593, 54.27528
444.4414, 51.95004
444.9235, 52.48716
445.4056, 55.17168
445.8877, 57.46389
446.3698, 58.22102
446.8520, 59.18362
447.3341, 61.10713
447.8162, 64.28554
448.2983, 67.54048
448.7804, 71.56910
449.2625, 75.16080
449.7447, 76.53649
450.2268, 74.12121
450.7089, 73.22361
451.1910, 75.28127
451.6731, 79.67188
452.1552, 83.08155
452.6374, 85.21703
453.1195, 87.22403
453.6016, 89.63557
454.0837, 92.44189
454.5658, 96.13731
455.0479, 100.8315
455.5301, 106.0835
456.0122, 111.4668
456.4943, 116.9527
456.9764, 121.8523
457.4585, 125.4485
457.9406, 128.6706
458.4228, 133.1212
458.9049, 138.7124
459.3870, 144.9856
459.8691, 152.3679
460.3512, 159.8815
460.8333, 166.0171
461.3155, 169.9267
461.7976, 174.1807
462.2797, 180.8203
462.7618, 188.9193
463.2439, 196.7423
463.7260, 203.4437
464.2082, 209.9470
464.6903, 216.5079
465.1724, 223.1433
465.6545, 229.7564
466.1366, 236.6929
466.6187, 243.3096
467.1009, 249.1844
467.5830, 257.2842
468.0651, 260.6217
468.5472, 257.3428
469.0293, 249.8556
469.5114, 242.7128
469.9936, 235.5589
470.4757, 229.5936
470.9578, 225.6961
471.4399, 223.8319
471.9220, 220.0610
472.4041, 213.8888
472.8863, 207.4296
473.3684, 203.4012
473.8505, 201.6877
474.3326, 197.1764
474.8147, 188.2394
475.2968, 177.8612
475.7790, 171.5010
476.2611, 168.6317
476.7432, 165.9276
477.2253, 161.3287
477.7074, 155.9315
478.1895, 151.7117
478.6717, 148.6927
479.1538, 145.3975
479.6359, 140.0191
480.1180, 133.9573
480.6001, 129.0269
481.0822, 126.3320
481.5644, 123.7223
482.0465, 120.3205
482.5286, 116.1869
483.0107, 111.4510
483.4928, 105.0408
483.9749, 99.00776
484.4571, 94.55434
484.9392, 92.03300
485.4213, 88.56136
485.9034, 81.95757
486.3855, 75.60519
486.8676, 71.86570
487.3498, 72.65223
487.8319, 72.56913
488.3140, 70.96115
488.7961, 68.45074
489.2782, 66.71109
489.7603, 66.21340
490.2425, 64.89726
490.7246, 61.30006
491.2067, 55.80148
491.6888, 53.11288
492.1709, 53.57114
492.6530, 54.99107
493.1352, 55.64244
493.6173, 55.60688
494.0994, 55.12005
494.5815, 54.11265
495.0636, 52.95617
495.5457, 52.38863
496.0279, 52.12609
496.5100, 51.32677
496.9921, 48.42886
497.4742, 45.55604
497.9563, 44.90529
498.4384, 46.44439
498.9206, 48.09159
499.4027, 49.04355
499.8848, 49.49181
500.3669, 49.70962
500.8490, 50.51694
501.3311, 49.80444
501.8133, 45.05433
502.2954, 38.75480
502.7775, 35.59363
503.2596, 38.43000
503.7417, 41.62772
504.2238, 44.38661
504.7060, 46.69951
505.1881, 47.28740
505.6702, 45.33784
506.1523, 42.98644
506.6344, 41.78109
507.1165, 41.95036
507.5987, 41.46103
508.0808, 39.87624
508.5629, 38.26674
509.0450, 38.57903
509.5271, 40.67010
510.0092, 42.60014
510.4914, 43.45371
510.9735, 43.86633
511.4556, 45.54511
511.9377, 48.26869
512.4199, 50.27964
512.9020, 49.60851
513.3841, 47.86547
513.8662, 47.01515
514.3483, 47.43367
514.8304, 48.24607
515.3126, 49.02025
515.7947, 49.83289
516.2768, 50.79253
516.7589, 52.97701
517.2410, 54.21701
517.7231, 52.99141
518.2053, 49.95382
518.6874, 48.31556
519.1695, 49.41463
519.6516, 51.11924
520.1337, 52.79316
520.6158, 54.49926
521.0980, 55.83095
521.5801, 56.32150
522.0622, 57.04110
522.5443, 59.30192
523.0264, 63.42847
523.5085, 67.27616
523.9907, 70.73015
524.4728, 73.40807
524.9549, 74.05835
525.4370, 72.76267
525.9191, 71.51872
526.4012, 70.67507
526.8834, 70.74113
527.3655, 73.28091
527.8476, 78.23569
528.3297, 83.65730
528.8118, 89.40200
529.2939, 94.13530
529.7761, 95.68748
530.2582, 92.08367
530.7403, 88.75767
531.2224, 88.64766
531.7045, 90.82578
532.1866, 93.75729
532.6688, 98.28929
533.1509, 102.2361
533.6330, 104.6065
534.1151, 105.4440
534.5972, 106.9423
535.0793, 109.5457
535.5615, 112.3865
536.0436, 115.3157
536.5257, 118.9811
537.0078, 120.1320
537.4899, 117.6031
537.9720, 114.4084
538.4542, 114.7318
538.9363, 118.8068
539.4184, 122.5082
539.9005, 124.7931
540.3826, 126.2508
540.8647, 128.2021
541.3469, 130.5218
541.8290, 132.2346
542.3111, 131.9850
542.7932, 131.1419
543.2753, 132.3141
543.7574, 135.5467
544.2396, 137.8132
544.7217, 136.1803
545.2038, 132.9311
545.6859, 130.4673
546.1680, 130.1890
546.6501, 129.1848
547.1323, 125.3270
547.6144, 120.3186
548.0965, 117.0556
548.5786, 118.7092
549.0607, 119.0794
549.5428, 116.4765
550.0250, 111.2206
550.5071, 106.8556
550.9892, 104.2364
551.4713, 100.9497
551.9534, 94.74960
552.4355, 84.98878
552.9177, 79.64980
553.3998, 79.65598
553.8819, 81.27937
554.3640, 79.60748
554.8461, 75.38334
555.3282, 73.18401
555.8104, 75.37218
556.2925, 77.95891
556.7746, 73.59901
557.2567, 64.76135
557.7388, 59.14225
558.2209, 64.80141
558.7031, 72.40127
559.1852, 74.15495
559.6673, 70.05535
560.1494, 66.22401
560.6315, 64.71400
561.1136, 64.63122
561.5958, 65.59737
562.0779, 68.84245
562.5600, 70.67178
563.0421, 70.49417
563.5242, 69.06386
564.0063, 67.10353
564.4885, 63.99794
564.9706, 61.93719
565.4527, 61.74157
565.9348, 62.69438
566.4169, 62.38176
566.8990, 60.73285
567.3812, 58.39573
567.8633, 55.19706
568.3454, 51.54662
568.8275, 48.81134
569.3096, 47.02691
569.7917, 45.94780
570.2739, 46.03674
570.7560, 46.51256
571.2381, 45.97593
571.7202, 43.65718
572.2023, 41.73166
572.6844, 41.82294
573.1666, 43.12254
573.6487, 44.41451
574.1308, 45.54002
574.6129, 46.36808
575.0950, 47.31154
575.5771, 48.10568
576.0593, 47.07745
576.5414, 42.06197
577.0235, 37.92822
577.5056, 36.76384
577.9877, 38.95213
578.4698, 40.47631
578.9520, 41.27977
579.4341, 41.55928
579.9162, 41.52749
580.3983, 41.17041
580.8804, 39.95288
581.3625, 37.45991
581.8447, 35.13210
582.3268, 35.66220
582.8089, 38.05904
583.2910, 39.48736
