##NAMES=Henmilite
##RRUFFID=R060257
##IDEAL CHEMISTRY=Ca_2_Cu^2+^[B(OH)_4_]_2_(OH)_4_
##LOCALITY=Fuka mine, Okayama Prefecture, Honshu Island, Japan
##OWNER=RRUFF
##SOURCE=Michael Scott
##DESCRIPTION=Deep blue prismatic pinacoidal crystals with a melted looking exterior
##STATUS=The identification of this mineral is confirmed by single-crystal X-ray diffraction and chemical analysis.
##URL=rruff.info/R060257
##MEASURED CHEMISTRY=Ca_1.94_Cu_1.06_[B(OH)_4_]_2_(OH)_4_ ; B, H not measured but assumed by stoichiometry
91.18097, 0.0000000E+00
91.66309, 5525.754
92.14520, 5456.817
92.62732, 5468.299
93.10944, 5559.276
93.59155, 5667.284
94.07367, 5737.575
94.55579, 5776.901
95.03790, 5801.890
95.52002, 5827.038
96.00214, 5855.397
96.48425, 5870.025
96.96637, 5864.892
97.44849, 5855.853
97.93060, 5853.784
98.41272, 5855.427
98.89484, 5852.877
99.37695, 5847.266
99.85907, 5835.761
100.3412, 5827.182
100.8233, 5822.525
101.3054, 5819.586
101.7875, 5814.884
102.2697, 5805.567
102.7518, 5792.048
103.2339, 5787.732
103.7160, 5794.195
104.1981, 5804.107
104.6802, 5815.161
105.1624, 5826.778
105.6445, 5838.029
106.1266, 5845.666
106.6087, 5849.778
107.0908, 5860.528
107.5729, 5884.223
108.0551, 5912.321
108.5372, 5934.133
109.0193, 5947.180
109.5014, 5956.690
109.9835, 5968.371
110.4656, 5981.332
110.9478, 5990.945
111.4299, 5990.184
111.9120, 5981.272
112.3941, 5982.330
112.8762, 6003.202
113.3583, 6028.699
113.8405, 6050.217
114.3226, 6067.214
114.8047, 6083.295
115.2868, 6102.473
115.7689, 6126.070
116.2510, 6149.396
116.7332, 6172.320
117.2153, 6194.810
117.6974, 6215.210
118.1795, 6233.435
118.6616, 6252.608
119.1437, 6279.750
119.6259, 6317.495
120.1080, 6361.472
120.5901, 6409.016
121.0722, 6463.163
121.5543, 6528.703
122.0364, 6608.811
122.5186, 6700.987
123.0007, 6791.064
123.4828, 6888.539
123.9649, 6975.582
124.4470, 7050.931
124.9291, 7112.214
125.4113, 7149.979
125.8934, 7155.526
126.3755, 7128.963
126.8576, 7092.505
127.3397, 7036.167
127.8218, 6976.138
128.3040, 6925.893
128.7861, 6885.963
129.2682, 6855.132
129.7503, 6834.403
130.2324, 6821.898
130.7145, 6817.115
131.1967, 6827.216
131.6788, 6845.177
132.1609, 6849.088
132.6430, 6833.751
133.1251, 6809.788
133.6072, 6775.101
134.0894, 6736.141
134.5715, 6706.624
135.0536, 6697.717
135.5357, 6710.425
136.0178, 6730.636
136.4999, 6760.810
136.9821, 6796.764
137.4642, 6840.978
137.9463, 6891.481
138.4284, 6941.361
138.9105, 6982.500
139.3926, 7010.438
139.8748, 7041.166
140.3569, 7067.768
140.8390, 7100.991
141.3211, 7147.792
141.8032, 7209.724
142.2853, 7284.712
142.7675, 7369.313
143.2496, 7465.201
143.7317, 7569.291
144.2138, 7692.650
144.6959, 7821.032
145.1780, 7937.985
145.6602, 8038.155
146.1423, 8122.479
146.6244, 8197.004
147.1065, 8276.136
147.5886, 8316.472
148.0707, 8301.350
148.5529, 8233.911
149.0350, 8120.111
149.5171, 7939.706
149.9992, 7728.810
150.4813, 7542.499
150.9634, 7381.794
151.4456, 7244.302
151.9277, 7127.781
152.4098, 7031.665
152.8919, 6956.084
153.3740, 6911.875
153.8561, 6884.555
154.3383, 6864.776
154.8204, 6850.459
155.3025, 6842.119
155.7846, 6841.169
156.2667, 6849.591
156.7488, 6861.773
157.2310, 6874.553
157.7131, 6890.133
158.1952, 6910.895
158.6773, 6937.956
159.1594, 6970.898
159.6415, 7008.825
160.1237, 7067.042
160.6058, 7111.550
161.0879, 7132.893
161.5700, 7138.050
162.0521, 7136.898
162.5342, 7135.804
163.0164, 7134.183
163.4985, 7123.356
163.9806, 7095.983
164.4627, 7067.662
164.9448, 7037.167
165.4269, 7008.401
165.9091, 6990.364
166.3912, 6990.632
166.8733, 7009.979
167.3554, 7029.792
167.8375, 7052.929
168.3196, 7074.263
168.8018, 7090.501
169.2839, 7101.836
169.7660, 7110.741
170.2481, 7118.714
170.7302, 7125.862
171.2123, 7133.757
171.6945, 7149.417
172.1766, 7162.145
172.6587, 7161.294
173.1408, 7145.501
173.6229, 7119.915
174.1050, 7081.810
174.5872, 7035.822
175.0693, 6995.217
175.5514, 6960.813
176.0335, 6934.643
176.5156, 6922.181
176.9977, 6926.958
177.4799, 6939.532
177.9620, 6956.838
178.4441, 6976.499
178.9262, 6992.093
179.4083, 6999.266
179.8904, 6998.907
180.3726, 6996.381
180.8547, 6991.240
181.3368, 6984.210
181.8189, 6974.857
182.3010, 6963.935
182.7831, 6953.391
183.2653, 6944.547
183.7474, 6937.416
184.2295, 6932.070
184.7116, 6929.672
185.1937, 6928.284
185.6758, 6926.783
186.1580, 6925.564
186.6401, 6925.993
187.1222, 6929.357
187.6043, 6935.704
188.0864, 6945.023
188.5685, 6959.045
189.0507, 6974.089
189.5328, 6987.044
190.0149, 6998.492
190.4970, 7011.891
190.9791, 7031.427
191.4612, 7058.010
191.9434, 7089.031
192.4255, 7125.306
192.9076, 7164.528
193.3897, 7207.156
193.8718, 7252.451
194.3539, 7296.913
194.8361, 7337.024
195.3182, 7374.696
195.8003, 7398.668
196.2824, 7408.048
196.7645, 7404.195
197.2466, 7386.010
197.7288, 7353.155
198.2109, 7311.929
198.6930, 7268.010
199.1751, 7219.876
199.6572, 7179.235
200.1393, 7148.318
200.6215, 7125.953
201.1036, 7110.425
201.5857, 7101.359
202.0678, 7098.975
202.5499, 7105.695
203.0320, 7120.456
203.5142, 7137.195
203.9963, 7156.262
204.4784, 7175.745
204.9605, 7190.521
205.4426, 7198.209
205.9247, 7203.287
206.4069, 7211.325
206.8890, 7221.743
207.3711, 7229.108
207.8532, 7228.247
208.3353, 7220.960
208.8174, 7216.397
209.2996, 7216.411
209.7817, 7218.961
210.2638, 7221.860
210.7459, 7225.341
211.2280, 7230.933
211.7101, 7239.347
212.1923, 7250.575
212.6744, 7265.908
213.1565, 7290.819
213.6386, 7314.740
214.1207, 7330.550
214.6028, 7339.604
215.0850, 7349.227
215.5671, 7367.796
216.0492, 7397.256
216.5313, 7420.577
217.0134, 7430.614
217.4955, 7440.027
217.9777, 7451.323
218.4598, 7465.955
218.9419, 7486.174
219.4240, 7514.200
219.9061, 7550.446
220.3882, 7593.003
220.8704, 7649.469
221.3525, 7705.724
221.8346, 7758.053
222.3167, 7804.887
222.7988, 7844.936
223.2809, 7877.006
223.7631, 7901.547
224.2452, 7915.213
224.7273, 7923.623
225.2094, 7918.864
225.6915, 7892.801
226.1736, 7847.662
226.6558, 7793.938
227.1379, 7742.083
227.6200, 7692.987
228.1021, 7642.578
228.5842, 7580.990
229.0663, 7526.182
229.5485, 7490.702
230.0306, 7474.134
230.5127, 7466.837
230.9948, 7460.125
231.4769, 7454.170
231.9590, 7447.687
232.4412, 7438.260
232.9233, 7430.229
233.4054, 7427.021
233.8875, 7428.554
234.3696, 7431.331
234.8517, 7431.390
235.3339, 7428.277
235.8160, 7431.852
236.2981, 7443.248
236.7802, 7460.188
237.2623, 7485.125
237.7444, 7517.003
238.2266, 7544.796
238.7087, 7558.517
239.1908, 7557.654
239.6729, 7555.338
240.1550, 7548.725
240.6371, 7542.891
241.1193, 7541.911
241.6014, 7546.007
242.0835, 7553.745
242.5656, 7565.266
243.0477, 7579.948
243.5298, 7594.719
244.0120, 7610.828
244.4941, 7625.977
244.9762, 7635.888
245.4583, 7640.178
245.9404, 7648.026
246.4225, 7667.544
246.9047, 7694.826
247.3868, 7721.335
247.8689, 7747.518
248.3510, 7771.169
248.8331, 7787.899
249.3152, 7796.783
249.7974, 7808.045
250.2795, 7828.792
250.7616, 7854.959
251.2437, 7880.719
251.7258, 7904.278
252.2079, 7928.146
252.6901, 7956.773
253.1722, 7990.920
253.6543, 8022.633
254.1364, 8050.998
254.6185, 8073.243
255.1006, 8086.167
255.5828, 8088.892
256.0649, 8082.452
256.5470, 8066.251
257.0291, 8039.075
257.5112, 8010.043
257.9933, 7976.535
258.4755, 7945.552
258.9576, 7923.172
259.4397, 7911.285
259.9218, 7904.814
260.4039, 7897.526
260.8860, 7888.580
261.3682, 7883.704
261.8503, 7887.588
262.3324, 7894.101
262.8145, 7900.542
263.2966, 7906.284
263.7787, 7910.452
264.2609, 7912.063
264.7430, 7910.958
265.2251, 7908.009
265.7072, 7902.472
266.1893, 7895.594
266.6714, 7886.286
267.1536, 7875.181
267.6357, 7866.085
268.1178, 7863.284
268.5999, 7867.601
269.0820, 7873.643
269.5641, 7888.473
270.0463, 7899.094
270.5284, 7896.203
271.0105, 7882.040
271.4926, 7867.764
271.9747, 7865.935
272.4568, 7878.991
272.9390, 7882.888
273.4211, 7866.950
273.9032, 7850.650
274.3853, 7841.010
274.8674, 7836.822
275.3495, 7833.230
275.8317, 7826.149
276.3138, 7815.536
276.7959, 7805.278
277.2780, 7793.542
277.7601, 7784.079
278.2422, 7777.465
278.7244, 7773.972
279.2065, 7774.538
279.6886, 7780.545
280.1707, 7791.128
280.6528, 7797.021
281.1349, 7792.355
281.6171, 7788.917
282.0992, 7789.254
282.5813, 7792.209
283.0634, 7795.502
283.5455, 7797.639
284.0276, 7799.650
284.5098, 7806.348
284.9919, 7823.976
285.4740, 7838.901
285.9561, 7848.068
286.4382, 7854.167
286.9203, 7860.308
287.4025, 7867.875
287.8846, 7876.304
288.3667, 7884.189
288.8488, 7893.122
289.3309, 7898.894
289.8130, 7902.478
290.2952, 7902.405
290.7773, 7896.063
291.2594, 7882.963
291.7415, 7866.573
292.2236, 7853.608
292.7057, 7850.178
293.1879, 7839.567
293.6700, 7817.606
294.1521, 7792.195
294.6342, 7767.306
295.1163, 7744.639
295.5984, 7726.138
296.0806, 7714.716
296.5627, 7712.758
297.0448, 7711.718
297.5269, 7710.335
298.0090, 7710.709
298.4911, 7716.709
298.9733, 7726.813
299.4554, 7734.072
299.9375, 7730.633
300.4196, 7713.764
300.9017, 7704.496
301.3839, 7707.451
301.8660, 7712.025
302.3481, 7714.334
302.8302, 7714.460
303.3123, 7713.967
303.7944, 7713.899
304.2766, 7714.258
304.7587, 7715.800
305.2408, 7717.729
305.7229, 7721.570
306.2050, 7728.484
306.6871, 7737.521
307.1693, 7747.868
307.6514, 7759.362
308.1335, 7770.743
308.6156, 7775.870
309.0977, 7767.780
309.5798, 7761.382
310.0620, 7757.862
310.5441, 7756.944
311.0262, 7758.427
311.5083, 7762.210
311.9904, 7767.747
312.4725, 7773.745
312.9547, 7779.423
313.4368, 7786.917
313.9189, 7796.497
314.4010, 7807.630
314.8831, 7819.780
315.3652, 7832.813
315.8474, 7847.522
316.3295, 7865.710
316.8116, 7892.281
317.2937, 7908.631
317.7758, 7907.617
318.2579, 7903.525
318.7401, 7904.562
319.2222, 7911.455
319.7043, 7920.589
320.1864, 7928.241
320.6685, 7933.690
321.1506, 7943.596
321.6328, 7964.862
322.1149, 7983.051
322.5970, 7989.339
323.0791, 7987.649
323.5612, 7987.888
324.0433, 7996.986
324.5255, 8014.263
325.0076, 8032.003
325.4897, 8048.040
325.9718, 8067.120
326.4539, 8092.073
326.9360, 8120.304
327.4182, 8147.959
327.9003, 8173.284
328.3824, 8197.629
328.8645, 8224.858
329.3466, 8256.497
329.8287, 8289.597
330.3109, 8327.204
330.7930, 8364.498
331.2751, 8396.675
331.7572, 8422.488
332.2393, 8444.342
332.7214, 8466.271
333.2036, 8491.157
333.6857, 8508.793
334.1678, 8514.375
334.6499, 8517.896
335.1320, 8525.998
335.6141, 8538.573
336.0963, 8550.886
336.5784, 8558.173
337.0605, 8560.019
337.5426, 8560.408
338.0247, 8557.934
338.5068, 8555.450
338.9890, 8551.733
339.4711, 8548.791
339.9532, 8550.805
340.4353, 8561.104
340.9174, 8578.098
341.3995, 8591.440
341.8817, 8589.386
342.3638, 8598.446
342.8459, 8624.533
343.3280, 8662.867
343.8101, 8709.543
344.2922, 8762.880
344.7744, 8819.558
345.2565, 8871.940
345.7386, 8915.856
346.2207, 8963.699
346.7028, 9012.219
347.1849, 9067.026
347.6671, 9135.904
348.1492, 9218.738
348.6313, 9302.868
349.1134, 9372.545
349.5955, 9423.331
350.0776, 9477.908
350.5598, 9537.193
351.0419, 9599.744
351.5240, 9663.764
352.0061, 9730.208
352.4882, 9802.049
352.9703, 9880.771
353.4525, 9966.715
353.9346, 10059.94
354.4167, 10159.69
354.8988, 10269.10
355.3809, 10387.78
355.8630, 10516.06
356.3452, 10652.75
356.8273, 10796.81
357.3094, 10951.27
357.7915, 11122.63
358.2736, 11309.38
358.7557, 11515.42
359.2379, 11746.76
359.7200, 11992.35
360.2021, 12253.46
360.6842, 12529.36
361.1663, 12797.04
361.6484, 13041.12
362.1306, 13261.92
362.6127, 13441.01
363.0948, 13589.61
363.5769, 13676.50
364.0590, 13689.36
364.5411, 13628.87
365.0233, 13501.85
365.5054, 13299.41
365.9875, 13031.81
366.4696, 12739.29
366.9517, 12407.75
367.4338, 12075.85
367.9160, 11755.00
368.3981, 11447.64
368.8802, 11159.11
369.3623, 10890.10
369.8444, 10639.57
370.3265, 10406.08
370.8087, 10188.70
371.2908, 9991.671
371.7729, 9821.482
372.2550, 9672.185
372.7371, 9539.236
373.2192, 9423.441
373.7014, 9319.932
374.1835, 9227.042
374.6656, 9144.624
375.1477, 9070.255
375.6298, 9004.549
376.1119, 8946.636
376.5941, 8896.840
377.0762, 8854.165
377.5583, 8812.962
378.0404, 8768.198
378.5225, 8725.094
379.0046, 8692.444
379.4868, 8671.370
379.9689, 8654.010
380.4510, 8636.042
380.9331, 8617.650
381.4152, 8599.402
381.8973, 8582.175
382.3795, 8564.279
382.8616, 8543.073
383.3437, 8519.737
383.8258, 8498.898
384.3079, 8482.023
384.7900, 8469.056
385.2722, 8460.581
385.7543, 8457.322
386.2364, 8454.355
386.7185, 8450.563
387.2006, 8446.253
387.6827, 8442.497
388.1649, 8439.499
388.6470, 8434.516
389.1291, 8423.489
389.6112, 8405.224
390.0933, 8393.622
390.5754, 8390.283
391.0576, 8392.045
391.5397, 8399.756
392.0218, 8411.421
392.5039, 8421.612
392.9860, 8426.983
393.4681, 8428.343
393.9503, 8429.347
394.4324, 8428.484
394.9145, 8429.172
395.3966, 8431.251
395.8787, 8435.410
396.3608, 8442.904
396.8430, 8454.021
397.3251, 8467.238
397.8072, 8480.592
398.2893, 8495.362
398.7714, 8506.498
399.2535, 8513.323
399.7357, 8517.720
400.2178, 8519.276
400.6999, 8519.121
401.1820, 8519.704
401.6641, 8522.765
402.1462, 8528.341
402.6284, 8536.886
403.1105, 8552.500
403.5926, 8566.349
404.0747, 8572.902
404.5568, 8578.483
405.0389, 8591.703
405.5211, 8615.867
406.0032, 8644.770
406.4853, 8668.298
406.9674, 8687.219
407.4495, 8698.767
407.9316, 8694.353
408.4138, 8689.213
408.8959, 8690.825
409.3780, 8699.638
409.8601, 8712.835
410.3422, 8730.771
410.8243, 8752.119
411.3065, 8765.791
411.7886, 8767.194
412.2707, 8768.479
412.7528, 8775.423
413.2349, 8785.420
413.7170, 8794.900
414.1992, 8802.576
414.6813, 8809.311
415.1634, 8818.012
415.6455, 8829.146
416.1276, 8833.388
416.6097, 8827.857
417.0919, 8813.659
417.5740, 8790.701
418.0561, 8758.906
418.5382, 8728.379
419.0203, 8703.036
419.5024, 8683.181
419.9846, 8671.644
420.4667, 8670.554
420.9488, 8669.189
421.4309, 8657.184
421.9130, 8637.668
422.3951, 8622.330
422.8773, 8619.249
423.3594, 8614.743
423.8415, 8595.381
424.3236, 8565.451
424.8057, 8541.329
425.2878, 8530.313
425.7700, 8527.918
426.2521, 8525.361
426.7342, 8522.692
427.2163, 8519.680
427.6984, 8517.355
428.1805, 8514.061
428.6627, 8506.604
429.1448, 8495.132
429.6269, 8484.983
430.1090, 8481.494
430.5911, 8485.139
431.0732, 8485.965
431.5554, 8477.540
432.0375, 8473.910
432.5196, 8484.822
433.0017, 8502.777
433.4838, 8515.459
433.9659, 8517.110
434.4481, 8510.904
434.9302, 8502.949
435.4123, 8487.896
435.8944, 8481.372
436.3765, 8487.700
436.8586, 8498.128
437.3408, 8508.846
437.8229, 8518.457
438.3050, 8525.568
438.7871, 8528.433
439.2692, 8527.361
439.7513, 8527.568
440.2335, 8527.603
440.7156, 8531.349
441.1977, 8539.028
441.6798, 8550.955
442.1619, 8568.827
442.6440, 8593.979
443.1262, 8620.278
443.6083, 8638.826
444.0904, 8648.941
444.5725, 8659.441
445.0546, 8669.919
445.5367, 8683.514
446.0189, 8702.386
446.5010, 8726.165
446.9831, 8752.575
447.4652, 8782.114
447.9473, 8812.918
448.4294, 8841.725
448.9116, 8868.402
449.3937, 8893.035
449.8758, 8913.388
450.3579, 8932.527
450.8400, 8956.850
451.3221, 8987.835
451.8043, 9021.455
452.2864, 9055.942
452.7685, 9091.474
453.2506, 9128.292
453.7327, 9166.625
454.2148, 9205.603
454.6970, 9243.207
455.1791, 9278.641
455.6612, 9321.396
456.1433, 9377.506
456.6254, 9435.667
457.1075, 9486.128
457.5897, 9532.792
458.0718, 9588.163
458.5539, 9659.737
459.0360, 9744.053
459.5181, 9830.598
460.0002, 9922.063
460.4824, 10013.01
460.9645, 10096.94
461.4466, 10184.69
461.9287, 10285.28
462.4108, 10399.77
462.8929, 10522.46
463.3751, 10648.71
463.8572, 10778.58
464.3393, 10909.90
464.8214, 11053.46
465.3035, 11184.27
465.7856, 11294.39
466.2678, 11388.81
466.7499, 11475.60
467.2320, 11557.93
467.7141, 11630.39
468.1962, 11690.94
468.6783, 11742.25
469.1605, 11752.57
469.6426, 11702.98
470.1247, 11622.91
470.6068, 11531.30
471.0889, 11429.19
471.5710, 11318.87
472.0532, 11195.42
472.5353, 11066.98
473.0174, 10948.00
473.4995, 10838.87
473.9816, 10730.79
474.4637, 10618.53
474.9459, 10506.08
475.4280, 10398.92
475.9101, 10295.84
476.3922, 10202.03
476.8743, 10124.13
477.3564, 10054.40
477.8386, 9980.522
478.3207, 9900.241
478.8028, 9825.003
479.2849, 9767.173
479.7670, 9726.729
480.2491, 9678.261
480.7313, 9617.253
481.2134, 9554.395
481.6955, 9490.264
482.1776, 9427.703
482.6597, 9370.434
483.1418, 9320.020
483.6240, 9275.288
484.1061, 9236.096
484.5882, 9206.267
485.0703, 9170.938
485.5524, 9124.224
486.0345, 9077.887
486.5167, 9036.145
486.9988, 8999.361
487.4809, 8966.994
487.9630, 8938.490
488.4451, 8914.614
488.9272, 8898.201
489.4094, 8892.269
489.8915, 8884.361
490.3736, 8870.056
490.8557, 8853.304
491.3378, 8834.854
491.8199, 8815.396
492.3021, 8799.200
492.7842, 8791.416
493.2663, 8788.696
493.7484, 8781.872
494.2305, 8769.311
494.7126, 8759.395
495.1948, 8758.627
495.6769, 8763.862
496.1590, 8767.391
496.6411, 8771.529
497.1232, 8769.200
497.6053, 8753.160
498.0875, 8729.403
498.5696, 8706.687
499.0517, 8687.121
499.5338, 8672.808
500.0159, 8667.199
500.4980, 8671.396
500.9802, 8672.171
501.4623, 8666.181
501.9444, 8660.848
502.4265, 8657.248
502.9086, 8656.688
503.3907, 8662.841
503.8729, 8676.983
504.3550, 8692.635
504.8371, 8698.197
505.3192, 8690.902
505.8013, 8681.151
506.2834, 8663.825
506.7656, 8649.020
507.2477, 8641.628
507.7298, 8640.393
508.2119, 8642.066
508.6940, 8645.607
509.1761, 8649.658
509.6583, 8650.746
510.1404, 8647.996
510.6225, 8647.425
511.1046, 8652.191
511.5867, 8658.502
512.0688, 8662.892
512.5510, 8665.302
513.0331, 8667.568
513.5152, 8668.737
513.9973, 8671.069
514.4794, 8679.080
514.9615, 8692.836
515.4437, 8706.503
515.9258, 8718.288
516.4079, 8726.699
516.8900, 8726.319
517.3721, 8712.643
517.8542, 8700.979
518.3364, 8693.424
518.8185, 8690.193
519.3006, 8692.440
519.7827, 8699.744
520.2648, 8709.759
520.7469, 8720.903
521.2291, 8732.955
521.7112, 8742.359
522.1933, 8744.951
522.6754, 8749.947
523.1575, 8761.862
523.6396, 8774.887
524.1218, 8782.443
524.6039, 8783.502
525.0860, 8783.020
525.5681, 8785.658
526.0502, 8791.399
526.5323, 8799.760
527.0145, 8810.662
527.4966, 8824.404
527.9787, 8843.470
528.4608, 8864.611
528.9429, 8884.004
529.4250, 8901.465
529.9072, 8914.663
530.3893, 8919.450
530.8714, 8918.236
531.3535, 8919.057
531.8356, 8923.606
532.3177, 8929.708
532.7999, 8936.014
533.2820, 8942.377
533.7641, 8946.823
534.2462, 8948.803
534.7283, 8949.390
535.2104, 8947.438
535.6926, 8944.815
536.1747, 8944.667
536.6568, 8948.030
537.1389, 8953.872
537.6210, 8960.996
538.1031, 8970.066
538.5853, 8977.734
539.0674, 8980.309
539.5495, 8985.520
540.0316, 8999.020
540.5137, 9016.151
540.9958, 9028.406
541.4780, 9031.938
541.9601, 9033.699
542.4422, 9046.340
542.9243, 9071.122
543.4064, 9088.755
543.8885, 9095.761
544.3707, 9096.034
544.8528, 9088.525
545.3349, 9076.860
545.8170, 9070.994
546.2991, 9078.292
546.7813, 9087.783
547.2634, 9089.257
547.7455, 9084.083
548.2276, 9078.314
548.7097, 9074.436
549.1918, 9068.267
549.6740, 9053.475
550.1561, 9027.819
550.6382, 9005.649
551.1203, 8988.042
551.6024, 8972.887
552.0845, 8958.094
552.5667, 8945.078
553.0488, 8937.576
553.5309, 8937.217
554.0130, 8939.785
554.4951, 8937.991
554.9772, 8931.223
555.4594, 8921.923
555.9415, 8907.436
556.4236, 8892.896
556.9057, 8878.059
557.3878, 8865.031
557.8699, 8857.774
558.3521, 8858.890
558.8342, 8863.986
559.3163, 8868.669
559.7984, 8872.782
560.2805, 8871.689
560.7626, 8862.241
561.2448, 8851.044
561.7269, 8846.210
562.2090, 8845.866
562.6911, 8840.438
563.1732, 8823.418
563.6553, 8805.294
564.1375, 8792.480
564.6196, 8783.826
565.1017, 8775.782
565.5838, 8767.032
566.0659, 8760.110
566.5480, 8759.431
567.0302, 8767.869
567.5123, 8769.436
567.9944, 8757.448
568.4765, 8746.732
568.9586, 8742.301
569.4407, 8742.816
569.9229, 8747.720
570.4050, 8756.713
570.8871, 8763.751
571.3692, 8757.538
571.8513, 8737.219
572.3334, 8724.472
572.8156, 8724.420
573.2977, 8727.059
573.7798, 8727.840
574.2619, 8726.866
574.7440, 8724.228
575.2261, 8720.226
575.7083, 8714.127
576.1904, 8703.122
576.6725, 8689.841
577.1546, 8680.965
577.6367, 8678.125
578.1188, 8677.471
578.6010, 8674.914
579.0831, 8670.505
579.5652, 8671.399
580.0473, 8680.738
580.5294, 8690.657
581.0115, 8700.388
581.4937, 8708.802
581.9758, 8714.480
582.4579, 8717.218
582.9400, 8718.063
583.4221, 8717.663
583.9042, 8716.112
584.3864, 8715.684
584.8685, 8714.018
