##NAMES=Hennomartinite
##RRUFFID=R130039
##IDEAL CHEMISTRY=SrMn^3+^_2_Si_2_O_7_(OH)_2_&#183;H_2_O
##LOCALITY=Wessels mine, Kuruman, Kalahari manganese field, Cape Province, South Africa
##OWNER=RRUFF
##SOURCE=William W. Pinch
##DESCRIPTION=Brown spherical aggregates, associated with purple sugilite, brownish quartz and white hydroxyapophyllite-(K).
##STATUS=The identification of this mineral has been confirmed only by single crystal X-ray diffraction.
##URL=rruff.info/R130039
222.3653, 221.7049
222.8474, 226.8356
223.3295, 232.0225
223.8116, 237.1820
224.2938, 242.3511
224.7759, 247.6073
225.2580, 253.1425
225.7401, 258.2097
226.2222, 262.8504
226.7043, 266.9867
227.1865, 270.5948
227.6686, 274.0038
228.1507, 276.2889
228.6328, 276.8360
229.1149, 275.3096
229.5970, 272.8272
230.0792, 269.3767
230.5613, 265.0144
231.0434, 260.0077
231.5255, 254.1731
232.0076, 248.0730
232.4897, 242.0024
232.9719, 235.7495
233.4540, 230.0235
233.9361, 224.7652
234.4182, 220.0338
234.9003, 215.9737
235.3824, 212.7404
235.8646, 209.9538
236.3467, 207.4342
236.8288, 205.1601
237.3109, 203.1786
237.7930, 201.4072
238.2751, 199.9312
238.7573, 199.1535
239.2394, 199.6071
239.7215, 199.9804
240.2036, 199.6108
240.6857, 197.9602
241.1678, 196.7809
241.6500, 196.1905
242.1321, 196.0397
242.6142, 195.9827
243.0963, 196.1600
243.5784, 196.2199
244.0605, 195.9102
244.5427, 194.7794
245.0248, 194.4682
245.5069, 195.2752
245.9890, 196.7888
246.4711, 198.0949
246.9532, 199.1045
247.4354, 200.0756
247.9175, 201.0153
248.3996, 201.7329
248.8817, 203.0893
249.3638, 205.3093
249.8459, 208.0447
250.3281, 210.6580
250.8102, 213.0858
251.2923, 215.5167
251.7744, 218.0351
252.2565, 220.6178
252.7386, 223.2755
253.2208, 225.9369
253.7029, 228.7248
254.1850, 231.9314
254.6671, 235.7949
255.1492, 239.6257
255.6313, 243.2021
256.1135, 246.4901
256.5956, 249.6279
257.0777, 252.5051
257.5598, 255.2904
258.0419, 258.2508
258.5240, 261.5309
259.0062, 264.5812
259.4883, 267.2824
259.9704, 269.5859
260.4525, 271.5575
260.9346, 273.1133
261.4167, 274.4145
261.8989, 275.6783
262.3810, 277.0146
262.8631, 278.0003
263.3452, 278.5113
263.8273, 278.5562
264.3094, 278.4387
264.7916, 278.3389
265.2737, 277.8083
265.7558, 276.2527
266.2379, 273.3309
266.7200, 270.5692
267.2021, 268.3657
267.6843, 266.6263
268.1664, 264.2891
268.6485, 261.2058
269.1306, 257.8389
269.6127, 254.6121
270.0948, 251.5881
270.5770, 248.4488
271.0591, 245.1475
271.5412, 241.7162
272.0233, 238.1579
272.5054, 234.4444
272.9875, 230.8250
273.4697, 227.5406
273.9518, 224.6122
274.4339, 221.6859
274.9160, 218.7285
275.3981, 215.7547
275.8802, 212.6943
276.3624, 209.5492
276.8445, 206.4993
277.3266, 203.6617
277.8087, 201.0417
278.2908, 198.5904
278.7729, 196.3445
279.2551, 194.2222
279.7372, 192.0434
280.2193, 189.7637
280.7014, 187.6802
281.1835, 185.9665
281.6656, 184.6188
282.1478, 183.3797
282.6299, 182.2574
283.1120, 181.2032
283.5941, 180.1027
284.0762, 178.9435
284.5583, 177.9098
285.0405, 177.0271
285.5226, 176.3103
286.0047, 175.9426
286.4868, 175.9728
286.9689, 176.1916
287.4510, 176.3687
287.9332, 176.5019
288.4153, 176.5507
288.8974, 176.3993
289.3795, 176.1432
289.8616, 176.1253
290.3438, 176.3417
290.8259, 176.8208
291.3080, 177.7215
291.7901, 178.9685
292.2722, 180.1596
292.7543, 181.0993
293.2365, 181.9153
293.7186, 182.9065
294.2007, 184.0663
294.6828, 185.2949
295.1649, 186.4779
295.6470, 187.6443
296.1292, 188.9469
296.6113, 190.4736
297.0934, 192.0815
297.5755, 193.5701
298.0576, 194.9512
298.5397, 196.2706
299.0219, 197.5773
299.5040, 198.8662
299.9861, 200.0838
300.4682, 201.1719
300.9503, 202.2872
301.4324, 203.7823
301.9146, 205.5324
302.3967, 207.0728
302.8788, 207.8247
303.3609, 208.2673
303.8430, 209.2027
304.3251, 210.9047
304.8073, 212.4731
305.2894, 212.9490
305.7715, 212.6322
306.2536, 212.2687
306.7357, 211.9652
307.2178, 211.9435
307.7000, 212.5337
308.1821, 213.8044
308.6642, 215.2223
309.1463, 216.4314
309.6284, 217.5157
310.1105, 218.6261
310.5927, 219.9856
311.0748, 221.2590
311.5569, 222.0905
312.0390, 222.4818
312.5211, 223.0381
313.0032, 224.1633
313.4854, 225.6195
313.9675, 227.1403
314.4496, 228.6415
314.9317, 230.1831
315.4138, 231.9493
315.8959, 233.8632
316.3781, 235.5004
316.8602, 236.1928
317.3423, 236.8038
317.8244, 238.0165
318.3065, 240.6553
318.7886, 242.9480
319.2708, 243.9413
319.7529, 244.0808
320.2350, 244.6235
320.7171, 246.2975
321.1992, 248.1870
321.6813, 249.8635
322.1635, 251.2654
322.6456, 252.4571
323.1277, 253.4472
323.6098, 254.2310
324.0919, 254.8043
324.5740, 255.1612
325.0562, 255.3011
325.5383, 255.2713
326.0204, 255.1467
326.5025, 254.5535
326.9846, 253.1560
327.4667, 251.4119
327.9489, 249.7940
328.4310, 248.8334
328.9131, 247.4145
329.3952, 245.2612
329.8773, 242.3590
330.3594, 239.4132
330.8416, 236.4851
331.3237, 233.4966
331.8058, 230.4019
332.2879, 227.1663
332.7700, 223.8518
333.2521, 220.3732
333.7343, 216.7770
334.2164, 213.2824
334.6985, 209.9568
335.1806, 206.6824
335.6627, 203.3424
336.1448, 199.8235
336.6270, 196.6733
337.1091, 193.9533
337.5912, 191.6091
338.0733, 189.5380
338.5554, 187.8240
339.0375, 186.1743
339.5197, 184.3706
340.0018, 182.3909
340.4839, 181.0651
340.9660, 180.6231
341.4481, 180.3862
341.9302, 179.3623
342.4124, 177.4640
342.8945, 175.8462
343.3766, 174.8439
343.8587, 174.3904
344.3408, 174.2040
344.8229, 174.3094
345.3051, 174.5205
345.7872, 174.5951
346.2693, 174.5851
346.7514, 174.8635
347.2335, 175.5515
347.7156, 176.5081
348.1978, 177.5031
348.6799, 178.5331
349.1620, 179.5377
349.6441, 180.3341
350.1262, 181.0858
350.6083, 182.2210
351.0905, 183.8619
351.5726, 185.6752
352.0547, 187.2434
352.5368, 188.6605
353.0189, 190.2108
353.5010, 192.0927
353.9832, 194.1596
354.4653, 196.1930
354.9474, 198.1944
355.4295, 200.3460
355.9116, 202.7540
356.3937, 205.4275
356.8759, 208.3434
357.3580, 211.6915
357.8401, 215.1432
358.3222, 218.4578
358.8043, 221.6852
359.2864, 224.9406
359.7686, 228.1243
360.2507, 231.4686
360.7328, 235.1280
361.2149, 239.1645
361.6970, 243.5188
362.1791, 248.4005
362.6613, 253.5872
363.1434, 258.5700
363.6255, 262.7021
364.1076, 266.9757
364.5897, 271.9921
365.0718, 277.9803
365.5540, 283.7824
366.0361, 288.9081
366.5182, 293.8295
367.0003, 299.1138
367.4824, 305.2461
367.9645, 311.3172
368.4467, 317.1615
368.9288, 322.6754
369.4109, 328.2070
369.8930, 333.4970
370.3751, 339.0151
370.8572, 345.1445
371.3394, 352.3461
371.8215, 359.2641
372.3036, 365.6393
372.7857, 371.6679
373.2678, 378.1473
373.7499, 385.3165
374.2321, 392.6085
374.7142, 399.6268
375.1963, 406.2440
375.6784, 413.3785
376.1605, 421.2082
376.6426, 429.2731
377.1248, 436.5578
377.6069, 443.0363
378.0890, 449.3754
378.5711, 455.8649
379.0532, 462.4358
379.5353, 468.0465
380.0175, 472.6479
380.4996, 476.8007
380.9817, 481.3417
381.4638, 486.0943
381.9459, 489.6606
382.4280, 491.5356
382.9102, 492.3128
383.3923, 493.0984
383.8744, 493.8455
384.3565, 494.0388
384.8386, 493.2284
385.3207, 491.6465
385.8029, 489.8000
386.2850, 487.7384
386.7671, 485.3125
387.2492, 482.4546
387.7313, 479.1031
388.2134, 475.1650
388.6956, 470.3098
389.1777, 465.1062
389.6598, 460.1426
390.1419, 455.4140
390.6240, 450.3184
391.1061, 444.3413
391.5883, 437.8248
392.0704, 431.0620
392.5525, 423.7614
393.0346, 416.7704
393.5167, 410.6661
393.9988, 405.1253
394.4810, 399.1659
394.9631, 391.9777
395.4452, 384.6480
395.9273, 377.7792
396.4094, 371.6490
396.8915, 365.3012
397.3737, 358.1258
397.8558, 350.7754
398.3379, 344.0541
398.8200, 338.8083
399.3021, 333.3737
399.7842, 327.2352
400.2664, 320.3965
400.7485, 314.0932
401.2306, 308.5965
401.7127, 303.4400
402.1948, 298.3209
402.6769, 293.0343
403.1591, 288.2871
403.6412, 284.4298
404.1233, 281.0055
404.6054, 276.6230
405.0875, 270.9492
405.5696, 265.4293
406.0518, 260.6254
406.5339, 256.5480
407.0160, 252.9768
407.4981, 250.0470
407.9802, 247.3530
408.4623, 244.4686
408.9445, 241.3864
409.4266, 238.2433
409.9087, 235.0139
410.3908, 231.8071
410.8729, 228.9346
411.3550, 226.3812
411.8372, 223.9823
412.3193, 221.4754
412.8014, 219.0217
413.2835, 217.0294
413.7656, 215.5981
414.2477, 214.3791
414.7299, 213.0403
415.2120, 211.6244
415.6941, 210.2754
416.1762, 209.0169
416.6583, 207.8580
417.1404, 206.8227
417.6226, 205.8964
418.1047, 205.0197
418.5868, 204.1060
419.0689, 203.2371
419.5510, 202.4807
420.0331, 201.9170
420.5153, 201.3930
420.9974, 200.9449
421.4795, 200.5068
421.9616, 199.9265
422.4437, 198.8703
422.9258, 197.9139
423.4080, 197.3450
423.8901, 197.3054
424.3722, 197.1985
424.8543, 197.0178
425.3364, 196.7364
425.8185, 196.3077
426.3007, 195.3904
426.7828, 194.8348
427.2649, 194.9320
427.7470, 195.5465
428.2291, 195.7475
428.7112, 195.2934
429.1934, 194.8403
429.6755, 194.8314
430.1576, 195.4312
430.6397, 195.5603
431.1218, 195.0315
431.6039, 194.2784
432.0861, 194.0687
432.5682, 194.4495
433.0503, 194.6549
433.5324, 194.3411
434.0145, 193.6666
434.4966, 193.2474
434.9788, 193.0974
435.4609, 192.8401
435.9430, 191.8489
436.4251, 190.4857
436.9072, 189.8683
437.3893, 190.4138
437.8715, 191.1873
438.3536, 191.2066
438.8357, 190.5969
439.3178, 189.7071
439.7999, 188.4314
440.2820, 187.1274
440.7642, 186.1958
441.2463, 185.6483
441.7284, 185.0709
442.2105, 184.1629
442.6926, 183.1373
443.1747, 182.1978
443.6569, 181.3985
444.1390, 180.6858
444.6211, 180.1773
445.1032, 179.7603
445.5853, 179.1254
446.0674, 177.8469
446.5496, 176.6643
447.0317, 175.9535
447.5138, 176.0080
447.9959, 175.5751
448.4780, 174.1973
448.9601, 172.6556
449.4423, 171.7533
449.9244, 171.9666
450.4065, 171.8184
450.8886, 170.8814
451.3707, 169.4351
451.8528, 168.7134
452.3350, 168.9210
452.8171, 169.2217
453.2992, 169.1742
453.7813, 168.7709
454.2634, 168.2045
454.7455, 167.3752
455.2277, 166.6901
455.7098, 166.8237
456.1919, 167.6548
456.6740, 168.3741
457.1561, 168.6618
457.6382, 168.7166
458.1204, 168.8000
458.6025, 168.9250
459.0846, 169.1710
459.5667, 169.4666
460.0488, 169.9716
460.5309, 171.1122
461.0131, 173.1669
461.4952, 174.8068
461.9773, 174.4146
462.4594, 173.1510
462.9415, 172.7108
463.4236, 174.5823
463.9058, 176.6176
464.3879, 177.8723
464.8700, 178.3903
465.3521, 178.9566
465.8342, 179.8152
466.3163, 180.7412
466.7985, 181.6231
467.2806, 182.4989
467.7627, 183.2307
468.2448, 183.6677
468.7269, 184.0170
469.2090, 184.6378
469.6912, 185.9745
470.1733, 186.7609
470.6554, 186.5493
471.1375, 185.4620
471.6196, 184.7498
472.1017, 184.5775
472.5839, 184.3143
473.0660, 183.3165
473.5481, 181.5771
474.0302, 180.5225
474.5123, 180.3690
474.9944, 180.6404
475.4766, 180.7212
475.9587, 180.6265
476.4408, 180.4321
476.9229, 180.0697
477.4050, 179.6921
477.8871, 179.5723
478.3693, 179.6947
478.8514, 179.9037
479.3335, 180.0577
479.8156, 180.2521
480.2977, 180.5679
480.7798, 180.9758
481.2620, 181.6446
481.7441, 182.7527
482.2262, 184.1629
482.7083, 185.6731
483.1904, 187.3841
483.6725, 189.0229
484.1547, 190.4610
484.6368, 191.6989
485.1189, 192.8904
485.6010, 193.8236
486.0831, 194.9016
486.5652, 196.3122
487.0474, 198.1511
487.5295, 200.1419
488.0116, 202.2936
488.4937, 204.5667
488.9758, 206.9199
489.4579, 209.3393
489.9401, 211.9102
490.4222, 214.7106
490.9043, 217.6769
491.3864, 220.6046
491.8685, 223.4826
492.3506, 226.4866
492.8328, 229.7842
493.3149, 233.3132
493.7970, 236.8147
494.2791, 240.2427
494.7612, 243.8461
495.2433, 247.9887
495.7255, 252.5759
496.2076, 257.4170
496.6897, 262.5909
497.1718, 267.8490
497.6539, 272.7696
498.1360, 277.4561
498.6182, 282.4281
499.1003, 288.0557
499.5824, 293.9737
500.0645, 299.8004
500.5466, 305.5600
501.0287, 311.3315
501.5109, 316.9196
501.9930, 322.6445
502.4751, 328.7571
502.9572, 335.6540
503.4393, 342.5040
503.9214, 349.2761
504.4036, 355.8769
504.8857, 362.1611
505.3678, 368.0801
505.8499, 373.8861
506.3320, 379.7501
506.8141, 385.7064
507.2963, 391.2116
507.7784, 396.3159
508.2605, 401.0154
508.7426, 405.4703
509.2247, 409.6571
509.7068, 413.2681
510.1890, 416.3288
510.6711, 418.6239
511.1532, 419.5944
511.6353, 419.3636
512.1174, 418.5342
512.5995, 417.5202
513.0817, 416.0231
513.5638, 413.6158
514.0459, 410.3083
514.5280, 406.4977
515.0101, 402.2586
515.4922, 397.7105
515.9744, 393.0313
516.4565, 388.3076
516.9386, 383.2977
517.4207, 377.4499
517.9028, 371.3623
518.3849, 366.0135
518.8671, 362.2671
519.3492, 358.5182
519.8313, 354.2383
520.3134, 349.5251
520.7955, 345.2682
521.2776, 341.4191
521.7598, 338.0788
522.2419, 335.4326
522.7240, 333.6052
523.2061, 331.6909
523.6882, 329.6025
524.1703, 327.5684
524.6525, 325.8021
525.1346, 324.3065
525.6167, 323.2736
526.0988, 322.8312
526.5809, 322.8135
527.0630, 322.9213
527.5452, 323.1833
528.0273, 323.7410
528.5094, 324.8669
528.9915, 326.2390
529.4736, 327.4229
529.9557, 328.3770
530.4379, 329.5979
530.9200, 331.1257
531.4021, 333.2020
531.8842, 336.0972
532.3663, 340.3312
532.8484, 344.7158
533.3306, 348.8278
533.8127, 352.8888
534.2948, 357.2658
534.7769, 362.2389
535.2590, 367.2983
535.7411, 372.1776
536.2233, 376.8839
536.7054, 382.5521
537.1875, 389.5143
537.6696, 396.7186
538.1517, 403.4085
538.6339, 409.4326
539.1160, 416.2974
539.5981, 424.1172
540.0802, 432.6191
540.5623, 441.9388
541.0444, 451.9098
541.5266, 461.7438
542.0087, 470.8755
542.4908, 480.1086
542.9729, 490.5769
543.4550, 502.0087
543.9371, 513.6589
544.4193, 525.0977
544.9014, 536.6902
545.3835, 548.7896
545.8656, 561.4330
546.3477, 574.3166
546.8298, 587.5296
547.3120, 600.9929
547.7941, 614.5332
548.2762, 628.2998
548.7583, 642.0372
549.2404, 655.7640
549.7225, 669.4422
550.2047, 683.0580
550.6868, 696.8055
551.1689, 710.1312
551.6510, 722.6074
552.1331, 734.4516
552.6152, 746.9480
553.0974, 760.3289
553.5795, 773.2514
554.0616, 784.8440
554.5437, 795.2219
555.0258, 804.9549
555.5079, 814.1065
555.9901, 822.6920
556.4722, 831.0902
556.9543, 839.0168
557.4364, 845.8199
557.9185, 851.0690
558.4006, 855.5420
558.8828, 860.3088
559.3649, 864.7928
559.8470, 867.7852
560.3291, 868.8048
560.8112, 868.1633
561.2933, 865.8340
561.7755, 861.8044
562.2576, 856.7062
562.7397, 850.5797
563.2218, 843.4466
563.7039, 835.2709
564.1860, 825.9944
564.6682, 815.7899
565.1503, 804.6938
565.6324, 792.5187
566.1145, 778.9403
566.5966, 763.7041
567.0787, 748.4821
567.5609, 733.6711
568.0430, 719.0558
568.5251, 704.7778
569.0072, 690.6392
569.4893, 676.0820
569.9714, 660.2342
570.4536, 643.8571
570.9357, 627.8118
571.4178, 612.1882
571.8999, 596.9460
572.3820, 582.5759
572.8641, 568.4291
573.3463, 554.0562
573.8284, 538.9062
574.3105, 524.3582
574.7926, 510.9086
575.2747, 498.2336
575.7568, 485.9976
576.2390, 474.2712
576.7211, 462.6048
577.2032, 450.7523
577.6853, 438.8930
578.1674, 428.1372
578.6495, 418.8226
579.1317, 409.6172
579.6138, 399.7847
580.0959, 389.5020
580.5780, 380.3790
581.0601, 372.4077
581.5422, 364.8509
582.0244, 356.9846
582.5065, 349.0101
582.9886, 341.5800
583.4707, 334.6797
583.9528, 328.2455
584.4349, 322.3247
584.9171, 316.7811
585.3992, 311.4188
585.8813, 306.5726
586.3634, 301.4295
586.8455, 295.2486
587.3276, 288.4748
587.8098, 282.5683
588.2919, 278.4005
588.7740, 274.5410
589.2561, 270.6098
589.7382, 266.6040
590.2203, 262.5896
590.7025, 258.4567
591.1846, 254.5858
591.6667, 251.3353
592.1488, 248.7475
592.6309, 246.0267
593.1130, 243.1319
593.5952, 240.1101
594.0773, 236.8092
594.5594, 233.3745
595.0415, 230.5070
595.5236, 228.5934
596.0057, 226.8544
596.4879, 224.3569
596.9700, 221.3726
597.4521, 218.5601
597.9342, 216.0210
598.4163, 213.9099
598.8984, 212.6587
599.3806, 212.1142
599.8627, 210.9722
600.3448, 208.4551
600.8269, 205.6754
601.3090, 203.0777
601.7911, 200.6139
602.2733, 198.5208
602.7554, 196.9110
603.2375, 195.5147
603.7196, 194.1017
604.2017, 192.6456
604.6838, 191.3565
605.1660, 190.2946
605.6481, 189.3027
606.1302, 188.0978
606.6123, 186.7344
607.0944, 185.4691
607.5765, 184.3947
608.0587, 183.4534
608.5408, 182.5640
609.0229, 181.7401
609.5050, 180.9993
609.9871, 180.5402
610.4692, 180.0211
610.9514, 179.1922
611.4335, 178.0123
611.9156, 176.8676
612.3977, 175.7763
612.8798, 174.7882
613.3619, 173.9666
613.8441, 173.4443
614.3262, 172.7311
614.8083, 171.7511
615.2904, 170.6812
615.7725, 169.7308
616.2546, 168.9006
616.7368, 168.2242
617.2189, 167.7439
617.7010, 167.3459
618.1831, 166.8122
618.6652, 166.1781
619.1473, 165.5800
619.6295, 165.0293
620.1116, 164.5912
620.5937, 164.4851
621.0758, 164.6128
621.5579, 164.4776
622.0400, 163.4913
622.5222, 162.4460
623.0043, 161.7674
623.4864, 161.5138
623.9685, 161.5345
624.4506, 162.2492
624.9327, 162.8660
625.4149, 162.7986
625.8970, 161.7209
626.3791, 160.9371
626.8612, 160.5050
627.3433, 160.3515
627.8254, 160.4490
628.3076, 160.7851
628.7897, 161.0928
629.2718, 161.2999
629.7539, 161.4574
630.2360, 161.6879
630.7181, 161.9445
631.2003, 162.0745
631.6824, 161.7362
632.1645, 161.4516
632.6466, 161.7702
633.1287, 162.5886
633.6108, 163.1810
634.0930, 162.9348
634.5751, 162.7104
635.0572, 162.9817
635.5393, 163.8784
636.0214, 164.6708
636.5035, 165.1686
636.9857, 165.7969
637.4678, 166.9674
637.9499, 168.7890
638.4320, 170.3118
638.9141, 171.4262
639.3962, 172.3374
639.8784, 173.2051
640.3605, 174.0685
640.8426, 175.1312
641.3247, 176.4340
641.8068, 177.9685
642.2889, 179.8349
642.7711, 181.9297
643.2532, 184.0661
643.7353, 185.9101
644.2174, 187.9852
644.6995, 190.5903
645.1816, 193.6735
645.6638, 196.9000
646.1459, 200.1439
646.6280, 203.5976
647.1101, 207.3616
647.5922, 211.4075
648.0743, 215.7210
648.5565, 220.2968
649.0386, 225.0764
649.5207, 229.8628
650.0028, 234.6830
650.4849, 239.9106
650.9670, 245.5620
651.4492, 251.3583
651.9313, 256.6792
652.4134, 261.9446
652.8955, 267.8896
653.3776, 275.0151
653.8597, 282.3877
654.3419, 289.5201
654.8240, 296.5348
655.3061, 303.5000
655.7882, 310.3407
656.2703, 317.2575
656.7524, 324.3898
657.2346, 331.6434
657.7167, 338.7754
658.1988, 345.8900
658.6809, 352.6890
659.1630, 359.2448
659.6451, 365.4159
660.1273, 370.3692
660.6094, 374.1468
661.0915, 376.8368
661.5736, 378.4475
662.0557, 379.0718
662.5378, 379.0761
663.0200, 378.4667
663.5021, 376.4662
663.9842, 372.3889
664.4663, 366.7109
664.9484, 359.8578
665.4305, 351.7165
665.9127, 342.8601
666.3948, 332.8529
666.8769, 322.4991
667.3590, 312.5924
667.8411, 303.6059
668.3232, 294.2148
668.8054, 284.1694
669.2875, 273.9803
669.7696, 264.5837
670.2517, 255.9854
670.7338, 247.8088
671.2159, 239.9632
671.6981, 232.5876
672.1802, 226.0160
672.6623, 220.2194
673.1444, 214.8530
673.6265, 209.9234
674.1086, 205.2952
674.5908, 200.8269
675.0729, 196.5843
675.5550, 192.7380
676.0371, 189.4619
676.5192, 186.5061
677.0013, 183.7312
677.4835, 181.1283
677.9656, 178.6505
678.4477, 176.2873
678.9298, 174.0301
679.4119, 171.8633
679.8940, 169.7602
680.3762, 167.9724
680.8583, 166.5070
681.3404, 165.1933
681.8225, 163.8161
682.3046, 162.4510
682.7867, 161.2691
683.2689, 160.3925
683.7510, 159.4351
684.2331, 157.8965
684.7152, 156.2075
685.1973, 154.9533
685.6794, 155.0007
686.1616, 154.6250
686.6437, 153.2422
687.1258, 151.3155
687.6079, 149.5949
688.0900, 147.9531
688.5721, 146.9585
689.0543, 147.0108
689.5364, 147.6414
690.0185, 147.4041
690.5006, 146.3219
690.9827, 145.1357
691.4648, 144.1749
691.9470, 143.3522
692.4291, 142.4263
692.9112, 141.4544
693.3933, 140.7566
693.8754, 140.8168
694.3575, 140.9603
694.8397, 140.7081
695.3218, 139.9883
695.8039, 139.3605
696.2860, 138.9096
696.7681, 138.5639
697.2502, 138.3238
697.7324, 138.2490
698.2145, 137.9641
698.6966, 137.4078
699.1787, 136.8165
699.6608, 136.4948
700.1429, 136.3631
700.6251, 135.9313
701.1072, 135.0677
701.5893, 134.2867
702.0714, 134.1802
702.5535, 134.4580
703.0356, 134.6993
703.5178, 134.7572
703.9999, 134.8025
704.4820, 135.0121
704.9641, 135.2157
705.4462, 135.1375
705.9283, 134.5904
706.4105, 134.0374
706.8926, 133.4743
707.3747, 132.9750
707.8568, 132.7787
708.3389, 132.9166
708.8210, 132.9224
709.3032, 132.5480
709.7853, 132.0317
710.2674, 131.9651
710.7495, 132.2260
711.2316, 132.3018
711.7137, 131.6500
712.1959, 130.9262
712.6780, 130.6407
713.1601, 130.7495
713.6422, 130.8436
714.1243, 130.9098
714.6064, 130.8330
715.0886, 130.5166
715.5707, 129.9476
716.0528, 129.5567
716.5349, 129.3836
717.0170, 129.2808
