##NAMES=Hennomartinite
##RRUFFID=R130039
##IDEAL CHEMISTRY=SrMn^3+^_2_Si_2_O_7_(OH)_2_&#183;H_2_O
##LOCALITY=Wessels mine, Kuruman, Kalahari manganese field, Cape Province, South Africa
##OWNER=RRUFF
##SOURCE=William W. Pinch
##DESCRIPTION=Brown spherical aggregates, associated with purple sugilite, brownish quartz and white hydroxyapophyllite-(K).
##STATUS=The identification of this mineral has been confirmed only by single crystal X-ray diffraction.
##URL=rruff.info/R130039
219.3208, 106.1573
219.8029, 107.7888
220.2850, 109.6295
220.7671, 111.4236
221.2492, 113.1551
221.7314, 114.9123
222.2135, 116.7380
222.6956, 118.6508
223.1777, 120.8242
223.6598, 123.4279
224.1419, 126.1655
224.6240, 128.8547
225.1062, 131.4821
225.5883, 134.0185
226.0704, 136.4628
226.5525, 138.7820
227.0346, 140.9134
227.5167, 143.1411
227.9989, 144.9939
228.4810, 146.0998
228.9631, 146.4468
229.4452, 145.9561
229.9273, 144.4808
230.4094, 142.0617
230.8916, 138.8154
231.3737, 134.3125
231.8558, 129.2357
232.3379, 124.1777
232.8200, 119.0858
233.3021, 114.3889
233.7843, 110.4770
234.2664, 107.1192
234.7485, 104.0324
235.2306, 101.1940
235.7127, 98.55871
236.1948, 95.99995
236.6770, 93.44450
237.1591, 91.21916
237.6412, 89.63161
238.1233, 88.41770
238.6054, 87.33430
239.0875, 86.33463
239.5697, 85.39352
240.0518, 84.45236
240.5339, 83.46140
241.0160, 82.62436
241.4981, 82.10732
241.9802, 81.73730
242.4624, 81.35811
242.9445, 80.91067
243.4266, 80.45680
243.9087, 80.12508
244.3908, 79.98409
244.8729, 79.77654
245.3550, 79.21253
245.8372, 78.66548
246.3193, 78.49330
246.8014, 78.82737
247.2835, 79.44337
247.7656, 79.98176
248.2477, 80.43630
248.7299, 80.81506
249.2120, 81.00483
249.6941, 81.19456
250.1762, 81.53167
250.6583, 82.06164
251.1404, 82.71972
251.6226, 83.40121
252.1047, 84.07180
252.5868, 84.84621
253.0689, 85.85525
253.5510, 86.87656
254.0331, 87.71797
254.5153, 88.34483
254.9974, 88.92002
255.4795, 89.70740
255.9616, 90.81898
256.4437, 91.90659
256.9258, 92.91329
257.4080, 93.93191
257.8901, 95.09374
258.3722, 96.38718
258.8543, 97.63528
259.3364, 98.58928
259.8185, 99.14011
260.3007, 99.65048
260.7828, 100.1784
261.2649, 100.6371
261.7470, 101.0219
262.2291, 101.3058
262.7112, 101.3954
263.1934, 101.1535
263.6755, 100.4410
264.1576, 99.89796
264.6397, 99.91767
265.1218, 99.75278
265.6039, 98.84644
266.0861, 97.28380
266.5682, 95.62501
267.0503, 94.43592
267.5324, 93.83084
268.0145, 92.98528
268.4966, 91.79385
268.9788, 90.51333
269.4609, 89.26810
269.9430, 88.05336
270.4251, 86.78503
270.9072, 85.36674
271.3893, 83.79465
271.8715, 82.47796
272.3536, 81.50550
272.8357, 80.64174
273.3178, 79.98180
273.7999, 79.37824
274.2820, 78.42898
274.7642, 76.78899
275.2463, 74.54932
275.7284, 72.89842
276.2105, 72.11205
276.6926, 71.45200
277.1747, 70.71206
277.6568, 69.90730
278.1389, 69.09573
278.6211, 68.30262
279.1032, 67.53519
279.5853, 66.82348
280.0674, 66.03387
280.5495, 65.43420
281.0316, 65.24250
281.5138, 65.26854
281.9959, 65.17304
282.4780, 64.80570
282.9601, 64.25216
283.4422, 63.72213
283.9243, 63.16614
284.4065, 62.71174
284.8886, 62.41843
285.3707, 62.23399
285.8528, 62.08820
286.3349, 61.95978
286.8170, 61.85199
287.2992, 61.75575
287.7813, 61.63006
288.2634, 61.64622
288.7455, 61.96767
289.2276, 62.39149
289.7097, 62.64570
290.1919, 62.66367
290.6740, 62.62033
291.1561, 62.72282
291.6382, 62.98438
292.1203, 63.30436
292.6024, 63.75525
293.0846, 64.21439
293.5667, 64.52226
294.0488, 64.66360
294.5309, 64.82214
295.0130, 65.18100
295.4951, 65.74760
295.9773, 66.27849
296.4594, 66.73342
296.9415, 67.17269
297.4236, 67.67599
297.9057, 68.23174
298.3878, 68.71204
298.8700, 68.99847
299.3521, 69.12264
299.8342, 69.33207
300.3163, 69.68301
300.7984, 70.06339
301.2805, 70.37988
301.7627, 70.65855
302.2448, 71.05373
302.7269, 71.72383
303.2090, 72.50709
303.6911, 72.92552
304.1732, 72.78878
304.6554, 72.64333
305.1375, 72.76347
305.6196, 73.06319
306.1017, 73.32418
306.5838, 73.46751
307.0659, 73.52917
307.5481, 73.54643
308.0302, 73.47630
308.5123, 73.51646
308.9944, 73.81314
309.4765, 74.24474
309.9586, 74.60760
310.4408, 74.84977
310.9229, 75.01100
311.4050, 75.10880
311.8871, 75.13818
312.3692, 75.21994
312.8513, 75.38274
313.3335, 75.60741
313.8156, 75.86093
314.2977, 76.13609
314.7798, 76.49106
315.2619, 77.04845
315.7440, 77.78325
316.2262, 78.31855
316.7083, 78.46153
317.1904, 78.50829
317.6725, 78.70850
318.1546, 79.06279
318.6367, 79.41700
319.1188, 79.64793
319.6010, 79.79900
320.0831, 80.07543
320.5652, 80.53873
321.0473, 81.06233
321.5294, 81.62109
322.0115, 82.19283
322.4937, 82.72199
322.9758, 83.20367
323.4579, 83.59389
323.9400, 83.76554
324.4221, 83.66544
324.9042, 83.51608
325.3864, 83.40664
325.8685, 83.30042
326.3506, 83.12914
326.8327, 82.87175
327.3148, 82.54221
327.7969, 82.18030
328.2791, 81.82510
328.7612, 81.26625
329.2433, 80.30501
329.7254, 79.19485
330.2075, 78.26784
330.6896, 77.58131
331.1718, 76.87910
331.6539, 75.85095
332.1360, 74.46688
332.6181, 73.31432
333.1002, 72.71621
333.5823, 72.13140
334.0645, 71.03343
334.5466, 69.48940
335.0287, 68.08036
335.5108, 67.25005
335.9929, 66.91559
336.4750, 66.41202
336.9572, 65.62038
337.4393, 64.80054
337.9214, 64.00671
338.4035, 63.26340
338.8856, 62.64873
339.3677, 62.21423
339.8499, 61.89386
340.3320, 61.50952
340.8141, 60.99855
341.2962, 60.54652
341.7783, 60.21183
342.2604, 59.94642
342.7426, 59.67609
343.2247, 59.38041
343.7068, 59.12679
344.1889, 59.02137
344.6710, 59.14158
345.1531, 59.19471
345.6353, 59.03111
346.1174, 58.90298
346.5995, 59.06633
347.0816, 59.50533
347.5637, 59.95422
348.0458, 60.15861
348.5280, 60.10164
349.0101, 60.18372
349.4922, 60.45441
349.9743, 60.78741
350.4564, 61.13078
350.9385, 61.49217
351.4207, 61.89410
351.9028, 62.34393
352.3849, 62.85132
352.8670, 63.46979
353.3491, 64.39748
353.8312, 65.18892
354.3134, 65.66896
354.7955, 66.03173
355.2776, 66.48151
355.7597, 67.09286
356.2418, 67.85318
356.7239, 68.75584
357.2061, 69.88818
357.6882, 70.99476
358.1703, 72.06992
358.6524, 73.12752
359.1345, 74.17346
359.6166, 75.21101
360.0987, 76.21812
360.5808, 77.16112
361.0630, 78.01540
361.5451, 79.05090
362.0272, 80.33282
362.5093, 81.71022
362.9914, 83.23614
363.4735, 84.81874
363.9557, 86.23049
364.4378, 87.30853
364.9199, 88.19830
365.4020, 89.53406
365.8841, 91.71266
366.3662, 93.81738
366.8484, 95.76356
367.3305, 97.57152
367.8126, 99.20999
368.2947, 100.6786
368.7768, 102.1270
369.2589, 103.8281
369.7411, 105.9317
370.2232, 107.8711
370.7053, 109.4917
371.1874, 111.0729
371.6695, 112.7283
372.1516, 114.4812
372.6338, 116.3727
373.1159, 118.4818
373.5980, 120.7934
374.0801, 122.9224
374.5622, 124.7189
375.0443, 126.5102
375.5265, 128.3831
376.0086, 130.3290
376.4907, 132.3260
376.9728, 134.3930
377.4549, 136.4671
377.9370, 138.3973
378.4192, 140.1190
378.9013, 141.8788
379.3834, 143.8565
379.8655, 145.8329
380.3476, 147.7222
380.8297, 149.5011
381.3119, 150.9566
381.7940, 151.7156
382.2761, 151.7968
382.7582, 152.0605
383.2403, 152.7549
383.7224, 153.4932
384.2046, 154.1654
384.6867, 154.6980
385.1688, 154.8552
385.6509, 154.2887
386.1330, 153.2935
386.6151, 152.6206
387.0973, 152.4264
387.5794, 151.9914
388.0615, 150.6643
388.5436, 148.8901
389.0257, 147.2922
389.5078, 146.0790
389.9900, 144.8947
390.4721, 143.4358
390.9542, 141.7177
391.4363, 139.9068
391.9184, 138.0449
392.4005, 136.1219
392.8827, 134.1379
393.3648, 132.1016
393.8469, 129.9679
394.3290, 127.6765
394.8111, 125.2955
395.2932, 122.9430
395.7754, 120.6134
396.2575, 118.3483
396.7396, 116.2186
397.2217, 114.1996
397.7038, 112.0146
398.1859, 109.3038
398.6681, 106.7053
399.1501, 104.7092
399.6323, 103.1973
400.1144, 101.7553
400.5965, 100.2222
401.0786, 98.55264
401.5607, 96.58794
402.0428, 94.01358
402.5250, 91.73338
403.0071, 90.04870
403.4892, 88.67007
403.9713, 87.29848
404.4534, 85.86557
404.9355, 84.43208
405.4177, 83.06752
405.8998, 81.78783
406.3819, 80.55305
406.8640, 79.37710
407.3461, 78.23167
407.8282, 77.02303
408.3104, 75.82627
408.7925, 74.83818
409.2746, 74.19033
409.7567, 73.79948
410.2388, 73.27195
410.7209, 72.62804
411.2031, 71.79861
411.6852, 70.57986
412.1673, 69.28506
412.6494, 68.21888
413.1315, 67.45444
413.6136, 66.83579
414.0958, 66.15199
414.5779, 65.35899
415.0600, 64.66678
415.5421, 64.09618
416.0242, 63.61489
416.5063, 63.27845
416.9885, 63.02490
417.4706, 62.71958
417.9527, 62.25152
418.4348, 61.68897
418.9169, 61.26861
419.3990, 61.05310
419.8812, 60.84801
420.3633, 60.59261
420.8454, 60.32165
421.3275, 60.07656
421.8096, 59.86885
422.2917, 59.64866
422.7739, 59.33187
423.2560, 58.92744
423.7381, 58.61282
424.2202, 58.42106
424.7023, 58.32197
425.1844, 58.31791
425.6666, 58.38370
426.1487, 58.42825
426.6308, 58.35533
427.1129, 58.26546
427.5950, 58.35193
428.0771, 58.62978
428.5593, 58.84538
429.0414, 58.87593
429.5235, 58.74206
430.0056, 58.50580
430.4877, 58.08343
430.9698, 57.75031
431.4520, 57.67247
431.9341, 57.77639
432.4162, 57.96590
432.8983, 58.23833
433.3804, 58.43166
433.8625, 58.29723
434.3447, 57.76892
434.8268, 57.48627
435.3089, 57.71148
435.7910, 57.98253
436.2731, 57.98027
436.7552, 57.75079
437.2374, 57.51521
437.7195, 57.40606
438.2016, 57.37905
438.6837, 57.26726
439.1658, 56.93726
439.6479, 56.69296
440.1301, 56.62926
440.6122, 56.61847
441.0943, 56.57680
441.5764, 56.47035
442.0585, 56.24990
442.5406, 55.82607
443.0227, 55.14135
443.5049, 54.66924
443.9870, 54.60040
444.4691, 54.55151
444.9512, 54.45026
445.4333, 54.28307
445.9154, 54.03215
446.3976, 53.68299
446.8797, 53.28020
447.3618, 52.91304
447.8439, 52.57115
448.3260, 52.29711
448.8081, 52.10466
449.2903, 51.97797
449.7724, 51.96913
450.2545, 52.05203
450.7366, 52.05935
451.2187, 51.79795
451.7008, 51.34166
452.1830, 51.03381
452.6651, 50.94825
453.1472, 50.84445
453.6293, 50.55785
454.1114, 50.16821
454.5935, 49.76278
455.0757, 49.31190
455.5578, 48.94542
456.0399, 48.80290
456.5220, 48.84600
457.0041, 48.91937
457.4862, 49.00216
457.9684, 49.05164
458.4505, 48.98439
458.9326, 48.80182
459.4147, 48.65458
459.8968, 48.59297
460.3789, 48.56138
460.8611, 48.43892
461.3432, 48.26947
461.8253, 48.32501
462.3074, 48.83169
462.7895, 49.63234
463.2716, 50.07735
463.7538, 49.83046
464.2359, 49.69471
464.7180, 49.82008
465.2001, 50.06630
465.6822, 50.30366
466.1643, 50.50122
466.6465, 50.67638
467.1286, 50.82885
467.6107, 50.93874
468.0928, 51.23355
468.5749, 52.11632
469.0570, 52.75038
469.5392, 52.80361
470.0213, 52.49076
470.5034, 52.10347
470.9855, 51.76369
471.4676, 51.49263
471.9497, 51.36308
472.4319, 51.43095
472.9140, 51.39527
473.3961, 51.14174
473.8782, 50.83018
474.3603, 50.53152
474.8424, 50.25322
475.3246, 49.98970
475.8067, 49.75880
476.2888, 49.53530
476.7709, 49.18740
477.2530, 48.65812
477.7351, 48.38860
478.2173, 48.78155
478.6994, 49.45852
479.1815, 49.79664
479.6636, 49.68568
480.1457, 49.55134
480.6278, 49.63185
481.1100, 49.82581
481.5920, 49.88984
482.0742, 49.77013
482.5563, 49.78375
483.0384, 50.29549
483.5205, 51.28888
484.0026, 51.91923
484.4847, 51.90337
484.9669, 51.85473
485.4490, 52.02100
485.9311, 52.32503
486.4132, 52.58381
486.8953, 52.73137
487.3774, 52.92069
487.8596, 53.42527
488.3417, 54.43897
488.8238, 55.24712
489.3059, 55.70189
489.7880, 56.12711
490.2701, 56.63134
490.7523, 57.23351
491.2344, 57.96427
491.7165, 58.86886
492.1986, 59.83026
492.6807, 60.44295
493.1628, 60.43533
493.6450, 60.82756
494.1271, 62.26667
494.6092, 63.86249
495.0913, 65.00064
495.5734, 65.66752
496.0555, 66.30029
496.5377, 67.16145
497.0198, 68.21396
497.5019, 69.37816
497.9840, 70.67503
498.4661, 71.97959
498.9482, 73.20016
499.4304, 74.41077
499.9125, 75.76844
500.3946, 77.38792
500.8767, 78.90268
501.3588, 79.97371
501.8409, 80.86820
502.3231, 82.08762
502.8052, 83.73258
503.2873, 85.60694
503.7694, 87.58781
504.2515, 89.69523
504.7336, 91.45612
505.2158, 92.56364
505.6979, 93.70828
506.1800, 95.19394
506.6621, 96.85881
507.1442, 98.44602
507.6263, 99.86216
508.1085, 101.1702
508.5906, 102.4606
509.0727, 103.7555
509.5548, 104.9552
510.0369, 106.3024
510.5190, 107.3049
511.0012, 107.6678
511.4833, 107.5605
511.9654, 107.3055
512.4475, 107.0555
512.9296, 106.7578
513.4117, 106.3499
513.8939, 105.8467
514.3760, 105.0958
514.8581, 103.9360
515.3402, 102.6289
515.8223, 101.3876
516.3044, 100.2066
516.7866, 99.02829
517.2687, 97.91171
517.7508, 96.73153
518.2329, 95.23922
518.7150, 93.46252
519.1971, 91.78925
519.6793, 90.40786
520.1614, 89.22993
520.6435, 88.10065
521.1256, 87.02341
521.6077, 85.95809
522.0898, 84.88699
522.5720, 83.83692
523.0541, 82.81718
523.5362, 81.84493
524.0183, 80.94831
524.5004, 80.14733
524.9825, 79.45126
525.4647, 78.89158
525.9468, 78.46062
526.4289, 78.20411
526.9110, 78.36486
527.3931, 78.52547
527.8752, 78.21684
528.3574, 77.47460
528.8395, 76.84580
529.3216, 76.87617
529.8037, 77.44823
530.2858, 77.83418
530.7679, 77.94887
531.2501, 78.07238
531.7322, 78.24414
532.2143, 78.52574
532.6964, 79.02982
533.1785, 79.79910
533.6606, 80.60639
534.1428, 81.27775
534.6249, 81.88765
535.1070, 82.59658
535.5891, 83.42498
536.0712, 84.34528
536.5533, 85.32092
537.0355, 86.37392
537.5176, 87.58099
537.9997, 89.04259
538.4818, 90.52422
538.9639, 91.99528
539.4460, 93.44030
539.9282, 94.81504
540.4103, 96.12132
540.8924, 97.45546
541.3745, 98.91270
541.8566, 100.4958
542.3387, 102.1072
542.8209, 103.6971
543.3029, 105.3694
543.7850, 107.0827
544.2672, 108.9142
544.7493, 110.9666
545.2314, 113.2609
545.7135, 115.6729
546.1956, 118.1101
546.6777, 120.5641
547.1599, 122.7563
547.6420, 124.4627
548.1241, 126.3437
548.6062, 129.0637
549.0883, 132.1756
549.5704, 134.9891
550.0526, 137.3115
550.5347, 139.4698
551.0168, 141.5373
551.4989, 143.6197
551.9810, 146.0068
552.4631, 148.7658
552.9453, 151.5794
553.4274, 154.1656
553.9095, 156.5305
554.3916, 158.7587
554.8737, 161.0355
555.3558, 162.9792
555.8380, 164.2923
556.3201, 165.3144
556.8022, 166.4085
557.2843, 167.6880
557.7664, 169.0878
558.2485, 170.6235
558.7307, 172.3085
559.2128, 173.5355
559.6949, 174.2010
560.1770, 174.5048
560.6591, 174.4070
561.1412, 174.0865
561.6234, 173.7892
562.1055, 173.5929
562.5876, 173.2484
563.0697, 172.5928
563.5518, 171.6178
564.0339, 170.2332
564.5161, 168.3662
564.9982, 166.3835
565.4803, 164.5859
565.9624, 162.8780
566.4445, 160.8672
566.9266, 158.3803
567.4088, 155.8425
567.8909, 153.3987
568.3730, 150.9856
568.8551, 148.5552
569.3372, 146.0889
569.8193, 143.4314
570.3015, 140.4318
570.7836, 137.1072
571.2657, 134.0235
571.7478, 131.4066
572.2299, 128.7186
572.7120, 125.8151
573.1942, 122.8342
573.6763, 119.9078
574.1584, 117.0430
574.6405, 114.1751
575.1226, 111.1531
575.6047, 108.0655
576.0869, 105.3417
576.5690, 103.0815
577.0511, 100.7651
577.5332, 98.02361
578.0153, 95.18422
578.4974, 92.79870
578.9796, 90.96394
579.4617, 89.18472
579.9438, 87.28983
580.4259, 85.34628
580.9080, 83.35017
581.3901, 81.34649
581.8723, 79.52438
582.3544, 78.03139
582.8365, 76.75431
583.3186, 75.29256
583.8007, 73.33718
584.2828, 71.66724
584.7650, 70.31920
585.2471, 69.21452
585.7292, 68.52586
586.2113, 68.05270
586.6934, 67.22685
587.1755, 65.59040
587.6577, 63.57605
588.1398, 62.20916
588.6219, 61.56378
589.1040, 61.08167
589.5861, 60.86584
590.0682, 60.49913
590.5504, 59.49229
591.0325, 57.95044
591.5146, 56.56289
591.9967, 55.50370
592.4788, 54.71401
592.9609, 54.29621
593.4431, 54.12703
593.9252, 53.86604
594.4073, 53.39594
594.8894, 52.73911
595.3715, 51.88320
595.8536, 50.71923
596.3358, 49.85498
596.8179, 49.45293
597.3000, 49.12328
597.7821, 48.76394
598.2642, 48.37671
598.7463, 47.96846
599.2285, 47.54265
599.7106, 47.13125
600.1927, 46.76501
600.6748, 46.44271
601.1569, 46.18798
601.6390, 46.05643
602.1212, 45.87751
602.6033, 45.47940
603.0854, 44.99404
603.5675, 44.65039
604.0496, 44.54022
604.5317, 44.37337
605.0139, 43.90411
605.4960, 43.33015
605.9781, 42.94594
606.4602, 42.77996
606.9423, 42.70961
607.4244, 42.66860
607.9066, 42.63197
608.3887, 42.48186
608.8708, 42.09920
609.3529, 41.77144
609.8350, 41.55868
610.3171, 41.36285
610.7993, 41.11450
611.2814, 40.81792
611.7635, 40.50746
612.2456, 40.18504
612.7277, 39.89444
613.2098, 39.76992
613.6920, 39.83419
614.1741, 39.76804
614.6562, 39.39878
615.1383, 38.99848
615.6204, 38.90152
616.1025, 39.04594
616.5847, 39.05000
617.0668, 38.70291
617.5489, 38.32511
618.0310, 38.07233
618.5131, 37.94678
618.9952, 37.99815
619.4774, 38.23129
619.9595, 38.44934
620.4416, 38.39527
620.9237, 38.03931
621.4058, 37.86673
621.8879, 38.12540
622.3701, 38.26446
622.8522, 38.07075
623.3343, 37.76136
623.8164, 37.58315
624.2985, 37.57434
624.7806, 37.54408
625.2628, 37.20761
625.7448, 36.75008
626.2269, 36.76716
626.7090, 37.31894
627.1912, 37.75167
627.6733, 37.72939
628.1554, 37.45393
628.6375, 37.30132
629.1196, 37.29568
629.6017, 37.26888
630.0839, 37.13820
630.5660, 37.02995
631.0481, 37.05933
631.5302, 37.18052
632.0123, 37.26229
632.4944, 37.24391
632.9766, 37.20845
633.4587, 37.31269
633.9408, 37.59520
634.4229, 37.82362
634.9050, 37.99653
635.3871, 38.10714
635.8693, 38.09924
636.3514, 38.05151
636.8335, 38.09338
637.3156, 38.27115
637.7977, 38.46640
638.2798, 38.57224
638.7620, 38.64339
639.2441, 38.75439
639.7262, 38.91887
640.2083, 39.23621
640.6904, 39.80655
641.1725, 40.53656
641.6547, 41.11948
642.1368, 41.49401
642.6189, 41.79556
643.1010, 41.87719
643.5831, 42.01538
644.0652, 42.41541
644.5474, 43.02051
645.0295, 43.65024
645.5116, 44.20320
645.9937, 44.75662
646.4758, 45.42710
646.9579, 46.21434
647.4401, 47.08968
647.9222, 48.05633
648.4043, 49.08882
648.8864, 50.17725
649.3685, 51.31839
649.8506, 52.47545
650.3328, 53.70844
650.8149, 54.86025
651.2970, 55.80489
651.7791, 56.66678
652.2612, 57.49471
652.7433, 58.35512
653.2255, 59.49542
653.7076, 61.14222
654.1897, 63.11371
654.6718, 64.70065
655.1539, 65.62775
655.6360, 66.82789
656.1182, 68.50584
656.6003, 70.43602
657.0824, 72.73980
657.5645, 75.22105
658.0466, 77.28423
658.5287, 78.48081
659.0109, 79.55234
659.4930, 81.38160
659.9751, 83.63783
660.4572, 85.42766
660.9393, 86.55238
661.4214, 87.25830
661.9036, 87.73429
662.3857, 87.98730
662.8678, 88.08492
663.3499, 88.24259
663.8320, 87.94685
664.3141, 87.00050
664.7963, 85.70070
665.2784, 84.32059
665.7605, 82.82328
666.2426, 80.93648
666.7247, 78.38012
667.2068, 75.50511
667.6890, 72.89388
668.1711, 70.54131
668.6532, 68.28259
669.1353, 66.12236
669.6174, 63.97382
670.0995, 61.74310
670.5817, 59.44867
671.0638, 57.34128
671.5459, 55.48004
672.0280, 53.73854
672.5101, 52.03009
672.9922, 50.46812
673.4744, 49.19293
673.9565, 48.20306
674.4386, 47.38377
674.9207, 46.66701
675.4028, 46.01347
675.8849, 45.27201
676.3671, 44.40472
676.8492, 43.61810
677.3313, 42.95110
677.8134, 42.37624
678.2955, 41.87739
678.7776, 41.44696
679.2598, 41.06776
679.7419, 40.81953
680.2240, 40.51448
680.7061, 39.95985
681.1882, 39.30915
681.6703, 38.80709
682.1525, 38.49110
682.6346, 38.23461
683.1167, 37.93452
683.5988, 37.60845
684.0809, 37.35676
684.5630, 37.27916
685.0452, 37.05878
685.5273, 36.48161
686.0094, 35.90313
686.4915, 35.56203
686.9736, 35.39347
687.4557, 35.16299
687.9379, 34.71925
688.4200, 34.30143
688.9021, 34.22183
689.3842, 34.31533
689.8663, 34.10395
690.3484, 33.51298
690.8306, 33.09270
691.3127, 33.33991
691.7948, 34.06485
692.2769, 34.31042
692.7590, 33.82711
693.2411, 33.24153
693.7233, 32.35611
694.2054, 31.59562
694.6875, 31.28701
695.1696, 31.31089
695.6517, 31.33852
696.1339, 31.23373
696.6160, 31.05946
697.0981, 30.85283
697.5802, 30.63277
698.0623, 30.47105
698.5444, 30.38236
699.0266, 30.30212
699.5087, 30.17082
699.9908, 30.02160
700.4729, 29.98465
700.9550, 30.17144
701.4371, 30.30106
701.9193, 30.37423
702.4014, 30.38524
702.8835, 30.33495
703.3656, 30.21908
703.8477, 29.99446
704.3298, 29.62823
704.8120, 29.29348
705.2941, 29.26267
705.7762, 29.46609
706.2583, 29.54500
706.7404, 29.44806
707.2225, 29.36070
707.7046, 29.41260
708.1867, 29.52981
708.6688, 29.51030
709.1509, 29.26418
709.6331, 29.11819
710.1152, 29.22090
710.5973, 29.30437
711.0794, 29.16296
711.5615, 28.90138
712.0436, 28.71733
712.5258, 28.68191
713.0079, 28.72529
713.4900, 28.79732
713.9721, 28.88420
