##NAMES=Henritermierite
##RRUFFID=R060253
##IDEAL CHEMISTRY=Ca_3_Mn^3+^_2_(SiO_4_)_2_(OH)_4_
##LOCALITY=N'Chwaning mine, Kuruman, Kakahari mining area, Cape Province, South Africa
##OWNER=RRUFF
##SOURCE=William W. Pinch
##DESCRIPTION=Reddish-brown granular coating on darker andradite
##STATUS=The identification of this mineral is confirmed by single-crystal X-ray diffraction and chemical analysis.
##URL=rruff.info/R060253
##MEASURED CHEMISTRY=Ca_3.00_(Mn^3+^_1.97_Al_0.03_)_Î£=2_(Si_1.00_O_4_)_2_(OH)_4_
142.6364, 91.26424
143.1185, 94.98211
143.6006, 98.55906
144.0827, 102.9271
144.5648, 108.3212
145.0469, 114.9379
145.5291, 121.8486
146.0112, 128.9682
146.4933, 136.5018
146.9754, 144.8732
147.4575, 153.8374
147.9396, 163.8252
148.4218, 175.2407
148.9039, 188.7046
149.3860, 201.9539
149.8681, 216.7338
150.3502, 230.9841
150.8323, 240.5609
151.3145, 247.4114
151.7966, 247.9488
152.2787, 240.4830
152.7608, 219.0658
153.2429, 198.8228
153.7250, 179.7853
154.2072, 162.4618
154.6893, 148.2773
155.1714, 137.8792
155.6535, 129.2933
156.1356, 122.5943
156.6177, 117.9807
157.0999, 114.8980
157.5820, 113.8613
158.0641, 114.4369
158.5462, 114.8738
159.0283, 114.5861
159.5104, 114.0932
159.9926, 113.7333
160.4747, 113.7008
160.9568, 113.6937
161.4389, 113.7617
161.9210, 113.8557
162.4031, 113.5873
162.8853, 112.2881
163.3674, 110.7759
163.8495, 109.7986
164.3316, 109.9425
164.8137, 110.3719
165.2958, 110.5744
165.7780, 110.5538
166.2601, 110.8775
166.7422, 111.7027
167.2243, 113.0784
167.7064, 115.0494
168.1885, 118.0310
168.6707, 121.3420
169.1528, 124.7685
169.6349, 128.3636
170.1170, 131.2691
170.5991, 133.2107
171.0812, 134.0921
171.5634, 133.7240
172.0455, 131.8089
172.5276, 128.7540
173.0097, 124.7310
173.4918, 119.6017
173.9739, 114.3099
174.4561, 109.2496
174.9382, 104.5140
175.4203, 100.3190
175.9024, 96.77848
176.3845, 93.86799
176.8666, 91.72257
177.3488, 90.47639
177.8309, 89.48807
178.3130, 87.92590
178.7951, 85.96384
179.2772, 84.31211
179.7593, 83.38374
180.2415, 83.02980
180.7236, 83.00407
181.2057, 83.34778
181.6878, 83.82890
182.1699, 84.11048
182.6520, 84.22312
183.1342, 84.41035
183.6163, 84.80260
184.0984, 85.38862
184.5805, 86.16256
185.0626, 87.20186
185.5447, 88.30607
186.0269, 89.07271
186.5090, 89.51472
186.9911, 90.04311
187.4732, 91.13464
187.9553, 92.63687
188.4374, 93.73674
188.9196, 94.21512
189.4017, 94.32809
189.8838, 94.59110
190.3659, 95.00945
190.8480, 95.55355
191.3301, 96.36821
191.8123, 97.40343
192.2944, 98.06362
192.7765, 98.21238
193.2586, 97.93262
193.7407, 97.32960
194.2228, 96.34938
194.7050, 95.44041
195.1871, 95.08698
195.6692, 95.28246
196.1513, 95.35799
196.6334, 95.21908
197.1155, 94.84844
197.5977, 94.01159
198.0798, 92.57552
198.5619, 91.21507
199.0440, 90.64878
199.5261, 90.91746
200.0082, 91.26761
200.4904, 91.62244
200.9725, 91.93174
201.4546, 91.80553
201.9367, 91.12852
202.4188, 90.33762
202.9009, 90.00301
203.3831, 90.24730
203.8652, 90.05433
204.3473, 88.97367
204.8294, 87.13001
205.3115, 86.00648
205.7936, 85.77263
206.2758, 85.89536
206.7579, 85.86597
207.2400, 85.69699
207.7221, 85.30582
208.2042, 84.52000
208.6863, 83.35738
209.1685, 82.87413
209.6506, 83.30354
210.1327, 84.00423
210.6148, 84.14319
211.0969, 83.45512
211.5790, 83.12393
212.0612, 83.59708
212.5433, 84.89440
213.0254, 85.73799
213.5075, 85.92307
213.9896, 85.93277
214.4717, 86.44804
214.9538, 87.79430
215.4360, 88.75151
215.9181, 88.87943
216.4002, 88.10336
216.8823, 87.62314
217.3644, 87.41621
217.8465, 87.52869
218.3287, 88.13440
218.8108, 89.60368
219.2929, 90.70090
219.7750, 90.91561
220.2571, 90.06252
220.7392, 90.07841
221.2214, 91.33681
221.7035, 93.08540
222.1856, 94.29684
222.6677, 94.49332
223.1498, 95.16248
223.6319, 96.86250
224.1141, 99.81169
224.5962, 102.1570
225.0783, 103.5994
225.5604, 104.6760
226.0425, 106.1644
226.5246, 108.3697
227.0068, 110.3655
227.4889, 111.7483
227.9710, 112.3743
228.4531, 113.5022
228.9352, 115.3345
229.4173, 117.4966
229.8995, 119.4661
230.3816, 121.2143
230.8637, 122.8521
231.3458, 124.2543
231.8279, 125.2932
232.3100, 127.1300
232.7922, 130.3108
233.2743, 133.8344
233.7564, 136.4039
234.2385, 137.5415
234.7206, 138.5273
235.2027, 139.6255
235.6849, 140.8077
236.1670, 142.2876
236.6491, 144.0828
237.1312, 146.1613
237.6133, 148.4335
238.0954, 150.7132
238.5776, 153.5667
239.0597, 157.2778
239.5418, 161.9522
240.0239, 166.4670
240.5060, 170.6346
240.9881, 174.7968
241.4703, 179.4175
241.9524, 184.7495
242.4345, 190.0606
242.9166, 195.0730
243.3987, 199.7275
243.8808, 204.6850
244.3630, 210.0039
244.8451, 215.6143
245.3272, 221.5157
245.8093, 228.1239
246.2914, 234.2821
246.7735, 239.6929
247.2557, 244.3067
247.7378, 248.9346
248.2199, 253.9401
248.7020, 258.6466
249.1841, 262.3047
249.6662, 264.7414
250.1484, 266.4571
250.6305, 267.5577
251.1126, 268.0383
251.5947, 267.7742
252.0768, 266.6467
252.5589, 264.9029
253.0411, 262.6892
253.5232, 259.6901
254.0053, 256.9239
254.4874, 254.4333
254.9695, 252.2004
255.4516, 251.1237
255.9338, 251.5996
256.4159, 252.7412
256.8980, 253.6436
257.3801, 254.0234
257.8622, 254.8973
258.3444, 256.5699
258.8265, 259.0143
259.3086, 261.3360
259.7907, 263.5216
260.2728, 265.5495
260.7549, 267.3988
261.2371, 269.1742
261.7192, 270.5699
262.2013, 271.7308
262.6834, 272.5609
263.1655, 271.9599
263.6476, 269.7605
264.1298, 266.3909
264.6119, 262.0374
265.0940, 256.6270
265.5761, 250.5695
266.0582, 243.8647
266.5403, 236.6059
267.0225, 228.9946
267.5046, 220.8551
267.9867, 212.8264
268.4688, 205.3775
268.9509, 198.4710
269.4330, 191.9837
269.9152, 185.8461
270.3973, 180.1039
270.8794, 175.2174
271.3615, 171.3046
271.8436, 167.9311
272.3257, 164.8948
272.8079, 162.1650
273.2900, 159.8847
273.7721, 158.0889
274.2542, 156.7177
274.7363, 155.5312
275.2184, 154.4787
275.7006, 153.8176
276.1827, 153.8391
276.6648, 154.6029
277.1469, 155.2778
277.6290, 155.7491
278.1111, 156.1663
278.5933, 157.0078
279.0754, 158.4058
279.5575, 159.4866
280.0396, 159.5798
280.5217, 158.6765
281.0038, 158.2329
281.4860, 158.5343
281.9681, 158.9126
282.4502, 158.1218
282.9323, 156.1084
283.4144, 153.6830
283.8965, 151.1808
284.3787, 148.6142
284.8608, 145.8474
285.3429, 142.8573
285.8250, 139.7290
286.3071, 136.4494
286.7892, 133.0287
287.2714, 129.9156
287.7535, 127.4502
288.2356, 125.4897
288.7177, 123.2784
289.1998, 120.7178
289.6819, 118.3058
290.1641, 116.8240
290.6462, 116.1554
291.1283, 115.3474
291.6104, 113.9058
292.0925, 112.0798
292.5746, 110.5705
293.0568, 109.3646
293.5389, 108.5129
294.0210, 108.2106
294.5031, 108.3522
294.9852, 108.5248
295.4673, 108.5138
295.9495, 108.4996
296.4316, 108.8727
296.9137, 109.6219
297.3958, 110.4979
297.8779, 111.4405
298.3600, 112.3485
298.8422, 112.9529
299.3243, 112.9975
299.8064, 112.9167
300.2885, 113.2444
300.7706, 113.9714
301.2527, 115.0684
301.7349, 116.8296
302.2170, 118.8863
302.6991, 120.5606
303.1812, 121.6581
303.6633, 122.4682
304.1454, 123.2561
304.6276, 124.0094
305.1097, 124.6989
305.5918, 125.2756
306.0739, 125.7854
306.5560, 126.2007
307.0381, 126.4178
307.5203, 126.8636
308.0024, 128.1347
308.4845, 129.9247
308.9666, 131.5155
309.4487, 132.2647
309.9308, 132.8246
310.4130, 133.7404
310.8951, 135.0931
311.3772, 136.6404
311.8593, 138.2077
312.3414, 139.8564
312.8235, 141.7020
313.3057, 144.2228
313.7878, 146.6485
314.2699, 148.4127
314.7520, 149.4480
315.2341, 150.4888
315.7162, 152.0843
316.1984, 153.7947
316.6805, 155.1089
317.1626, 155.8422
317.6447, 156.1892
318.1268, 156.3811
318.6089, 156.3837
319.0911, 155.5814
319.5732, 152.9895
320.0553, 149.9206
320.5374, 147.4143
321.0195, 146.1647
321.5016, 144.9684
321.9838, 143.3794
322.4659, 141.5514
322.9480, 140.2346
323.4301, 139.8574
323.9122, 139.8270
324.3943, 139.8512
324.8765, 140.0799
325.3586, 140.0977
325.8407, 139.5542
326.3228, 138.7542
326.8049, 138.4741
327.2870, 138.7986
327.7692, 139.6196
328.2513, 141.0063
328.7334, 143.3843
329.2155, 145.3082
329.6976, 146.5178
330.1797, 147.3640
330.6619, 148.3655
331.1440, 149.5372
331.6261, 150.8478
332.1082, 152.2384
332.5903, 153.6218
333.0724, 155.5757
333.5546, 158.5672
334.0367, 161.7107
334.5188, 163.9704
335.0009, 164.9823
335.4830, 165.9698
335.9651, 167.1376
336.4473, 168.4837
336.9294, 169.9098
337.4115, 171.5475
337.8936, 173.0045
338.3757, 173.8958
338.8578, 174.1237
339.3399, 174.3151
339.8221, 174.5306
340.3042, 174.7797
340.7863, 175.1596
341.2684, 175.7515
341.7505, 176.1111
342.2326, 175.9880
342.7148, 175.3853
343.1969, 174.3681
343.6790, 172.8712
344.1611, 171.1125
344.6432, 169.4708
345.1253, 167.9427
345.6075, 166.4387
346.0896, 165.2185
346.5717, 164.0415
347.0538, 161.7808
347.5359, 158.2797
348.0180, 154.3831
348.5002, 150.8810
348.9823, 147.7654
349.4644, 145.0272
349.9465, 142.9475
350.4286, 141.1039
350.9107, 138.5027
351.3929, 135.1916
351.8750, 132.1801
352.3571, 130.4507
352.8392, 129.5802
353.3213, 128.8158
353.8034, 128.0073
354.2856, 127.1738
354.7677, 126.1797
355.2498, 125.1207
355.7319, 124.3628
356.2140, 124.2284
356.6961, 124.4555
357.1783, 124.7971
357.6604, 125.2277
358.1425, 125.7081
358.6246, 126.2821
359.1067, 126.8845
359.5888, 127.3960
360.0710, 127.4734
360.5531, 127.6617
361.0352, 128.2788
361.5173, 129.3696
361.9994, 130.7272
362.4815, 132.6750
362.9637, 134.6972
363.4458, 136.2409
363.9279, 136.3376
364.4100, 136.7653
364.8921, 138.2330
365.3742, 140.6741
365.8564, 142.9403
366.3385, 144.8068
366.8206, 146.4678
367.3027, 148.0405
367.7848, 149.0585
368.2669, 150.5801
368.7491, 152.9882
369.2312, 155.9541
369.7133, 158.4597
370.1954, 159.8440
370.6775, 161.5030
371.1596, 164.0750
371.6418, 168.1882
372.1239, 171.4063
372.6060, 173.1720
373.0881, 174.4122
373.5702, 176.6117
374.0523, 180.4287
374.5345, 183.7028
375.0166, 185.7806
375.4987, 186.6818
375.9808, 187.6340
376.4629, 188.7874
376.9450, 189.6716
377.4272, 189.7735
377.9093, 189.0041
378.3914, 188.2672
378.8735, 187.8323
379.3556, 187.4355
379.8377, 186.1011
380.3199, 183.7471
380.8020, 181.5258
381.2841, 180.2644
381.7662, 179.8149
382.2483, 179.3786
382.7304, 178.8077
383.2126, 178.4875
383.6947, 179.2108
384.1768, 180.7728
384.6589, 182.1206
385.1410, 182.6618
385.6231, 182.7346
386.1053, 182.9359
386.5874, 183.2787
387.0695, 183.5273
387.5516, 183.6422
388.0337, 183.5015
388.5158, 182.8909
388.9980, 181.5992
389.4801, 179.9709
389.9622, 178.2659
390.4443, 176.4781
390.9264, 174.5359
391.4085, 172.5736
391.8907, 170.3587
392.3728, 167.5829
392.8549, 163.9414
393.3370, 160.4909
393.8191, 157.9079
394.3012, 155.8088
394.7834, 153.5465
395.2655, 150.4803
395.7476, 147.6135
396.2297, 145.4077
396.7118, 143.9675
397.1939, 142.5405
397.6761, 140.6355
398.1582, 138.8884
398.6403, 137.8302
399.1224, 138.1574
399.6045, 138.4072
400.0866, 138.3432
400.5688, 138.0544
401.0509, 138.0779
401.5330, 138.6385
402.0151, 139.2409
402.4972, 139.6000
402.9793, 139.4523
403.4615, 139.7865
403.9436, 140.7815
404.4257, 142.1029
404.9078, 143.1330
405.3899, 143.7889
405.8720, 144.4618
406.3542, 145.0733
406.8363, 145.7061
407.3184, 147.6154
407.8005, 151.0510
408.2826, 154.7515
408.7647, 157.3828
409.2469, 159.0257
409.7290, 160.9040
410.2111, 163.2782
410.6932, 166.0077
411.1753, 168.7829
411.6574, 171.6084
412.1396, 174.7796
412.6217, 178.6511
413.1038, 182.9214
413.5859, 187.0752
414.0680, 191.0751
414.5501, 194.9918
415.0323, 198.9957
415.5144, 202.9871
415.9965, 206.8682
416.4786, 210.2053
416.9607, 213.6406
417.4428, 217.9153
417.9250, 222.8954
418.4071, 227.6965
418.8892, 232.0970
419.3713, 235.9334
419.8534, 238.9131
420.3355, 240.3456
420.8177, 242.0136
421.2998, 244.8853
421.7819, 248.4118
422.2640, 251.4745
422.7461, 253.0076
423.2282, 254.7332
423.7104, 257.5917
424.1925, 262.1967
424.6746, 265.5126
425.1567, 266.6470
425.6388, 266.9417
426.1209, 267.5947
426.6031, 269.0445
427.0852, 270.1369
427.5673, 270.7488
428.0494, 270.8868
428.5315, 270.6012
429.0136, 269.9654
429.4958, 268.7514
429.9779, 266.7257
430.4600, 263.7683
430.9421, 260.8206
431.4242, 257.9727
431.9063, 255.0221
432.3885, 251.6242
432.8706, 247.8044
433.3527, 243.9801
433.8348, 240.2498
434.3169, 236.6470
434.7990, 233.3858
435.2812, 230.4855
435.7633, 227.4766
436.2454, 223.7506
436.7275, 219.6738
437.2096, 216.0052
437.6917, 212.9136
438.1739, 210.2242
438.6560, 207.8761
439.1381, 205.7955
439.6202, 203.7870
440.1023, 202.0814
440.5844, 200.1898
441.0666, 197.4384
441.5487, 193.7706
442.0308, 190.4423
442.5129, 188.3767
442.9950, 186.8284
443.4771, 185.0853
443.9593, 182.6574
444.4414, 180.3310
444.9235, 178.3405
445.4056, 176.6175
445.8877, 174.8526
446.3698, 172.6529
446.8520, 170.6997
447.3341, 169.2988
447.8162, 168.6361
448.2983, 167.9787
448.7804, 167.3059
449.2625, 166.6536
449.7447, 166.0546
450.2268, 165.4386
450.7089, 165.0224
451.1910, 164.8357
451.6731, 164.8828
452.1552, 165.2257
452.6374, 165.8943
453.1195, 166.7288
453.6016, 167.6629
454.0837, 168.6883
454.5658, 169.7361
455.0479, 170.7886
455.5301, 171.8848
456.0122, 173.0388
456.4943, 174.2726
456.9764, 175.5878
457.4585, 176.8058
457.9406, 178.2326
458.4228, 180.6611
458.9049, 183.9714
459.3870, 187.2032
459.8691, 189.5328
460.3512, 191.3942
460.8333, 193.2880
461.3155, 195.2999
461.7976, 197.4395
462.2797, 199.8246
462.7618, 202.3381
463.2439, 204.7322
463.7260, 206.9796
464.2082, 209.0420
464.6903, 210.7635
465.1724, 212.1469
465.6545, 213.6601
466.1366, 215.4036
466.6187, 217.2935
467.1009, 219.2715
467.5830, 221.8087
468.0651, 223.8254
468.5472, 225.0526
469.0293, 225.8215
469.5114, 226.7950
469.9936, 228.0018
470.4757, 229.3496
470.9578, 230.8135
471.4399, 232.3928
471.9220, 234.0923
472.4041, 235.8817
472.8863, 237.8110
473.3684, 239.8873
473.8505, 242.1106
474.3326, 244.5293
474.8147, 247.1835
475.2968, 249.9696
475.7790, 252.5041
476.2611, 254.9078
476.7432, 257.8780
477.2253, 261.8254
477.7074, 266.5647
478.1895, 271.8522
478.6717, 277.6811
479.1538, 283.9769
479.6359, 290.3593
480.1180, 297.3103
480.6001, 305.4362
481.0822, 315.0905
481.5644, 325.7127
482.0465, 336.8985
482.5286, 348.8452
483.0107, 361.9770
483.4928, 375.9081
483.9749, 391.5865
484.4571, 409.4362
484.9392, 429.6423
485.4213, 451.2963
485.9034, 474.1323
486.3855, 498.5085
486.8676, 524.9780
487.3498, 554.5956
487.8319, 584.5531
488.3140, 614.1799
488.7961, 644.1957
489.2782, 676.0720
489.7603, 709.4647
490.2425, 744.9363
490.7246, 782.4301
491.2067, 822.0091
491.6888, 862.7739
492.1709, 904.3978
492.6530, 948.0168
493.1352, 994.7623
493.6173, 1044.462
494.0994, 1095.853
494.5815, 1148.247
495.0636, 1202.285
495.5457, 1258.473
496.0279, 1316.406
496.5100, 1374.597
496.9921, 1435.644
497.4742, 1495.120
497.9563, 1549.251
498.4384, 1598.424
498.9206, 1643.432
499.4027, 1689.344
499.8848, 1728.981
500.3669, 1757.832
500.8490, 1775.291
501.3311, 1780.610
501.8133, 1774.531
502.2954, 1756.092
502.7775, 1723.652
503.2596, 1672.063
503.7417, 1611.173
504.2238, 1542.134
504.7060, 1465.109
505.1881, 1384.664
505.6702, 1298.838
506.1523, 1213.707
506.6344, 1132.928
507.1165, 1056.805
507.5987, 984.4581
508.0808, 916.7936
508.5629, 853.5407
509.0450, 795.0641
509.5271, 741.2781
510.0092, 691.1317
510.4914, 643.3708
510.9735, 599.0186
511.4556, 559.9988
511.9377, 526.3914
512.4199, 495.9811
512.9020, 467.8246
513.3841, 441.8539
513.8662, 418.0925
514.3483, 396.6373
514.8304, 376.8893
515.3126, 358.5629
515.7947, 341.7488
516.2768, 326.2879
516.7589, 312.1872
517.2410, 299.3969
517.7231, 288.1372
518.2053, 278.2564
518.6874, 268.9886
519.1695, 260.2950
519.6516, 252.2617
520.1337, 245.0265
520.6158, 238.5800
521.0980, 232.8582
521.5801, 228.0877
522.0622, 223.7517
522.5443, 219.2368
523.0264, 214.4596
523.5085, 209.9986
523.9907, 205.9839
524.4728, 202.3523
524.9549, 198.7803
525.4370, 195.2799
525.9191, 192.4535
526.4012, 190.9982
526.8834, 190.3114
527.3655, 189.1310
527.8476, 187.4585
528.3297, 185.5813
528.8118, 183.3780
529.2939, 181.2554
529.7761, 179.7688
530.2582, 179.2171
530.7403, 178.9308
531.2224, 178.6258
531.7045, 178.3316
532.1866, 178.0985
532.6688, 177.9749
533.1509, 177.8730
533.6330, 177.7803
534.1151, 177.6932
534.5972, 177.5583
535.0793, 177.2982
535.5615, 177.0696
536.0436, 176.8905
536.5257, 176.6283
537.0078, 176.9388
537.4899, 177.9811
537.9720, 179.3456
538.4542, 180.5069
538.9363, 181.4626
539.4184, 182.4383
539.9005, 183.3940
540.3826, 184.4980
540.8647, 186.1819
541.3469, 188.3862
541.8290, 190.6366
542.3111, 192.6073
542.7932, 194.5132
543.2753, 196.5860
543.7574, 198.8361
544.2396, 201.4144
544.7217, 204.4598
545.2038, 207.8384
545.6859, 211.3759
546.1680, 214.7787
546.6501, 218.7845
547.1323, 223.7101
547.6144, 229.3471
548.0965, 235.4195
548.5786, 241.6042
549.0607, 248.5390
549.5428, 256.1930
550.0250, 264.6139
550.5071, 274.3557
550.9892, 285.6440
551.4713, 297.8872
551.9534, 310.6151
552.4355, 323.6596
552.9177, 338.9638
553.3998, 356.6145
553.8819, 376.2870
554.3640, 397.9332
554.8461, 421.3886
555.3282, 445.7336
555.8104, 470.2153
556.2925, 495.8960
556.7746, 524.3134
557.2567, 555.0647
557.7388, 587.0281
558.2209, 618.6019
558.7031, 651.6367
559.1852, 687.0648
559.6673, 725.0452
560.1494, 765.1377
560.6315, 807.0322
561.1136, 850.6275
561.5958, 895.7033
562.0779, 942.0172
562.5600, 990.7037
563.0421, 1042.605
563.5242, 1096.333
564.0063, 1150.314
564.4885, 1204.350
564.9706, 1258.102
565.4527, 1312.836
565.9348, 1366.523
566.4169, 1414.612
566.8990, 1456.885
567.3812, 1492.925
567.8633, 1524.818
568.3454, 1550.545
568.8275, 1564.785
569.3096, 1567.433
569.7917, 1556.341
570.2739, 1528.004
570.7560, 1485.207
571.2381, 1431.324
571.7202, 1364.713
572.2023, 1292.829
572.6844, 1216.102
573.1666, 1137.820
573.6487, 1061.353
574.1308, 986.4340
574.6129, 915.7543
575.0950, 850.0012
575.5771, 789.4777
576.0593, 733.2601
576.5414, 681.3761
577.0235, 634.3723
577.5056, 592.2232
577.9877, 555.2810
578.4698, 521.7889
578.9520, 491.8274
579.4341, 465.0927
579.9162, 442.0417
580.3983, 422.5573
580.8804, 403.2845
581.3625, 383.6372
581.8447, 364.8910
582.3268, 348.9719
582.8089, 335.5470
583.2910, 322.9381
583.7731, 310.3698
584.2552, 298.6280
584.7373, 288.6490
585.2194, 280.1617
585.7015, 272.1464
586.1837, 263.9913
586.6658, 256.3481
587.1479, 249.3311
587.6300, 242.9549
588.1121, 237.5124
588.5942, 233.8923
589.0764, 230.5827
589.5585, 226.6098
590.0406, 221.6428
590.5227, 216.6902
591.0048, 211.5424
591.4869, 206.6668
591.9691, 202.8931
592.4512, 200.2920
592.9333, 197.9875
593.4154, 195.8261
593.8975, 193.7356
594.3796, 191.4077
594.8618, 188.9465
595.3439, 186.8519
595.8260, 186.0403
596.3081, 185.4008
596.7902, 183.4177
597.2723, 180.0800
597.7545, 176.9938
598.2366, 174.9978
598.7187, 173.6570
599.2008, 172.7265
599.6829, 172.5715
600.1650, 171.9293
600.6472, 170.1525
601.1293, 168.0139
601.6114, 166.3733
602.0935, 165.4392
602.5756, 164.6118
603.0577, 163.8351
603.5399, 163.0961
604.0220, 162.3627
604.5041, 161.6526
604.9862, 160.8318
605.4683, 159.6793
605.9504, 158.4145
606.4326, 157.7760
606.9147, 157.7233
607.3968, 157.6873
607.8789, 157.3259
608.3610, 156.7116
608.8431, 155.7872
609.3253, 154.4448
609.8074, 153.4950
610.2895, 153.7001
610.7716, 154.3471
611.2537, 154.7594
611.7358, 154.8819
612.2180, 154.6416
612.7001, 153.5751
613.1822, 152.2796
613.6643, 151.8352
614.1464, 152.8137
614.6285, 153.3828
615.1107, 152.9807
615.5928, 151.8780
616.0749, 151.1736
616.5570, 150.8782
617.0391, 150.8528
617.5212, 151.1965
618.0034, 151.7304
618.4855, 151.8853
618.9676, 151.6600
619.4497, 151.5461
619.9318, 152.3107
620.4139, 153.2203
620.8961, 153.3135
621.3782, 152.1339
621.8603, 151.0840
622.3424, 150.8654
622.8245, 151.0678
623.3066, 151.2203
623.7888, 151.2781
624.2709, 151.2337
624.7530, 150.9736
625.2351, 150.6431
625.7172, 150.6540
626.1993, 151.1886
626.6815, 151.4749
627.1636, 151.1636
627.6457, 150.4385
628.1278, 150.2009
628.6099, 150.4535
629.0920, 150.4857
629.5742, 149.4644
630.0563, 148.0210
630.5384, 147.4057
631.0205, 147.6882
631.5026, 148.0128
631.9847, 147.8367
632.4669, 147.3762
632.9490, 146.8297
633.4311, 146.2348
633.9132, 145.5806
634.3953, 144.7444
634.8774, 143.9019
635.3596, 143.2676
635.8417, 143.0447
636.3238, 142.6776
