##NAMES=Hentschelite
##RRUFFID=R061015
##IDEAL CHEMISTRY=Cu^2+^Fe^3+^_2_(PO_4_)_2_(OH)_2_
##LOCALITY=Spring Creek Copper mine, South Australia, Australia
##OWNER=RRUFF
##SOURCE=Michael Scott
##DESCRIPTION=Dark green platy crystals in radial aggregates associated with quartz and malachite
##STATUS=The identification of this mineral is confirmed by single-crystal X-ray diffraction and chemical analysis.
##URL=rruff.info/R061015
##MEASURED CHEMISTRY=(Cu_0.91_Fe^2+^_0.08_Mn_0.01_)_Î£=1_Fe^3+^_2.00_(P_1.00_O_4_)_2_(OH)_2_; OH estimated by charge balance; Fe^2+^ by charge balance and stoichiometry
163.4663, 2021.862
163.9484, 2026.270
164.4305, 2039.776
164.9126, 2056.458
165.3947, 2072.317
165.8768, 2094.479
166.3590, 2130.111
166.8411, 2176.902
167.3232, 2224.203
167.8053, 2260.659
168.2874, 2296.384
168.7695, 2342.381
169.2517, 2409.726
169.7338, 2483.721
170.2159, 2552.390
170.6980, 2614.818
171.1801, 2682.080
171.6622, 2763.511
172.1444, 2854.524
172.6265, 2947.497
173.1086, 3042.142
173.5907, 3135.493
174.0728, 3225.381
174.5549, 3311.821
175.0371, 3396.305
175.5192, 3484.127
176.0013, 3572.045
176.4834, 3650.780
176.9655, 3721.597
177.4476, 3777.962
177.9298, 3809.479
178.4119, 3814.752
178.8940, 3795.279
179.3761, 3746.596
179.8582, 3672.147
180.3403, 3586.970
180.8224, 3493.966
181.3046, 3397.784
181.7867, 3305.628
182.2688, 3217.542
182.7509, 3137.507
183.2330, 3073.413
183.7151, 3025.959
184.1973, 2987.278
184.6794, 2957.816
185.1615, 2934.096
185.6436, 2903.615
186.1257, 2861.136
186.6078, 2810.920
187.0900, 2762.222
187.5721, 2715.151
188.0542, 2668.413
188.5363, 2619.619
189.0184, 2569.542
189.5005, 2520.573
189.9827, 2475.046
190.4648, 2431.820
190.9469, 2383.151
191.4290, 2328.190
191.9111, 2275.064
192.3932, 2234.260
192.8754, 2205.897
193.3575, 2179.879
193.8396, 2148.612
194.3217, 2113.516
194.8038, 2096.060
195.2859, 2099.902
195.7681, 2113.067
196.2502, 2116.543
196.7323, 2109.257
197.2144, 2103.916
197.6965, 2108.413
198.1786, 2122.803
198.6608, 2133.474
199.1429, 2139.525
199.6250, 2141.962
200.1071, 2140.302
200.5892, 2132.543
201.0714, 2130.746
201.5535, 2143.685
202.0356, 2172.672
202.5177, 2202.516
202.9998, 2233.402
203.4819, 2263.545
203.9641, 2284.247
204.4462, 2292.818
204.9283, 2300.564
205.4104, 2317.414
205.8925, 2346.484
206.3746, 2367.369
206.8568, 2375.469
207.3389, 2373.562
207.8210, 2375.584
208.3031, 2382.347
208.7852, 2391.408
209.2673, 2399.827
209.7494, 2405.938
210.2316, 2418.329
210.7137, 2439.455
211.1958, 2468.844
211.6779, 2501.347
212.1600, 2538.992
212.6421, 2576.917
213.1243, 2608.908
213.6064, 2630.910
214.0885, 2658.403
214.5706, 2697.336
215.0527, 2748.554
215.5348, 2790.407
216.0170, 2819.593
216.4991, 2843.050
216.9812, 2870.079
217.4633, 2904.391
217.9454, 2932.475
218.4275, 2950.648
218.9097, 2958.348
219.3918, 2958.918
219.8739, 2951.791
220.3560, 2938.148
220.8381, 2919.436
221.3202, 2896.014
221.8024, 2867.419
222.2845, 2834.526
222.7666, 2798.504
223.2487, 2752.219
223.7308, 2691.523
224.2129, 2623.383
224.6951, 2559.372
225.1772, 2494.467
225.6593, 2413.304
226.1414, 2416.817
226.6235, 2404.853
227.1056, 2378.243
227.5878, 2293.117
228.0699, 2283.551
228.5520, 2243.706
229.0341, 2202.620
229.5162, 2203.688
229.9983, 2127.077
230.4805, 2127.471
230.9626, 2097.129
231.4447, 2080.857
231.9268, 2034.119
232.4089, 2022.716
232.8910, 2020.855
233.3732, 2018.620
233.8553, 2013.232
234.3374, 1997.358
234.8195, 1994.275
235.3016, 2008.895
235.7837, 2037.272
236.2658, 2064.783
236.7480, 2097.156
237.2301, 2121.278
237.7122, 2126.511
238.1943, 2094.654
238.6764, 2081.858
239.1585, 2096.714
239.6407, 2135.333
240.1228, 2174.270
240.6049, 2215.227
241.0870, 2254.795
241.5691, 2290.809
242.0512, 2322.808
242.5334, 2351.438
243.0155, 2372.261
243.4976, 2387.616
243.9797, 2419.091
244.4618, 2472.419
244.9439, 2534.332
245.4261, 2595.350
245.9082, 2653.326
246.3903, 2714.281
246.8724, 2778.147
247.3545, 2845.082
247.8366, 2919.258
248.3188, 3004.803
248.8009, 3091.721
249.2830, 3171.040
249.7651, 3235.669
250.2472, 3306.361
250.7293, 3388.918
251.2115, 3482.761
251.6936, 3569.730
252.1757, 3649.345
252.6578, 3723.123
253.1399, 3794.158
253.6220, 3863.042
254.1042, 3928.355
254.5863, 3987.710
255.0684, 4041.592
255.5505, 4100.771
256.0326, 4170.965
256.5147, 4239.765
256.9969, 4296.918
257.4790, 4338.941
257.9611, 4377.065
258.4432, 4413.799
258.9253, 4449.172
259.4074, 4478.776
259.8896, 4502.060
260.3717, 4520.313
260.8538, 4536.287
261.3359, 4552.765
261.8180, 4559.418
262.3001, 4552.219
262.7823, 4531.172
263.2644, 4511.708
263.7465, 4500.104
264.2286, 4481.592
264.7107, 4437.585
265.1928, 4357.514
265.6750, 4282.225
266.1571, 4223.247
266.6392, 4180.969
267.1213, 4128.618
267.6034, 4065.964
268.0855, 3994.288
268.5677, 3912.480
269.0498, 3816.756
269.5319, 3725.009
270.0140, 3639.833
270.4961, 3561.693
270.9782, 3494.401
271.4604, 3441.077
271.9425, 3391.737
272.4246, 3332.812
272.9067, 3260.894
273.3888, 3195.249
273.8709, 3142.300
274.3531, 3101.409
274.8352, 3057.701
275.3173, 3008.352
275.7994, 2931.146
276.2815, 2935.593
276.7636, 2924.561
277.2457, 2898.886
277.7278, 2814.699
278.2100, 2806.062
278.6921, 2767.151
279.1742, 2727.000
279.6563, 2729.002
280.1384, 2703.766
280.6205, 2717.191
281.1027, 2728.437
281.5848, 2730.571
282.0669, 2723.946
282.5490, 2707.564
283.0311, 2678.548
283.5132, 2650.766
283.9954, 2640.773
284.4775, 2648.703
284.9596, 2659.461
285.4417, 2668.981
285.9238, 2677.922
286.4059, 2687.944
286.8881, 2698.339
287.3702, 2713.398
287.8523, 2740.077
288.3344, 2777.559
288.8165, 2813.960
289.2986, 2847.341
289.7808, 2876.964
290.2629, 2898.312
290.7450, 2910.364
291.2271, 2922.364
291.7092, 2945.128
292.1913, 2976.707
292.6735, 3006.091
293.1556, 3027.508
293.6377, 3045.359
294.1198, 3069.439
294.6019, 3100.078
295.0840, 3132.553
295.5662, 3160.481
296.0483, 3186.685
296.5304, 3220.642
297.0125, 3268.134
297.4946, 3322.984
297.9767, 3373.450
298.4589, 3419.948
298.9410, 3466.637
299.4231, 3513.028
299.9052, 3561.971
300.3873, 3619.552
300.8694, 3690.709
301.3516, 3767.774
301.8337, 3841.318
302.3158, 3911.973
302.7979, 3983.507
303.2800, 4063.875
303.7621, 4146.437
304.2443, 4221.192
304.7264, 4277.820
305.2085, 4332.045
305.6906, 4403.352
306.1727, 4488.160
306.6548, 4570.599
307.1370, 4643.622
307.6191, 4706.639
308.1012, 4756.435
308.5833, 4784.004
309.0654, 4809.648
309.5475, 4855.712
310.0297, 4915.110
310.5118, 4961.870
310.9939, 4978.494
311.4760, 4976.272
311.9581, 4965.469
312.4402, 4948.395
312.9224, 4923.017
313.4045, 4886.810
313.8866, 4840.896
314.3687, 4789.429
314.8508, 4738.064
315.3329, 4679.569
315.8151, 4607.594
316.2972, 4513.669
316.7793, 4419.352
317.2614, 4334.181
317.7435, 4254.589
318.2256, 4172.444
318.7078, 4084.255
319.1899, 3993.252
319.6720, 3898.429
320.1541, 3792.168
320.6362, 3700.130
321.1183, 3643.206
321.6005, 3604.936
322.0826, 3555.948
322.5647, 3476.766
323.0468, 3396.200
323.5289, 3324.660
324.0110, 3263.613
324.4932, 3209.620
324.9753, 3173.035
325.4574, 3141.515
325.9395, 3097.706
326.4216, 3020.753
326.9037, 2949.509
327.3859, 2896.151
327.8680, 2867.321
328.3501, 2833.880
328.8322, 2787.713
329.3143, 2740.724
329.7964, 2706.559
330.2786, 2700.198
330.7607, 2687.967
331.2428, 2660.720
331.7249, 2616.593
332.2070, 2576.880
332.6891, 2540.161
333.1712, 2509.019
333.6534, 2487.038
334.1355, 2480.088
334.6176, 2470.218
335.0997, 2451.990
335.5818, 2426.150
336.0639, 2408.200
336.5461, 2400.379
337.0282, 2396.954
337.5103, 2393.247
337.9924, 2389.090
338.4745, 2385.410
338.9566, 2383.316
339.4388, 2381.769
339.9209, 2374.918
340.4030, 2361.714
340.8851, 2346.676
341.3672, 2332.671
341.8493, 2319.431
342.3315, 2309.433
342.8136, 2303.263
343.2957, 2300.299
343.7778, 2299.561
344.2599, 2301.321
344.7420, 2302.919
345.2242, 2302.757
345.7063, 2300.937
346.1884, 2297.622
346.6705, 2292.190
347.1526, 2286.565
347.6347, 2286.213
348.1169, 2290.154
348.5990, 2289.929
349.0811, 2276.579
349.5632, 2255.689
350.0453, 2242.077
350.5274, 2238.345
351.0096, 2235.080
351.4917, 2217.941
351.9738, 2191.523
352.4559, 2170.345
352.9380, 2168.439
353.4201, 2173.054
353.9023, 2168.604
354.3844, 2154.422
354.8665, 2133.110
355.3486, 2101.025
355.8307, 2064.258
356.3128, 2032.123
356.7950, 2010.870
357.2771, 1994.752
357.7592, 1979.235
358.2413, 1964.424
358.7234, 1953.463
359.2055, 1952.915
359.6877, 1955.198
360.1698, 1952.481
360.6519, 1933.741
361.1340, 1917.717
361.6161, 1915.988
362.0982, 1925.541
362.5804, 1929.752
363.0625, 1918.986
363.5446, 1903.189
364.0267, 1888.635
364.5088, 1874.151
364.9909, 1864.242
365.4731, 1860.592
365.9552, 1862.269
366.4373, 1866.502
366.9194, 1876.777
367.4015, 1886.458
367.8836, 1892.201
368.3658, 1888.175
368.8479, 1890.795
369.3300, 1901.408
369.8121, 1918.594
370.2942, 1940.065
370.7763, 1972.982
371.2585, 2001.335
371.7406, 2018.859
372.2227, 2021.967
372.7048, 2031.024
373.1869, 2048.426
373.6690, 2069.378
374.1512, 2088.344
374.6333, 2104.564
375.1154, 2120.607
375.5975, 2136.500
376.0796, 2152.522
376.5617, 2172.766
377.0439, 2198.660
377.5260, 2225.131
378.0081, 2246.969
378.4902, 2264.074
378.9723, 2280.945
379.4544, 2299.426
379.9366, 2317.807
380.4187, 2333.154
380.9008, 2345.778
381.3829, 2350.748
381.8650, 2342.742
382.3471, 2323.401
382.8293, 2300.503
383.3114, 2273.686
383.7935, 2246.146
384.2756, 2222.154
384.7577, 2201.314
385.2398, 2181.683
385.7219, 2161.152
386.2040, 2140.908
386.6862, 2122.797
387.1683, 2106.740
387.6504, 2092.779
388.1325, 2082.246
388.6146, 2073.641
389.0967, 2064.367
389.5789, 2047.452
390.0610, 2033.267
390.5431, 2033.445
391.0252, 2047.989
391.5073, 2061.623
391.9894, 2067.052
392.4716, 2066.769
392.9537, 2063.442
393.4358, 2054.215
393.9179, 2045.829
394.4000, 2043.178
394.8821, 2044.594
395.3643, 2041.049
395.8464, 2022.276
396.3285, 2002.735
396.8106, 1991.152
397.2927, 1991.869
397.7748, 1995.390
398.2570, 2006.510
398.7391, 2019.718
399.2212, 2021.648
399.7033, 2000.630
400.1854, 1979.507
400.6675, 1965.605
401.1497, 1961.665
401.6318, 1955.801
402.1139, 1946.789
402.5960, 1936.786
403.0781, 1928.609
403.5602, 1922.946
404.0424, 1917.686
404.5245, 1912.788
405.0066, 1908.161
405.4887, 1900.844
405.9708, 1889.510
406.4529, 1878.596
406.9351, 1872.350
407.4172, 1871.100
407.8993, 1869.592
408.3814, 1866.904
408.8635, 1863.450
409.3456, 1861.348
409.8278, 1860.669
410.3099, 1856.973
410.7920, 1846.950
411.2741, 1831.530
411.7562, 1811.863
412.2383, 1785.800
412.7205, 1763.180
413.2026, 1756.514
413.6847, 1763.031
414.1668, 1773.482
414.6489, 1793.694
415.1310, 1810.304
415.6132, 1802.687
416.0953, 1769.338
416.5774, 1736.064
417.0595, 1718.362
417.5416, 1711.953
418.0237, 1711.204
418.5059, 1720.759
418.9880, 1729.375
419.4701, 1729.450
419.9522, 1722.726
420.4343, 1717.939
420.9164, 1720.124
421.3986, 1724.284
421.8807, 1727.737
422.3628, 1732.110
422.8449, 1732.199
423.3270, 1721.137
423.8091, 1705.631
424.2913, 1699.066
424.7734, 1714.347
425.2555, 1727.647
425.7376, 1731.118
426.2197, 1721.331
426.7018, 1717.399
427.1840, 1721.964
427.6661, 1730.151
428.1482, 1737.179
428.6303, 1743.732
429.1124, 1747.368
429.5945, 1746.673
430.0767, 1742.592
430.5588, 1739.900
431.0409, 1737.771
431.5230, 1739.772
432.0051, 1752.018
432.4872, 1774.583
432.9694, 1786.225
433.4515, 1781.393
433.9336, 1771.778
434.4157, 1781.896
434.8978, 1809.772
435.3799, 1833.013
435.8621, 1833.471
436.3442, 1821.918
436.8263, 1823.763
437.3084, 1840.418
437.7905, 1860.824
438.2726, 1873.674
438.7548, 1883.115
439.2369, 1896.945
439.7190, 1921.125
440.2011, 1948.008
440.6832, 1971.842
441.1653, 1992.930
441.6474, 2012.376
442.1295, 2031.531
442.6117, 2048.795
443.0938, 2061.709
443.5759, 2064.041
444.0580, 2073.566
444.5401, 2100.535
445.0222, 2137.893
445.5044, 2172.563
445.9865, 2199.251
446.4686, 2225.750
446.9507, 2254.688
447.4328, 2287.247
447.9149, 2317.690
448.3971, 2346.950
448.8792, 2373.352
449.3613, 2394.690
449.8434, 2403.283
450.3255, 2423.087
450.8076, 2460.564
451.2898, 2511.410
451.7719, 2556.864
452.2540, 2596.340
452.7361, 2631.050
453.2182, 2662.842
453.7003, 2691.541
454.1825, 2709.468
454.6646, 2712.003
455.1467, 2714.275
455.6288, 2743.391
456.1109, 2796.159
456.5930, 2844.799
457.0752, 2878.147
457.5573, 2899.056
458.0394, 2907.961
458.5215, 2905.319
459.0036, 2903.592
459.4857, 2916.818
459.9679, 2936.569
460.4500, 2948.539
460.9321, 2944.417
461.4142, 2940.385
461.8963, 2952.419
462.3784, 2974.301
462.8606, 2989.419
463.3427, 2985.318
463.8248, 2976.346
464.3069, 2969.740
464.7890, 2965.726
465.2711, 2966.138
465.7533, 2976.758
466.2354, 2989.814
466.7175, 2997.001
467.1996, 2988.700
467.6817, 2984.238
468.1638, 2987.984
468.6460, 2998.644
469.1281, 3005.880
469.6102, 3005.700
470.0923, 3007.356
470.5744, 3016.830
471.0565, 3037.331
471.5387, 3053.111
472.0208, 3061.062
472.5029, 3067.674
472.9850, 3086.348
473.4671, 3118.403
473.9492, 3146.235
474.4314, 3158.631
474.9135, 3162.198
475.3956, 3187.101
475.8777, 3234.838
476.3598, 3278.933
476.8419, 3286.043
477.3241, 3271.895
477.8062, 3275.501
478.2883, 3311.176
478.7704, 3354.509
479.2525, 3383.861
479.7346, 3401.088
480.2168, 3411.048
480.6989, 3409.712
481.1810, 3406.616
481.6631, 3409.292
482.1452, 3418.841
482.6273, 3427.751
483.1095, 3434.988
483.5916, 3438.862
484.0737, 3437.669
484.5558, 3435.548
485.0379, 3423.167
485.5201, 3391.775
486.0022, 3346.245
486.4843, 3312.191
486.9664, 3305.914
487.4485, 3292.976
487.9306, 3256.377
488.4128, 3186.524
488.8949, 3132.345
489.3770, 3099.609
489.8591, 3074.459
490.3412, 3038.917
490.8233, 2991.550
491.3055, 2943.007
491.7876, 2895.049
492.2697, 2848.823
492.7518, 2808.100
493.2339, 2773.244
493.7160, 2739.274
494.1982, 2702.863
494.6803, 2664.688
495.1624, 2627.227
495.6445, 2589.969
496.1266, 2554.814
496.6087, 2523.594
497.0908, 2495.229
497.5729, 2466.753
498.0551, 2439.498
498.5372, 2409.975
499.0193, 2372.068
499.5014, 2327.195
499.9835, 2290.697
500.4656, 2279.345
500.9478, 2271.824
501.4299, 2252.852
501.9120, 2208.364
502.3941, 2171.965
502.8762, 2153.740
503.3583, 2145.403
503.8405, 2131.625
504.3226, 2106.731
504.8047, 2084.345
505.2868, 2067.859
505.7689, 2057.261
506.2510, 2049.037
506.7332, 2043.852
507.2153, 2039.762
507.6974, 2036.932
508.1795, 2035.707
508.6616, 2027.151
509.1437, 2008.660
509.6259, 1985.642
510.1080, 1965.184
510.5901, 1947.661
511.0722, 1935.632
511.5543, 1936.053
512.0364, 1940.687
512.5186, 1933.915
513.0007, 1916.005
513.4828, 1900.366
513.9649, 1899.576
514.4470, 1905.471
514.9291, 1908.482
515.4113, 1904.793
515.8934, 1900.277
516.3755, 1899.194
516.8576, 1899.167
517.3397, 1895.224
517.8218, 1876.750
518.3040, 1862.852
518.7861, 1863.444
519.2682, 1882.024
519.7503, 1890.885
520.2324, 1884.798
520.7145, 1873.678
521.1967, 1864.266
521.6788, 1856.177
522.1609, 1851.258
522.6430, 1851.408
523.1251, 1853.357
523.6072, 1849.659
524.0894, 1840.010
524.5715, 1827.904
525.0536, 1811.565
525.5357, 1793.902
526.0178, 1788.525
526.4999, 1795.981
526.9821, 1803.633
527.4642, 1798.748
527.9463, 1786.323
528.4284, 1776.201
528.9105, 1771.205
529.3926, 1767.184
529.8748, 1761.076
530.3569, 1753.352
530.8390, 1745.138
531.3211, 1734.373
531.8032, 1725.518
532.2853, 1723.510
532.7675, 1728.819
533.2496, 1726.952
533.7317, 1707.300
534.2138, 1684.660
534.6959, 1668.531
535.1780, 1661.542
535.6602, 1657.665
536.1423, 1659.154
536.6244, 1662.405
537.1065, 1660.491
537.5886, 1652.266
538.0707, 1642.377
538.5529, 1630.948
539.0350, 1618.820
539.5171, 1611.103
539.9992, 1607.918
540.4813, 1607.716
540.9634, 1613.037
541.4456, 1620.593
541.9277, 1618.391
542.4098, 1602.574
542.8919, 1585.023
543.3740, 1579.949
543.8561, 1582.704
544.3383, 1584.000
544.8204, 1577.415
545.3025, 1570.182
545.7846, 1566.181
546.2667, 1565.428
546.7488, 1567.350
547.2310, 1576.406
547.7131, 1584.604
548.1952, 1587.904
548.6773, 1586.167
549.1594, 1578.285
549.6415, 1557.370
550.1237, 1534.507
550.6058, 1523.769
551.0879, 1529.999
551.5700, 1536.840
552.0521, 1542.401
552.5342, 1545.958
553.0164, 1542.034
553.4985, 1529.060
553.9806, 1520.926
554.4627, 1533.080
554.9448, 1558.325
555.4269, 1563.363
555.9091, 1545.077
556.3912, 1524.377
556.8733, 1524.023
557.3554, 1535.681
557.8375, 1544.166
558.3196, 1541.409
558.8018, 1539.083
559.2839, 1546.595
559.7660, 1560.878
560.2481, 1574.145
560.7302, 1584.931
561.2123, 1592.856
561.6945, 1596.140
562.1766, 1593.383
562.6587, 1595.131
563.1408, 1602.456
563.6229, 1613.943
564.1050, 1629.836
564.5872, 1654.608
565.0693, 1672.107
565.5514, 1679.582
566.0335, 1681.381
566.5156, 1685.682
566.9977, 1692.646
567.4799, 1699.386
567.9620, 1703.268
568.4441, 1706.704
568.9262, 1717.619
569.4083, 1735.742
569.8904, 1754.217
570.3726, 1770.436
570.8547, 1783.061
571.3368, 1789.613
571.8189, 1788.443
572.3010, 1787.151
572.7831, 1793.775
573.2653, 1802.106
573.7474, 1804.104
574.2295, 1790.213
574.7116, 1777.549
575.1937, 1773.475
575.6758, 1775.268
576.1580, 1770.077
576.6401, 1752.114
577.1222, 1733.936
577.6042, 1720.285
578.0864, 1711.608
578.5685, 1701.747
579.0506, 1689.592
579.5327, 1678.808
580.0148, 1673.050
580.4969, 1672.200
580.9791, 1673.309
581.4612, 1676.574
581.9433, 1680.033
582.4254, 1677.869
582.9075, 1672.673
583.3896, 1673.208
583.8718, 1688.909
584.3539, 1708.418
584.8360, 1721.331
585.3181, 1728.150
585.8002, 1734.867
586.2823, 1746.768
586.7645, 1757.776
587.2466, 1762.687
587.7287, 1756.123
588.2108, 1756.122
588.6929, 1766.389
589.1750, 1783.389
589.6572, 1804.478
590.1393, 1832.691
590.6214, 1858.358
591.1035, 1878.887
591.5856, 1896.860
592.0677, 1919.624
592.5499, 1947.331
593.0320, 1978.553
593.5141, 2012.335
593.9962, 2049.234
594.4783, 2092.334
594.9604, 2142.019
595.4426, 2190.163
595.9247, 2229.691
596.4068, 2264.314
596.8889, 2297.729
597.3710, 2328.388
597.8531, 2365.365
598.3353, 2417.877
598.8174, 2479.366
599.2995, 2540.727
599.7816, 2592.863
600.2637, 2650.968
600.7458, 2723.619
601.2280, 2807.436
601.7101, 2880.485
602.1922, 2931.901
602.6743, 2989.926
603.1564, 3069.139
603.6385, 3171.965
604.1207, 3260.702
604.6028, 3333.808
605.0849, 3400.782
605.5670, 3468.851
606.0491, 3537.920
606.5313, 3608.021
607.0134, 3680.828
607.4955, 3751.429
607.9776, 3818.980
608.4597, 3880.466
608.9418, 3931.054
609.4240, 3962.061
609.9061, 3986.581
610.3882, 4020.673
610.8703, 4058.801
611.3524, 4068.576
611.8345, 4034.929
612.3167, 3976.415
612.7988, 3896.176
613.2809, 3786.294
613.7630, 3690.478
614.2451, 3614.661
614.7272, 3544.284
615.2094, 3467.294
615.6915, 3383.159
616.1736, 3299.639
616.6557, 3218.890
617.1378, 3137.732
617.6199, 3048.034
618.1021, 2951.889
618.5842, 2860.771
619.0663, 2781.221
619.5484, 2707.920
620.0305, 2630.342
620.5126, 2551.328
620.9948, 2482.962
621.4769, 2441.886
621.9590, 2406.903
622.4411, 2364.264
622.9232, 2310.541
623.4053, 2258.833
623.8875, 2208.600
624.3696, 2163.416
624.8517, 2126.198
625.3338, 2101.107
625.8159, 2075.277
626.2980, 2046.338
626.7802, 2018.399
627.2623, 2001.235
627.7444, 1995.773
628.2265, 1984.115
628.7086, 1957.763
629.1907, 1924.302
629.6729, 1901.336
630.1550, 1887.197
630.6371, 1872.522
631.1192, 1851.959
631.6013, 1828.002
632.0834, 1801.502
632.5656, 1772.349
633.0477, 1746.886
633.5298, 1726.040
634.0119, 1710.824
634.4940, 1702.856
634.9761, 1710.464
635.4583, 1711.053
635.9404, 1701.144
636.4225, 1685.677
636.9046, 1670.632
637.3867, 1656.156
637.8688, 1641.946
638.3510, 1628.118
638.8331, 1614.546
639.3152, 1601.132
639.7973, 1587.974
640.2794, 1574.586
640.7615, 1559.151
641.2437, 1544.223
641.7258, 1533.017
642.2079, 1525.765
642.6900, 1523.094
643.1721, 1530.284
643.6542, 1539.230
644.1364, 1543.864
644.6185, 1543.312
645.1006, 1537.805
645.5827, 1521.971
646.0648, 1503.958
646.5469, 1491.808
647.0291, 1486.963
647.5112, 1485.571
647.9933, 1489.954
648.4754, 1495.326
648.9575, 1489.944
649.4396, 1472.911
649.9218, 1457.754
650.4039, 1450.243
650.8860, 1447.018
651.3681, 1439.775
651.8502, 1429.433
652.3323, 1422.031
652.8145, 1424.439
653.2966, 1429.680
653.7787, 1430.629
654.2608, 1426.500
654.7429, 1423.798
655.2250, 1430.208
