##NAMES=Hentschelite
##RRUFFID=R061015
##IDEAL CHEMISTRY=Cu^2+^Fe^3+^_2_(PO_4_)_2_(OH)_2_
##LOCALITY=Spring Creek Copper mine, South Australia, Australia
##OWNER=RRUFF
##SOURCE=Michael Scott
##DESCRIPTION=Dark green platy crystals in radial aggregates associated with quartz and malachite
##STATUS=The identification of this mineral is confirmed by single-crystal X-ray diffraction and chemical analysis.
##URL=rruff.info/R061015
##MEASURED CHEMISTRY=(Cu_0.91_Fe^2+^_0.08_Mn_0.01_)_Î£=1_Fe^3+^_2.00_(P_1.00_O_4_)_2_(OH)_2_; OH estimated by charge balance; Fe^2+^ by charge balance and stoichiometry
193.8456, 3328.285
194.3277, 3334.463
194.8099, 3337.443
195.2920, 3332.720
195.7741, 3323.658
196.2562, 3314.152
196.7383, 3302.972
197.2204, 3296.102
197.7026, 3299.111
198.1847, 3309.735
198.6668, 3324.906
199.1489, 3351.737
199.6310, 3379.826
200.1131, 3391.405
200.5953, 3382.977
201.0774, 3370.083
201.5595, 3361.863
202.0416, 3357.075
202.5237, 3354.371
203.0058, 3353.996
203.4880, 3355.175
203.9701, 3357.302
204.4522, 3360.712
204.9343, 3363.342
205.4164, 3360.432
205.8985, 3355.911
206.3807, 3357.709
206.8628, 3372.083
207.3449, 3391.391
207.8270, 3408.224
208.3091, 3423.486
208.7912, 3430.062
209.2734, 3413.115
209.7555, 3385.802
210.2376, 3372.296
210.7197, 3383.814
211.2018, 3406.286
211.6839, 3423.943
212.1661, 3436.254
212.6482, 3450.416
213.1303, 3475.032
213.6124, 3502.825
214.0945, 3520.149
214.5766, 3518.506
215.0588, 3512.654
215.5409, 3517.619
216.0230, 3533.583
216.5051, 3550.203
216.9872, 3560.235
217.4693, 3568.750
217.9515, 3585.542
218.4336, 3618.313
218.9157, 3649.932
219.3978, 3666.132
219.8799, 3667.443
220.3620, 3661.714
220.8442, 3647.825
221.3263, 3631.260
221.8084, 3621.883
222.2905, 3622.550
222.7726, 3625.584
223.2547, 3626.319
223.7369, 3624.903
224.2190, 3622.793
224.7011, 3621.348
225.1832, 3618.490
225.6653, 3610.307
226.1474, 3594.049
226.6296, 3579.735
227.1117, 3573.234
227.5938, 3573.448
228.0759, 3578.036
228.5580, 3590.185
229.0401, 3600.941
229.5223, 3592.967
230.0044, 3560.297
230.4865, 3535.461
230.9686, 3538.653
231.4507, 3560.337
231.9328, 3577.391
232.4150, 3582.317
232.8971, 3582.748
233.3792, 3591.349
233.8613, 3609.316
234.3434, 3622.901
234.8255, 3620.208
235.3077, 3611.925
235.7898, 3618.228
236.2719, 3645.721
236.7540, 3679.395
237.2361, 3699.891
237.7182, 3706.542
238.2004, 3715.425
238.6825, 3733.721
239.1646, 3754.152
239.6467, 3764.949
240.1288, 3763.681
240.6109, 3763.951
241.0931, 3781.345
241.5752, 3817.451
242.0573, 3851.377
242.5394, 3886.805
243.0215, 3916.380
243.5036, 3930.134
243.9858, 3928.171
244.4679, 3923.891
244.9500, 3927.350
245.4321, 3939.541
245.9142, 3958.363
246.3963, 3988.195
246.8785, 4020.727
247.3606, 4049.358
247.8427, 4074.968
248.3248, 4105.129
248.8069, 4146.940
249.2890, 4198.762
249.7712, 4239.263
250.2533, 4266.087
250.7354, 4285.643
251.2175, 4292.817
251.6996, 4293.869
252.1817, 4305.146
252.6639, 4337.798
253.1460, 4386.191
253.6281, 4420.912
254.1102, 4431.920
254.5923, 4442.771
255.0744, 4458.130
255.5566, 4476.760
256.0387, 4496.989
256.5208, 4518.132
257.0029, 4539.363
257.4850, 4558.287
257.9671, 4581.160
258.4492, 4593.571
258.9314, 4589.417
259.4135, 4576.914
259.8956, 4563.414
260.3777, 4551.518
260.8598, 4541.380
261.3419, 4533.166
261.8241, 4528.145
262.3062, 4523.183
262.7883, 4521.135
263.2704, 4517.322
263.7525, 4505.980
264.2346, 4487.317
264.7168, 4468.800
265.1989, 4461.400
265.6810, 4472.862
266.1631, 4468.601
266.6452, 4442.269
267.1273, 4408.090
267.6095, 4364.749
268.0916, 4317.916
268.5737, 4282.299
269.0558, 4274.675
269.5379, 4297.401
270.0201, 4304.416
270.5022, 4284.855
270.9843, 4258.409
271.4664, 4220.859
271.9485, 4180.549
272.4306, 4152.928
272.9128, 4150.584
273.3949, 4168.205
273.8770, 4177.875
274.3591, 4178.882
274.8412, 4171.749
275.3233, 4147.753
275.8055, 4119.431
276.2876, 4104.224
276.7697, 4111.729
277.2518, 4130.610
277.7339, 4135.896
278.2160, 4120.653
278.6982, 4110.498
279.1803, 4120.060
279.6624, 4133.501
280.1445, 4136.104
280.6266, 4123.254
281.1087, 4107.124
281.5909, 4101.653
282.0730, 4107.438
282.5551, 4116.502
283.0372, 4130.107
283.5193, 4144.224
284.0014, 4158.205
284.4836, 4171.862
284.9657, 4177.711
285.4478, 4162.519
285.9299, 4132.238
286.4120, 4117.927
286.8941, 4128.481
287.3763, 4148.885
287.8584, 4169.988
288.3405, 4190.868
288.8226, 4204.768
289.3047, 4201.569
289.7868, 4191.934
290.2690, 4194.439
290.7511, 4211.545
291.2332, 4234.210
291.7153, 4262.041
292.1974, 4290.704
292.6795, 4303.763
293.1617, 4283.632
293.6438, 4258.329
294.1259, 4252.885
294.6080, 4265.579
295.0901, 4278.970
295.5722, 4283.371
296.0544, 4281.052
296.5365, 4281.040
297.0186, 4279.468
297.5007, 4284.380
297.9828, 4305.323
298.4649, 4334.643
298.9471, 4355.013
299.4292, 4358.615
299.9113, 4354.279
300.3934, 4361.087
300.8755, 4384.813
301.3576, 4408.422
301.8398, 4435.401
302.3219, 4458.840
302.8040, 4469.393
303.2861, 4465.730
303.7682, 4456.668
304.2503, 4451.905
304.7325, 4449.310
305.2146, 4460.721
305.6967, 4502.585
306.1788, 4542.415
306.6609, 4559.104
307.1430, 4555.948
307.6252, 4551.567
308.1073, 4562.169
308.5894, 4587.442
309.0715, 4602.110
309.5536, 4594.627
310.0357, 4588.360
310.5179, 4587.708
311.0000, 4591.766
311.4821, 4598.894
311.9642, 4608.500
312.4463, 4619.742
312.9284, 4632.195
313.4106, 4655.977
313.8927, 4660.142
314.3748, 4627.064
314.8569, 4582.149
315.3390, 4545.683
315.8211, 4523.205
316.3033, 4509.233
316.7854, 4499.343
317.2675, 4494.514
317.7496, 4484.617
318.2317, 4460.688
318.7138, 4438.025
319.1960, 4429.671
319.6781, 4433.643
320.1602, 4434.030
320.6423, 4414.215
321.1244, 4381.396
321.6065, 4362.549
322.0887, 4361.634
322.5708, 4368.880
323.0529, 4383.855
323.5350, 4401.950
324.0171, 4412.019
324.4992, 4406.850
324.9814, 4394.745
325.4635, 4381.326
325.9456, 4366.715
326.4277, 4360.616
326.9098, 4371.892
327.3919, 4393.481
327.8741, 4406.404
328.3562, 4408.881
328.8383, 4406.246
329.3204, 4399.387
329.8025, 4389.301
330.2846, 4376.493
330.7668, 4360.413
331.2489, 4345.996
331.7310, 4343.270
332.2131, 4361.054
332.6952, 4365.654
333.1773, 4349.135
333.6595, 4322.341
334.1416, 4287.458
334.6237, 4248.160
335.1058, 4219.721
335.5879, 4218.402
336.0700, 4247.308
336.5522, 4266.244
337.0343, 4269.042
337.5164, 4269.772
337.9985, 4272.590
338.4806, 4276.966
338.9627, 4281.583
339.4449, 4285.872
339.9270, 4289.045
340.4091, 4288.673
340.8912, 4285.975
341.3733, 4276.902
341.8554, 4256.904
342.3376, 4233.468
342.8197, 4210.703
343.3018, 4190.324
343.7839, 4176.350
344.2660, 4177.095
344.7481, 4195.058
345.2303, 4206.372
345.7124, 4207.186
346.1945, 4201.786
346.6766, 4188.867
347.1587, 4170.935
347.6408, 4157.042
348.1230, 4157.974
348.6051, 4166.521
349.0872, 4161.257
349.5693, 4137.775
350.0514, 4115.063
350.5335, 4108.810
351.0157, 4110.183
351.4978, 4103.329
351.9799, 4080.858
352.4620, 4055.692
352.9441, 4041.479
353.4262, 4034.797
353.9084, 4017.388
354.3905, 3978.432
354.8726, 3931.367
355.3547, 3905.057
355.8368, 3904.565
356.3189, 3900.520
356.8011, 3884.863
357.2832, 3863.112
357.7653, 3839.112
358.2474, 3814.201
358.7295, 3793.448
359.2116, 3783.896
359.6938, 3788.757
360.1759, 3776.934
360.6580, 3728.173
361.1401, 3685.878
361.6222, 3673.974
362.1043, 3682.381
362.5865, 3688.074
363.0686, 3677.662
363.5507, 3656.612
364.0328, 3643.786
364.5149, 3641.696
364.9970, 3644.490
365.4792, 3661.255
365.9613, 3676.088
366.4434, 3672.225
366.9255, 3647.363
367.4076, 3617.852
367.8897, 3601.701
368.3719, 3599.601
368.8540, 3599.981
369.3361, 3602.327
369.8182, 3607.277
370.3003, 3617.046
370.7824, 3629.645
371.2646, 3639.665
371.7467, 3643.503
372.2288, 3643.602
372.7109, 3642.614
373.1930, 3639.867
373.6751, 3641.936
374.1573, 3653.465
374.6394, 3671.586
375.1215, 3691.443
375.6036, 3717.201
376.0857, 3735.373
376.5678, 3731.777
377.0500, 3716.051
377.5321, 3710.849
378.0142, 3723.278
378.4963, 3739.595
378.9784, 3741.980
379.4605, 3725.755
379.9427, 3713.424
380.4248, 3706.928
380.9069, 3703.025
381.3890, 3699.940
381.8711, 3697.554
382.3532, 3696.943
382.8354, 3699.558
383.3175, 3703.873
383.7996, 3700.187
384.2817, 3675.873
384.7638, 3658.945
385.2459, 3659.676
385.7281, 3665.551
386.2102, 3663.033
386.6923, 3648.480
387.1744, 3629.686
387.6565, 3615.394
388.1386, 3605.002
388.6208, 3603.296
389.1029, 3619.995
389.5850, 3636.120
390.0671, 3639.726
390.5492, 3634.278
391.0313, 3631.473
391.5135, 3640.618
391.9956, 3654.897
392.4777, 3661.172
392.9598, 3658.874
393.4419, 3651.865
393.9240, 3638.458
394.4062, 3623.017
394.8883, 3613.840
395.3704, 3613.731
395.8525, 3613.779
396.3346, 3609.170
396.8167, 3601.609
397.2989, 3594.693
397.7810, 3589.371
398.2631, 3583.544
398.7452, 3574.623
399.2273, 3561.853
399.7094, 3549.797
400.1916, 3544.050
400.6737, 3533.909
401.1558, 3506.961
401.6379, 3470.544
402.1200, 3444.342
402.6021, 3440.385
403.0843, 3451.278
403.5664, 3450.758
404.0485, 3429.343
404.5306, 3411.592
405.0127, 3404.423
405.4948, 3398.295
405.9770, 3383.866
406.4591, 3360.663
406.9412, 3337.810
407.4233, 3324.855
407.9054, 3321.368
408.3875, 3318.369
408.8697, 3316.663
409.3518, 3313.901
409.8339, 3310.527
410.3160, 3305.088
410.7981, 3293.873
411.2802, 3270.892
411.7624, 3248.130
412.2445, 3239.710
412.7266, 3243.820
413.2087, 3247.758
413.6908, 3247.548
414.1729, 3244.460
414.6551, 3240.626
415.1372, 3236.666
415.6193, 3229.612
416.1014, 3214.941
416.5835, 3199.516
417.0656, 3189.854
417.5478, 3186.182
418.0299, 3185.553
418.5120, 3186.385
418.9941, 3188.232
419.4762, 3186.015
419.9583, 3169.005
420.4405, 3160.867
420.9226, 3177.953
421.4047, 3199.529
421.8868, 3198.667
422.3689, 3168.784
422.8510, 3132.542
423.3332, 3122.565
423.8153, 3143.157
424.2974, 3155.041
424.7795, 3152.716
425.2616, 3145.242
425.7437, 3132.843
426.2259, 3119.141
426.7080, 3113.215
427.1901, 3125.150
427.6722, 3141.074
428.1543, 3140.121
428.6364, 3122.696
429.1186, 3104.989
429.6007, 3090.694
430.0828, 3082.109
430.5649, 3084.072
431.0470, 3098.231
431.5291, 3113.507
432.0113, 3133.769
432.4934, 3149.782
432.9755, 3148.253
433.4576, 3129.723
433.9397, 3108.427
434.4218, 3094.954
434.9040, 3089.208
435.3861, 3088.966
435.8682, 3099.566
436.3503, 3109.328
436.8324, 3116.466
437.3145, 3121.707
437.7967, 3125.978
438.2788, 3129.573
438.7609, 3132.063
439.2430, 3131.283
439.7251, 3126.169
440.2072, 3128.365
440.6894, 3145.560
441.1715, 3161.366
441.6536, 3166.923
442.1357, 3164.757
442.6178, 3160.827
443.0999, 3155.949
443.5821, 3151.965
444.0642, 3150.898
444.5463, 3152.672
445.0284, 3157.739
445.5105, 3168.613
445.9926, 3179.365
446.4748, 3177.457
446.9569, 3159.408
447.4390, 3149.130
447.9211, 3154.584
448.4032, 3166.536
448.8853, 3178.183
449.3675, 3188.939
449.8496, 3201.526
450.3317, 3218.619
450.8138, 3237.940
451.2959, 3246.636
451.7780, 3236.285
452.2602, 3226.830
452.7423, 3214.457
453.2244, 3207.585
453.7065, 3217.979
454.1886, 3245.238
454.6707, 3272.207
455.1529, 3280.256
455.6350, 3271.528
456.1171, 3265.741
456.5992, 3261.547
457.0813, 3263.514
457.5634, 3279.933
458.0455, 3302.984
458.5276, 3320.214
459.0098, 3327.177
459.4919, 3332.124
459.9740, 3342.004
460.4561, 3354.094
460.9382, 3361.191
461.4203, 3361.265
461.9025, 3357.940
462.3846, 3354.439
462.8667, 3350.050
463.3488, 3351.389
463.8309, 3364.113
464.3130, 3376.342
464.7952, 3382.172
465.2773, 3383.897
465.7594, 3385.737
466.2415, 3389.615
466.7236, 3395.275
467.2057, 3401.941
467.6879, 3408.939
468.1700, 3419.407
468.6521, 3443.705
469.1342, 3462.279
469.6163, 3458.205
470.0984, 3438.458
470.5806, 3427.176
471.0627, 3442.217
471.5448, 3468.691
472.0269, 3485.440
472.5090, 3492.628
472.9911, 3492.926
473.4733, 3482.948
473.9554, 3471.646
474.4375, 3479.581
474.9196, 3513.846
475.4017, 3534.351
475.8839, 3520.259
476.3660, 3499.540
476.8481, 3496.371
477.3302, 3510.193
477.8123, 3528.247
478.2944, 3542.458
478.7766, 3552.909
479.2587, 3559.396
479.7408, 3560.227
480.2229, 3559.800
480.7050, 3555.942
481.1871, 3553.124
481.6693, 3556.853
482.1514, 3566.544
482.6335, 3574.270
483.1156, 3571.422
483.5977, 3561.555
484.0798, 3557.372
484.5620, 3560.331
485.0441, 3562.698
485.5262, 3562.285
486.0083, 3557.605
486.4904, 3544.607
486.9725, 3515.022
487.4547, 3496.502
487.9368, 3513.507
488.4189, 3540.789
488.9010, 3542.010
489.3831, 3513.924
489.8652, 3483.150
490.3474, 3473.405
490.8295, 3483.025
491.3116, 3483.748
491.7937, 3467.576
492.2758, 3451.689
492.7579, 3435.987
493.2401, 3423.119
493.7222, 3416.243
494.2043, 3415.801
494.6864, 3417.786
495.1685, 3419.166
495.6506, 3419.820
496.1328, 3419.431
496.6149, 3419.064
497.0970, 3414.629
497.5791, 3400.850
498.0612, 3381.891
498.5433, 3366.219
499.0255, 3355.133
499.5076, 3346.167
499.9897, 3338.977
500.4718, 3332.837
500.9539, 3325.865
501.4360, 3317.932
501.9182, 3312.041
502.4003, 3311.354
502.8824, 3315.925
503.3645, 3320.689
503.8466, 3329.099
504.3287, 3333.564
504.8109, 3326.575
505.2930, 3317.994
505.7751, 3321.398
506.2572, 3339.377
506.7393, 3357.281
507.2214, 3359.326
507.7036, 3347.012
508.1857, 3329.692
508.6678, 3303.105
509.1499, 3284.544
509.6320, 3293.801
510.1141, 3317.159
510.5963, 3322.529
511.0784, 3291.049
511.5605, 3246.269
512.0426, 3274.037
512.5247, 3288.956
513.0068, 3291.717
513.4890, 3245.901
513.9711, 3262.811
514.4532, 3260.638
514.9353, 3301.620
515.4174, 3323.407
515.8995, 3307.813
516.3817, 3294.448
516.8638, 3292.800
517.3459, 3294.990
517.8280, 3292.676
518.3101, 3284.053
518.7922, 3273.612
519.2744, 3264.655
519.7565, 3257.207
520.2386, 3252.403
520.7207, 3251.678
521.2028, 3247.390
521.6849, 3232.267
522.1671, 3211.133
522.6492, 3197.788
523.1313, 3198.290
523.6134, 3195.112
524.0955, 3179.684
524.5776, 3159.335
525.0598, 3141.102
525.5419, 3126.392
526.0240, 3114.925
526.5061, 3106.982
526.9882, 3101.754
527.4703, 3093.219
527.9525, 3079.716
528.4346, 3065.538
528.9167, 3049.812
529.3988, 3035.026
529.8809, 3024.796
530.3630, 3018.905
530.8452, 3010.780
531.3273, 2992.785
531.8094, 2970.636
532.2915, 2955.343
532.7736, 2947.224
533.2557, 2943.623
533.7379, 2945.661
534.2200, 2948.858
534.7021, 2941.857
535.1842, 2919.167
535.6663, 2900.138
536.1484, 2887.121
536.6306, 2878.061
537.1127, 2873.398
537.5948, 2871.470
538.0769, 2868.808
538.5590, 2863.407
539.0411, 2855.336
539.5233, 2842.180
540.0054, 2819.625
540.4875, 2810.324
540.9696, 2833.853
541.4517, 2856.887
541.9338, 2850.894
542.4160, 2821.491
542.8981, 2797.873
543.3802, 2793.186
543.8623, 2796.914
544.3444, 2801.909
544.8265, 2807.509
545.3087, 2813.252
545.7908, 2819.513
546.2729, 2820.733
546.7550, 2806.465
547.2371, 2768.285
547.7192, 2751.989
548.2014, 2779.685
548.6835, 2802.944
549.1656, 2801.493
549.6477, 2785.732
550.1298, 2771.900
550.6119, 2765.794
551.0941, 2761.961
551.5762, 2752.904
552.0583, 2739.828
552.5404, 2731.959
553.0225, 2731.115
553.5046, 2732.794
553.9868, 2737.239
554.4689, 2741.517
554.9510, 2735.198
555.4331, 2706.973
555.9152, 2684.168
556.3973, 2676.359
556.8795, 2677.822
557.3616, 2685.079
557.8437, 2695.871
558.3258, 2704.739
558.8079, 2706.850
559.2900, 2703.284
559.7722, 2700.780
560.2543, 2700.951
560.7364, 2698.516
561.2185, 2689.841
561.7006, 2679.529
562.1827, 2669.993
562.6649, 2661.608
563.1470, 2656.380
563.6291, 2660.684
564.1112, 2664.976
564.5933, 2653.633
565.0754, 2630.414
565.5576, 2615.482
566.0397, 2618.010
566.5218, 2630.222
567.0039, 2639.588
567.4860, 2648.374
567.9681, 2647.137
568.4503, 2616.693
568.9324, 2597.497
569.4145, 2620.360
569.8966, 2662.673
570.3787, 2683.833
570.8608, 2666.718
571.3430, 2638.422
571.8251, 2631.329
572.3072, 2641.747
572.7893, 2647.436
573.2714, 2643.639
573.7535, 2643.962
574.2357, 2662.244
574.7178, 2693.248
575.1999, 2709.549
575.6820, 2699.861
576.1641, 2691.292
576.6462, 2691.107
577.1284, 2693.960
577.6105, 2696.418
578.0926, 2696.942
578.5747, 2692.687
579.0568, 2680.108
579.5389, 2662.610
580.0211, 2651.443
580.5032, 2646.291
580.9853, 2649.295
581.4674, 2667.825
581.9495, 2688.496
582.4316, 2698.856
582.9138, 2699.369
583.3959, 2696.818
583.8780, 2688.379
584.3601, 2681.780
584.8422, 2682.783
585.3243, 2690.146
585.8065, 2702.623
586.2886, 2719.602
586.7707, 2735.190
587.2528, 2740.979
587.7349, 2735.925
588.2170, 2730.535
588.6992, 2720.374
589.1813, 2716.264
589.6634, 2724.304
590.1455, 2738.414
590.6276, 2753.336
591.1097, 2768.490
591.5919, 2777.463
592.0740, 2769.197
592.5561, 2754.964
593.0382, 2755.649
593.5203, 2771.003
594.0024, 2783.249
594.4846, 2781.393
594.9667, 2772.966
595.4488, 2777.607
595.9309, 2810.135
596.4130, 2826.479
596.8951, 2811.183
597.3773, 2796.613
597.8594, 2798.961
598.3415, 2814.764
598.8236, 2835.620
599.3057, 2859.572
599.7878, 2881.678
600.2700, 2892.964
600.7521, 2896.858
601.2342, 2909.782
601.7163, 2935.571
602.1984, 2961.541
602.6805, 2977.821
603.1627, 2985.591
603.6448, 2992.962
604.1269, 2998.022
604.6090, 3005.294
605.0911, 3017.332
605.5732, 3030.347
606.0554, 3042.909
606.5375, 3053.616
607.0196, 3058.704
607.5017, 3053.350
607.9838, 3044.312
608.4659, 3046.750
608.9481, 3060.791
609.4302, 3074.408
609.9123, 3087.087
610.3944, 3093.570
610.8765, 3085.639
611.3586, 3063.448
611.8408, 3046.886
612.3229, 3045.971
612.8050, 3039.509
613.2871, 3011.936
613.7692, 2978.579
614.2513, 2960.492
614.7335, 2959.979
615.2156, 2960.629
615.6977, 2945.452
616.1798, 2919.678
616.6619, 2908.332
617.1440, 2915.206
617.6262, 2916.180
618.1083, 2899.860
618.5904, 2877.637
619.0725, 2864.860
619.5546, 2861.614
620.0367, 2855.036
620.5189, 2837.052
621.0010, 2821.165
621.4831, 2820.111
621.9652, 2825.061
622.4473, 2819.513
622.9294, 2798.926
623.4116, 2774.050
623.8937, 2756.868
624.3758, 2747.042
624.8579, 2739.886
625.3400, 2737.764
625.8221, 2731.627
626.3043, 2713.193
626.7864, 2691.920
627.2685, 2681.725
627.7506, 2684.354
628.2327, 2685.240
628.7148, 2678.595
629.1970, 2670.562
629.6791, 2665.137
630.1612, 2662.073
630.6433, 2661.518
631.1254, 2663.344
631.6075, 2662.997
632.0897, 2652.023
632.5718, 2629.568
633.0539, 2613.931
633.5360, 2605.281
634.0181, 2603.382
634.5002, 2619.192
634.9824, 2636.284
635.4645, 2627.903
635.9466, 2586.083
636.4287, 2552.213
636.9108, 2542.025
637.3929, 2543.369
637.8751, 2551.826
638.3572, 2562.644
638.8393, 2565.207
639.3214, 2554.810
639.8035, 2539.443
640.2856, 2532.201
640.7678, 2534.036
641.2499, 2533.003
641.7320, 2527.701
642.2141, 2522.033
642.6962, 2521.855
643.1783, 2520.852
643.6605, 2506.601
644.1426, 2472.544
644.6247, 2448.739
645.1068, 2452.635
645.5889, 2464.931
646.0710, 2471.205
646.5532, 2470.815
647.0353, 2465.556
647.5174, 2456.210
647.9995, 2445.628
648.4816, 2438.479
648.9637, 2434.970
649.4459, 2432.966
649.9280, 2434.808
650.4101, 2432.980
650.8922, 2416.329
651.3743, 2396.344
651.8564, 2395.608
652.3386, 2424.305
652.8207, 2440.108
653.3028, 2414.361
653.7849, 2384.037
654.2670, 2385.196
654.7491, 2407.837
655.2313, 2419.478
655.7134, 2405.111
656.1955, 2382.947
656.6776, 2383.079
657.1597, 2405.632
657.6418, 2418.199
658.1240, 2416.620
658.6061, 2412.965
659.0882, 2412.793
659.5703, 2414.876
660.0524, 2415.644
660.5345, 2387.913
661.0167, 2412.485
661.4988, 2424.209
661.9809, 2423.774
662.4630, 2374.764
662.9451, 2388.479
663.4272, 2377.057
663.9094, 2364.603
664.3915, 2387.146
664.8736, 2345.202
665.3557, 2367.190
665.8378, 2363.657
666.3199, 2371.805
666.8021, 2354.659
667.2842, 2345.327
667.7663, 2361.294
668.2484, 2363.253
668.7305, 2343.196
669.2126, 2352.087
669.6948, 2309.257
670.1769, 2311.813
670.6590, 2333.949
671.1411, 2315.164
671.6232, 2324.517
672.1053, 2323.154
672.5875, 2285.810
673.0696, 2288.953
673.5517, 2303.126
674.0338, 2315.345
674.5159, 2325.412
674.9980, 2329.267
675.4802, 2323.558
675.9623, 2313.889
676.4444, 2309.017
676.9265, 2309.296
677.4086, 2313.363
677.8907, 2328.338
678.3729, 2338.563
678.8550, 2335.559
679.3371, 2326.470
679.8192, 2319.891
680.3013, 2317.551
680.7834, 2315.844
681.2656, 2311.679
681.7477, 2306.662
682.2298, 2302.891
682.7119, 2300.559
683.1940, 2301.788
683.6761, 2307.914
684.1583, 2312.924
684.6404, 2308.394
685.1225, 2293.501
685.6046, 2284.285
