##NAMES=Herbertsmithite
##RRUFFID=R060387
##IDEAL CHEMISTRY=Cu^2+^_3_Zn^2+^(OH)_6_Cl_2_
##LOCALITY=San Francisco mine, Sierra Gorda, Antofagasta, Chile
##OWNER=RRUFF
##SOURCE=Michael Scott
##DESCRIPTION=Greenish-blue thin hexagonal plates associated with hemimorphite, anglesite, and quartz
##STATUS=The identification of this mineral is confirmed by single-crystal X-ray diffraction and chemical analysis.
##URL=rruff.info/R060387
##MEASURED CHEMISTRY=(Cu_2.98_Zn_0.02_)_Î£=3_Zn_1.00_(OH)_6_Cl_2.00_
171.5487, 230.0875
172.0309, 228.8813
172.5130, 227.3409
172.9951, 225.7411
173.4772, 224.4078
173.9593, 223.8577
174.4414, 225.2282
174.9236, 226.9699
175.4057, 227.3339
175.8878, 226.3183
176.3699, 224.7738
176.8520, 223.0698
177.3341, 221.3459
177.8163, 219.9113
178.2984, 219.2828
178.7805, 218.8910
179.2626, 217.7166
179.7447, 215.6979
180.2268, 213.6685
180.7090, 212.5332
181.1911, 212.1003
181.6732, 211.8100
182.1553, 211.5830
182.6374, 211.3011
183.1195, 210.5562
183.6017, 209.2295
184.0838, 208.0225
184.5659, 207.9536
185.0480, 208.8076
185.5301, 209.4980
186.0123, 209.3384
186.4944, 208.5905
186.9765, 208.1606
187.4586, 208.1629
187.9407, 208.1489
188.4228, 207.3733
188.9050, 205.9071
189.3871, 204.4536
189.8692, 203.3165
190.3513, 202.4855
190.8334, 201.9692
191.3155, 201.8462
191.7977, 201.8437
192.2798, 201.5240
192.7619, 200.8905
193.2440, 200.1861
193.7261, 199.4823
194.2082, 198.7925
194.6904, 198.2532
195.1725, 197.9281
195.6546, 197.6516
196.1367, 197.0714
196.6188, 196.1584
197.1009, 195.2980
197.5831, 194.8217
198.0652, 194.7216
198.5473, 194.1637
199.0294, 192.9334
199.5115, 191.4583
199.9937, 190.6357
200.4758, 190.5331
200.9579, 190.6698
201.4400, 190.8707
201.9221, 191.1515
202.4042, 191.2625
202.8864, 191.1978
203.3685, 190.9466
203.8506, 190.3795
204.3327, 189.3897
204.8148, 188.5330
205.2969, 188.1699
205.7791, 188.3737
206.2612, 188.5221
206.7433, 188.5540
207.2254, 188.5293
207.7075, 188.6470
208.1896, 188.9950
208.6718, 189.2322
209.1539, 189.1261
209.6360, 188.5940
210.1181, 188.1189
210.6002, 187.6323
211.0823, 187.2708
211.5645, 187.5472
212.0466, 188.7788
212.5287, 189.9118
213.0108, 190.2960
213.4929, 189.6907
213.9750, 189.3157
214.4572, 189.2909
214.9393, 189.5172
215.4214, 189.7440
215.9035, 190.0583
216.3856, 190.1944
216.8678, 189.8404
217.3499, 188.5730
217.8320, 188.2389
218.3141, 189.2857
218.7962, 191.2066
219.2783, 192.4391
219.7605, 192.8609
220.2426, 192.7868
220.7247, 192.2610
221.2068, 190.9863
221.6889, 190.0850
222.1710, 189.5530
222.6532, 189.4398
223.1353, 190.0253
223.6174, 191.7817
224.0995, 193.4653
224.5816, 194.3927
225.0637, 194.1960
225.5459, 194.2227
226.0280, 194.6144
226.5101, 195.2370
226.9922, 195.6374
227.4743, 195.6379
227.9564, 195.7020
228.4386, 196.1825
228.9207, 197.6297
229.4028, 198.0908
229.8849, 197.1738
230.3670, 195.3438
230.8492, 193.8354
231.3313, 192.6356
231.8134, 191.7946
232.2955, 191.4414
232.7776, 192.0925
233.2597, 192.0181
233.7419, 190.9325
234.2240, 189.1961
234.7061, 187.7979
235.1882, 187.0014
235.6703, 186.1538
236.1524, 184.9294
236.6346, 183.0598
237.1167, 181.4798
237.5988, 180.4534
238.0809, 179.6208
238.5630, 178.0686
239.0451, 175.4220
239.5273, 172.6258
240.0094, 169.9998
240.4915, 167.4179
240.9736, 165.3452
241.4557, 164.0133
241.9378, 163.0681
242.4200, 161.7524
242.9021, 159.7650
243.3842, 157.8465
243.8663, 156.2628
244.3484, 155.0613
244.8306, 154.0834
245.3127, 153.5510
245.7948, 153.1347
246.2769, 152.2167
246.7590, 150.6546
247.2411, 148.8480
247.7233, 146.8037
248.2054, 144.2621
248.6875, 142.4941
249.1696, 141.8290
249.6517, 141.7321
250.1338, 141.3259
250.6160, 140.3753
251.0981, 139.5403
251.5802, 139.0713
252.0623, 139.0571
252.5444, 138.9412
253.0265, 138.7240
253.5087, 138.4074
253.9908, 137.9772
254.4729, 137.3460
254.9550, 136.7729
255.4371, 136.3170
255.9192, 135.9804
256.4014, 135.8075
256.8835, 135.9500
257.3656, 136.1054
257.8477, 135.8231
258.3298, 134.7610
258.8120, 134.0378
259.2941, 134.0261
259.7762, 134.7820
260.2583, 135.3311
260.7404, 135.7565
261.2225, 135.8748
261.7047, 135.4057
262.1868, 134.0677
262.6689, 132.8557
263.1510, 131.9214
263.6331, 131.2723
264.1152, 131.0473
264.5974, 131.4558
265.0795, 131.9670
265.5616, 132.0632
266.0437, 131.6600
266.5258, 131.1144
267.0079, 130.4085
267.4901, 129.5843
267.9722, 129.0954
268.4543, 129.0445
268.9364, 129.1207
269.4185, 129.0914
269.9006, 128.9544
270.3828, 128.7290
270.8649, 128.4091
271.3470, 128.0018
271.8291, 127.4888
272.3112, 126.7809
272.7933, 126.1781
273.2755, 125.9817
273.7576, 126.2749
274.2397, 126.3578
274.7218, 126.0946
275.2039, 125.5962
275.6860, 125.2029
276.1682, 124.9305
276.6503, 124.6903
277.1324, 124.3356
277.6145, 123.8320
278.0966, 123.8187
278.5787, 124.5491
279.0609, 125.5618
279.5430, 125.7563
280.0251, 125.0181
280.5072, 124.1835
280.9893, 123.7457
281.4715, 123.7065
281.9536, 123.4461
282.4357, 122.8431
282.9178, 122.1952
283.3999, 122.1140
283.8820, 122.6327
284.3642, 123.0748
284.8463, 123.0838
285.3284, 122.6918
285.8105, 122.2644
286.2926, 121.7590
286.7747, 121.3420
287.2569, 121.4079
287.7390, 121.9275
288.2211, 122.1500
288.7032, 121.4550
289.1853, 120.1648
289.6674, 119.8353
290.1496, 120.5690
290.6317, 121.5741
291.1138, 121.9695
291.5959, 121.8302
292.0780, 121.6673
292.5602, 121.7132
293.0423, 121.8289
293.5244, 121.5414
294.0065, 120.8324
294.4886, 120.2093
294.9707, 120.2401
295.4529, 120.7641
295.9350, 121.1946
296.4171, 121.3460
296.8992, 121.3561
297.3813, 121.3889
297.8634, 121.4554
298.3456, 121.6949
298.8277, 122.5058
299.3098, 123.5534
299.7919, 124.0372
300.2740, 123.6266
300.7561, 122.8765
301.2383, 122.5032
301.7204, 122.4330
302.2025, 122.3558
302.6846, 121.7632
303.1667, 121.1267
303.6488, 121.3084
304.1310, 122.6792
304.6131, 124.1208
305.0952, 124.4245
305.5773, 123.8835
306.0594, 123.2930
306.5415, 122.9677
307.0237, 122.8546
307.5058, 122.9838
307.9879, 123.4068
308.4700, 123.7225
308.9521, 123.3010
309.4343, 122.5943
309.9164, 122.3851
310.3985, 123.5327
310.8806, 124.9500
311.3627, 125.7811
311.8448, 125.9894
312.3270, 126.0952
312.8091, 126.3987
313.2912, 126.7803
313.7733, 127.0990
314.2554, 127.1761
314.7375, 127.2892
315.2197, 127.6046
315.7018, 128.1064
316.1839, 128.6277
316.6660, 129.0836
317.1481, 129.5352
317.6302, 130.0408
318.1124, 130.8715
318.5945, 131.4434
319.0766, 131.3705
319.5587, 130.8372
320.0408, 130.4844
320.5229, 130.4398
321.0051, 130.6810
321.4872, 131.2637
321.9693, 132.5442
322.4514, 133.4963
322.9335, 133.6891
323.4156, 133.4322
323.8978, 133.3223
324.3799, 133.3814
324.8620, 133.6743
325.3441, 134.2416
325.8262, 135.1210
326.3083, 136.1489
326.7905, 137.6361
327.2726, 139.1660
327.7547, 140.2074
328.2368, 140.0878
328.7189, 140.1728
329.2010, 140.8016
329.6832, 142.0309
330.1653, 143.0984
330.6474, 143.7760
331.1295, 144.4550
331.6116, 145.4769
332.0938, 147.0993
332.5759, 148.6540
333.0580, 149.9710
333.5401, 151.1185
334.0222, 152.5364
334.5043, 154.4094
334.9865, 156.3127
335.4686, 157.9211
335.9507, 158.9020
336.4328, 160.5104
336.9149, 162.8829
337.3970, 165.9220
337.8792, 169.3583
338.3613, 173.4207
338.8434, 177.3703
339.3255, 180.7199
339.8076, 183.3016
340.2898, 186.7651
340.7719, 191.3254
341.2540, 196.4502
341.7361, 201.3608
342.2182, 205.8890
342.7003, 211.0191
343.1825, 217.1578
343.6646, 224.2182
344.1467, 231.0491
344.6288, 237.5672
345.1109, 244.5684
345.5930, 253.2751
346.0752, 263.4368
346.5573, 273.5970
347.0394, 283.4419
347.5215, 293.1069
348.0036, 303.3831
348.4857, 314.2015
348.9679, 324.6140
349.4500, 333.2283
349.9321, 340.9350
350.4142, 350.4561
350.8963, 362.6371
351.3784, 375.7379
351.8606, 387.0378
352.3427, 397.0128
352.8248, 407.6992
353.3069, 420.5443
353.7890, 434.5259
354.2711, 448.3448
354.7533, 461.7626
355.2354, 475.7774
355.7175, 491.0785
356.1996, 507.4390
356.6817, 524.4622
357.1638, 542.7651
357.6460, 561.0770
358.1281, 578.6497
358.6102, 595.4259
359.0923, 611.9016
359.5744, 628.9099
360.0565, 645.3278
360.5387, 660.1953
361.0208, 674.8290
361.5029, 685.9314
361.9850, 691.7003
362.4671, 692.6907
362.9492, 690.4353
363.4314, 686.5480
363.9135, 678.7861
364.3956, 665.7364
364.8777, 646.3011
365.3598, 623.5677
365.8419, 596.8621
366.3241, 567.5785
366.8062, 537.9558
367.2883, 508.1416
367.7704, 478.1703
368.2526, 447.3418
368.7347, 414.8651
369.2168, 385.6725
369.6989, 360.2942
370.1810, 337.7561
370.6631, 317.0190
371.1453, 298.1599
371.6274, 280.9444
372.1095, 265.1403
372.5916, 250.7701
373.0737, 238.5821
373.5558, 229.1850
374.0380, 220.9063
374.5201, 212.6021
375.0022, 203.8948
375.4843, 196.7323
375.9664, 191.4325
376.4485, 187.4895
376.9307, 183.8065
377.4128, 180.3616
377.8949, 177.4058
378.3770, 175.2027
378.8591, 173.7179
379.3412, 171.9811
379.8234, 169.8710
380.3055, 167.9861
380.7876, 167.1599
381.2697, 167.3337
381.7518, 167.5736
382.2339, 167.5785
382.7161, 167.5357
383.1982, 167.8195
383.6803, 168.4297
384.1624, 169.4415
384.6445, 171.1260
385.1266, 173.2445
385.6088, 175.0776
386.0909, 176.3353
386.5730, 177.8452
387.0551, 180.7468
387.5372, 184.6903
388.0193, 188.7396
388.5015, 192.5908
388.9836, 196.1605
389.4657, 199.1875
389.9478, 201.6372
390.4299, 204.2344
390.9120, 207.3290
391.3942, 210.9094
391.8763, 214.9197
392.3584, 219.3952
392.8405, 224.2475
393.3226, 229.8318
393.8047, 235.9047
394.2869, 241.3490
394.7690, 245.3338
395.2511, 248.8265
395.7332, 252.3970
396.2154, 256.1385
396.6975, 259.9415
397.1796, 264.6214
397.6617, 269.2570
398.1438, 272.2511
398.6259, 272.2249
399.1081, 271.7153
399.5902, 271.6414
400.0723, 272.2893
400.5544, 271.4356
401.0365, 268.5635
401.5186, 264.5499
402.0008, 260.1589
402.4829, 255.5709
402.9650, 250.1768
403.4471, 243.6679
403.9292, 236.2749
404.4113, 229.0861
404.8935, 222.0069
405.3756, 215.2495
405.8577, 209.0557
406.3398, 203.6198
406.8219, 197.6626
407.3040, 191.0009
407.7862, 184.1281
408.2683, 177.3811
408.7504, 170.7347
409.2325, 165.1391
409.7146, 161.3732
410.1967, 158.8319
410.6789, 154.9823
411.1610, 149.7685
411.6431, 144.7163
412.1252, 141.4064
412.6073, 139.3493
413.0894, 137.1764
413.5716, 134.6178
414.0537, 131.9735
414.5358, 129.5090
415.0179, 127.2694
415.5000, 125.3191
415.9821, 124.0471
416.4643, 122.9143
416.9464, 121.2491
417.4285, 118.9677
417.9106, 116.7994
418.3927, 115.3161
418.8748, 114.1729
419.3570, 112.9878
419.8391, 111.6802
420.3212, 110.2453
420.8033, 108.4327
421.2854, 106.3986
421.7675, 104.8287
422.2497, 104.1872
422.7318, 103.8748
423.2139, 103.6248
423.6960, 103.5195
424.1781, 103.2327
424.6602, 102.6590
425.1424, 101.9042
425.6245, 101.1169
426.1066, 100.0923
426.5887, 99.31572
427.0709, 98.99075
427.5530, 99.11630
428.0351, 99.04321
428.5172, 98.77370
428.9993, 98.29749
429.4814, 97.55332
429.9636, 96.43958
430.4457, 95.42233
430.9278, 94.48185
431.4099, 93.71408
431.8920, 93.44390
432.3741, 93.74509
432.8563, 93.94868
433.3384, 93.65935
433.8205, 92.96989
434.3026, 92.54529
434.7847, 92.40519
435.2668, 92.35181
435.7490, 92.09940
436.2311, 91.74622
436.7132, 91.71174
437.1953, 92.33440
437.6774, 93.00166
438.1595, 92.75378
438.6417, 91.77497
439.1238, 90.82694
439.6059, 90.24059
440.0880, 89.98478
440.5701, 90.14983
441.0522, 90.82064
441.5344, 91.37679
442.0165, 91.47087
442.4986, 91.21494
442.9807, 90.74302
443.4628, 89.73069
443.9449, 88.87150
444.4271, 88.35542
444.9092, 88.19440
445.3913, 88.43475
445.8734, 89.66127
446.3555, 90.84773
446.8376, 91.39578
447.3198, 90.57459
447.8019, 90.50426
448.2840, 91.84817
448.7661, 93.69865
449.2482, 94.77467
449.7303, 94.63194
450.2125, 94.44382
450.6946, 94.40862
451.1767, 94.52871
451.6588, 94.82763
452.1409, 95.32437
452.6230, 95.96111
453.1052, 96.71164
453.5873, 97.58934
454.0694, 98.49815
454.5515, 99.43863
455.0337, 100.3868
455.5158, 101.2581
455.9979, 102.0671
456.4800, 102.9163
456.9621, 103.7710
457.4442, 104.7277
457.9264, 106.0916
458.4085, 107.8445
458.8906, 109.6860
459.3727, 111.4282
459.8548, 113.0724
460.3369, 114.5235
460.8191, 115.6349
461.3012, 116.8980
461.7833, 118.8676
462.2654, 121.2811
462.7475, 123.5828
463.2296, 125.2392
463.7118, 126.9873
464.1939, 129.2955
464.6760, 132.2168
465.1581, 135.1847
465.6402, 138.0782
466.1223, 140.8956
466.6045, 143.5960
467.0866, 145.8489
467.5687, 148.3716
468.0508, 151.3378
468.5329, 154.5970
469.0150, 157.8427
469.4972, 160.8013
469.9793, 164.1053
470.4614, 168.0449
470.9435, 172.6692
471.4256, 176.9557
471.9077, 180.8751
472.3899, 184.5209
472.8720, 187.8793
473.3541, 190.9604
473.8362, 194.2246
474.3183, 197.8998
474.8004, 201.5790
475.2826, 204.6537
475.7647, 207.1018
476.2468, 208.6106
476.7289, 208.1842
477.2110, 206.8659
477.6931, 207.1677
478.1753, 209.1015
478.6574, 211.2811
479.1395, 212.2151
479.6216, 212.7610
480.1037, 214.1391
480.5858, 216.5933
481.0680, 220.1047
481.5501, 225.0866
482.0322, 231.1010
482.5143, 237.1973
482.9964, 242.6714
483.4786, 248.4343
483.9607, 254.9788
484.4428, 262.3130
484.9249, 269.9908
485.4070, 277.7707
485.8892, 285.8864
486.3713, 294.5245
486.8534, 303.6303
487.3355, 313.1924
487.8176, 323.2305
488.2997, 333.6914
488.7819, 344.7326
489.2640, 356.5809
489.7461, 368.5844
490.2282, 380.3506
490.7103, 392.0374
491.1924, 404.8153
491.6746, 418.9738
492.1567, 433.3336
492.6388, 446.4501
493.1209, 458.6785
493.6030, 471.6294
494.0851, 485.8411
494.5673, 500.4679
495.0494, 514.0395
495.5315, 526.8904
496.0136, 539.7172
496.4957, 554.1507
496.9778, 568.0557
497.4600, 579.5101
497.9421, 588.5255
498.4242, 595.8846
498.9063, 602.6293
499.3884, 607.6759
499.8705, 610.2141
500.3527, 610.0616
500.8348, 607.3547
501.3169, 602.1115
501.7990, 594.4025
502.2811, 584.2285
502.7632, 571.0366
503.2454, 556.0989
503.7275, 539.0863
504.2096, 520.2425
504.6917, 501.1423
505.1738, 482.5176
505.6559, 462.9825
506.1381, 441.6389
506.6202, 417.6286
507.1023, 395.3083
507.5844, 374.9122
508.0665, 355.8364
508.5486, 337.6279
509.0308, 320.2113
509.5129, 303.8158
509.9950, 288.3711
510.4771, 273.9511
510.9592, 260.5448
511.4413, 248.1839
511.9235, 236.6354
512.4056, 225.8036
512.8877, 215.6993
513.3698, 206.1144
513.8519, 197.0233
514.3340, 188.6672
514.8162, 181.4797
515.2983, 175.0368
515.7804, 168.8249
516.2625, 162.5251
516.7446, 156.6253
517.2267, 151.5360
517.7089, 147.0314
518.1910, 142.6103
518.6731, 138.0156
519.1552, 133.6145
519.6373, 129.6060
520.1194, 125.9833
520.6016, 122.4651
521.0837, 118.8724
521.5658, 115.6249
522.0479, 113.1465
522.5300, 111.7690
523.0121, 109.9838
523.4943, 107.5459
523.9764, 104.8508
524.4585, 102.6022
524.9406, 100.8449
525.4227, 99.15413
525.9048, 97.30633
526.3870, 95.46779
526.8691, 94.05250
527.3513, 93.03786
527.8334, 92.16196
528.3155, 91.19178
528.7976, 90.24549
529.2797, 89.56712
529.7618, 89.24268
530.2440, 88.80314
530.7261, 87.94326
531.2082, 86.76463
531.6903, 85.41444
532.1724, 83.62216
532.6545, 81.98681
533.1367, 80.65112
533.6188, 79.60756
534.1009, 78.77382
534.5830, 78.33128
535.0651, 77.92420
535.5472, 77.43383
536.0294, 76.83444
536.5115, 76.35995
536.9936, 76.25632
537.4757, 75.93554
537.9578, 74.60563
538.4399, 71.90363
538.9221, 70.60081
539.4042, 71.34975
539.8863, 72.94266
540.3684, 73.19092
540.8505, 72.19450
541.3326, 71.13767
541.8148, 70.42201
542.2969, 69.99319
542.7790, 69.90721
543.2611, 70.10661
543.7432, 70.13274
544.2253, 69.32776
544.7075, 68.37649
545.1896, 68.15682
545.6717, 68.97421
546.1538, 69.45267
546.6359, 68.52202
547.1180, 67.06710
547.6002, 66.03947
548.0823, 66.22774
548.5644, 66.20483
549.0465, 65.35275
549.5286, 64.08688
550.0107, 63.65461
550.4929, 64.67125
550.9750, 65.59789
551.4571, 65.93240
551.9392, 65.67130
552.4213, 65.40422
552.9034, 65.15847
553.3856, 64.81789
553.8677, 64.11563
554.3498, 63.11798
554.8319, 62.71288
555.3140, 63.08255
555.7961, 63.70824
556.2783, 63.90308
556.7604, 63.80188
557.2425, 63.79188
557.7246, 64.15620
558.2067, 64.52794
558.6888, 64.53109
559.1710, 64.23595
559.6531, 63.87481
560.1352, 63.47055
560.6173, 63.10870
561.0994, 62.82576
561.5815, 62.61617
562.0637, 62.54847
562.5458, 62.77805
563.0279, 63.06267
563.5100, 63.23083
563.9921, 63.26380
564.4742, 63.19743
564.9564, 62.96665
565.4385, 62.68734
565.9206, 62.59422
566.4027, 62.74556
566.8848, 62.78189
567.3669, 62.56080
567.8491, 62.17205
568.3312, 61.91296
568.8133, 61.78016
569.2954, 61.66207
569.7775, 61.44633
570.2596, 61.20980
570.7418, 61.13317
571.2239, 61.23190
571.7060, 61.30857
572.1881, 60.99928
572.6702, 60.68034
573.1523, 60.84214
573.6345, 62.07722
574.1166, 62.94630
574.5987, 62.58416
575.0808, 61.57125
575.5629, 60.86355
576.0450, 60.71140
576.5272, 60.80157
577.0093, 61.24914
577.4914, 61.95043
577.9735, 62.16538
578.4556, 61.63395
578.9377, 61.15185
579.4199, 61.17942
579.9020, 61.72998
580.3841, 62.02694
580.8662, 62.04618
581.3483, 61.94547
581.8304, 61.80286
582.3126, 61.65990
582.7947, 61.70869
583.2768, 62.05999
583.7589, 62.38036
584.2410, 62.02197
584.7231, 61.39455
585.2053, 61.30946
585.6874, 62.97165
586.1696, 64.46529
586.6517, 64.53819
587.1338, 63.48494
587.6159, 62.65699
588.0980, 62.64812
588.5801, 62.71803
589.0623, 62.49420
589.5444, 61.88316
590.0265, 61.59784
590.5086, 61.84294
590.9907, 62.15297
591.4728, 62.12826
591.9550, 61.69553
592.4371, 61.43125
592.9192, 61.42276
593.4013, 61.49480
593.8834, 61.41333
594.3655, 61.18942
594.8477, 60.85670
595.3298, 60.29649
595.8119, 59.80426
596.2940, 59.91795
596.7761, 60.47281
597.2582, 60.91884
597.7404, 60.87123
598.2225, 60.68175
598.7046, 60.56586
599.1867, 60.53767
599.6688, 60.56196
600.1509, 60.62986
600.6331, 60.74371
601.1152, 60.91023
601.5973, 61.15690
602.0794, 61.39242
602.5615, 61.62820
603.0436, 61.83988
603.5258, 62.06728
604.0079, 62.39287
604.4900, 62.23942
604.9721, 61.37210
605.4542, 60.19605
605.9363, 59.49894
606.4185, 59.25555
606.9006, 59.18591
607.3827, 59.17231
607.8648, 59.25831
608.3469, 59.62009
608.8290, 60.19507
609.3112, 60.61070
609.7933, 60.56641
610.2754, 60.33819
610.7575, 60.06168
611.2396, 59.72499
611.7217, 59.61012
612.2039, 60.12075
612.6860, 60.67902
613.1681, 60.83595
613.6502, 60.31370
614.1323, 59.84130
614.6144, 59.36335
615.0966, 58.99556
615.5787, 58.95614
616.0608, 59.31084
616.5429, 59.58461
617.0250, 59.67785
617.5071, 59.61519
617.9893, 59.43077
618.4714, 59.12932
618.9535, 58.75642
619.4356, 58.08582
619.9177, 57.48800
620.3998, 57.60734
620.8820, 58.36045
621.3641, 58.95803
621.8462, 58.73336
622.3283, 58.34578
622.8104, 58.32791
623.2925, 58.88215
623.7747, 59.24648
624.2568, 59.04245
624.7389, 58.74452
625.2210, 58.78182
625.7031, 59.55650
626.1852, 59.72038
626.6674, 58.95521
627.1495, 57.83290
627.6316, 57.32228
628.1137, 57.44568
628.5958, 57.63842
629.0779, 57.76291
629.5601, 57.83538
630.0422, 57.91490
630.5243, 57.98177
631.0064, 57.94403
631.4885, 57.71675
631.9706, 57.38509
632.4528, 56.98374
632.9349, 56.52989
633.4170, 56.13727
633.8991, 55.49431
634.3812, 55.20347
634.8633, 55.74720
635.3455, 57.55670
635.8276, 58.98228
636.3097, 60.15572
636.7918, 60.77431
637.2739, 60.40442
637.7560, 58.67170
638.2382, 57.47165
638.7203, 57.00636
639.2024, 57.03404
639.6845, 57.33405
640.1666, 57.86299
640.6487, 58.27002
641.1309, 58.47478
641.6130, 58.47397
642.0951, 58.12182
642.5772, 57.54100
643.0594, 57.09349
643.5415, 57.00706
644.0236, 57.05756
644.5057, 57.09151
644.9879, 57.12218
645.4700, 57.30626
645.9521, 58.01480
646.4342, 58.57723
646.9163, 58.63078
647.3984, 58.05105
647.8806, 57.83259
648.3627, 58.07298
648.8448, 58.49047
649.3269, 58.98888
649.8090, 59.56605
650.2911, 59.55650
650.7733, 58.77425
651.2554, 58.01872
651.7375, 58.48610
652.2196, 59.71212
652.7017, 60.51136
653.1838, 60.32126
653.6660, 60.07048
654.1481, 60.63859
654.6302, 61.61556
655.1123, 62.28547
655.5944, 61.97448
656.0765, 61.77447
656.5587, 62.19718
657.0408, 63.05831
657.5229, 63.45829
658.0050, 63.06406
658.4871, 62.75448
658.9692, 62.80474
659.4514, 63.20410
659.9335, 63.90133
660.4156, 64.92535
660.8977, 65.98354
661.3798, 66.92697
661.8619, 67.72629
662.3441, 68.24037
662.8262, 68.45236
663.3083, 68.73469
663.7904, 69.51866
664.2725, 70.46907
664.7546, 71.19349
665.2368, 71.51546
665.7189, 71.88454
