##NAMES=Herbertsmithite
##RRUFFID=R060387
##IDEAL CHEMISTRY=Cu^2+^_3_Zn^2+^(OH)_6_Cl_2_
##LOCALITY=San Francisco mine, Sierra Gorda, Antofagasta, Chile
##OWNER=RRUFF
##SOURCE=Michael Scott
##DESCRIPTION=Greenish-blue thin hexagonal plates associated with hemimorphite, anglesite, and quartz
##STATUS=The identification of this mineral is confirmed by single-crystal X-ray diffraction and chemical analysis.
##URL=rruff.info/R060387
##MEASURED CHEMISTRY=(Cu_2.98_Zn_0.02_)_Î£=3_Zn_1.00_(OH)_6_Cl_2.00_
185.5824, 37.11773
186.0645, 37.14302
186.5466, 37.04297
187.0287, 36.91220
187.5108, 36.81098
187.9930, 36.67678
188.4751, 36.39252
188.9572, 35.88222
189.4393, 35.21730
189.9214, 34.80920
190.4035, 34.73590
190.8857, 34.83199
191.3678, 35.44598
191.8499, 36.18414
192.3320, 36.24678
192.8141, 35.02645
193.2962, 32.81789
193.7784, 31.96916
194.2605, 33.24314
194.7426, 34.69397
195.2247, 35.88380
195.7068, 36.75713
196.1889, 37.21471
196.6711, 37.12921
197.1532, 36.58084
197.6353, 36.09272
198.1174, 35.74681
198.5995, 35.37812
199.0816, 34.71255
199.5638, 33.83582
200.0459, 33.36183
200.5280, 33.84793
201.0101, 34.96510
201.4922, 35.65083
201.9743, 35.60308
202.4565, 35.38723
202.9386, 35.63242
203.4207, 36.36317
203.9028, 36.69933
204.3849, 35.67286
204.8670, 34.11760
205.3492, 33.27447
205.8313, 33.62688
206.3134, 34.42924
206.7955, 34.73891
207.2776, 34.44049
207.7597, 34.18629
208.2419, 34.48082
208.7240, 34.89526
209.2061, 34.96880
209.6882, 34.47729
210.1703, 33.74205
210.6524, 33.30629
211.1346, 33.23650
211.6167, 33.31726
212.0988, 33.57156
212.5809, 33.88543
213.0630, 34.19328
213.5451, 34.48866
214.0273, 34.67887
214.5094, 34.45519
214.9915, 33.27593
215.4736, 32.70388
215.9557, 33.51268
216.4378, 34.76120
216.9200, 35.47629
217.4021, 35.21066
217.8842, 34.33730
218.3663, 33.91655
218.8484, 34.44175
219.3305, 34.72225
219.8127, 34.52089
220.2948, 34.06747
220.7769, 33.56535
221.2590, 33.10680
221.7411, 32.71672
222.2232, 32.46455
222.7054, 32.19474
223.1875, 32.29933
223.6696, 33.36086
224.1517, 34.61188
224.6338, 35.02865
225.1159, 34.15020
225.5980, 32.51883
226.0802, 31.71063
226.5623, 32.72606
227.0444, 33.39958
227.5265, 33.25576
228.0086, 32.77596
228.4907, 32.62916
228.9729, 33.11216
229.4550, 33.93170
229.9371, 34.31934
230.4192, 34.13448
230.9013, 33.77953
231.3834, 32.95220
231.8656, 32.06898
232.3477, 31.93221
232.8298, 32.96019
233.3119, 34.41520
233.7940, 34.53751
234.2761, 32.81942
234.7583, 31.35819
235.2404, 30.76389
235.7225, 30.75222
236.2046, 30.82498
236.6867, 30.81267
237.1688, 30.84844
237.6510, 31.29850
238.1331, 32.28733
238.6152, 32.93576
239.0973, 32.61213
239.5794, 31.75855
240.0615, 31.37245
240.5437, 31.83279
241.0258, 32.59851
241.5079, 32.97432
241.9900, 32.98283
242.4721, 32.86964
242.9542, 32.56886
243.4364, 32.21847
243.9185, 32.23201
244.4006, 32.83782
244.8827, 33.55173
245.3648, 33.96375
245.8469, 34.09441
246.3290, 33.93459
246.8112, 33.25291
247.2933, 32.25709
247.7754, 31.59886
248.2575, 31.49322
248.7396, 31.52277
249.2217, 31.37007
249.7039, 31.07455
250.1860, 30.76320
250.6681, 30.38593
251.1502, 30.02659
251.6323, 30.07973
252.1144, 30.92422
252.5966, 31.57556
253.0787, 31.35564
253.5608, 30.53348
254.0429, 29.69868
254.5250, 29.16161
255.0071, 28.87246
255.4893, 28.62540
255.9714, 28.35968
256.4535, 28.25485
256.9356, 28.49573
257.4177, 28.90694
257.8998, 29.19160
258.3820, 29.13739
258.8641, 28.86200
259.3462, 28.79317
259.8283, 29.06037
260.3104, 29.33096
260.7925, 29.60372
261.2747, 29.78771
261.7568, 29.74451
262.2389, 29.37947
262.7210, 28.79384
263.2031, 28.25382
263.6852, 27.67490
264.1674, 27.31061
264.6495, 27.24488
265.1316, 27.37295
265.6137, 27.60638
266.0958, 27.91106
266.5779, 28.26097
267.0601, 28.63177
267.5422, 29.22720
268.0243, 29.43649
268.5064, 28.99392
268.9885, 28.29285
269.4706, 27.61652
269.9528, 27.07405
270.4349, 26.70419
270.9170, 26.61923
271.3991, 27.04547
271.8812, 27.31425
272.3633, 27.22951
272.8455, 27.09125
273.3276, 27.18143
273.8097, 27.54552
274.2918, 27.95692
274.7739, 28.05575
275.2560, 27.66312
275.7382, 27.32399
276.2202, 27.05273
276.7024, 26.81155
277.1845, 26.50375
277.6666, 26.15599
278.1487, 25.95420
278.6308, 26.17428
279.1129, 27.04042
279.5951, 27.54044
280.0772, 27.51330
280.5593, 27.33420
281.0414, 27.18358
281.5235, 27.07115
282.0056, 26.89081
282.4878, 26.49424
282.9699, 25.78372
283.4520, 25.58711
283.9341, 26.47709
284.4162, 27.24971
284.8983, 27.35193
285.3805, 26.90814
285.8626, 26.33720
286.3447, 25.93838
286.8268, 25.71296
287.3089, 25.67664
287.7910, 26.10469
288.2732, 26.41232
288.7553, 26.28699
289.2374, 25.92582
289.7195, 25.74921
290.2016, 26.03583
290.6837, 26.65828
291.1659, 26.90071
291.6480, 26.46919
292.1301, 26.00282
292.6122, 25.46554
293.0943, 24.98873
293.5764, 24.76355
294.0586, 24.88077
294.5407, 25.24746
295.0228, 25.61387
295.5049, 26.20749
295.9870, 26.50850
296.4691, 26.33375
296.9513, 25.92817
297.4334, 25.46369
297.9155, 25.01144
298.3976, 24.71393
298.8797, 24.85128
299.3618, 25.97806
299.8440, 26.46281
300.3261, 25.68788
300.8082, 24.66909
301.2903, 24.25142
301.7724, 24.57920
302.2545, 25.20796
302.7367, 25.64067
303.2188, 25.83817
303.7009, 25.93138
304.1830, 25.97045
304.6651, 25.87873
305.1472, 25.48660
305.6294, 24.86435
306.1115, 24.32916
306.5936, 24.15542
307.0757, 24.36271
307.5578, 24.65037
308.0399, 25.21909
308.5221, 25.65885
309.0042, 25.66271
309.4863, 25.37579
309.9684, 25.20722
310.4505, 25.44520
310.9326, 26.00337
311.4148, 26.26307
311.8969, 25.97998
312.3790, 25.73235
312.8611, 25.62524
313.3432, 25.64886
313.8253, 25.87910
314.3075, 26.38243
314.7896, 26.89681
315.2717, 26.71326
315.7538, 24.86197
316.2359, 23.71649
316.7180, 23.85024
317.2001, 24.61049
317.6823, 25.44876
318.1644, 26.18486
318.6465, 26.62414
319.1286, 26.42878
319.6107, 25.17011
320.0928, 24.28632
320.5750, 23.81214
321.0571, 23.66936
321.5392, 23.90541
322.0213, 24.47174
322.5034, 25.14730
322.9855, 25.74598
323.4677, 26.29828
323.9498, 26.46316
324.4319, 25.98898
324.9140, 25.42609
325.3961, 24.90846
325.8782, 24.51801
326.3604, 24.42776
326.8425, 24.80485
327.3246, 25.58912
327.8067, 26.09791
328.2888, 26.16126
328.7709, 26.18690
329.2531, 26.37014
329.7352, 26.56649
330.2173, 26.47114
330.6994, 25.92181
331.1815, 25.14554
331.6636, 24.75566
332.1458, 25.27663
332.6279, 25.54812
333.1100, 25.16908
333.5921, 24.70538
334.0742, 24.85116
334.5563, 25.75779
335.0385, 26.84893
335.5206, 27.26501
336.0027, 26.66855
336.4848, 26.21823
336.9669, 25.58945
337.4490, 25.33064
337.9312, 26.11014
338.4133, 27.75474
338.8954, 29.30508
339.3775, 29.82724
339.8596, 29.21347
340.3417, 28.93051
340.8239, 29.32150
341.3060, 29.64088
341.7881, 29.47604
342.2702, 29.04273
342.7523, 28.84204
343.2344, 29.20797
343.7166, 29.98580
344.1987, 30.41847
344.6808, 30.03440
345.1629, 29.82601
345.6450, 29.97864
346.1271, 30.31212
346.6093, 30.59051
347.0914, 30.73176
347.5735, 30.88549
348.0556, 31.39437
348.5377, 32.87770
349.0198, 33.55348
349.5020, 32.67757
349.9841, 31.66281
350.4662, 31.70484
350.9483, 32.77787
351.4304, 33.79252
351.9125, 33.44695
352.3947, 31.41946
352.8768, 30.19262
353.3589, 30.34992
353.8410, 30.71893
354.3231, 31.07388
354.8052, 31.32060
355.2874, 31.35246
355.7695, 31.06727
356.2516, 30.53605
356.7337, 30.16298
357.2158, 30.08815
357.6979, 29.98972
358.1800, 29.91671
358.6621, 29.74736
359.1443, 29.27941
359.6264, 28.43572
360.1085, 27.48315
360.5906, 26.90507
361.0727, 26.81469
361.5548, 26.81692
362.0370, 27.25061
362.5191, 27.47644
363.0012, 26.88471
363.4833, 25.53668
363.9654, 24.18428
364.4475, 23.64932
364.9297, 23.99015
365.4118, 24.16395
365.8939, 24.02542
366.3760, 23.86865
366.8581, 23.80329
367.3402, 23.80890
367.8224, 23.85160
368.3045, 23.96464
368.7866, 24.05849
369.2687, 23.77841
369.7508, 22.81684
370.2329, 22.17689
370.7151, 22.45853
371.1972, 23.07448
371.6793, 23.47217
372.1614, 23.48502
372.6435, 23.30737
373.1256, 23.15936
373.6078, 23.04606
374.0899, 22.89055
374.5720, 22.61304
375.0541, 22.34637
375.5362, 22.15648
376.0183, 22.05221
376.5005, 22.06940
376.9826, 22.29270
377.4647, 22.66506
377.9468, 23.00591
378.4289, 23.36121
378.9110, 23.55356
379.3932, 23.33994
379.8753, 22.89412
380.3574, 22.54038
380.8395, 22.41519
381.3216, 22.39279
381.8037, 22.34843
382.2859, 22.28301
382.7680, 22.13504
383.2501, 21.72973
383.7322, 21.33572
384.2143, 21.44403
384.6964, 22.26449
385.1786, 22.87252
385.6607, 22.37841
386.1428, 21.25663
386.6249, 20.86182
387.1070, 21.65664
387.5891, 22.81993
388.0713, 23.48865
388.5534, 23.70835
389.0355, 23.62506
389.5176, 23.02496
389.9997, 22.28548
390.4818, 21.76339
390.9640, 21.47584
391.4461, 21.29099
391.9282, 21.07236
392.4103, 20.90026
392.8924, 21.12425
393.3745, 22.38335
393.8567, 23.30773
394.3388, 23.07641
394.8209, 22.16231
395.3030, 21.47567
395.7851, 21.35412
396.2672, 21.57013
396.7494, 21.73627
397.2315, 21.84200
397.7136, 21.91491
398.1957, 22.09399
398.6778, 22.14873
399.1599, 21.70963
399.6420, 20.84628
400.1241, 20.15866
400.6063, 20.24186
401.0884, 21.13286
401.5705, 21.52645
402.0526, 21.09258
402.5347, 20.60535
403.0168, 20.11234
403.4990, 19.75995
403.9811, 19.87275
404.4632, 20.61715
404.9453, 21.60650
405.4274, 21.84400
405.9095, 20.50911
406.3917, 19.81014
406.8738, 20.45191
407.3559, 21.22390
407.8380, 21.08223
408.3201, 20.03088
408.8022, 18.99758
409.2844, 19.02386
409.7665, 20.21563
410.2486, 20.74976
410.7307, 19.86872
411.2128, 19.12467
411.6949, 19.03549
412.1771, 19.37188
412.6592, 19.78795
413.1413, 20.15707
413.6234, 20.36497
414.1055, 20.02986
414.5876, 18.82003
415.0698, 18.08009
415.5519, 18.66292
416.0340, 19.47128
416.5161, 19.71455
416.9982, 19.32025
417.4803, 18.85403
417.9625, 18.86883
418.4446, 19.27245
418.9267, 19.41933
419.4088, 19.20549
419.8909, 18.83414
420.3730, 18.26690
420.8552, 17.65610
421.3373, 17.34657
421.8194, 17.56166
422.3015, 18.01375
422.7836, 18.34526
423.2657, 18.55871
423.7479, 18.92705
424.2300, 19.72495
424.7121, 20.57950
425.1942, 20.91102
425.6763, 20.64606
426.1584, 20.26785
426.6406, 19.89776
427.1227, 19.57206
427.6048, 19.39991
428.0869, 19.41130
428.5690, 19.39024
429.0511, 19.07378
429.5333, 18.47417
430.0154, 18.19728
430.4975, 18.41231
430.9796, 18.79320
431.4617, 19.39314
431.9438, 20.02297
432.4260, 20.12347
432.9081, 19.35923
433.3902, 18.19791
433.8723, 17.76305
434.3544, 18.66058
434.8365, 19.30695
435.3187, 19.46169
435.8008, 19.47271
436.2829, 19.71583
436.7650, 20.17239
437.2471, 20.44856
437.7292, 20.14161
438.2114, 19.23134
438.6935, 18.49389
439.1756, 17.72140
439.6577, 17.36190
440.1398, 17.90933
440.6219, 18.81008
441.1040, 19.32785
441.5862, 19.15210
442.0683, 18.54848
442.5504, 17.90287
443.0325, 17.03640
443.5146, 16.67956
443.9967, 17.33721
444.4789, 18.15225
444.9610, 18.82685
445.4431, 19.28286
445.9252, 19.42657
446.4073, 18.96473
446.8894, 18.16492
447.3716, 18.17884
447.8537, 19.39294
448.3358, 20.45485
448.8179, 20.63152
449.3000, 20.40508
449.7821, 20.25469
450.2643, 20.28402
450.7464, 20.36543
451.2285, 20.46120
451.7106, 20.53779
452.1927, 20.35316
452.6748, 19.70858
453.1570, 19.10693
453.6391, 19.21609
454.1212, 19.87216
454.6033, 20.34134
455.0854, 20.40462
455.5675, 20.24625
456.0497, 19.93003
456.5318, 19.50238
457.0139, 19.17397
457.4960, 19.03557
457.9781, 19.08673
458.4602, 19.38206
458.9424, 20.15610
459.4245, 20.65110
459.9066, 20.57733
460.3887, 20.24775
460.8708, 19.93720
461.3529, 19.70513
461.8351, 19.52971
462.3172, 19.38539
462.7993, 19.27097
463.2814, 19.25786
463.7635, 19.33403
464.2456, 19.51632
464.7278, 19.92233
465.2099, 20.40167
465.6920, 20.77406
466.1741, 20.96854
466.6562, 20.99410
467.1383, 20.80260
467.6205, 20.22213
468.1026, 19.95947
468.5847, 20.34904
469.0668, 20.78386
469.5489, 20.99454
470.0310, 21.02085
470.5132, 21.02339
470.9953, 21.08400
471.4774, 21.20274
471.9595, 21.40118
472.4416, 21.71240
472.9237, 21.98133
473.4059, 22.20242
473.8880, 22.31922
474.3701, 22.25537
474.8522, 21.99888
475.3343, 21.67161
475.8164, 21.18966
476.2986, 20.71148
476.7807, 20.72673
477.2628, 21.38031
477.7449, 22.03339
478.2270, 22.16373
478.7091, 21.88431
479.1913, 21.71494
479.6734, 21.60483
480.1555, 21.69401
480.6376, 22.28259
481.1197, 23.09960
481.6018, 23.50876
482.0839, 23.28269
482.5660, 22.85553
483.0482, 22.85660
483.5303, 23.48342
484.0124, 23.81765
484.4945, 23.65872
484.9766, 23.41479
485.4587, 23.17701
485.9409, 23.03533
486.4230, 23.19150
486.9051, 23.78226
487.3872, 24.59803
487.8693, 25.04541
488.3514, 25.13023
488.8336, 24.80109
489.3157, 23.28547
489.7978, 22.02361
490.2799, 22.26839
490.7620, 23.83289
491.2441, 25.43685
491.7263, 26.11095
492.2084, 25.96995
492.6905, 25.48618
493.1726, 24.47587
493.6547, 23.56876
494.1368, 22.85183
494.6190, 22.45849
495.1011, 22.75130
495.5832, 23.90464
496.0653, 24.84881
496.5474, 24.55972
497.0295, 23.40890
497.5117, 22.48005
497.9938, 21.91733
498.4759, 21.64768
498.9580, 21.80642
499.4401, 22.25488
499.9222, 22.26586
500.4044, 21.29880
500.8865, 20.39749
501.3686, 20.18293
501.8507, 20.40994
502.3328, 20.57735
502.8149, 20.51528
503.2971, 20.33778
503.7792, 20.17241
504.2613, 19.93091
504.7434, 20.06568
505.2255, 21.32696
505.7076, 22.18700
506.1898, 21.57553
506.6719, 20.03954
507.1540, 18.71184
507.6361, 18.18070
508.1182, 18.23759
508.6003, 18.46081
509.0825, 18.97623
509.5646, 19.31995
510.0467, 19.35451
510.5288, 19.28507
511.0109, 19.28337
511.4930, 19.28970
511.9752, 19.04692
512.4573, 18.19089
512.9394, 17.10738
513.4215, 16.77760
513.9036, 17.32481
514.3857, 17.83550
514.8679, 17.90769
515.3500, 17.81015
515.8321, 17.93890
516.3142, 18.34145
516.7963, 18.59977
517.2784, 18.42865
517.7606, 18.05730
518.2427, 17.81210
518.7248, 17.71725
519.2069, 17.57353
519.6890, 17.15736
520.1711, 16.61702
520.6533, 16.73227
521.1354, 18.38092
521.6175, 19.41551
522.0996, 19.13323
522.5817, 18.27445
523.0638, 17.42473
523.5460, 16.76400
524.0281, 16.37910
524.5102, 16.38396
524.9923, 16.76727
525.4744, 17.17039
525.9565, 17.64528
526.4387, 18.06472
526.9208, 18.40823
527.4029, 18.68623
527.8850, 18.90380
528.3671, 19.06376
528.8492, 19.17969
529.3314, 19.29869
529.8135, 19.40571
530.2956, 19.33615
530.7777, 19.03525
531.2598, 18.65189
531.7419, 18.17252
532.2241, 17.69536
532.7062, 17.39592
533.1883, 17.36204
533.6704, 17.39875
534.1525, 17.36163
534.6346, 17.29623
535.1168, 17.37269
535.5989, 17.65173
536.0810, 17.81043
536.5631, 17.41351
537.0452, 16.42476
537.5273, 16.07865
538.0095, 16.93067
538.4916, 17.74239
538.9737, 18.06366
539.4558, 18.05614
539.9379, 17.94718
540.4200, 17.82341
540.9022, 17.71417
541.3843, 17.67497
541.8664, 17.73350
542.3485, 17.69828
542.8306, 17.12753
543.3127, 16.96233
543.7948, 18.00227
544.2769, 19.48901
544.7590, 20.23200
545.2411, 19.75393
545.7233, 18.75855
546.2054, 17.99520
546.6875, 17.46151
547.1696, 17.18781
547.6517, 17.24509
548.1339, 17.43595
548.6160, 17.68796
549.0981, 17.95263
549.5802, 18.06891
550.0623, 17.77439
550.5444, 17.57004
551.0266, 18.06708
551.5087, 18.87448
551.9908, 18.93389
552.4729, 17.89537
552.9550, 16.66684
553.4371, 16.41837
553.9193, 17.37212
554.4014, 17.97368
554.8835, 17.87620
555.3656, 17.86335
555.8477, 18.47171
556.3298, 19.26437
556.8120, 19.48681
557.2941, 18.88652
557.7762, 18.03505
558.2583, 17.83134
558.7404, 18.40215
559.2225, 18.53537
559.7047, 17.76932
560.1868, 17.12792
560.6689, 17.23351
561.1510, 17.73366
561.6331, 18.01568
562.1152, 17.84296
562.5974, 17.55999
563.0795, 17.47897
563.5616, 17.55200
564.0437, 17.64596
564.5258, 17.76828
565.0079, 17.73960
565.4901, 17.29991
565.9722, 16.48490
566.4543, 16.00919
566.9364, 16.09381
567.4185, 16.26093
567.9006, 16.27668
568.3828, 16.28444
568.8649, 16.55429
569.3470, 17.12815
569.8291, 17.73810
570.3112, 18.07120
570.7933, 18.11709
571.2755, 18.09410
571.7576, 18.03443
572.2397, 17.85458
572.7218, 17.44862
573.2039, 16.95940
573.6860, 16.49259
574.1682, 16.07986
574.6503, 15.85118
575.1324, 16.05089
575.6145, 16.56248
576.0966, 16.83733
576.5787, 16.78558
577.0609, 16.72308
577.5430, 16.88882
578.0251, 17.15923
578.5072, 17.22726
578.9893, 16.98276
579.4714, 16.77098
579.9536, 16.72253
580.4357, 16.77935
580.9178, 16.89687
581.3999, 17.05592
581.8820, 17.19071
582.3641, 17.22995
582.8463, 17.22079
583.3284, 17.45383
583.8105, 18.41919
584.2926, 18.90198
584.7747, 18.58237
585.2568, 17.95060
585.7390, 17.21031
586.2211, 16.48842
586.7032, 16.02755
587.1853, 16.04097
587.6674, 16.40920
588.1495, 16.91715
588.6317, 17.64532
589.1138, 17.99968
589.5959, 17.65951
590.0780, 16.97071
590.5601, 16.16738
591.0422, 15.25237
591.5244, 14.92937
592.0065, 16.11308
592.4886, 17.43341
592.9707, 17.42142
593.4528, 16.41740
593.9349, 15.78388
594.4171, 16.15372
594.8992, 16.92034
595.3813, 16.95366
595.8634, 15.70872
596.3455, 15.36835
596.8276, 16.75877
597.3098, 18.05381
597.7919, 18.45114
598.2740, 18.23830
598.7561, 17.95427
599.2382, 17.81357
599.7203, 17.74306
600.2025, 17.60779
600.6846, 17.41370
601.1667, 17.43152
601.6488, 17.79337
602.1309, 18.15919
602.6130, 18.42032
603.0952, 18.50096
603.5773, 18.15774
604.0594, 17.08926
604.5415, 16.10719
605.0236, 15.51193
605.5057, 15.30622
605.9879, 15.68914
606.4700, 16.61476
606.9521, 17.43587
607.4342, 17.59983
607.9163, 17.18879
608.3984, 16.81934
608.8806, 16.42351
609.3627, 16.17535
609.8448, 16.09669
610.3269, 16.15975
610.8090, 16.44339
611.2911, 16.87512
611.7733, 17.18633
612.2554, 17.14297
612.7375, 16.89668
613.2196, 16.76719
613.7017, 16.74979
614.1838, 16.92342
614.6660, 17.43747
615.1481, 18.00251
615.6302, 18.38308
616.1123, 18.58398
616.5944, 18.33501
617.0765, 16.83354
617.5587, 15.57200
618.0408, 15.92584
618.5229, 17.24675
619.0050, 18.00143
619.4871, 17.66252
619.9692, 16.98830
620.4514, 17.03971
620.9335, 17.96098
621.4156, 18.50341
621.8977, 18.15244
622.3798, 18.02929
622.8619, 18.85099
623.3441, 19.83459
623.8262, 19.96690
624.3083, 19.02731
624.7904, 17.89208
625.2725, 17.21279
625.7546, 16.91846
626.2367, 16.87812
626.7188, 17.10538
627.2009, 17.38045
627.6830, 17.68072
628.1652, 17.88631
628.6473, 17.62495
629.1294, 16.66775
629.6115, 16.06132
630.0936, 16.22368
630.5757, 16.55773
631.0579, 16.49715
631.5400, 16.23802
632.0221, 16.46726
632.5042, 17.54964
632.9863, 18.91721
633.4684, 19.47552
633.9506, 19.07568
634.4327, 18.58676
634.9148, 17.81494
635.3969, 17.27098
635.8790, 17.32556
636.3611, 17.72257
636.8433, 18.03183
637.3254, 18.14741
637.8075, 18.15517
638.2896, 18.01416
638.7717, 17.83627
639.2538, 17.94271
639.7360, 18.35814
640.2181, 18.54446
640.7002, 18.03057
641.1823, 17.06947
641.6644, 16.69241
642.1465, 17.58480
642.6287, 18.13235
643.1108, 18.07202
643.5929, 17.87328
644.0750, 17.81012
644.5571, 17.88661
645.0392, 18.01604
645.5214, 18.16377
646.0035, 18.29427
646.4856, 18.35201
646.9677, 18.33703
647.4498, 18.21677
647.9319, 17.87808
648.4141, 17.66172
648.8962, 18.07341
649.3783, 18.86876
649.8604, 19.08843
650.3425, 18.03686
650.8246, 17.24584
651.3068, 17.65508
651.7889, 18.47965
652.2710, 18.66943
652.7531, 18.15992
653.2352, 17.68026
653.7173, 17.83170
654.1995, 18.41521
654.6816, 18.57445
655.1637, 18.12296
655.6458, 17.69175
656.1279, 17.20239
656.6100, 16.91553
657.0922, 17.14005
657.5743, 17.72408
658.0564, 18.13589
658.5385, 18.03869
659.0206, 17.87839
659.5027, 18.08257
659.9849, 18.56521
660.4670, 19.18350
660.9491, 19.91560
661.4312, 20.39539
661.9133, 20.21735
662.3954, 19.44646
662.8776, 19.01686
663.3597, 19.36054
663.8418, 19.48136
664.3239, 18.92251
664.8060, 18.37659
665.2881, 18.48498
665.7703, 19.17999
666.2524, 19.93447
666.7345, 20.47909
667.2166, 20.79967
667.6987, 20.74222
668.1808, 20.32403
668.6630, 20.29926
669.1451, 21.07819
669.6272, 21.72343
670.1093, 21.08249
670.5914, 19.30506
671.0735, 18.36382
671.5557, 18.81194
672.0378, 19.45802
672.5199, 20.13288
673.0020, 20.68665
673.4841, 20.85696
673.9662, 20.69333
674.4484, 20.59958
674.9305, 20.91799
675.4126, 21.49290
675.8947, 21.80667
676.3768, 21.82114
676.8589, 21.72964
677.3411, 21.43855
677.8232, 21.20168
678.3053, 21.19668
678.7874, 21.40360
679.2695, 21.76571
679.7516, 22.38673
