##NAMES=Herbertsmithite
##RRUFFID=R070099
##IDEAL CHEMISTRY=Cu^2+^_3_Zn^2+^(OH)_6_Cl_2_
##LOCALITY=San Francisco mine, Sierra Gorda, Antofagasta, Chile
##OWNER=RRUFF
##SOURCE=Michael Scott
##DESCRIPTION=Blue-green crystals scattered on matrix, showing a range of habits from hexagonal plates to pseudo-octahedra
##STATUS=The identification of this mineral has been confirmed by single-crystal X-ray diffraction.
##URL=rruff.info/R070099
129.4512, 3718.218
129.9333, 3801.716
130.4154, 3894.531
130.8976, 3995.334
131.3797, 4113.139
131.8618, 4242.593
132.3439, 4350.843
132.8260, 4435.700
133.3081, 4507.807
133.7903, 4583.878
134.2724, 4664.234
134.7545, 4744.533
135.2366, 4822.481
135.7187, 4898.500
136.2008, 4970.700
136.6830, 5038.378
137.1651, 5101.692
137.6472, 5159.422
138.1293, 5207.856
138.6114, 5261.314
139.0935, 5332.454
139.5757, 5424.469
140.0578, 5519.088
140.5399, 5610.142
141.0220, 5698.350
141.5041, 5803.999
141.9862, 5927.333
142.4684, 6066.850
142.9505, 6220.479
143.4326, 6397.453
143.9147, 6573.983
144.3968, 6745.605
144.8789, 6906.102
145.3611, 7077.615
145.8432, 7276.479
146.3253, 7479.604
146.8074, 7646.180
147.2895, 7807.048
147.7716, 7900.541
148.2537, 7907.786
148.7359, 7828.928
149.2180, 7664.000
149.7001, 7369.441
150.1822, 6977.542
150.6643, 6604.194
151.1464, 6225.164
151.6286, 5877.624
152.1107, 5578.247
152.5928, 5341.922
153.0749, 5138.612
153.5570, 4970.340
154.0391, 4836.522
154.5213, 4720.608
155.0034, 4621.280
155.4855, 4539.656
155.9676, 4476.867
156.4497, 4444.826
156.9318, 4420.004
157.4140, 4396.841
157.8961, 4375.181
158.3782, 4353.426
158.8603, 4327.394
159.3424, 4302.100
159.8245, 4283.313
160.3067, 4274.190
160.7888, 4271.289
161.2709, 4274.800
161.7530, 4287.564
162.2351, 4297.256
162.7172, 4295.399
163.1993, 4286.788
163.6815, 4281.075
164.1636, 4288.826
164.6457, 4297.462
165.1278, 4296.470
165.6099, 4277.498
166.0920, 4259.316
166.5742, 4251.571
167.0563, 4253.403
167.5384, 4261.553
168.0205, 4284.396
168.5026, 4309.236
168.9847, 4321.069
169.4669, 4306.149
169.9490, 4286.191
170.4311, 4278.969
170.9132, 4283.526
171.3953, 4289.074
171.8774, 4283.856
172.3596, 4275.058
172.8417, 4274.010
173.3238, 4300.540
173.8059, 4329.620
174.2880, 4325.206
174.7701, 4284.655
175.2523, 4247.331
175.7344, 4261.534
176.2165, 4308.450
176.6986, 4340.617
177.1807, 4317.625
177.6628, 4270.107
178.1450, 4247.277
178.6271, 4255.810
179.1092, 4274.817
179.5913, 4283.964
180.0734, 4283.959
180.5555, 4278.423
181.0376, 4263.161
181.5198, 4244.073
182.0019, 4236.214
182.4840, 4244.958
182.9661, 4258.841
183.4482, 4260.054
183.9303, 4249.286
184.4125, 4235.391
184.8946, 4223.221
185.3767, 4212.773
185.8588, 4203.717
186.3409, 4195.817
186.8230, 4189.420
187.3052, 4185.089
187.7873, 4182.791
188.2694, 4183.449
188.7515, 4189.371
189.2336, 4200.005
189.7157, 4210.171
190.1979, 4221.238
190.6800, 4230.460
191.1621, 4224.609
191.6442, 4201.491
192.1263, 4176.025
192.6084, 4163.727
193.0906, 4164.525
193.5727, 4172.929
194.0548, 4193.943
194.5369, 4223.686
195.0190, 4230.765
195.5011, 4211.090
195.9832, 4180.592
196.4654, 4158.478
196.9475, 4144.727
197.4296, 4139.633
197.9117, 4149.045
198.3938, 4173.018
198.8759, 4181.173
199.3581, 4168.406
199.8402, 4147.464
200.3223, 4142.367
200.8044, 4155.831
201.2865, 4171.104
201.7686, 4179.777
202.2508, 4181.102
202.7329, 4183.450
203.2150, 4187.953
203.6971, 4192.977
204.1792, 4194.555
204.6613, 4192.278
205.1435, 4187.919
205.6256, 4181.990
206.1077, 4174.188
206.5898, 4166.488
207.0719, 4157.779
207.5540, 4149.674
208.0362, 4148.478
208.5183, 4155.403
209.0004, 4166.418
209.4825, 4181.334
209.9646, 4203.208
210.4467, 4214.697
210.9289, 4209.587
211.4110, 4191.302
211.8931, 4182.886
212.3752, 4185.846
212.8573, 4196.096
213.3394, 4212.821
213.8215, 4241.200
214.3037, 4260.556
214.7858, 4264.577
215.2679, 4254.241
215.7500, 4248.869
216.2321, 4248.492
216.7142, 4253.091
217.1964, 4263.911
217.6785, 4284.225
218.1606, 4302.400
218.6427, 4315.173
219.1248, 4322.053
219.6069, 4331.919
220.0891, 4346.279
220.5712, 4362.095
221.0533, 4376.618
221.5354, 4391.421
222.0175, 4401.114
222.4996, 4401.485
222.9818, 4389.674
223.4639, 4389.295
223.9460, 4406.366
224.4281, 4430.033
224.9102, 4443.598
225.3923, 4439.247
225.8745, 4438.986
226.3566, 4451.124
226.8387, 4480.184
227.3208, 4504.744
227.8029, 4525.405
228.2850, 4541.272
228.7672, 4549.103
229.2493, 4542.850
229.7314, 4538.535
230.2135, 4543.266
230.6956, 4562.727
231.1777, 4575.058
231.6599, 4578.935
232.1420, 4576.214
232.6241, 4571.565
233.1062, 4568.655
233.5883, 4558.335
234.0704, 4535.713
234.5526, 4495.898
235.0347, 4455.241
235.5168, 4411.825
235.9989, 4368.124
236.4810, 4331.704
236.9631, 4311.729
237.4453, 4286.613
237.9274, 4244.846
238.4095, 4178.752
238.8916, 4113.384
239.3737, 4044.435
239.8558, 3976.501
240.3380, 3926.678
240.8201, 3906.044
241.3022, 3888.644
241.7843, 3860.561
242.2664, 3816.114
242.7485, 3772.452
243.2307, 3729.347
243.7128, 3687.414
244.1949, 3649.010
244.6770, 3612.580
245.1591, 3581.720
245.6412, 3559.926
246.1233, 3554.200
246.6055, 3542.457
247.0876, 3520.276
247.5697, 3489.837
248.0518, 3465.638
248.5339, 3451.328
249.0160, 3438.151
249.4982, 3418.792
249.9803, 3385.024
250.4624, 3363.684
250.9445, 3363.404
251.4266, 3379.866
251.9087, 3382.558
252.3909, 3364.702
252.8730, 3341.946
253.3551, 3325.727
253.8372, 3318.069
254.3193, 3312.128
254.8014, 3308.057
255.2836, 3305.433
255.7657, 3299.917
256.2478, 3289.544
256.7299, 3278.976
257.2120, 3271.823
257.6941, 3269.197
258.1762, 3267.346
258.6584, 3266.188
259.1405, 3265.554
259.6226, 3262.884
260.1047, 3255.821
260.5868, 3250.207
261.0689, 3253.653
261.5511, 3273.913
262.0332, 3280.111
262.5153, 3260.496
262.9974, 3219.206
263.4795, 3197.821
263.9616, 3204.042
264.4438, 3217.750
264.9259, 3221.466
265.4080, 3212.143
265.8901, 3202.719
266.3722, 3195.458
266.8543, 3190.184
267.3365, 3184.794
267.8186, 3178.758
268.3007, 3173.647
268.7828, 3171.676
269.2649, 3174.054
269.7470, 3174.179
270.2292, 3168.635
270.7113, 3158.827
271.1934, 3160.668
271.6755, 3179.023
272.1576, 3197.647
272.6397, 3199.182
273.1219, 3179.758
273.6040, 3164.618
274.0861, 3161.499
274.5682, 3167.747
275.0503, 3160.907
275.5324, 3136.038
276.0146, 3112.306
276.4967, 3111.873
276.9788, 3138.230
277.4609, 3157.309
277.9430, 3161.516
278.4251, 3152.254
278.9073, 3134.097
279.3894, 3104.592
279.8715, 3076.182
280.3536, 3062.730
280.8357, 3064.780
281.3178, 3064.738
281.8000, 3056.524
282.2821, 3043.578
282.7642, 3040.629
283.2463, 3048.722
283.7284, 3061.113
284.2105, 3072.631
284.6927, 3083.263
285.1748, 3093.075
285.6569, 3103.523
286.1390, 3112.597
286.6211, 3112.001
287.1032, 3100.765
287.5853, 3088.054
288.0674, 3082.821
288.5496, 3084.054
289.0317, 3083.662
289.5138, 3079.160
289.9959, 3072.175
290.4780, 3064.354
290.9601, 3055.436
291.4423, 3052.206
291.9244, 3064.559
292.4065, 3088.719
292.8886, 3109.233
293.3707, 3122.927
293.8528, 3130.425
294.3350, 3129.891
294.8171, 3121.563
295.2992, 3115.777
295.7813, 3124.889
296.2634, 3143.333
296.7455, 3155.341
297.2277, 3156.512
297.7098, 3150.598
298.1919, 3139.647
298.6740, 3124.505
299.1561, 3113.767
299.6382, 3119.065
300.1204, 3132.672
300.6025, 3137.829
301.0846, 3124.627
301.5667, 3110.876
302.0488, 3123.043
302.5309, 3156.537
303.0131, 3185.925
303.4952, 3190.650
303.9773, 3181.793
304.4594, 3173.765
304.9415, 3167.080
305.4236, 3166.434
305.9058, 3185.286
306.3879, 3216.941
306.8700, 3236.023
307.3521, 3210.510
307.8342, 3171.843
308.3163, 3155.491
308.7985, 3176.340
309.2806, 3202.803
309.7627, 3213.541
310.2448, 3212.167
310.7269, 3208.113
311.2090, 3199.011
311.6912, 3193.392
312.1733, 3199.531
312.6554, 3222.673
313.1375, 3247.942
313.6196, 3273.592
314.1017, 3295.919
314.5839, 3307.150
315.0660, 3293.785
315.5481, 3275.372
316.0302, 3263.652
316.5123, 3261.625
316.9944, 3261.828
317.4766, 3256.132
317.9587, 3251.395
318.4408, 3259.427
318.9229, 3297.773
319.4050, 3338.401
319.8871, 3370.853
320.3692, 3394.698
320.8513, 3407.866
321.3335, 3397.332
321.8156, 3378.925
322.2977, 3374.300
322.7798, 3405.973
323.2619, 3434.958
323.7440, 3445.894
324.2262, 3431.892
324.7083, 3428.981
325.1904, 3449.841
325.6725, 3480.024
326.1546, 3503.530
326.6367, 3519.798
327.1189, 3528.957
327.6010, 3526.059
328.0831, 3507.992
328.5652, 3504.525
329.0473, 3522.382
329.5294, 3550.723
330.0116, 3580.085
330.4937, 3610.980
330.9758, 3641.902
331.4579, 3673.473
331.9400, 3705.739
332.4221, 3732.372
332.9043, 3749.280
333.3864, 3764.745
333.8685, 3783.861
334.3506, 3802.250
334.8327, 3834.940
335.3148, 3889.617
335.7970, 3960.856
336.2791, 4020.192
336.7612, 4060.646
337.2433, 4103.273
337.7254, 4167.133
338.2076, 4257.740
338.6897, 4338.056
339.1718, 4401.117
339.6539, 4452.494
340.1360, 4509.721
340.6181, 4570.601
341.1003, 4645.302
341.5824, 4742.268
342.0645, 4862.415
342.5466, 4985.363
343.0287, 5110.350
343.5108, 5238.262
343.9930, 5367.303
344.4751, 5497.336
344.9572, 5643.513
345.4393, 5817.992
345.9214, 6016.457
346.4035, 6228.489
346.8857, 6453.523
347.3678, 6687.910
347.8499, 6928.624
348.3320, 7175.122
348.8141, 7423.458
349.2962, 7657.744
349.7784, 7897.122
350.2605, 8190.136
350.7426, 8541.945
351.2247, 8911.075
351.7068, 9253.915
352.1889, 9582.964
352.6710, 9925.428
353.1531, 10300.19
353.6353, 10693.72
354.1174, 11094.81
354.5995, 11503.29
355.0816, 11918.58
355.5637, 12336.79
356.0458, 12760.03
356.5280, 13182.74
357.0101, 13615.52
357.4922, 14036.58
357.9743, 14443.63
358.4564, 14832.36
358.9385, 15176.67
359.4207, 15459.43
359.9028, 15690.50
360.3849, 15877.80
360.8670, 16038.56
361.3491, 16135.59
361.8312, 16171.25
362.3134, 16135.74
362.7955, 15997.30
363.2776, 15715.85
363.7597, 15351.01
364.2418, 14928.96
364.7239, 14442.61
365.2061, 13917.08
365.6882, 13351.92
366.1703, 12753.10
366.6524, 12136.87
367.1345, 11467.25
367.6166, 10814.81
368.0988, 10191.49
368.5809, 9587.093
369.0630, 9038.836
369.5451, 8557.826
370.0272, 8123.988
370.5093, 7708.946
370.9915, 7303.547
371.4736, 6936.827
371.9557, 6623.326
372.4378, 6362.458
372.9199, 6119.804
373.4020, 5891.677
373.8842, 5683.238
374.3663, 5504.248
374.8484, 5359.095
375.3305, 5223.474
375.8126, 5095.777
376.2947, 4974.826
376.7769, 4863.718
377.2590, 4761.382
377.7411, 4669.391
378.2232, 4587.013
378.7053, 4513.954
379.1874, 4454.398
379.6696, 4409.372
380.1517, 4377.497
380.6338, 4357.619
381.1159, 4349.801
381.5980, 4347.456
382.0801, 4346.289
382.5623, 4347.382
383.0444, 4353.150
383.5265, 4362.784
384.0086, 4381.067
384.4907, 4415.934
384.9728, 4465.121
385.4549, 4519.741
385.9370, 4578.574
386.4192, 4639.254
386.9013, 4695.477
387.3834, 4745.954
387.8655, 4802.084
388.3476, 4872.374
388.8297, 4953.514
389.3119, 5040.158
389.7940, 5131.492
390.2761, 5227.809
390.7582, 5332.568
391.2403, 5444.520
391.7224, 5553.858
392.2046, 5651.391
392.6867, 5746.612
393.1688, 5847.533
393.6509, 5961.192
394.1330, 6073.457
394.6151, 6183.449
395.0973, 6290.112
395.5794, 6389.469
396.0615, 6482.216
396.5436, 6567.222
397.0257, 6645.766
397.5078, 6726.331
397.9900, 6782.625
398.4721, 6802.514
398.9542, 6799.651
399.4363, 6795.499
399.9184, 6809.672
400.4005, 6797.749
400.8827, 6744.493
401.3648, 6645.295
401.8469, 6543.646
402.3290, 6442.341
402.8111, 6335.520
403.2932, 6215.939
403.7754, 6081.813
404.2575, 5942.938
404.7396, 5799.710
405.2217, 5653.909
405.7038, 5517.499
406.1859, 5390.861
406.6681, 5272.166
407.1502, 5162.500
407.6323, 5063.284
408.1144, 4959.254
408.5965, 4847.757
409.0786, 4732.064
409.5608, 4616.420
410.0429, 4501.020
410.5250, 4394.652
411.0071, 4305.051
411.4892, 4227.934
411.9713, 4152.849
412.4535, 4078.745
412.9356, 4005.695
413.4177, 3928.837
413.8998, 3851.890
414.3819, 3784.570
414.8640, 3736.963
415.3462, 3696.247
415.8283, 3648.954
416.3104, 3595.351
416.7925, 3542.718
417.2746, 3489.276
417.7567, 3441.323
418.2388, 3404.958
418.7209, 3391.366
419.2031, 3377.516
419.6852, 3351.463
420.1673, 3317.171
420.6494, 3287.339
421.1315, 3276.776
421.6136, 3262.598
422.0958, 3229.884
422.5779, 3161.268
423.0600, 3112.938
423.5421, 3109.980
424.0242, 3125.813
424.5063, 3121.337
424.9885, 3076.896
425.4706, 3035.613
425.9527, 3007.638
426.4348, 2993.608
426.9169, 2977.191
427.3990, 2953.576
427.8812, 2933.623
428.3633, 2928.472
428.8454, 2944.446
429.3275, 2952.604
429.8096, 2947.221
430.2917, 2932.267
430.7739, 2920.797
431.2560, 2913.324
431.7381, 2906.223
432.2202, 2897.923
432.7023, 2888.315
433.1844, 2876.534
433.6666, 2862.477
434.1487, 2846.013
434.6308, 2822.304
435.1129, 2793.990
435.5950, 2774.842
436.0771, 2780.740
436.5593, 2795.562
437.0414, 2789.999
437.5235, 2764.607
438.0056, 2740.307
438.4877, 2734.597
438.9698, 2739.591
439.4520, 2744.710
439.9341, 2748.645
440.4162, 2749.666
440.8983, 2740.968
441.3804, 2727.324
441.8625, 2723.629
442.3447, 2749.659
442.8268, 2777.977
443.3089, 2790.861
443.7910, 2780.326
444.2731, 2772.386
444.7552, 2773.846
445.2374, 2780.828
445.7195, 2788.098
446.2016, 2798.860
446.6837, 2805.844
447.1658, 2805.025
447.6479, 2796.286
448.1301, 2794.547
448.6122, 2801.232
449.0943, 2813.417
449.5764, 2829.841
450.0585, 2852.885
450.5406, 2873.050
451.0227, 2887.483
451.5049, 2899.725
451.9870, 2919.768
452.4691, 2948.666
452.9512, 2978.720
453.4333, 3007.516
453.9154, 3034.780
454.3976, 3054.029
454.8797, 3063.415
455.3618, 3072.375
455.8439, 3091.944
456.3260, 3120.623
456.8081, 3151.284
457.2903, 3180.934
457.7724, 3212.106
458.2545, 3249.554
458.7366, 3292.706
459.2187, 3338.450
459.7008, 3384.972
460.1830, 3432.951
460.6651, 3483.015
461.1472, 3536.195
461.6293, 3588.713
462.1114, 3640.355
462.5935, 3689.172
463.0757, 3731.672
463.5578, 3753.928
464.0399, 3780.882
464.5220, 3831.139
465.0041, 3909.222
465.4862, 3963.847
465.9684, 3967.422
466.4505, 3956.356
466.9326, 3959.391
467.4147, 3983.812
467.8968, 4012.485
468.3789, 4047.394
468.8611, 4085.587
469.3432, 4115.565
469.8253, 4131.139
470.3074, 4150.760
470.7895, 4185.592
471.2716, 4237.808
471.7538, 4280.300
472.2359, 4309.369
472.7180, 4337.393
473.2001, 4383.546
473.6822, 4447.021
474.1643, 4504.638
474.6465, 4547.741
475.1286, 4582.045
475.6107, 4620.532
476.0928, 4662.809
476.5749, 4701.977
477.0570, 4721.210
477.5392, 4737.185
478.0213, 4779.756
478.5034, 4859.007
478.9855, 4947.776
479.4676, 5019.854
479.9497, 5087.042
480.4319, 5170.979
480.9140, 5291.153
481.3961, 5421.729
481.8782, 5550.418
482.3603, 5676.742
482.8424, 5808.388
483.3246, 5943.274
483.8066, 6086.217
484.2888, 6238.615
484.7709, 6390.306
485.2530, 6566.255
485.7351, 6777.910
486.2172, 7012.085
486.6993, 7243.061
487.1815, 7458.489
487.6636, 7687.911
488.1457, 7940.928
488.6278, 8220.229
489.1099, 8499.547
489.5920, 8772.731
490.0742, 9054.567
490.5563, 9361.144
491.0384, 9691.248
491.5205, 10018.71
492.0026, 10334.68
492.4847, 10645.54
492.9669, 10954.57
493.4490, 11264.61
493.9311, 11575.78
494.4132, 11908.51
494.8953, 12239.72
495.3774, 12526.84
495.8596, 12762.56
496.3417, 12989.43
496.8238, 13262.68
497.3059, 13540.86
497.7880, 13760.97
498.2701, 13881.92
498.7523, 13960.64
499.2344, 14033.44
499.7165, 14091.24
500.1986, 14091.88
500.6807, 14015.89
501.1628, 13885.62
501.6450, 13711.17
502.1271, 13487.55
502.6092, 13227.07
503.0913, 12935.50
503.5734, 12609.52
504.0555, 12237.42
504.5377, 11798.42
505.0198, 11359.99
505.5019, 10934.73
505.9840, 10518.61
506.4661, 10110.06
506.9482, 9713.886
507.4304, 9321.166
507.9125, 8921.720
508.3946, 8515.279
508.8767, 8137.378
509.3588, 7791.432
509.8409, 7470.625
510.3231, 7167.406
510.8052, 6883.686
511.2873, 6616.333
511.7694, 6368.668
512.2515, 6134.072
512.7336, 5903.299
513.2158, 5677.719
513.6979, 5466.133
514.1800, 5272.156
514.6621, 5095.729
515.1442, 4935.471
515.6263, 4793.315
516.1085, 4661.779
516.5906, 4547.446
517.0727, 4439.891
517.5548, 4324.333
518.0369, 4181.563
518.5190, 4048.929
519.0012, 3931.825
519.4833, 3830.915
519.9654, 3742.191
520.4475, 3673.196
520.9296, 3605.554
521.4117, 3525.520
521.8939, 3426.615
522.3760, 3346.320
522.8581, 3290.070
523.3402, 3245.343
523.8223, 3192.294
524.3044, 3131.848
524.7866, 3077.845
525.2687, 3037.647
525.7508, 3005.656
526.2329, 2968.183
526.7150, 2925.990
527.1971, 2886.211
527.6793, 2855.636
528.1614, 2829.297
528.6435, 2800.933
529.1256, 2768.805
529.6077, 2736.743
530.0898, 2708.369
530.5720, 2681.538
531.0541, 2653.265
531.5362, 2620.685
532.0183, 2588.210
532.5004, 2553.863
532.9825, 2518.956
533.4646, 2493.766
533.9467, 2490.242
534.4288, 2486.710
534.9109, 2472.357
535.3931, 2438.967
535.8752, 2418.807
536.3573, 2417.638
536.8394, 2422.842
537.3215, 2416.378
537.8036, 2396.364
538.2858, 2377.980
538.7679, 2366.192
539.2500, 2357.988
539.7321, 2344.004
540.2142, 2324.656
540.6964, 2307.862
541.1785, 2302.534
541.6606, 2302.679
542.1427, 2297.487
542.6248, 2285.810
543.1069, 2270.249
543.5891, 2246.908
544.0712, 2222.690
544.5533, 2206.985
545.0354, 2210.041
545.5175, 2214.796
545.9996, 2214.497
546.4818, 2210.256
546.9639, 2205.872
547.4460, 2202.290
547.9281, 2198.588
548.4102, 2194.644
548.8923, 2190.827
549.3745, 2184.923
549.8566, 2175.211
550.3387, 2165.280
550.8208, 2158.812
551.3029, 2156.852
551.7850, 2153.295
552.2672, 2146.515
552.7493, 2138.600
553.2314, 2134.421
553.7135, 2133.914
554.1956, 2134.416
554.6777, 2135.554
555.1599, 2136.540
555.6420, 2134.199
556.1241, 2128.647
556.6062, 2125.841
557.0883, 2135.777
557.5704, 2149.005
558.0526, 2152.623
558.5347, 2138.604
559.0168, 2126.264
559.4989, 2129.299
559.9810, 2139.385
560.4631, 2142.298
560.9453, 2120.158
561.4274, 2104.961
561.9095, 2112.316
562.3916, 2140.086
562.8737, 2152.084
563.3558, 2137.861
563.8380, 2121.668
564.3201, 2118.842
564.8022, 2134.091
565.2843, 2138.518
565.7664, 2128.484
566.2485, 2114.188
566.7307, 2108.719
567.2128, 2111.593
567.6949, 2118.815
568.1770, 2132.766
568.6591, 2146.424
569.1412, 2146.204
569.6234, 2134.127
570.1055, 2120.031
570.5876, 2106.665
571.0697, 2095.822
571.5518, 2088.596
572.0339, 2085.090
572.5161, 2086.323
572.9982, 2095.139
573.4803, 2107.672
573.9624, 2120.749
574.4445, 2134.261
574.9266, 2147.660
575.4088, 2166.618
575.8909, 2184.329
576.3730, 2184.693
576.8551, 2156.101
577.3372, 2132.579
577.8193, 2125.547
578.3015, 2133.351
578.7836, 2137.553
579.2657, 2137.391
579.7478, 2137.739
580.2299, 2145.315
580.7120, 2157.288
581.1942, 2159.937
581.6763, 2150.479
582.1584, 2138.150
582.6405, 2133.196
583.1226, 2132.607
583.6047, 2130.447
584.0869, 2121.741
584.5690, 2113.448
585.0511, 2110.337
585.5332, 2111.418
586.0153, 2113.027
586.4974, 2114.385
586.9796, 2115.671
587.4617, 2116.657
587.9438, 2116.925
588.4259, 2119.080
588.9080, 2125.038
589.3901, 2130.960
589.8723, 2133.740
590.3544, 2132.715
590.8365, 2130.994
591.3186, 2128.420
591.8007, 2125.917
592.2828, 2125.658
592.7650, 2127.500
593.2471, 2128.960
593.7292, 2131.565
594.2113, 2131.563
594.6934, 2116.368
595.1755, 2089.021
595.6577, 2070.629
596.1398, 2087.602
596.6219, 2112.658
597.1040, 2119.181
597.5861, 2100.994
598.0682, 2080.048
598.5503, 2057.629
599.0324, 2040.111
599.5145, 2033.732
599.9966, 2054.662
600.4788, 2067.379
600.9609, 2064.912
601.4430, 2054.037
601.9251, 2051.312
602.4072, 2058.625
602.8893, 2069.114
603.3715, 2083.937
603.8536, 2100.525
604.3357, 2098.709
604.8178, 2077.290
605.2999, 2054.523
605.7820, 2042.918
606.2642, 2040.589
606.7463, 2045.847
607.2284, 2060.002
607.7105, 2072.417
608.1926, 2074.134
608.6747, 2068.700
609.1569, 2060.990
609.6390, 2047.873
610.1211, 2037.975
610.6032, 2038.615
611.0853, 2045.173
611.5674, 2044.387
612.0496, 2024.600
612.5317, 2008.128
613.0138, 2000.134
613.4959, 2000.520
613.9780, 2011.662
614.4601, 2039.979
614.9423, 2063.374
615.4244, 2061.274
615.9065, 2035.177
616.3886, 2020.766
616.8707, 2022.145
617.3528, 2028.237
617.8350, 2026.232
618.3171, 2018.734
618.7992, 2012.115
619.2813, 2008.662
619.7634, 2006.402
620.2455, 2004.186
620.7277, 2001.982
621.2098, 1999.651
621.6919, 1997.741
622.1740, 1995.136
622.6561, 1988.960
623.1382, 1978.723
623.6204, 1978.332
624.1025, 2000.605
624.5846, 2018.974
625.0667, 2015.780
