##NAMES=Heterosite
##RRUFFID=R050165
##IDEAL CHEMISTRY=Fe^3+^PO_4_
##LOCALITY=White Elephant mine, Custer County, South Dakota, USA
##OWNER=RRUFF
##SOURCE=Marcus Origlieri
##DESCRIPTION=Purple massive
##STATUS=The identification of this mineral is confirmed by single-crystal X-ray diffraction and chemical analysis.
##URL=rruff.info/R050165
##MEASURED CHEMISTRY=(Fe^3+^_0.68_Mn^3+^_0.32_)P_1.00_O_4_
93.26398, 0.0000000E+00
93.74609, 2.869078
94.22821, 2.735214
94.71033, 2.810573
95.19244, 3.056116
95.67456, 3.331235
96.15668, 3.587702
96.63879, 3.832577
97.12091, 4.080530
97.60303, 4.324851
98.08514, 4.603597
98.56726, 4.970490
99.04938, 5.428010
99.53149, 5.932003
100.0136, 6.455202
100.4957, 6.994581
100.9778, 7.587720
101.4600, 8.229945
101.9421, 8.927565
102.4242, 9.681717
102.9063, 10.50497
103.3884, 11.36579
103.8705, 12.24919
104.3527, 13.19267
104.8348, 14.07635
105.3169, 14.90551
105.7990, 15.67274
106.2811, 16.38296
106.7632, 17.04003
107.2454, 17.62932
107.7275, 18.12514
108.2096, 18.46494
108.6917, 18.80562
109.1738, 19.13348
109.6559, 19.43365
110.1381, 19.88886
110.6202, 20.56916
111.1023, 21.38116
111.5844, 22.23365
112.0665, 23.13874
112.5486, 24.08188
113.0308, 25.05040
113.5129, 26.03472
113.9950, 27.11501
114.4771, 28.37939
114.9592, 29.72694
115.4413, 31.03057
115.9235, 32.25160
116.4056, 33.42220
116.8877, 34.53636
117.3698, 35.60324
117.8519, 36.64005
118.3340, 37.67685
118.8162, 38.69160
119.2983, 39.62770
119.7804, 40.48265
120.2625, 41.25158
120.7446, 41.92019
121.2267, 42.46268
121.7089, 42.94685
122.1910, 43.39954
122.6731, 43.82383
123.1552, 44.23423
123.6373, 44.64165
124.1194, 45.03807
124.6016, 45.41422
125.0837, 45.66724
125.5658, 45.96578
126.0479, 46.53037
126.5300, 47.35125
127.0121, 48.20830
127.4943, 48.90508
127.9764, 49.49323
128.4585, 50.11300
128.9406, 50.74313
129.4227, 51.45130
129.9048, 52.41551
130.3869, 53.66162
130.8691, 54.95764
131.3512, 56.01168
131.8333, 56.67451
132.3154, 57.06446
132.7975, 57.53250
133.2796, 58.11925
133.7618, 58.66241
134.2439, 59.17216
134.7260, 59.62444
135.2081, 59.89515
135.6902, 59.97712
136.1723, 60.19468
136.6545, 60.79754
137.1366, 61.78145
137.6187, 62.61432
138.1008, 63.22570
138.5829, 63.72620
139.0650, 64.44469
139.5472, 65.46893
140.0293, 66.39332
140.5114, 66.89252
140.9935, 66.81959
141.4756, 67.02951
141.9577, 67.65190
142.4399, 68.60918
142.9220, 69.53189
143.4041, 70.41607
143.8862, 71.28254
144.3683, 72.15547
144.8504, 73.01789
145.3326, 73.90856
145.8147, 74.79190
146.2968, 75.68554
146.7789, 76.71493
147.2610, 77.96058
147.7431, 79.27985
148.2253, 80.57380
148.7074, 81.81239
149.1895, 83.06425
149.6716, 84.35091
150.1537, 85.69229
150.6358, 86.90925
151.1180, 87.83967
151.6001, 88.71188
152.0822, 89.74938
152.5643, 91.25335
153.0464, 92.61958
153.5285, 93.68021
154.0107, 94.33078
154.4928, 95.03793
154.9749, 95.86333
155.4570, 96.75154
155.9391, 97.63291
156.4212, 98.44557
156.9034, 99.30754
157.3855, 100.2655
157.8676, 101.3297
158.3497, 102.4429
158.8318, 103.5950
159.3139, 104.7988
159.7961, 106.0821
160.2782, 107.3612
160.7603, 108.7920
161.2424, 110.4598
161.7245, 112.4274
162.2066, 114.5186
162.6888, 116.7264
163.1709, 119.0178
163.6530, 121.3196
164.1351, 123.6517
164.6172, 125.9529
165.0993, 128.1834
165.5815, 130.3427
166.0636, 132.4172
166.5457, 134.6730
167.0278, 136.9136
167.5099, 138.5323
167.9920, 139.2642
168.4742, 139.2232
168.9563, 138.5109
169.4384, 137.1548
169.9205, 135.1268
170.4026, 132.3552
170.8847, 128.8801
171.3669, 124.8901
171.8490, 120.1989
172.3311, 115.1580
172.8132, 110.1666
173.2953, 105.2108
173.7774, 100.4613
174.2596, 95.97969
174.7417, 91.76897
175.2238, 88.00707
175.7059, 85.05813
176.1880, 82.63442
176.6701, 80.29417
177.1523, 77.77129
177.6344, 75.34077
178.1165, 73.35654
178.5986, 71.78963
179.0807, 70.45326
179.5628, 69.17094
180.0450, 67.97955
180.5271, 66.99010
181.0092, 66.29057
181.4913, 65.77734
181.9734, 65.32705
182.4555, 64.94157
182.9377, 64.53371
183.4198, 63.95356
183.9019, 63.25795
184.3840, 62.66216
184.8661, 62.25423
185.3482, 61.99758
185.8304, 61.80987
186.3125, 61.69490
186.7946, 61.62631
187.2767, 61.59848
187.7588, 61.60279
188.2409, 61.58850
188.7231, 61.53649
189.2052, 61.45116
189.6873, 61.32790
190.1694, 61.15480
190.6515, 61.00108
191.1336, 60.98877
191.6158, 61.10649
192.0979, 61.18366
192.5800, 61.13490
193.0621, 60.97741
193.5442, 60.83576
194.0263, 60.72417
194.5085, 60.57903
194.9906, 60.28257
195.4727, 59.83424
195.9548, 59.38996
196.4369, 59.03509
196.9190, 58.76192
197.4012, 58.44749
197.8833, 58.08607
198.3654, 57.69439
198.8475, 57.27781
199.3296, 56.82256
199.8117, 56.46112
200.2939, 56.27605
200.7760, 56.26964
201.2581, 56.26989
201.7402, 56.27213
202.2223, 56.28711
202.7044, 56.32958
203.1866, 56.39740
203.6687, 56.50401
204.1508, 56.67661
204.6329, 56.92632
205.1150, 57.11048
205.5971, 57.19628
206.0793, 57.25590
206.5614, 57.45047
207.0435, 57.81615
207.5256, 58.16933
208.0077, 58.39033
208.4898, 58.43441
208.9720, 58.63816
209.4541, 59.03729
209.9362, 59.56635
210.4183, 60.09801
210.9004, 60.62732
211.3825, 61.15972
211.8647, 61.68660
212.3468, 62.18795
212.8289, 62.78333
213.3110, 63.51420
213.7931, 64.31300
214.2752, 64.99783
214.7574, 65.51859
215.2395, 66.06015
215.7216, 66.71340
216.2037, 67.49048
216.6858, 68.31097
217.1679, 69.17406
217.6500, 70.08515
218.1322, 71.04630
218.6143, 72.08183
219.0964, 73.13919
219.5785, 74.17161
220.0606, 75.17739
220.5427, 76.21561
221.0249, 77.31969
221.5070, 78.43587
221.9891, 79.37606
222.4712, 80.02180
222.9533, 80.73122
223.4354, 81.66484
223.9176, 82.93858
224.3997, 84.14230
224.8818, 85.28391
225.3639, 86.35690
225.8460, 87.37465
226.3281, 88.31892
226.8103, 89.22897
227.2924, 90.10780
227.7745, 90.99191
228.2566, 91.78685
228.7387, 92.48895
229.2208, 93.10691
229.7030, 93.62962
230.1851, 94.00733
230.6672, 94.38286
231.1493, 94.83917
231.6314, 95.47464
232.1135, 95.93225
232.5957, 96.21867
233.0778, 96.32671
233.5599, 96.22783
234.0420, 95.88752
234.5241, 95.39662
235.0062, 94.77842
235.4884, 94.01297
235.9705, 93.19914
236.4526, 92.34637
236.9347, 91.43216
237.4168, 90.39674
237.8989, 89.19844
238.3811, 87.94598
238.8632, 86.69474
239.3453, 85.46895
239.8274, 84.14605
240.3095, 82.64671
240.7916, 81.08325
241.2738, 79.67329
241.7559, 78.49103
242.2380, 77.34579
242.7201, 76.17728
243.2022, 74.95940
243.6843, 73.79097
244.1665, 72.62721
244.6486, 71.53173
245.1307, 70.64302
245.6128, 70.12614
246.0949, 69.53655
246.5770, 68.68240
247.0592, 67.43435
247.5413, 66.43935
248.0234, 65.78051
248.5055, 65.32338
248.9876, 64.89156
249.4697, 64.52573
249.9519, 64.10291
250.4340, 63.56580
250.9161, 62.87860
251.3982, 62.25851
251.8803, 61.70193
252.3624, 61.22088
252.8446, 60.85855
253.3267, 60.68467
253.8088, 60.48730
254.2909, 60.20130
254.7730, 59.81153
255.2551, 59.43697
255.7373, 59.05007
256.2194, 58.70601
256.7015, 58.49044
257.1836, 58.45942
257.6657, 58.42939
258.1478, 58.36867
258.6299, 58.27969
259.1121, 58.10618
259.5942, 57.80042
260.0763, 57.46272
260.5584, 57.19642
261.0405, 57.03254
261.5226, 56.86312
262.0048, 56.63918
262.4869, 56.36599
262.9690, 56.23623
263.4511, 56.31641
263.9332, 56.44602
264.4153, 56.46324
264.8975, 56.31930
265.3796, 56.21875
265.8617, 56.22024
266.3438, 56.30978
266.8259, 56.31992
267.3080, 56.21655
267.7902, 56.09764
268.2723, 56.05364
268.7544, 56.10457
269.2365, 56.14906
269.7186, 56.16009
270.2007, 56.15165
270.6829, 56.19001
271.1650, 56.25943
271.6471, 56.41216
272.1292, 56.71999
272.6113, 57.22326
273.0934, 57.64370
273.5756, 57.91078
274.0577, 58.07893
274.5398, 58.35398
275.0219, 58.75662
275.5040, 59.19224
275.9861, 59.60254
276.4683, 59.98397
276.9504, 60.36266
277.4325, 60.73993
277.9146, 61.11606
278.3967, 61.48764
278.8788, 61.84973
279.3610, 62.22868
279.8431, 62.65968
280.3252, 63.14428
280.8073, 63.53515
281.2894, 63.76667
281.7715, 63.99401
282.2537, 64.57267
282.7358, 65.53956
283.2179, 66.49800
283.7000, 67.22487
284.1821, 67.73521
284.6642, 68.29976
285.1464, 68.93268
285.6285, 69.60862
286.1106, 70.30321
286.5927, 71.01540
287.0748, 71.70736
287.5569, 72.32420
288.0391, 72.89123
288.5212, 73.56963
289.0033, 74.37151
289.4854, 75.24085
289.9675, 76.13992
290.4496, 77.06634
290.9318, 77.94496
291.4139, 78.78015
291.8960, 79.55491
292.3781, 80.18166
292.8602, 80.66015
293.3423, 81.05475
293.8245, 81.44292
294.3066, 81.81264
294.7887, 82.10959
295.2708, 82.32755
295.7529, 82.45289
296.2350, 82.44170
296.7172, 82.29366
297.1993, 82.05998
297.6814, 81.80473
298.1635, 81.49718
298.6456, 81.04610
299.1277, 80.38126
299.6099, 79.61214
300.0920, 78.94684
300.5741, 78.35904
301.0562, 77.72210
301.5383, 76.87421
302.0204, 75.91736
302.5026, 75.06104
302.9847, 74.35606
303.4668, 73.72094
303.9489, 73.04878
304.4310, 72.36292
304.9131, 71.70056
305.3953, 71.10235
305.8774, 70.53913
306.3595, 69.95411
306.8416, 69.30901
307.3237, 68.76247
307.8058, 68.55963
308.2880, 68.57186
308.7701, 68.51143
309.2522, 68.15331
309.7343, 67.70434
310.2164, 67.36240
310.6985, 67.15022
311.1807, 66.95528
311.6628, 66.68330
312.1449, 66.38099
312.6270, 66.12724
313.1091, 65.94993
313.5912, 65.83315
314.0734, 65.78197
314.5555, 65.79659
315.0376, 65.82135
315.5197, 65.78406
316.0018, 65.75855
316.4839, 65.82202
316.9661, 66.13255
317.4482, 66.41127
317.9303, 66.52564
318.4124, 66.49291
318.8945, 66.43282
319.3766, 66.31513
319.8588, 66.22813
320.3409, 66.23992
320.8230, 66.43793
321.3051, 66.63771
321.7872, 66.86095
322.2693, 67.06036
322.7515, 67.09171
323.2336, 66.65356
323.7157, 66.24065
324.1978, 66.11823
324.6799, 66.52064
325.1620, 66.81519
325.6442, 66.93234
326.1263, 66.88786
326.6084, 66.70940
327.0905, 66.18671
327.5726, 65.72622
328.0547, 65.49428
328.5369, 65.62598
329.0190, 65.56446
329.5011, 65.19520
329.9832, 64.68001
330.4653, 64.19975
330.9474, 63.78432
331.4296, 63.36801
331.9117, 62.93697
332.3938, 62.49277
332.8759, 62.05266
333.3580, 61.60970
333.8401, 61.17272
334.3223, 60.75161
334.8044, 60.33564
335.2865, 59.95783
335.7686, 59.67801
336.2507, 59.44864
336.7328, 58.99464
337.2150, 58.17925
337.6971, 57.37505
338.1792, 56.81292
338.6613, 56.56234
339.1434, 56.29988
339.6255, 56.02045
340.1077, 55.70856
340.5898, 55.29545
341.0719, 54.75834
341.5540, 54.24584
342.0361, 53.84836
342.5182, 53.56958
343.0003, 53.26035
343.4825, 52.91242
343.9646, 52.56239
344.4467, 52.27681
344.9288, 52.06029
345.4109, 51.83565
345.8930, 51.57826
346.3752, 51.29243
346.8573, 51.00717
347.3394, 50.72094
347.8215, 50.42546
348.3036, 50.07235
348.7857, 49.68699
349.2679, 49.40409
349.7500, 49.29723
350.2321, 49.26847
350.7142, 49.14357
351.1963, 48.93014
351.6784, 48.69605
352.1606, 48.48405
352.6427, 48.28991
353.1248, 48.10597
353.6069, 47.93539
354.0890, 47.75852
354.5711, 47.54530
355.0533, 47.30781
355.5354, 47.07513
356.0175, 46.82492
356.4996, 46.61111
356.9817, 46.51687
357.4638, 46.56321
357.9460, 46.59384
358.4281, 46.49119
358.9102, 46.30370
359.3923, 46.10318
359.8744, 45.84990
360.3565, 45.64547
360.8387, 45.58327
361.3208, 45.65260
361.8029, 45.71413
362.2850, 45.69478
362.7671, 45.64467
363.2492, 45.60700
363.7314, 45.64474
364.2135, 45.63278
364.6956, 45.45614
365.1777, 45.18555
365.6598, 45.04317
366.1419, 45.24418
366.6241, 45.46273
367.1062, 45.52270
367.5883, 45.29076
368.0704, 45.16272
368.5525, 45.27569
369.0346, 45.49549
369.5168, 45.61576
369.9989, 45.50115
370.4810, 45.41771
370.9631, 45.44085
371.4452, 45.59110
371.9273, 45.68232
372.4095, 45.68273
372.8916, 45.64931
373.3737, 45.62669
373.8558, 45.60518
374.3379, 45.61464
374.8200, 45.66650
375.3022, 45.75412
375.7843, 45.85320
376.2664, 46.00357
376.7485, 46.08473
377.2306, 45.97675
377.7127, 45.62154
378.1949, 45.44737
378.6770, 45.51202
379.1591, 45.72231
379.6412, 45.93401
380.1233, 46.15766
380.6054, 46.30595
381.0876, 46.30449
381.5697, 46.18158
382.0518, 46.12982
382.5339, 46.15569
383.0160, 46.21791
383.4981, 46.29496
383.9803, 46.37755
384.4624, 46.40677
384.9445, 46.33116
385.4266, 46.22382
385.9087, 46.22032
386.3908, 46.31336
386.8730, 46.43045
387.3551, 46.50423
387.8372, 46.57062
388.3193, 46.71185
388.8014, 46.97260
389.2835, 47.21564
389.7657, 47.29827
390.2478, 47.26447
390.7299, 47.21413
391.2120, 47.16335
391.6941, 47.13934
392.1762, 47.16711
392.6584, 47.24931
393.1405, 47.36549
393.6226, 47.53026
394.1047, 47.71416
394.5868, 47.88358
395.0689, 48.06856
395.5511, 48.19793
396.0332, 48.16454
396.5153, 48.01882
396.9974, 48.03008
397.4795, 48.51139
397.9616, 48.99200
398.4438, 49.20062
398.9259, 48.89639
399.4080, 48.69508
399.8901, 48.68195
400.3722, 48.80210
400.8543, 48.95192
401.3365, 49.15552
401.8186, 49.36170
402.3007, 49.56597
402.7828, 49.77291
403.2649, 49.93795
403.7470, 50.05377
404.2292, 50.13546
404.7113, 50.19263
405.1934, 50.21966
405.6755, 50.23717
406.1576, 50.24342
406.6397, 50.24279
407.1219, 50.23936
407.6040, 50.21922
408.0861, 50.24802
408.5682, 50.39468
409.0503, 50.65355
409.5324, 50.85505
410.0146, 50.99341
410.4967, 51.06866
410.9788, 51.04834
411.4609, 50.94431
411.9430, 50.86994
412.4251, 50.88848
412.9073, 50.95928
413.3894, 50.99895
413.8715, 51.00793
414.3536, 50.99206
414.8357, 50.92428
415.3178, 50.83997
415.8000, 50.81790
416.2821, 50.91140
416.7642, 51.00108
417.2463, 50.91042
417.7284, 50.71658
418.2105, 50.62716
418.6927, 50.89886
419.1748, 51.21374
419.6569, 51.31837
420.1390, 51.17095
420.6211, 50.97847
421.1032, 50.73473
421.5854, 50.53551
422.0675, 50.48291
422.5496, 50.80708
423.0317, 51.07039
423.5138, 51.11711
423.9959, 50.97742
424.4781, 50.85707
424.9602, 50.77661
425.4423, 50.73376
425.9244, 50.73539
426.4065, 50.84329
426.8886, 50.87263
427.3708, 50.74345
427.8529, 50.56864
428.3350, 50.53727
428.8171, 50.75564
429.2992, 50.91967
429.7813, 50.92960
430.2635, 50.79173
430.7456, 50.72998
431.2277, 50.77691
431.7098, 50.83007
432.1919, 50.81067
432.6740, 50.71675
433.1562, 50.56599
433.6383, 50.33651
434.1204, 50.08699
434.6025, 49.96043
435.0846, 49.95344
435.5667, 49.92242
436.0489, 49.76447
436.5310, 49.52303
437.0131, 49.33223
437.4952, 49.19480
437.9773, 49.09118
438.4594, 49.03467
438.9415, 48.99675
439.4236, 48.91330
439.9058, 48.73877
440.3879, 48.54440
440.8700, 48.38737
441.3521, 48.26501
441.8342, 48.16692
442.3163, 48.14808
442.7985, 48.11298
443.2806, 47.96364
443.7627, 47.65539
444.2448, 47.38325
444.7269, 47.26348
445.2090, 47.21349
445.6912, 47.13645
446.1733, 46.94326
446.6554, 46.78628
447.1375, 46.73417
447.6196, 46.77452
448.1017, 46.76656
448.5839, 46.70309
449.0660, 46.58646
449.5481, 46.40993
450.0302, 46.10999
450.5123, 45.88159
450.9944, 45.74954
451.4766, 45.67528
451.9587, 45.60724
452.4408, 45.56150
452.9229, 45.47034
453.4050, 45.26986
453.8871, 44.99342
454.3693, 44.93381
454.8514, 45.13129
455.3335, 45.37244
455.8156, 45.48147
456.2977, 45.47086
456.7798, 45.47472
457.2620, 45.52265
457.7441, 45.55791
458.2262, 45.43280
458.7083, 45.19621
459.1904, 45.06729
459.6725, 45.25736
460.1547, 45.57424
460.6368, 45.74221
461.1189, 45.76335
461.6010, 45.76342
462.0831, 45.86644
462.5652, 45.98523
463.0474, 46.00026
463.5295, 45.77929
464.0116, 45.63260
464.4937, 45.78572
464.9758, 46.12882
465.4579, 46.43234
465.9401, 46.62491
466.4222, 46.76400
466.9043, 46.85925
467.3864, 46.90558
467.8685, 46.95869
468.3506, 47.01498
468.8328, 47.08636
469.3149, 47.18264
469.7970, 47.32631
470.2791, 47.45059
470.7612, 47.50685
471.2433, 47.55070
471.7255, 47.76335
472.2076, 48.23801
472.6897, 48.64398
473.1718, 48.82858
473.6539, 48.79049
474.1360, 48.82746
474.6182, 48.94894
475.1003, 49.11220
475.5824, 49.28256
476.0645, 49.46038
476.5466, 49.64307
477.0287, 49.84431
477.5109, 50.02987
477.9930, 50.12917
478.4751, 50.15678
478.9572, 50.18114
479.4393, 50.27608
479.9214, 50.37299
480.4036, 50.36922
480.8857, 50.25778
481.3678, 50.13366
481.8499, 50.04691
482.3320, 49.98693
482.8141, 49.94471
483.2963, 49.94193
483.7784, 49.92253
484.2605, 49.87856
484.7426, 49.80243
485.2247, 49.67466
485.7068, 49.49411
486.1890, 49.26048
486.6711, 48.95995
487.1532, 48.57399
487.6353, 48.20982
488.1174, 47.88613
488.5995, 47.57752
489.0817, 47.26778
489.5638, 46.96768
490.0459, 46.64232
490.5280, 46.26316
491.0101, 45.87262
491.4922, 45.59883
491.9744, 45.47393
492.4565, 45.28709
492.9386, 44.90217
493.4207, 44.35682
493.9028, 43.92796
494.3849, 43.61977
494.8671, 43.35032
495.3492, 43.05390
495.8313, 42.73275
496.3134, 42.37712
496.7955, 41.96088
497.2776, 41.56913
497.7598, 41.31219
498.2419, 41.15777
498.7240, 41.03157
499.2061, 40.97506
499.6882, 40.87322
500.1703, 40.60277
500.6525, 40.16465
501.1346, 39.76980
501.6167, 39.50579
502.0988, 39.31105
502.5809, 39.14281
503.0630, 39.01491
503.5452, 38.87648
504.0273, 38.70326
504.5094, 38.51905
504.9915, 38.37132
505.4736, 38.28772
505.9557, 38.19845
506.4379, 38.08352
506.9200, 37.94475
507.4021, 37.82830
507.8842, 37.75270
508.3663, 37.65147
508.8484, 37.45134
509.3306, 37.14876
509.8127, 36.91938
510.2948, 36.78241
510.7769, 36.70041
511.2590, 36.62896
511.7411, 36.56869
512.2233, 36.52918
512.7054, 36.55172
513.1875, 36.56515
513.6696, 36.41714
514.1517, 36.14146
514.6339, 35.92396
515.1160, 35.96150
515.5981, 36.06804
516.0802, 36.05389
516.5623, 35.86979
517.0444, 35.69873
517.5266, 35.66291
518.0087, 35.67004
518.4908, 35.61943
518.9729, 35.37144
519.4550, 35.19345
519.9371, 35.18029
520.4193, 35.29295
520.9014, 35.35902
521.3835, 35.36097
521.8656, 35.34021
522.3477, 35.31325
522.8298, 35.28324
523.3120, 35.21735
523.7941, 35.10603
524.2762, 34.98125
524.7583, 34.84904
525.2404, 34.70544
525.7225, 34.67942
526.2047, 34.82257
526.6868, 35.02881
527.1689, 35.10752
527.6510, 35.07333
528.1331, 35.02356
528.6152, 34.99358
529.0974, 34.98091
529.5795, 35.00553
530.0616, 35.06048
530.5437, 35.06747
531.0258, 34.93489
531.5079, 34.75162
531.9901, 34.59283
532.4722, 34.46516
532.9543, 34.38398
533.4364, 34.37527
533.9185, 34.40994
534.4006, 34.44826
534.8828, 34.52869
535.3649, 34.56031
535.8470, 34.48661
536.3291, 34.33482
536.8112, 34.26841
537.2933, 34.34330
537.7755, 34.41512
538.2576, 34.40269
538.7397, 34.28574
539.2218, 34.25771
539.7039, 34.34104
540.1860, 34.45141
540.6682, 34.47113
541.1503, 34.41359
541.6324, 34.44771
542.1145, 34.64324
542.5966, 34.87717
543.0787, 34.92213
543.5609, 34.82898
544.0430, 34.78658
544.5251, 34.94110
545.0072, 35.16214
545.4893, 35.31400
545.9714, 35.39910
546.4536, 35.49449
546.9357, 35.71400
547.4178, 35.91410
547.8999, 35.86214
548.3820, 36.12839
548.8641, 36.33752
549.3463, 36.49268
549.8284, 36.43195
550.3105, 36.64993
550.7926, 36.75623
551.2747, 36.85795
551.7568, 37.11516
552.2390, 37.08587
552.7211, 37.34063
553.2032, 37.48197
553.6853, 37.67523
554.1674, 37.71403
554.6495, 37.78268
555.1317, 37.98814
555.6138, 38.34263
556.0959, 38.71431
556.5780, 38.97513
557.0601, 39.15289
557.5422, 39.31411
558.0244, 39.46020
558.5065, 39.62757
558.9886, 39.82773
559.4707, 40.07726
559.9528, 40.40400
560.4349, 40.91602
560.9171, 41.42362
561.3992, 41.78543
561.8813, 42.03041
562.3634, 42.35835
562.8455, 42.89791
563.3276, 43.47165
563.8098, 43.83146
564.2919, 44.21516
564.7740, 44.54180
565.2561, 44.81441
565.7382, 44.87118
566.2203, 45.20663
566.7025, 45.43048
567.1846, 45.64965
567.6667, 46.02437
568.1488, 46.11252
568.6309, 46.48477
569.1130, 46.74358
569.5952, 47.05439
570.0773, 47.25271
570.5594, 47.48578
571.0415, 47.65418
571.5236, 47.73465
572.0057, 47.79487
572.4879, 47.85348
572.9700, 47.93505
573.4521, 48.07738
573.9342, 48.30040
574.4163, 48.50943
574.8984, 48.63062
575.3806, 48.72948
575.8627, 48.87413
576.3448, 49.13036
576.8269, 49.36717
577.3090, 49.60883
577.7911, 49.81633
578.2733, 49.88769
578.7554, 49.73442
579.2375, 49.62108
579.7196, 49.65249
580.2017, 49.80376
580.6838, 49.82710
581.1660, 49.70321
581.6481, 49.56994
582.1302, 49.55598
582.6123, 49.62302
583.0944, 49.60096
583.5765, 49.47173
584.0587, 49.31565
584.5408, 49.20740
585.0229, 49.13045
585.5050, 49.05320
585.9871, 48.94507
586.4692, 48.86874
586.9513, 48.90131
587.4334, 48.99023
587.9155, 49.02561
588.3976, 48.91469
588.8798, 48.80318
589.3619, 48.77914
589.8440, 48.83914
