##NAMES=Heterosite
##RRUFFID=R070148
##IDEAL CHEMISTRY=Fe^3+^PO_4_
##LOCALITY=Pleasant Valley mine, near Fourmile, Black Hills, Custer County, South Dakota, USA
##OWNER=RRUFF
##SOURCE=James Shigley
##DESCRIPTION=Black massive with obvious cleavage
##STATUS=The identification of this mineral is confirmed by single-crystal X-ray diffraction and chemical analysis.
##URL=rruff.info/R070148
##MEASURED CHEMISTRY=(Fe^3+^_0.76_Mn^3+^_0.10_Mn^4+^_0.07_Mg_0.06_Ca_0.01_)_Î£=1_P_1.00_O_4_; Mn^3+^ and Mn^4+^ splitted by charge balance
204.6608, 7408.809
205.1430, 7402.188
205.6251, 7434.343
206.1072, 7510.613
206.5893, 7550.383
207.0714, 7539.892
207.5535, 7509.959
208.0357, 7514.297
208.5178, 7564.024
208.9999, 7613.436
209.4820, 7642.500
209.9641, 7645.134
210.4462, 7662.671
210.9284, 7700.556
211.4105, 7749.067
211.8926, 7787.618
212.3747, 7813.418
212.8568, 7836.809
213.3389, 7861.721
213.8211, 7887.127
214.3032, 7917.140
214.7853, 7952.784
215.2674, 7992.733
215.7495, 8034.294
216.2316, 8081.525
216.7138, 8123.182
217.1959, 8149.610
217.6780, 8148.842
218.1601, 8171.398
218.6422, 8228.561
219.1243, 8307.760
219.6065, 8367.367
220.0886, 8396.693
220.5707, 8423.551
221.0528, 8463.893
221.5349, 8526.718
222.0170, 8579.968
222.4992, 8616.188
222.9813, 8641.575
223.4634, 8683.997
223.9455, 8750.769
224.4276, 8824.883
224.9097, 8895.990
225.3919, 8965.947
225.8740, 9030.424
226.3561, 9085.897
226.8382, 9134.810
227.3203, 9196.296
227.8024, 9280.412
228.2846, 9363.119
228.7667, 9426.548
229.2488, 9452.223
229.7309, 9496.477
230.2130, 9570.607
230.6951, 9670.132
231.1773, 9763.898
231.6594, 9854.571
232.1415, 9935.365
232.6236, 9999.254
233.1057, 10034.61
233.5878, 10076.46
234.0700, 10129.39
234.5521, 10192.61
235.0342, 10260.96
235.5163, 10338.34
235.9984, 10415.97
236.4805, 10487.67
236.9627, 10552.72
237.4448, 10611.25
237.9269, 10660.27
238.4090, 10700.28
238.8911, 10745.41
239.3732, 10797.38
239.8554, 10852.68
240.3375, 10910.63
240.8196, 10982.44
241.3017, 11035.57
241.7838, 11065.29
242.2659, 11071.40
242.7481, 11060.31
243.2302, 11020.55
243.7123, 10975.20
244.1944, 10947.58
244.6765, 10955.37
245.1586, 10947.26
245.6408, 10912.04
246.1229, 10849.44
246.6050, 10784.53
247.0871, 10714.79
247.5692, 10645.35
248.0513, 10582.12
248.5335, 10531.20
249.0156, 10474.48
249.4977, 10409.87
249.9798, 10336.84
250.4619, 10253.00
250.9440, 10148.15
251.4262, 10042.83
251.9083, 9961.062
252.3904, 9923.745
252.8725, 9865.562
253.3546, 9764.475
253.8367, 9618.729
254.3189, 9503.896
254.8010, 9430.575
255.2831, 9377.534
255.7652, 9325.643
256.2473, 9277.860
256.7295, 9225.406
257.2116, 9165.656
257.6937, 9098.798
258.1758, 9032.766
258.6579, 8965.903
259.1400, 8901.844
259.6222, 8844.168
260.1043, 8796.523
260.5864, 8746.523
261.0685, 8684.350
261.5506, 8611.194
262.0327, 8574.784
262.5149, 8590.982
262.9970, 8622.255
263.4791, 8629.194
263.9612, 8604.595
264.4433, 8575.790
264.9254, 8544.039
265.4076, 8510.308
265.8897, 8496.168
266.3718, 8507.612
266.8539, 8528.551
267.3360, 8542.770
267.8181, 8548.060
268.3003, 8554.073
268.7824, 8563.095
269.2645, 8574.909
269.7466, 8586.188
270.2287, 8596.925
270.7108, 8607.082
271.1930, 8613.870
271.6751, 8613.870
272.1572, 8627.294
272.6393, 8663.972
273.1214, 8720.681
273.6035, 8757.315
274.0857, 8766.625
274.5678, 8775.037
275.0499, 8811.859
275.5320, 8881.638
276.0141, 8948.597
276.4962, 9007.791
276.9784, 9058.235
277.4605, 9087.370
277.9426, 9089.584
278.4247, 9091.007
278.9068, 9116.845
279.3889, 9168.342
279.8711, 9226.809
280.3532, 9293.783
280.8353, 9363.652
281.3174, 9408.048
281.7995, 9422.269
282.2816, 9432.904
282.7638, 9467.156
283.2459, 9524.517
283.7280, 9573.365
284.2101, 9608.314
284.6922, 9629.590
285.1743, 9630.139
285.6565, 9607.023
286.1386, 9590.270
286.6207, 9612.829
287.1028, 9670.107
287.5849, 9716.323
288.0670, 9739.643
288.5492, 9748.621
289.0313, 9765.420
289.5134, 9790.248
289.9955, 9807.396
290.4776, 9796.935
290.9597, 9765.662
291.4419, 9746.719
291.9240, 9751.050
292.4061, 9764.182
292.8882, 9757.668
293.3703, 9732.300
293.8524, 9704.013
294.3346, 9679.197
294.8167, 9659.866
295.2988, 9653.478
295.7809, 9666.123
296.2630, 9683.479
296.7451, 9686.195
297.2273, 9674.966
297.7094, 9655.210
298.1915, 9623.049
298.6736, 9585.431
299.1557, 9556.847
299.6378, 9539.423
300.1200, 9530.968
300.6021, 9528.749
301.0842, 9533.091
301.5663, 9545.091
302.0484, 9576.585
302.5305, 9612.712
303.0127, 9630.103
303.4948, 9623.078
303.9769, 9606.932
304.4590, 9587.168
304.9411, 9568.455
305.4232, 9563.184
305.9054, 9590.953
306.3875, 9629.259
306.8696, 9654.106
307.3517, 9661.682
307.8338, 9662.120
308.3159, 9656.301
308.7981, 9648.960
309.2802, 9649.248
309.7623, 9670.692
310.2444, 9695.382
310.7265, 9709.557
311.2086, 9711.112
311.6908, 9708.649
312.1729, 9706.529
312.6550, 9703.678
313.1371, 9698.553
313.6192, 9691.254
314.1013, 9681.064
314.5835, 9661.738
315.0656, 9631.730
315.5477, 9616.729
316.0298, 9651.999
316.5119, 9699.854
316.9940, 9718.948
317.4762, 9661.159
317.9583, 9604.459
318.4404, 9579.218
318.9225, 9586.173
319.4046, 9600.629
319.8867, 9627.597
320.3689, 9652.935
320.8510, 9664.903
321.3331, 9648.376
321.8152, 9631.285
322.2973, 9623.467
322.7794, 9623.419
323.2616, 9613.268
323.7437, 9574.263
324.2258, 9534.229
324.7079, 9510.477
325.1900, 9535.571
325.6721, 9541.793
326.1543, 9507.311
326.6364, 9442.125
327.1185, 9402.639
327.6006, 9419.914
328.0827, 9438.661
328.5648, 9433.788
329.0470, 9385.785
329.5291, 9341.349
330.0112, 9299.086
330.4933, 9260.458
330.9754, 9230.947
331.4576, 9217.891
331.9397, 9204.733
332.4218, 9183.183
332.9039, 9144.849
333.3860, 9120.498
333.8681, 9117.971
334.3503, 9125.300
334.8324, 9120.624
335.3145, 9103.385
335.7966, 9075.188
336.2787, 9031.064
336.7608, 8966.364
337.2430, 8924.839
337.7251, 8916.026
338.2072, 8917.875
338.6893, 8901.330
339.1714, 8865.059
339.6535, 8816.349
340.1357, 8748.971
340.6178, 8665.847
341.0999, 8620.811
341.5820, 8622.169
342.0641, 8634.077
342.5462, 8615.150
343.0284, 8565.641
343.5105, 8522.168
343.9926, 8499.719
344.4747, 8488.415
344.9568, 8452.361
345.4389, 8389.702
345.9211, 8326.871
346.4032, 8283.663
346.8853, 8258.759
347.3674, 8251.622
347.8495, 8272.190
348.3316, 8297.197
348.8138, 8281.423
349.2959, 8227.890
349.7780, 8168.206
350.2601, 8116.507
350.7422, 8074.003
351.2243, 8044.337
351.7065, 8030.553
352.1886, 8022.420
352.6707, 8011.901
353.1528, 7998.175
353.6349, 7979.052
354.1170, 7951.627
354.5992, 7918.625
355.0813, 7881.501
355.5634, 7839.474
356.0455, 7798.710
356.5276, 7760.460
357.0097, 7726.760
357.4919, 7701.723
357.9740, 7698.998
358.4561, 7695.947
358.9382, 7672.600
359.4203, 7626.943
359.9024, 7589.894
360.3846, 7583.574
360.8667, 7590.519
361.3488, 7592.347
361.8309, 7586.036
362.3130, 7571.279
362.7951, 7541.077
363.2773, 7497.647
363.7594, 7465.170
364.2415, 7457.450
364.7236, 7458.415
365.2057, 7457.693
365.6878, 7448.227
366.1700, 7443.383
366.6521, 7447.493
367.1342, 7458.175
367.6163, 7465.760
368.0984, 7474.126
368.5805, 7475.545
369.0627, 7465.683
369.5448, 7434.979
370.0269, 7411.660
370.5090, 7396.195
370.9911, 7388.086
371.4732, 7388.456
371.9554, 7407.613
372.4375, 7417.801
372.9196, 7405.846
373.4017, 7365.650
373.8838, 7343.173
374.3659, 7342.621
374.8481, 7353.462
375.3302, 7363.665
375.8123, 7373.281
376.2944, 7382.604
376.7765, 7392.800
377.2586, 7403.170
377.7408, 7405.544
378.2229, 7397.600
378.7050, 7391.552
379.1871, 7403.264
379.6692, 7431.342
380.1513, 7446.239
380.6335, 7437.001
381.1156, 7417.578
381.5977, 7421.850
382.0798, 7448.845
382.5619, 7474.394
383.0440, 7479.575
383.5262, 7471.031
384.0083, 7467.959
384.4904, 7474.098
384.9725, 7480.885
385.4546, 7474.168
385.9367, 7458.749
386.4189, 7449.619
386.9010, 7456.880
387.3831, 7473.272
387.8652, 7489.672
388.3473, 7505.224
388.8294, 7525.840
389.3116, 7562.187
389.7937, 7604.287
390.2758, 7638.810
390.7579, 7656.757
391.2400, 7668.500
391.7221, 7672.225
392.2043, 7670.573
392.6864, 7685.122
393.1685, 7752.094
393.6506, 7823.732
394.1327, 7863.174
394.6148, 7833.685
395.0970, 7809.676
395.5791, 7814.297
396.0612, 7838.420
396.5433, 7855.385
397.0254, 7848.241
397.5075, 7843.356
397.9897, 7853.316
398.4718, 7890.898
398.9539, 7915.672
399.4360, 7923.268
399.9181, 7919.523
400.4002, 7911.534
400.8824, 7890.172
401.3645, 7878.512
401.8466, 7886.723
402.3287, 7916.159
402.8108, 7927.829
403.2929, 7910.182
403.7751, 7891.947
404.2572, 7902.786
404.7393, 7951.423
405.2214, 7990.159
405.7035, 8008.864
406.1856, 8013.573
406.6678, 8022.924
407.1499, 8037.248
407.6320, 8054.133
408.1141, 8076.838
408.5962, 8103.551
409.0783, 8112.227
409.5605, 8096.396
410.0426, 8076.011
410.5247, 8086.853
411.0068, 8122.687
411.4889, 8148.815
411.9710, 8135.852
412.4532, 8105.802
412.9353, 8103.062
413.4174, 8129.454
413.8995, 8154.858
414.3816, 8146.234
414.8637, 8120.988
415.3459, 8107.812
415.8280, 8122.226
416.3101, 8145.921
416.7922, 8171.508
417.2743, 8196.312
417.7564, 8210.343
418.2386, 8196.251
418.7207, 8176.483
419.2028, 8168.105
419.6849, 8176.901
420.1670, 8191.037
420.6491, 8215.482
421.1313, 8241.646
421.6134, 8254.127
422.0955, 8241.218
422.5776, 8221.839
423.0597, 8196.480
423.5418, 8160.249
424.0240, 8145.972
424.5061, 8183.516
424.9882, 8226.703
425.4703, 8234.030
425.9524, 8170.501
426.4345, 8128.835
426.9167, 8129.454
427.3988, 8163.542
427.8809, 8177.362
428.3630, 8160.880
428.8451, 8143.905
429.3272, 8148.546
429.8094, 8180.894
430.2915, 8192.505
430.7736, 8176.615
431.2557, 8146.514
431.7378, 8124.544
432.2199, 8110.904
432.7021, 8099.762
433.1842, 8086.736
433.6663, 8074.270
434.1484, 8075.229
434.6305, 8090.692
435.1126, 8103.112
435.5948, 8087.182
436.0769, 8054.324
436.5590, 8036.313
437.0411, 8050.160
437.5232, 8071.284
438.0053, 8069.223
438.4875, 8049.008
438.9696, 8030.912
439.4517, 8033.184
439.9338, 8039.815
440.4159, 8032.535
440.8980, 8003.209
441.3802, 7981.780
441.8623, 7987.243
442.3444, 8008.976
442.8265, 8031.828
443.3086, 8066.663
443.7907, 8087.110
444.2729, 8076.291
444.7550, 8033.530
445.2371, 7999.219
445.7192, 7974.426
446.2013, 7962.872
446.6834, 7967.680
447.1656, 8004.339
447.6477, 8034.877
448.1298, 8058.942
448.6119, 8076.074
449.0940, 8082.518
449.5761, 8069.666
450.0583, 8062.888
450.5404, 8074.949
451.0225, 8108.604
451.5046, 8131.429
451.9867, 8139.500
452.4688, 8144.569
452.9510, 8164.270
453.4331, 8198.797
453.9152, 8222.784
454.3973, 8225.310
454.8794, 8216.127
455.3615, 8218.720
455.8437, 8232.969
456.3258, 8254.521
456.8079, 8282.216
457.2900, 8314.676
457.7721, 8349.888
458.2542, 8386.735
458.7364, 8428.385
459.2185, 8486.933
459.7006, 8552.329
460.1827, 8602.040
460.6648, 8613.703
461.1469, 8615.791
461.6291, 8623.954
462.1112, 8639.229
462.5933, 8668.010
463.0754, 8725.425
463.5575, 8790.722
464.0396, 8846.484
464.5218, 8872.178
465.0039, 8910.783
465.4860, 8980.638
465.9681, 9069.646
466.4502, 9146.019
466.9323, 9197.117
467.4145, 9247.062
467.8966, 9300.280
468.3787, 9354.442
468.8608, 9426.517
469.3429, 9527.650
469.8250, 9634.154
470.3072, 9722.187
470.7893, 9788.874
471.2714, 9847.071
471.7535, 9894.825
472.2356, 9937.800
472.7177, 9993.574
473.1999, 10062.18
473.6820, 10138.34
474.1641, 10223.66
474.6462, 10314.93
475.1284, 10397.84
475.6105, 10471.48
476.0926, 10537.31
476.5747, 10592.83
477.0568, 10641.14
477.5389, 10689.12
478.0211, 10726.91
478.5032, 10775.31
478.9853, 10871.11
479.4674, 11005.64
479.9495, 11120.42
480.4316, 11181.02
480.9138, 11208.64
481.3959, 11215.58
481.8780, 11193.77
482.3601, 11177.21
482.8422, 11184.23
483.3243, 11202.23
483.8065, 11211.56
484.2886, 11204.94
484.7707, 11193.01
485.2528, 11181.28
485.7349, 11170.14
486.2170, 11141.69
486.6992, 11085.22
487.1813, 11022.76
487.6634, 10967.66
488.1455, 10921.42
488.6276, 10877.71
489.1097, 10836.39
489.5919, 10797.12
490.0740, 10765.50
490.5561, 10744.21
491.0382, 10705.11
491.5203, 10626.40
492.0024, 10519.42
492.4846, 10441.25
492.9667, 10393.32
493.4488, 10352.36
493.9309, 10297.66
494.4130, 10234.26
494.8951, 10176.32
495.3773, 10128.40
495.8594, 10082.21
496.3415, 10027.52
496.8236, 9967.586
497.3057, 9910.894
497.7878, 9858.406
498.2700, 9812.420
498.7521, 9775.031
499.2342, 9747.033
499.7163, 9721.346
500.1984, 9708.645
500.6805, 9690.655
501.1627, 9652.383
501.6448, 9559.666
502.1269, 9485.066
502.6090, 9439.382
503.0911, 9416.046
503.5732, 9398.559
504.0554, 9391.565
504.5375, 9383.484
505.0196, 9371.604
505.5017, 9356.344
505.9838, 9329.050
506.4659, 9284.133
506.9481, 9240.191
507.4302, 9221.821
507.9123, 9229.095
508.3944, 9223.732
508.8765, 9195.153
509.3586, 9156.201
509.8408, 9128.903
510.3229, 9112.424
510.8050, 9099.726
511.2871, 9089.641
511.7692, 9079.725
512.2513, 9064.797
512.7335, 9044.413
513.2156, 9026.782
513.6977, 9026.060
514.1798, 9028.178
514.6619, 9015.581
515.1440, 8961.986
515.6262, 8920.487
516.1083, 8921.561
516.5904, 8951.324
517.0725, 8974.426
517.5546, 8994.528
518.0367, 8996.393
518.5189, 8963.921
519.0010, 8886.837
519.4831, 8843.361
519.9652, 8852.598
520.4473, 8876.684
520.9294, 8883.316
521.4116, 8866.671
521.8937, 8852.202
522.3758, 8843.103
522.8579, 8837.543
523.3400, 8831.378
523.8221, 8824.596
524.3043, 8817.813
524.7864, 8813.425
525.2685, 8809.249
525.7506, 8792.456
526.2327, 8762.331
526.7148, 8741.475
527.1970, 8756.833
527.6791, 8792.986
528.1612, 8825.533
528.6433, 8853.104
529.1254, 8867.356
529.6075, 8854.150
530.0897, 8823.221
530.5718, 8795.151
531.0539, 8777.637
531.5360, 8764.662
532.0181, 8754.690
532.5002, 8747.750
532.9824, 8740.166
533.4645, 8733.523
533.9466, 8724.564
534.4287, 8710.428
534.9108, 8679.627
535.3929, 8665.619
535.8751, 8675.160
536.3572, 8697.196
536.8393, 8712.912
537.3214, 8722.181
537.8035, 8726.012
538.2856, 8723.261
538.7678, 8715.478
539.2499, 8707.273
539.7320, 8698.344
540.2141, 8696.314
540.6962, 8721.527
541.1783, 8756.573
541.6605, 8755.621
542.1426, 8705.945
542.6247, 8649.482
543.1068, 8615.386
543.5889, 8602.967
544.0710, 8611.033
544.5532, 8667.887
545.0353, 8718.529
545.5174, 8728.124
545.9995, 8704.157
546.4816, 8686.604
546.9637, 8689.040
547.4459, 8698.766
547.9280, 8708.905
548.4101, 8715.557
548.8922, 8734.474
549.3743, 8779.798
549.8564, 8825.563
550.3386, 8841.172
550.8207, 8815.097
551.3028, 8796.039
551.7849, 8790.888
552.2670, 8798.429
552.7491, 8821.986
553.2313, 8862.481
553.7134, 8893.907
554.1955, 8888.920
554.6776, 8865.147
555.1597, 8876.909
555.6418, 8925.598
556.1240, 8979.332
556.6061, 9011.269
557.0882, 9031.460
557.5703, 9054.248
558.0524, 9085.396
558.5345, 9115.601
559.0167, 9139.632
559.4988, 9158.829
559.9809, 9175.130
560.4630, 9183.663
560.9451, 9194.976
561.4272, 9214.020
561.9094, 9240.943
562.3915, 9264.767
562.8736, 9275.984
563.3557, 9294.527
563.8378, 9335.567
564.3199, 9412.363
564.8021, 9461.832
565.2842, 9472.456
565.7663, 9473.742
566.2484, 9513.242
566.7305, 9590.450
567.2126, 9652.901
567.6948, 9680.434
568.1769, 9691.369
568.6590, 9721.646
569.1411, 9767.868
569.6232, 9808.973
570.1053, 9831.632
570.5875, 9843.265
571.0696, 9843.634
571.5517, 9831.460
572.0338, 9840.924
572.5159, 9911.440
572.9980, 10001.36
573.4802, 10072.57
573.9623, 10116.48
574.4444, 10141.82
574.9265, 10126.58
575.4086, 10096.71
575.8907, 10105.39
576.3729, 10181.84
576.8550, 10247.60
577.3371, 10278.39
577.8192, 10278.22
578.3013, 10291.68
578.7834, 10323.32
579.2656, 10349.52
579.7477, 10342.94
580.2298, 10311.82
580.7119, 10316.05
581.1940, 10365.36
581.6761, 10419.11
582.1583, 10431.51
582.6404, 10414.87
583.1225, 10394.81
583.6046, 10378.02
584.0867, 10362.91
584.5688, 10350.40
585.0510, 10338.87
585.5331, 10323.71
586.0152, 10298.82
586.4973, 10273.82
586.9794, 10253.47
587.4615, 10238.73
587.9437, 10222.55
588.4258, 10203.92
588.9079, 10184.46
589.3900, 10164.82
589.8721, 10143.86
590.3542, 10127.09
590.8364, 10117.66
591.3185, 10108.28
591.8006, 10085.35
592.2827, 10049.11
592.7648, 10016.06
593.2469, 9990.802
593.7291, 9971.971
594.2112, 9961.841
594.6933, 9958.005
595.1754, 9947.835
595.6575, 9918.436
596.1396, 9882.206
596.6218, 9851.939
597.1039, 9829.011
597.5860, 9803.961
598.0681, 9777.977
598.5502, 9745.282
599.0323, 9700.257
599.5145, 9610.374
599.9966, 9554.084
600.4787, 9558.334
600.9608, 9589.582
601.4429, 9592.869
601.9250, 9556.466
602.4072, 9520.423
602.8893, 9497.644
603.3714, 9481.588
603.8535, 9442.851
604.3356, 9379.963
604.8177, 9312.464
605.2999, 9245.527
605.7820, 9183.688
606.2641, 9145.182
606.7462, 9130.754
607.2283, 9125.350
607.7104, 9124.815
608.1926, 9122.467
608.6747, 9108.276
609.1568, 9072.954
609.6389, 9039.035
610.1210, 9020.076
610.6031, 9008.798
611.0853, 8993.852
611.5674, 8969.068
612.0495, 8944.906
612.5316, 8922.452
613.0137, 8901.968
613.4958, 8887.713
613.9780, 8884.019
614.4601, 8876.935
614.9422, 8853.374
615.4243, 8814.237
615.9064, 8806.126
616.3885, 8833.467
616.8707, 8863.327
617.3528, 8854.994
617.8349, 8824.372
618.3170, 8813.403
618.7991, 8834.763
619.2813, 8864.269
619.7634, 8884.342
620.2455, 8896.971
620.7276, 8905.731
621.2097, 8915.658
621.6918, 8918.053
622.1740, 8900.061
622.6561, 8868.199
623.1382, 8856.542
623.6203, 8879.395
624.1024, 8910.813
624.5845, 8945.238
625.0667, 8983.824
625.5488, 9009.628
626.0309, 9017.097
626.5130, 9026.662
626.9951, 9060.936
627.4772, 9116.829
627.9594, 9156.518
628.4415, 9172.830
628.9236, 9185.724
629.4057, 9218.244
629.8878, 9265.748
630.3699, 9318.030
630.8521, 9374.639
631.3342, 9431.265
631.8163, 9483.440
632.2984, 9532.816
632.7805, 9583.404
633.2626, 9632.147
633.7448, 9686.072
634.2269, 9749.249
634.7090, 9822.245
635.1911, 9893.069
635.6732, 9963.003
636.1553, 10029.24
636.6375, 10084.92
637.1196, 10125.52
637.6017, 10192.90
638.0838, 10291.92
638.5659, 10400.52
639.0480, 10489.59
639.5302, 10564.95
640.0123, 10657.76
640.4944, 10787.27
640.9765, 10909.49
641.4586, 10960.14
641.9407, 10972.36
642.4229, 11016.20
642.9050, 11164.22
643.3871, 11308.71
643.8692, 11394.76
644.3513, 11429.10
644.8334, 11467.89
645.3156, 11529.99
645.7977, 11587.07
646.2798, 11627.99
646.7619, 11650.29
647.2440, 11681.44
647.7261, 11727.06
648.2083, 11767.26
648.6904, 11785.33
649.1725, 11782.29
649.6546, 11762.84
650.1367, 11725.08
650.6188, 11682.69
651.1010, 11650.60
651.5831, 11626.23
652.0652, 11604.44
652.5473, 11584.83
653.0294, 11565.50
653.5115, 11547.10
653.9937, 11527.96
654.4758, 11504.72
654.9579, 11477.03
655.4400, 11444.42
655.9221, 11405.48
656.4042, 11360.87
656.8864, 11315.55
657.3685, 11269.24
657.8506, 11222.67
658.3327, 11173.91
658.8148, 11123.10
659.2969, 11085.67
659.7791, 11062.76
660.2612, 11043.02
660.7433, 11014.68
661.2254, 10981.58
661.7075, 10951.95
662.1896, 10926.61
662.6718, 10907.33
663.1539, 10904.35
663.6360, 10905.58
664.1181, 10894.40
664.6002, 10850.02
665.0823, 10810.52
665.5645, 10785.71
666.0466, 10772.73
666.5287, 10763.65
667.0108, 10763.88
667.4929, 10758.72
667.9750, 10744.63
668.4572, 10722.08
668.9393, 10691.66
669.4214, 10652.47
669.9035, 10613.72
670.3856, 10577.97
670.8677, 10547.61
671.3499, 10534.96
671.8320, 10540.26
672.3141, 10539.52
672.7962, 10503.50
673.2783, 10458.04
673.7604, 10431.62
674.2426, 10437.04
674.7247, 10438.54
675.2068, 10420.80
675.6889, 10395.49
676.1710, 10375.16
676.6531, 10362.33
677.1353, 10350.70
677.6174, 10339.91
678.0995, 10329.86
678.5816, 10323.76
679.0637, 10322.89
679.5458, 10308.33
680.0280, 10268.36
680.5101, 10216.57
680.9922, 10179.38
681.4743, 10155.01
681.9564, 10132.90
682.4385, 10104.06
682.9207, 10077.17
683.4028, 10067.28
683.8849, 10072.79
684.3670, 10061.80
684.8491, 10015.53
685.3312, 9955.562
685.8134, 9892.084
686.2955, 9822.561
686.7776, 9757.952
687.2597, 9694.799
687.7418, 9642.874
688.2239, 9618.602
688.7061, 9623.058
689.1882, 9612.158
689.6703, 9580.330
690.1524, 9536.038
690.6345, 9484.074
691.1166, 9428.099
691.5988, 9375.145
692.0809, 9325.166
692.5630, 9282.729
693.0451, 9259.317
693.5272, 9244.852
694.0093, 9218.252
694.4915, 9158.944
694.9736, 9102.104
695.4557, 9058.171
695.9378, 9024.774
696.4199, 8989.770
696.9020, 8951.052
697.3842, 8916.038
697.8663, 8887.846
