##NAMES=Heterogenite
##RRUFFID=R050382
##IDEAL CHEMISTRY=Co^3+^O(OH)
##LOCALITY=Goodsprings, Nevada, USA
##OWNER=RRUFF
##SOURCE=University of Arizona Mineral Museum
##DESCRIPTION=Black massive, polytype 3R
##STATUS=The identification of this mineral has been confirmed by X-ray diffraction and chemical analysis
##URL=rruff.info/R050382
##MEASURED CHEMISTRY=(Co^3+^_0.90_Ni_0.03_As^5+^_0.03_Zn_0.03_Al_0.01_)_Î£=1_O(OH)
91.87140, 0.0000000E+00
92.35352, 10.88545
92.83563, 11.06137
93.31775, 11.13666
93.79987, 11.10466
94.28198, 10.97107
94.76410, 10.71249
95.24622, 10.22814
95.72833, 9.716314
96.21045, 9.696642
96.69257, 10.19610
97.17468, 10.74914
97.65680, 10.89283
98.13892, 10.63706
98.62103, 10.42824
99.10315, 10.40685
99.58527, 10.53665
100.0674, 10.55254
100.5495, 10.41131
101.0316, 10.25093
101.5137, 10.27114
101.9958, 10.53813
102.4780, 10.74536
102.9601, 10.71327
103.4422, 10.34356
103.9243, 10.42741
104.4064, 11.19432
104.8885, 12.26875
105.3707, 12.94711
105.8528, 12.85876
106.3349, 12.88810
106.8170, 13.43152
107.2991, 15.09051
107.7813, 16.10925
108.2634, 16.08217
108.7455, 15.35818
109.2276, 15.10857
109.7097, 15.75035
110.1918, 16.56533
110.6740, 17.25733
111.1561, 17.63328
111.6382, 18.09468
112.1203, 18.65450
112.6024, 19.31980
113.0845, 20.10331
113.5667, 21.06356
114.0488, 22.10755
114.5309, 23.18417
115.0130, 24.49841
115.4951, 25.62835
115.9772, 26.40002
116.4594, 26.82646
116.9415, 27.20059
117.4236, 27.61094
117.9057, 28.03245
118.3878, 28.43656
118.8699, 28.47505
119.3521, 28.74747
119.8342, 29.70675
120.3163, 31.43261
120.7984, 33.26423
121.2805, 34.92324
121.7626, 36.40778
122.2448, 37.71460
122.7269, 39.31344
123.2090, 40.50607
123.6911, 40.37457
124.1732, 38.57604
124.6553, 36.48510
125.1375, 35.21223
125.6196, 34.65823
126.1017, 34.50883
126.5838, 34.67879
127.0659, 35.11657
127.5480, 35.76317
128.0302, 36.67077
128.5123, 37.66284
128.9944, 38.46390
129.4765, 39.09586
129.9586, 39.76343
130.4407, 40.96846
130.9229, 42.43832
131.4050, 42.92735
131.8871, 41.79545
132.3692, 39.89967
132.8513, 39.25393
133.3334, 39.86766
133.8156, 40.72258
134.2977, 41.05933
134.7798, 41.03967
135.2619, 41.22765
135.7440, 41.78072
136.2261, 42.62730
136.7083, 43.47452
137.1904, 44.29344
137.6725, 45.20962
138.1546, 46.64495
138.6367, 48.87953
139.1188, 50.14230
139.6010, 49.84471
140.0831, 47.99548
140.5652, 45.98240
141.0473, 43.50457
141.5294, 41.22755
142.0115, 40.17105
142.4937, 40.83381
142.9758, 41.48592
143.4579, 41.55143
143.9400, 40.82292
144.4221, 40.52966
144.9042, 40.81485
145.3864, 41.44094
145.8685, 42.02223
146.3506, 42.68003
146.8327, 43.13961
147.3148, 43.30353
147.7969, 43.07368
148.2791, 42.76350
148.7612, 42.21456
149.2433, 41.59999
149.7254, 41.31853
150.2075, 41.65327
150.6896, 42.07413
151.1718, 42.38123
151.6539, 42.37812
152.1360, 42.54923
152.6181, 42.90227
153.1002, 43.43338
153.5823, 44.13093
154.0645, 45.80233
154.5466, 47.06578
155.0287, 47.26746
155.5108, 45.26719
155.9929, 43.50278
156.4750, 42.26030
156.9572, 41.51397
157.4393, 41.21016
157.9214, 41.97638
158.4035, 42.78987
158.8856, 43.01646
159.3677, 41.62054
159.8499, 40.52238
160.3320, 40.38855
160.8141, 41.08599
161.2962, 41.84455
161.7783, 42.69878
162.2604, 43.35307
162.7426, 43.56392
163.2247, 42.81617
163.7068, 42.00129
164.1889, 41.48995
164.6710, 41.27758
165.1531, 41.18289
165.6353, 41.06178
166.1174, 41.02977
166.5995, 41.21132
167.0816, 42.02811
167.5637, 42.79293
168.0458, 42.89727
168.5280, 42.33734
169.0101, 41.94870
169.4922, 42.52119
169.9743, 43.54729
170.4564, 44.31555
170.9385, 44.51763
171.4207, 44.35076
171.9028, 43.83680
172.3849, 42.95816
172.8670, 42.20137
173.3491, 42.01048
173.8312, 42.20095
174.3134, 42.42107
174.7955, 42.58191
175.2776, 42.65441
175.7597, 42.52520
176.2418, 42.15422
176.7239, 41.86425
177.2061, 42.05198
177.6882, 42.57318
178.1703, 43.03090
178.6524, 43.25917
179.1345, 43.29973
179.6166, 43.17921
180.0988, 42.87409
180.5809, 42.53747
181.0630, 42.32560
181.5451, 42.22435
182.0272, 42.18676
182.5093, 42.15818
182.9915, 42.17530
183.4736, 42.38978
183.9557, 42.87208
184.4378, 43.33660
184.9199, 43.29468
185.4020, 42.81985
185.8842, 42.42955
186.3663, 42.54242
186.8484, 42.99807
187.3305, 43.17417
187.8126, 42.96867
188.2947, 42.62543
188.7769, 42.55314
189.2590, 42.73917
189.7411, 42.91864
190.2232, 42.90160
190.7053, 42.72712
191.1874, 42.66880
191.6696, 42.78637
192.1517, 42.95529
192.6338, 42.90213
193.1159, 42.61749
193.5980, 42.36708
194.0801, 42.35510
194.5623, 42.56002
195.0444, 42.67422
195.5265, 42.65968
196.0086, 42.55556
196.4907, 42.36269
196.9728, 42.04670
197.4550, 41.92393
197.9371, 42.36974
198.4192, 43.40010
198.9013, 43.93295
199.3834, 43.74408
199.8655, 43.14254
200.3477, 42.90451
200.8298, 43.10500
201.3119, 43.33418
201.7940, 43.31482
202.2761, 43.01779
202.7582, 42.82557
203.2404, 42.82951
203.7225, 42.91673
204.2046, 42.68383
204.6867, 41.99519
205.1688, 41.45080
205.6509, 41.55098
206.1331, 42.44184
206.6152, 42.98997
207.0973, 42.99763
207.5794, 42.65480
208.0615, 42.55264
208.5436, 42.74887
209.0258, 43.03376
209.5079, 43.29552
209.9900, 43.54041
210.4721, 43.73983
210.9542, 43.92657
211.4363, 44.05405
211.9185, 43.91709
212.4006, 43.39138
212.8827, 42.86642
213.3648, 42.57915
213.8469, 42.54896
214.3290, 42.68073
214.8112, 43.03648
215.2933, 43.53294
215.7754, 43.88267
216.2575, 44.05196
216.7396, 44.13795
217.2217, 44.18024
217.7039, 44.14891
218.1860, 44.17487
218.6681, 44.31456
219.1502, 44.51072
219.6323, 44.53154
220.1144, 44.29091
220.5966, 44.02325
221.0787, 43.86641
221.5608, 43.86098
222.0429, 43.85039
222.5250, 43.78770
223.0071, 43.71798
223.4893, 43.83446
223.9714, 44.26955
224.4535, 44.68492
224.9356, 44.88379
225.4177, 44.74949
225.8998, 44.67602
226.3820, 44.68311
226.8641, 44.76366
227.3462, 44.92831
227.8283, 45.33144
228.3104, 45.58344
228.7925, 45.41543
229.2747, 44.46526
229.7568, 43.92962
230.2389, 44.00584
230.7210, 44.49368
231.2031, 44.73474
231.6852, 44.54495
232.1674, 44.38017
232.6495, 44.50049
233.1316, 45.15062
233.6137, 45.52513
234.0958, 45.49210
234.5779, 45.19233
235.0601, 45.01793
235.5422, 45.00775
236.0243, 45.06462
236.5064, 45.15586
236.9885, 45.31944
237.4706, 45.43391
237.9528, 45.49495
238.4349, 45.50657
238.9170, 45.46079
239.3991, 45.26937
239.8812, 45.15278
240.3633, 45.23703
240.8455, 45.68696
241.3276, 45.92371
241.8097, 45.88251
242.2918, 45.64910
242.7739, 45.38942
243.2560, 45.02473
243.7382, 44.75583
244.2203, 44.66947
244.7024, 44.82266
245.1845, 45.00811
245.6666, 45.27964
246.1487, 45.55745
246.6309, 45.68757
247.1130, 45.61673
247.5951, 45.48145
248.0772, 45.28391
248.5593, 44.92771
249.0414, 44.88729
249.5236, 45.37481
250.0057, 46.04370
250.4878, 46.29000
250.9699, 45.83300
251.4520, 45.45704
251.9341, 45.48376
252.4163, 46.06636
252.8984, 46.25294
253.3805, 45.79255
253.8626, 45.12770
254.3447, 44.95486
254.8268, 45.52942
255.3090, 46.06758
255.7911, 46.32721
256.2732, 46.27249
256.7553, 46.26678
257.2374, 46.36177
257.7195, 46.45473
258.2017, 46.39325
258.6838, 46.06679
259.1659, 45.83883
259.6480, 45.81760
260.1301, 46.01132
260.6122, 46.19620
261.0944, 46.38399
261.5765, 46.54932
262.0586, 46.66719
262.5407, 46.73577
263.0228, 46.76085
263.5049, 46.73099
263.9871, 46.64906
264.4692, 46.60041
264.9513, 46.61695
265.4334, 46.61566
265.9155, 46.50819
266.3976, 46.26506
266.8798, 46.00808
267.3619, 45.69920
267.8440, 45.37470
268.3261, 45.38803
268.8082, 45.83850
269.2903, 46.41577
269.7725, 46.92319
270.2546, 47.39471
270.7367, 47.58573
271.2188, 47.34027
271.7009, 46.80721
272.1830, 46.64637
272.6652, 46.95469
273.1473, 47.37304
273.6294, 47.66717
274.1115, 47.81716
274.5936, 47.96419
275.0757, 48.14226
275.5579, 48.31373
276.0400, 48.34528
276.5221, 48.20673
277.0042, 48.04845
277.4863, 47.95576
277.9684, 47.93195
278.4506, 47.93197
278.9327, 47.96557
279.4148, 48.00570
279.8969, 47.99296
280.3790, 47.92336
280.8611, 47.34475
281.3433, 47.91089
281.8254, 48.23479
282.3075, 48.32946
282.7896, 47.50835
283.2717, 47.86977
283.7538, 47.75729
284.2360, 47.62539
284.7181, 48.15325
285.2002, 47.46534
285.6823, 47.98273
286.1644, 48.01900
286.6465, 48.27546
287.1287, 48.05510
287.6108, 47.98201
288.0929, 48.38590
288.5750, 48.42864
289.0571, 48.28545
289.5392, 47.78395
290.0214, 47.76119
290.5035, 48.27311
290.9856, 48.80013
291.4677, 48.66293
291.9498, 47.98354
292.4319, 47.53950
292.9141, 47.68894
293.3962, 48.15507
293.8783, 48.26776
294.3604, 48.02204
294.8425, 47.71079
295.3246, 47.52095
295.8068, 47.45847
296.2889, 47.57278
296.7710, 47.97506
297.2531, 48.44271
297.7352, 48.54227
298.2173, 47.85963
298.6995, 48.42918
299.1816, 48.75648
299.6637, 48.85455
300.1458, 48.03685
300.6279, 48.40168
301.1100, 48.29261
301.5922, 48.16411
302.0743, 48.69538
302.5564, 48.01087
303.0385, 48.53168
303.5206, 48.57135
304.0027, 48.83123
304.4849, 48.61427
304.9670, 48.54459
305.4491, 48.95189
305.9312, 49.09509
306.4133, 48.82323
306.8954, 49.09711
307.3776, 48.39595
307.8597, 48.55039
308.3418, 49.07399
308.8239, 48.82611
309.3060, 49.10870
309.7881, 49.18926
310.2703, 48.35168
310.7524, 49.11084
311.2345, 49.17946
311.7166, 48.53904
312.1987, 49.24349
312.6808, 48.70082
313.1630, 48.60330
313.6451, 48.98325
314.1272, 49.08773
314.6093, 49.00499
315.0914, 48.94557
315.5735, 49.08910
316.0557, 49.38067
316.5378, 49.53059
317.0199, 49.16901
317.5020, 48.76203
317.9841, 48.67278
318.4662, 49.26372
318.9484, 49.76249
319.4305, 49.91965
319.9126, 49.35228
320.3947, 49.85572
320.8768, 50.11693
321.3589, 50.14891
321.8411, 49.26510
322.3232, 49.56384
322.8053, 49.38867
323.2874, 49.19407
323.7695, 49.65924
324.2516, 50.18969
324.7338, 49.91891
325.2159, 49.57059
325.6980, 49.49434
326.1801, 49.81637
326.6622, 49.91051
327.1443, 49.43769
327.6265, 48.84633
328.1086, 48.58831
328.5907, 48.97224
329.0728, 49.35613
329.5549, 49.70250
330.0370, 50.01360
330.5192, 50.10008
331.0013, 49.76839
331.4834, 49.37748
331.9655, 49.17982
332.4476, 49.32954
332.9297, 49.40381
333.4119, 49.31833
333.8940, 49.12449
334.3761, 49.05757
334.8582, 49.17363
335.3403, 49.32788
335.8224, 49.45591
336.3046, 49.56627
336.7867, 49.62264
337.2688, 49.62091
337.7509, 49.56757
338.2330, 49.43672
338.7151, 49.16277
339.1973, 49.02643
339.6794, 49.23883
340.1615, 49.83127
340.6436, 49.99557
341.1257, 49.60721
341.6078, 49.06208
342.0900, 48.87471
342.5721, 49.07089
343.0542, 49.32854
343.5363, 49.59439
344.0184, 49.84346
344.5005, 49.96991
344.9827, 49.97090
345.4648, 49.86523
345.9469, 49.55610
346.4290, 49.09110
346.9111, 48.89378
347.3932, 49.10021
347.8754, 49.53322
348.3575, 49.88681
348.8396, 50.16148
349.3217, 50.38784
349.8038, 50.62317
350.2859, 50.81995
350.7681, 50.85247
351.2502, 50.69160
351.7323, 50.41891
352.2144, 50.05738
352.6965, 49.64581
353.1786, 49.31242
353.6608, 49.11477
354.1429, 49.03410
354.6250, 49.09156
355.1071, 49.29300
355.5892, 49.47882
356.0714, 49.46429
356.5535, 49.36886
357.0356, 49.37077
357.5177, 49.68307
357.9998, 49.99215
358.4819, 49.97827
358.9641, 49.71088
359.4462, 49.57937
359.9283, 49.97349
360.4104, 50.49083
360.8925, 50.78659
361.3746, 50.68879
361.8568, 50.52350
362.3389, 50.34655
362.8210, 50.19776
363.3031, 50.16333
363.7852, 50.43562
364.2673, 50.69528
364.7495, 50.80577
365.2316, 50.75090
365.7137, 50.55178
366.1958, 49.99173
366.6779, 49.36828
367.1600, 49.02636
367.6422, 49.25665
368.1243, 49.51077
368.6064, 49.68366
369.0885, 49.77025
369.5706, 49.85567
370.0527, 50.03014
370.5349, 50.13531
371.0170, 50.03705
371.4991, 49.38385
371.9812, 49.14957
372.4633, 49.64522
372.9454, 50.59839
373.4276, 50.98898
373.9097, 50.47892
374.3918, 50.00366
374.8739, 50.07377
375.3560, 50.89565
375.8381, 51.31136
376.3203, 51.21537
376.8024, 50.84535
377.2845, 50.55709
377.7666, 50.37621
378.2487, 50.13395
378.7308, 49.69408
379.2130, 49.12412
379.6951, 48.99660
380.1772, 49.37737
380.6593, 49.85369
381.1414, 50.05206
381.6235, 49.99365
382.1057, 49.88351
382.5878, 49.74717
383.0699, 49.60302
383.5520, 49.42440
384.0341, 49.22767
384.5162, 49.19422
384.9984, 49.68432
385.4805, 50.38828
385.9626, 50.55328
386.4447, 50.02562
386.9268, 49.38812
387.4089, 49.19499
387.8911, 49.34391
388.3732, 49.61029
388.8553, 50.06141
389.3374, 50.47821
389.8195, 50.63820
390.3016, 50.54475
390.7838, 50.32619
391.2659, 49.92283
391.7480, 49.49458
392.2301, 49.20342
392.7122, 49.07616
393.1943, 49.11798
393.6765, 49.50636
394.1586, 50.09352
394.6407, 50.45233
395.1228, 50.26660
395.6049, 49.95607
396.0870, 49.71724
396.5692, 49.58643
397.0513, 49.48997
397.5334, 49.44747
398.0155, 49.42067
398.4976, 49.36230
398.9797, 49.08650
399.4619, 48.97189
399.9440, 49.16951
400.4261, 49.67650
400.9082, 50.03065
401.3903, 50.22314
401.8724, 50.26964
402.3546, 50.15417
402.8367, 49.74989
403.3188, 49.45292
403.8009, 49.25210
404.2830, 49.18564
404.7651, 49.43960
405.2473, 50.19920
405.7294, 50.74003
406.2115, 50.64610
406.6936, 49.89166
407.1757, 49.52611
407.6578, 49.65332
408.1400, 49.88722
408.6221, 49.66469
409.1042, 49.00209
409.5863, 48.68582
410.0684, 49.08039
410.5505, 49.83021
411.0327, 50.05773
411.5148, 49.77778
411.9969, 49.44104
412.4790, 49.38153
412.9611, 49.50277
413.4432, 49.57940
413.9254, 49.58128
414.4075, 49.54060
414.8896, 49.47258
415.3717, 49.38822
415.8538, 49.31352
416.3359, 49.21458
416.8181, 49.16121
417.3002, 49.27248
417.7823, 49.54259
418.2644, 49.73740
418.7465, 49.71131
419.2286, 49.55262
419.7108, 49.33250
420.1929, 48.89707
420.6750, 48.63261
421.1571, 48.80874
421.6392, 49.27625
422.1213, 49.64476
422.6035, 49.81554
423.0856, 49.86173
423.5677, 49.78645
424.0498, 49.54397
424.5319, 49.34990
425.0140, 49.16972
425.4962, 49.06988
425.9783, 49.13372
426.4604, 49.65814
426.9425, 49.90357
427.4246, 49.64428
427.9067, 48.97445
428.3889, 48.56933
428.8710, 48.49332
429.3531, 48.56752
429.8352, 48.70009
430.3173, 48.88415
430.7994, 49.19003
431.2816, 49.69860
431.7637, 50.20017
432.2458, 50.30053
432.7279, 49.97687
433.2100, 49.62225
433.6921, 49.35920
434.1743, 49.17229
434.6564, 49.00309
435.1385, 48.84745
435.6206, 48.75177
436.1027, 48.80109
436.5848, 48.94267
437.0670, 49.01970
437.5491, 48.97669
438.0312, 48.92840
438.5133, 49.02052
438.9954, 49.21656
439.4775, 49.41421
439.9597, 49.66049
440.4418, 49.82321
440.9239, 49.73125
441.4060, 49.37526
441.8881, 49.02273
442.3702, 48.68804
442.8524, 48.49788
443.3345, 48.58120
443.8166, 49.33619
444.2987, 49.94127
444.7808, 50.08084
445.2629, 49.86952
445.7451, 49.64207
446.2272, 49.41403
446.7093, 49.23088
447.1914, 49.09045
447.6735, 48.95206
448.1556, 49.00290
448.6378, 49.37386
449.1199, 49.84478
449.6020, 50.20369
450.0841, 50.43780
450.5662, 50.56914
451.0483, 50.57578
451.5305, 50.48271
452.0126, 50.41004
452.4947, 50.37683
452.9768, 50.30348
453.4589, 50.11573
453.9410, 49.80750
454.4232, 49.56327
454.9053, 49.37239
455.3874, 49.28069
455.8695, 49.40996
456.3516, 49.72583
456.8337, 49.97126
457.3159, 50.04956
457.7980, 50.02355
458.2801, 49.96363
458.7622, 49.88222
459.2443, 49.86611
459.7264, 50.04800
460.2086, 50.30381
460.6907, 50.44379
461.1728, 50.40953
461.6549, 50.40961
462.1370, 50.69777
462.6191, 51.09337
463.1013, 51.32436
463.5834, 51.10919
464.0655, 50.87666
464.5476, 50.78364
465.0297, 50.83219
465.5118, 51.00264
465.9940, 51.50587
466.4761, 51.96918
466.9582, 52.17582
467.4403, 51.94211
467.9224, 51.74932
468.4045, 51.57262
468.8867, 51.45729
469.3688, 51.47466
469.8509, 51.67694
470.3330, 51.92145
470.8151, 52.20041
471.2972, 52.50486
471.7794, 52.76422
472.2615, 53.02641
472.7436, 53.12071
473.2257, 52.76660
473.7078, 51.94881
474.1899, 51.67361
474.6721, 52.11074
475.1542, 52.83818
475.6363, 53.29547
476.1184, 53.50132
476.6005, 53.56995
477.0826, 53.47053
477.5648, 53.30660
478.0469, 53.20252
478.5290, 53.16730
479.0111, 53.28374
479.4932, 53.79415
479.9753, 54.41000
480.4575, 54.74994
480.9396, 54.65866
481.4217, 54.58256
481.9038, 54.84457
482.3859, 55.28423
482.8680, 55.66368
483.3502, 55.83403
483.8323, 55.99879
484.3144, 56.26302
484.7965, 56.61363
485.2786, 56.87523
485.7607, 56.84542
486.2429, 56.85619
486.7250, 57.10151
487.2071, 57.82058
487.6892, 58.24445
488.1713, 58.24044
488.6534, 58.03465
489.1356, 57.94161
489.6177, 57.97116
490.0998, 58.09428
490.5819, 58.32464
491.0640, 58.64482
491.5461, 59.00406
492.0283, 59.42998
492.5104, 59.71778
492.9925, 59.61352
493.4746, 59.21174
493.9567, 59.01302
494.4388, 59.06261
494.9210, 59.24657
495.4031, 59.52625
495.8852, 59.84023
496.3673, 60.04194
496.8494, 60.05300
497.3315, 59.94499
497.8137, 59.69799
498.2958, 59.36028
498.7779, 59.14336
499.2600, 59.36341
499.7421, 59.59851
500.2242, 59.51749
500.7064, 59.00476
501.1885, 58.51833
501.6706, 58.25736
502.1527, 58.06668
502.6348, 57.79428
503.1169, 57.20290
503.5991, 56.79651
504.0812, 56.74733
504.5633, 56.93663
505.0454, 56.90816
505.5275, 56.54853
506.0096, 56.16714
506.4918, 55.89211
506.9739, 55.73176
507.4560, 55.54259
507.9381, 55.31709
508.4202, 55.08223
508.9023, 54.86814
509.3845, 54.67321
509.8666, 54.47394
510.3487, 54.27216
510.8308, 54.05310
511.3129, 53.74849
511.7950, 53.38779
512.2772, 53.10771
512.7593, 53.06389
513.2414, 53.09649
513.7235, 52.97853
514.2056, 52.71441
514.6877, 52.50050
515.1699, 52.57507
515.6520, 52.69828
516.1341, 52.61766
516.6162, 52.09945
517.0983, 51.72430
517.5804, 51.81355
518.0626, 52.13820
518.5447, 52.32296
519.0268, 52.17069
519.5089, 52.01748
519.9910, 51.91731
520.4731, 51.87111
520.9553, 51.92539
521.4374, 52.18702
521.9195, 52.38973
522.4016, 52.34618
522.8837, 51.98488
523.3658, 51.76699
523.8480, 51.72121
524.3301, 51.76803
524.8122, 51.81820
525.2943, 51.87138
525.7764, 51.92312
526.2585, 51.99331
526.7407, 52.03785
527.2228, 51.94215
527.7049, 51.72957
528.1870, 51.53940
528.6691, 51.44500
529.1512, 51.42231
529.6334, 51.47947
530.1155, 51.62101
530.5976, 51.69727
531.0797, 51.45312
531.5618, 51.17719
532.0439, 51.17318
532.5261, 51.80973
533.0082, 52.30006
533.4903, 52.36734
533.9724, 52.16302
534.4545, 52.01304
534.9366, 51.99862
535.4188, 51.98326
535.9009, 51.96294
536.3830, 51.93560
536.8651, 51.76684
537.3472, 51.38495
537.8293, 51.00605
538.3115, 50.78416
538.7936, 50.73086
539.2757, 50.68208
539.7578, 50.62562
540.2399, 50.58833
540.7220, 50.59233
541.2042, 50.64225
541.6863, 50.77865
542.1684, 51.09203
542.6505, 51.40588
543.1326, 51.40097
543.6147, 51.15580
544.0969, 50.97085
544.5790, 51.07977
545.0611, 51.28623
545.5432, 51.45684
546.0253, 51.58158
546.5074, 51.61980
546.9896, 51.42488
547.4717, 51.20829
547.9538, 51.14278
548.4359, 51.38118
548.9180, 51.60513
549.4001, 51.85424
549.8823, 52.05727
550.3644, 52.07307
550.8465, 51.77439
551.3286, 51.53141
551.8107, 51.45610
552.2928, 51.52019
552.7750, 51.50203
553.2571, 51.38108
553.7392, 51.27930
554.2213, 51.25401
554.7034, 51.30981
555.1855, 51.53244
555.6677, 51.95549
556.1498, 52.32240
556.6319, 52.27052
557.1140, 51.96895
557.5961, 51.75349
558.0782, 51.68924
558.5604, 51.79309
559.0425, 52.31384
559.5246, 53.01249
560.0067, 53.35085
560.4888, 52.62843
560.9709, 51.92933
561.4531, 51.81223
561.9352, 52.29368
562.4173, 52.70458
562.8994, 53.04694
563.3815, 53.21874
563.8636, 53.12573
564.3458, 52.56920
564.8279, 52.30689
565.3100, 52.44483
565.7921, 52.74020
566.2742, 52.86537
566.7563, 52.79734
567.2385, 52.81281
567.7206, 53.02145
568.2027, 53.28298
568.6848, 53.23094
569.1669, 52.90701
569.6490, 52.62710
570.1312, 52.56549
570.6133, 52.64499
571.0954, 52.79974
571.5775, 53.02128
572.0596, 53.18795
572.5417, 53.22522
573.0239, 53.17382
573.5060, 53.04198
573.9881, 52.76299
574.4702, 52.59143
574.9523, 52.67930
575.4344, 52.88762
575.9166, 53.03954
576.3987, 53.07848
576.8808, 53.12292
577.3629, 53.20630
577.8450, 53.30214
578.3271, 53.30342
578.8093, 53.15788
579.2914, 53.07201
579.7735, 52.75797
580.2556, 53.29934
580.7377, 53.61576
581.2198, 53.71934
581.7020, 52.97256
582.1841, 53.32384
582.6662, 53.23507
583.1483, 53.12825
583.6304, 53.63408
584.1125, 53.01097
584.5947, 53.50710
585.0768, 53.55644
585.5589, 53.81026
586.0410, 53.62131
586.5231, 53.56911
587.0052, 53.95984
587.4874, 54.10532
587.9695, 53.86539
