##NAMES=Heterogenite
##RRUFFID=R050382
##IDEAL CHEMISTRY=Co^3+^O(OH)
##LOCALITY=Goodsprings, Nevada, USA
##OWNER=RRUFF
##SOURCE=University of Arizona Mineral Museum
##DESCRIPTION=Black massive, polytype 3R
##STATUS=The identification of this mineral has been confirmed by X-ray diffraction and chemical analysis
##URL=rruff.info/R050382
##MEASURED CHEMISTRY=(Co^3+^_0.90_Ni_0.03_As^5+^_0.03_Zn_0.03_Al_0.01_)_Î£=1_O(OH)
92.52344, 109.3865
93.00555, 112.2271
93.48767, 112.0182
93.96979, 108.3888
94.45190, 105.5380
94.93402, 103.0372
95.41614, 100.0269
95.89825, 97.82935
96.38037, 97.58266
96.86249, 98.24507
97.34460, 96.40273
97.82672, 90.40424
98.30884, 84.71127
98.79095, 79.70415
99.27307, 75.38005
99.75519, 71.95516
100.2373, 69.88062
100.7194, 69.06082
101.2015, 68.41157
101.6837, 68.49099
102.1658, 68.29837
102.6479, 66.81826
103.1300, 63.92115
103.6121, 61.03343
104.0942, 59.61359
104.5764, 58.90290
105.0585, 57.74798
105.5406, 54.73418
106.0227, 50.86050
106.5048, 49.45506
106.9869, 52.15881
107.4691, 55.11395
107.9512, 56.90866
108.4333, 57.51976
108.9154, 56.99305
109.3975, 55.10450
109.8796, 51.60349
110.3618, 48.36027
110.8439, 45.01280
111.3260, 42.17736
111.8081, 40.35200
112.2902, 39.49456
112.7723, 39.06613
113.2544, 38.31614
113.7366, 36.95481
114.2187, 35.79691
114.7008, 34.75591
115.1829, 33.93066
115.6650, 33.51714
116.1471, 33.58867
116.6293, 33.88054
117.1114, 33.75581
117.5935, 33.09996
118.0756, 32.33360
118.5577, 31.34802
119.0398, 30.30262
119.5220, 29.57684
120.0041, 29.37826
120.4862, 29.62014
120.9683, 30.00112
121.4504, 30.58399
121.9325, 31.19500
122.4147, 31.76427
122.8968, 32.30670
123.3789, 32.62339
123.8610, 32.42653
124.3431, 32.00211
124.8252, 31.59670
125.3074, 31.29157
125.7895, 31.03903
126.2716, 30.75024
126.7537, 30.45275
127.2358, 30.05953
127.7179, 29.38055
128.2001, 28.64054
128.6822, 28.15105
129.1643, 28.14905
129.6464, 28.58427
130.1285, 28.81235
130.6107, 28.88475
131.0928, 28.67511
131.5749, 27.92165
132.0570, 26.82667
132.5391, 25.80914
133.0212, 25.25573
133.5034, 25.24848
133.9855, 25.17546
134.4676, 24.98022
134.9497, 24.77920
135.4318, 24.61555
135.9139, 24.50176
136.3960, 24.46357
136.8782, 24.57853
137.3603, 24.91098
137.8424, 24.98231
138.3245, 24.48285
138.8066, 23.81656
139.2887, 23.53920
139.7709, 23.85024
140.2530, 24.24620
140.7351, 23.94400
141.2172, 23.01524
141.6993, 22.29333
142.1814, 22.30676
142.6636, 22.85895
143.1457, 23.22396
143.6278, 23.20516
144.1099, 22.98214
144.5920, 22.68151
145.0741, 22.31292
145.5563, 21.98624
146.0384, 21.81604
146.5205, 21.82077
147.0026, 21.82630
147.4847, 21.88091
147.9668, 21.87536
148.4490, 21.69941
148.9311, 21.34328
149.4132, 20.94171
149.8953, 20.72031
150.3774, 20.82925
150.8595, 20.80717
151.3417, 20.47042
151.8238, 20.09390
152.3059, 19.90283
152.7880, 19.98076
153.2701, 20.24313
153.7522, 20.47791
154.2344, 20.73271
154.7165, 20.89162
155.1986, 20.95677
155.6807, 20.92343
156.1628, 20.75236
156.6449, 20.41071
157.1271, 19.96484
157.6092, 19.69564
158.0913, 19.75916
158.5734, 19.78626
159.0555, 19.64535
159.5376, 19.38438
160.0198, 19.12275
160.5019, 18.91290
160.9840, 18.76441
161.4661, 18.68152
161.9482, 18.67242
162.4303, 18.71432
162.9125, 18.83280
163.3946, 19.02283
163.8767, 19.15611
164.3588, 19.11246
164.8409, 18.97196
165.3230, 18.86908
165.8052, 18.82788
166.2873, 18.83155
166.7694, 18.89554
167.2515, 19.06730
167.7336, 19.13272
168.2157, 18.80436
168.6979, 18.36307
169.1800, 18.16290
169.6621, 18.42548
170.1442, 18.97385
170.6263, 19.30346
171.1084, 19.28462
171.5906, 19.23667
172.0727, 19.30794
172.5548, 19.41324
173.0369, 19.42006
173.5190, 19.22657
174.0011, 18.86657
174.4833, 18.62626
174.9654, 18.62362
175.4475, 18.63507
175.9296, 18.59169
176.4117, 18.52842
176.8938, 18.52230
177.3760, 18.64051
177.8581, 18.88834
178.3402, 19.05259
178.8223, 19.07119
179.3044, 19.07762
179.7865, 19.16323
180.2687, 19.28835
180.7508, 19.31929
181.2329, 19.12011
181.7150, 18.65894
182.1971, 18.37878
182.6792, 18.38595
183.1614, 18.45599
183.6435, 18.46561
184.1256, 18.40866
184.6077, 18.35235
185.0898, 18.37872
185.5719, 18.48898
186.0541, 18.46364
186.5362, 18.11413
187.0183, 17.73292
187.5004, 17.60714
187.9825, 17.77373
188.4646, 18.04978
188.9468, 18.34780
189.4289, 18.64006
189.9110, 18.79165
190.3931, 18.64398
190.8752, 18.37540
191.3573, 18.28638
191.8395, 18.45668
192.3216, 18.64128
192.8037, 18.65844
193.2858, 18.54948
193.7679, 18.38821
194.2500, 18.18339
194.7322, 17.94934
195.2143, 17.71164
195.6964, 17.40403
196.1785, 17.21259
196.6606, 17.23932
197.1427, 17.43586
197.6249, 17.70496
198.1070, 18.06376
198.5891, 18.48116
199.0712, 18.62799
199.5533, 18.27845
200.0354, 17.88345
200.5176, 17.53621
200.9997, 17.27615
201.4818, 17.17641
201.9639, 17.36153
202.4460, 17.84643
202.9281, 18.03522
203.4103, 17.59852
203.8924, 17.14443
204.3745, 16.77234
204.8566, 16.52436
205.3387, 16.45795
205.8208, 16.65169
206.3030, 17.15146
206.7851, 17.48691
207.2672, 17.53293
207.7493, 17.55244
208.2314, 17.68710
208.7135, 17.89999
209.1957, 18.03127
209.6778, 17.91051
210.1599, 17.47610
210.6420, 17.29367
211.1241, 17.55583
211.6062, 17.84942
212.0884, 17.98671
212.5705, 17.95509
213.0526, 17.80668
213.5347, 17.54670
214.0168, 17.15122
214.4989, 17.02899
214.9811, 17.40971
215.4632, 17.85947
215.9453, 18.09815
216.4274, 18.11177
216.9095, 18.04704
217.3916, 18.02086
217.8737, 18.03371
218.3559, 18.02393
218.8380, 18.04745
219.3201, 18.01152
219.8022, 17.75895
220.2843, 17.27878
220.7664, 16.87569
221.2486, 16.83879
221.7307, 17.10062
222.2128, 17.35615
222.6949, 17.59703
223.1770, 17.79532
223.6591, 17.90157
224.1413, 17.90418
224.6234, 17.89034
225.1055, 17.97124
225.5876, 18.07621
226.0697, 18.05822
226.5518, 17.76083
227.0340, 17.38056
227.5161, 17.23784
227.9982, 17.39899
228.4803, 17.56776
228.9624, 17.50940
229.4445, 17.36556
229.9267, 17.33851
230.4088, 17.57622
230.8909, 17.90930
231.3730, 17.97168
231.8551, 17.62808
232.3372, 17.35745
232.8194, 17.40692
233.3015, 17.61776
233.7836, 17.82799
234.2657, 17.98994
234.7478, 18.08375
235.2299, 18.04375
235.7121, 17.78492
236.1942, 17.56130
236.6763, 17.43944
237.1584, 17.38757
237.6405, 17.38743
238.1227, 17.43923
238.6048, 17.50839
239.0869, 17.48739
239.5690, 17.24576
240.0511, 17.15292
240.5332, 17.40462
241.0154, 17.75889
241.4975, 17.98361
241.9796, 17.98020
242.4617, 17.80025
242.9438, 17.55165
243.4259, 17.08302
243.9081, 16.79690
244.3902, 16.83142
244.8723, 17.00213
245.3544, 17.13243
245.8365, 17.15450
246.3186, 17.12878
246.8008, 17.20527
247.2829, 17.58269
247.7650, 17.76229
248.2471, 17.59610
248.7292, 17.30247
249.2113, 17.05865
249.6935, 16.93032
250.1756, 16.89849
250.6577, 16.93142
251.1398, 17.12304
251.6219, 17.24187
252.1040, 17.30415
252.5862, 17.28885
253.0683, 17.09718
253.5504, 16.72205
254.0325, 16.36816
254.5146, 16.39454
254.9967, 17.20572
255.4789, 17.64183
255.9610, 17.40476
256.4431, 16.96868
256.9252, 16.76177
257.4073, 16.87899
257.8894, 17.09787
258.3716, 17.10962
258.8537, 16.77793
259.3358, 16.59776
259.8179, 16.69065
260.3000, 16.86147
260.7821, 16.93916
261.2643, 16.89522
261.7464, 16.81585
262.2285, 16.80038
262.7106, 16.87180
263.1927, 16.88515
263.6748, 16.77775
264.1570, 16.64978
264.6391, 16.59434
265.1212, 16.61863
265.6033, 16.65363
266.0854, 16.62942
266.5675, 16.54317
267.0497, 16.49663
267.5318, 16.45604
268.0139, 16.48084
268.4960, 16.69066
268.9781, 17.07480
269.4602, 17.38382
269.9424, 17.41899
270.4245, 17.19278
270.9066, 16.94813
271.3887, 16.57315
271.8708, 16.26914
272.3529, 16.23509
272.8351, 16.45293
273.3172, 16.69776
273.7993, 16.86017
274.2814, 16.93718
274.7635, 16.95631
275.2456, 16.87477
275.7278, 16.78349
276.2099, 16.74780
276.6920, 16.76233
277.1741, 16.78714
277.6562, 16.82154
278.1383, 16.84031
278.6205, 16.78991
279.1026, 16.62035
279.5847, 16.48827
280.0668, 16.54740
280.5489, 16.75999
281.0310, 16.89392
281.5132, 16.83540
281.9953, 16.68991
282.4774, 16.59785
282.9595, 16.55483
283.4416, 16.58398
283.9237, 16.77043
284.4059, 17.06134
284.8880, 17.23089
285.3701, 17.19958
285.8522, 17.05515
286.3343, 16.84702
286.8164, 16.58050
287.2986, 16.41908
287.7807, 16.55624
288.2628, 16.88082
288.7449, 17.00823
289.2270, 16.80938
289.7091, 16.54342
290.1913, 16.42202
290.6734, 16.41516
291.1555, 16.41968
291.6376, 16.37912
292.1197, 16.31711
292.6018, 16.29172
293.0840, 16.31466
293.5661, 16.35375
294.0482, 16.42857
294.5303, 16.50238
295.0124, 16.49387
295.4945, 16.29740
295.9767, 16.03950
296.4588, 15.97173
296.9409, 16.14955
297.4230, 16.32754
297.9051, 16.37037
298.3872, 16.34270
298.8694, 16.31330
299.3515, 16.30297
299.8336, 16.29594
300.3157, 16.24186
300.7978, 16.11627
301.2799, 16.09355
301.7621, 16.38458
302.2442, 16.73630
302.7263, 16.91987
303.2084, 16.88215
303.6905, 16.74824
304.1726, 16.62708
304.6548, 16.51891
305.1369, 16.42103
305.6190, 16.29540
306.1011, 16.21534
306.5832, 16.26927
307.0653, 16.45652
307.5475, 16.63003
308.0296, 16.67671
308.5117, 16.60260
308.9938, 16.46653
309.4759, 16.20248
309.9580, 15.96617
310.4402, 15.88768
310.9223, 15.93151
311.4044, 15.95929
311.8865, 15.81628
312.3686, 15.56922
312.8507, 15.53787
313.3329, 15.86124
313.8150, 16.16933
314.2971, 16.28488
314.7792, 16.24850
315.2613, 16.12576
315.7434, 15.92449
316.2256, 15.66892
316.7077, 15.36909
317.1898, 14.94355
317.6719, 14.70078
318.1540, 14.88463
318.6361, 15.27493
319.1183, 15.68804
319.6004, 16.11576
320.0825, 16.42511
320.5646, 16.35595
321.0467, 15.83113
321.5288, 15.41962
322.0110, 15.32718
322.4931, 15.41413
322.9752, 15.66345
323.4573, 16.07895
323.9394, 16.40372
324.4215, 16.30092
324.9037, 15.78293
325.3858, 15.45663
325.8679, 15.56661
326.3500, 15.76419
326.8321, 15.79033
327.3142, 15.66317
327.7964, 15.53702
328.2785, 15.52016
328.7606, 15.59285
329.2427, 15.66545
329.7248, 15.75342
330.2069, 15.80427
330.6891, 15.75302
331.1712, 15.64601
331.6533, 15.58359
332.1354, 15.63680
332.6175, 15.74976
333.0996, 15.80942
333.5818, 15.80612
334.0639, 15.78104
334.5460, 15.68736
335.0281, 15.60658
335.5102, 15.66849
335.9923, 15.96870
336.4745, 16.27675
336.9566, 16.27679
337.4387, 15.94711
337.9208, 15.68073
338.4029, 15.64619
338.8850, 15.70575
339.3671, 15.75728
339.8492, 15.79916
340.3314, 15.74713
340.8135, 15.42406
341.2956, 14.89854
341.7777, 14.64308
342.2598, 14.86311
342.7419, 15.20432
343.2241, 15.36249
343.7062, 15.36664
344.1883, 15.35016
344.6704, 15.42541
345.1525, 15.51657
345.6346, 15.40435
346.1168, 14.99415
346.5989, 14.65117
347.0810, 14.75337
347.5631, 15.09880
348.0452, 15.34397
348.5273, 15.34310
349.0095, 15.25833
349.4916, 15.27122
349.9737, 15.38365
350.4558, 15.51339
350.9379, 15.68058
351.4200, 15.80206
351.9022, 15.73667
352.3843, 15.41244
352.8664, 15.08451
353.3485, 14.90649
353.8306, 14.86225
354.3127, 14.91806
354.7949, 15.13326
355.2770, 15.32991
355.7591, 15.21081
356.2412, 14.78119
356.7233, 14.48850
357.2054, 14.61894
357.6876, 14.94558
358.1697, 15.09112
358.6518, 14.98860
359.1339, 14.84428
359.6160, 14.85606
360.0981, 14.98812
360.5803, 15.04375
361.0624, 14.90471
361.5445, 14.75213
362.0266, 14.73930
362.5087, 14.85668
362.9908, 15.01492
363.4730, 15.18362
363.9551, 15.34719
364.4372, 15.47155
364.9193, 15.59369
365.4014, 15.62319
365.8835, 15.43154
366.3657, 15.12951
366.8478, 14.97109
367.3299, 15.06508
367.8120, 15.22517
368.2941, 15.10828
368.7762, 14.60325
369.2584, 14.32864
369.7405, 14.58822
370.2226, 14.98871
370.7047, 15.11737
371.1868, 14.93397
371.6689, 14.70865
372.1511, 14.68041
372.6332, 14.86193
373.1153, 15.03442
373.5974, 15.23043
374.0795, 15.38890
374.5616, 15.49647
375.0438, 15.54434
375.5259, 15.49872
376.0080, 15.32791
376.4901, 15.08212
376.9722, 14.94208
377.4543, 15.06756
377.9365, 15.09166
378.4186, 14.86802
378.9007, 14.57365
379.3828, 14.41455
379.8649, 14.44400
380.3470, 14.55412
380.8292, 14.58859
381.3113, 14.48727
381.7934, 14.49788
382.2755, 14.75216
382.7576, 14.98942
383.2397, 15.00627
383.7219, 14.85632
384.2040, 14.76716
384.6861, 14.93991
385.1682, 15.34607
385.6503, 15.52040
386.1324, 15.18174
386.6146, 14.91272
387.0967, 14.82212
387.5788, 14.85522
388.0609, 14.96093
388.5430, 15.11621
389.0251, 15.27017
389.5073, 15.32879
389.9894, 15.31228
390.4715, 15.14196
390.9536, 14.58305
391.4357, 14.06880
391.9178, 13.88837
392.4000, 14.05411
392.8821, 14.38819
393.3642, 14.79573
393.8463, 15.28849
394.3284, 15.44151
394.8105, 14.93860
395.2927, 14.44446
395.7748, 14.14243
396.2569, 14.00970
396.7390, 14.00139
397.2211, 14.11378
397.7032, 14.29878
398.1854, 14.45131
398.6675, 14.56619
399.1496, 14.66583
399.6317, 14.81945
400.1138, 14.92198
400.5959, 14.84581
401.0781, 14.57466
401.5602, 14.30078
402.0423, 14.21380
402.5244, 14.29780
403.0065, 14.37407
403.4886, 14.40847
403.9708, 14.45390
404.4529, 14.61956
404.9350, 14.83505
405.4171, 14.89078
405.8992, 14.54904
406.3813, 14.07123
406.8635, 13.91121
407.3456, 14.10635
407.8277, 14.26900
408.3098, 14.14816
408.7919, 13.90787
409.2740, 13.83307
409.7562, 13.98699
410.2383, 14.18087
410.7204, 14.31877
411.2025, 14.40817
411.6846, 14.47375
412.1667, 14.52346
412.6489, 14.54683
413.1310, 14.53186
413.6131, 14.48135
414.0952, 14.38456
414.5773, 14.10243
415.0594, 13.86540
415.5416, 13.96509
416.0237, 14.37207
416.5058, 14.74071
416.9879, 14.84806
417.4700, 14.72803
417.9521, 14.57281
418.4343, 14.29160
418.9164, 14.08847
419.3985, 14.05129
419.8806, 14.11616
420.3627, 14.21133
420.8448, 14.31268
421.3270, 14.38484
421.8091, 14.36933
422.2912, 14.22259
422.7733, 14.10918
423.2554, 13.96148
423.7375, 13.90121
424.2197, 14.09007
424.7018, 14.44828
425.1839, 14.72647
425.6660, 14.73852
426.1481, 14.52288
426.6302, 14.33830
427.1124, 14.19437
427.5945, 14.07585
428.0766, 13.94751
428.5587, 13.85994
429.0408, 13.85222
429.5229, 13.93960
430.0051, 14.13019
430.4872, 14.51713
430.9693, 15.23549
431.4514, 15.57861
431.9335, 15.09659
432.4156, 14.60844
432.8978, 14.45856
433.3799, 14.57199
433.8620, 14.69724
434.3441, 14.67606
434.8262, 14.56160
435.3083, 14.50759
435.7905, 14.53095
436.2726, 14.56882
436.7547, 14.65077
437.2368, 14.70927
437.7189, 14.62860
438.2010, 14.37204
438.6832, 14.19814
439.1653, 14.43547
439.6474, 14.98660
440.1295, 15.30725
440.6116, 15.24896
441.0938, 15.07130
441.5759, 14.95228
442.0580, 14.88829
442.5401, 14.88618
443.0222, 15.01050
443.5043, 15.15469
443.9865, 15.19725
444.4686, 15.14920
444.9507, 15.12470
445.4328, 15.20245
445.9149, 15.30948
446.3970, 15.23696
446.8792, 14.85243
447.3613, 14.68639
447.8434, 15.07646
448.3255, 15.67395
448.8076, 16.05657
449.2897, 16.15452
449.7719, 16.12737
450.2540, 16.11949
450.7361, 16.13331
451.2182, 16.09794
451.7003, 16.01763
452.1824, 15.89264
452.6646, 15.62202
453.1467, 15.32753
453.6288, 15.21946
454.1109, 15.39021
454.5930, 15.74082
455.0751, 16.09558
455.5573, 16.56173
456.0394, 16.80667
456.5215, 16.64462
457.0036, 16.45699
457.4857, 16.52090
457.9678, 16.78117
458.4500, 16.96701
458.9321, 16.83872
459.4142, 16.47343
459.8963, 16.33762
460.3784, 16.55837
460.8605, 16.78916
461.3427, 16.91107
461.8248, 17.01250
462.3069, 17.23290
462.7890, 17.60601
463.2711, 17.89491
463.7532, 17.72992
464.2354, 17.15955
464.7175, 16.91186
465.1996, 17.20233
465.6817, 17.61884
466.1638, 17.91660
466.6459, 18.10975
467.1281, 18.21920
467.6102, 18.19245
468.0923, 18.13764
468.5744, 18.15553
469.0565, 18.24602
469.5386, 18.42155
470.0208, 18.72553
470.5029, 19.06824
470.9850, 19.31225
471.4671, 19.48447
471.9492, 19.48772
472.4313, 19.06945
472.9135, 18.60278
473.3956, 18.51281
473.8777, 18.81938
474.3598, 19.27743
474.8419, 19.73936
475.3240, 20.18781
475.8062, 20.43328
476.2883, 20.36358
476.7704, 20.26097
477.2525, 20.08320
477.7346, 19.94578
478.2167, 20.02636
478.6989, 20.35539
479.1810, 20.74637
479.6631, 20.94286
480.1452, 20.87105
480.6273, 20.97932
481.1094, 21.61249
481.5916, 22.07020
482.0737, 21.96706
482.5558, 21.55650
483.0379, 21.27532
483.5200, 21.33088
484.0021, 21.62499
484.4843, 22.01046
484.9664, 22.52551
485.4485, 22.96222
485.9306, 23.24933
486.4127, 23.46772
486.8948, 23.71360
487.3770, 23.96054
487.8591, 24.05221
488.3412, 23.75442
488.8233, 23.28634
489.3054, 23.08130
489.7875, 23.15955
490.2697, 23.35126
490.7518, 23.65870
491.2339, 23.97690
491.7160, 24.09460
492.1981, 23.93396
492.6802, 23.79991
493.1624, 23.87389
493.6445, 24.03398
494.1266, 24.08630
494.6087, 24.00002
495.0908, 23.89237
495.5729, 23.87980
496.0551, 23.95911
496.5372, 23.91453
497.0193, 23.64926
497.5014, 23.39326
497.9835, 23.28968
498.4656, 23.21183
498.9478, 22.91941
499.4299, 22.35049
499.9120, 21.75653
500.3941, 21.53497
500.8762, 21.82343
501.3583, 21.92989
501.8405, 21.71400
502.3226, 21.45801
502.8047, 21.24783
503.2868, 21.07156
503.7689, 20.90017
504.2510, 20.72091
504.7331, 20.52777
505.2152, 20.30023
505.6974, 20.02830
506.1795, 19.77938
506.6616, 19.55737
507.1437, 19.37622
507.6258, 19.22669
508.1079, 19.11647
508.5901, 19.09104
509.0722, 19.26355
509.5543, 19.48819
510.0364, 19.53955
510.5185, 19.41847
511.0006, 19.26953
511.4828, 19.17479
511.9649, 19.07790
512.4470, 18.83529
512.9291, 18.38118
513.4113, 18.02657
513.8934, 17.90717
514.3755, 17.89362
514.8576, 17.81719
515.3397, 17.68587
515.8218, 17.70418
516.3040, 18.07282
516.7861, 18.70101
517.2682, 18.92649
517.7503, 18.27430
518.2324, 17.80535
518.7145, 17.72860
519.1967, 17.80603
519.6788, 17.85073
520.1609, 17.80842
520.6430, 17.66780
521.1251, 17.35446
521.6072, 16.88073
522.0894, 16.75734
522.5715, 17.25476
523.0536, 17.67554
523.5357, 17.72652
524.0178, 17.60687
524.4999, 17.55966
524.9821, 17.65553
525.4642, 17.72366
525.9463, 17.52753
526.4284, 17.15029
526.9105, 16.99300
527.3926, 17.16779
527.8748, 17.39581
528.3569, 17.46257
528.8390, 17.40518
529.3211, 17.35319
529.8032, 17.29531
530.2853, 17.27236
530.7675, 17.33372
531.2496, 17.44135
531.7317, 17.53088
532.2138, 17.58429
532.6959, 17.58794
533.1780, 17.51782
533.6602, 17.35743
534.1423, 17.22413
534.6244, 17.15114
535.1065, 17.06371
535.5886, 16.90066
536.0707, 16.71482
536.5529, 16.57859
537.0350, 16.52238
537.5171, 16.54310
537.9992, 16.66200
538.4813, 16.91215
538.9634, 17.08869
539.4456, 17.14269
539.9277, 17.16236
540.4098, 17.16814
540.8919, 17.17251
541.3740, 17.20043
541.8561, 17.27253
542.3383, 17.34870
542.8204, 17.37437
543.3025, 17.35464
543.7846, 17.33090
544.2667, 17.29642
544.7488, 17.29406
545.2310, 17.39711
545.7131, 17.59194
546.1952, 17.75765
546.6773, 17.90893
547.1594, 17.99475
547.6415, 17.92378
548.1237, 17.76200
548.6058, 17.66833
549.0879, 17.70702
549.5700, 17.83545
550.0521, 17.99371
550.5342, 18.21413
551.0164, 18.36052
551.4985, 18.39256
551.9806, 18.40316
552.4627, 18.43287
552.9448, 18.47151
553.4269, 18.48632
553.9091, 18.45925
554.3912, 18.42745
554.8733, 18.46153
555.3554, 18.57161
555.8375, 18.67685
556.3196, 18.74371
556.8018, 18.83241
557.2839, 19.08787
557.7660, 19.40158
558.2481, 19.44539
558.7302, 18.89292
559.2123, 18.27355
559.6945, 18.20401
560.1766, 18.56322
560.6587, 18.80685
561.1408, 18.75991
561.6229, 18.57397
562.1050, 18.39739
562.5872, 18.21733
563.0693, 18.21109
563.5514, 18.59131
564.0335, 18.93410
564.5156, 18.95751
564.9977, 18.80267
565.4799, 18.73339
565.9620, 18.85526
566.4441, 19.09854
566.9262, 19.39981
567.4083, 19.85177
567.8904, 19.98128
568.3726, 19.33138
568.8547, 18.82608
569.3368, 18.90516
569.8189, 19.30811
570.3010, 19.59846
570.7831, 19.61384
571.2653, 19.49564
571.7474, 19.37872
572.2295, 19.26669
572.7116, 19.17089
573.1937, 19.06549
573.6758, 19.04904
574.1580, 19.28736
574.6401, 19.69855
575.1222, 19.95931
575.6043, 19.94189
576.0864, 19.87920
576.5685, 19.88645
577.0507, 19.92309
577.5328, 19.91380
578.0149, 19.84208
578.4970, 19.76113
578.9791, 19.73075
579.4612, 19.75397
579.9434, 19.75230
580.4255, 19.61450
580.9076, 19.58553
581.3897, 19.85393
581.8718, 20.17916
582.3539, 20.27625
582.8361, 20.09351
583.3182, 19.83567
583.8003, 19.65459
584.2824, 19.56006
584.7645, 19.66625
585.2466, 20.06644
585.7288, 20.40100
586.2108, 20.44062
586.6929, 20.33138
587.1750, 20.27811
587.6572, 20.30450
588.1393, 20.34400
588.6214, 20.38376
