##NAMES=Heulandite-K
##RRUFFID=R061137
##IDEAL CHEMISTRY=(K,Ca,Na)_5_(Si_27_Al_9_)O_72_&#183;26H_2_O
##LOCALITY=Albero Bassi, Vicenza, Veneto, Italy
##OWNER=RRUFF
##SOURCE=Michael Scott
##DESCRIPTION=Coating of orange grains
##STATUS=The identification of this mineral is not yet confirmed.
##URL=rruff.info/R061137
112.1498, 42.78709
112.6319, 42.81374
113.1140, 45.18905
113.5961, 49.40245
114.0782, 54.00401
114.5603, 57.92571
115.0425, 61.18663
115.5246, 65.14091
116.0067, 70.66929
116.4888, 76.01431
116.9709, 79.78448
117.4530, 82.18748
117.9352, 84.92893
118.4173, 89.44328
118.8994, 95.88457
119.3815, 102.4024
119.8636, 108.9147
120.3457, 115.5302
120.8279, 121.9823
121.3100, 128.2384
121.7921, 135.3701
122.2742, 144.3138
122.7563, 155.0238
123.2384, 167.5732
123.7206, 183.7986
124.2027, 201.2132
124.6848, 215.9438
125.1669, 227.0594
125.6490, 238.1602
126.1311, 253.4601
126.6133, 271.7485
127.0954, 289.0276
127.5775, 302.8551
128.0596, 314.8717
128.5417, 329.4084
129.0238, 348.5060
129.5060, 367.0500
129.9881, 380.6826
130.4702, 390.4807
130.9523, 399.7939
131.4344, 412.0406
131.9165, 425.8460
132.3987, 434.3311
132.8808, 434.6837
133.3629, 432.0403
133.8450, 428.9889
134.3271, 425.8418
134.8092, 423.5583
135.2914, 423.0520
135.7735, 424.2693
136.2556, 425.5624
136.7377, 423.6881
137.2198, 425.2591
137.7019, 434.0017
138.1841, 449.3027
138.6662, 467.9319
139.1483, 486.7151
139.6304, 505.2059
140.1125, 527.1269
140.5946, 557.9814
141.0768, 588.3342
141.5589, 613.3251
142.0410, 633.4434
142.5231, 653.1311
143.0052, 678.0123
143.4873, 710.3665
143.9695, 739.0853
144.4516, 763.2420
144.9337, 785.0238
145.4158, 805.2542
145.8979, 824.1616
146.3800, 841.5718
146.8622, 857.3121
147.3443, 871.1962
147.8264, 883.9171
148.3085, 896.2153
148.7906, 907.0640
149.2727, 915.9811
149.7549, 922.8546
150.2370, 927.8033
150.7191, 930.9367
151.2012, 931.9356
151.6833, 931.5004
152.1654, 928.1103
152.6476, 924.5735
153.1297, 922.7230
153.6118, 922.9361
154.0939, 924.5349
154.5760, 926.6153
155.0581, 929.3970
155.5403, 932.2484
156.0224, 935.0024
156.5045, 937.9197
156.9866, 940.8411
157.4687, 943.8443
157.9508, 947.7076
158.4330, 953.5363
158.9151, 961.9513
159.3972, 971.5918
159.8793, 984.6143
160.3614, 997.6787
160.8435, 1006.876
161.3257, 1011.425
161.8078, 1014.956
162.2899, 1023.026
162.7720, 1038.813
163.2541, 1052.008
163.7362, 1060.750
164.2184, 1067.500
164.7005, 1074.332
165.1826, 1081.803
165.6647, 1090.114
166.1468, 1100.057
166.6289, 1112.972
167.1111, 1123.236
167.5932, 1127.925
168.0753, 1130.719
168.5574, 1136.953
169.0395, 1148.273
169.5216, 1159.152
170.0038, 1160.828
170.4859, 1151.334
170.9680, 1143.162
171.4501, 1137.656
171.9322, 1134.560
172.4143, 1133.575
172.8965, 1134.651
173.3786, 1137.824
173.8607, 1144.922
174.3428, 1156.907
174.8249, 1163.725
175.3070, 1158.912
175.7892, 1149.226
176.2713, 1144.169
176.7534, 1145.911
177.2355, 1150.919
177.7176, 1155.779
178.1997, 1160.583
178.6819, 1164.285
179.1640, 1165.371
179.6461, 1165.565
180.1282, 1167.794
180.6103, 1172.957
181.0924, 1178.655
181.5745, 1182.284
182.0567, 1184.134
182.5388, 1185.004
183.0209, 1183.998
183.5030, 1182.440
183.9851, 1182.775
184.4672, 1185.752
184.9494, 1189.115
185.4315, 1190.230
185.9136, 1189.630
186.3957, 1189.528
186.8778, 1190.393
187.3599, 1192.221
187.8421, 1196.045
188.3242, 1203.092
188.8063, 1208.279
189.2884, 1204.227
189.7705, 1193.906
190.2526, 1186.291
190.7348, 1185.198
191.2169, 1188.199
191.6990, 1192.225
192.1811, 1197.893
192.6632, 1201.801
193.1453, 1198.228
193.6275, 1190.507
194.1096, 1186.501
194.5917, 1192.331
195.0738, 1202.121
195.5559, 1205.548
196.0380, 1200.535
196.5202, 1196.057
197.0023, 1201.220
197.4844, 1211.349
197.9665, 1217.946
198.4486, 1214.682
198.9307, 1208.257
199.4129, 1209.903
199.8950, 1221.517
200.3771, 1233.200
200.8592, 1239.037
201.3413, 1240.960
201.8234, 1240.926
202.3056, 1238.244
202.7877, 1234.846
203.2698, 1234.012
203.7519, 1236.488
204.2340, 1237.482
204.7161, 1231.457
205.1983, 1223.211
205.6804, 1218.875
206.1625, 1220.110
206.6446, 1225.444
207.1267, 1234.881
207.6088, 1249.253
208.0910, 1261.044
208.5731, 1265.318
209.0552, 1265.635
209.5373, 1265.516
210.0194, 1265.010
210.5015, 1265.445
210.9837, 1269.663
211.4658, 1278.058
211.9479, 1283.195
212.4300, 1278.646
212.9121, 1271.495
213.3942, 1268.951
213.8764, 1272.082
214.3585, 1279.195
214.8406, 1291.732
215.3227, 1309.701
215.8048, 1320.962
216.2869, 1315.406
216.7691, 1306.559
217.2512, 1308.819
217.7333, 1324.187
218.2154, 1341.253
218.6975, 1350.558
219.1796, 1352.826
219.6618, 1356.157
220.1439, 1362.819
220.6260, 1370.755
221.1081, 1377.655
221.5902, 1383.490
222.0723, 1390.019
222.5545, 1399.526
223.0366, 1411.112
223.5187, 1420.503
224.0008, 1427.712
224.4829, 1431.079
224.9650, 1427.717
225.4472, 1418.690
225.9293, 1411.432
226.4114, 1412.709
226.8935, 1419.146
227.3756, 1419.213
227.8577, 1408.705
228.3399, 1397.754
228.8220, 1396.761
229.3041, 1402.361
229.7862, 1403.303
230.2683, 1389.453
230.7504, 1368.667
231.2325, 1358.171
231.7147, 1361.384
232.1968, 1366.672
232.6789, 1366.888
233.1610, 1363.245
233.6431, 1357.349
234.1252, 1346.910
234.6074, 1335.796
235.0895, 1329.908
235.5716, 1329.769
236.0537, 1331.681
236.5358, 1334.215
237.0179, 1337.301
237.5001, 1341.206
237.9822, 1348.451
238.4643, 1353.844
238.9464, 1348.925
239.4285, 1333.475
239.9106, 1323.320
240.3928, 1330.388
240.8749, 1345.260
241.3570, 1351.566
241.8391, 1344.787
242.3212, 1336.292
242.8033, 1334.320
243.2855, 1338.224
243.7676, 1343.255
244.2497, 1346.834
244.7318, 1351.865
245.2139, 1364.805
245.6960, 1389.630
246.1782, 1406.639
246.6603, 1402.497
247.1424, 1382.125
247.6245, 1358.454
248.1066, 1332.112
248.5887, 1308.712
249.0709, 1296.923
249.5530, 1296.685
250.0351, 1297.217
250.5172, 1293.705
250.9993, 1288.827
251.4814, 1287.758
251.9636, 1291.949
252.4457, 1297.453
252.9278, 1301.668
253.4099, 1304.543
253.8920, 1301.677
254.3741, 1286.251
254.8563, 1267.921
255.3384, 1256.808
255.8205, 1253.835
256.3026, 1255.605
256.7847, 1261.749
257.2668, 1271.266
257.7490, 1274.221
258.2311, 1262.478
258.7132, 1250.425
259.1953, 1249.683
259.6774, 1258.800
260.1595, 1267.742
260.6417, 1270.410
261.1238, 1268.080
261.6059, 1267.491
262.0880, 1270.581
262.5701, 1273.148
263.0522, 1272.802
263.5344, 1270.691
264.0165, 1269.659
264.4986, 1271.282
264.9807, 1274.080
265.4628, 1273.851
265.9449, 1267.594
266.4271, 1263.854
266.9092, 1267.035
267.3913, 1272.651
267.8734, 1273.501
268.3555, 1267.329
268.8376, 1260.298
269.3198, 1262.390
269.8019, 1281.080
270.2840, 1292.744
270.7661, 1292.801
271.2482, 1288.763
271.7303, 1284.632
272.2125, 1281.845
272.6946, 1283.225
273.1767, 1292.864
273.6588, 1313.484
274.1409, 1325.586
274.6230, 1321.874
275.1052, 1317.663
275.5873, 1320.825
276.0694, 1330.254
276.5515, 1340.500
277.0336, 1347.532
277.5157, 1351.661
277.9979, 1358.221
278.4800, 1371.526
278.9621, 1382.416
279.4442, 1386.263
279.9263, 1387.071
280.4084, 1391.159
280.8906, 1401.796
281.3727, 1416.729
281.8548, 1429.248
282.3369, 1436.926
282.8190, 1445.667
283.3011, 1457.189
283.7833, 1469.185
284.2654, 1479.720
284.7475, 1488.178
285.2296, 1495.364
285.7117, 1501.808
286.1938, 1506.161
286.6760, 1513.738
287.1581, 1523.557
287.6402, 1537.284
288.1223, 1559.393
288.6044, 1587.770
289.0865, 1613.381
289.5687, 1625.132
290.0508, 1622.475
290.5329, 1631.214
291.0150, 1667.637
291.4971, 1697.469
291.9792, 1704.442
292.4614, 1695.828
292.9435, 1686.422
293.4256, 1684.933
293.9077, 1688.548
294.3898, 1688.822
294.8719, 1685.214
295.3541, 1679.319
295.8362, 1670.872
296.3183, 1660.970
296.8004, 1651.472
297.2825, 1643.650
297.7646, 1633.628
298.2468, 1613.040
298.7289, 1580.276
299.2110, 1556.431
299.6931, 1555.250
300.1752, 1559.477
300.6573, 1552.791
301.1395, 1533.795
301.6216, 1512.960
302.1037, 1496.909
302.5858, 1484.738
303.0679, 1473.218
303.5500, 1462.204
304.0321, 1451.091
304.5143, 1438.517
304.9964, 1425.015
305.4785, 1413.532
305.9606, 1406.326
306.4427, 1401.061
306.9248, 1394.592
307.4070, 1386.701
307.8891, 1379.531
308.3712, 1375.725
308.8533, 1373.802
309.3354, 1367.708
309.8175, 1352.030
310.2997, 1337.196
310.7818, 1329.866
311.2639, 1328.401
311.7460, 1327.609
312.2281, 1325.281
312.7102, 1322.173
313.1924, 1320.349
313.6745, 1320.850
314.1566, 1320.274
314.6387, 1316.898
315.1208, 1312.523
315.6029, 1309.215
316.0851, 1307.484
316.5672, 1306.797
317.0493, 1306.405
317.5314, 1306.001
318.0135, 1307.443
318.4956, 1313.564
318.9778, 1318.946
319.4599, 1322.713
319.9420, 1323.316
320.4241, 1316.003
320.9062, 1295.472
321.3883, 1263.514
321.8705, 1246.611
322.3526, 1255.593
322.8347, 1268.051
323.3168, 1286.807
323.7989, 1304.633
324.2810, 1310.872
324.7632, 1300.834
325.2453, 1283.050
325.7274, 1276.991
326.2095, 1292.906
326.6916, 1298.015
327.1737, 1277.502
327.6559, 1255.485
328.1380, 1248.708
328.6201, 1258.615
329.1022, 1274.549
329.5843, 1288.769
330.0664, 1301.511
330.5486, 1304.980
331.0307, 1290.595
331.5128, 1276.944
331.9949, 1275.209
332.4770, 1280.459
332.9591, 1281.372
333.4413, 1268.513
333.9234, 1250.779
334.4055, 1248.717
334.8876, 1266.487
335.3697, 1282.202
335.8518, 1283.335
336.3340, 1278.692
336.8161, 1278.571
337.2982, 1285.731
337.7803, 1293.013
338.2624, 1295.998
338.7445, 1294.728
339.2267, 1288.168
339.7088, 1273.292
340.1909, 1258.100
340.6730, 1252.460
341.1551, 1255.568
341.6372, 1263.134
342.1194, 1281.573
342.6015, 1299.850
343.0836, 1302.474
343.5657, 1288.814
344.0478, 1273.919
344.5299, 1268.929
345.0121, 1273.243
345.4942, 1276.739
345.9763, 1280.607
346.4584, 1282.489
346.9405, 1279.187
347.4226, 1273.475
347.9048, 1271.090
348.3869, 1274.651
348.8690, 1281.376
349.3511, 1285.456
349.8332, 1286.135
350.3153, 1284.914
350.7975, 1281.127
351.2796, 1275.989
351.7617, 1268.888
352.2438, 1260.709
352.7259, 1254.739
353.2080, 1254.255
353.6902, 1259.413
354.1723, 1267.355
354.6544, 1287.214
355.1365, 1300.397
355.6186, 1296.624
356.1007, 1284.100
356.5829, 1276.503
357.0650, 1281.474
357.5471, 1292.561
358.0292, 1294.674
358.5113, 1283.720
358.9934, 1276.193
359.4756, 1278.311
359.9577, 1283.786
360.4398, 1288.786
360.9219, 1292.739
361.4040, 1296.630
361.8861, 1303.492
362.3683, 1311.727
362.8504, 1311.464
363.3325, 1297.722
363.8146, 1283.582
364.2967, 1279.715
364.7788, 1283.153
365.2610, 1287.306
365.7431, 1290.176
366.2252, 1293.090
366.7073, 1298.158
367.1894, 1304.959
367.6715, 1309.951
368.1537, 1310.773
368.6358, 1309.332
369.1179, 1310.278
369.6000, 1314.231
370.0821, 1318.606
370.5642, 1321.142
371.0464, 1324.361
371.5285, 1332.701
372.0106, 1346.741
372.4927, 1361.393
372.9748, 1371.138
373.4569, 1375.180
373.9391, 1378.828
374.4212, 1386.909
374.9033, 1389.868
375.3854, 1376.393
375.8675, 1355.346
376.3496, 1345.698
376.8318, 1358.702
377.3139, 1385.681
377.7960, 1400.927
378.2781, 1397.746
378.7602, 1394.170
379.2423, 1388.177
379.7245, 1385.142
380.2066, 1391.880
380.6887, 1407.905
381.1708, 1423.285
381.6529, 1424.382
382.1350, 1411.809
382.6172, 1414.151
383.0993, 1442.288
383.5814, 1469.255
384.0635, 1480.272
384.5456, 1481.138
385.0277, 1481.909
385.5099, 1485.098
385.9920, 1491.205
386.4741, 1501.955
386.9562, 1517.178
387.4383, 1531.962
387.9204, 1545.004
388.4026, 1556.342
388.8847, 1565.582
389.3668, 1572.407
389.8489, 1579.792
390.3310, 1589.689
390.8131, 1600.251
391.2953, 1607.191
391.7774, 1610.400
392.2595, 1617.095
392.7416, 1633.556
393.2237, 1659.556
393.7058, 1685.627
394.1880, 1715.850
394.6701, 1741.447
395.1522, 1755.807
395.6343, 1764.821
396.1164, 1777.124
396.5985, 1796.060
397.0807, 1819.880
397.5628, 1846.175
398.0449, 1877.747
398.5270, 1905.149
399.0091, 1927.525
399.4912, 1947.288
399.9734, 1964.797
400.4555, 1980.661
400.9376, 1995.912
401.4197, 2010.399
401.9018, 2025.300
402.3839, 2046.298
402.8660, 2077.057
403.3481, 2104.850
403.8303, 2120.239
404.3124, 2133.022
404.7945, 2152.820
405.2766, 2181.987
405.7587, 2213.226
406.2408, 2243.463
406.7230, 2271.466
407.2051, 2292.836
407.6872, 2306.224
408.1693, 2314.526
408.6514, 2320.182
409.1335, 2322.969
409.6157, 2320.872
410.0978, 2310.100
410.5799, 2297.408
411.0620, 2288.922
411.5441, 2282.575
412.0262, 2272.335
412.5084, 2255.626
412.9905, 2232.853
413.4726, 2204.477
413.9547, 2163.950
414.4368, 2129.039
414.9189, 2105.986
415.4011, 2083.867
415.8832, 2053.383
416.3653, 2015.297
416.8474, 1977.253
417.3295, 1945.611
417.8116, 1919.450
418.2938, 1890.156
418.7759, 1852.484
419.2580, 1819.845
419.7401, 1799.710
420.2222, 1783.290
420.7043, 1759.654
421.1865, 1725.800
421.6686, 1693.618
422.1507, 1678.376
422.6328, 1678.421
423.1149, 1673.858
423.5970, 1661.609
424.0792, 1645.634
424.5613, 1626.384
425.0434, 1605.623
425.5255, 1588.888
426.0076, 1579.355
426.4897, 1572.992
426.9719, 1567.885
427.4540, 1563.370
427.9361, 1557.149
428.4182, 1548.907
428.9003, 1536.766
429.3824, 1515.092
429.8646, 1473.824
430.3467, 1449.467
430.8288, 1458.570
431.3109, 1474.597
431.7930, 1478.177
432.2751, 1469.474
432.7573, 1458.411
433.2394, 1452.010
433.7215, 1449.447
434.2036, 1445.724
434.6857, 1440.261
435.1678, 1434.432
435.6500, 1427.021
436.1321, 1420.198
436.6142, 1416.498
437.0963, 1416.125
437.5784, 1415.988
438.0605, 1412.519
438.5427, 1406.211
439.0248, 1401.818
439.5069, 1400.107
439.9890, 1399.065
440.4711, 1397.578
440.9532, 1395.895
441.4354, 1394.416
441.9175, 1392.986
442.3996, 1392.146
442.8817, 1393.273
443.3638, 1395.357
443.8459, 1394.758
444.3281, 1389.925
444.8102, 1385.105
445.2923, 1386.633
445.7744, 1397.107
446.2565, 1399.721
446.7386, 1384.122
447.2208, 1370.566
447.7029, 1373.778
448.1850, 1387.229
448.6671, 1394.747
449.1492, 1387.807
449.6313, 1373.621
450.1135, 1370.068
450.5956, 1383.962
451.0777, 1392.699
451.5598, 1392.184
452.0419, 1388.689
452.5240, 1382.831
453.0062, 1376.613
453.4883, 1375.349
453.9704, 1384.896
454.4525, 1400.460
454.9346, 1410.822
455.4167, 1415.740
455.8989, 1416.680
456.3810, 1412.001
456.8631, 1405.047
457.3452, 1401.382
457.8273, 1402.039
458.3094, 1400.997
458.7916, 1393.935
459.2737, 1384.732
459.7558, 1378.829
460.2379, 1376.606
460.7200, 1374.104
461.2021, 1367.555
461.6843, 1358.235
462.1664, 1356.564
462.6485, 1372.761
463.1306, 1383.340
463.6127, 1383.100
464.0948, 1376.682
464.5770, 1367.451
465.0591, 1356.779
465.5412, 1346.253
466.0233, 1337.519
466.5054, 1330.580
466.9875, 1324.237
467.4697, 1317.987
467.9518, 1313.255
468.4339, 1312.978
468.9160, 1313.475
469.3981, 1308.604
469.8802, 1295.196
470.3624, 1283.363
470.8445, 1285.575
471.3266, 1297.071
471.8087, 1299.372
472.2908, 1287.083
472.7729, 1274.847
473.2551, 1278.678
473.7372, 1297.606
474.2193, 1303.343
474.7014, 1279.606
475.1835, 1260.083
475.6656, 1262.876
476.1478, 1278.774
476.6299, 1292.598
477.1120, 1299.182
477.5941, 1302.507
478.0762, 1309.214
478.5583, 1322.390
479.0405, 1325.124
479.5226, 1297.260
480.0047, 1279.450
480.4868, 1294.809
480.9689, 1327.156
481.4510, 1347.455
481.9332, 1342.140
482.4153, 1328.644
482.8974, 1330.262
483.3795, 1346.390
483.8616, 1363.050
484.3438, 1379.706
484.8259, 1392.527
485.3080, 1395.630
485.7901, 1390.903
486.2722, 1386.613
486.7543, 1382.713
487.2365, 1381.111
487.7186, 1381.554
488.2007, 1385.339
488.6828, 1397.570
489.1649, 1420.625
489.6470, 1446.263
490.1292, 1460.792
490.6113, 1459.405
491.0934, 1461.618
491.5755, 1470.814
492.0576, 1479.701
492.5397, 1483.518
493.0219, 1485.001
493.5040, 1490.526
493.9861, 1503.808
494.4682, 1518.521
494.9503, 1523.432
495.4324, 1517.952
495.9146, 1512.494
496.3967, 1510.163
496.8788, 1506.501
497.3609, 1497.696
497.8430, 1484.525
498.3251, 1469.682
498.8073, 1453.771
499.2894, 1436.598
499.7715, 1416.205
500.2536, 1394.395
500.7357, 1376.406
501.2178, 1364.435
501.6999, 1355.954
502.1820, 1347.405
502.6642, 1338.830
503.1463, 1330.051
503.6284, 1320.993
504.1105, 1311.918
504.5926, 1305.037
505.0747, 1297.797
505.5569, 1284.333
506.0390, 1261.643
506.5211, 1237.217
507.0032, 1223.844
507.4853, 1222.230
507.9674, 1221.192
508.4496, 1221.691
508.9317, 1219.074
509.4138, 1206.875
509.8959, 1188.747
510.3780, 1175.535
510.8601, 1172.253
511.3423, 1172.165
511.8244, 1170.915
512.3065, 1168.979
512.7886, 1167.631
513.2708, 1167.276
513.7529, 1167.212
514.2350, 1166.704
514.7171, 1165.867
515.1992, 1163.770
515.6813, 1159.465
516.1635, 1155.105
516.6456, 1151.445
517.1277, 1148.147
517.6098, 1144.320
518.0919, 1139.691
518.5740, 1135.911
519.0562, 1135.886
519.5383, 1139.429
520.0204, 1140.283
520.5025, 1136.344
520.9846, 1133.152
521.4667, 1136.581
521.9489, 1142.869
522.4310, 1145.013
522.9131, 1142.425
523.3952, 1134.958
523.8773, 1115.738
524.3594, 1093.845
524.8416, 1085.693
525.3237, 1093.755
525.8058, 1106.507
526.2879, 1114.188
526.7700, 1116.926
527.2521, 1117.000
527.7343, 1108.260
528.2164, 1104.648
528.6985, 1113.345
529.1806, 1124.590
529.6627, 1129.431
530.1448, 1126.461
530.6270, 1120.194
531.1091, 1111.617
531.5912, 1102.727
532.0733, 1102.326
532.5554, 1112.285
533.0375, 1120.328
533.5197, 1120.345
534.0018, 1115.357
534.4839, 1110.812
534.9660, 1106.489
535.4481, 1103.411
535.9302, 1101.208
536.4124, 1100.830
536.8945, 1105.120
537.3766, 1112.486
537.8587, 1116.397
538.3408, 1112.426
538.8229, 1104.565
539.3051, 1104.534
539.7872, 1117.136
540.2693, 1126.472
540.7514, 1132.623
541.2335, 1134.011
541.7156, 1127.146
542.1978, 1114.489
542.6799, 1102.925
543.1620, 1095.170
543.6441, 1090.658
544.1262, 1089.928
544.6083, 1092.315
545.0905, 1093.536
545.5726, 1092.218
546.0547, 1090.004
546.5368, 1088.233
547.0189, 1086.761
547.5010, 1088.471
547.9832, 1097.124
548.4653, 1104.667
548.9474, 1108.546
549.4295, 1109.159
549.9116, 1105.939
550.3937, 1099.219
550.8758, 1092.795
551.3579, 1091.151
551.8400, 1094.218
552.3221, 1099.311
552.8043, 1107.072
553.2864, 1115.519
553.7685, 1127.948
554.2506, 1138.772
554.7327, 1139.437
555.2148, 1126.612
555.6970, 1114.454
556.1791, 1110.921
556.6612, 1111.416
557.1433, 1108.540
557.6254, 1102.719
558.1075, 1102.218
558.5897, 1113.244
559.0718, 1131.056
559.5539, 1140.734
560.0360, 1139.102
560.5181, 1134.505
561.0002, 1122.859
561.4824, 1112.581
561.9645, 1110.017
562.4466, 1113.161
562.9287, 1115.517
563.4108, 1113.259
563.8929, 1109.517
564.3751, 1109.252
564.8572, 1111.996
565.3393, 1113.076
565.8214, 1110.548
566.3035, 1108.568
566.7856, 1111.923
567.2678, 1120.703
567.7499, 1127.064
568.2320, 1130.009
568.7141, 1131.680
569.1962, 1133.903
569.6783, 1134.773
570.1605, 1130.241
570.6426, 1120.346
571.1247, 1111.356
571.6068, 1110.105
572.0889, 1115.609
572.5710, 1120.133
573.0532, 1124.174
573.5353, 1126.008
574.0174, 1124.692
574.4995, 1120.970
574.9816, 1113.747
575.4637, 1102.482
575.9459, 1096.776
576.4280, 1106.053
576.9101, 1118.218
577.3922, 1120.288
577.8743, 1114.364
578.3564, 1110.209
578.8386, 1112.336
579.3207, 1117.499
579.8028, 1119.893
580.2849, 1118.633
580.7670, 1117.617
581.2491, 1116.713
581.7313, 1116.217
582.2134, 1115.518
582.6955, 1115.526
583.1776, 1117.751
583.6597, 1122.780
584.1418, 1129.148
584.6240, 1137.227
585.1061, 1145.438
585.5882, 1148.655
586.0703, 1146.197
586.5524, 1144.593
587.0345, 1148.291
587.5167, 1156.020
587.9988, 1163.200
588.4809, 1174.040
588.9630, 1178.143
589.4451, 1168.532
589.9272, 1157.850
590.4094, 1154.750
590.8915, 1158.182
591.3736, 1162.705
591.8557, 1165.538
592.3378, 1167.433
592.8199, 1168.743
593.3021, 1169.599
593.7842, 1174.157
594.2663, 1184.609
594.7484, 1195.480
595.2305, 1202.848
595.7126, 1206.580
596.1948, 1207.355
596.6769, 1198.337
597.1590, 1194.769
597.6411, 1206.426
598.1232, 1222.877
598.6053, 1232.127
599.0875, 1233.262
599.5696, 1233.400
600.0517, 1238.221
600.5338, 1246.355
601.0159, 1252.850
601.4980, 1257.255
601.9802, 1261.680
602.4623, 1265.949
602.9444, 1271.133
603.4265, 1278.005
603.9086, 1286.543
604.3907, 1296.721
604.8729, 1313.496
605.3550, 1326.907
605.8371, 1326.149
606.3192, 1319.035
606.8013, 1321.369
607.2834, 1336.317
607.7656, 1351.905
608.2477, 1354.968
608.7298, 1346.525
609.2119, 1342.448
609.6940, 1345.408
610.1761, 1347.548
610.6583, 1345.271
611.1404, 1342.324
