##NAMES=Heulandite-Ca
##RRUFFID=R050647
##IDEAL CHEMISTRY=(Ca,Na,K)_5_(Si_27_Al_9_)O_72_&#183;26H_2_O
##LOCALITY=Rat's Nest Claim, Custer County, Idaho, USA
##OWNER=RRUFF
##SOURCE=John Cornish
##DESCRIPTION=Pink anhedral grains
##STATUS=The identification of this mineral is confirmed by single-crystal X-ray diffraction and chemical analysis.
##URL=rruff.info/R050647
##MEASURED CHEMISTRY=(Ca_0.69_Na_0.25_K_0.06_)_5_(Si_0.80_Al_0.20_)_36_O_72_Â·24H_2_O
224.3801, 6985.703
226.3086, 7012.510
228.2370, 7015.415
230.1655, 6999.999
232.0940, 7006.840
234.0224, 7041.813
235.9509, 7067.276
237.8794, 7064.817
239.8078, 7067.343
241.7363, 7091.589
243.6648, 7113.523
245.5932, 7102.636
247.5217, 7077.793
249.4502, 7082.063
251.3786, 7119.529
253.3071, 7152.541
255.2356, 7177.120
257.1640, 7189.940
259.0925, 7186.611
261.0210, 7183.364
262.9494, 7191.643
264.8779, 7202.412
266.8064, 7202.580
268.7348, 7191.894
270.6633, 7194.825
272.5918, 7217.602
274.5202, 7231.914
276.4487, 7236.979
278.3772, 7241.502
280.3056, 7244.078
282.2341, 7243.441
284.1626, 7241.021
286.0910, 7241.510
288.0195, 7256.819
289.9480, 7285.149
291.8764, 7311.265
293.8049, 7341.875
295.7334, 7359.017
297.6618, 7338.802
299.5903, 7311.046
301.5188, 7300.533
303.4472, 7308.216
305.3757, 7326.070
307.3042, 7348.322
309.2326, 7356.178
311.1611, 7348.612
313.0896, 7340.134
315.0180, 7327.107
316.9465, 7319.540
318.8750, 7325.940
320.8034, 7338.442
322.7319, 7348.232
324.6604, 7356.304
326.5888, 7358.646
328.5173, 7353.158
330.4458, 7357.179
332.3742, 7383.673
334.3027, 7398.851
336.2312, 7386.014
338.1596, 7369.728
340.0881, 7365.549
342.0166, 7370.080
343.9450, 7376.284
345.8735, 7385.022
347.8020, 7388.693
349.7304, 7372.821
351.6589, 7374.326
353.5874, 7420.617
355.5158, 7451.519
357.4443, 7439.977
359.3728, 7426.080
361.3012, 7435.227
363.2297, 7455.582
365.1582, 7475.153
367.0866, 7497.255
369.0151, 7531.251
370.9436, 7580.302
372.8720, 7618.240
374.8005, 7640.699
376.7290, 7654.626
378.6574, 7656.466
380.5859, 7672.883
382.5144, 7717.053
384.4428, 7766.247
386.3713, 7809.464
388.2998, 7857.745
390.2282, 7911.521
392.1567, 7963.060
394.0852, 7998.870
396.0136, 8017.471
397.9421, 8038.731
399.8706, 8070.831
401.7990, 8096.000
403.7275, 8112.975
405.6560, 8114.604
407.5844, 8093.893
409.5129, 8058.974
411.4414, 8012.810
413.3698, 7957.176
415.2983, 7910.616
417.2268, 7877.356
419.1552, 7819.326
421.0837, 7710.796
423.0122, 7614.179
424.9406, 7545.730
426.8691, 7489.200
428.7976, 7436.873
430.7260, 7389.818
432.6545, 7349.934
434.5830, 7320.958
436.5114, 7299.666
438.4399, 7280.190
440.3684, 7262.959
442.2968, 7252.452
444.2253, 7230.622
446.1538, 7184.312
448.0822, 7158.094
450.0107, 7177.268
451.9392, 7195.544
453.8676, 7175.846
455.7961, 7155.964
457.7246, 7169.900
459.6530, 7202.334
461.5815, 7228.895
463.5100, 7253.423
465.4384, 7279.122
467.3669, 7306.946
469.2954, 7320.195
471.2238, 7306.185
473.1523, 7308.732
475.0808, 7361.345
477.0092, 7407.214
478.9377, 7415.486
480.8662, 7401.316
482.7946, 7378.910
484.7231, 7351.381
486.6516, 7323.934
488.5800, 7296.218
490.5085, 7267.229
492.4370, 7237.500
494.3654, 7198.688
496.2939, 7147.404
498.2224, 7095.335
500.1508, 7043.724
502.0793, 6994.655
504.0078, 6946.788
505.9362, 6904.167
507.8647, 6871.695
509.7932, 6845.102
511.7216, 6820.411
513.6501, 6796.577
515.5786, 6768.012
517.5070, 6735.274
519.4355, 6707.872
521.3640, 6685.529
523.2924, 6674.643
525.2209, 6695.815
527.1494, 6695.832
529.0778, 6645.522
531.0063, 6605.194
532.9348, 6610.014
534.8632, 6620.914
536.7917, 6606.968
538.7202, 6585.734
540.6486, 6573.972
542.5771, 6567.144
544.5056, 6558.912
546.4340, 6551.688
548.3625, 6548.128
550.2910, 6547.378
552.2194, 6542.979
554.1479, 6534.095
556.0764, 6530.218
558.0048, 6536.573
559.9333, 6536.147
561.8618, 6525.232
563.7902, 6504.231
565.7187, 6456.522
567.6472, 6415.350
569.5756, 6416.492
571.5041, 6436.854
573.4326, 6443.470
575.3610, 6442.225
577.2895, 6439.954
579.2180, 6434.084
581.1464, 6423.332
583.0749, 6407.868
585.0034, 6397.035
586.9318, 6390.379
588.8603, 6384.356
590.7888, 6379.191
592.7172, 6383.406
594.6457, 6400.286
596.5742, 6414.674
598.5026, 6419.057
600.4311, 6414.462
602.3596, 6413.335
604.2880, 6426.864
606.2165, 6440.633
608.1450, 6431.035
610.0734, 6423.781
612.0019, 6434.194
613.9304, 6422.695
615.8588, 6377.386
617.7873, 6350.464
619.7158, 6359.299
621.6442, 6358.801
623.5727, 6332.874
625.5012, 6313.218
627.4296, 6316.455
629.3581, 6304.606
631.2866, 6253.258
633.2150, 6209.402
635.1435, 6196.849
637.0720, 6196.430
639.0004, 6206.863
640.9289, 6220.588
642.8574, 6213.535
644.7858, 6191.248
646.7143, 6169.629
648.6428, 6148.099
650.5712, 6129.385
652.4997, 6115.693
654.4282, 6097.412
656.3566, 6067.799
658.2851, 6064.534
660.2136, 6102.631
662.1420, 6116.950
664.0705, 6080.988
665.9990, 6055.401
667.9274, 6065.060
669.8559, 6072.903
671.7844, 6067.335
673.7128, 6040.174
675.6413, 5987.484
677.5698, 5956.587
679.4982, 5972.243
681.4267, 5996.193
683.3552, 5999.308
685.2836, 5991.614
687.2121, 5975.807
689.1406, 5951.590
691.0690, 5933.649
692.9975, 5925.569
694.9260, 5926.394
696.8544, 5934.014
698.7829, 5928.129
700.7114, 5906.179
702.6398, 5905.060
704.5683, 5933.490
706.4968, 5940.971
708.4252, 5918.214
710.3537, 5901.317
712.2822, 5887.863
714.2106, 5890.233
716.1391, 5900.441
718.0676, 5885.606
719.9960, 5864.674
721.9245, 5861.863
723.8530, 5867.845
725.7814, 5856.789
727.7099, 5828.038
729.6384, 5815.846
731.5668, 5820.789
733.4953, 5809.546
735.4238, 5783.208
737.3522, 5765.925
739.2807, 5760.283
741.2092, 5745.015
743.1376, 5711.304
745.0661, 5690.222
746.9946, 5715.330
748.9230, 5755.563
750.8515, 5750.373
752.7800, 5707.390
754.7084, 5681.897
756.6369, 5689.338
758.5654, 5705.396
760.4938, 5712.814
762.4223, 5708.428
764.3508, 5691.181
766.2792, 5663.025
768.2077, 5645.978
770.1362, 5656.579
772.0646, 5672.520
773.9931, 5671.000
775.9216, 5663.228
777.8500, 5663.819
779.7785, 5666.354
781.7070, 5654.937
783.6354, 5622.896
785.5639, 5603.607
787.4924, 5619.865
789.4208, 5627.321
791.3493, 5622.162
793.2778, 5625.838
795.2062, 5611.865
797.1347, 5593.000
799.0632, 5589.462
800.9916, 5579.854
802.9201, 5565.124
804.8486, 5554.440
806.7770, 5547.952
808.7055, 5545.189
810.6340, 5529.028
812.5624, 5514.235
814.4909, 5532.659
816.4194, 5549.808
818.3478, 5526.445
820.2763, 5502.058
822.2048, 5510.958
824.1332, 5507.115
826.0617, 5462.770
827.9902, 5434.077
829.9186, 5442.634
831.8471, 5448.939
833.7756, 5448.904
835.7040, 5440.402
837.6325, 5408.924
839.5610, 5389.605
841.4894, 5395.636
843.4179, 5400.138
845.3464, 5400.616
847.2748, 5395.829
849.2033, 5396.180
851.1318, 5402.234
853.0602, 5392.336
854.9887, 5374.114
856.9172, 5362.210
858.8456, 5362.260
860.7741, 5383.200
862.7026, 5389.211
864.6310, 5343.055
866.5595, 5292.928
868.4880, 5292.844
870.4164, 5310.161
872.3449, 5307.027
874.2734, 5303.602
876.2018, 5309.799
878.1303, 5305.734
880.0588, 5278.097
881.9872, 5251.909
883.9157, 5261.021
885.8442, 5276.403
887.7726, 5268.392
889.7011, 5260.788
891.6296, 5256.094
893.5580, 5242.391
895.4865, 5236.006
897.4150, 5239.058
899.3434, 5228.911
901.2719, 5208.506
903.2004, 5198.693
905.1288, 5195.809
907.0573, 5190.165
908.9858, 5188.761
910.9142, 5195.102
912.8427, 5195.627
914.7712, 5181.156
916.6996, 5164.406
918.6281, 5153.174
920.5566, 5145.253
922.4850, 5148.847
924.4135, 5156.466
926.3420, 5140.399
928.2704, 5108.407
930.1989, 5094.782
932.1274, 5100.900
934.0558, 5116.547
935.9843, 5132.623
937.9128, 5124.657
939.8412, 5099.951
941.7697, 5089.005
943.6982, 5091.260
945.6266, 5093.832
947.5551, 5091.582
949.4836, 5079.846
951.4120, 5066.576
953.3405, 5068.967
955.2690, 5079.858
957.1974, 5078.471
959.1259, 5067.996
961.0544, 5054.264
962.9828, 5037.949
964.9113, 5030.867
966.8398, 5029.961
968.7682, 5017.775
970.6967, 4999.366
972.6252, 5000.078
974.5536, 5016.110
976.4821, 5023.773
978.4106, 5020.974
980.3391, 5002.731
982.2675, 4975.825
984.1960, 4972.284
986.1245, 4987.224
988.0529, 5000.567
989.9814, 5008.717
991.9099, 4991.355
993.8383, 4958.963
995.7668, 4958.257
997.6953, 4977.303
999.6237, 4968.257
1001.552, 4944.051
1003.481, 4950.626
1005.409, 4970.880
1007.338, 4951.895
1009.266, 4914.309
1011.195, 4910.021
1013.123, 4927.884
1015.051, 4943.615
1016.980, 4954.142
1018.908, 4962.939
1020.837, 4965.280
1022.765, 4939.774
1024.694, 4906.925
1026.622, 4902.957
1028.551, 4911.558
1030.479, 4910.913
1032.408, 4907.550
1034.336, 4908.935
1036.265, 4913.793
1038.193, 4919.682
1040.121, 4917.485
1042.050, 4902.328
1043.978, 4886.675
1045.907, 4881.460
1047.835, 4882.985
1049.764, 4877.974
1051.692, 4872.256
1053.621, 4876.754
1055.549, 4881.079
1057.478, 4889.780
1059.406, 4897.014
1061.335, 4885.376
1063.263, 4865.466
1065.192, 4850.109
1067.120, 4841.037
1069.048, 4826.828
1070.977, 4814.878
1072.905, 4819.905
1074.834, 4829.113
1076.762, 4835.328
1078.691, 4839.075
1080.619, 4843.018
1082.548, 4834.839
1084.476, 4801.047
1086.405, 4788.193
1088.333, 4824.917
1090.262, 4850.704
1092.190, 4831.958
1094.119, 4809.955
1096.047, 4804.961
1097.975, 4809.789
1099.904, 4825.769
1101.832, 4821.807
1103.761, 4788.298
1105.689, 4777.014
1107.618, 4793.083
1109.546, 4795.052
1111.475, 4782.226
1113.403, 4781.816
1115.332, 4791.265
1117.260, 4798.525
1119.189, 4804.145
1121.117, 4811.489
1123.046, 4815.376
1124.974, 4806.640
1126.902, 4800.468
1128.831, 4807.595
1130.759, 4805.986
1132.688, 4781.854
1134.616, 4762.364
1136.545, 4765.394
1138.473, 4769.648
1140.402, 4759.422
1142.330, 4752.066
1144.259, 4764.748
1146.187, 4777.106
1148.116, 4771.235
1150.044, 4768.543
1151.973, 4782.599
1153.901, 4773.940
1155.829, 4734.285
1157.758, 4716.486
1159.686, 4723.958
1161.615, 4723.533
1163.543, 4717.966
1165.472, 4715.362
1167.400, 4708.995
1169.329, 4707.297
1171.257, 4708.981
1173.186, 4704.531
1175.114, 4710.418
1177.043, 4716.264
1178.971, 4704.599
1180.900, 4706.820
1182.828, 4722.399
1184.756, 4706.073
1186.685, 4678.168
1188.613, 4693.794
1190.542, 4713.684
1192.470, 4674.331
1194.399, 4625.880
1196.327, 4611.790
1198.256, 4612.610
1200.184, 4640.629
1202.113, 4667.131
1204.041, 4646.038
1205.970, 4620.197
1207.898, 4626.837
1209.827, 4638.538
1211.755, 4633.179
1213.683, 4619.979
1215.612, 4607.183
1217.540, 4606.586
1219.469, 4625.251
1221.397, 4619.815
1223.326, 4581.686
1225.254, 4574.872
1227.183, 4599.647
1229.111, 4596.209
1231.040, 4575.069
1232.968, 4583.025
1234.897, 4600.750
1236.825, 4604.544
1238.754, 4601.691
1240.682, 4572.926
1242.610, 4549.157
1244.539, 4575.562
1246.467, 4603.375
1248.396, 4607.664
1250.324, 4593.220
1252.253, 4552.814
1254.181, 4528.843
1256.110, 4531.889
1258.038, 4540.911
1259.967, 4552.814
1261.895, 4546.390
1263.824, 4525.863
1265.752, 4524.842
1267.681, 4541.500
1269.609, 4554.886
1271.537, 4560.001
1273.466, 4552.589
1275.394, 4544.808
1277.323, 4554.401
1279.251, 4554.494
1281.180, 4512.137
1283.108, 4483.212
1285.037, 4504.563
1286.965, 4530.459
1288.894, 4546.436
1290.822, 4556.668
1292.751, 4559.433
1294.679, 4551.664
1296.608, 4534.211
1298.536, 4536.555
1300.464, 4553.512
1302.393, 4551.054
1304.321, 4541.553
1306.250, 4546.741
1308.178, 4556.204
1310.107, 4566.696
1312.035, 4567.763
1313.964, 4535.218
1315.892, 4511.588
1317.821, 4526.597
1319.749, 4548.785
1321.678, 4567.204
1323.606, 4575.957
1325.535, 4575.064
1327.463, 4564.833
1329.391, 4547.608
1331.320, 4526.061
1333.248, 4503.813
1335.177, 4517.783
1337.105, 4548.739
1339.034, 4561.829
1340.962, 4559.511
1342.891, 4530.443
1344.819, 4502.776
1346.748, 4490.635
1348.676, 4498.611
1350.605, 4542.293
1352.533, 4567.172
1354.462, 4561.839
1356.390, 4549.988
1358.318, 4535.161
1360.247, 4536.371
1362.175, 4548.306
1364.104, 4542.438
1366.032, 4529.979
1367.961, 4535.417
1369.889, 4542.661
1371.818, 4530.533
1373.746, 4519.013
1375.675, 4523.855
1377.603, 4526.762
1379.532, 4521.410
1381.460, 4515.076
1383.389, 4507.696
1385.317, 4505.687
1387.245, 4509.389
1389.174, 4525.206
1391.102, 4540.633
1393.031, 4516.378
1394.959, 4483.977
1396.888, 4475.970
1398.816, 4482.731
1400.745, 4515.302
1402.673, 4528.564
1404.602, 4495.828
1406.530, 4465.864
1408.459, 4440.026
1410.387, 4430.468
1412.316, 4436.543
1414.244, 4455.674
1416.172, 4476.092
1418.101, 4463.220
1420.029, 4442.720
1421.958, 4437.773
1423.886, 4438.270
1425.815, 4440.352
1427.743, 4442.994
1429.672, 4445.932
1431.600, 4450.388
1433.529, 4457.581
1435.457, 4454.429
1437.386, 4441.040
1439.314, 4404.978
1441.243, 4372.115
1443.171, 4394.105
1445.099, 4422.368
1447.028, 4426.505
1448.956, 4426.104
1450.885, 4427.169
1452.813, 4429.065
1454.742, 4432.830
1456.670, 4425.428
1458.599, 4408.681
1460.527, 4392.646
1462.456, 4380.826
1464.384, 4386.999
1466.313, 4390.384
1468.241, 4370.910
1470.170, 4351.842
1472.098, 4338.382
1474.026, 4340.491
1475.955, 4360.939
1477.883, 4378.334
1479.812, 4387.225
1481.740, 4349.088
1483.669, 4300.565
1485.597, 4317.123
1487.526, 4339.145
1489.454, 4312.352
1491.383, 4295.040
1493.311, 4305.591
1495.240, 4307.333
1497.168, 4295.811
1499.097, 4292.670
1501.025, 4295.632
1502.953, 4296.183
1504.882, 4290.655
1506.810, 4266.241
1508.739, 4246.365
1510.667, 4251.766
1512.596, 4248.167
1514.524, 4226.461
1516.453, 4234.015
1518.381, 4266.720
1520.310, 4260.032
1522.238, 4234.613
1524.167, 4234.938
1526.095, 4238.020
1528.024, 4215.002
1529.952, 4205.822
1531.880, 4233.369
1533.809, 4243.746
1535.737, 4233.149
1537.666, 4231.254
1539.594, 4234.028
1541.523, 4227.051
1543.451, 4214.847
1545.380, 4194.904
1547.308, 4184.342
1549.237, 4201.917
1551.165, 4206.790
1553.094, 4194.521
1555.022, 4166.586
1556.951, 4134.221
1558.879, 4149.475
1560.807, 4180.473
1562.736, 4199.577
1564.664, 4202.632
1566.593, 4170.398
1568.521, 4161.075
1570.450, 4194.206
1572.378, 4190.674
1574.307, 4157.612
1576.235, 4112.517
1578.164, 4086.385
1580.092, 4132.804
1582.021, 4170.289
1583.949, 4156.265
1585.878, 4132.473
1587.806, 4101.815
1589.734, 4093.792
1591.663, 4099.708
1593.591, 4075.637
1595.520, 4056.958
1597.448, 4092.135
1599.377, 4115.836
1601.305, 4099.867
1603.234, 4074.569
1605.162, 4042.942
1607.091, 4057.729
1609.019, 4092.484
1610.948, 4066.095
1612.876, 4039.253
1614.805, 4069.656
1616.733, 4081.881
1618.661, 4051.385
1620.590, 4023.282
1622.518, 4002.991
1624.447, 3994.204
1626.375, 3997.270
1628.304, 4030.019
1630.232, 4043.598
1632.161, 4006.554
1634.089, 3978.568
1636.018, 3970.313
1637.946, 3967.196
1639.875, 3967.109
1641.803, 3965.502
1643.732, 3966.986
1645.660, 3986.563
1647.589, 3987.770
1649.517, 3958.128
1651.445, 3934.104
1653.374, 3920.122
1655.302, 3921.628
1657.231, 3928.882
1659.159, 3928.104
1661.088, 3926.762
1663.016, 3933.786
1664.945, 3921.454
1666.873, 3888.459
1668.802, 3870.910
1670.730, 3865.327
1672.659, 3863.298
1674.587, 3861.905
1676.516, 3862.987
1678.444, 3853.676
1680.372, 3830.719
1682.301, 3817.935
1684.229, 3812.485
1686.158, 3799.553
1688.086, 3790.207
1690.015, 3797.175
1691.943, 3806.543
1693.872, 3818.549
1695.800, 3808.601
1697.729, 3784.437
1699.657, 3791.307
1701.586, 3803.084
1703.514, 3794.855
1705.443, 3778.244
1707.371, 3753.236
1709.299, 3729.064
1711.228, 3707.635
1713.156, 3708.376
1715.085, 3716.347
1717.013, 3717.883
1718.942, 3714.002
1720.870, 3702.054
1722.799, 3696.369
1724.727, 3695.836
1726.656, 3682.709
1728.584, 3669.935
1730.513, 3675.729
1732.441, 3676.928
1734.370, 3662.717
1736.298, 3658.180
1738.226, 3659.353
1740.155, 3614.550
1742.083, 3573.448
1744.012, 3596.858
1745.940, 3621.042
1747.869, 3625.974
1749.797, 3632.528
1751.726, 3639.694
1753.654, 3634.233
1755.583, 3624.283
1757.511, 3618.715
1759.440, 3606.153
1761.368, 3582.691
1763.297, 3571.658
1765.225, 3571.196
1767.153, 3583.757
1769.082, 3582.967
1771.010, 3539.278
1772.939, 3514.554
1774.867, 3519.095
1776.796, 3519.131
1778.724, 3509.825
1780.653, 3469.250
1782.581, 3445.291
1784.510, 3470.907
1786.438, 3473.307
1788.367, 3448.953
1790.295, 3444.458
1792.224, 3448.324
1794.152, 3445.237
1796.080, 3440.364
1798.009, 3434.090
1799.937, 3440.785
1801.866, 3452.741
1803.794, 3442.135
1805.723, 3426.237
1807.651, 3419.645
1809.580, 3414.703
1811.508, 3410.021
1813.437, 3393.275
1815.365, 3369.777
1817.294, 3344.570
1819.222, 3327.443
1821.151, 3326.094
1823.079, 3325.148
1825.007, 3325.993
1826.936, 3343.497
1828.864, 3356.700
1830.793, 3345.591
1832.721, 3323.767
1834.650, 3292.734
1836.578, 3272.673
1838.507, 3257.566
1840.435, 3232.616
1842.364, 3215.110
1844.292, 3218.136
1846.221, 3219.958
1848.149, 3219.042
1850.078, 3218.633
1852.006, 3211.359
1853.934, 3183.944
1855.863, 3169.210
1857.791, 3174.694
1859.720, 3185.708
1861.648, 3192.355
1863.577, 3161.018
1865.505, 3144.454
1867.434, 3172.901
1869.362, 3159.621
1871.291, 3118.343
1873.219, 3127.308
1875.148, 3143.205
1877.076, 3140.305
1879.005, 3128.188
1880.933, 3110.579
1882.861, 3100.886
1884.790, 3092.796
1886.718, 3083.202
1888.647, 3070.114
1890.575, 3052.585
1892.504, 3046.501
1894.432, 3046.618
1896.361, 3036.395
1898.289, 3033.851
1900.218, 3050.042
1902.146, 3043.422
1904.075, 3019.849
1906.003, 2995.571
1907.932, 2975.293
1909.860, 2964.889
1911.788, 2976.662
1913.717, 2999.237
1915.645, 2975.012
1917.574, 2937.376
1919.502, 2904.212
1921.431, 2883.318
1923.359, 2877.473
1925.288, 2891.085
1927.216, 2899.187
1929.145, 2856.877
1931.073, 2852.149
1933.002, 2894.911
1934.930, 2886.810
1936.859, 2855.540
1938.787, 2842.489
1940.715, 2830.730
1942.644, 2815.331
1944.572, 2790.504
1946.501, 2771.637
1948.429, 2789.280
1950.358, 2801.336
1952.286, 2793.692
1954.215, 2768.680
1956.143, 2737.957
1958.072, 2728.547
1960.000, 2724.062
1961.929, 2706.311
1963.857, 2703.437
1965.786, 2708.643
1967.714, 2690.164
1969.642, 2676.044
1971.571, 2689.292
1973.499, 2683.325
1975.428, 2663.629
1977.356, 2661.567
1979.285, 2650.863
1981.213, 2612.871
1983.142, 2605.159
1985.070, 2614.575
1986.999, 2608.283
1988.927, 2601.626
1990.856, 2596.829
1992.784, 2595.299
1994.713, 2594.437
1996.641, 2585.300
1998.569, 2567.062
2000.498, 2541.375
2002.426, 2521.635
2004.355, 2507.363
2006.283, 2499.227
2008.212, 2491.680
2010.140, 2482.136
2012.069, 2478.760
2013.997, 2479.942
2015.926, 2478.793
2017.854, 2484.784
2019.783, 2502.173
2021.711, 2502.023
2023.640, 2484.817
2025.568, 2439.463
2027.496, 2413.800
2029.425, 2417.647
2031.353, 2402.322
2033.282, 2378.937
2035.210, 2364.733
2037.139, 2354.148
2039.067, 2342.807
2040.996, 2334.864
2042.924, 2326.119
2044.853, 2304.451
2046.781, 2292.527
2048.709, 2292.258
2050.638, 2312.048
2052.566, 2326.504
2054.495, 2304.080
2056.423, 2289.823
2058.352, 2284.453
2060.280, 2263.696
2062.209, 2249.051
2064.137, 2264.722
2066.066, 2245.327
2067.994, 2210.655
2069.923, 2217.266
2071.851, 2221.032
2073.780, 2200.444
2075.708, 2193.943
2077.636, 2191.352
2079.565, 2171.331
2081.493, 2164.725
2083.422, 2180.713
2085.350, 2162.941
2087.279, 2139.069
2089.207, 2138.397
2091.136, 2130.591
2093.064, 2113.389
2094.993, 2094.458
2096.921, 2089.031
2098.850, 2113.066
2100.778, 2101.214
2102.707, 2066.981
2104.635, 2050.499
2106.563, 2049.458
2108.492, 2064.339
2110.420, 2073.401
2112.349, 2071.214
2114.277, 2043.473
2116.206, 2034.800
2118.134, 2047.244
2120.063, 2030.654
2121.991, 2009.814
2123.920, 1999.730
2125.848, 1993.103
2127.777, 1988.399
2129.705, 1992.438
2131.634, 1987.243
2133.562, 1966.452
2135.490, 1952.488
2137.419, 1944.048
2139.347, 1940.565
2141.276, 1928.196
2143.204, 1911.589
2145.133, 1916.707
2147.061, 1914.689
2148.990, 1888.543
2150.918, 1901.972
2152.847, 1922.496
2154.775, 1885.403
2156.704, 1856.047
2158.632, 1844.258
2160.561, 1840.722
2162.489, 1846.406
2164.417, 1869.389
2166.346, 1857.372
2168.274, 1824.370
2170.203, 1804.565
2172.131, 1803.676
2174.060, 1822.648
2175.988, 1812.014
2177.917, 1793.573
2179.845, 1790.099
2181.774, 1789.995
2183.702, 1786.233
2185.631, 1758.036
2187.559, 1743.076
2189.488, 1754.270
2191.416, 1755.287
2193.344, 1747.963
2195.273, 1722.747
2197.201, 1711.538
2199.130, 1713.058
2201.058, 1727.990
2202.987, 1730.484
2204.915, 1691.104
