##NAMES=Heulandite-Na
##RRUFFID=R070281
##IDEAL CHEMISTRY=(Na,Ca,K)_6_(Si,Al)_36_O_72_&#183;22H_2_O
##LOCALITY=Warm Spring Creek, Challis, Custer County, Idaho, USA
##OWNER=RRUFF
##SOURCE=Michael Scott
##DESCRIPTION=Orange tabular crystals lining a vug
##STATUS=The identification of this mineral is not yet confirmed.
##URL=rruff.info/R070281
175.6961, 4517.101
176.1783, 4512.440
176.6604, 4500.593
177.1425, 4487.524
177.6246, 4483.153
178.1067, 4485.885
178.5888, 4485.025
179.0710, 4466.313
179.5531, 4438.362
180.0352, 4421.771
180.5173, 4426.882
180.9994, 4440.220
181.4815, 4438.653
181.9637, 4422.561
182.4458, 4404.294
182.9279, 4392.746
183.4100, 4387.326
183.8921, 4385.575
184.3742, 4386.990
184.8564, 4391.526
185.3385, 4401.845
185.8206, 4418.775
186.3027, 4432.479
186.7848, 4430.453
187.2669, 4414.582
187.7491, 4399.286
188.2312, 4389.748
188.7133, 4384.725
189.1954, 4379.097
189.6775, 4372.489
190.1596, 4367.135
190.6418, 4365.782
191.1239, 4368.405
191.6060, 4373.202
192.0881, 4382.449
192.5702, 4394.855
193.0524, 4397.854
193.5345, 4389.724
194.0166, 4376.694
194.4987, 4368.628
194.9808, 4365.894
195.4629, 4362.521
195.9451, 4352.214
196.4272, 4335.177
196.9093, 4332.596
197.3914, 4349.067
197.8735, 4373.816
198.3556, 4387.500
198.8378, 4389.487
199.3199, 4384.425
199.8020, 4371.615
200.2841, 4350.249
200.7662, 4335.028
201.2483, 4327.404
201.7305, 4325.826
202.2126, 4327.482
202.6947, 4333.208
203.1768, 4339.045
203.6589, 4343.613
204.1410, 4347.409
204.6232, 4345.115
205.1053, 4333.083
205.5874, 4316.038
206.0695, 4311.513
206.5516, 4323.761
207.0337, 4337.365
207.5159, 4338.727
207.9980, 4322.635
208.4801, 4320.670
208.9622, 4343.776
209.4443, 4383.823
209.9264, 4399.278
210.4086, 4383.621
210.8907, 4356.359
211.3728, 4329.430
211.8549, 4298.830
212.3370, 4282.397
212.8191, 4287.134
213.3013, 4309.812
213.7834, 4322.380
214.2655, 4319.699
214.7476, 4315.185
215.2297, 4321.753
215.7118, 4345.040
216.1940, 4363.815
216.6761, 4373.227
217.1582, 4373.796
217.6403, 4376.993
218.1224, 4386.736
218.6045, 4393.844
219.0867, 4386.573
219.5688, 4354.521
220.0509, 4333.180
220.5330, 4332.954
221.0151, 4354.372
221.4972, 4370.756
221.9794, 4380.341
222.4615, 4387.031
222.9436, 4394.566
223.4257, 4401.706
223.9078, 4412.856
224.3899, 4432.049
224.8721, 4461.230
225.3542, 4475.113
225.8363, 4466.260
226.3184, 4449.292
226.8005, 4442.719
227.2827, 4455.489
227.7648, 4461.252
228.2469, 4449.625
228.7290, 4416.454
229.2111, 4398.910
229.6932, 4402.495
230.1754, 4417.432
230.6575, 4432.364
231.1396, 4450.646
231.6217, 4462.599
232.1038, 4463.827
232.5859, 4451.512
233.0681, 4443.159
233.5502, 4437.170
234.0323, 4436.256
234.5144, 4446.284
234.9965, 4477.330
235.4786, 4501.880
235.9608, 4507.831
236.4429, 4487.258
236.9250, 4485.639
237.4071, 4512.522
237.8892, 4552.490
238.3713, 4581.930
238.8535, 4600.063
239.3356, 4608.620
239.8177, 4603.565
240.2998, 4575.599
240.7819, 4571.513
241.2640, 4603.326
241.7462, 4651.951
242.2283, 4683.986
242.7104, 4689.802
243.1925, 4694.895
243.6746, 4708.506
244.1567, 4734.856
244.6389, 4755.218
245.1210, 4767.000
245.6031, 4774.316
246.0852, 4784.823
246.5673, 4802.082
247.0494, 4816.497
247.5316, 4825.054
248.0137, 4827.793
248.4958, 4823.515
248.9779, 4807.138
249.4600, 4786.627
249.9421, 4778.299
250.4243, 4789.581
250.9064, 4799.621
251.3885, 4800.148
251.8706, 4787.635
252.3527, 4776.689
252.8348, 4765.256
253.3170, 4756.642
253.7991, 4758.852
254.2812, 4778.401
254.7633, 4796.314
255.2454, 4806.731
255.7275, 4810.605
256.2097, 4801.302
256.6918, 4770.938
257.1739, 4732.921
257.6560, 4712.828
258.1381, 4717.346
258.6202, 4726.028
259.1024, 4731.289
259.5845, 4731.787
260.0666, 4735.633
260.5487, 4748.492
261.0308, 4760.350
261.5129, 4749.429
261.9951, 4704.517
262.4772, 4663.873
262.9593, 4644.707
263.4414, 4652.404
263.9235, 4654.623
264.4056, 4648.511
264.8878, 4639.601
265.3699, 4638.792
265.8520, 4649.737
266.3341, 4658.297
266.8162, 4657.272
267.2983, 4644.159
267.7805, 4638.229
268.2626, 4641.885
268.7447, 4650.131
269.2268, 4654.823
269.7089, 4655.712
270.1910, 4653.938
270.6732, 4649.826
271.1553, 4643.362
271.6374, 4632.935
272.1195, 4614.875
272.6016, 4598.226
273.0837, 4602.223
273.5659, 4632.006
274.0480, 4656.130
274.5301, 4659.831
275.0122, 4642.163
275.4943, 4631.106
275.9764, 4628.669
276.4586, 4629.064
276.9407, 4622.767
277.4228, 4608.967
277.9049, 4596.202
278.3870, 4587.660
278.8691, 4583.253
279.3513, 4580.323
279.8334, 4578.006
280.3155, 4579.384
280.7976, 4591.678
281.2798, 4615.412
281.7619, 4635.373
282.2440, 4644.563
282.7261, 4644.386
283.2082, 4646.103
283.6903, 4650.550
284.1725, 4653.810
284.6546, 4647.776
285.1367, 4633.065
285.6188, 4624.745
286.1009, 4631.270
286.5830, 4648.813
287.0652, 4662.113
287.5473, 4671.246
288.0294, 4675.010
288.5115, 4666.520
288.9936, 4648.067
289.4757, 4639.169
289.9579, 4652.138
290.4400, 4677.854
290.9221, 4691.138
291.4042, 4691.431
291.8863, 4686.277
292.3684, 4682.122
292.8506, 4678.666
293.3327, 4674.526
293.8148, 4668.813
294.2969, 4662.381
294.7790, 4655.485
295.2611, 4648.106
295.7433, 4644.081
296.2254, 4650.609
296.7075, 4663.577
297.1896, 4670.676
297.6717, 4664.227
298.1538, 4653.867
298.6360, 4656.411
299.1181, 4670.778
299.6002, 4683.939
300.0823, 4684.586
300.5644, 4677.175
301.0465, 4669.565
301.5287, 4661.431
302.0108, 4656.916
302.4929, 4663.712
302.9750, 4680.043
303.4571, 4695.338
303.9392, 4702.979
304.4214, 4705.242
304.9035, 4705.070
305.3856, 4702.430
305.8677, 4698.695
306.3498, 4692.103
306.8319, 4684.564
307.3141, 4682.786
307.7962, 4696.285
308.2783, 4714.906
308.7604, 4729.568
309.2425, 4739.153
309.7246, 4742.286
310.2068, 4729.914
310.6889, 4709.364
311.1710, 4699.450
311.6531, 4721.956
312.1352, 4750.813
312.6173, 4765.464
313.0995, 4758.046
313.5816, 4749.356
314.0637, 4747.874
314.5458, 4751.940
315.0279, 4758.368
315.5100, 4771.979
315.9922, 4783.077
316.4743, 4783.029
316.9564, 4765.747
317.4385, 4758.533
317.9206, 4780.802
318.4027, 4816.169
318.8849, 4841.736
319.3670, 4841.542
319.8491, 4839.142
320.3312, 4844.030
320.8133, 4858.542
321.2954, 4870.473
321.7776, 4871.362
322.2597, 4870.913
322.7418, 4879.469
323.2239, 4919.371
323.7060, 4947.599
324.1881, 4944.765
324.6703, 4906.217
325.1524, 4890.662
325.6345, 4925.274
326.1166, 4972.320
326.5987, 5001.696
327.0808, 4996.244
327.5630, 4993.091
328.0451, 4997.629
328.5272, 5009.407
329.0093, 5018.581
329.4914, 5022.606
329.9735, 5026.128
330.4557, 5032.627
330.9378, 5047.256
331.4199, 5055.136
331.9020, 5048.824
332.3841, 5033.843
332.8662, 5038.826
333.3484, 5073.817
333.8305, 5113.463
334.3126, 5146.439
334.7947, 5175.289
335.2768, 5187.198
335.7589, 5175.250
336.2411, 5149.451
336.7232, 5133.139
337.2053, 5125.911
337.6874, 5129.784
338.1695, 5151.239
338.6516, 5193.804
339.1338, 5219.816
339.6159, 5224.206
340.0980, 5218.594
340.5801, 5223.490
341.0622, 5240.374
341.5443, 5254.520
342.0265, 5255.976
342.5086, 5247.174
342.9907, 5253.864
343.4728, 5278.846
343.9549, 5308.126
344.4370, 5322.619
344.9192, 5323.867
345.4013, 5327.246
345.8834, 5338.673
346.3655, 5355.861
346.8476, 5374.875
347.3297, 5395.890
347.8119, 5412.181
348.2940, 5410.772
348.7761, 5398.506
349.2582, 5396.271
349.7403, 5413.530
350.2225, 5439.823
350.7046, 5458.472
351.1867, 5471.124
351.6688, 5489.221
352.1509, 5528.212
352.6331, 5576.116
353.1152, 5613.416
353.5973, 5630.214
354.0794, 5645.917
354.5615, 5683.976
355.0436, 5736.511
355.5258, 5779.543
356.0079, 5792.994
356.4900, 5795.005
356.9721, 5800.399
357.4542, 5811.256
357.9363, 5826.166
358.4185, 5844.444
358.9006, 5866.232
359.3827, 5891.771
359.8648, 5926.269
360.3469, 5960.491
360.8290, 5987.163
361.3112, 6003.857
361.7933, 6027.404
362.2754, 6072.175
362.7575, 6123.356
363.2396, 6165.018
363.7217, 6184.191
364.2039, 6202.311
364.6860, 6221.959
365.1681, 6243.394
365.6502, 6274.256
366.1323, 6325.627
366.6144, 6380.701
367.0966, 6428.052
367.5787, 6460.107
368.0608, 6492.715
368.5429, 6528.841
369.0250, 6567.045
369.5071, 6598.671
369.9893, 6617.555
370.4714, 6636.885
370.9535, 6661.813
371.4356, 6687.817
371.9177, 6730.996
372.3998, 6802.120
372.8820, 6885.398
373.3641, 6944.473
373.8462, 6974.053
374.3283, 6992.539
374.8104, 6999.130
375.2925, 6990.236
375.7747, 7018.065
376.2568, 7093.494
376.7389, 7184.532
377.2210, 7241.828
377.7031, 7262.096
378.1852, 7296.984
378.6674, 7371.312
379.1495, 7472.483
379.6316, 7548.406
380.1137, 7596.825
380.5958, 7634.642
381.0779, 7669.431
381.5601, 7704.440
382.0422, 7753.833
382.5243, 7826.016
383.0064, 7908.744
383.4885, 7980.611
383.9706, 8043.860
384.4528, 8109.952
384.9349, 8194.488
385.4170, 8285.578
385.8991, 8362.895
386.3812, 8420.102
386.8633, 8476.619
387.3455, 8546.927
387.8276, 8630.052
388.3097, 8725.271
388.7918, 8841.708
389.2739, 8963.091
389.7560, 9077.691
390.2382, 9184.619
390.7203, 9284.561
391.2024, 9370.495
391.6845, 9451.761
392.1666, 9540.280
392.6487, 9640.156
393.1309, 9747.337
393.6130, 9868.839
394.0951, 10002.12
394.5772, 10114.06
395.0593, 10171.72
395.5414, 10221.05
396.0236, 10290.26
396.5057, 10409.11
396.9878, 10517.69
397.4699, 10608.80
397.9520, 10685.04
398.4341, 10753.76
398.9163, 10811.15
399.3984, 10864.90
399.8805, 10917.81
400.3626, 10970.76
400.8447, 11021.30
401.3268, 11076.08
401.8090, 11123.43
402.2911, 11146.01
402.7732, 11136.81
403.2553, 11120.45
403.7374, 11102.71
404.2195, 11083.47
404.7017, 11063.95
405.1838, 11049.46
405.6659, 11019.72
406.1480, 10950.46
406.6301, 10840.85
407.1122, 10731.45
407.5944, 10628.86
408.0765, 10530.91
408.5586, 10437.03
409.0407, 10346.69
409.5228, 10250.95
410.0049, 10137.11
410.4871, 10014.16
410.9692, 9909.457
411.4513, 9829.529
411.9334, 9751.448
412.4155, 9644.015
412.8976, 9514.472
413.3798, 9388.340
413.8619, 9277.771
414.3440, 9173.806
414.8261, 9064.661
415.3082, 8949.674
415.7903, 8837.934
416.2725, 8737.316
416.7546, 8641.585
417.2367, 8541.252
417.7188, 8428.145
418.2009, 8318.371
418.6830, 8223.361
419.1652, 8139.013
419.6473, 8053.988
420.1294, 7960.570
420.6115, 7867.568
421.0937, 7777.206
421.5758, 7687.744
422.0579, 7609.366
422.5400, 7556.691
423.0221, 7513.009
423.5042, 7449.452
423.9864, 7344.613
424.4685, 7243.634
424.9506, 7154.949
425.4327, 7080.290
425.9148, 7010.905
426.3969, 6947.727
426.8791, 6888.776
427.3612, 6835.267
427.8433, 6792.489
428.3254, 6737.231
428.8075, 6659.320
429.2896, 6569.580
429.7718, 6510.502
430.2539, 6487.426
430.7360, 6465.820
431.2181, 6422.258
431.7002, 6358.804
432.1823, 6306.752
432.6645, 6269.304
433.1466, 6237.584
433.6287, 6197.964
434.1108, 6152.856
434.5929, 6114.507
435.0750, 6097.046
435.5572, 6085.935
436.0393, 6050.783
436.5214, 5992.790
437.0035, 5937.217
437.4856, 5907.392
437.9677, 5891.675
438.4499, 5873.545
438.9320, 5845.066
439.4141, 5819.591
439.8962, 5812.863
440.3783, 5817.211
440.8604, 5812.656
441.3426, 5781.600
441.8247, 5745.875
442.3068, 5714.806
442.7889, 5687.282
443.2710, 5674.913
443.7531, 5690.653
444.2353, 5719.310
444.7174, 5744.359
445.1995, 5770.567
445.6816, 5784.865
446.1637, 5774.392
446.6458, 5743.342
447.1280, 5738.129
447.6101, 5783.018
448.0922, 5827.059
448.5743, 5838.427
449.0564, 5796.457
449.5385, 5778.426
450.0207, 5793.318
450.5028, 5826.558
450.9849, 5850.546
451.4670, 5862.857
451.9491, 5877.018
452.4312, 5897.607
452.9134, 5924.372
453.3955, 5958.006
453.8776, 5999.473
454.3597, 6040.089
454.8418, 6067.279
455.3239, 6085.096
455.8061, 6109.411
456.2882, 6145.224
456.7703, 6187.440
457.2524, 6228.614
457.7345, 6269.622
458.2166, 6315.190
458.6988, 6371.395
459.1809, 6431.609
459.6630, 6487.175
460.1451, 6537.072
460.6272, 6587.581
461.1093, 6645.997
461.5915, 6706.138
462.0736, 6759.123
462.5557, 6799.162
463.0378, 6834.460
463.5199, 6863.600
464.0020, 6888.112
464.4842, 6919.883
464.9663, 6966.633
465.4484, 7017.107
465.9305, 7066.302
466.4126, 7120.523
466.8947, 7162.970
467.3769, 7191.408
467.8590, 7208.987
468.3411, 7217.627
468.8232, 7202.729
469.3053, 7209.413
469.7874, 7258.673
470.2696, 7346.912
470.7517, 7402.259
471.2338, 7414.625
471.7159, 7424.740
472.1980, 7469.981
472.6801, 7549.789
473.1623, 7630.607
473.6444, 7712.243
474.1265, 7785.146
474.6086, 7819.546
475.0907, 7823.006
475.5728, 7844.429
476.0550, 7926.065
476.5371, 8036.778
477.0192, 8125.184
477.5013, 8189.811
477.9834, 8247.463
478.4655, 8311.698
478.9477, 8376.795
479.4298, 8434.173
479.9119, 8477.359
480.3940, 8518.219
480.8761, 8567.896
481.3582, 8620.647
481.8404, 8659.202
482.3225, 8667.094
482.8046, 8668.405
483.2867, 8679.971
483.7688, 8716.466
484.2509, 8716.943
484.7331, 8648.507
485.2152, 8556.017
485.6973, 8480.292
486.1794, 8438.432
486.6615, 8383.940
487.1436, 8309.291
487.6258, 8216.771
488.1079, 8114.342
488.5900, 7998.427
489.0721, 7884.094
489.5542, 7784.519
490.0363, 7699.552
490.5185, 7595.066
491.0006, 7467.080
491.4827, 7332.866
491.9648, 7214.929
492.4470, 7111.588
492.9291, 7016.475
493.4112, 6933.208
493.8933, 6854.164
494.3754, 6769.136
494.8575, 6678.502
495.3397, 6589.800
495.8218, 6505.285
496.3039, 6425.087
496.7860, 6349.285
497.2681, 6275.448
497.7502, 6210.813
498.2324, 6166.671
498.7145, 6131.491
499.1966, 6088.730
499.6787, 6015.950
500.1608, 5953.088
500.6429, 5922.840
501.1251, 5922.049
501.6072, 5897.697
502.0893, 5811.364
502.5714, 5731.159
503.0535, 5692.486
503.5356, 5724.221
504.0178, 5726.463
504.4999, 5684.473
504.9820, 5626.345
505.4641, 5599.337
505.9462, 5612.470
506.4283, 5608.446
506.9105, 5560.960
507.3926, 5486.098
507.8747, 5450.710
508.3568, 5456.262
508.8389, 5473.503
509.3210, 5484.785
509.8032, 5490.971
510.2853, 5495.363
510.7674, 5499.125
511.2495, 5497.866
511.7316, 5483.175
512.2137, 5460.259
512.6959, 5439.984
513.1780, 5429.338
513.6601, 5420.584
514.1422, 5404.894
514.6243, 5384.488
515.1064, 5374.622
515.5886, 5391.064
516.0707, 5413.063
516.5528, 5429.335
517.0349, 5443.408
517.5170, 5441.671
517.9991, 5406.722
518.4813, 5361.510
518.9634, 5334.976
519.4455, 5333.406
519.9276, 5340.603
520.4097, 5358.958
520.8918, 5384.589
521.3740, 5392.006
521.8561, 5377.445
522.3382, 5357.133
522.8203, 5340.012
523.3024, 5326.158
523.7845, 5313.187
524.2667, 5299.725
524.7488, 5291.848
525.2309, 5300.537
525.7130, 5321.653
526.1951, 5340.913
526.6772, 5356.004
527.1594, 5364.537
527.6415, 5359.214
528.1236, 5343.173
528.6057, 5330.043
529.0878, 5331.914
529.5699, 5336.950
530.0521, 5334.679
530.5342, 5320.922
531.0163, 5312.741
531.4984, 5321.044
531.9805, 5335.280
532.4626, 5344.250
532.9448, 5344.597
533.4269, 5341.670
533.9090, 5334.155
534.3911, 5323.589
534.8732, 5316.156
535.3553, 5312.140
535.8375, 5310.583
536.3196, 5310.681
536.8017, 5312.291
537.2838, 5319.827
537.7659, 5335.202
538.2480, 5350.417
538.7302, 5356.757
539.2123, 5355.079
539.6944, 5349.606
540.1765, 5338.169
540.6586, 5329.009
541.1407, 5340.219
541.6229, 5365.257
542.1050, 5380.827
542.5871, 5366.060
543.0692, 5341.716
543.5513, 5324.898
544.0334, 5316.701
544.5156, 5313.270
544.9977, 5313.646
545.4798, 5317.576
545.9619, 5325.178
546.4440, 5341.006
546.9261, 5353.752
547.4083, 5360.670
547.8904, 5363.778
548.3725, 5366.440
548.8546, 5367.605
549.3367, 5370.398
549.8188, 5377.929
550.3010, 5389.000
550.7831, 5387.482
551.2652, 5369.802
551.7473, 5351.409
552.2294, 5342.734
552.7115, 5343.244
553.1937, 5350.208
553.6758, 5365.028
554.1579, 5379.563
554.6400, 5380.092
555.1221, 5371.769
555.6042, 5369.624
556.0864, 5384.195
556.5685, 5401.991
557.0506, 5410.353
557.5327, 5410.924
558.0148, 5409.604
558.4969, 5405.238
558.9791, 5402.907
559.4612, 5406.875
559.9433, 5419.140
560.4254, 5429.370
560.9075, 5441.395
561.3896, 5447.148
561.8718, 5438.415
562.3539, 5392.444
562.8360, 5372.456
563.3181, 5395.583
563.8002, 5441.644
564.2823, 5459.811
564.7645, 5443.605
565.2466, 5427.860
565.7287, 5426.282
566.2108, 5436.431
566.6929, 5446.063
567.1750, 5454.903
567.6572, 5467.712
568.1393, 5499.716
568.6214, 5536.517
569.1035, 5543.500
569.5856, 5508.879
570.0677, 5470.905
570.5499, 5461.349
571.0320, 5469.143
571.5141, 5476.622
571.9962, 5481.077
572.4783, 5480.260
572.9604, 5464.908
573.4426, 5440.352
573.9247, 5433.471
574.4068, 5472.473
574.8889, 5508.113
575.3710, 5518.984
575.8531, 5498.184
576.3353, 5488.682
576.8174, 5493.830
577.2995, 5505.444
577.7816, 5515.636
578.2637, 5523.860
578.7458, 5537.512
579.2280, 5560.276
579.7101, 5584.125
580.1922, 5593.146
580.6743, 5589.442
581.1564, 5584.885
581.6385, 5584.574
582.1207, 5586.728
582.6028, 5588.708
583.0849, 5590.770
583.5670, 5594.992
584.0491, 5600.008
584.5313, 5609.336
585.0134, 5627.228
585.4955, 5657.684
585.9776, 5685.390
586.4597, 5710.096
586.9418, 5728.327
587.4240, 5735.049
587.9061, 5714.917
588.3882, 5708.299
588.8703, 5727.586
589.3524, 5760.951
589.8345, 5768.553
590.3167, 5740.639
590.7988, 5725.048
591.2809, 5750.267
591.7630, 5806.114
592.2451, 5836.203
592.7272, 5839.577
593.2094, 5840.599
593.6915, 5862.519
594.1736, 5895.902
594.6557, 5921.954
595.1378, 5935.475
595.6199, 5948.779
596.1021, 5973.498
596.5842, 6003.062
597.0663, 6028.198
597.5485, 6037.821
598.0306, 6050.615
598.5127, 6074.402
598.9948, 6106.772
599.4769, 6137.333
599.9590, 6165.752
600.4412, 6192.380
600.9233, 6217.276
601.4054, 6240.636
601.8875, 6260.108
602.3696, 6273.538
602.8517, 6288.067
603.3339, 6311.992
603.8160, 6344.322
604.2981, 6368.129
604.7802, 6379.754
605.2623, 6388.120
605.7444, 6407.667
606.2266, 6433.358
606.7087, 6450.529
607.1908, 6446.837
607.6729, 6440.269
608.1550, 6444.898
608.6371, 6458.464
609.1193, 6473.787
609.6014, 6489.887
610.0835, 6505.384
610.5656, 6520.551
611.0477, 6536.178
611.5298, 6544.930
612.0120, 6543.407
612.4941, 6538.193
612.9762, 6533.175
613.4583, 6528.078
613.9404, 6524.888
614.4225, 6525.245
614.9047, 6524.779
615.3868, 6516.208
615.8689, 6500.016
616.3510, 6484.183
616.8331, 6473.461
617.3152, 6461.184
617.7974, 6433.806
618.2795, 6394.953
618.7616, 6357.365
619.2437, 6320.194
619.7258, 6292.978
620.2079, 6290.620
620.6901, 6313.323
621.1722, 6322.769
621.6543, 6293.868
622.1364, 6255.565
622.6185, 6226.631
623.1006, 6210.983
623.5828, 6198.526
624.0649, 6193.014
624.5470, 6187.248
625.0291, 6171.601
625.5112, 6144.104
625.9933, 6117.014
626.4755, 6092.506
626.9576, 6070.041
627.4397, 6045.804
627.9218, 6021.117
628.4039, 6006.069
628.8860, 6012.724
629.3682, 6028.179
629.8503, 6038.240
630.3324, 6042.422
630.8145, 6037.364
631.2966, 6006.610
631.7787, 5976.069
632.2609, 5968.639
632.7430, 5996.732
633.2251, 6010.094
633.7072, 5980.844
634.1893, 5944.072
634.6714, 5929.733
635.1536, 5951.673
635.6357, 5966.043
636.1178, 5970.242
636.5999, 5964.808
637.0820, 5946.178
637.5641, 5913.620
638.0463, 5888.446
638.5284, 5879.609
639.0105, 5880.378
639.4926, 5876.133
639.9747, 5868.342
640.4568, 5865.522
640.9390, 5877.229
641.4211, 5893.396
641.9032, 5906.800
642.3853, 5916.856
642.8674, 5919.526
643.3495, 5902.982
643.8317, 5885.298
644.3138, 5879.667
644.7959, 5898.313
645.2780, 5908.150
645.7601, 5904.855
646.2422, 5896.556
646.7244, 5892.455
647.2065, 5893.079
647.6886, 5896.034
648.1707, 5902.566
648.6528, 5908.858
649.1349, 5905.243
649.6171, 5893.167
650.0992, 5882.799
650.5813, 5879.838
651.0634, 5880.578
651.5455, 5880.625
652.0276, 5880.281
652.5098, 5881.169
652.9919, 5883.731
653.4740, 5888.118
653.9561, 5895.634
654.4382, 5907.554
654.9203, 5915.423
655.4025, 5919.058
655.8846, 5917.680
656.3667, 5909.642
656.8488, 5891.394
657.3309, 5876.649
657.8130, 5865.173
658.2952, 5858.377
658.7773, 5858.164
659.2594, 5864.472
659.7415, 5878.177
660.2236, 5904.347
660.7057, 5929.963
661.1879, 5934.538
661.6700, 5922.956
662.1521, 5908.670
662.6342, 5889.708
663.1163, 5877.474
663.5984, 5885.667
664.0806, 5910.875
664.5627, 5925.032
665.0448, 5908.015
665.5269, 5890.431
666.0090, 5886.591
666.4911, 5899.213
666.9733, 5904.832
667.4554, 5900.408
667.9375, 5895.008
668.4196, 5898.231
668.9017, 5909.582
669.3839, 5912.448
669.8660, 5904.297
670.3481, 5892.616
670.8302, 5882.003
671.3123, 5874.771
671.7944, 5876.921
672.2766, 5896.416
672.7587, 5915.799
673.2408, 5925.351
673.7229, 5926.472
