##NAMES=Heulandite-Ca
##RRUFFID=R061012
##IDEAL CHEMISTRY=(Ca,Na,K)_5_(Si_27_Al_9_)O_72_&#183;26H_2_O
##LOCALITY=Patterson, New Jersey, USA
##OWNER=RRUFF
##SOURCE=Michael Scott
##DESCRIPTION=Aggregate of white or colorless tabular coffin-shaped crystals
##STATUS=The identification of this mineral has been confirmed only by single crystal X-ray diffraction.
##URL=rruff.info/R061012
##MEASURED CHEMISTRY=(Ca_2.94_Na_1.55_K_0.51_)_Σ=5_(Si_28.06_Al_7.94_)_36_O_72_·19.5H_2_O
144.6697, 5358.511
145.1518, 5540.243
145.6340, 5696.964
146.1161, 5830.438
146.5982, 5943.655
147.0803, 6040.354
147.5624, 6123.260
148.0445, 6192.340
148.5267, 6247.937
149.0088, 6277.520
149.4909, 6308.901
149.9730, 6368.112
150.4551, 6441.277
150.9372, 6486.720
151.4194, 6469.749
151.9015, 6388.755
152.3836, 6324.732
152.8657, 6291.230
153.3478, 6259.024
153.8299, 6215.817
154.3121, 6161.393
154.7942, 6098.163
155.2763, 6025.273
155.7584, 5941.758
156.2405, 5878.230
156.7226, 5841.532
157.2048, 5816.854
157.6869, 5798.075
158.1690, 5783.924
158.6511, 5771.456
159.1332, 5757.381
159.6153, 5741.571
160.0975, 5734.176
160.5796, 5740.913
161.0617, 5751.567
161.5438, 5760.389
162.0259, 5766.466
162.5080, 5768.337
162.9902, 5763.650
163.4723, 5751.761
163.9544, 5741.077
164.4365, 5730.888
164.9186, 5722.625
165.4007, 5720.348
165.8829, 5724.362
166.3650, 5725.566
166.8471, 5715.853
167.3292, 5694.977
167.8113, 5667.415
168.2934, 5635.474
168.7756, 5596.186
169.2577, 5544.807
169.7398, 5480.466
170.2219, 5411.117
170.7040, 5343.182
171.1861, 5276.676
171.6683, 5209.878
172.1504, 5141.031
172.6325, 5072.726
173.1146, 5008.339
173.5967, 4948.391
174.0788, 4890.658
174.5610, 4833.339
175.0431, 4776.178
175.5252, 4717.708
176.0073, 4651.596
176.4894, 4586.171
176.9715, 4533.222
177.4537, 4495.345
177.9358, 4462.814
178.4179, 4427.104
178.9000, 4389.093
179.3821, 4353.200
179.8642, 4319.846
180.3464, 4289.400
180.8285, 4264.040
181.3106, 4245.465
181.7927, 4225.740
182.2748, 4191.914
182.7569, 4148.610
183.2391, 4114.596
183.7212, 4102.991
184.2033, 4101.632
184.6854, 4090.883
185.1675, 4067.074
185.6496, 4041.215
186.1318, 4023.210
186.6139, 4011.172
187.0960, 4000.217
187.5781, 3988.024
188.0602, 3976.320
188.5423, 3970.172
189.0245, 3972.992
189.5066, 3971.372
189.9887, 3947.134
190.4708, 3908.275
190.9529, 3876.132
191.4350, 3859.654
191.9172, 3853.709
192.3993, 3852.404
192.8814, 3857.886
193.3635, 3859.852
193.8456, 3843.354
194.3277, 3815.968
194.8099, 3797.165
195.2920, 3801.877
195.7741, 3816.192
196.2562, 3816.580
196.7383, 3799.233
197.2204, 3778.118
197.7026, 3765.399
198.1847, 3757.019
198.6668, 3743.427
199.1489, 3718.495
199.6310, 3687.699
200.1131, 3657.570
200.5953, 3627.247
201.0774, 3601.886
201.5595, 3589.426
202.0416, 3584.703
202.5237, 3578.930
203.0058, 3572.254
203.4880, 3561.943
203.9701, 3541.270
204.4522, 3507.467
204.9343, 3475.880
205.4164, 3460.830
205.8985, 3455.136
206.3806, 3446.201
206.8628, 3428.275
207.3449, 3406.901
207.8270, 3390.989
208.3091, 3382.074
208.7912, 3368.509
209.2733, 3334.476
209.7555, 3292.053
210.2376, 3264.429
210.7197, 3268.854
211.2018, 3280.135
211.6839, 3264.906
212.1660, 3220.447
212.6482, 3181.655
213.1303, 3174.845
213.6124, 3185.421
214.0945, 3187.646
214.5766, 3173.289
215.0587, 3154.048
215.5409, 3140.648
216.0230, 3133.178
216.5051, 3128.996
216.9872, 3130.119
217.4693, 3132.507
217.9514, 3128.255
218.4336, 3110.785
218.9157, 3094.867
219.3978, 3095.337
219.8799, 3111.226
220.3620, 3126.824
220.8441, 3138.514
221.3263, 3143.240
221.8084, 3135.997
222.2905, 3108.920
222.7726, 3084.222
223.2547, 3080.537
223.7368, 3094.882
224.2190, 3106.769
224.7011, 3108.749
225.1832, 3103.299
225.6653, 3094.641
226.1474, 3079.719
226.6295, 3069.493
227.1117, 3071.424
227.5938, 3083.516
228.0759, 3099.601
228.5580, 3119.889
229.0401, 3140.210
229.5222, 3152.686
230.0044, 3155.120
230.4865, 3159.972
230.9686, 3180.967
231.4507, 3208.520
231.9328, 3215.314
232.4149, 3186.476
232.8971, 3149.365
233.3792, 3148.160
233.8613, 3185.134
234.3434, 3219.103
234.8255, 3232.701
235.3076, 3235.730
235.7898, 3245.271
236.2719, 3265.906
236.7540, 3290.145
237.2361, 3308.921
237.7182, 3322.020
238.2003, 3335.030
238.6825, 3348.939
239.1646, 3363.357
239.6467, 3376.141
240.1288, 3386.746
240.6109, 3401.172
241.0930, 3429.405
241.5752, 3473.119
242.0573, 3503.418
242.5394, 3508.419
243.0215, 3505.422
243.5036, 3510.184
243.9857, 3523.880
244.4679, 3537.286
244.9500, 3540.806
245.4321, 3533.939
245.9142, 3538.834
246.3963, 3568.113
246.8784, 3598.406
247.3606, 3616.382
247.8427, 3621.890
248.3248, 3617.731
248.8069, 3601.459
249.2890, 3575.796
249.7711, 3576.777
250.2533, 3626.875
250.7354, 3676.688
251.2175, 3707.944
251.6996, 3722.245
252.1817, 3724.409
252.6638, 3715.277
253.1460, 3698.082
253.6281, 3662.905
254.1102, 3694.119
254.5923, 3710.976
255.0744, 3714.249
255.5565, 3663.250
256.0387, 3682.332
256.5208, 3673.328
257.0029, 3663.173
257.4850, 3692.119
257.9671, 3649.013
258.4492, 3677.339
258.9314, 3677.151
259.4135, 3690.013
259.8956, 3674.615
260.3777, 3667.947
260.8598, 3689.546
261.3419, 3695.493
261.8241, 3637.767
262.3062, 3614.773
262.7883, 3598.862
263.2704, 3584.901
263.7525, 3567.959
264.2346, 3547.810
264.7168, 3528.786
265.1989, 3516.477
265.6810, 3512.747
266.1631, 3509.588
266.6452, 3514.837
267.1273, 3513.965
267.6095, 3493.255
268.0916, 3457.484
268.5737, 3425.192
269.0558, 3414.517
269.5379, 3426.934
270.0201, 3433.341
270.5022, 3430.364
270.9843, 3423.977
271.4664, 3415.737
271.9485, 3405.211
272.4306, 3390.621
272.9128, 3369.704
273.3949, 3344.304
273.8770, 3324.814
274.3591, 3312.516
274.8412, 3304.840
275.3233, 3302.768
275.8055, 3303.700
276.2876, 3304.497
276.7697, 3303.816
277.2518, 3302.122
277.7339, 3300.775
278.2160, 3300.831
278.6982, 3298.215
279.1803, 3287.193
279.6624, 3275.564
280.1445, 3270.786
280.6266, 3275.252
281.1087, 3282.351
281.5909, 3284.264
282.0730, 3280.581
282.5551, 3277.199
283.0372, 3277.827
283.5193, 3277.023
284.0014, 3269.467
284.4836, 3254.931
284.9657, 3240.152
285.4478, 3229.922
285.9299, 3223.557
286.4120, 3217.718
286.8941, 3210.776
287.3763, 3206.449
287.8584, 3209.457
288.3405, 3218.401
288.8226, 3226.367
289.3047, 3227.583
289.7868, 3227.015
290.2690, 3236.366
290.7511, 3259.021
291.2332, 3276.233
291.7153, 3266.995
292.1974, 3239.295
292.6795, 3223.002
293.1617, 3226.692
293.6438, 3239.837
294.1259, 3260.448
294.6080, 3286.246
295.0901, 3298.747
295.5722, 3280.938
296.0544, 3244.766
296.5365, 3234.113
297.0186, 3271.082
297.5007, 3303.907
297.9828, 3307.244
298.4649, 3291.978
298.9471, 3280.839
299.4292, 3282.905
299.9113, 3292.410
300.3934, 3297.231
300.8755, 3295.295
301.3576, 3292.778
301.8398, 3290.536
302.3219, 3287.887
302.8040, 3281.656
303.2861, 3271.906
303.7682, 3266.126
304.2503, 3275.094
304.7325, 3306.773
305.2146, 3326.104
305.6967, 3325.794
306.1788, 3321.248
306.6609, 3320.630
307.1430, 3323.857
307.6252, 3326.974
308.1073, 3326.999
308.5894, 3323.927
309.0715, 3317.409
309.5536, 3296.749
310.0357, 3283.964
310.5179, 3288.364
311.0000, 3302.951
311.4821, 3317.927
311.9642, 3328.775
312.4463, 3334.770
312.9284, 3331.043
313.4106, 3303.201
313.8927, 3294.655
314.3748, 3328.739
314.8569, 3373.560
315.3390, 3401.988
315.8211, 3406.761
316.3033, 3400.200
316.7854, 3394.605
317.2675, 3389.351
317.7496, 3391.246
318.2317, 3410.093
318.7138, 3428.604
319.1960, 3433.624
319.6781, 3426.555
320.1602, 3420.543
320.6423, 3420.932
321.1244, 3428.877
321.6065, 3451.767
322.0887, 3497.092
322.5708, 3540.669
323.0529, 3563.224
323.5350, 3571.330
324.0171, 3577.977
324.4992, 3584.397
324.9814, 3592.716
325.4635, 3608.782
325.9456, 3632.340
326.4277, 3647.403
326.9098, 3639.236
327.3919, 3620.302
327.8741, 3623.682
328.3562, 3663.686
328.8383, 3701.409
329.3204, 3718.527
329.8025, 3721.071
330.2846, 3719.876
330.7667, 3717.726
331.2488, 3716.916
331.7310, 3721.852
332.2131, 3735.765
332.6952, 3746.484
333.1773, 3750.150
333.6594, 3752.341
334.1415, 3756.313
334.6237, 3763.115
335.1058, 3774.813
335.5879, 3794.698
336.0700, 3824.372
336.5521, 3843.422
337.0342, 3845.446
337.5164, 3845.086
337.9985, 3845.959
338.4806, 3848.300
338.9627, 3850.693
339.4448, 3851.858
339.9269, 3854.292
340.4091, 3867.579
340.8912, 3902.405
341.3733, 3930.538
341.8554, 3942.783
342.3375, 3950.622
342.8196, 3962.566
343.3018, 3981.094
343.7839, 4006.202
344.2660, 4042.644
344.7481, 4093.502
345.2302, 4128.824
345.7123, 4134.391
346.1945, 4133.904
346.6766, 4136.041
347.1587, 4142.807
347.6408, 4158.945
348.1229, 4194.915
348.6050, 4241.856
349.0872, 4274.382
349.5693, 4288.436
350.0514, 4301.782
350.5335, 4323.430
351.0156, 4351.958
351.4977, 4386.029
351.9799, 4430.033
352.4620, 4473.787
352.9441, 4508.349
353.4262, 4535.335
353.9083, 4560.863
354.3904, 4585.146
354.8726, 4612.427
355.3547, 4654.285
355.8368, 4717.479
356.3189, 4769.315
356.8010, 4789.564
357.2831, 4801.444
357.7653, 4835.053
358.2474, 4894.163
358.7295, 4955.637
359.2116, 4996.451
359.6937, 5013.645
360.1758, 5031.971
360.6580, 5046.781
361.1401, 5067.062
361.6222, 5092.982
362.1043, 5127.468
362.5864, 5179.929
363.0685, 5258.255
363.5507, 5349.380
364.0328, 5405.130
364.5149, 5388.057
364.9970, 5396.465
365.4791, 5462.425
365.9612, 5542.396
366.4434, 5597.328
366.9255, 5619.968
367.4076, 5633.850
367.8897, 5664.823
368.3718, 5713.737
368.8539, 5766.419
369.3361, 5822.945
369.8182, 5882.283
370.3003, 5949.277
370.7824, 6018.803
371.2645, 6076.376
371.7466, 6105.361
372.2288, 6122.894
372.7109, 6160.558
373.1930, 6220.219
373.6751, 6283.349
374.1572, 6343.163
374.6393, 6399.468
375.1215, 6452.458
375.6036, 6501.611
376.0857, 6548.434
376.5678, 6586.545
377.0499, 6623.486
377.5320, 6679.526
378.0142, 6762.463
378.4963, 6850.194
378.9784, 6914.661
379.4605, 6949.500
379.9426, 6983.613
380.4247, 7008.483
380.9069, 7040.144
381.3890, 7095.068
381.8711, 7168.021
382.3532, 7237.966
382.8353, 7289.539
383.3174, 7327.771
383.7996, 7384.432
384.2817, 7477.717
384.7638, 7568.957
385.2459, 7651.679
385.7280, 7731.562
386.2101, 7815.128
386.6923, 7904.394
387.1744, 7994.573
387.6565, 8075.328
388.1386, 8142.021
388.6207, 8229.147
389.1028, 8354.463
389.5850, 8484.993
390.0671, 8603.085
390.5492, 8711.285
391.0313, 8821.271
391.5134, 8937.944
391.9955, 9060.335
392.4777, 9186.813
392.9598, 9317.920
393.4419, 9451.416
393.9240, 9590.728
394.4061, 9729.665
394.8882, 9853.877
395.3704, 9955.737
395.8525, 10060.02
396.3346, 10189.42
396.8167, 10328.32
397.2988, 10444.70
397.7809, 10530.49
398.2631, 10597.87
398.7452, 10658.69
399.2273, 10711.25
399.7094, 10764.63
400.1915, 10837.27
400.6736, 10893.51
401.1558, 10899.32
401.6379, 10872.51
402.1200, 10863.99
402.6021, 10906.65
403.0842, 10975.58
403.5663, 10981.79
404.0485, 10883.35
404.5306, 10787.08
405.0127, 10709.14
405.4948, 10632.77
405.9769, 10541.73
406.4590, 10435.22
406.9412, 10329.26
407.4233, 10246.52
407.9054, 10184.77
408.3875, 10099.46
408.8696, 9981.272
409.3517, 9852.505
409.8339, 9728.231
410.3160, 9601.644
410.7981, 9459.745
411.2802, 9287.140
411.7623, 9111.859
412.2444, 8967.104
412.7266, 8849.138
413.2087, 8724.352
413.6908, 8578.380
414.1729, 8425.126
414.6550, 8289.539
415.1371, 8177.139
415.6193, 8052.034
416.1014, 7899.302
416.5835, 7737.031
417.0656, 7581.407
417.5477, 7433.891
418.0298, 7290.499
418.5120, 7147.171
418.9941, 7004.366
419.4762, 6860.667
419.9583, 6715.656
420.4404, 6570.482
420.9225, 6415.842
421.4047, 6265.068
421.8868, 6137.186
422.3689, 6036.292
422.8510, 5941.186
423.3331, 5821.921
423.8152, 5673.429
424.2974, 5535.369
424.7795, 5414.783
425.2616, 5300.229
425.7437, 5187.576
426.2258, 5076.167
426.7079, 4964.199
427.1901, 4847.916
427.6722, 4734.248
428.1543, 4631.504
428.6364, 4540.008
429.1185, 4458.027
429.6006, 4387.807
430.0828, 4324.063
430.5649, 4257.436
431.0470, 4187.742
431.5291, 4117.225
432.0112, 4041.957
432.4933, 3969.036
432.9755, 3908.101
433.4576, 3858.967
433.9397, 3811.021
434.4218, 3753.597
434.9039, 3688.345
435.3860, 3643.950
435.8682, 3639.943
436.3503, 3633.302
436.8324, 3617.969
437.3145, 3595.760
437.7966, 3567.805
438.2787, 3534.758
438.7609, 3500.427
439.2430, 3467.723
439.7251, 3436.135
440.2072, 3412.788
440.6893, 3402.534
441.1714, 3395.282
441.6536, 3373.787
442.1357, 3336.242
442.6178, 3353.518
443.0999, 3359.776
443.5820, 3355.612
444.0641, 3309.804
444.5463, 3317.768
445.0284, 3304.184
445.5105, 3289.716
445.9926, 3305.250
446.4747, 3265.499
446.9568, 3280.559
447.4390, 3273.737
447.9211, 3272.423
448.4032, 3291.261
448.8853, 3310.583
449.3674, 3327.950
449.8495, 3339.958
450.3317, 3342.778
450.8138, 3339.898
451.2959, 3349.791
451.7780, 3380.401
452.2601, 3413.424
452.7422, 3446.793
453.2244, 3481.513
453.7065, 3519.469
454.1886, 3560.423
454.6707, 3601.224
455.1528, 3633.553
455.6349, 3659.930
456.1171, 3706.413
456.5992, 3780.164
457.0813, 3859.199
457.5634, 3933.742
458.0455, 4005.286
458.5276, 4075.759
459.0098, 4146.185
459.4919, 4214.712
459.9740, 4274.131
460.4561, 4331.039
460.9382, 4404.723
461.4203, 4501.987
461.9025, 4602.964
462.3846, 4684.263
462.8667, 4741.088
463.3488, 4808.430
463.8309, 4891.726
464.3130, 4979.052
464.7952, 5068.790
465.2773, 5158.029
465.7594, 5239.694
466.2415, 5310.398
466.7236, 5378.754
467.2057, 5464.135
467.6879, 5574.909
468.1700, 5672.657
468.6521, 5736.001
469.1342, 5800.803
469.6163, 5889.527
470.0984, 5996.381
470.5806, 6100.160
471.0627, 6183.245
471.5448, 6261.092
472.0269, 6356.075
472.5090, 6468.241
472.9911, 6587.983
473.4733, 6714.597
473.9554, 6845.089
474.4375, 6974.954
474.9196, 7104.240
475.4017, 7234.406
475.8839, 7368.985
476.3660, 7502.924
476.8481, 7637.825
477.3302, 7770.047
477.8123, 7886.044
478.2944, 7976.404
478.7766, 8044.104
479.2587, 8100.715
479.7408, 8153.805
480.2229, 8181.835
480.7050, 8180.679
481.1871, 8158.371
481.6693, 8122.341
482.1514, 8072.618
482.6335, 8002.035
483.1156, 7905.067
483.5977, 7782.932
484.0798, 7634.818
484.5620, 7454.771
485.0441, 7274.776
485.5262, 7115.025
486.0083, 6963.585
486.4904, 6798.932
486.9725, 6618.471
487.4547, 6430.073
487.9368, 6225.157
488.4189, 6018.946
488.9010, 5839.639
489.3831, 5688.361
489.8652, 5536.121
490.3474, 5355.585
490.8295, 5150.373
491.3116, 4962.535
491.7937, 4794.737
492.2758, 4644.090
492.7579, 4521.439
493.2401, 4409.958
493.7222, 4291.672
494.2043, 4163.583
494.6864, 4033.806
495.1685, 3907.487
495.6506, 3785.723
496.1327, 3675.530
496.6148, 3578.418
497.0970, 3486.774
497.5791, 3394.788
498.0612, 3305.449
498.5433, 3226.818
499.0254, 3165.143
499.5075, 3103.086
499.9897, 3025.818
500.4718, 2945.005
500.9539, 2880.905
501.4360, 2836.805
501.9181, 2798.093
502.4002, 2750.738
502.8824, 2694.622
503.3645, 2644.489
503.8466, 2604.662
504.3287, 2566.292
504.8108, 2519.869
505.2929, 2478.340
505.7751, 2453.105
506.2572, 2446.806
506.7393, 2443.238
507.2214, 2431.780
507.7035, 2412.857
508.1856, 2364.108
508.6678, 2353.869
509.1499, 2328.199
509.6320, 2301.898
510.1141, 2297.083
510.5962, 2252.674
511.0783, 2247.519
511.5605, 2207.577
512.0426, 2209.563
512.5247, 2221.378
513.0068, 2217.456
513.4890, 2193.668
513.9711, 2164.759
514.4532, 2144.774
514.9353, 2133.452
515.4174, 2117.843
515.8995, 2084.630
516.3817, 2063.780
516.8638, 2072.198
517.3459, 2088.884
517.8280, 2090.417
518.3101, 2072.289
518.7922, 2051.999
519.2744, 2049.369
519.7565, 2058.748
520.2386, 2054.007
520.7207, 2030.862
521.2028, 2007.105
521.6849, 1993.350
522.1671, 1986.545
522.6492, 1976.872
523.1313, 1959.909
523.6134, 1948.565
524.0955, 1953.256
524.5776, 1962.253
525.0598, 1961.861
525.5419, 1950.941
526.0240, 1937.444
526.5061, 1927.936
526.9882, 1921.504
527.4703, 1911.170
527.9525, 1892.750
528.4346, 1877.431
528.9167, 1868.601
529.3988, 1862.427
529.8809, 1856.910
530.3630, 1851.432
530.8452, 1843.913
531.3273, 1828.777
531.8094, 1812.028
532.2915, 1807.737
532.7736, 1816.420
533.2557, 1823.810
533.7379, 1823.467
534.2200, 1816.830
534.7021, 1805.499
535.1842, 1781.917
535.6663, 1771.615
536.1484, 1789.760
536.6306, 1812.005
537.1127, 1821.843
537.5948, 1819.441
538.0769, 1809.933
538.5590, 1795.208
539.0411, 1779.839
539.5233, 1777.470
540.0054, 1792.800
540.4875, 1802.404
540.9696, 1800.762
541.4517, 1793.226
541.9338, 1779.058
542.4160, 1761.181
542.8981, 1752.878
543.3802, 1767.470
543.8623, 1786.958
544.3444, 1796.423
544.8265, 1797.108
545.3087, 1791.749
545.7908, 1780.720
546.2729, 1769.115
546.7550, 1764.590
547.2371, 1769.494
547.7192, 1771.213
548.2014, 1770.468
548.6835, 1766.073
549.1656, 1752.831
549.6477, 1737.236
550.1298, 1728.983
550.6119, 1731.646
551.0941, 1739.395
551.5762, 1746.399
552.0583, 1752.731
552.5404, 1760.406
553.0225, 1772.183
553.5046, 1776.060
553.9868, 1756.558
554.4689, 1722.251
554.9510, 1707.880
555.4331, 1729.624
555.9152, 1748.599
556.3973, 1752.056
556.8795, 1746.898
557.3616, 1738.110
557.8437, 1728.006
558.3258, 1721.026
558.8079, 1721.459
559.2900, 1727.845
559.7722, 1731.046
560.2543, 1727.870
560.7364, 1728.622
561.2185, 1742.211
561.7006, 1756.368
562.1827, 1761.911
562.6649, 1758.428
563.1470, 1750.604
563.6291, 1735.547
564.1112, 1720.554
564.5933, 1715.373
565.0754, 1718.550
565.5576, 1722.792
566.0397, 1725.405
566.5218, 1725.484
567.0039, 1720.438
567.4860, 1705.021
567.9681, 1700.193
568.4503, 1714.722
568.9324, 1729.341
569.4145, 1732.868
569.8966, 1731.701
570.3787, 1737.842
570.8608, 1756.357
571.3430, 1779.153
571.8251, 1800.218
572.3072, 1818.187
572.7893, 1822.854
573.2714, 1810.501
573.7535, 1794.969
574.2357, 1785.135
574.7178, 1780.592
575.1999, 1778.449
575.6820, 1774.581
576.1641, 1778.296
576.6462, 1798.095
577.1283, 1822.356
577.6104, 1841.754
578.0925, 1854.177
578.5746, 1859.487
579.0568, 1856.691
579.5389, 1847.749
580.0210, 1838.362
580.5031, 1826.970
580.9852, 1821.409
581.4673, 1824.288
581.9495, 1833.533
582.4316, 1850.034
582.9137, 1872.687
583.3958, 1888.161
583.8779, 1885.656
584.3600, 1881.078
584.8422, 1885.567
585.3243, 1897.340
585.8064, 1913.034
586.2885, 1931.372
586.7706, 1948.448
587.2527, 1958.239
587.7349, 1959.632
588.2170, 1964.523
588.6991, 1976.391
589.1812, 1987.043
589.6633, 1989.784
590.1454, 1991.944
590.6276, 2004.259
591.1097, 2029.542
591.5918, 2053.138
592.0739, 2063.442
592.5560, 2066.795
593.0381, 2072.030
593.5203, 2080.043
594.0024, 2092.356
594.4845, 2110.630
594.9666, 2132.064
595.4487, 2149.915
595.9308, 2161.265
596.4130, 2174.503
596.8951, 2186.256
597.3772, 2202.937
597.8593, 2231.573
598.3414, 2267.010
598.8235, 2298.885
599.3057, 2322.648
599.7878, 2342.329
600.2699, 2361.028
600.7520, 2379.432
601.2341, 2400.408
601.7162, 2424.379
602.1984, 2451.520
602.6805, 2484.199
603.1626, 2520.368
603.6447, 2545.124
604.1268, 2555.183
604.6089, 2559.499
605.0911, 2549.033
605.5732, 2540.658
606.0553, 2551.860
606.5374, 2579.861
607.0195, 2607.624
607.5016, 2624.308
607.9838, 2633.135
608.4659, 2641.513
608.9480, 2649.458
609.4301, 2649.629
609.9122, 2637.218
610.3943, 2622.727
610.8765, 2619.640
611.3586, 2627.500
611.8407, 2622.953
612.3228, 2597.720
612.8049, 2569.068
613.2870, 2541.458
613.7692, 2514.860
614.2513, 2487.662
614.7334, 2460.215
615.2155, 2437.320
615.6976, 2425.717
616.1797, 2421.370
616.6619, 2406.015
617.1440, 2377.708
617.6261, 2348.717
618.1082, 2324.277
618.5903, 2299.907
619.0724, 2267.370
619.5546, 2226.200
620.0367, 2194.281
620.5188, 2184.210
621.0009, 2174.552
621.4830, 2152.745
621.9651, 2122.756
622.4473, 2091.194
622.9294, 2060.526
623.4115, 2032.120
623.8936, 2007.640
624.3757, 1987.025
624.8578, 1968.609
625.3400, 1952.406
625.8221, 1939.086
626.3042, 1933.718
626.7863, 1928.211
627.2684, 1908.088
627.7505, 1869.786
628.2327, 1844.299
628.7148, 1855.029
629.1969, 1868.212
629.6790, 1855.301
630.1611, 1825.056
630.6432, 1800.375
631.1254, 1790.165
631.6075, 1785.564
632.0896, 1773.601
632.5717, 1753.696
633.0538, 1738.784
633.5359, 1731.776
634.0181, 1723.499
634.5002, 1705.773
634.9823, 1686.299
635.4644, 1676.604
635.9465, 1678.987
636.4286, 1682.404
636.9108, 1688.582
637.3929, 1690.021
637.8750, 1676.216
638.3571, 1652.153
638.8392, 1631.395
639.3214, 1619.865
