##NAMES=Heulandite-Ca
##RRUFFID=R040021
##IDEAL CHEMISTRY=(Ca,Na,K)_5_(Si_27_Al_9_)O_72_&#183;26H_2_O
##LOCALITY=Prospect Park, Patterson, Passaic County, New Jersey, USA
##OWNER=RRUFF
##SOURCE=University of Arizona Mineral Museum
##DESCRIPTION=Group of colorless lamellar crystals
##STATUS=The identification of this mineral has been confirmed by X-ray diffraction and chemical analysis
##URL=rruff.info/R040021
##MEASURED CHEMISTRY=Na_0.25_(Na_0.55_K_0.45_)_Σ=1_(Ca_2.42_Na_0.85_Sr_0.73_)_Σ=4.00_(Si_27.60_Al_8.40_)_Σ=36_O_72_·24H_2_O ; H_2_O estimated by difference
105.6183, 937.9248
106.1004, 956.7148
106.5825, 985.6021
107.0646, 1036.101
107.5468, 1103.112
108.0289, 1163.491
108.5110, 1203.035
108.9931, 1235.825
109.4752, 1282.553
109.9573, 1344.196
110.4394, 1418.418
110.9216, 1497.775
111.4037, 1581.294
111.8858, 1693.074
112.3679, 1852.919
112.8500, 2044.461
113.3321, 2253.467
113.8143, 2484.717
114.2964, 2721.763
114.7785, 2948.575
115.2606, 3174.494
115.7427, 3359.428
116.2248, 3472.442
116.7070, 3542.609
117.1891, 3595.649
117.6712, 3637.849
118.1533, 3673.176
118.6354, 3705.680
119.1175, 3711.443
119.5997, 3760.965
120.0818, 3850.090
120.5639, 3993.836
121.0460, 4213.687
121.5281, 4520.222
122.0102, 4912.119
122.4924, 5395.979
122.9745, 6043.742
123.4566, 6702.782
123.9387, 7351.786
124.4208, 7975.654
124.9029, 8551.643
125.3851, 9056.485
125.8672, 9489.690
126.3493, 9917.500
126.8314, 10259.92
127.3135, 10672.85
127.7956, 11227.12
128.2778, 11902.39
128.7599, 12640.76
129.2420, 13392.16
129.7241, 14160.69
130.2062, 14911.41
130.6883, 15843.45
131.1705, 16599.62
131.6526, 17010.22
132.1347, 17070.73
132.6168, 16874.61
133.0989, 16510.62
133.5810, 15924.84
134.0632, 15307.83
134.5453, 14645.25
135.0274, 13968.60
135.5095, 13247.94
135.9916, 12501.04
136.4737, 11816.57
136.9559, 11316.81
137.4380, 11039.40
137.9201, 10920.83
138.4022, 10999.73
138.8843, 11199.99
139.3664, 11462.94
139.8486, 11771.73
140.3307, 12147.57
140.8128, 12624.43
141.2949, 13269.48
141.7770, 13914.98
142.2591, 14540.85
142.7413, 15169.59
143.2234, 15819.07
143.7055, 16492.06
144.1876, 17204.54
144.6697, 18006.28
145.1518, 18978.29
145.6340, 19875.11
146.1161, 20748.49
146.5982, 21507.92
147.0803, 22045.36
147.5624, 22333.51
148.0445, 22352.54
148.5267, 21986.56
149.0088, 21112.20
149.4909, 20216.80
149.9730, 19412.23
150.4551, 18666.68
150.9372, 17904.75
151.4194, 17071.81
151.9015, 16245.68
152.3836, 15602.65
152.8657, 15170.88
153.3478, 14810.51
153.8299, 14442.23
154.3121, 14101.65
154.7942, 13904.79
155.2763, 13947.08
155.7584, 14114.54
156.2405, 14145.91
156.7226, 14005.62
157.2048, 13815.08
157.6869, 13608.71
158.1690, 13394.50
158.6511, 13203.39
159.1332, 13053.80
159.6153, 12936.12
160.0975, 12819.71
160.5796, 12687.02
161.0617, 12583.47
161.5438, 12564.18
162.0259, 12616.26
162.5080, 12641.45
162.9902, 12599.70
163.4723, 12497.18
163.9544, 12357.97
164.4365, 12166.41
164.9186, 11965.51
165.4007, 11784.02
165.8829, 11621.55
166.3650, 11478.38
166.8471, 11368.89
167.3292, 11273.64
167.8113, 11163.42
168.2934, 11038.44
168.7756, 10894.73
169.2577, 10724.52
169.7398, 10527.46
170.2219, 10323.77
170.7040, 10106.79
171.1861, 9896.636
171.6683, 9720.425
172.1504, 9593.124
172.6325, 9483.658
173.1146, 9359.800
173.5967, 9219.652
174.0788, 9084.412
174.5610, 8963.078
175.0431, 8850.755
175.5252, 8746.161
176.0073, 8656.487
176.4894, 8560.000
176.9715, 8422.256
177.4537, 8235.862
177.9358, 8060.037
178.4179, 7930.663
178.9000, 7822.398
179.3821, 7709.056
179.8642, 7580.504
180.3464, 7453.115
180.8285, 7353.585
181.3106, 7288.892
181.7927, 7212.410
182.2748, 7086.881
182.7569, 6945.929
183.2391, 6820.253
183.7212, 6719.454
184.2033, 6633.639
184.6854, 6549.079
185.1675, 6463.470
185.6496, 6391.071
186.1318, 6359.250
186.6139, 6334.943
187.0960, 6285.129
187.5781, 6195.222
188.0602, 6092.607
188.5423, 6009.390
189.0245, 5946.880
189.5066, 5900.856
189.9887, 5876.116
190.4708, 5865.278
190.9529, 5868.737
191.4350, 5892.097
191.9172, 5912.764
192.3993, 5895.833
192.8814, 5832.722
193.3635, 5771.544
193.8456, 5724.024
194.3277, 5687.595
194.8099, 5665.405
195.2920, 5661.389
195.7741, 5658.525
196.2562, 5632.973
196.7383, 5580.272
197.2204, 5525.776
197.7026, 5475.831
198.1847, 5428.116
198.6668, 5379.448
199.1489, 5327.892
199.6310, 5280.264
200.1131, 5246.724
200.5953, 5230.129
201.0774, 5212.344
201.5595, 5189.903
202.0416, 5163.028
202.5237, 5132.457
203.0058, 5098.447
203.4880, 5058.051
203.9701, 5004.984
204.4522, 4936.796
204.9343, 4871.838
205.4164, 4819.406
205.8985, 4769.476
206.3807, 4712.313
206.8628, 4645.379
207.3449, 4582.941
207.8270, 4544.370
208.3091, 4532.598
208.7912, 4514.663
209.2734, 4476.399
209.7555, 4433.889
210.2376, 4399.799
210.7197, 4375.689
211.2018, 4351.679
211.6839, 4311.936
212.1660, 4255.053
212.6482, 4219.487
213.1303, 4233.884
213.6124, 4255.906
214.0945, 4254.706
214.5766, 4228.580
215.0587, 4198.200
215.5409, 4180.497
216.0230, 4175.283
216.5051, 4174.293
216.9872, 4184.144
217.4693, 4190.106
217.9514, 4179.218
218.4336, 4152.556
218.9157, 4126.126
219.3978, 4114.395
219.8799, 4115.448
220.3620, 4110.409
220.8441, 4094.094
221.3263, 4074.221
221.8084, 4056.454
222.2905, 4040.406
222.7726, 4023.654
223.2547, 4002.175
223.7368, 3977.666
224.2190, 3959.247
224.7011, 3948.927
225.1832, 3943.197
225.6653, 3940.830
226.1474, 3940.803
226.6295, 3939.445
227.1117, 3934.871
227.5938, 3927.448
228.0759, 3916.472
228.5580, 3897.386
229.0401, 3884.121
229.5222, 3883.031
230.0044, 3893.880
230.4865, 3918.564
230.9686, 3975.597
231.4507, 4043.644
231.9328, 4075.020
232.4149, 4058.786
232.8971, 4034.835
233.3792, 4024.342
233.8613, 4024.850
234.3434, 4034.402
234.8255, 4058.643
235.3076, 4088.426
235.7898, 4110.804
236.2719, 4124.992
236.7540, 4136.158
237.2361, 4143.816
237.7182, 4151.206
238.2003, 4164.539
238.6825, 4188.189
239.1646, 4215.290
239.6467, 4239.719
240.1288, 4261.609
240.6109, 4279.880
241.0930, 4291.792
241.5752, 4300.583
242.0573, 4312.848
242.5394, 4331.845
243.0215, 4350.540
243.5036, 4363.404
243.9857, 4370.970
244.4679, 4376.942
244.9500, 4381.997
245.4321, 4387.042
245.9142, 4394.222
246.3963, 4405.630
246.8784, 4414.476
247.3606, 4418.347
247.8427, 4416.906
248.3248, 4407.187
248.8069, 4384.301
249.2890, 4358.359
249.7711, 4348.117
250.2533, 4356.602
250.7354, 4365.004
251.2175, 4370.854
251.6996, 4371.404
252.1817, 4360.195
252.6638, 4334.255
253.1460, 4300.750
253.6281, 4268.722
254.1102, 4238.223
254.5923, 4208.574
255.0744, 4179.196
255.5565, 4150.679
256.0387, 4121.765
256.5208, 4092.261
257.0029, 4068.929
257.4850, 4062.001
257.9671, 4076.221
258.4492, 4078.906
258.9314, 4063.195
259.4135, 4039.698
259.8956, 4014.386
260.3777, 3988.534
260.8598, 3964.583
261.3419, 3944.881
261.8241, 3929.969
262.3062, 3912.252
262.7883, 3893.446
263.2704, 3870.851
263.7525, 3838.273
264.2346, 3799.582
264.7168, 3767.406
265.1989, 3751.885
265.6810, 3750.573
266.1631, 3734.933
266.6452, 3689.433
267.1273, 3648.889
267.6095, 3622.696
268.0916, 3607.962
268.5737, 3600.415
269.0558, 3598.357
269.5379, 3599.480
270.0201, 3595.871
270.5022, 3585.714
270.9843, 3572.238
271.4664, 3549.952
271.9485, 3526.761
272.4306, 3512.611
272.9128, 3510.846
273.3949, 3514.556
273.8770, 3510.845
274.3591, 3496.537
274.8412, 3479.622
275.3233, 3452.355
275.8055, 3428.130
276.2876, 3421.559
276.7697, 3432.560
277.2518, 3444.170
277.7339, 3431.946
278.2160, 3384.350
278.6982, 3355.960
279.1803, 3361.556
279.6624, 3373.030
280.1445, 3381.939
280.6266, 3386.164
281.1087, 3384.844
281.5909, 3376.371
282.0730, 3360.862
282.5551, 3344.777
283.0372, 3326.941
283.5193, 3309.762
284.0014, 3295.396
284.4836, 3282.218
284.9657, 3266.741
285.4478, 3245.464
285.9299, 3221.748
286.4120, 3207.820
286.8941, 3209.762
287.3763, 3208.250
287.8584, 3192.661
288.3405, 3171.380
288.8226, 3153.571
289.3047, 3142.587
289.7868, 3135.478
290.2690, 3129.195
290.7511, 3124.046
291.2332, 3117.100
291.7153, 3102.785
292.1974, 3089.435
292.6795, 3088.256
293.1617, 3102.756
293.6438, 3113.333
294.1259, 3097.126
294.6080, 3060.758
295.0901, 3041.745
295.5722, 3054.876
296.0544, 3078.676
296.5365, 3092.442
297.0186, 3096.683
297.5007, 3091.853
297.9828, 3064.811
298.4649, 3032.486
298.9471, 3027.502
299.4292, 3057.360
299.9113, 3093.098
300.3934, 3107.154
300.8755, 3101.703
301.3576, 3102.605
301.8398, 3118.684
302.3219, 3137.579
302.8040, 3146.883
303.2861, 3148.000
303.7682, 3154.460
304.2503, 3177.366
304.7325, 3212.865
305.2146, 3235.397
305.6967, 3239.904
306.1788, 3239.229
306.6609, 3232.706
307.1430, 3224.698
307.6252, 3224.917
308.1073, 3238.427
308.5894, 3258.149
309.0715, 3266.813
309.5536, 3254.944
310.0357, 3244.296
310.5179, 3228.630
311.0000, 3218.086
311.4821, 3228.156
311.9642, 3259.807
312.4463, 3293.137
312.9284, 3299.632
313.4106, 3265.242
313.8927, 3249.850
314.3748, 3269.938
314.8569, 3291.233
315.3390, 3295.859
315.8211, 3285.620
316.3033, 3272.649
316.7854, 3266.606
317.2675, 3267.014
317.7496, 3265.298
318.2317, 3257.737
318.7138, 3252.584
319.1960, 3254.067
319.6781, 3258.661
320.1602, 3260.787
320.6423, 3257.155
321.1244, 3251.418
321.6065, 3252.266
322.0887, 3262.371
322.5708, 3270.736
323.0529, 3271.369
323.5350, 3270.639
324.0171, 3273.992
324.4992, 3282.642
324.9814, 3292.272
325.4635, 3299.558
325.9456, 3304.533
326.4277, 3306.527
326.9098, 3303.189
327.3919, 3299.728
327.8741, 3301.061
328.3562, 3306.700
328.8383, 3312.696
329.3204, 3315.515
329.8025, 3318.207
330.2846, 3328.248
330.7668, 3347.448
331.2489, 3363.531
331.7310, 3363.358
332.2131, 3351.428
332.6952, 3349.642
333.1773, 3370.542
333.6595, 3392.362
334.1415, 3400.381
334.6237, 3397.017
335.1058, 3390.676
335.5879, 3384.397
336.0700, 3379.335
336.5521, 3379.508
337.0342, 3389.480
337.5164, 3396.883
337.9985, 3390.421
338.4806, 3384.258
338.9627, 3401.097
339.4448, 3445.393
339.9269, 3492.439
340.4091, 3506.624
340.8912, 3469.523
341.3733, 3457.113
341.8554, 3486.874
342.3375, 3521.780
342.8196, 3542.197
343.3018, 3549.559
343.7839, 3555.251
344.2660, 3567.365
344.7481, 3585.671
345.2302, 3608.406
345.7123, 3642.875
346.1945, 3671.947
346.6766, 3686.793
347.1587, 3696.433
347.6408, 3713.769
348.1229, 3744.779
348.6050, 3779.180
349.0872, 3796.410
349.5693, 3790.243
350.0514, 3796.283
350.5335, 3837.638
351.0156, 3882.505
351.4977, 3904.785
351.9799, 3904.025
352.4620, 3907.859
352.9441, 3943.249
353.4262, 4000.382
353.9083, 4041.484
354.3904, 4059.391
354.8726, 4070.761
355.3547, 4082.618
355.8368, 4097.359
356.3189, 4124.146
356.8010, 4179.810
357.2831, 4237.752
357.7653, 4271.016
358.2474, 4282.168
358.7295, 4291.671
359.2116, 4308.067
359.6937, 4331.271
360.1758, 4361.867
360.6580, 4402.440
361.1401, 4444.322
361.6222, 4485.301
362.1043, 4526.219
362.5864, 4568.815
363.0685, 4613.615
363.5507, 4658.080
364.0328, 4698.813
364.5149, 4735.360
364.9970, 4769.477
365.4791, 4793.459
365.9612, 4822.445
366.4434, 4867.115
366.9255, 4923.950
367.4076, 4981.468
367.8897, 5031.786
368.3718, 5076.530
368.8539, 5125.386
369.3361, 5181.974
369.8182, 5236.955
370.3003, 5288.418
370.7824, 5337.329
371.2645, 5381.504
371.7466, 5420.081
372.2288, 5463.847
372.7109, 5534.484
373.1930, 5634.999
373.6751, 5711.675
374.1572, 5742.305
374.6393, 5761.130
375.1215, 5788.325
375.6036, 5824.506
376.0857, 5870.998
376.5678, 5933.592
377.0499, 6005.257
377.5320, 6075.679
378.0142, 6145.387
378.4963, 6206.138
378.9784, 6247.313
379.4605, 6276.441
379.9426, 6318.089
380.4247, 6379.090
380.9069, 6444.213
381.3890, 6504.437
381.8711, 6564.144
382.3532, 6632.219
382.8353, 6711.846
383.3174, 6802.154
383.7996, 6903.493
384.2817, 7026.296
384.7638, 7134.914
385.2459, 7219.488
385.7280, 7298.186
386.2101, 7375.679
386.6923, 7457.237
387.1744, 7553.878
387.6565, 7676.007
388.1386, 7820.613
388.6207, 7959.242
389.1028, 8092.802
389.5850, 8217.009
390.0671, 8320.071
390.5492, 8418.140
391.0313, 8530.691
391.5134, 8663.580
391.9955, 8805.470
392.4777, 8943.296
392.9598, 9077.512
393.4419, 9204.657
393.9240, 9321.495
394.4061, 9433.471
394.8882, 9536.840
395.3704, 9635.594
395.8525, 9747.704
396.3346, 9903.880
396.8167, 10069.84
397.2988, 10181.56
397.7809, 10235.19
398.2631, 10287.37
398.7452, 10375.14
399.2273, 10480.53
399.7094, 10554.46
400.1915, 10590.65
400.6736, 10606.81
401.1558, 10602.80
401.6379, 10585.29
402.1200, 10566.28
402.6021, 10548.85
403.0842, 10525.10
403.5663, 10485.65
404.0485, 10429.56
404.5306, 10358.90
405.0127, 10266.19
405.4948, 10168.29
405.9769, 10075.41
406.4590, 9984.164
406.9412, 9885.973
407.4233, 9776.347
407.9054, 9655.506
408.3875, 9525.806
408.8696, 9381.107
409.3517, 9240.057
409.8339, 9111.441
410.3160, 8982.978
410.7981, 8841.869
411.2802, 8687.390
411.7623, 8539.293
412.2444, 8422.913
412.7266, 8330.467
413.2087, 8215.536
413.6908, 8066.725
414.1729, 7914.794
414.6550, 7778.499
415.1371, 7654.968
415.6193, 7538.349
416.1014, 7441.620
416.5835, 7338.060
417.0656, 7204.832
417.5477, 7048.301
418.0298, 6887.207
418.5120, 6725.030
418.9941, 6567.367
419.4762, 6423.343
419.9583, 6297.741
420.4404, 6175.006
420.9225, 6054.651
421.4047, 5936.496
421.8868, 5822.468
422.3689, 5710.929
422.8510, 5595.490
423.3331, 5471.059
423.8152, 5339.620
424.2974, 5218.743
424.7795, 5104.918
425.2616, 5009.553
425.7437, 4956.654
426.2258, 4909.125
426.7079, 4823.713
427.1901, 4691.562
427.6722, 4556.841
428.1543, 4473.151
428.6364, 4436.076
429.1185, 4376.581
429.6006, 4279.548
430.0828, 4174.640
430.5649, 4077.288
431.0470, 3987.984
431.5291, 3908.885
432.0112, 3844.712
432.4933, 3787.697
432.9755, 3732.906
433.4576, 3679.967
433.9397, 3627.516
434.4218, 3574.872
434.9039, 3521.976
435.3860, 3468.241
435.8682, 3410.201
436.3503, 3360.089
436.8324, 3324.310
437.3145, 3292.235
437.7966, 3252.773
438.2787, 3208.548
438.7609, 3173.970
439.2430, 3161.073
439.7251, 3164.866
440.2072, 3153.375
440.6893, 3109.767
441.1714, 3077.239
441.6536, 3070.455
442.1357, 3072.249
442.6178, 3067.335
443.0999, 3052.504
443.5820, 3034.320
444.0641, 3017.911
444.5463, 3003.177
445.0284, 2989.031
445.5105, 2973.198
445.9926, 2963.019
446.4747, 2969.001
446.9568, 2984.459
447.4390, 2994.301
447.9211, 2991.688
448.4032, 2987.864
448.8853, 2989.947
449.3674, 2996.518
449.8495, 3003.003
450.3317, 3007.387
450.8138, 3015.029
451.2959, 3033.961
451.7780, 3067.551
452.2601, 3102.531
452.7422, 3132.279
453.2244, 3169.243
453.7065, 3227.281
454.1886, 3297.464
454.6707, 3359.270
455.1528, 3399.788
455.6349, 3427.727
456.1171, 3465.664
456.5992, 3515.745
457.0813, 3569.694
457.5634, 3622.626
458.0455, 3682.099
458.5276, 3757.528
459.0098, 3847.251
459.4919, 3934.057
459.9740, 4005.377
460.4561, 4067.339
460.9382, 4133.540
461.4203, 4205.398
461.9025, 4269.147
462.3846, 4312.679
462.8667, 4345.401
463.3488, 4395.161
463.8309, 4475.605
464.3130, 4546.312
464.7952, 4593.147
465.2773, 4625.685
465.7594, 4650.212
466.2415, 4669.803
466.7236, 4692.956
467.2057, 4729.029
467.6879, 4777.902
468.1700, 4817.885
468.6521, 4844.216
469.1342, 4866.242
469.6163, 4881.473
470.0984, 4895.332
470.5806, 4911.934
471.0627, 4932.504
471.5448, 4961.568
472.0269, 5005.086
472.5090, 5062.564
472.9911, 5125.509
473.4733, 5193.181
473.9554, 5267.284
474.4375, 5347.428
474.9196, 5435.113
475.4017, 5535.813
475.8839, 5656.606
476.3660, 5784.871
476.8481, 5913.460
477.3302, 6043.642
477.8123, 6175.367
478.2944, 6308.113
478.7766, 6448.928
479.2587, 6609.709
479.7408, 6805.403
480.2229, 6962.940
480.7050, 7061.905
481.1871, 7149.813
481.6693, 7248.640
482.1514, 7350.267
482.6335, 7439.206
483.1156, 7508.313
483.5977, 7555.839
484.0798, 7579.687
484.5620, 7580.718
485.0441, 7550.158
485.5262, 7474.778
486.0083, 7378.327
486.4904, 7283.449
486.9725, 7186.671
487.4547, 7071.014
487.9368, 6922.520
488.4189, 6757.697
488.9010, 6593.875
489.3831, 6430.104
489.8652, 6260.572
490.3474, 6082.203
490.8295, 5898.465
491.3116, 5712.631
491.7937, 5524.725
492.2758, 5335.731
492.7579, 5134.914
493.2401, 4943.098
493.7222, 4776.489
494.2043, 4628.988
494.6864, 4478.636
495.1685, 4310.658
495.6506, 4136.572
496.1328, 3987.612
496.6149, 3869.934
497.0970, 3750.901
497.5791, 3620.248
498.0612, 3489.374
498.5433, 3364.070
499.0254, 3245.084
499.5075, 3138.540
499.9897, 3055.132
500.4718, 2980.781
500.9539, 2895.908
501.4360, 2802.270
501.9181, 2714.137
502.4002, 2637.740
502.8824, 2572.372
503.3645, 2517.105
503.8466, 2477.373
504.3287, 2437.934
504.8108, 2397.968
505.2929, 2358.832
505.7751, 2320.842
506.2572, 2284.455
506.7393, 2249.410
507.2214, 2215.585
507.7035, 2184.020
508.1856, 2158.903
508.6678, 2142.343
509.1499, 2124.961
509.6320, 2106.747
510.1141, 2085.139
510.5962, 2055.909
511.0783, 2020.051
511.5605, 1987.266
512.0426, 1962.462
512.5247, 1942.303
513.0068, 1923.409
513.4890, 1905.627
513.9711, 1889.135
514.4532, 1874.397
514.9353, 1859.997
515.4174, 1842.858
515.8995, 1817.937
516.3817, 1800.788
516.8638, 1795.732
517.3459, 1794.510
517.8280, 1795.808
518.3101, 1796.760
518.7922, 1791.107
519.2744, 1773.931
519.7565, 1752.144
520.2386, 1741.472
520.7207, 1743.807
521.2028, 1746.686
521.6849, 1751.734
522.1671, 1751.891
522.6492, 1736.850
523.1313, 1709.647
523.6134, 1691.508
524.0955, 1696.564
524.5776, 1707.350
525.0598, 1709.255
525.5419, 1703.971
526.0240, 1699.235
526.5061, 1698.512
526.9882, 1695.906
527.4703, 1678.910
527.9525, 1631.859
528.4346, 1618.760
528.9167, 1682.651
529.3988, 1732.022
529.8809, 1716.078
530.3630, 1660.151
530.8452, 1612.407
531.3273, 1594.129
531.8094, 1591.188
532.2915, 1587.219
532.7736, 1582.051
533.2557, 1570.551
533.7379, 1547.868
534.2200, 1526.726
534.7021, 1517.631
535.1842, 1519.380
535.6663, 1527.468
536.1484, 1552.959
536.6306, 1572.340
537.1127, 1569.280
537.5948, 1553.894
538.0769, 1542.280
538.5590, 1538.840
539.0411, 1537.807
539.5233, 1531.827
540.0054, 1520.285
540.4875, 1514.953
540.9696, 1522.359
541.4517, 1527.430
541.9338, 1526.660
542.4160, 1521.117
542.8981, 1511.651
543.3802, 1498.398
543.8623, 1482.727
544.3444, 1460.984
544.8265, 1438.383
545.3087, 1429.400
545.7908, 1435.882
546.2729, 1444.585
546.7550, 1446.458
547.2371, 1443.995
547.7192, 1447.835
548.2014, 1473.635
548.6835, 1483.246
549.1656, 1456.437
549.6477, 1423.300
550.1298, 1409.684
550.6119, 1415.465
551.0941, 1425.111
551.5762, 1428.066
552.0583, 1425.495
552.5404, 1419.689
553.0225, 1409.090
553.5046, 1402.624
553.9868, 1406.155
554.4689, 1411.742
554.9510, 1411.144
555.4331, 1404.593
555.9152, 1397.974
556.3973, 1396.018
556.8795, 1392.304
557.3616, 1379.101
557.8437, 1359.495
558.3258, 1341.128
558.8079, 1326.801
559.2900, 1319.243
559.7722, 1324.804
560.2543, 1350.480
560.7364, 1363.496
561.2185, 1347.746
561.7006, 1335.689
562.1827, 1344.743
562.6649, 1362.650
563.1470, 1367.863
563.6291, 1351.312
564.1112, 1331.839
564.5933, 1331.828
565.0754, 1343.957
565.5576, 1341.475
566.0397, 1319.082
566.5218, 1297.351
567.0039, 1292.471
567.4860, 1301.787
567.9681, 1306.872
568.4503, 1302.565
568.9324, 1301.497
569.4145, 1306.578
569.8966, 1315.071
570.3787, 1324.763
570.8608, 1335.334
571.3430, 1348.299
571.8251, 1367.191
572.3072, 1387.072
572.7893, 1388.803
573.2714, 1367.783
573.7535, 1355.869
574.2357, 1368.062
574.7178, 1387.553
575.1999, 1393.042
575.6820, 1384.916
576.1641, 1383.736
576.6462, 1401.126
577.1284, 1420.531
577.6105, 1431.757
578.0926, 1435.915
578.5747, 1434.737
579.0568, 1429.063
579.5389, 1424.127
580.0211, 1428.796
580.5032, 1445.220
580.9852, 1454.749
581.4673, 1450.950
581.9495, 1449.069
582.4316, 1456.413
582.9137, 1468.297
583.3958, 1479.067
583.8779, 1487.919
584.3600, 1493.707
584.8422, 1490.368
585.3243, 1485.616
585.8064, 1495.064
586.2885, 1518.674
586.7706, 1539.749
587.2527, 1546.322
587.7349, 1544.999
588.2170, 1557.999
588.6991, 1600.754
589.1812, 1631.517
589.6633, 1641.846
590.1454, 1647.808
590.6276, 1656.836
591.1097, 1669.457
591.5918, 1684.545
592.0739, 1701.650
592.5560, 1720.677
593.0381, 1741.605
593.5203, 1764.324
594.0024, 1789.274
594.4845, 1817.254
594.9666, 1844.934
595.4487, 1870.287
595.9308, 1893.090
596.4130, 1909.896
596.8951, 1909.397
597.3772, 1917.943
597.8593, 1950.289
