##NAMES=Heulandite-Ca
##RRUFFID=R050097
##IDEAL CHEMISTRY=(Ca,Na,K)_5_(Si_27_Al_9_)O_72_&#183;26H_2_O
##LOCALITY=Rat's Nest Claim, Custer County, Idaho, USA
##OWNER=RRUFF
##SOURCE=John Cornish
##DESCRIPTION=Pale pink coffin-shaped tabular single crystals
##STATUS=The identification of this mineral has been confirmed by X-ray diffraction and chemical analysis
##URL=rruff.info/R050097
##MEASURED CHEMISTRY=(Ca_0.66_Na_0.30_K_0.04_)_5_(Si_0.77_Al_0.23_)_36_O_72_Â·24H_2_O
192.3230, 4331.274
192.8052, 4288.148
193.2873, 4266.595
193.7694, 4259.352
194.2515, 4253.047
194.7336, 4239.110
195.2157, 4219.239
195.6979, 4210.655
196.1800, 4225.307
196.6621, 4236.314
197.1442, 4234.668
197.6263, 4221.348
198.1084, 4199.644
198.5906, 4169.301
199.0727, 4131.812
199.5548, 4104.096
200.0369, 4085.906
200.5190, 4076.518
201.0011, 4083.141
201.4833, 4103.193
201.9654, 4115.075
202.4475, 4098.745
202.9296, 4057.102
203.4117, 4027.105
203.8938, 4018.159
204.3760, 4016.048
204.8581, 4009.374
205.3402, 3997.421
205.8223, 3982.042
206.3044, 3959.429
206.7865, 3933.562
207.2687, 3919.838
207.7508, 3936.679
208.2329, 3961.348
208.7150, 3960.193
209.1971, 3926.260
209.6792, 3886.388
210.1614, 3858.370
210.6435, 3840.149
211.1256, 3830.115
211.6077, 3832.672
212.0898, 3842.462
212.5719, 3848.417
213.0541, 3850.464
213.5362, 3847.374
214.0183, 3836.710
214.5004, 3820.658
214.9825, 3804.253
215.4646, 3786.216
215.9468, 3769.025
216.4289, 3765.169
216.9110, 3784.917
217.3931, 3804.371
217.8752, 3808.865
218.3573, 3802.006
218.8395, 3794.276
219.3216, 3796.028
219.8037, 3805.806
220.2858, 3803.956
220.7679, 3780.451
221.2500, 3755.072
221.7322, 3733.463
222.2143, 3717.093
222.6964, 3708.527
223.1785, 3715.213
223.6606, 3738.468
224.1427, 3746.966
224.6249, 3722.453
225.1070, 3698.261
225.5891, 3688.563
226.0712, 3691.434
226.5533, 3696.273
227.0354, 3692.064
227.5176, 3676.604
227.9997, 3667.502
228.4818, 3664.757
228.9639, 3668.635
229.4460, 3683.624
229.9281, 3707.106
230.4103, 3730.695
230.8924, 3745.269
231.3745, 3748.664
231.8566, 3752.816
232.3387, 3758.175
232.8208, 3763.871
233.3030, 3770.344
233.7851, 3777.133
234.2672, 3782.927
234.7493, 3787.166
235.2314, 3792.142
235.7135, 3786.367
236.1957, 3752.722
236.6778, 3723.914
237.1599, 3717.763
237.6420, 3735.235
238.1241, 3767.248
238.6062, 3806.041
239.0884, 3860.603
239.5705, 3890.371
240.0526, 3872.414
240.5347, 3852.116
241.0168, 3859.845
241.4989, 3896.610
241.9811, 3940.345
242.4632, 3965.786
242.9453, 3966.901
243.4274, 3965.935
243.9095, 3955.790
244.3916, 3948.980
244.8738, 3957.712
245.3559, 3981.463
245.8380, 4005.921
246.3201, 4013.684
246.8022, 3996.886
247.2843, 3987.731
247.7665, 3989.213
248.2486, 3995.344
248.7307, 4004.572
249.2128, 4015.608
249.6949, 4023.718
250.1770, 4022.575
250.6592, 4007.444
251.1413, 3999.831
251.6234, 4009.786
252.1055, 4020.056
252.5876, 4013.802
253.0697, 3990.367
253.5519, 3966.574
254.0340, 3962.096
254.5161, 3983.982
254.9982, 3998.727
255.4803, 4000.719
255.9624, 3999.402
256.4445, 4004.302
256.9267, 4015.995
257.4088, 4024.762
257.8909, 4020.156
258.3730, 3998.798
258.8551, 3976.580
259.3372, 3948.595
259.8194, 3922.980
260.3015, 3907.279
260.7836, 3902.088
261.2657, 3901.697
261.7478, 3902.007
262.2299, 3903.380
262.7121, 3898.867
263.1942, 3884.376
263.6763, 3866.625
264.1584, 3849.056
264.6405, 3832.413
265.1227, 3820.563
265.6048, 3820.571
266.0869, 3833.231
266.5690, 3829.953
267.0511, 3793.381
267.5332, 3751.843
268.0154, 3729.302
268.4975, 3727.151
268.9796, 3731.656
269.4617, 3733.483
269.9438, 3732.117
270.4259, 3726.463
270.9081, 3712.438
271.3902, 3696.922
271.8723, 3684.661
272.3544, 3675.897
272.8365, 3670.092
273.3186, 3667.834
273.8008, 3668.725
274.2829, 3667.446
274.7650, 3660.751
275.2471, 3654.244
275.7292, 3652.632
276.2113, 3655.748
276.6935, 3660.012
277.1756, 3664.299
277.6577, 3667.575
278.1398, 3665.994
278.6219, 3653.977
279.1040, 3641.594
279.5862, 3635.544
280.0683, 3635.505
280.5504, 3638.637
281.0325, 3644.879
281.5146, 3652.626
281.9967, 3655.965
282.4789, 3654.118
282.9610, 3648.704
283.4431, 3640.081
283.9252, 3628.433
284.4073, 3614.534
284.8894, 3597.143
285.3716, 3578.644
285.8537, 3565.771
286.3358, 3562.343
286.8179, 3559.497
287.3000, 3551.859
287.7821, 3540.477
288.2643, 3530.777
288.7464, 3527.885
289.2285, 3525.474
289.7106, 3507.674
290.1927, 3464.824
290.6748, 3425.448
291.1570, 3404.458
291.6391, 3397.913
292.1212, 3394.687
292.6033, 3391.835
293.0854, 3388.205
293.5675, 3381.152
294.0497, 3369.412
294.5318, 3358.171
295.0139, 3348.166
295.4960, 3340.176
295.9781, 3337.307
296.4602, 3342.340
296.9424, 3349.169
297.4245, 3344.510
297.9066, 3324.712
298.3887, 3312.488
298.8708, 3320.743
299.3529, 3340.119
299.8351, 3357.079
300.3172, 3369.998
300.7993, 3372.784
301.2814, 3346.683
301.7635, 3286.545
302.2456, 3249.979
302.7278, 3269.694
303.2099, 3313.607
303.6920, 3337.983
304.1741, 3333.469
304.6562, 3317.871
305.1383, 3309.979
305.6205, 3310.239
306.1026, 3309.862
306.5847, 3309.378
307.0668, 3306.844
307.5489, 3300.030
308.0310, 3288.634
308.5132, 3273.963
308.9953, 3254.490
309.4774, 3230.343
309.9595, 3217.717
310.4416, 3225.874
310.9237, 3239.698
311.4059, 3248.791
311.8880, 3252.378
312.3701, 3252.047
312.8522, 3247.181
313.3343, 3238.623
313.8164, 3236.970
314.2986, 3252.575
314.7807, 3265.598
315.2628, 3258.927
315.7449, 3237.485
316.2270, 3223.440
316.7091, 3232.378
317.1913, 3259.631
317.6734, 3276.797
318.1555, 3279.827
318.6376, 3279.027
319.1197, 3276.981
319.6018, 3274.000
320.0840, 3271.252
320.5661, 3269.930
321.0482, 3268.158
321.5303, 3259.022
322.0124, 3233.229
322.4945, 3213.775
322.9767, 3203.406
323.4588, 3202.768
323.9409, 3216.419
324.4230, 3247.178
324.9051, 3284.372
325.3872, 3306.822
325.8694, 3309.453
326.3515, 3305.623
326.8336, 3286.847
327.3157, 3266.437
327.7978, 3258.957
328.2799, 3267.949
328.7621, 3285.484
329.2442, 3301.728
329.7263, 3318.632
330.2084, 3327.533
330.6905, 3320.064
331.1726, 3310.941
331.6548, 3314.250
332.1369, 3329.569
332.6190, 3342.189
333.1011, 3335.477
333.5832, 3303.723
334.0653, 3285.088
334.5475, 3287.676
335.0296, 3293.257
335.5117, 3293.275
335.9938, 3288.395
336.4759, 3283.493
336.9580, 3282.373
337.4402, 3284.970
337.9223, 3287.102
338.4044, 3287.232
338.8865, 3288.557
339.3686, 3295.048
339.8507, 3302.930
340.3329, 3304.772
340.8150, 3295.719
341.2971, 3279.448
341.7792, 3272.145
342.2613, 3291.315
342.7434, 3297.107
343.2256, 3271.670
343.7077, 3236.680
344.1898, 3215.193
344.6719, 3216.255
345.1540, 3232.846
345.6361, 3252.880
346.1183, 3284.481
346.6004, 3302.758
347.0825, 3294.558
347.5646, 3282.546
348.0467, 3285.616
348.5288, 3306.344
349.0110, 3330.228
349.4931, 3337.252
349.9752, 3321.745
350.4573, 3312.053
350.9394, 3313.155
351.4215, 3316.555
351.9037, 3320.125
352.3858, 3322.875
352.8679, 3322.938
353.3500, 3314.479
353.8321, 3298.224
354.3142, 3301.206
354.7964, 3345.039
355.2785, 3382.146
355.7606, 3384.662
356.2427, 3367.649
356.7248, 3362.719
357.2069, 3394.130
357.6891, 3445.776
358.1712, 3469.143
358.6533, 3451.808
359.1354, 3434.001
359.6175, 3429.491
360.0996, 3434.126
360.5818, 3446.028
361.0639, 3467.747
361.5460, 3488.624
362.0281, 3487.863
362.5102, 3461.273
362.9923, 3451.665
363.4745, 3488.320
363.9566, 3538.530
364.4387, 3567.812
364.9208, 3570.148
365.4029, 3572.024
365.8850, 3598.526
366.3672, 3643.959
366.8493, 3676.708
367.3314, 3685.632
367.8135, 3686.082
368.2956, 3694.875
368.7777, 3711.251
369.2599, 3724.600
369.7420, 3726.079
370.2241, 3722.969
370.7062, 3727.532
371.1883, 3741.509
371.6704, 3761.076
372.1526, 3786.322
372.6347, 3815.730
373.1168, 3840.250
373.5989, 3854.821
374.0810, 3867.078
374.5631, 3884.235
375.0453, 3905.743
375.5274, 3924.883
376.0095, 3936.157
376.4916, 3942.619
376.9737, 3957.338
377.4558, 3977.439
377.9380, 4007.762
378.4201, 4060.658
378.9022, 4124.067
379.3843, 4173.344
379.8664, 4198.082
380.3485, 4207.573
380.8307, 4219.969
381.3128, 4235.279
381.7949, 4253.750
382.2770, 4275.363
382.7591, 4300.248
383.2412, 4328.479
383.7234, 4360.063
384.2055, 4394.254
384.6876, 4429.162
385.1697, 4462.307
385.6518, 4508.496
386.1339, 4585.891
386.6161, 4657.385
387.0982, 4700.174
387.5803, 4720.636
388.0624, 4739.189
388.5445, 4770.657
389.0266, 4814.006
389.5088, 4856.992
389.9909, 4889.294
390.4730, 4933.884
390.9551, 5006.743
391.4372, 5089.765
391.9193, 5158.042
392.4015, 5200.327
392.8836, 5231.069
393.3657, 5281.147
393.8478, 5358.395
394.3299, 5435.110
394.8120, 5510.787
395.2942, 5582.428
395.7763, 5646.661
396.2584, 5703.565
396.7405, 5757.507
397.2226, 5811.691
397.7047, 5865.873
398.1869, 5925.199
398.6690, 5995.118
399.1511, 6064.276
399.6332, 6129.302
400.1153, 6188.690
400.5974, 6238.938
401.0796, 6276.725
401.5617, 6304.541
402.0438, 6326.642
402.5259, 6341.685
403.0080, 6356.583
403.4901, 6378.858
403.9723, 6402.260
404.4544, 6417.318
404.9365, 6423.342
405.4186, 6419.226
405.9007, 6400.301
406.3828, 6368.859
406.8650, 6337.375
407.3471, 6310.724
407.8292, 6285.446
408.3113, 6256.412
408.7934, 6224.741
409.2755, 6186.861
409.7577, 6142.496
410.2398, 6091.091
410.7219, 6031.403
411.2040, 5963.322
411.6861, 5889.238
412.1682, 5809.752
412.6504, 5723.867
413.1325, 5645.557
413.6146, 5580.927
414.0967, 5517.779
414.5788, 5450.100
415.0609, 5377.967
415.5431, 5302.561
416.0252, 5224.196
416.5073, 5143.774
416.9894, 5064.041
417.4715, 4978.321
417.9536, 4901.144
418.4358, 4840.667
418.9179, 4786.430
419.4000, 4725.594
419.8821, 4654.730
420.3642, 4581.941
420.8463, 4521.146
421.3285, 4480.814
421.8106, 4429.651
422.2927, 4355.521
422.7748, 4282.014
423.2569, 4220.230
423.7390, 4169.707
424.2212, 4124.130
424.7033, 4079.696
425.1854, 4036.297
425.6675, 3991.602
426.1496, 3943.765
426.6317, 3898.335
427.1139, 3861.662
427.5960, 3826.926
428.0781, 3783.754
428.5602, 3726.782
429.0423, 3666.612
429.5244, 3615.541
430.0066, 3573.637
430.4887, 3538.596
430.9708, 3514.837
431.4529, 3493.030
431.9350, 3462.187
432.4171, 3421.753
432.8993, 3381.799
433.3814, 3344.376
433.8635, 3311.361
434.3456, 3287.689
434.8277, 3275.002
435.3098, 3264.174
435.7920, 3247.899
436.2741, 3226.238
436.7562, 3204.007
437.2383, 3178.598
437.7204, 3155.224
438.2025, 3138.717
438.6847, 3126.925
439.1668, 3112.857
439.6489, 3092.571
440.1310, 3069.307
440.6131, 3051.959
441.0952, 3045.189
441.5774, 3037.765
442.0595, 3027.661
442.5416, 3017.520
443.0237, 3011.302
443.5058, 3008.867
443.9879, 3004.620
444.4701, 2990.258
444.9522, 2962.185
445.4343, 2950.163
445.9164, 2975.986
446.3985, 2996.019
446.8806, 2991.814
447.3628, 2972.245
447.8449, 2954.299
448.3270, 2946.668
448.8091, 2947.342
449.2912, 2952.276
449.7733, 2963.345
450.2555, 2973.404
450.7375, 2981.046
451.2197, 2986.685
451.7018, 2989.184
452.1839, 2988.425
452.6660, 2989.416
453.1481, 2997.128
453.6302, 3010.308
454.1124, 3022.155
454.5945, 3029.997
455.0766, 3040.888
455.5587, 3063.166
456.0408, 3093.652
456.5229, 3123.419
457.0051, 3155.120
457.4872, 3182.126
457.9693, 3193.992
458.4514, 3193.872
458.9335, 3198.691
459.4156, 3215.999
459.8978, 3243.965
460.3799, 3279.785
460.8620, 3332.066
461.3441, 3374.643
461.8262, 3394.211
462.3083, 3406.517
462.7905, 3426.858
463.2726, 3458.439
463.7547, 3497.595
464.2368, 3542.177
464.7189, 3593.811
465.2010, 3635.681
465.6832, 3663.575
466.1653, 3686.517
466.6474, 3699.125
467.1295, 3710.226
467.6116, 3734.683
468.0938, 3780.384
468.5759, 3839.152
469.0580, 3893.533
469.5401, 3944.527
470.0222, 3988.641
470.5043, 4018.050
470.9865, 4045.405
471.4686, 4080.254
471.9507, 4122.444
472.4328, 4163.051
472.9149, 4188.771
473.3970, 4206.678
473.8792, 4244.448
474.3613, 4307.899
474.8434, 4377.326
475.3255, 4445.986
475.8076, 4510.983
476.2897, 4565.706
476.7719, 4601.252
477.2540, 4636.428
477.7361, 4686.124
478.2182, 4746.162
478.7003, 4803.166
479.1824, 4851.502
479.6646, 4898.376
480.1467, 4957.230
480.6288, 5038.741
481.1109, 5097.373
481.5930, 5118.792
482.0751, 5125.795
482.5573, 5134.043
483.0394, 5143.539
483.5215, 5147.538
484.0036, 5141.921
484.4857, 5125.999
484.9678, 5094.745
485.4500, 5034.058
485.9321, 4975.969
486.4142, 4934.112
486.8963, 4891.688
487.3784, 4832.062
487.8605, 4751.468
488.3427, 4658.445
488.8248, 4556.750
489.3069, 4445.456
489.7890, 4351.079
490.2711, 4288.758
490.7532, 4224.830
491.2354, 4136.874
491.7175, 4033.198
492.1996, 3931.407
492.6817, 3837.048
493.1638, 3749.433
493.6459, 3667.062
494.1281, 3589.922
494.6102, 3520.451
495.0923, 3461.185
495.5744, 3408.116
496.0565, 3356.026
496.5386, 3306.782
497.0208, 3250.344
497.5029, 3171.716
497.9850, 3092.411
498.4671, 3037.134
498.9492, 3006.072
499.4313, 2979.967
499.9135, 2943.564
500.3956, 2898.090
500.8777, 2858.213
501.3598, 2832.656
501.8419, 2802.429
502.3240, 2758.554
502.8062, 2711.358
503.2883, 2671.890
503.7704, 2643.585
504.2525, 2622.257
504.7346, 2601.304
505.2167, 2579.602
505.6989, 2568.098
506.1810, 2578.032
506.6631, 2585.668
507.1452, 2578.758
507.6273, 2561.277
508.1094, 2542.061
508.5916, 2522.787
509.0737, 2506.087
509.5558, 2499.293
510.0379, 2501.849
510.5200, 2495.828
511.0021, 2471.516
511.4843, 2439.865
511.9664, 2417.709
512.4485, 2405.878
512.9306, 2394.335
513.4127, 2376.198
513.8948, 2360.025
514.3770, 2359.142
514.8591, 2371.365
515.3412, 2376.930
515.8233, 2359.989
516.3054, 2325.777
516.7875, 2308.390
517.2697, 2324.890
517.7518, 2337.570
518.2339, 2342.842
518.7160, 2342.742
519.1981, 2337.488
519.6802, 2328.077
520.1624, 2319.058
520.6445, 2316.186
521.1266, 2319.668
521.6087, 2321.345
522.0908, 2324.297
522.5729, 2320.417
523.0551, 2297.850
523.5372, 2269.073
524.0193, 2255.192
524.5014, 2266.701
524.9835, 2284.862
525.4656, 2292.250
525.9478, 2290.246
526.4299, 2286.040
526.9120, 2281.329
527.3941, 2275.159
527.8762, 2264.531
528.3583, 2249.009
528.8405, 2240.200
529.3226, 2245.432
529.8047, 2252.133
530.2868, 2250.531
530.7689, 2243.412
531.2510, 2240.647
531.7332, 2247.786
532.2153, 2258.793
532.6974, 2257.833
533.1795, 2231.841
533.6616, 2217.883
534.1437, 2224.495
534.6259, 2235.140
535.1080, 2242.963
535.5901, 2245.851
536.0722, 2240.740
536.5543, 2220.901
537.0364, 2194.080
537.5186, 2188.135
538.0007, 2210.060
538.4828, 2225.896
538.9649, 2214.253
539.4470, 2195.346
539.9291, 2195.252
540.4113, 2218.930
540.8934, 2237.604
541.3755, 2230.221
541.8576, 2211.537
542.3397, 2205.312
542.8218, 2214.026
543.3040, 2225.918
543.7861, 2233.968
544.2682, 2237.646
544.7503, 2231.836
545.2324, 2203.269
545.7145, 2183.044
546.1967, 2187.507
546.6788, 2198.057
547.1609, 2188.931
547.6430, 2157.539
548.1251, 2129.899
548.6072, 2140.422
549.0894, 2191.238
549.5715, 2214.193
550.0536, 2189.841
550.5357, 2164.855
551.0178, 2155.341
551.4999, 2156.022
551.9821, 2161.111
552.4642, 2170.510
552.9463, 2177.843
553.4284, 2174.264
553.9105, 2163.053
554.3926, 2157.908
554.8748, 2162.247
555.3569, 2169.841
555.8390, 2176.010
556.3211, 2180.561
556.8032, 2182.086
557.2853, 2182.323
557.7675, 2177.665
558.2496, 2157.573
558.7317, 2133.502
559.2138, 2129.133
559.6959, 2152.321
560.1780, 2182.773
560.6602, 2188.291
561.1423, 2161.033
561.6244, 2140.407
562.1065, 2123.628
562.5886, 2117.137
563.0707, 2134.237
563.5529, 2161.463
564.0350, 2173.470
564.5171, 2156.110
564.9992, 2129.188
565.4813, 2119.492
565.9634, 2125.990
566.4456, 2132.126
566.9277, 2134.407
567.4098, 2135.027
567.8919, 2136.349
568.3740, 2138.234
568.8561, 2138.991
569.3383, 2137.120
569.8204, 2135.187
570.3025, 2136.159
570.7846, 2138.335
571.2667, 2136.534
571.7488, 2128.476
572.2310, 2119.020
572.7131, 2117.981
573.1952, 2132.029
573.6773, 2136.306
574.1594, 2122.753
574.6415, 2108.020
575.1237, 2096.749
575.6058, 2090.063
576.0879, 2089.388
576.5700, 2096.553
577.0521, 2106.972
577.5342, 2114.859
578.0164, 2120.208
578.4985, 2119.332
578.9806, 2106.550
579.4627, 2094.501
579.9448, 2099.346
580.4269, 2118.922
580.9091, 2135.295
581.3912, 2146.606
581.8733, 2152.314
582.3554, 2147.062
582.8375, 2136.052
583.3196, 2132.406
583.8018, 2141.722
584.2839, 2158.415
584.7660, 2174.339
585.2481, 2194.540
585.7302, 2198.910
586.2123, 2170.151
586.6945, 2143.817
587.1766, 2132.812
587.6587, 2135.541
588.1408, 2148.635
588.6229, 2173.409
589.1050, 2198.642
589.5872, 2204.236
590.0693, 2191.216
590.5514, 2187.785
591.0335, 2202.770
591.5156, 2223.339
591.9977, 2238.106
592.4799, 2247.595
592.9620, 2254.010
593.4441, 2252.698
593.9262, 2253.214
594.4083, 2261.491
594.8904, 2275.604
595.3726, 2293.993
595.8547, 2315.818
596.3368, 2333.627
596.8189, 2334.615
597.3010, 2313.378
597.7831, 2301.227
598.2653, 2301.870
598.7474, 2308.441
599.2295, 2322.307
599.7116, 2339.767
600.1937, 2354.906
600.6758, 2364.799
601.1580, 2375.800
601.6401, 2399.818
602.1222, 2432.328
602.6043, 2448.361
603.0864, 2440.365
603.5685, 2429.049
604.0507, 2428.642
604.5328, 2440.072
605.0149, 2463.135
605.4970, 2520.144
605.9791, 2562.624
606.4612, 2561.635
606.9434, 2541.948
607.4255, 2535.889
607.9076, 2550.245
608.3897, 2569.622
608.8718, 2578.258
609.3539, 2576.302
609.8361, 2569.947
610.3182, 2553.426
610.8003, 2542.168
611.2824, 2542.430
611.7645, 2549.385
612.2466, 2562.429
612.7288, 2582.654
613.2109, 2590.669
613.6930, 2559.490
614.1751, 2512.128
614.6572, 2495.476
615.1393, 2512.720
615.6215, 2527.841
616.1036, 2517.497
616.5857, 2488.855
617.0678, 2467.710
617.5499, 2464.136
618.0320, 2454.131
618.5142, 2426.548
618.9963, 2399.975
619.4784, 2394.336
619.9605, 2404.455
620.4426, 2406.424
620.9247, 2381.111
621.4069, 2340.252
621.8890, 2315.847
622.3711, 2310.627
622.8532, 2306.182
623.3353, 2300.500
623.8174, 2290.825
624.2996, 2272.018
624.7817, 2244.884
625.2638, 2222.364
625.7459, 2212.108
626.2280, 2204.077
626.7101, 2189.096
627.1923, 2169.985
627.6744, 2155.467
628.1565, 2149.180
628.6386, 2145.161
629.1207, 2133.398
629.6028, 2110.860
630.0850, 2092.955
630.5671, 2084.001
631.0492, 2075.463
631.5313, 2062.037
632.0134, 2048.172
632.4955, 2041.454
632.9777, 2045.029
633.4598, 2051.800
633.9419, 2058.886
634.4240, 2063.817
634.9061, 2054.666
635.3882, 2027.754
635.8704, 2003.854
636.3525, 1999.951
636.8346, 2012.472
637.3167, 2018.346
637.7988, 2010.749
638.2809, 2006.472
638.7631, 2015.979
639.2452, 2024.918
639.7273, 2016.925
640.2094, 1993.133
640.6915, 1968.703
641.1736, 1954.833
641.6558, 1949.795
642.1379, 1949.767
642.6200, 1956.972
643.1021, 1959.287
643.5842, 1950.883
644.0663, 1938.262
644.5485, 1927.608
645.0306, 1918.925
645.5127, 1912.815
645.9948, 1909.184
646.4769, 1908.399
646.9590, 1913.601
647.4412, 1921.793
647.9233, 1924.085
648.4054, 1916.969
648.8875, 1908.869
649.3696, 1915.337
649.8517, 1943.340
650.3339, 1949.384
650.8160, 1908.767
651.2981, 1875.186
651.7802, 1870.254
652.2623, 1881.203
652.7444, 1891.352
653.2266, 1897.217
653.7087, 1896.669
654.1908, 1883.052
654.6729, 1862.959
655.1550, 1851.971
655.6371, 1851.629
656.1193, 1851.039
656.6014, 1842.109
657.0835, 1828.311
657.5656, 1822.926
658.0477, 1833.011
658.5298, 1842.209
659.0120, 1850.019
659.4941, 1857.283
659.9762, 1868.267
660.4583, 1879.542
660.9404, 1880.435
661.4225, 1862.094
661.9047, 1836.149
662.3868, 1824.144
662.8689, 1825.481
663.3510, 1821.082
663.8331, 1802.800
664.3152, 1787.188
664.7974, 1793.561
665.2795, 1820.686
665.7616, 1838.202
666.2437, 1842.061
666.7258, 1840.171
667.2079, 1832.903
667.6901, 1822.693
668.1722, 1810.805
668.6543, 1798.421
669.1364, 1788.933
669.6185, 1785.573
670.1006, 1787.882
670.5828, 1793.928
671.0649, 1805.596
671.5470, 1814.814
672.0291, 1818.216
672.5112, 1818.441
672.9933, 1818.250
673.4755, 1817.633
673.9576, 1817.573
674.4397, 1820.741
674.9218, 1822.482
675.4039, 1817.223
675.8860, 1807.752
676.3682, 1801.430
676.8503, 1801.093
677.3324, 1802.151
677.8145, 1796.516
678.2966, 1782.204
678.7787, 1777.848
679.2609, 1791.056
679.7430, 1803.084
680.2251, 1805.849
680.7072, 1803.839
681.1893, 1802.465
681.6714, 1802.680
682.1536, 1803.071
682.6357, 1803.242
683.1178, 1802.929
683.5999, 1802.900
684.0820, 1802.491
684.5641, 1796.166
685.0463, 1779.419
685.5284, 1761.064
686.0105, 1764.480
686.4926, 1808.482
686.9747, 1829.413
