##NAMES=Heulandite-Ca
##RRUFFID=R050647
##IDEAL CHEMISTRY=(Ca,Na,K)_5_(Si_27_Al_9_)O_72_&#183;26H_2_O
##LOCALITY=Rat's Nest Claim, Custer County, Idaho, USA
##OWNER=RRUFF
##SOURCE=John Cornish
##DESCRIPTION=Pink anhedral grains
##STATUS=The identification of this mineral is confirmed by single-crystal X-ray diffraction and chemical analysis.
##URL=rruff.info/R050647
##MEASURED CHEMISTRY=(Ca_0.69_Na_0.25_K_0.06_)_5_(Si_0.80_Al_0.20_)_36_O_72_Â·24H_2_O
163.1608, 6812.611
163.6429, 6845.093
164.1250, 6853.798
164.6071, 6849.415
165.0893, 6842.914
165.5714, 6830.213
166.0535, 6822.337
166.5356, 6826.404
167.0177, 6842.608
167.4998, 6866.987
167.9820, 6907.744
168.4641, 6953.775
168.9462, 6988.090
169.4283, 6986.597
169.9104, 6979.029
170.3925, 6997.924
170.8747, 7049.801
171.3568, 7100.538
171.8389, 7115.118
172.3210, 7105.958
172.8031, 7103.675
173.2852, 7133.798
173.7674, 7177.580
174.2495, 7210.699
174.7316, 7229.999
175.2137, 7238.608
175.6958, 7226.080
176.1779, 7199.844
176.6601, 7193.875
177.1422, 7253.824
177.6243, 7347.646
178.1064, 7408.820
178.5885, 7412.618
179.0706, 7393.702
179.5528, 7401.646
180.0349, 7434.761
180.5170, 7470.923
180.9991, 7495.437
181.4812, 7509.714
181.9633, 7516.574
182.4455, 7509.309
182.9276, 7499.558
183.4097, 7512.837
183.8918, 7549.767
184.3739, 7596.281
184.8560, 7646.778
185.3382, 7698.476
185.8203, 7732.084
186.3024, 7724.654
186.7845, 7693.694
187.2666, 7708.885
187.7487, 7778.301
188.2309, 7854.666
188.7130, 7871.763
189.1951, 7833.067
189.6772, 7797.353
190.1593, 7784.814
190.6414, 7795.533
191.1236, 7836.379
191.6057, 7916.910
192.0878, 8003.580
192.5699, 8035.327
193.0520, 8010.077
193.5342, 7978.763
194.0163, 7965.223
194.4984, 7969.222
194.9805, 7984.542
195.4626, 8014.462
195.9447, 8050.552
196.4269, 8073.715
196.9090, 8082.719
197.3911, 8086.635
197.8732, 8090.083
198.3553, 8093.013
198.8374, 8095.600
199.3196, 8096.320
199.8017, 8097.555
200.2838, 8108.913
200.7659, 8133.211
201.2480, 8157.406
201.7301, 8172.157
202.2123, 8176.779
202.6944, 8175.850
203.1765, 8166.549
203.6586, 8152.232
204.1407, 8153.536
204.6228, 8176.223
205.1050, 8200.500
205.5871, 8205.291
206.0692, 8183.882
206.5513, 8174.003
207.0334, 8190.533
207.5155, 8230.078
207.9977, 8238.003
208.4798, 8200.452
208.9619, 8155.323
209.4440, 8147.508
209.9261, 8191.091
210.4082, 8226.379
210.8904, 8236.776
211.3725, 8221.408
211.8546, 8203.776
212.3367, 8179.632
212.8188, 8158.514
213.3009, 8153.836
213.7831, 8169.921
214.2652, 8191.553
214.7473, 8216.149
215.2294, 8244.396
215.7115, 8267.295
216.1936, 8283.771
216.6758, 8295.892
217.1579, 8308.051
217.6400, 8324.638
218.1221, 8332.054
218.6042, 8321.701
219.0863, 8283.878
219.5685, 8265.058
220.0506, 8273.098
220.5327, 8295.070
221.0148, 8301.538
221.4969, 8275.259
221.9790, 8263.988
222.4612, 8293.783
222.9433, 8392.808
223.4254, 8457.828
223.9075, 8480.820
224.3896, 8472.486
224.8717, 8457.553
225.3539, 8426.583
225.8360, 8403.459
226.3181, 8402.734
226.8002, 8442.126
227.2823, 8461.491
227.7645, 8448.487
228.2466, 8415.395
228.7287, 8403.902
229.2108, 8422.310
229.6929, 8450.589
230.1750, 8479.697
230.6572, 8514.967
231.1393, 8539.358
231.6214, 8544.907
232.1035, 8537.810
232.5856, 8550.555
233.0677, 8603.435
233.5499, 8649.746
234.0320, 8656.658
234.5141, 8590.288
234.9962, 8553.535
235.4783, 8564.785
235.9604, 8616.169
236.4426, 8655.704
236.9247, 8676.988
237.4068, 8693.543
237.8889, 8715.870
238.3710, 8752.959
238.8531, 8776.944
239.3353, 8776.022
239.8174, 8754.467
240.2995, 8760.880
240.7816, 8820.030
241.2637, 8879.547
241.7458, 8895.120
242.2280, 8832.726
242.7101, 8792.619
243.1922, 8794.095
243.6743, 8835.084
244.1564, 8874.162
244.6385, 8919.780
245.1207, 8954.315
245.6028, 8958.705
246.0849, 8908.436
246.5670, 8875.662
247.0491, 8874.571
247.5313, 8905.188
248.0134, 8939.250
248.4955, 8980.726
248.9776, 9021.631
249.4597, 9054.265
249.9418, 9075.708
250.4240, 9095.445
250.9061, 9120.270
251.3882, 9150.859
251.8703, 9150.055
252.3524, 9096.698
252.8345, 9035.906
253.3167, 9015.622
253.7988, 9056.370
254.2809, 9094.132
254.7630, 9114.713
255.2451, 9117.290
255.7272, 9125.421
256.2094, 9140.770
256.6915, 9159.639
257.1736, 9176.643
257.6557, 9186.416
258.1378, 9207.435
258.6199, 9249.891
259.1021, 9315.546
259.5842, 9357.438
260.0663, 9368.048
260.5484, 9363.191
261.0305, 9358.515
261.5126, 9352.355
261.9948, 9350.963
262.4769, 9358.329
262.9590, 9374.898
263.4411, 9381.199
263.9232, 9371.308
264.4053, 9359.175
264.8875, 9362.649
265.3696, 9387.178
265.8517, 9410.779
266.3338, 9426.616
266.8159, 9434.596
267.2980, 9448.776
267.7802, 9473.516
268.2623, 9498.059
268.7444, 9510.748
269.2265, 9511.234
269.7086, 9500.416
270.1907, 9471.121
270.6729, 9423.555
271.1550, 9406.669
271.6371, 9427.279
272.1192, 9465.932
272.6013, 9503.226
273.0834, 9540.849
273.5656, 9567.980
274.0477, 9578.809
274.5298, 9574.292
275.0119, 9568.107
275.4940, 9553.689
275.9761, 9552.810
276.4583, 9607.508
276.9404, 9729.810
277.4225, 9813.459
277.9046, 9812.413
278.3867, 9736.770
278.8688, 9689.990
279.3510, 9675.278
279.8331, 9679.978
280.3152, 9693.905
280.7973, 9717.569
281.2794, 9739.340
281.7616, 9757.938
282.2437, 9772.138
282.7258, 9769.679
283.2079, 9746.263
283.6900, 9723.957
284.1721, 9734.657
284.6543, 9776.803
285.1364, 9807.078
285.6185, 9800.913
286.1006, 9772.942
286.5827, 9789.936
287.0648, 9858.354
287.5470, 9930.956
288.0291, 9952.503
288.5112, 9928.762
288.9933, 9904.761
289.4754, 9891.544
289.9576, 9888.644
290.4397, 9897.758
290.9218, 9919.535
291.4039, 9943.713
291.8860, 9956.771
292.3681, 9962.235
292.8503, 9977.854
293.3324, 10020.05
293.8145, 10069.93
294.2966, 10083.83
294.7787, 10061.41
295.2608, 10029.55
295.7430, 10006.53
296.2251, 9992.684
296.7072, 9987.836
297.1893, 9993.402
297.6714, 10006.90
298.1535, 10029.32
298.6357, 10059.68
299.1178, 10085.10
299.5999, 10088.39
300.0820, 10079.47
300.5641, 10078.68
301.0462, 10096.96
301.5284, 10120.59
302.0105, 10137.95
302.4926, 10148.20
302.9747, 10143.97
303.4568, 10094.50
303.9389, 10033.22
304.4211, 10011.61
304.9032, 10060.65
305.3853, 10130.76
305.8674, 10189.43
306.3495, 10234.37
306.8316, 10256.07
307.3138, 10227.01
307.7959, 10180.06
308.2780, 10151.55
308.7601, 10151.17
309.2422, 10169.43
309.7243, 10214.70
310.2065, 10277.37
310.6886, 10324.55
311.1707, 10325.98
311.6528, 10311.31
312.1349, 10305.11
312.6170, 10313.70
313.0992, 10328.75
313.5813, 10349.96
314.0634, 10374.95
314.5455, 10397.65
315.0276, 10419.30
315.5097, 10435.41
315.9919, 10440.61
316.4740, 10426.67
316.9561, 10419.47
317.4382, 10435.66
317.9203, 10464.76
318.4024, 10485.64
318.8846, 10482.20
319.3667, 10476.66
319.8488, 10482.12
320.3309, 10508.60
320.8130, 10522.26
321.2951, 10495.32
321.7773, 10454.84
322.2594, 10443.83
322.7415, 10505.05
323.2236, 10565.33
323.7057, 10599.05
324.1878, 10595.30
324.6700, 10595.20
325.1521, 10603.54
325.6342, 10616.68
326.1163, 10630.05
326.5984, 10641.45
327.0805, 10654.93
327.5627, 10671.05
328.0448, 10689.78
328.5269, 10712.62
329.0090, 10757.60
329.4911, 10796.10
329.9732, 10796.55
330.4554, 10723.45
330.9375, 10664.37
331.4196, 10634.14
331.9017, 10633.28
332.3838, 10653.87
332.8659, 10711.08
333.3481, 10772.93
333.8302, 10813.06
334.3123, 10828.29
334.7944, 10827.93
335.2765, 10805.60
335.7586, 10766.10
336.2408, 10750.21
336.7229, 10761.81
337.2050, 10787.98
337.6871, 10820.70
338.1692, 10861.54
338.6513, 10902.88
339.1335, 10946.93
339.6156, 10989.45
340.0977, 11019.81
340.5798, 11038.37
341.0619, 11040.39
341.5440, 11008.18
342.0262, 10942.71
342.5083, 10916.49
342.9904, 10945.31
343.4725, 11002.70
343.9546, 11040.97
344.4367, 11059.52
344.9189, 11068.18
345.4010, 11066.51
345.8831, 11058.15
346.3652, 11057.55
346.8473, 11065.85
347.3294, 11081.98
347.8116, 11109.71
348.2937, 11146.52
348.7758, 11178.63
349.2579, 11193.47
349.7400, 11200.88
350.2222, 11223.29
350.7043, 11263.25
351.1864, 11301.38
351.6685, 11314.23
352.1506, 11310.33
352.6328, 11309.06
353.1149, 11326.13
353.5970, 11345.61
354.0791, 11346.32
354.5612, 11328.38
355.0433, 11314.99
355.5255, 11326.05
356.0076, 11350.18
356.4897, 11373.27
356.9718, 11385.68
357.4539, 11399.49
357.9360, 11426.06
358.4182, 11462.96
358.9003, 11493.67
359.3824, 11500.99
359.8645, 11503.62
360.3466, 11517.54
360.8287, 11558.88
361.3109, 11595.71
361.7930, 11613.13
362.2751, 11616.73
362.7572, 11624.48
363.2393, 11641.11
363.7214, 11663.43
364.2036, 11689.61
364.6857, 11718.23
365.1678, 11752.61
365.6499, 11807.42
366.1320, 11867.37
366.6141, 11901.48
367.0963, 11880.25
367.5784, 11857.92
368.0605, 11851.70
368.5426, 11867.46
369.0247, 11879.15
369.5068, 11877.29
369.9890, 11876.50
370.4711, 11896.30
370.9532, 11949.51
371.4353, 12002.63
371.9174, 12049.14
372.3995, 12088.91
372.8817, 12122.25
373.3638, 12150.68
373.8459, 12169.98
374.3280, 12170.72
374.8101, 12144.37
375.2922, 12134.48
375.7744, 12151.72
376.2565, 12190.93
376.7386, 12233.82
377.2207, 12281.28
377.7028, 12326.91
378.1849, 12364.87
378.6671, 12395.65
379.1492, 12425.50
379.6313, 12457.31
380.1134, 12485.76
380.5955, 12495.80
381.0776, 12488.61
381.5598, 12485.53
382.0419, 12494.63
382.5240, 12517.45
383.0061, 12565.82
383.4882, 12647.51
383.9703, 12725.99
384.4525, 12747.79
384.9346, 12730.92
385.4167, 12728.35
385.8988, 12769.20
386.3809, 12835.84
386.8630, 12918.35
387.3452, 13016.33
387.8273, 13094.90
388.3094, 13102.77
388.7915, 13079.82
389.2736, 13079.67
389.7557, 13129.05
390.2379, 13200.31
390.7200, 13292.45
391.2021, 13398.82
391.6842, 13482.76
392.1663, 13502.43
392.6484, 13505.60
393.1306, 13527.72
393.6127, 13588.15
394.0948, 13650.29
394.5769, 13707.10
395.0590, 13758.80
395.5411, 13804.58
396.0233, 13833.86
396.5054, 13865.41
396.9875, 13908.68
397.4696, 13974.11
397.9517, 14027.15
398.4338, 14061.41
398.9160, 14084.76
399.3981, 14108.72
399.8802, 14148.21
400.3623, 14167.20
400.8444, 14150.69
401.3265, 14096.06
401.8087, 14058.01
402.2908, 14040.77
402.7729, 14034.59
403.2550, 14033.73
403.7371, 14042.22
404.2192, 14039.95
404.7014, 14020.45
405.1835, 13989.02
405.6656, 13967.01
406.1477, 13956.65
406.6298, 13944.60
407.1119, 13918.05
407.5941, 13878.46
408.0762, 13849.69
408.5583, 13836.58
409.0404, 13830.06
409.5225, 13823.97
410.0046, 13816.03
410.4868, 13788.70
410.9689, 13707.26
411.4510, 13604.27
411.9331, 13560.23
412.4152, 13579.75
412.8973, 13608.27
413.3795, 13602.32
413.8616, 13568.69
414.3437, 13518.93
414.8258, 13436.91
415.3079, 13357.15
415.7900, 13317.35
416.2722, 13311.45
416.7543, 13305.69
417.2364, 13275.27
417.7185, 13239.96
418.2006, 13217.51
418.6827, 13221.76
419.1649, 13223.24
419.6470, 13214.37
420.1291, 13194.70
420.6112, 13163.27
421.0934, 13094.39
421.5755, 13035.19
422.0576, 13008.92
422.5397, 13031.75
423.0218, 13041.56
423.5039, 13020.51
423.9861, 12989.75
424.4682, 12972.63
424.9503, 12979.55
425.4324, 12985.28
425.9145, 12983.73
426.3966, 12975.44
426.8788, 12975.67
427.3609, 12990.54
427.8430, 13004.42
428.3251, 13006.85
428.8072, 12997.49
429.2893, 12977.13
429.7715, 12943.03
430.2536, 12900.65
430.7357, 12864.09
431.2178, 12834.01
431.6999, 12803.59
432.1820, 12757.60
432.6642, 12703.98
433.1463, 12697.06
433.6284, 12743.54
434.1105, 12807.13
434.5926, 12852.87
435.0747, 12881.23
435.5569, 12892.70
436.0390, 12877.88
436.5211, 12853.33
437.0032, 12839.27
437.4853, 12835.42
437.9674, 12839.02
438.4496, 12870.71
438.9317, 12899.82
439.4138, 12881.70
439.8959, 12768.42
440.3780, 12679.74
440.8601, 12718.91
441.3423, 12834.38
441.8244, 12911.82
442.3065, 12866.48
442.7886, 12807.52
443.2707, 12789.10
443.7528, 12825.00
444.2350, 12859.58
444.7171, 12885.41
445.1992, 12903.63
445.6813, 12915.16
446.1634, 12915.58
446.6455, 12913.96
447.1277, 12900.58
447.6098, 12880.54
448.0919, 12904.10
448.5740, 13006.52
449.0561, 13101.90
449.5382, 13132.81
450.0204, 13072.50
450.5025, 13048.79
450.9846, 13074.70
451.4667, 13129.72
451.9488, 13178.87
452.4309, 13222.33
452.9131, 13261.76
453.3952, 13296.27
453.8773, 13327.13
454.3594, 13367.62
454.8415, 13420.20
455.3236, 13461.20
455.8058, 13453.63
456.2879, 13414.64
456.7700, 13395.51
457.2521, 13416.47
457.7342, 13453.24
458.2163, 13474.55
458.6985, 13485.08
459.1806, 13503.16
459.6627, 13551.08
460.1448, 13604.71
460.6269, 13638.68
461.1090, 13645.51
461.5912, 13653.83
462.0733, 13687.55
462.5554, 13728.65
463.0375, 13753.42
463.5196, 13717.66
464.0017, 13701.21
464.4839, 13749.67
464.9660, 13858.68
465.4481, 13924.73
465.9302, 13893.92
466.4123, 13848.78
466.8944, 13833.99
467.3766, 13861.92
467.8587, 13901.35
468.3408, 13964.38
468.8229, 14033.28
469.3050, 14065.79
469.7871, 14043.00
470.2693, 14034.03
470.7514, 14069.77
471.2335, 14148.86
471.7156, 14199.50
472.1977, 14215.20
472.6798, 14228.41
473.1620, 14277.50
473.6441, 14357.69
474.1262, 14426.29
474.6083, 14474.95
475.0904, 14506.79
475.5725, 14517.06
476.0547, 14510.57
476.5368, 14512.75
477.0189, 14538.79
477.5010, 14582.51
477.9831, 14645.27
478.4652, 14731.21
478.9474, 14799.68
479.4295, 14800.81
479.9116, 14772.21
480.3937, 14763.42
480.8758, 14825.86
481.3579, 14878.06
481.8401, 14882.14
482.3222, 14844.30
482.8043, 14802.36
483.2864, 14749.60
483.7685, 14708.32
484.2506, 14693.23
484.7328, 14733.10
485.2149, 14745.11
485.6970, 14719.74
486.1791, 14671.35
486.6612, 14619.00
487.1433, 14560.76
487.6255, 14503.08
488.1076, 14444.92
488.5897, 14387.75
489.0718, 14342.77
489.5539, 14312.13
490.0360, 14286.08
490.5182, 14256.56
491.0003, 14224.06
491.4824, 14196.79
491.9645, 14178.31
492.4467, 14157.97
492.9288, 14110.69
493.4109, 14044.20
493.8930, 13991.10
494.3751, 13975.87
494.8572, 13979.44
495.3394, 13982.61
495.8215, 13984.60
496.3036, 13974.96
496.7857, 13923.77
497.2678, 13867.39
497.7499, 13847.37
498.2321, 13900.63
498.7142, 13946.63
499.1963, 13947.90
499.6784, 13918.45
500.1605, 13889.27
500.6426, 13865.99
501.1248, 13845.02
501.6069, 13820.25
502.0890, 13786.54
502.5711, 13781.67
503.0532, 13828.97
503.5353, 13883.68
504.0175, 13906.63
504.4996, 13881.03
504.9817, 13871.81
505.4638, 13894.29
505.9459, 13931.06
506.4280, 13930.30
506.9102, 13885.85
507.3923, 13847.34
507.8744, 13842.30
508.3565, 13864.24
508.8386, 13883.24
509.3207, 13899.73
509.8029, 13907.70
510.2850, 13891.76
510.7671, 13863.16
511.2492, 13847.66
511.7313, 13854.89
512.2134, 13873.27
512.6956, 13902.11
513.1777, 13934.74
513.6598, 13952.41
514.1419, 13924.49
514.6240, 13895.00
515.1061, 13895.63
515.5883, 13933.98
516.0704, 13964.20
516.5525, 13965.55
517.0346, 13957.44
517.5167, 13956.96
517.9988, 13979.86
518.4810, 13992.93
518.9631, 13987.44
519.4452, 13971.02
519.9273, 13967.98
520.4094, 13983.31
520.8915, 14002.20
521.3737, 14019.45
521.8558, 14035.14
522.3379, 14050.75
522.8200, 14068.34
523.3021, 14078.55
523.7842, 14055.52
524.2664, 14007.95
524.7485, 14007.43
525.2306, 14088.20
525.7127, 14191.15
526.1948, 14223.85
526.6769, 14198.55
527.1591, 14166.49
527.6412, 14150.41
528.1233, 14144.53
528.6054, 14139.25
529.0875, 14133.58
529.5696, 14146.29
530.0518, 14216.07
530.5339, 14294.55
531.0160, 14337.96
531.4981, 14301.76
531.9802, 14270.32
532.4623, 14252.16
532.9445, 14249.95
533.4266, 14272.43
533.9087, 14351.54
534.3908, 14415.85
534.8729, 14443.92
535.3550, 14434.17
535.8372, 14414.89
536.3193, 14382.49
536.8014, 14347.30
537.2835, 14313.16
537.7656, 14279.06
538.2477, 14269.50
538.7299, 14292.45
539.2120, 14331.21
539.6941, 14358.13
540.1762, 14375.24
540.6583, 14394.20
541.1404, 14426.85
541.6226, 14461.58
542.1047, 14482.26
542.5868, 14489.46
543.0689, 14488.28
543.5510, 14471.48
544.0331, 14453.54
544.5153, 14449.12
544.9974, 14467.60
545.4795, 14485.56
545.9616, 14483.23
546.4437, 14477.92
546.9258, 14496.82
547.4080, 14587.57
547.8901, 14654.29
548.3722, 14670.08
548.8543, 14639.19
549.3364, 14622.20
549.8185, 14625.33
550.3007, 14631.54
550.7828, 14628.51
551.2649, 14613.72
551.7470, 14614.00
552.2291, 14633.98
552.7112, 14659.13
553.1934, 14672.26
553.6755, 14673.90
554.1576, 14664.66
554.6397, 14629.39
555.1218, 14600.11
555.6039, 14638.94
556.0861, 14731.67
556.5682, 14814.11
557.0503, 14845.37
557.5324, 14850.91
558.0145, 14853.22
558.4966, 14855.84
558.9788, 14846.30
559.4609, 14793.82
559.9430, 14739.41
560.4251, 14720.95
560.9072, 14785.43
561.3893, 14837.47
561.8715, 14865.33
562.3536, 14874.52
562.8357, 14876.78
563.3178, 14868.52
563.7999, 14860.59
564.2820, 14858.55
564.7642, 14861.87
565.2463, 14852.11
565.7284, 14825.16
566.2105, 14802.50
566.6926, 14801.79
567.1747, 14820.92
567.6569, 14852.45
568.1390, 14897.70
568.6211, 14946.25
569.1032, 14996.83
569.5853, 15040.80
570.0674, 15058.29
570.5496, 15001.64
571.0317, 14948.33
571.5138, 14961.77
571.9959, 15031.18
572.4780, 15090.25
572.9601, 15109.06
573.4423, 15114.33
573.9244, 15117.64
574.4065, 15113.94
574.8886, 15126.81
575.3707, 15175.95
575.8528, 15227.34
576.3350, 15244.66
576.8171, 15215.06
577.2992, 15186.81
577.7813, 15165.78
578.2634, 15151.07
578.7455, 15137.05
579.2277, 15123.25
579.7098, 15124.68
580.1919, 15170.03
580.6740, 15234.16
581.1561, 15233.38
581.6382, 15169.29
582.1204, 15118.50
582.6025, 15164.20
583.0846, 15249.81
583.5667, 15300.74
584.0488, 15287.10
584.5309, 15276.66
585.0131, 15317.72
585.4952, 15379.88
585.9773, 15418.36
586.4594, 15400.88
586.9415, 15382.17
587.4236, 15369.56
587.9058, 15364.42
588.3879, 15378.09
588.8700, 15426.35
589.3521, 15467.88
589.8342, 15478.18
590.3163, 15452.95
590.7985, 15456.49
591.2806, 15494.44
591.7627, 15541.83
592.2448, 15572.80
592.7269, 15590.02
593.2090, 15609.17
593.6912, 15641.30
594.1733, 15658.35
594.6554, 15594.63
595.1375, 15486.30
595.6196, 15426.68
596.1017, 15502.05
596.5839, 15603.96
597.0660, 15664.37
597.5482, 15685.71
598.0303, 15705.16
598.5124, 15731.79
598.9945, 15761.55
599.4766, 15793.39
599.9587, 15831.91
600.4409, 15860.21
600.9230, 15876.92
601.4051, 15884.24
601.8872, 15881.89
602.3693, 15867.20
602.8514, 15855.01
603.3336, 15843.62
603.8157, 15841.34
604.2978, 15878.02
604.7799, 15948.94
605.2620, 16004.11
605.7441, 15997.68
606.2263, 15970.21
606.7084, 15998.93
607.1905, 16076.98
607.6726, 16126.60
608.1547, 16048.49
608.6368, 15952.25
609.1190, 15937.70
609.6011, 16053.25
610.0832, 16148.69
610.5653, 16161.80
611.0474, 16143.14
611.5295, 16151.60
612.0117, 16231.22
612.4938, 16268.74
612.9759, 16234.54
613.4580, 16158.42
613.9401, 16120.08
614.4222, 16125.33
614.9044, 16142.25
615.3865, 16162.08
615.8686, 16183.13
616.3507, 16196.62
616.8328, 16202.53
617.3149, 16210.48
617.7971, 16242.63
618.2792, 16276.31
618.7613, 16269.49
619.2434, 16208.83
619.7255, 16152.15
620.2076, 16144.37
620.6898, 16159.22
621.1719, 16166.81
621.6540, 16156.27
622.1361, 16141.27
622.6182, 16108.71
623.1003, 16074.19
623.5825, 16080.00
624.0646, 16154.29
624.5467, 16219.71
625.0288, 16253.76
625.5109, 16259.27
625.9930, 16260.41
626.4752, 16256.80
626.9573, 16251.07
627.4394, 16244.34
627.9215, 16236.92
628.4036, 16230.30
628.8857, 16224.65
629.3679, 16218.69
629.8500, 16218.30
630.3321, 16214.71
630.8142, 16191.69
631.2963, 16115.44
631.7784, 16065.41
632.2606, 16095.88
632.7427, 16173.73
633.2248, 16235.72
633.7069, 16267.28
634.1890, 16284.56
634.6711, 16288.16
635.1533, 16279.52
635.6354, 16267.97
636.1175, 16249.17
636.5996, 16239.03
637.0817, 16248.79
637.5638, 16277.19
638.0460, 16304.67
638.5281, 16331.34
639.0102, 16356.95
639.4923, 16385.65
639.9744, 16412.63
640.4565, 16424.02
640.9387, 16410.90
641.4208, 16401.60
641.9029, 16428.66
642.3850, 16470.42
642.8671, 16493.63
643.3492, 16478.68
643.8314, 16454.11
644.3135, 16411.97
644.7956, 16363.61
645.2777, 16354.43
645.7598, 16415.31
646.2419, 16465.62
646.7241, 16468.32
647.2062, 16428.04
647.6883, 16435.06
648.1704, 16496.70
648.6525, 16562.31
649.1346, 16588.84
649.6168, 16587.23
650.0989, 16594.26
650.5810, 16614.30
651.0631, 16634.34
651.5452, 16644.85
652.0273, 16647.80
652.5095, 16645.61
652.9916, 16635.38
653.4737, 16625.77
653.9558, 16622.90
654.4379, 16622.62
654.9200, 16616.80
655.4022, 16586.20
655.8843, 16573.89
656.3664, 16598.68
656.8485, 16649.28
657.3306, 16659.88
657.8127, 16616.56
658.2949, 16587.00
