##NAMES=Heulandite-Ca
##RRUFFID=R050017
##IDEAL CHEMISTRY=(Ca,Na,K)_5_(Si_27_Al_9_)O_72_&#183;26H_2_O
##LOCALITY=Poona, Maharashtra State, India
##OWNER=RRUFF
##SOURCE=Eugene Schlepp
##DESCRIPTION=Single crystals
##STATUS=The identification of this mineral has been confirmed by X-ray diffraction and chemical analysis
##URL=rruff.info/R050017
##MEASURED CHEMISTRY=(Ca_.70_Na_.22_K_.02_[box]_0.06_)_5_(Si_0.77_Al_0.23_)_36_O_72_Â·24H_2_O
131.8235, 1599.188
132.3056, 1690.881
132.7877, 1788.762
133.2699, 1877.541
133.7520, 1957.222
134.2341, 2036.030
134.7162, 2116.842
135.1983, 2200.000
135.6804, 2285.667
136.1626, 2376.385
136.6447, 2464.787
137.1268, 2534.961
137.6089, 2583.238
138.0910, 2624.273
138.5731, 2668.133
139.0553, 2721.046
139.5374, 2748.019
140.0195, 2737.696
140.5016, 2701.275
140.9837, 2683.874
141.4658, 2694.098
141.9480, 2709.535
142.4301, 2714.460
142.9122, 2702.823
143.3943, 2693.517
143.8764, 2688.863
144.3585, 2688.824
144.8407, 2689.819
145.3228, 2689.644
145.8049, 2692.194
146.2870, 2701.355
146.7691, 2721.156
147.2512, 2742.080
147.7334, 2761.619
148.2155, 2778.729
148.6976, 2800.081
149.1797, 2829.547
149.6618, 2862.218
150.1439, 2891.339
150.6261, 2916.472
151.1082, 2938.116
151.5903, 2956.563
152.0724, 2973.193
152.5545, 2983.459
153.0366, 2985.318
153.5188, 2980.560
154.0009, 2972.732
154.4830, 2958.288
154.9651, 2943.802
155.4472, 2932.773
155.9293, 2933.500
156.4115, 2926.116
156.8936, 2901.885
157.3757, 2865.210
157.8578, 2831.085
158.3399, 2808.578
158.8221, 2787.320
159.3042, 2760.280
159.7863, 2716.208
160.2684, 2675.515
160.7505, 2647.246
161.2326, 2629.665
161.7148, 2611.423
162.1969, 2583.989
162.6790, 2554.891
163.1611, 2531.721
163.6432, 2523.642
164.1253, 2516.552
164.6075, 2502.581
165.0896, 2481.431
165.5717, 2459.281
166.0538, 2438.280
166.5359, 2418.662
167.0180, 2400.694
167.5002, 2384.695
167.9823, 2370.082
168.4644, 2355.373
168.9465, 2339.859
169.4286, 2328.415
169.9107, 2332.247
170.3929, 2343.134
170.8750, 2343.834
171.3571, 2318.149
171.8392, 2281.002
172.3213, 2247.008
172.8034, 2217.649
173.2856, 2193.725
173.7677, 2181.630
174.2498, 2177.364
174.7319, 2167.483
175.2140, 2140.096
175.6961, 2102.861
176.1783, 2065.897
176.6604, 2028.451
177.1425, 1997.224
177.6246, 1984.920
178.1067, 1989.223
178.5888, 1994.286
179.0710, 1990.679
179.5531, 1979.436
180.0352, 1961.667
180.5173, 1934.335
180.9994, 1904.170
181.4815, 1882.132
181.9637, 1867.947
182.4458, 1859.001
182.9279, 1855.690
183.4100, 1856.396
183.8921, 1855.055
184.3742, 1850.269
184.8564, 1842.170
185.3385, 1829.333
185.8206, 1811.156
186.3027, 1794.193
186.7848, 1785.947
187.2669, 1785.496
187.7491, 1785.614
188.2312, 1785.915
188.7133, 1784.945
189.1954, 1774.588
189.6775, 1752.902
190.1596, 1730.815
190.6418, 1723.539
191.1239, 1730.747
191.6060, 1737.167
192.0881, 1736.078
192.5702, 1728.328
193.0524, 1721.175
193.5345, 1714.656
194.0166, 1708.678
194.4987, 1704.305
194.9808, 1701.814
195.4629, 1696.681
195.9451, 1683.833
196.4272, 1663.398
196.9093, 1652.525
197.3914, 1653.808
197.8735, 1661.421
198.3556, 1665.372
198.8378, 1665.630
199.3199, 1662.486
199.8020, 1653.661
200.2841, 1638.425
200.7662, 1630.016
201.2483, 1630.592
201.7305, 1637.129
202.2126, 1643.785
202.6947, 1651.801
203.1768, 1655.301
203.6589, 1647.852
204.1410, 1626.990
204.6232, 1613.892
205.1053, 1612.977
205.5874, 1619.909
206.0695, 1619.655
206.5516, 1610.075
207.0337, 1598.928
207.5159, 1592.076
207.9980, 1591.099
208.4801, 1587.079
208.9622, 1577.198
209.4443, 1563.479
209.9264, 1556.315
210.4086, 1557.443
210.8907, 1561.653
211.3728, 1565.262
211.8549, 1568.319
212.3370, 1570.645
212.8191, 1571.911
213.3013, 1572.312
213.7834, 1574.138
214.2655, 1578.987
214.7476, 1582.687
215.2297, 1580.951
215.7118, 1571.411
216.1940, 1562.734
216.6761, 1555.430
217.1582, 1549.642
217.6403, 1551.237
218.1224, 1565.543
218.6045, 1580.096
219.0867, 1580.600
219.5688, 1557.690
220.0509, 1543.141
220.5330, 1545.879
221.0151, 1566.375
221.4972, 1583.353
221.9794, 1597.980
222.4615, 1607.971
222.9436, 1609.972
223.4257, 1599.361
223.9078, 1590.178
224.3899, 1585.630
224.8721, 1585.885
225.3542, 1588.079
225.8363, 1593.908
226.3184, 1600.086
226.8005, 1601.996
227.2827, 1595.492
227.7648, 1592.769
228.2469, 1598.363
228.7290, 1613.940
229.2111, 1624.440
229.6932, 1627.551
230.1754, 1627.336
230.6575, 1629.303
231.1396, 1635.283
231.6217, 1640.032
232.1038, 1640.517
232.5859, 1634.335
233.0681, 1637.528
233.5502, 1654.864
234.0323, 1678.089
234.5144, 1695.629
234.9965, 1705.689
235.4786, 1712.779
235.9608, 1717.551
236.4429, 1719.077
236.9250, 1722.113
237.4071, 1725.746
237.8892, 1731.460
238.3713, 1742.433
238.8535, 1763.280
239.3356, 1781.644
239.8177, 1793.043
240.2998, 1795.436
240.7819, 1798.743
241.2640, 1803.429
241.7462, 1808.813
242.2283, 1813.560
242.7104, 1816.495
243.1925, 1820.748
243.6746, 1827.723
244.1567, 1838.620
244.6389, 1848.139
245.1210, 1855.363
245.6031, 1861.734
246.0852, 1869.764
246.5673, 1880.001
247.0494, 1890.989
247.5316, 1902.587
248.0137, 1915.578
248.4958, 1926.643
248.9779, 1935.904
249.4600, 1943.103
249.9421, 1947.378
250.4243, 1947.831
250.9064, 1947.021
251.3885, 1945.511
251.8706, 1942.597
252.3527, 1941.391
252.8348, 1942.308
253.3170, 1944.664
253.7991, 1947.695
254.2812, 1953.028
254.7633, 1955.894
255.2454, 1954.844
255.7275, 1950.259
256.2097, 1939.569
256.6918, 1919.306
257.1739, 1895.441
257.6560, 1878.841
258.1381, 1871.077
258.6202, 1867.329
259.1024, 1865.801
259.5845, 1866.286
260.0666, 1870.927
260.5487, 1883.911
261.0308, 1897.841
261.5129, 1898.335
261.9951, 1880.754
262.4772, 1860.766
262.9593, 1844.062
263.4414, 1830.691
263.9235, 1819.800
264.4056, 1811.508
264.8878, 1805.478
265.3699, 1801.936
265.8520, 1802.753
266.3341, 1800.579
266.8162, 1790.591
267.2983, 1770.547
267.7805, 1758.445
268.2626, 1757.206
268.7447, 1760.796
269.2268, 1759.208
269.7089, 1751.905
270.1910, 1741.308
270.6732, 1725.797
271.1553, 1704.030
271.6374, 1692.883
272.1195, 1695.836
272.6016, 1704.297
273.0837, 1704.171
273.5659, 1694.201
274.0480, 1682.132
274.5301, 1669.461
275.0122, 1656.081
275.4943, 1647.733
275.9764, 1645.367
276.4586, 1646.245
276.9407, 1646.883
277.4228, 1647.365
277.9049, 1646.898
278.3870, 1645.458
278.8691, 1642.993
279.3513, 1637.950
279.8334, 1629.808
280.3155, 1620.425
280.7976, 1611.125
281.2798, 1601.839
281.7619, 1596.201
282.2440, 1597.838
282.7261, 1605.296
283.2082, 1606.618
283.6903, 1600.693
284.1725, 1592.720
284.6546, 1590.500
285.1367, 1593.717
285.6188, 1593.246
286.1009, 1582.614
286.5830, 1565.369
287.0652, 1557.545
287.5473, 1560.072
288.0294, 1566.866
288.5115, 1574.030
288.9936, 1580.927
289.4757, 1581.994
289.9579, 1572.301
290.4400, 1556.230
290.9221, 1545.168
291.4042, 1539.223
291.8863, 1536.982
292.3684, 1538.769
292.8506, 1543.632
293.3327, 1547.305
293.8148, 1547.095
294.2969, 1545.665
294.7790, 1549.592
295.2611, 1558.905
295.7433, 1567.270
296.2254, 1569.039
296.7075, 1565.514
297.1896, 1560.013
297.6717, 1551.051
298.1538, 1542.613
298.6360, 1541.935
299.1181, 1548.498
299.6002, 1556.206
300.0823, 1561.610
300.5644, 1564.761
301.0465, 1565.700
301.5287, 1563.868
302.0108, 1560.551
302.4929, 1555.546
302.9750, 1549.501
303.4571, 1546.406
303.9392, 1552.981
304.4214, 1562.888
304.9035, 1566.904
305.3856, 1559.252
305.8677, 1550.811
306.3498, 1550.227
306.8319, 1556.646
307.3141, 1567.167
307.7962, 1587.759
308.2783, 1607.932
308.7604, 1616.252
309.2425, 1605.860
309.7246, 1592.953
310.2068, 1586.595
310.6889, 1585.627
311.1710, 1586.904
311.6531, 1591.262
312.1352, 1595.849
312.6173, 1597.754
313.0995, 1594.771
313.5816, 1594.166
314.0637, 1603.437
314.5458, 1617.222
315.0279, 1625.518
315.5100, 1620.487
315.9922, 1611.973
316.4743, 1604.111
316.9564, 1596.554
317.4385, 1593.111
317.9206, 1600.495
318.4027, 1611.511
318.8849, 1616.109
319.3670, 1603.564
319.8491, 1591.203
320.3312, 1585.563
320.8133, 1587.937
321.2954, 1592.106
321.7776, 1597.094
322.2597, 1603.197
322.7418, 1610.732
323.2239, 1626.054
323.7060, 1636.513
324.1881, 1636.880
324.6703, 1625.968
325.1524, 1618.577
325.6345, 1616.064
326.1166, 1617.356
326.5987, 1621.658
327.0808, 1635.854
327.5630, 1644.881
328.0451, 1644.458
328.5272, 1635.189
329.0093, 1630.315
329.4914, 1632.438
329.9735, 1636.679
330.4557, 1639.622
330.9378, 1638.043
331.4199, 1641.108
331.9020, 1652.171
332.3841, 1668.877
332.8662, 1679.585
333.3484, 1682.303
333.8305, 1681.883
334.3126, 1680.764
334.7947, 1678.958
335.2768, 1675.978
335.7589, 1669.968
336.2411, 1663.792
336.7232, 1665.783
337.2053, 1678.724
337.6874, 1691.662
338.1695, 1699.799
338.6516, 1702.803
339.1338, 1702.306
339.6159, 1696.481
340.0980, 1690.104
340.5801, 1692.627
341.0622, 1705.112
341.5443, 1717.054
342.0265, 1723.411
342.5086, 1724.933
342.9907, 1729.162
343.4728, 1736.222
343.9549, 1745.379
344.4370, 1757.943
344.9192, 1773.110
345.4013, 1783.361
345.8834, 1782.877
346.3655, 1776.324
346.8476, 1776.024
347.3297, 1782.076
347.8119, 1790.982
348.2940, 1801.303
348.7761, 1812.093
349.2582, 1820.013
349.7403, 1822.493
350.2225, 1823.561
350.7046, 1827.018
351.1867, 1833.305
351.6688, 1845.594
352.1509, 1875.998
352.6331, 1911.371
353.1152, 1929.924
353.5973, 1919.615
354.0794, 1904.972
354.5615, 1907.734
355.0436, 1924.140
355.5258, 1942.743
356.0079, 1959.776
356.4900, 1974.854
356.9721, 1985.988
357.4542, 1990.300
357.9363, 1999.395
358.4185, 2025.099
358.9006, 2059.432
359.3827, 2088.589
359.8648, 2102.745
360.3469, 2113.863
360.8290, 2128.058
361.3112, 2146.336
361.7933, 2164.655
362.2754, 2183.566
362.7575, 2201.316
363.2396, 2216.058
363.7217, 2216.971
364.2039, 2225.033
364.6860, 2250.376
365.1681, 2293.402
365.6502, 2328.362
366.1323, 2342.198
366.6144, 2353.450
367.0966, 2375.092
367.5787, 2425.556
368.0608, 2463.919
368.5429, 2482.969
369.0250, 2486.471
369.5071, 2492.944
369.9893, 2500.967
370.4714, 2513.505
370.9535, 2532.469
371.4356, 2560.070
371.9177, 2588.727
372.3998, 2618.761
372.8820, 2649.722
373.3641, 2679.771
373.8462, 2707.645
374.3283, 2737.822
374.8104, 2774.590
375.2925, 2819.922
375.7747, 2849.715
376.2568, 2859.260
376.7389, 2863.105
377.2210, 2881.675
377.7031, 2915.963
378.1852, 2950.545
378.6674, 2980.791
379.1495, 3007.594
379.6316, 3035.592
380.1137, 3064.454
380.5958, 3095.404
381.0779, 3129.170
381.5601, 3166.026
382.0422, 3205.203
382.5243, 3249.154
383.0064, 3293.133
383.4885, 3326.461
383.9706, 3351.055
384.4528, 3378.683
384.9349, 3420.298
385.4170, 3469.695
385.8991, 3516.271
386.3812, 3556.978
386.8633, 3601.071
387.3455, 3662.390
387.8276, 3733.844
388.3097, 3800.285
388.7918, 3841.886
389.2739, 3882.494
389.7560, 3944.565
390.2382, 4031.621
390.7203, 4118.208
391.2024, 4190.126
391.6845, 4253.893
392.1666, 4317.926
392.6487, 4385.514
393.1309, 4452.888
393.6130, 4519.167
394.0951, 4584.304
394.5772, 4644.990
395.0593, 4698.543
395.5414, 4748.641
396.0236, 4797.042
396.5057, 4839.040
396.9878, 4885.465
397.4699, 4939.914
397.9520, 4999.699
398.4341, 5055.914
398.9163, 5109.387
399.3984, 5158.418
399.8805, 5203.612
400.3626, 5248.591
400.8447, 5278.185
401.3268, 5286.584
401.8090, 5283.843
402.2911, 5285.794
402.7732, 5298.508
403.2553, 5299.906
403.7374, 5282.748
404.2195, 5247.810
404.7017, 5207.727
405.1838, 5160.461
405.6659, 5113.085
406.1480, 5074.357
406.6301, 5044.342
407.1122, 5008.204
407.5944, 4963.667
408.0765, 4910.851
408.5586, 4850.918
409.0407, 4783.662
409.5228, 4708.868
410.0049, 4618.959
410.4871, 4522.012
410.9692, 4440.493
411.4513, 4377.985
411.9334, 4324.928
412.4155, 4275.331
412.8976, 4225.967
413.3798, 4169.804
413.8619, 4096.655
414.3440, 4018.126
414.8261, 3948.721
415.3082, 3888.304
415.7903, 3820.220
416.2725, 3719.820
416.7546, 3610.335
417.2367, 3516.241
417.7188, 3460.357
418.2009, 3407.315
418.6830, 3339.931
419.1652, 3261.883
419.6473, 3189.294
420.1294, 3131.021
420.6115, 3076.425
421.0937, 3017.542
421.5758, 2947.751
422.0579, 2888.381
422.5400, 2850.611
423.0221, 2823.040
423.5042, 2786.197
423.9864, 2737.517
424.4685, 2682.011
424.9506, 2615.545
425.4327, 2537.028
425.9148, 2473.835
426.3969, 2433.049
426.8791, 2399.522
427.3612, 2361.144
427.8433, 2317.069
428.3254, 2270.292
428.8075, 2218.190
429.2896, 2164.984
429.7718, 2128.679
430.2539, 2112.257
430.7360, 2096.425
431.2181, 2068.625
431.7002, 2029.860
432.1823, 1994.778
432.6645, 1964.339
433.1466, 1936.683
433.6287, 1909.014
434.1108, 1881.934
434.5929, 1858.607
435.0750, 1845.561
435.5572, 1835.054
436.0393, 1809.520
436.5214, 1769.814
437.0035, 1733.960
437.4856, 1719.386
437.9677, 1716.734
438.4499, 1713.600
438.9320, 1707.824
439.4141, 1699.147
439.8962, 1686.008
440.3783, 1669.737
440.8604, 1653.371
441.3426, 1636.657
441.8247, 1621.659
442.3068, 1609.346
442.7889, 1599.673
443.2710, 1593.422
443.7531, 1594.708
444.2353, 1598.015
444.7174, 1597.269
445.1995, 1586.414
445.6816, 1577.145
446.1637, 1570.466
446.6458, 1566.563
447.1280, 1567.518
447.6101, 1576.298
448.0922, 1586.699
448.5743, 1594.698
449.0564, 1597.529
449.5385, 1606.668
450.0207, 1626.548
450.5028, 1649.053
450.9849, 1654.715
451.4670, 1638.343
451.9491, 1631.393
452.4312, 1649.407
452.9134, 1688.801
453.3955, 1722.762
453.8776, 1751.024
454.3597, 1775.059
454.8418, 1792.537
455.3239, 1805.869
455.8061, 1825.067
456.2882, 1855.079
456.7703, 1888.145
457.2524, 1911.720
457.7345, 1928.063
458.2166, 1947.009
458.6988, 1973.342
459.1809, 2005.712
459.6630, 2043.822
460.1451, 2088.863
460.6272, 2133.281
461.1093, 2174.466
461.5915, 2211.441
462.0736, 2242.098
462.5557, 2256.141
463.0378, 2273.234
463.5199, 2304.669
464.0020, 2347.771
464.4842, 2383.213
464.9663, 2398.253
465.4484, 2410.722
465.9305, 2430.633
466.4126, 2467.637
466.8947, 2496.095
467.3769, 2512.648
467.8590, 2522.070
468.3411, 2531.911
468.8232, 2541.598
469.3053, 2552.365
469.7874, 2561.753
470.2696, 2570.663
470.7517, 2599.216
471.2338, 2652.655
471.7159, 2709.287
472.1980, 2748.737
472.6801, 2771.559
473.1623, 2794.680
473.6444, 2818.875
474.1265, 2847.910
474.6086, 2887.463
475.0907, 2937.424
475.5728, 2997.066
476.0550, 3073.917
476.5371, 3157.766
477.0192, 3230.459
477.5013, 3291.650
477.9834, 3349.237
478.4655, 3408.284
478.9477, 3467.948
479.4298, 3526.223
479.9119, 3581.453
480.3940, 3637.499
480.8761, 3699.856
481.3582, 3764.869
481.8404, 3821.205
482.3225, 3867.401
482.8046, 3902.175
483.2867, 3925.846
483.7688, 3939.305
484.2509, 3938.555
484.7331, 3918.022
485.2152, 3885.707
485.6973, 3848.486
486.1794, 3809.191
486.6615, 3759.592
487.1436, 3695.780
487.6258, 3620.438
488.1079, 3546.303
488.5900, 3475.188
489.0721, 3401.378
489.5542, 3323.490
490.0363, 3241.279
490.5185, 3147.213
491.0006, 3039.659
491.4827, 2927.673
491.9648, 2822.036
492.4470, 2722.673
492.9291, 2632.077
493.4112, 2559.816
493.8933, 2491.276
494.3754, 2400.783
494.8575, 2291.534
495.3397, 2189.124
495.8218, 2111.937
496.3039, 2048.031
496.7860, 1985.266
497.2681, 1920.113
497.7502, 1858.760
498.2324, 1805.430
498.7145, 1757.208
499.1966, 1709.094
499.6787, 1656.618
500.1608, 1607.641
500.6429, 1565.048
501.1251, 1528.636
501.6072, 1494.540
502.0893, 1462.509
502.5714, 1432.240
503.0535, 1403.628
503.5356, 1377.240
504.0178, 1351.297
504.4999, 1325.690
504.9820, 1300.850
505.4641, 1276.168
505.9462, 1250.851
506.4283, 1230.368
506.9105, 1217.701
507.3926, 1210.916
507.8747, 1203.260
508.3568, 1194.771
508.8389, 1183.946
509.3210, 1164.309
509.8032, 1141.321
510.2853, 1133.011
510.7674, 1145.082
511.2495, 1156.993
511.7316, 1144.479
512.2137, 1116.330
512.6959, 1090.695
513.1780, 1074.956
513.6601, 1064.182
514.1422, 1056.390
514.6243, 1051.240
515.1064, 1046.772
515.5886, 1043.214
516.0707, 1039.386
516.5528, 1034.278
517.0349, 1025.819
517.5170, 1020.068
517.9991, 1021.260
518.4813, 1024.082
518.9634, 1021.604
519.4455, 1010.566
519.9276, 999.6655
520.4097, 989.7318
520.8918, 981.2640
521.3740, 977.0256
521.8561, 977.9266
522.3382, 980.0441
522.8203, 981.4545
523.3024, 982.0967
523.7845, 980.7296
524.2667, 976.8948
524.7488, 972.4810
525.2309, 970.6406
525.7130, 970.2745
526.1951, 967.5106
526.6772, 959.4852
527.1594, 949.8138
527.6415, 941.5027
528.1236, 934.9084
528.6057, 931.4640
529.0878, 934.2127
529.5699, 939.0317
530.0521, 943.6350
530.5342, 948.5150
531.0163, 949.7342
531.4984, 942.8527
531.9805, 933.0497
532.4626, 925.8105
532.9448, 921.1472
533.4269, 920.1730
533.9090, 926.3561
534.3911, 936.6857
534.8732, 938.5305
535.3553, 927.4430
535.8375, 916.2189
536.3196, 911.4709
536.8017, 913.6626
537.2838, 909.8454
537.7659, 898.0523
538.2480, 886.6278
538.7302, 887.2390
539.2123, 897.7061
539.6944, 902.2000
540.1765, 895.1842
540.6586, 884.5964
541.1407, 881.5743
541.6229, 884.5153
542.1050, 887.5712
542.5871, 886.7666
543.0692, 885.2198
543.5513, 887.3370
544.0334, 893.2380
544.5156, 894.8877
544.9977, 881.5980
545.4798, 866.4872
545.9619, 860.4064
546.4440, 873.8185
546.9261, 883.7617
547.4083, 885.3563
547.8904, 881.8679
548.3725, 879.1068
548.8546, 877.2867
549.3367, 875.8418
549.8188, 874.8677
550.3010, 874.2646
550.7831, 872.8788
551.2652, 870.6809
551.7473, 867.7841
552.2294, 863.6154
552.7115, 858.4372
553.1937, 855.4394
553.6758, 855.2341
554.1579, 855.7146
554.6400, 854.0958
555.1221, 851.0184
555.6042, 848.4079
556.0864, 847.7703
556.5685, 847.0263
557.0506, 842.8747
557.5327, 836.5509
558.0148, 832.7392
558.4969, 835.1245
558.9791, 839.6802
559.4612, 844.9875
559.9433, 851.7684
560.4254, 854.5824
560.9075, 849.2957
561.3896, 841.3363
561.8718, 835.2973
562.3539, 830.4348
562.8360, 828.9882
563.3181, 832.4597
563.8002, 838.8160
564.2823, 843.4073
564.7645, 846.0834
565.2466, 847.5757
565.7287, 848.8827
566.2108, 849.2915
566.6929, 843.0356
567.1750, 829.7813
567.6572, 818.5798
568.1393, 819.2504
568.6214, 827.2068
569.1035, 833.6456
569.5856, 837.3276
570.0677, 839.0458
570.5499, 838.2346
571.0320, 836.1809
571.5141, 834.9180
571.9962, 832.8396
572.4783, 834.0244
572.9604, 842.7962
573.4426, 857.2422
573.9247, 867.7568
574.4068, 871.0992
574.8889, 871.5716
575.3710, 870.1229
575.8531, 866.0557
576.3353, 863.7352
576.8174, 863.1334
577.2995, 864.3543
577.7816, 869.1697
578.2637, 878.4007
578.7458, 880.7938
579.2280, 872.2084
579.7101, 860.7058
580.1922, 861.4653
580.6743, 872.8128
581.1564, 885.2927
581.6385, 894.6057
582.1207, 902.5533
582.6028, 911.6854
583.0849, 921.6783
583.5670, 930.6226
584.0491, 937.9482
584.5313, 943.3939
585.0134, 946.3276
585.4955, 945.7396
585.9776, 945.6495
586.4597, 946.1470
586.9418, 948.0718
587.4240, 952.4194
587.9061, 960.1507
588.3882, 968.9692
588.8703, 980.1511
589.3524, 991.8524
589.8345, 997.3605
590.3167, 994.4245
590.7988, 993.9724
591.2809, 1000.727
591.7630, 1013.852
592.2451, 1030.400
592.7272, 1050.549
593.2094, 1069.762
593.6915, 1084.323
594.1736, 1095.251
594.6557, 1104.017
595.1378, 1110.170
595.6199, 1116.405
596.1021, 1122.294
596.5842, 1130.147
597.0663, 1143.316
597.5485, 1169.975
598.0306, 1194.484
598.5127, 1210.738
598.9948, 1220.374
599.4769, 1230.991
599.9590, 1245.049
600.4412, 1257.976
600.9233, 1267.927
601.4054, 1274.743
601.8875, 1281.539
602.3696, 1287.696
602.8517, 1295.260
603.3339, 1307.127
603.8160, 1322.854
604.2981, 1335.051
604.7802, 1342.428
605.2623, 1347.424
605.7444, 1350.803
606.2266, 1354.120
606.7087, 1361.525
607.1908, 1379.223
607.6729, 1396.868
608.1550, 1408.102
608.6371, 1412.866
609.1193, 1411.360
609.6014, 1392.888
610.0835, 1377.369
610.5656, 1378.118
611.0477, 1399.383
611.5298, 1408.814
612.0120, 1399.360
612.4941, 1383.853
612.9762, 1370.316
613.4583, 1359.161
613.9404, 1349.238
614.4225, 1341.869
614.9047, 1333.380
615.3868, 1316.028
615.8689, 1290.606
616.3510, 1269.820
616.8331, 1258.776
617.3152, 1252.433
617.7974, 1245.641
618.2795, 1237.457
618.7616, 1223.982
619.2437, 1194.764
619.7258, 1165.711
620.2079, 1150.996
620.6901, 1151.262
621.1722, 1148.644
621.6543, 1135.793
622.1364, 1118.799
622.6185, 1101.171
623.1006, 1080.697
623.5828, 1065.093
624.0649, 1057.186
624.5470, 1051.556
625.0291, 1040.997
625.5112, 1024.076
625.9933, 1009.991
626.4755, 1000.946
626.9576, 995.0790
627.4397, 990.5431
