##NAMES=Heulandite-Ca
##RRUFFID=R050097
##IDEAL CHEMISTRY=(Ca,Na,K)_5_(Si_27_Al_9_)O_72_&#183;26H_2_O
##LOCALITY=Rat's Nest Claim, Custer County, Idaho, USA
##OWNER=RRUFF
##SOURCE=John Cornish
##DESCRIPTION=Pale pink coffin-shaped tabular single crystals
##STATUS=The identification of this mineral has been confirmed by X-ray diffraction and chemical analysis
##URL=rruff.info/R050097
##MEASURED CHEMISTRY=(Ca_0.66_Na_0.30_K_0.04_)_5_(Si_0.77_Al_0.23_)_36_O_72_Â·24H_2_O
209.8010, 2735.088
210.2831, 2715.234
210.7652, 2676.765
211.2473, 2664.987
211.7294, 2692.243
212.2116, 2722.087
212.6937, 2724.162
213.1758, 2688.559
213.6579, 2657.701
214.1400, 2636.517
214.6221, 2625.088
215.1043, 2627.576
215.5864, 2653.537
216.0685, 2679.908
216.5506, 2679.840
217.0327, 2639.079
217.5148, 2608.715
217.9970, 2603.136
218.4791, 2624.229
218.9612, 2637.766
219.4433, 2641.527
219.9254, 2639.688
220.4075, 2637.800
220.8897, 2637.370
221.3718, 2633.312
221.8539, 2621.899
222.3360, 2599.170
222.8181, 2587.488
223.3002, 2589.800
223.7824, 2601.364
224.2645, 2614.832
224.7466, 2634.230
225.2287, 2648.842
225.7108, 2653.089
226.1929, 2640.900
226.6750, 2635.867
227.1572, 2641.851
227.6393, 2653.946
228.1214, 2658.601
228.6035, 2649.716
229.0856, 2642.468
229.5677, 2646.049
230.0499, 2670.240
230.5320, 2681.492
231.0141, 2638.486
231.4962, 2672.616
231.9783, 2690.477
232.4604, 2692.942
232.9426, 2633.901
233.4247, 2654.283
233.9068, 2642.836
234.3889, 2630.083
234.8710, 2661.643
235.3531, 2657.687
235.8353, 2668.293
236.3174, 2675.635
236.7995, 2682.759
237.2816, 2692.797
237.7637, 2710.659
238.2458, 2721.617
238.7280, 2719.738
239.2101, 2705.382
239.6922, 2702.779
240.1743, 2714.615
240.6564, 2735.485
241.1385, 2761.732
241.6207, 2800.446
242.1028, 2832.306
242.5849, 2852.568
243.0670, 2860.273
243.5491, 2867.863
244.0313, 2873.166
244.5134, 2880.157
244.9955, 2895.270
245.4776, 2929.163
245.9597, 2952.478
246.4418, 2954.801
246.9240, 2930.778
247.4061, 2908.655
247.8882, 2918.322
248.3703, 2924.283
248.8524, 2926.736
249.3345, 2915.178
249.8167, 2921.713
250.2988, 2920.998
250.7809, 2919.984
251.2630, 2929.066
251.7451, 2919.545
252.2272, 2928.467
252.7094, 2930.027
253.1915, 2934.956
253.6736, 2932.589
254.1557, 2932.476
254.6378, 2920.587
255.1199, 2924.987
255.6021, 2956.887
256.0842, 2999.348
256.5663, 3013.381
257.0484, 2986.888
257.5305, 2952.934
258.0126, 2924.918
258.4948, 2903.131
258.9769, 2885.929
259.4590, 2873.190
259.9411, 2865.042
260.4232, 2863.041
260.9053, 2872.310
261.3875, 2878.420
261.8696, 2871.564
262.3517, 2844.644
262.8338, 2828.413
263.3159, 2828.027
263.7980, 2838.521
264.2802, 2842.366
264.7623, 2836.109
265.2444, 2830.060
265.7265, 2832.858
266.2086, 2850.087
266.6907, 2854.321
267.1729, 2838.810
267.6550, 2809.352
268.1371, 2787.211
268.6192, 2772.970
269.1013, 2765.066
269.5834, 2764.559
270.0656, 2773.837
270.5477, 2778.907
271.0298, 2776.193
271.5119, 2768.285
271.9940, 2766.511
272.4761, 2772.145
272.9583, 2780.825
273.4404, 2791.841
273.9225, 2807.240
274.4046, 2812.451
274.8867, 2801.506
275.3688, 2779.349
275.8510, 2769.077
276.3331, 2773.308
276.8152, 2781.846
277.2973, 2785.005
277.7794, 2781.632
278.2615, 2784.589
278.7437, 2799.254
279.2258, 2821.762
279.7079, 2832.409
280.1900, 2828.315
280.6721, 2823.555
281.1542, 2833.408
281.6364, 2858.769
282.1185, 2879.786
282.6006, 2895.399
283.0827, 2903.005
283.5648, 2886.811
284.0469, 2842.949
284.5291, 2795.480
285.0112, 2770.450
285.4933, 2767.017
285.9754, 2757.232
286.4575, 2729.646
286.9396, 2691.625
287.4217, 2668.841
287.9038, 2661.942
288.3860, 2665.176
288.8681, 2681.800
289.3502, 2708.680
289.8323, 2717.805
290.3144, 2692.272
290.7965, 2646.281
291.2787, 2619.969
291.7608, 2614.313
292.2429, 2616.957
292.7250, 2617.049
293.2071, 2615.350
293.6892, 2615.871
294.1714, 2622.923
294.6535, 2631.838
295.1356, 2630.714
295.6177, 2619.206
296.0998, 2606.373
296.5819, 2598.184
297.0641, 2595.095
297.5462, 2599.260
298.0283, 2620.277
298.5104, 2644.298
298.9925, 2643.723
299.4746, 2618.317
299.9568, 2591.410
300.4389, 2583.820
300.9210, 2590.205
301.4031, 2598.127
301.8852, 2603.679
302.3673, 2607.943
302.8495, 2612.503
303.3316, 2617.251
303.8137, 2621.287
304.2958, 2623.441
304.7779, 2624.329
305.2600, 2625.074
305.7422, 2629.561
306.2243, 2631.856
306.7064, 2620.903
307.1885, 2597.599
307.6706, 2581.823
308.1527, 2594.629
308.6349, 2622.120
309.1170, 2644.782
309.5991, 2657.021
310.0812, 2661.045
310.5633, 2654.431
311.0454, 2637.977
311.5276, 2625.352
312.0097, 2626.880
312.4918, 2635.944
312.9739, 2645.218
313.4560, 2659.027
313.9381, 2666.631
314.4203, 2655.341
314.9024, 2627.129
315.3845, 2608.402
315.8666, 2620.326
316.3487, 2643.824
316.8308, 2660.874
317.3130, 2661.037
317.7951, 2658.439
318.2772, 2659.104
318.7593, 2662.561
319.2414, 2662.884
319.7235, 2653.982
320.2057, 2643.274
320.6878, 2636.644
321.1699, 2636.058
321.6520, 2639.104
322.1341, 2650.055
322.6162, 2667.324
323.0984, 2674.383
323.5805, 2649.985
324.0626, 2624.999
324.5447, 2620.248
325.0268, 2667.644
325.5089, 2703.385
325.9911, 2715.528
326.4732, 2705.723
326.9553, 2694.313
327.4374, 2672.895
327.9195, 2656.422
328.4016, 2653.329
328.8838, 2676.371
329.3659, 2696.785
329.8480, 2714.073
330.3301, 2727.755
330.8122, 2735.347
331.2943, 2732.478
331.7765, 2727.854
332.2586, 2726.184
332.7407, 2728.097
333.2228, 2731.592
333.7049, 2734.302
334.1870, 2738.472
334.6692, 2755.413
335.1513, 2795.573
335.6334, 2832.121
336.1155, 2849.503
336.5976, 2843.500
337.0797, 2830.869
337.5619, 2807.603
338.0440, 2780.502
338.5261, 2772.337
339.0082, 2788.828
339.4903, 2806.929
339.9724, 2811.856
340.4546, 2801.311
340.9367, 2799.302
341.4188, 2810.614
341.9009, 2826.766
342.3830, 2826.494
342.8651, 2807.582
343.3473, 2793.443
343.8294, 2799.839
344.3115, 2825.103
344.7936, 2847.309
345.2757, 2866.668
345.7578, 2880.326
346.2400, 2880.063
346.7221, 2866.837
347.2042, 2856.446
347.6863, 2854.400
348.1684, 2861.206
348.6505, 2882.066
349.1327, 2920.127
349.6148, 2959.126
350.0969, 2975.852
350.5790, 2975.410
351.0611, 2977.835
351.5432, 2995.854
352.0254, 3021.432
352.5075, 3042.562
352.9896, 3058.473
353.4717, 3071.829
353.9538, 3087.090
354.4359, 3101.524
354.9181, 3109.237
355.4002, 3093.691
355.8823, 3079.015
356.3644, 3094.782
356.8465, 3141.710
357.3286, 3182.854
357.8108, 3182.882
358.2929, 3166.227
358.7750, 3164.858
359.2571, 3206.459
359.7392, 3253.126
360.2213, 3284.779
360.7035, 3301.858
361.1856, 3314.682
361.6677, 3323.269
362.1498, 3331.684
362.6319, 3343.535
363.1140, 3358.832
363.5962, 3378.516
364.0783, 3404.823
364.5604, 3436.778
365.0425, 3467.711
365.5246, 3501.242
366.0067, 3530.035
366.4889, 3549.615
366.9710, 3547.402
367.4531, 3550.326
367.9352, 3560.143
368.4173, 3576.747
368.8994, 3600.022
369.3815, 3643.259
369.8636, 3681.415
370.3458, 3701.593
370.8279, 3679.018
371.3100, 3682.167
371.7921, 3724.596
372.2742, 3789.746
372.7563, 3836.532
373.2385, 3856.816
373.7206, 3871.350
374.2027, 3887.036
374.6848, 3903.120
375.1669, 3923.266
375.6490, 3948.614
376.1312, 3976.816
376.6133, 4004.837
377.0954, 4032.967
377.5775, 4060.068
378.0596, 4085.010
378.5417, 4107.587
379.0239, 4131.267
379.5060, 4152.313
379.9881, 4185.161
380.4702, 4263.449
380.9523, 4385.247
381.4344, 4474.758
381.9166, 4491.003
382.3987, 4459.719
382.8808, 4461.475
383.3629, 4497.577
383.8450, 4545.003
384.3271, 4580.333
384.8093, 4608.785
385.2914, 4646.457
385.7735, 4703.125
386.2556, 4765.909
386.7377, 4812.756
387.2198, 4845.759
387.7020, 4882.926
388.1841, 4941.812
388.6662, 5010.604
389.1483, 5073.934
389.6304, 5125.084
390.1125, 5174.316
390.5947, 5231.953
391.0768, 5295.418
391.5589, 5354.651
392.0410, 5392.131
392.5231, 5431.265
393.0052, 5492.092
393.4874, 5586.766
393.9695, 5681.074
394.4516, 5759.118
394.9337, 5828.550
395.4158, 5903.393
395.8979, 5989.761
396.3801, 6080.170
396.8622, 6173.979
397.3443, 6275.731
397.8264, 6363.767
398.3085, 6426.008
398.7906, 6475.394
399.2728, 6527.079
399.7549, 6586.526
400.2370, 6642.826
400.7191, 6693.263
401.2012, 6737.481
401.6833, 6783.202
402.1655, 6835.952
402.6476, 6884.510
403.1297, 6919.493
403.6118, 6940.396
404.0939, 6948.986
404.5760, 6943.726
405.0582, 6926.265
405.5403, 6906.174
406.0224, 6885.713
406.5045, 6856.589
406.9866, 6811.303
407.4688, 6748.828
407.9509, 6682.927
408.4330, 6614.533
408.9151, 6543.206
409.3972, 6464.127
409.8793, 6377.596
410.3615, 6297.937
410.8436, 6238.468
411.3257, 6192.341
411.8078, 6139.753
412.2899, 6080.364
412.7720, 6008.899
413.2542, 5912.164
413.7363, 5797.879
414.2184, 5686.788
414.7005, 5591.911
415.1826, 5504.976
415.6647, 5417.410
416.1469, 5329.682
416.6290, 5241.082
417.1111, 5149.882
417.5932, 5058.007
418.0753, 4970.976
418.5574, 4889.876
419.0396, 4812.666
419.5217, 4737.129
420.0038, 4664.080
420.4859, 4594.222
420.9680, 4528.002
421.4501, 4465.393
421.9323, 4408.496
422.4144, 4365.570
422.8965, 4316.271
423.3786, 4254.358
423.8607, 4183.239
424.3428, 4112.110
424.8250, 4033.136
425.3071, 3961.183
425.7892, 3903.501
426.2713, 3866.073
426.7534, 3824.372
427.2355, 3775.684
427.7177, 3724.223
428.1998, 3677.291
428.6819, 3637.095
429.1640, 3596.046
429.6461, 3549.857
430.1282, 3499.230
430.6104, 3457.014
431.0925, 3426.314
431.5746, 3395.937
432.0567, 3349.953
432.5388, 3287.495
433.0209, 3241.441
433.5031, 3223.534
433.9852, 3222.431
434.4673, 3210.778
434.9494, 3188.860
435.4315, 3162.525
435.9136, 3132.781
436.3958, 3102.151
436.8779, 3076.848
437.3600, 3058.193
437.8421, 3044.767
438.3242, 3041.500
438.8063, 3043.328
439.2885, 3035.961
439.7706, 3002.479
440.2527, 2962.088
440.7348, 2929.927
441.2169, 2906.748
441.6990, 2895.171
442.1812, 2908.012
442.6633, 2929.202
443.1454, 2939.774
443.6275, 2927.345
444.1096, 2909.465
444.5917, 2889.096
445.0739, 2866.819
445.5560, 2849.638
446.0381, 2838.649
446.5202, 2833.325
447.0023, 2833.466
447.4844, 2847.199
447.9666, 2855.749
448.4487, 2852.769
448.9308, 2845.036
449.4129, 2851.961
449.8950, 2881.237
450.3771, 2912.353
450.8593, 2939.175
451.3413, 2962.585
451.8235, 2973.607
452.3056, 2967.396
452.7877, 2956.533
453.2698, 2957.325
453.7519, 2970.271
454.2340, 2989.481
454.7162, 3014.297
455.1983, 3043.808
455.6804, 3076.221
456.1625, 3111.750
456.6446, 3148.554
457.1267, 3186.907
457.6089, 3225.383
458.0910, 3261.505
458.5731, 3292.325
459.0552, 3324.335
459.5373, 3367.539
460.0194, 3418.541
460.5016, 3466.997
460.9837, 3503.746
461.4658, 3536.704
461.9479, 3572.335
462.4300, 3611.135
462.9121, 3653.208
463.3943, 3704.961
463.8764, 3758.043
464.3585, 3800.859
464.8406, 3820.106
465.3227, 3838.301
465.8048, 3863.906
466.2870, 3897.077
466.7691, 3926.271
467.2512, 3950.440
467.7333, 3970.285
468.2154, 3985.285
468.6975, 3980.746
469.1797, 3996.681
469.6618, 4047.495
470.1439, 4116.150
470.6260, 4153.218
471.1081, 4142.851
471.5902, 4139.222
472.0724, 4171.411
472.5545, 4243.143
473.0366, 4288.214
473.5187, 4300.305
474.0008, 4302.279
474.4829, 4317.244
474.9651, 4345.363
475.4472, 4390.433
475.9293, 4464.865
476.4114, 4549.285
476.8935, 4599.560
477.3756, 4617.745
477.8578, 4633.918
478.3399, 4670.044
478.8220, 4718.140
479.3041, 4767.459
479.7862, 4817.718
480.2683, 4864.562
480.7505, 4905.864
481.2326, 4941.253
481.7147, 4970.260
482.1968, 4997.666
482.6789, 5014.736
483.1610, 5014.999
483.6432, 4996.587
484.1253, 4973.107
484.6074, 4952.584
485.0895, 4926.036
485.5716, 4885.504
486.0537, 4820.038
486.5359, 4752.585
487.0180, 4690.159
487.5001, 4628.108
487.9822, 4541.460
488.4643, 4414.314
488.9464, 4290.164
489.4286, 4191.244
489.9107, 4124.099
490.3928, 4053.295
490.8749, 3979.426
491.3570, 3900.483
491.8391, 3809.558
492.3213, 3707.535
492.8034, 3605.156
493.2855, 3505.133
493.7676, 3409.149
494.2497, 3317.834
494.7318, 3232.060
495.2140, 3156.421
495.6961, 3102.519
496.1782, 3060.159
496.6603, 3012.529
497.1424, 2951.172
497.6245, 2892.624
498.1067, 2851.657
498.5888, 2822.981
499.0709, 2794.016
499.5530, 2758.154
500.0351, 2720.988
500.5172, 2684.063
500.9994, 2647.656
501.4815, 2614.429
501.9636, 2587.232
502.4457, 2562.014
502.9278, 2535.116
503.4099, 2499.054
503.8921, 2470.243
504.3742, 2453.812
504.8563, 2446.203
505.3384, 2431.998
505.8205, 2408.333
506.3026, 2383.853
506.7848, 2360.297
507.2669, 2335.760
507.7490, 2328.698
508.2311, 2345.050
508.7132, 2365.297
509.1953, 2360.111
509.6775, 2331.886
510.1596, 2307.589
510.6417, 2299.478
511.1238, 2298.510
511.6059, 2284.441
512.0880, 2258.484
512.5701, 2235.628
513.0522, 2226.625
513.5344, 2226.558
514.0165, 2230.298
514.4986, 2238.488
514.9807, 2245.620
515.4628, 2251.616
515.9449, 2253.779
516.4271, 2247.534
516.9092, 2226.504
517.3913, 2201.542
517.8734, 2172.192
518.3555, 2138.030
518.8376, 2117.645
519.3198, 2126.313
519.8019, 2140.126
520.2840, 2144.298
520.7661, 2131.027
521.2482, 2123.926
521.7303, 2127.263
522.2125, 2135.455
522.6946, 2134.205
523.1767, 2120.279
523.6588, 2110.541
524.1409, 2114.141
524.6230, 2128.771
525.1052, 2138.213
525.5873, 2142.415
526.0694, 2141.857
526.5515, 2134.042
527.0336, 2121.618
527.5157, 2112.666
527.9979, 2110.938
528.4800, 2110.498
528.9621, 2102.885
529.4442, 2091.049
529.9263, 2083.471
530.4084, 2089.759
530.8906, 2098.209
531.3727, 2101.085
531.8548, 2097.451
532.3369, 2090.335
532.8190, 2072.581
533.3011, 2055.718
533.7833, 2050.506
534.2654, 2070.774
534.7475, 2087.797
535.2296, 2100.821
535.7117, 2108.822
536.1938, 2107.132
536.6760, 2089.493
537.1581, 2074.000
537.6402, 2069.337
538.1223, 2076.632
538.6044, 2081.235
539.0865, 2083.402
539.5687, 2082.337
540.0508, 2073.726
540.5329, 2059.240
541.0150, 2053.285
541.4971, 2064.680
541.9792, 2079.789
542.4614, 2071.365
542.9435, 2044.963
543.4256, 2011.220
543.9077, 2021.189
544.3898, 2027.450
544.8719, 2030.205
545.3541, 2018.948
545.8362, 2025.785
546.3183, 2025.370
546.8004, 2024.658
547.2825, 2034.040
547.7646, 2024.821
548.2468, 2034.044
548.7289, 2047.300
549.2110, 2051.527
549.6931, 2053.193
550.1752, 2050.146
550.6573, 2047.459
551.1395, 2047.401
551.6216, 2050.548
552.1037, 2053.084
552.5858, 2055.067
553.0679, 2056.398
553.5500, 2057.723
554.0322, 2058.923
554.5143, 2056.160
554.9964, 2046.248
555.4785, 2034.778
555.9606, 2033.135
556.4427, 2039.861
556.9249, 2047.116
557.4070, 2051.836
557.8891, 2053.657
558.3712, 2050.279
558.8533, 2040.668
559.3354, 2034.292
559.8176, 2042.135
560.2997, 2053.283
560.7818, 2056.542
561.2639, 2037.907
561.7460, 2023.553
562.2281, 2022.031
562.7103, 2029.533
563.1924, 2031.420
563.6745, 2023.599
564.1566, 2015.348
564.6387, 2009.229
565.1208, 2004.964
565.6030, 2006.815
566.0851, 2017.756
566.5672, 2028.013
567.0493, 2023.846
567.5314, 2006.368
568.0135, 1999.483
568.4957, 2010.536
568.9778, 2029.154
569.4599, 2039.453
569.9420, 2042.625
570.4241, 2043.265
570.9063, 2043.281
571.3884, 2042.348
571.8705, 2039.602
572.3526, 2035.047
572.8347, 2030.889
573.3168, 2024.894
573.7990, 2021.663
574.2811, 2025.520
574.7632, 2045.388
575.2453, 2060.963
575.7274, 2062.189
576.2095, 2058.313
576.6917, 2069.168
577.1738, 2111.737
577.6559, 2140.706
578.1380, 2139.568
578.6201, 2110.564
579.1022, 2089.442
579.5844, 2076.235
580.0665, 2070.724
580.5486, 2076.964
581.0307, 2092.713
581.5128, 2100.332
581.9949, 2096.018
582.4771, 2089.816
582.9592, 2095.915
583.4413, 2109.948
583.9234, 2121.106
584.4055, 2122.708
584.8876, 2121.396
585.3698, 2120.164
585.8519, 2119.650
586.3340, 2123.177
586.8161, 2138.717
587.2982, 2153.715
587.7803, 2159.126
588.2625, 2145.529
588.7446, 2145.194
589.2267, 2169.701
589.7088, 2201.013
590.1909, 2220.325
590.6730, 2225.684
591.1552, 2222.368
591.6373, 2205.585
592.1194, 2184.028
592.6015, 2187.125
593.0836, 2216.384
593.5657, 2246.000
594.0479, 2261.294
594.5300, 2266.635
595.0121, 2271.496
595.4942, 2275.958
595.9763, 2285.122
596.4584, 2307.973
596.9406, 2336.360
597.4227, 2360.407
597.9048, 2379.053
598.3869, 2390.332
598.8690, 2387.265
599.3511, 2376.975
599.8333, 2373.274
600.3154, 2377.371
600.7975, 2390.590
601.2796, 2420.038
601.7617, 2464.981
602.2438, 2486.616
602.7260, 2470.463
603.2081, 2456.201
603.6902, 2473.186
604.1723, 2524.803
604.6544, 2565.560
605.1365, 2593.503
605.6187, 2609.276
606.1008, 2605.816
606.5829, 2588.431
607.0650, 2580.147
607.5471, 2595.117
608.0292, 2614.923
608.5114, 2610.707
608.9935, 2590.954
609.4756, 2585.916
609.9577, 2633.267
610.4398, 2683.427
610.9219, 2703.847
611.4041, 2688.249
611.8862, 2669.799
612.3683, 2644.112
612.8504, 2624.989
613.3325, 2624.301
613.8146, 2660.836
614.2968, 2677.960
614.7789, 2667.672
615.2610, 2641.327
615.7431, 2619.203
616.2252, 2601.259
616.7073, 2589.079
617.1895, 2588.076
617.6716, 2591.317
618.1537, 2577.278
618.6358, 2547.065
619.1179, 2516.064
619.6000, 2494.384
620.0822, 2478.524
620.5643, 2465.633
621.0464, 2456.148
621.5285, 2443.975
622.0106, 2419.944
622.4927, 2394.094
622.9749, 2377.280
623.4570, 2381.811
623.9391, 2383.702
624.4212, 2381.273
624.9033, 2373.853
625.3854, 2357.801
625.8676, 2327.068
626.3497, 2301.692
626.8318, 2291.841
627.3139, 2294.958
627.7960, 2283.376
628.2781, 2255.138
628.7603, 2228.192
629.2424, 2219.903
629.7245, 2224.166
630.2066, 2225.236
630.6887, 2221.050
631.1708, 2213.723
631.6530, 2204.670
632.1351, 2193.822
632.6172, 2181.020
633.0993, 2162.160
633.5814, 2145.771
634.0635, 2134.506
634.5457, 2128.038
635.0278, 2125.264
635.5099, 2133.850
635.9920, 2137.089
636.4741, 2126.658
636.9562, 2101.021
637.4384, 2090.768
637.9205, 2101.304
638.4026, 2111.916
638.8847, 2101.340
639.3668, 2072.572
639.8489, 2055.564
640.3311, 2055.829
640.8132, 2060.220
641.2953, 2050.380
641.7774, 2032.967
642.2595, 2022.497
642.7416, 2030.489
643.2238, 2041.204
643.7059, 2045.583
644.1880, 2044.630
644.6701, 2041.904
645.1522, 2034.036
645.6343, 2028.751
646.1165, 2031.935
646.5986, 2045.381
647.0807, 2048.569
647.5628, 2037.448
648.0449, 2022.054
648.5270, 2009.193
649.0092, 1998.978
649.4913, 1989.440
649.9734, 1979.521
650.4555, 1972.761
650.9376, 1977.773
651.4197, 1990.757
651.9019, 1997.439
652.3840, 1986.674
652.8661, 1975.240
653.3482, 1983.949
653.8303, 2005.951
654.3124, 2020.379
654.7946, 2012.334
655.2767, 2000.023
655.7588, 1991.418
656.2409, 1987.232
656.7230, 1984.642
657.2051, 1985.080
657.6872, 1985.264
658.1693, 1982.658
658.6514, 1975.916
659.1335, 1973.179
659.6157, 1975.886
660.0978, 1979.839
660.5799, 1978.149
661.0620, 1972.188
661.5441, 1970.097
662.0262, 1976.144
662.5084, 1983.636
662.9905, 1985.414
663.4726, 1982.149
663.9547, 1975.603
664.4368, 1960.295
664.9189, 1947.543
665.4011, 1944.718
665.8832, 1951.652
666.3653, 1958.030
666.8474, 1960.240
667.3295, 1963.169
667.8116, 1970.201
668.2938, 1984.076
668.7759, 1988.545
669.2580, 1980.794
669.7401, 1969.969
670.2222, 1965.879
670.7043, 1967.991
671.1865, 1970.956
671.6686, 1974.387
672.1507, 1977.019
672.6328, 1978.224
673.1149, 1977.470
673.5970, 1973.440
674.0792, 1958.420
674.5613, 1946.545
675.0434, 1949.451
675.5255, 1964.018
676.0076, 1973.268
676.4897, 1969.995
676.9719, 1963.897
677.4540, 1957.360
677.9361, 1949.806
678.4182, 1947.636
678.9003, 1953.192
679.3824, 1958.819
679.8646, 1956.343
680.3467, 1946.804
680.8288, 1944.085
681.3109, 1950.783
681.7930, 1958.669
682.2751, 1956.968
682.7573, 1949.682
683.2394, 1944.992
683.7215, 1948.217
684.2036, 1951.417
684.6857, 1948.025
685.1678, 1941.363
685.6500, 1933.471
686.1321, 1945.005
686.6142, 1951.889
687.0963, 1954.375
687.5784, 1939.289
688.0605, 1946.894
688.5427, 1945.405
689.0248, 1943.543
689.5069, 1954.342
689.9890, 1941.811
690.4711, 1952.409
690.9532, 1953.775
691.4354, 1959.366
691.9175, 1955.807
692.3996, 1955.074
692.8817, 1963.494
693.3638, 1966.846
693.8459, 1932.857
694.3281, 1936.891
694.8102, 1952.407
695.2923, 1961.847
695.7744, 1957.041
696.2565, 1951.584
696.7386, 1945.285
697.2208, 1939.930
697.7029, 1941.782
698.1850, 1954.144
698.6671, 1961.684
699.1492, 1956.347
699.6313, 1942.825
700.1135, 1938.393
700.5956, 1942.593
701.0777, 1947.679
701.5598, 1945.949
702.0419, 1943.311
702.5240, 1948.553
703.0062, 1962.681
703.4883, 1975.358
703.9704, 1985.407
704.4525, 1989.569
