##NAMES=Heulandite-Na
##RRUFFID=R070281
##IDEAL CHEMISTRY=(Na,Ca,K)_6_(Si,Al)_36_O_72_&#183;22H_2_O
##LOCALITY=Warm Spring Creek, Challis, Custer County, Idaho, USA
##OWNER=RRUFF
##SOURCE=Michael Scott
##DESCRIPTION=Orange tabular crystals lining a vug
##STATUS=The identification of this mineral is not yet confirmed.
##URL=rruff.info/R070281
159.1066, 2017.511
159.5887, 2031.234
160.0709, 2029.494
160.5530, 2020.652
161.0351, 2016.708
161.5172, 2018.861
161.9993, 2022.480
162.4814, 2023.443
162.9636, 2023.473
163.4457, 2026.124
163.9278, 2034.831
164.4099, 2046.295
164.8920, 2055.349
165.3741, 2062.828
165.8563, 2065.293
166.3384, 2055.240
166.8205, 2039.320
167.3026, 2029.205
167.7847, 2034.009
168.2668, 2046.185
168.7490, 2048.404
169.2311, 2036.693
169.7132, 2023.839
170.1953, 2017.892
170.6774, 2015.205
171.1595, 2009.743
171.6417, 1996.515
172.1238, 1979.674
172.6059, 1970.005
173.0880, 1969.977
173.5701, 1972.568
174.0522, 1975.910
174.5344, 1979.293
175.0165, 1982.055
175.4986, 1985.425
175.9807, 1987.063
176.4628, 1978.643
176.9449, 1951.844
177.4271, 1930.496
177.9092, 1927.175
178.3913, 1933.155
178.8734, 1936.492
179.3555, 1930.463
179.8376, 1918.878
180.3197, 1914.077
180.8019, 1923.060
181.2840, 1926.133
181.7661, 1915.003
182.2482, 1896.105
182.7303, 1876.304
183.2124, 1857.729
183.6946, 1842.239
184.1767, 1836.016
184.6588, 1844.431
185.1409, 1853.273
185.6230, 1857.510
186.1051, 1860.336
186.5873, 1866.229
187.0694, 1877.935
187.5515, 1891.973
188.0336, 1898.947
188.5157, 1895.018
188.9978, 1890.037
189.4800, 1885.255
189.9621, 1881.116
190.4442, 1878.948
190.9263, 1879.706
191.4084, 1880.610
191.8905, 1873.954
192.3727, 1852.540
192.8548, 1836.407
193.3369, 1830.714
193.8190, 1830.063
194.3011, 1828.704
194.7832, 1824.303
195.2654, 1820.016
195.7475, 1823.333
196.2296, 1839.807
196.7117, 1853.726
197.1938, 1868.022
197.6759, 1876.871
198.1581, 1871.752
198.6402, 1850.306
199.1223, 1823.247
199.6044, 1811.435
200.0865, 1824.520
200.5686, 1834.136
201.0508, 1838.978
201.5329, 1839.422
202.0150, 1832.957
202.4971, 1819.705
202.9792, 1806.264
203.4613, 1805.535
203.9435, 1829.831
204.4256, 1838.495
204.9077, 1818.753
205.3898, 1792.970
205.8719, 1774.675
206.3540, 1767.172
206.8362, 1766.860
207.3183, 1770.719
207.8004, 1784.051
208.2825, 1787.391
208.7646, 1773.894
209.2467, 1756.953
209.7289, 1741.886
210.2110, 1730.614
210.6931, 1724.417
211.1752, 1726.579
211.6573, 1741.507
212.1395, 1748.328
212.6216, 1739.738
213.1037, 1729.866
213.5858, 1727.085
214.0679, 1730.367
214.5500, 1731.849
215.0322, 1721.370
215.5143, 1694.797
215.9964, 1684.480
216.4785, 1710.942
216.9606, 1734.372
217.4427, 1736.603
217.9249, 1721.874
218.4070, 1706.160
218.8891, 1703.296
219.3712, 1713.756
219.8533, 1719.800
220.3354, 1716.868
220.8176, 1713.700
221.2997, 1713.786
221.7818, 1715.425
222.2639, 1714.129
222.7460, 1705.661
223.2281, 1691.410
223.7103, 1687.208
224.1924, 1707.333
224.6745, 1722.343
225.1566, 1723.486
225.6387, 1716.241
226.1208, 1708.859
226.6030, 1705.993
227.0851, 1706.790
227.5672, 1708.066
228.0493, 1714.388
228.5314, 1714.455
229.0135, 1701.466
229.4957, 1683.461
229.9778, 1668.835
230.4599, 1661.289
230.9420, 1660.056
231.4241, 1663.894
231.9062, 1676.821
232.3884, 1688.050
232.8705, 1699.076
233.3526, 1706.584
233.8347, 1705.399
234.3168, 1694.223
234.7989, 1680.463
235.2811, 1677.343
235.7632, 1689.303
236.2453, 1701.748
236.7274, 1716.790
237.2095, 1729.666
237.6916, 1735.017
238.1738, 1732.774
238.6559, 1730.057
239.1380, 1737.849
239.6201, 1761.547
240.1022, 1775.562
240.5843, 1770.297
241.0665, 1762.303
241.5486, 1759.205
242.0307, 1761.236
242.5128, 1764.199
242.9949, 1762.965
243.4770, 1756.712
243.9592, 1756.362
244.4413, 1769.775
244.9234, 1781.906
245.4055, 1785.822
245.8876, 1783.654
246.3697, 1781.931
246.8519, 1786.613
247.3340, 1796.391
247.8161, 1798.442
248.2982, 1783.349
248.7803, 1773.214
249.2624, 1779.023
249.7446, 1793.804
250.2267, 1806.578
250.7088, 1812.082
251.1909, 1811.191
251.6730, 1805.306
252.1551, 1790.271
252.6373, 1778.775
253.1194, 1775.569
253.6015, 1777.247
254.0836, 1780.201
254.5657, 1782.965
255.0478, 1787.182
255.5300, 1797.421
256.0121, 1816.750
256.4942, 1830.243
256.9763, 1829.072
257.4584, 1822.909
257.9406, 1818.169
258.4227, 1816.196
258.9048, 1814.897
259.3869, 1811.416
259.8690, 1805.554
260.3511, 1802.333
260.8333, 1806.547
261.3154, 1810.176
261.7975, 1805.508
262.2796, 1793.006
262.7617, 1782.543
263.2438, 1783.124
263.7260, 1792.655
264.2081, 1799.102
264.6902, 1801.442
265.1723, 1799.944
265.6544, 1793.091
266.1365, 1782.524
266.6187, 1773.834
267.1008, 1771.070
267.5829, 1771.705
268.0650, 1770.586
268.5471, 1767.509
269.0292, 1762.967
269.5114, 1755.272
269.9935, 1746.499
270.4756, 1740.492
270.9577, 1740.227
271.4398, 1741.507
271.9219, 1738.383
272.4041, 1730.646
272.8862, 1726.089
273.3683, 1731.228
273.8504, 1740.815
274.3325, 1744.370
274.8146, 1738.573
275.2968, 1731.900
275.7789, 1729.532
276.2610, 1730.929
276.7431, 1734.158
277.2252, 1739.171
277.7073, 1744.911
278.1895, 1750.576
278.6716, 1757.320
279.1537, 1759.531
279.6358, 1750.861
280.1179, 1737.282
280.6000, 1729.785
281.0822, 1731.301
281.5643, 1735.625
282.0464, 1734.646
282.5285, 1727.602
283.0106, 1725.102
283.4927, 1729.679
283.9749, 1738.461
284.4570, 1752.572
284.9391, 1770.893
285.4212, 1782.890
285.9033, 1777.505
286.3854, 1755.239
286.8676, 1745.025
287.3497, 1756.720
287.8318, 1769.700
288.3139, 1773.327
288.7960, 1770.047
289.2781, 1767.893
289.7603, 1771.778
290.2424, 1779.391
290.7245, 1780.786
291.2066, 1765.796
291.6887, 1757.530
292.1708, 1765.634
292.6530, 1780.153
293.1351, 1788.795
293.6172, 1787.249
294.0993, 1779.342
294.5814, 1771.609
295.0635, 1763.248
295.5457, 1756.753
296.0278, 1751.106
296.5099, 1747.904
296.9920, 1751.154
297.4741, 1759.561
297.9562, 1765.329
298.4384, 1759.145
298.9205, 1738.100
299.4026, 1725.394
299.8847, 1728.710
300.3668, 1732.421
300.8489, 1730.272
301.3311, 1724.314
301.8131, 1719.901
302.2953, 1720.769
302.7774, 1725.790
303.2595, 1729.393
303.7416, 1732.476
304.2237, 1732.445
304.7058, 1726.034
305.1880, 1717.795
305.6701, 1712.476
306.1522, 1711.845
306.6343, 1714.419
307.1164, 1718.618
307.5985, 1725.509
308.0807, 1729.966
308.5628, 1728.328
309.0449, 1725.847
309.5270, 1726.035
310.0091, 1729.020
310.4912, 1731.773
310.9734, 1731.272
311.4555, 1727.851
311.9376, 1724.645
312.4197, 1719.410
312.9018, 1718.335
313.3839, 1727.871
313.8661, 1744.307
314.3482, 1757.795
314.8303, 1761.288
315.3124, 1760.283
315.7945, 1765.124
316.2766, 1776.849
316.7588, 1788.479
317.2409, 1798.799
317.7230, 1805.488
318.2051, 1803.838
318.6872, 1788.923
319.1693, 1773.284
319.6515, 1765.121
320.1336, 1763.930
320.6157, 1767.709
321.0978, 1776.629
321.5799, 1788.966
322.0620, 1803.650
322.5442, 1821.840
323.0263, 1835.427
323.5084, 1837.158
323.9905, 1835.158
324.4726, 1842.533
324.9547, 1861.432
325.4369, 1878.433
325.9190, 1879.307
326.4011, 1861.998
326.8832, 1851.771
327.3653, 1851.950
327.8474, 1855.772
328.3296, 1860.632
328.8117, 1866.088
329.2938, 1872.144
329.7759, 1879.155
330.2580, 1886.227
330.7401, 1889.052
331.2223, 1882.653
331.7044, 1878.167
332.1865, 1876.913
332.6686, 1878.039
333.1507, 1880.409
333.6328, 1883.737
334.1150, 1888.948
334.5971, 1898.753
335.0792, 1918.778
335.5613, 1927.514
336.0434, 1912.930
336.5255, 1899.050
337.0077, 1901.649
337.4898, 1916.950
337.9719, 1929.277
338.4540, 1924.772
338.9361, 1905.937
339.4182, 1895.559
339.9004, 1898.522
340.3825, 1903.317
340.8646, 1906.094
341.3467, 1908.640
341.8288, 1913.664
342.3109, 1922.546
342.7931, 1932.553
343.2752, 1941.095
343.7573, 1948.953
344.2394, 1949.043
344.7215, 1927.590
345.2036, 1907.636
345.6858, 1910.560
346.1679, 1936.769
346.6500, 1963.360
347.1321, 1976.090
347.6142, 1978.192
348.0963, 1977.487
348.5785, 1973.446
349.0606, 1970.530
349.5427, 1971.126
350.0248, 1975.543
350.5069, 1985.678
350.9890, 2009.961
351.4712, 2033.736
351.9533, 2042.198
352.4354, 2038.262
352.9175, 2038.157
353.3996, 2051.117
353.8817, 2070.761
354.3639, 2079.087
354.8460, 2069.200
355.3281, 2064.909
355.8102, 2075.243
356.2923, 2092.240
356.7744, 2107.547
357.2566, 2119.179
357.7387, 2127.105
358.2208, 2130.118
358.7029, 2125.696
359.1850, 2131.366
359.6671, 2155.788
360.1493, 2180.084
360.6314, 2193.588
361.1135, 2200.405
361.5956, 2211.525
362.0777, 2234.169
362.5598, 2263.574
363.0420, 2281.525
363.5241, 2275.115
364.0062, 2278.124
364.4883, 2302.085
364.9704, 2331.270
365.4525, 2353.071
365.9347, 2364.588
366.4168, 2370.702
366.8989, 2374.447
367.3810, 2375.328
367.8631, 2383.129
368.3452, 2403.492
368.8274, 2424.816
369.3095, 2438.628
369.7916, 2448.764
370.2737, 2464.580
370.7558, 2492.152
371.2379, 2526.523
371.7201, 2563.003
372.2022, 2603.025
372.6843, 2630.021
373.1664, 2627.349
373.6485, 2613.017
374.1306, 2615.310
374.6128, 2638.985
375.0949, 2665.062
375.5770, 2682.094
376.0591, 2694.738
376.5412, 2714.111
377.0233, 2743.455
377.5055, 2771.441
377.9876, 2783.212
378.4697, 2776.368
378.9518, 2786.496
379.4339, 2827.164
379.9160, 2873.044
380.3982, 2907.230
380.8803, 2933.771
381.3624, 2968.636
381.8445, 3022.388
382.3266, 3083.637
382.8087, 3118.055
383.2909, 3087.380
383.7730, 3079.233
384.2551, 3107.548
384.7372, 3150.846
385.2193, 3194.059
385.7014, 3233.531
386.1836, 3271.939
386.6657, 3312.809
387.1478, 3356.370
387.6299, 3394.566
388.1120, 3419.664
388.5941, 3448.695
389.0763, 3486.804
389.5584, 3532.331
390.0405, 3583.575
390.5226, 3642.277
391.0047, 3700.588
391.4868, 3742.450
391.9690, 3764.800
392.4511, 3798.882
392.9332, 3858.611
393.4153, 3928.482
393.8974, 3994.273
394.3795, 4055.934
394.8617, 4114.749
395.3438, 4175.930
395.8259, 4233.093
396.3080, 4271.873
396.7901, 4289.900
397.2722, 4307.762
397.7544, 4338.530
398.2365, 4381.494
398.7186, 4429.148
399.2007, 4493.944
399.6828, 4549.009
400.1649, 4576.652
400.6471, 4589.311
401.1292, 4610.661
401.6113, 4648.685
402.0934, 4687.575
402.5755, 4704.028
403.0576, 4691.347
403.5398, 4674.569
404.0219, 4651.892
404.5040, 4627.247
404.9861, 4604.294
405.4682, 4581.051
405.9503, 4552.739
406.4325, 4516.240
406.9146, 4472.682
407.3967, 4426.198
407.8788, 4375.439
408.3609, 4324.564
408.8430, 4276.072
409.3252, 4226.424
409.8073, 4171.320
410.2894, 4110.556
410.7715, 4050.148
411.2536, 3996.479
411.7357, 3947.951
412.2179, 3898.688
412.7000, 3849.827
413.1821, 3797.026
413.6642, 3734.735
414.1463, 3666.470
414.6284, 3600.259
415.1106, 3537.834
415.5927, 3477.025
416.0748, 3414.986
416.5569, 3353.021
417.0390, 3295.208
417.5211, 3242.906
418.0033, 3196.243
418.4854, 3157.250
418.9675, 3131.073
419.4496, 3094.448
419.9317, 3041.288
420.4138, 2982.034
420.8960, 2916.461
421.3781, 2849.929
421.8602, 2797.055
422.3423, 2768.642
422.8244, 2757.529
423.3065, 2732.741
423.7887, 2686.072
424.2708, 2637.594
424.7529, 2585.099
425.2350, 2534.631
425.7171, 2491.565
426.1992, 2456.299
426.6814, 2425.513
427.1635, 2400.788
427.6456, 2380.352
428.1277, 2342.952
428.6098, 2278.376
429.0919, 2216.538
429.5741, 2171.826
430.0562, 2139.495
430.5383, 2115.303
431.0204, 2102.435
431.5025, 2088.402
431.9846, 2057.588
432.4668, 2016.108
432.9489, 1987.588
433.4310, 1980.263
433.9131, 1979.940
434.3952, 1970.465
434.8773, 1950.956
435.3595, 1930.682
435.8416, 1909.838
436.3237, 1888.653
436.8058, 1865.441
437.2879, 1841.936
437.7701, 1822.383
438.2522, 1809.153
438.7343, 1800.014
439.2164, 1789.187
439.6985, 1773.350
440.1806, 1761.989
440.6628, 1757.520
441.1449, 1755.040
441.6270, 1752.789
442.1091, 1749.795
442.5912, 1744.272
443.0733, 1733.807
443.5555, 1720.205
444.0376, 1710.385
444.5197, 1704.750
445.0018, 1701.734
445.4839, 1697.844
445.9660, 1698.023
446.4482, 1711.439
446.9303, 1741.670
447.4124, 1765.095
447.8945, 1761.846
448.3766, 1742.578
448.8587, 1727.966
449.3409, 1720.534
449.8230, 1719.888
450.3051, 1727.486
450.7872, 1742.402
451.2693, 1754.005
451.7514, 1758.399
452.2336, 1764.263
452.7157, 1774.290
453.1978, 1787.530
453.6799, 1802.538
454.1620, 1818.900
454.6441, 1837.172
455.1263, 1858.420
455.6084, 1883.310
456.0905, 1907.225
456.5726, 1933.268
457.0547, 1954.718
457.5368, 1964.613
458.0190, 1969.661
458.5011, 1980.413
458.9832, 2001.537
459.4653, 2028.930
459.9474, 2058.908
460.4295, 2091.454
460.9117, 2119.698
461.3938, 2140.054
461.8759, 2158.789
462.3580, 2182.387
462.8401, 2209.761
463.3222, 2235.365
463.8044, 2254.339
464.2865, 2273.686
464.7686, 2304.381
465.2507, 2342.044
465.7328, 2367.896
466.2149, 2372.390
466.6971, 2365.746
467.1792, 2367.694
467.6613, 2383.644
468.1434, 2397.272
468.6255, 2405.480
469.1076, 2414.108
469.5898, 2426.802
470.0719, 2443.107
470.5540, 2461.340
471.0361, 2481.251
471.5182, 2500.436
472.0003, 2509.402
472.4825, 2499.342
472.9646, 2503.029
473.4467, 2539.248
473.9288, 2583.289
474.4109, 2622.633
474.8930, 2655.631
475.3752, 2681.792
475.8573, 2693.988
476.3394, 2701.829
476.8215, 2721.701
477.3036, 2754.011
477.7857, 2794.522
478.2679, 2845.689
478.7500, 2899.925
479.2321, 2937.986
479.7142, 2954.380
480.1963, 2970.845
480.6784, 2990.646
481.1606, 3012.829
481.6427, 3041.229
482.1248, 3072.853
482.6069, 3094.780
483.0890, 3096.542
483.5711, 3081.627
484.0533, 3070.210
484.5354, 3072.610
485.0175, 3060.729
485.4996, 3023.799
485.9817, 2977.767
486.4638, 2935.620
486.9460, 2898.368
487.4281, 2858.657
487.9102, 2807.367
488.3923, 2749.304
488.8744, 2701.961
489.3565, 2668.540
489.8387, 2628.262
490.3208, 2569.095
490.8029, 2496.953
491.2850, 2424.484
491.7671, 2348.889
492.2492, 2280.566
492.7314, 2227.046
493.2135, 2180.994
493.6956, 2135.428
494.1777, 2089.287
494.6598, 2042.119
495.1419, 1992.932
495.6241, 1942.994
496.1062, 1899.422
496.5883, 1869.019
497.0704, 1835.875
497.5525, 1794.914
498.0346, 1752.969
498.5168, 1717.232
498.9989, 1687.561
499.4810, 1656.563
499.9631, 1613.794
500.4452, 1564.914
500.9273, 1533.270
501.4095, 1521.618
501.8916, 1515.901
502.3737, 1513.973
502.8558, 1512.154
503.3379, 1504.881
503.8200, 1491.332
504.3022, 1475.473
504.7843, 1455.964
505.2664, 1436.561
505.7485, 1423.694
506.2306, 1416.601
506.7127, 1406.408
507.1949, 1385.707
507.6770, 1359.121
508.1591, 1347.399
508.6412, 1367.024
509.1233, 1377.574
509.6054, 1372.315
510.0876, 1361.242
510.5697, 1350.397
511.0518, 1340.750
511.5339, 1331.416
512.0161, 1322.211
512.4982, 1312.596
512.9803, 1299.080
513.4624, 1279.992
513.9445, 1267.996
514.4266, 1270.154
514.9088, 1279.554
515.3909, 1289.573
515.8730, 1301.110
516.3551, 1302.851
516.8372, 1280.331
517.3193, 1254.699
517.8015, 1248.170
518.2836, 1257.453
518.7657, 1265.063
519.2478, 1261.988
519.7299, 1250.495
520.2120, 1234.620
520.6942, 1202.765
521.1763, 1189.291
521.6584, 1209.884
522.1405, 1231.912
522.6226, 1237.909
523.1047, 1230.757
523.5869, 1220.837
524.0690, 1212.439
524.5511, 1206.549
525.0332, 1207.175
525.5153, 1214.241
525.9974, 1214.271
526.4796, 1200.041
526.9617, 1184.371
527.4438, 1182.068
527.9259, 1191.519
528.4080, 1201.038
528.8901, 1213.044
529.3723, 1220.714
529.8544, 1217.324
530.3365, 1207.208
530.8186, 1199.040
531.3007, 1195.709
531.7828, 1193.242
532.2650, 1184.828
532.7471, 1167.720
533.2292, 1161.841
533.7113, 1179.575
534.1934, 1194.581
534.6755, 1197.701
535.1577, 1193.851
535.6398, 1190.632
536.1219, 1190.571
536.6040, 1187.730
537.0861, 1171.917
537.5682, 1148.725
538.0504, 1137.887
538.5325, 1142.932
539.0146, 1151.404
539.4967, 1156.007
539.9788, 1156.688
540.4609, 1153.373
540.9431, 1136.892
541.4252, 1129.292
541.9073, 1144.063
542.3894, 1163.841
542.8715, 1171.203
543.3536, 1165.453
543.8358, 1157.696
544.3179, 1157.221
544.8000, 1161.454
545.2821, 1157.891
545.7642, 1142.064
546.2463, 1130.711
546.7285, 1130.821
547.2106, 1135.109
547.6927, 1139.605
548.1748, 1143.740
548.6569, 1144.983
549.1390, 1141.291
549.6211, 1134.789
550.1032, 1124.517
550.5853, 1112.656
551.0674, 1110.271
551.5496, 1123.180
552.0317, 1139.966
552.5138, 1140.875
552.9959, 1117.116
553.4780, 1107.462
553.9601, 1124.214
554.4423, 1139.756
554.9244, 1140.466
555.4065, 1133.440
555.8886, 1131.868
556.3707, 1140.788
556.8528, 1150.225
557.3350, 1145.425
557.8171, 1128.736
558.2992, 1120.001
558.7813, 1122.632
559.2634, 1128.316
559.7455, 1133.717
560.2277, 1137.665
560.7098, 1136.534
561.1919, 1123.928
561.6740, 1117.399
562.1561, 1131.026
562.6382, 1148.205
563.1204, 1148.214
563.6025, 1131.857
564.0846, 1117.111
564.5667, 1117.663
565.0488, 1128.838
565.5309, 1131.534
566.0131, 1121.410
566.4952, 1113.788
566.9773, 1113.121
567.4594, 1114.317
567.9415, 1114.409
568.4236, 1113.546
568.9058, 1113.186
569.3879, 1112.763
569.8700, 1114.171
570.3521, 1121.550
570.8342, 1132.650
571.3163, 1139.808
571.7985, 1140.615
572.2806, 1137.470
572.7627, 1132.854
573.2448, 1126.504
573.7269, 1121.023
574.2090, 1115.639
574.6912, 1111.925
575.1733, 1112.697
575.6554, 1114.083
576.1375, 1109.680
576.6196, 1098.946
577.1017, 1091.315
577.5839, 1098.098
578.0660, 1114.789
578.5481, 1126.018
579.0302, 1131.065
579.5123, 1134.949
579.9944, 1139.710
580.4766, 1144.807
580.9587, 1149.948
581.4408, 1156.652
581.9229, 1157.783
582.4050, 1143.789
582.8871, 1131.661
583.3693, 1137.260
583.8514, 1153.176
584.3335, 1161.002
584.8156, 1152.200
585.2977, 1137.339
585.7798, 1134.189
586.2620, 1144.111
586.7441, 1149.139
587.2262, 1143.641
587.7083, 1141.176
588.1904, 1155.115
588.6725, 1175.668
589.1547, 1185.775
589.6368, 1179.016
590.1189, 1172.942
590.6010, 1175.988
591.0831, 1184.480
591.5652, 1195.679
592.0474, 1208.196
592.5295, 1218.507
593.0116, 1224.341
593.4937, 1225.979
593.9758, 1223.279
594.4579, 1211.349
594.9401, 1206.758
595.4222, 1219.323
595.9043, 1231.903
596.3864, 1232.208
596.8685, 1225.788
597.3506, 1227.867
597.8328, 1247.037
598.3149, 1270.556
598.7970, 1289.240
599.2791, 1303.152
599.7612, 1312.491
600.2433, 1317.326
600.7255, 1317.091
601.2076, 1309.573
601.6897, 1296.669
602.1718, 1293.982
602.6539, 1311.439
603.1360, 1325.865
603.6182, 1333.668
604.1003, 1339.343
604.5824, 1345.152
605.0645, 1351.897
605.5466, 1361.075
606.0287, 1376.095
606.5109, 1390.615
606.9930, 1390.367
607.4751, 1378.309
607.9572, 1380.771
608.4393, 1407.816
608.9214, 1437.056
609.4036, 1445.424
609.8857, 1432.781
610.3678, 1423.268
610.8499, 1418.803
611.3320, 1414.749
611.8141, 1407.997
612.2963, 1402.415
612.7784, 1405.105
613.2605, 1414.541
613.7426, 1418.662
614.2247, 1404.502
614.7068, 1381.772
615.1890, 1378.581
615.6711, 1396.260
616.1532, 1402.131
616.6353, 1382.779
617.1174, 1355.549
617.5995, 1339.822
618.0817, 1335.851
618.5638, 1329.854
619.0459, 1320.194
619.5280, 1309.737
620.0101, 1298.813
620.4922, 1288.089
620.9744, 1278.717
621.4565, 1270.653
621.9386, 1262.061
622.4207, 1250.273
622.9028, 1237.056
623.3849, 1230.338
623.8671, 1231.283
624.3492, 1231.923
624.8313, 1229.595
625.3134, 1226.260
625.7955, 1225.515
626.2776, 1227.156
626.7598, 1223.877
627.2419, 1209.334
627.7240, 1195.432
628.2061, 1190.152
628.6882, 1188.577
629.1703, 1184.344
629.6525, 1175.541
630.1346, 1161.899
630.6167, 1140.951
631.0988, 1115.285
631.5809, 1100.427
632.0630, 1099.247
632.5452, 1097.078
633.0273, 1085.630
633.5094, 1075.154
633.9915, 1080.542
634.4736, 1100.658
634.9557, 1112.084
635.4379, 1104.405
635.9200, 1092.917
636.4021, 1085.151
636.8842, 1079.580
637.3663, 1072.733
637.8484, 1064.127
638.3306, 1057.202
638.8127, 1056.090
639.2948, 1059.533
639.7769, 1059.138
640.2590, 1052.978
640.7411, 1049.934
641.2233, 1054.149
641.7054, 1061.016
642.1875, 1067.203
642.6696, 1072.485
643.1517, 1073.167
643.6339, 1064.283
644.1160, 1055.106
644.5981, 1052.283
645.0802, 1051.840
645.5623, 1046.539
646.0444, 1035.515
646.5266, 1025.378
647.0087, 1023.215
647.4908, 1026.564
647.9729, 1021.597
648.4550, 1003.955
648.9371, 996.2881
649.4193, 1010.655
649.9014, 1030.199
650.3835, 1039.639
650.8656, 1039.927
651.3477, 1037.189
651.8298, 1029.605
652.3120, 1022.436
652.7941, 1019.018
653.2762, 1017.030
653.7583, 1013.255
654.2404, 1007.308
654.7225, 1000.571
655.2047, 993.2773
655.6868, 987.2324
656.1689, 990.3892
656.6510, 1005.020
657.1331, 1015.243
