##NAMES=Hibonite
##RRUFFID=R061069
##IDEAL CHEMISTRY=CaAl_12_O_19_
##LOCALITY=Madagascar
##OWNER=RRUFF
##SOURCE=Michael Scott
##DESCRIPTION=Black platy hexagonal prism
##STATUS=The identification of this mineral has been confirmed by X-ray diffraction and chemical analysis
##URL=rruff.info/R061069
##MEASURED CHEMISTRY=(Ca_0.82_Ce_0.10_La_0.07_Nd_0.01_)_Σ=1_(Al_10.40_Ti_0.64_Fe_0.59_Mg_0.30_Si_0.07_)_Σ=12_O_19_
157.7238, 6340.763
158.2060, 6358.652
158.6881, 6354.769
159.1702, 6343.326
159.6523, 6332.755
160.1344, 6320.185
160.6165, 6313.847
161.0986, 6319.970
161.5808, 6336.812
162.0629, 6351.685
162.5450, 6357.906
163.0271, 6360.382
163.5092, 6363.787
163.9913, 6371.925
164.4735, 6379.460
164.9556, 6350.029
165.4377, 6381.760
165.9198, 6401.107
166.4019, 6408.735
166.8840, 6369.547
167.3662, 6390.813
167.8483, 6387.852
168.3304, 6383.897
168.8125, 6413.672
169.2946, 6381.293
169.7767, 6410.532
170.2589, 6415.176
170.7410, 6431.076
171.2231, 6422.599
171.7052, 6421.651
172.1873, 6445.089
172.6694, 6398.073
173.1516, 6365.330
173.6337, 6341.635
174.1158, 6349.253
174.5979, 6381.846
175.0800, 6414.828
175.5621, 6429.560
176.0443, 6435.871
176.5264, 6450.998
177.0085, 6484.642
177.4906, 6519.771
177.9727, 6534.254
178.4548, 6529.553
178.9370, 6516.484
179.4191, 6496.226
179.9012, 6473.541
180.3833, 6460.129
180.8654, 6461.496
181.3475, 6472.422
181.8297, 6485.329
182.3118, 6500.298
182.7939, 6515.393
183.2760, 6528.899
183.7581, 6540.897
184.2402, 6553.344
184.7224, 6573.305
185.2045, 6593.108
185.6866, 6584.689
186.1687, 6543.884
186.6508, 6502.610
187.1329, 6504.571
187.6151, 6544.522
188.0972, 6579.229
188.5793, 6584.776
189.0614, 6568.136
189.5435, 6561.324
190.0257, 6565.786
190.5078, 6577.175
190.9899, 6591.425
191.4720, 6608.417
191.9541, 6624.161
192.4362, 6637.611
192.9183, 6648.604
193.4005, 6655.641
193.8826, 6658.537
194.3647, 6657.648
194.8468, 6652.424
195.3289, 6642.293
195.8110, 6632.233
196.2932, 6622.092
196.7753, 6611.718
197.2574, 6615.541
197.7395, 6641.476
198.2216, 6675.959
198.7037, 6680.912
199.1859, 6650.927
199.6680, 6614.706
200.1501, 6590.426
200.6322, 6578.752
201.1143, 6571.838
201.5964, 6570.101
202.0786, 6572.137
202.5607, 6572.874
203.0428, 6573.074
203.5249, 6570.487
204.0070, 6562.129
204.4891, 6546.882
204.9713, 6533.623
205.4534, 6523.142
205.9355, 6515.912
206.4176, 6516.701
206.8997, 6528.887
207.3818, 6542.155
207.8640, 6544.596
208.3461, 6532.238
208.8282, 6525.309
209.3103, 6531.208
209.7924, 6549.378
210.2745, 6555.200
210.7567, 6544.055
211.2388, 6527.293
211.7209, 6517.021
212.2030, 6512.813
212.6851, 6516.078
213.1672, 6531.148
213.6494, 6559.817
214.1315, 6571.766
214.6136, 6560.587
215.0957, 6539.526
215.5778, 6526.269
216.0599, 6523.392
216.5421, 6522.243
217.0242, 6518.612
217.5063, 6510.208
217.9884, 6515.079
218.4705, 6542.264
218.9526, 6575.624
219.4348, 6585.721
219.9169, 6561.646
220.3990, 6537.353
220.8811, 6525.334
221.3632, 6529.197
221.8453, 6531.988
222.3274, 6533.791
222.8096, 6534.639
223.2917, 6534.471
223.7738, 6532.928
224.2559, 6531.020
224.7380, 6528.751
225.2201, 6524.926
225.7023, 6524.096
226.1844, 6527.952
226.6665, 6534.033
227.1486, 6535.555
227.6307, 6527.309
228.1128, 6522.183
228.5950, 6527.704
229.0771, 6553.430
229.5592, 6566.257
230.0413, 6559.622
230.5234, 6540.658
231.0055, 6531.225
231.4877, 6537.684
231.9698, 6544.931
232.4519, 6544.889
232.9340, 6532.522
233.4161, 6524.512
233.8982, 6524.166
234.3804, 6528.916
234.8625, 6527.479
235.3446, 6515.085
235.8267, 6503.282
236.3088, 6499.423
236.7909, 6510.095
237.2731, 6514.813
237.7552, 6508.091
238.2373, 6493.748
238.7194, 6491.214
239.2015, 6506.669
239.6836, 6525.876
240.1658, 6540.272
240.6479, 6549.690
241.1300, 6553.398
241.6121, 6546.218
242.0942, 6531.191
242.5763, 6531.181
243.0585, 6555.663
243.5406, 6583.289
244.0227, 6599.591
244.5048, 6599.445
244.9869, 6598.176
245.4690, 6597.974
245.9512, 6598.476
246.4333, 6594.949
246.9154, 6583.982
247.3975, 6573.833
247.8796, 6570.526
248.3617, 6576.338
248.8439, 6585.320
249.3260, 6598.547
249.8081, 6615.401
250.2902, 6627.965
250.7723, 6632.318
251.2544, 6637.109
251.7366, 6650.621
252.2187, 6681.812
252.7008, 6700.947
253.1829, 6697.412
253.6650, 6673.978
254.1471, 6671.049
254.6292, 6699.192
255.1114, 6733.660
255.5935, 6753.860
256.0756, 6754.628
256.5577, 6753.158
257.0398, 6750.899
257.5219, 6748.173
258.0041, 6748.647
258.4862, 6753.612
258.9683, 6760.379
259.4504, 6768.053
259.9325, 6779.967
260.4146, 6783.809
260.8968, 6773.184
261.3789, 6750.409
261.8610, 6744.157
262.3431, 6759.880
262.8252, 6784.056
263.3073, 6806.467
263.7895, 6829.530
264.2716, 6843.587
264.7537, 6842.593
265.2358, 6828.996
265.7179, 6831.155
266.2000, 6857.024
266.6822, 6884.331
267.1643, 6890.128
267.6464, 6864.978
268.1285, 6852.088
268.6106, 6862.875
269.0927, 6893.973
269.5749, 6917.976
270.0570, 6931.230
270.5391, 6944.314
271.0212, 6970.033
271.5033, 7013.325
271.9854, 7044.845
272.4676, 7055.632
272.9497, 7049.256
273.4318, 7051.668
273.9139, 7064.849
274.3960, 7081.313
274.8781, 7094.981
275.3603, 7105.802
275.8424, 7113.759
276.3245, 7118.251
276.8066, 7119.880
277.2887, 7121.893
277.7708, 7124.674
278.2530, 7126.822
278.7351, 7125.947
279.2172, 7121.723
279.6993, 7121.384
280.1814, 7127.319
280.6635, 7138.076
281.1457, 7150.009
281.6278, 7164.530
282.1099, 7174.380
282.5920, 7168.981
283.0741, 7148.412
283.5562, 7136.604
284.0384, 7139.708
284.5205, 7153.912
285.0026, 7165.417
285.4847, 7173.043
285.9668, 7187.202
286.4489, 7223.700
286.9311, 7279.333
287.4132, 7319.688
287.8953, 7333.666
288.3774, 7332.200
288.8595, 7343.956
289.3416, 7369.493
289.8238, 7392.485
290.3059, 7397.496
290.7880, 7388.037
291.2701, 7381.797
291.7522, 7381.666
292.2343, 7387.039
292.7165, 7398.882
293.1986, 7416.854
293.6807, 7434.862
294.1628, 7448.666
294.6449, 7458.984
295.1270, 7468.092
295.6092, 7477.477
296.0913, 7484.172
296.5734, 7476.242
297.0555, 7456.755
297.5376, 7449.638
298.0197, 7486.886
298.5019, 7546.527
298.9839, 7581.186
299.4661, 7578.606
299.9482, 7559.002
300.4303, 7538.738
300.9124, 7520.382
301.3945, 7513.560
301.8766, 7532.491
302.3588, 7564.691
302.8409, 7590.546
303.3230, 7606.151
303.8051, 7618.711
304.2872, 7638.564
304.7693, 7661.853
305.2515, 7678.350
305.7336, 7672.488
306.2157, 7660.834
306.6978, 7663.651
307.1799, 7686.309
307.6620, 7712.696
308.1442, 7729.749
308.6263, 7740.705
309.1084, 7753.147
309.5905, 7778.833
310.0726, 7802.642
310.5547, 7808.685
311.0369, 7791.293
311.5190, 7777.110
312.0011, 7782.894
312.4832, 7802.822
312.9653, 7826.593
313.4474, 7863.291
313.9296, 7892.847
314.4117, 7897.084
314.8938, 7870.693
315.3759, 7849.605
315.8580, 7853.207
316.3401, 7870.657
316.8223, 7888.006
317.3044, 7896.474
317.7865, 7907.381
318.2686, 7928.801
318.7507, 7962.108
319.2328, 7988.777
319.7150, 8000.045
320.1971, 8003.151
320.6792, 8005.328
321.1613, 8013.196
321.6434, 8015.625
322.1255, 8006.447
322.6077, 7985.643
323.0898, 7969.457
323.5719, 7952.595
324.0540, 7945.844
324.5361, 7957.368
325.0182, 8023.334
325.5004, 8069.115
325.9825, 8075.141
326.4646, 8044.043
326.9467, 8020.745
327.4288, 8006.448
327.9109, 8000.724
328.3931, 8003.729
328.8752, 8026.883
329.3573, 8043.328
329.8394, 8050.044
330.3215, 8048.552
330.8036, 8045.911
331.2858, 8039.792
331.7679, 8035.291
332.2500, 8036.043
332.7321, 8049.918
333.2142, 8053.651
333.6964, 8044.700
334.1785, 8025.764
334.6606, 8001.741
335.1427, 7961.993
335.6248, 7936.052
336.1069, 7944.217
336.5891, 8003.715
337.0712, 8031.824
337.5533, 8017.072
338.0354, 7981.625
338.5175, 7968.420
338.9996, 7982.753
339.4818, 7998.938
339.9639, 8007.023
340.4460, 8006.901
340.9281, 8005.003
341.4102, 8001.720
341.8923, 7996.253
342.3745, 7986.004
342.8566, 7970.817
343.3387, 7957.221
343.8208, 7946.667
344.3029, 7939.489
344.7850, 7939.486
345.2672, 7947.397
345.7493, 7957.190
346.2314, 7962.049
346.7135, 7962.559
347.1956, 7962.464
347.6777, 7958.973
348.1599, 7957.500
348.6420, 7977.348
349.1241, 8017.647
349.6062, 8051.523
350.0883, 8042.668
350.5704, 8009.677
351.0526, 8000.036
351.5347, 8037.628
352.0168, 8087.821
352.4989, 8104.922
352.9810, 8093.701
353.4631, 8079.126
353.9453, 8075.291
354.4274, 8078.900
354.9095, 8085.246
355.3916, 8092.333
355.8737, 8104.777
356.3558, 8133.171
356.8380, 8170.769
357.3201, 8200.520
357.8022, 8205.558
358.2843, 8204.101
358.7664, 8211.770
359.2485, 8233.649
359.7307, 8252.099
360.2128, 8253.960
360.6949, 8247.119
361.1770, 8244.188
361.6591, 8262.296
362.1412, 8274.385
362.6233, 8266.560
363.1054, 8235.951
363.5876, 8200.197
364.0697, 8166.036
364.5518, 8127.989
365.0339, 8081.065
365.5160, 8000.960
365.9981, 7935.304
366.4803, 7899.262
366.9624, 7892.693
367.4445, 7888.537
367.9266, 7889.278
368.4087, 7889.206
368.8908, 7884.642
369.3730, 7876.483
369.8551, 7862.854
370.3372, 7841.225
370.8193, 7813.460
371.3014, 7788.256
371.7835, 7762.050
372.2657, 7742.890
372.7478, 7736.548
373.2299, 7750.187
373.7120, 7757.601
374.1941, 7756.248
374.6762, 7749.868
375.1584, 7747.799
375.6405, 7753.486
376.1226, 7753.288
376.6047, 7735.085
377.0868, 7696.976
377.5689, 7688.267
378.0511, 7718.106
378.5332, 7757.174
379.0153, 7765.329
379.4974, 7741.880
379.9795, 7712.635
380.4616, 7680.671
380.9438, 7649.811
381.4259, 7639.685
381.9080, 7651.172
382.3901, 7670.026
382.8722, 7685.901
383.3543, 7698.427
383.8365, 7706.699
384.3186, 7709.950
384.8007, 7709.264
385.2828, 7703.475
385.7649, 7693.689
386.2470, 7687.798
386.7292, 7693.587
387.2113, 7705.914
387.6934, 7719.249
388.1755, 7736.206
388.6576, 7744.861
389.1397, 7725.571
389.6219, 7689.760
390.1040, 7663.153
390.5861, 7671.624
391.0682, 7685.892
391.5503, 7681.408
392.0324, 7652.394
392.5146, 7627.376
392.9967, 7625.301
393.4788, 7633.629
393.9609, 7636.998
394.4430, 7627.953
394.9251, 7615.836
395.4073, 7604.507
395.8894, 7594.052
396.3715, 7579.680
396.8536, 7549.907
397.3357, 7522.343
397.8178, 7509.242
398.3000, 7537.458
398.7821, 7549.807
399.2642, 7537.212
399.7463, 7504.634
400.2284, 7470.425
400.7105, 7419.634
401.1927, 7384.117
401.6748, 7381.997
402.1569, 7437.534
402.6390, 7463.689
403.1211, 7445.729
403.6032, 7409.000
404.0854, 7402.038
404.5675, 7437.249
405.0496, 7466.031
405.5317, 7470.083
406.0138, 7450.056
406.4959, 7430.417
406.9781, 7410.631
407.4602, 7392.621
407.9423, 7377.997
408.4244, 7366.631
408.9065, 7360.022
409.3886, 7358.918
409.8708, 7362.417
410.3529, 7370.665
410.8350, 7383.437
411.3171, 7393.722
411.7992, 7395.848
412.2813, 7391.406
412.7635, 7382.898
413.2456, 7368.831
413.7277, 7356.396
414.2098, 7358.010
414.6919, 7368.802
415.1740, 7374.476
415.6562, 7365.524
416.1383, 7349.198
416.6204, 7329.416
417.1025, 7305.754
417.5846, 7289.581
418.0667, 7288.801
418.5489, 7299.520
419.0310, 7316.820
419.5131, 7353.642
419.9952, 7382.969
420.4773, 7386.428
420.9594, 7367.141
421.4416, 7358.818
421.9237, 7384.208
422.4058, 7414.116
422.8879, 7430.793
423.3700, 7418.821
423.8521, 7410.140
424.3342, 7407.811
424.8163, 7410.218
425.2985, 7413.592
425.7806, 7416.302
426.2627, 7421.843
426.7448, 7432.354
427.2269, 7449.620
427.7090, 7464.909
428.1912, 7481.586
428.6733, 7493.033
429.1554, 7487.799
429.6375, 7460.319
430.1196, 7439.445
430.6017, 7433.235
431.0839, 7439.125
431.5660, 7442.322
432.0481, 7442.259
432.5302, 7443.280
433.0123, 7448.953
433.4944, 7458.964
433.9766, 7470.523
434.4587, 7483.677
434.9408, 7497.285
435.4229, 7512.601
435.9050, 7528.062
436.3871, 7535.629
436.8693, 7518.525
437.3514, 7495.065
437.8335, 7498.186
438.3156, 7531.252
438.7977, 7563.044
439.2798, 7563.970
439.7620, 7548.333
440.2441, 7537.164
440.7262, 7542.309
441.2083, 7550.423
441.6904, 7553.793
442.1725, 7553.223
442.6547, 7553.244
443.1368, 7557.542
443.6189, 7561.753
444.1010, 7562.752
444.5831, 7557.197
445.0652, 7553.833
445.5474, 7556.462
446.0295, 7562.143
446.5116, 7565.377
446.9937, 7565.585
447.4758, 7563.795
447.9579, 7558.642
448.4401, 7549.178
448.9222, 7547.845
449.4043, 7562.083
449.8864, 7576.505
450.3685, 7575.440
450.8506, 7551.183
451.3328, 7537.307
451.8149, 7541.765
452.2970, 7558.096
452.7791, 7564.191
453.2612, 7558.896
453.7433, 7550.750
454.2255, 7542.780
454.7076, 7535.351
455.1897, 7532.514
455.6718, 7534.204
456.1539, 7540.825
456.6360, 7560.606
457.1182, 7587.596
457.6003, 7600.637
458.0824, 7578.958
458.5645, 7546.186
459.0466, 7536.606
459.5287, 7548.128
460.0109, 7560.692
460.4930, 7559.378
460.9751, 7552.507
461.4572, 7549.437
461.9393, 7554.678
462.4214, 7559.226
462.9036, 7556.485
463.3857, 7549.858
463.8678, 7546.298
464.3499, 7547.733
464.8320, 7552.829
465.3141, 7561.747
465.7963, 7574.934
466.2784, 7588.055
466.7605, 7601.695
467.2426, 7614.153
467.7247, 7623.743
468.2068, 7625.798
468.6890, 7632.981
469.1711, 7653.508
469.6532, 7680.038
470.1353, 7679.981
470.6174, 7638.923
471.0995, 7603.474
471.5817, 7599.854
472.0638, 7632.152
472.5459, 7658.229
473.0280, 7677.619
473.5101, 7692.660
473.9922, 7708.003
474.4744, 7723.035
474.9565, 7729.391
475.4386, 7720.570
475.9207, 7703.977
476.4028, 7691.681
476.8849, 7684.088
477.3671, 7685.199
477.8492, 7705.747
478.3313, 7734.198
478.8134, 7754.295
479.2955, 7762.967
479.7776, 7763.799
480.2598, 7747.254
480.7419, 7726.126
481.2240, 7723.009
481.7061, 7767.939
482.1882, 7814.649
482.6703, 7840.638
483.1525, 7845.110
483.6346, 7847.284
484.1167, 7848.667
484.5988, 7851.538
485.0809, 7857.440
485.5630, 7873.416
486.0451, 7883.541
486.5273, 7882.034
487.0094, 7875.905
487.4915, 7881.967
487.9736, 7908.322
488.4557, 7932.014
488.9378, 7943.854
489.4200, 7943.335
489.9021, 7953.605
490.3842, 7979.042
490.8663, 8002.997
491.3484, 8003.243
491.8305, 7980.953
492.3127, 7971.444
492.7948, 7983.776
493.2769, 8007.523
493.7590, 8027.095
494.2411, 8042.532
494.7232, 8053.910
495.2054, 8059.979
495.6875, 8062.779
496.1696, 8065.598
496.6517, 8068.860
497.1338, 8070.303
497.6159, 8062.881
498.0981, 8054.788
498.5802, 8056.129
499.0623, 8084.331
499.5444, 8107.804
500.0265, 8110.904
500.5086, 8098.140
500.9908, 8084.307
501.4729, 8060.530
501.9550, 8046.732
502.4371, 8055.773
502.9192, 8102.652
503.4013, 8126.488
503.8835, 8104.732
504.3656, 8076.000
504.8477, 8084.642
505.3298, 8151.024
505.8119, 8201.621
506.2940, 8220.875
506.7762, 8215.920
507.2583, 8211.272
507.7404, 8206.215
508.2225, 8206.846
508.7046, 8223.931
509.1867, 8252.746
509.6689, 8260.898
510.1510, 8244.718
510.6331, 8221.930
511.1152, 8212.324
511.5973, 8211.778
512.0795, 8209.157
512.5616, 8197.015
513.0437, 8184.840
513.5258, 8183.823
514.0079, 8191.281
514.4901, 8196.708
514.9722, 8188.292
515.4542, 8180.037
515.9363, 8185.373
516.4185, 8212.586
516.9006, 8227.008
517.3827, 8206.006
517.8648, 8172.952
518.3469, 8153.536
518.8290, 8164.938
519.3112, 8173.504
519.7933, 8170.482
520.2754, 8160.438
520.7575, 8168.098
521.2396, 8205.077
521.7217, 8238.024
522.2039, 8248.981
522.6860, 8234.979
523.1681, 8220.729
523.6502, 8204.931
524.1323, 8191.146
524.6144, 8183.436
525.0966, 8181.362
525.5787, 8184.960
526.0608, 8200.574
526.5429, 8214.149
527.0250, 8194.324
527.5071, 8147.961
527.9893, 8110.041
528.4714, 8111.589
528.9535, 8126.946
529.4356, 8128.330
529.9177, 8111.634
530.3998, 8096.885
530.8820, 8102.300
531.3641, 8112.482
531.8462, 8111.272
532.3283, 8076.916
532.8104, 8050.751
533.2925, 8044.547
533.7747, 8054.241
534.2568, 8064.172
534.7389, 8070.277
535.2210, 8080.521
535.7031, 8100.006
536.1852, 8131.258
536.6674, 8149.013
537.1495, 8146.749
537.6316, 8142.031
538.1137, 8156.349
538.5958, 8191.199
539.0779, 8211.680
539.5601, 8207.241
540.0422, 8193.105
540.5243, 8201.059
541.0064, 8227.781
541.4885, 8250.227
541.9706, 8251.983
542.4528, 8244.137
542.9349, 8243.627
543.4170, 8250.723
543.8991, 8254.180
544.3812, 8234.581
544.8633, 8212.956
545.3455, 8212.579
545.8276, 8253.618
546.3097, 8289.949
546.7918, 8301.094
547.2739, 8297.246
547.7560, 8298.244
548.2382, 8319.710
548.7203, 8332.286
549.2024, 8325.225
549.6845, 8298.989
550.1666, 8281.442
550.6487, 8272.162
551.1309, 8272.551
551.6130, 8288.138
552.0951, 8322.538
552.5772, 8341.997
553.0593, 8342.245
553.5414, 8333.815
554.0236, 8331.684
554.5057, 8335.066
554.9878, 8336.925
555.4699, 8331.705
555.9520, 8326.427
556.4341, 8332.882
556.9163, 8349.492
557.3984, 8367.901
557.8805, 8384.284
558.3626, 8399.379
558.8447, 8415.782
559.3268, 8435.917
559.8090, 8445.417
560.2911, 8424.591
560.7732, 8396.148
561.2553, 8383.572
561.7374, 8403.821
562.2195, 8424.454
562.7017, 8444.662
563.1838, 8462.231
563.6659, 8471.313
564.1480, 8469.119
564.6301, 8463.182
565.1122, 8453.546
565.5944, 8440.230
566.0765, 8439.705
566.5586, 8454.257
567.0407, 8472.051
567.5228, 8481.646
568.0049, 8485.121
568.4871, 8494.855
568.9692, 8516.386
569.4513, 8534.854
569.9334, 8522.969
570.4155, 8493.687
570.8976, 8478.861
571.3798, 8512.453
571.8619, 8549.785
572.3440, 8556.811
572.8261, 8537.091
573.3082, 8518.446
573.7903, 8508.166
574.2725, 8504.126
574.7546, 8505.263
575.2367, 8511.786
575.7188, 8523.273
576.2009, 8549.822
576.6830, 8573.906
577.1652, 8573.598
577.6473, 8537.261
578.1294, 8508.882
578.6115, 8494.585
579.0936, 8493.422
579.5757, 8510.408
580.0579, 8546.916
580.5400, 8572.031
581.0221, 8555.137
581.5042, 8516.478
581.9863, 8514.664
582.4684, 8549.996
582.9506, 8589.285
583.4327, 8606.482
583.9148, 8612.018
584.3969, 8620.103
584.8790, 8637.610
585.3611, 8648.395
585.8433, 8634.592
586.3254, 8611.223
586.8075, 8600.824
587.2896, 8620.418
587.7717, 8641.119
588.2538, 8659.755
588.7360, 8675.242
589.2181, 8678.957
589.7002, 8662.960
590.1823, 8647.673
590.6644, 8641.614
591.1465, 8644.675
591.6287, 8655.625
592.1108, 8674.451
592.5929, 8700.186
593.0750, 8741.148
593.5571, 8791.413
594.0392, 8817.513
594.5214, 8808.264
595.0035, 8783.084
595.4856, 8756.308
595.9677, 8731.653
596.4498, 8718.376
596.9319, 8735.870
597.4141, 8754.124
597.8962, 8749.432
598.3783, 8724.677
598.8604, 8708.613
599.3425, 8721.600
599.8246, 8737.124
600.3068, 8740.290
600.7889, 8724.651
601.2710, 8713.576
601.7531, 8706.157
602.2352, 8704.356
602.7173, 8711.984
603.1995, 8731.828
603.6816, 8745.993
604.1637, 8748.148
604.6458, 8747.800
605.1279, 8772.043
605.6100, 8818.061
606.0922, 8851.947
606.5743, 8849.891
607.0564, 8829.747
607.5385, 8813.742
608.0206, 8802.517
608.5027, 8801.550
608.9849, 8819.028
609.4670, 8845.418
609.9491, 8874.908
610.4312, 8911.288
610.9133, 8935.466
611.3954, 8934.882
611.8776, 8922.878
612.3597, 8913.757
612.8418, 8910.167
613.3239, 8906.165
613.8060, 8900.143
614.2881, 8894.241
614.7703, 8894.846
615.2524, 8903.468
615.7345, 8912.174
616.2166, 8916.966
616.6987, 8919.759
617.1808, 8928.275
617.6630, 8942.562
618.1451, 8957.927
618.6272, 8977.021
619.1093, 8992.728
619.5914, 8988.239
620.0735, 8956.864
620.5557, 8936.442
621.0378, 8962.050
621.5199, 9007.031
622.0020, 9042.083
622.4841, 9057.600
622.9662, 9064.279
623.4484, 9053.064
623.9305, 9034.757
624.4126, 9035.557
624.8947, 9068.767
625.3768, 9097.188
625.8589, 9109.273
626.3411, 9107.572
626.8232, 9114.335
627.3053, 9132.457
627.7874, 9141.384
628.2695, 9116.901
628.7516, 9071.694
629.2338, 9053.304
629.7159, 9067.051
630.1980, 9083.230
630.6801, 9070.038
631.1622, 9045.533
631.6443, 9037.153
632.1265, 9068.310
632.6086, 9087.291
633.0907, 9060.750
633.5728, 9007.744
634.0549, 8960.835
634.5370, 8931.526
635.0192, 8901.770
635.5013, 8861.771
635.9834, 8816.380
636.4655, 8799.012
636.9476, 8821.849
637.4297, 8841.658
637.9119, 8833.658
638.3939, 8800.078
638.8760, 8778.328
639.3582, 8768.697
639.8403, 8762.775
640.3224, 8754.776
640.8045, 8744.328
641.2866, 8728.300
641.7687, 8703.004
642.2509, 8684.440
642.7330, 8694.411
643.2151, 8715.962
643.6972, 8725.787
644.1793, 8702.130
644.6614, 8682.220
645.1436, 8677.715
645.6257, 8684.501
646.1078, 8688.788
646.5899, 8693.035
647.0720, 8690.783
647.5541, 8678.731
648.0363, 8657.762
648.5184, 8636.738
649.0005, 8614.864
649.4826, 8598.595
649.9647, 8598.193
650.4468, 8607.376
650.9290, 8603.410
651.4111, 8584.110
651.8932, 8563.382
652.3753, 8555.516
652.8574, 8553.498
653.3395, 8548.134
653.8217, 8534.925
