##NAMES=Hilairite
##RRUFFID=R080098
##IDEAL CHEMISTRY=Na_2_Zr^4+^Si_3_O_9_&#183;3H_2_O
##LOCALITY=St. Hilaire, Quebec, Canada
##OWNER=RRUFF
##SOURCE=William W. Pinch
##DESCRIPTION=Pale orange rhombohedral crystals associated with calcite
##STATUS=The identification of this mineral has been confirmed only by single crystal X-ray diffraction.
##URL=rruff.info/R080098
92.35352, 288.7809
92.83563, 272.6625
93.31775, 265.8023
93.79987, 271.1314
94.28198, 286.1107
94.76410, 303.4679
95.24622, 321.2881
95.72833, 341.1603
96.21045, 365.8377
96.69257, 395.4524
97.17468, 429.3111
97.65680, 466.2149
98.13892, 506.3218
98.62103, 550.9865
99.10315, 598.9828
99.58527, 651.1320
100.0674, 711.2090
100.5495, 779.2464
101.0316, 854.0324
101.5137, 932.1847
101.9958, 1012.943
102.4780, 1101.481
102.9601, 1198.444
103.4422, 1303.532
103.9243, 1418.404
104.4064, 1543.756
104.8885, 1679.011
105.3707, 1826.707
105.8528, 1987.799
106.3349, 2158.284
106.8170, 2336.367
107.2991, 2527.251
107.7813, 2715.986
108.2634, 2902.685
108.7455, 3088.170
109.2276, 3268.348
109.7097, 3443.333
110.1918, 3614.548
110.6740, 3782.846
111.1561, 3950.314
111.6382, 4112.545
112.1203, 4262.878
112.6024, 4405.542
113.0845, 4557.727
113.5667, 4720.494
114.0488, 4893.922
114.5309, 5080.039
115.0130, 5275.005
115.4951, 5485.077
115.9772, 5713.387
116.4594, 5961.764
116.9415, 6223.730
117.4236, 6507.285
117.9057, 6800.138
118.3878, 7087.888
118.8699, 7368.864
119.3521, 7643.972
119.8342, 7919.062
120.3163, 8195.208
120.7984, 8462.397
121.2805, 8718.128
121.7626, 8960.544
122.2448, 9186.478
122.7269, 9391.293
123.2090, 9580.424
123.6911, 9758.317
124.1732, 9924.920
124.6553, 10082.46
125.1375, 10232.86
125.6196, 10375.86
126.1017, 10510.71
126.5838, 10632.20
127.0659, 10745.99
127.5480, 10862.20
128.0302, 10982.38
128.5123, 11106.90
128.9944, 11234.08
129.4765, 11364.58
129.9586, 11504.38
130.4407, 11657.43
130.9229, 11823.31
131.4050, 12003.14
131.8871, 12197.17
132.3692, 12400.43
132.8513, 12596.31
133.3334, 12763.89
133.8156, 12876.12
134.2977, 12960.16
134.7798, 13060.17
135.2619, 13153.46
135.7440, 13235.46
136.2261, 13306.94
136.7083, 13378.06
137.1904, 13451.04
137.6725, 13519.39
138.1546, 13576.17
138.6367, 13620.21
139.1188, 13662.83
139.6010, 13709.33
140.0831, 13759.69
140.5652, 13799.06
141.0473, 13826.96
141.5294, 13845.54
142.0115, 13855.75
142.4937, 13853.68
142.9758, 13851.84
143.4579, 13852.91
143.9400, 13856.11
144.4221, 13864.17
144.9042, 13879.28
145.3864, 13897.19
145.8685, 13910.09
146.3506, 13912.48
146.8327, 13916.83
147.3148, 13927.51
147.7969, 13947.43
148.2791, 13966.97
148.7612, 13988.65
149.2433, 14009.88
149.7254, 14024.67
150.2075, 14026.07
150.6896, 14027.47
151.1718, 14033.84
151.6539, 14048.65
152.1360, 14063.69
152.6181, 14080.38
153.1002, 14097.55
153.5823, 14111.45
154.0645, 14115.05
154.5466, 14120.27
155.0287, 14132.80
155.5108, 14167.81
155.9929, 14192.44
156.4750, 14195.14
156.9572, 14181.17
157.4393, 14172.26
157.9214, 14176.55
158.4035, 14184.89
158.8856, 14191.59
159.3677, 14196.27
159.8499, 14198.41
160.3320, 14196.66
160.8141, 14191.74
161.2962, 14187.51
161.7783, 14184.36
162.2604, 14183.16
162.7426, 14184.61
163.2247, 14189.46
163.7068, 14196.61
164.1889, 14208.03
164.6710, 14223.05
165.1531, 14234.03
165.6353, 14232.80
166.1174, 14226.93
166.5995, 14224.53
167.0816, 14230.61
167.5637, 14239.28
168.0458, 14247.59
168.5280, 14255.28
169.0101, 14261.32
169.4922, 14266.18
169.9743, 14268.63
170.4564, 14266.95
170.9385, 14254.97
171.4207, 14241.82
171.9028, 14236.09
172.3849, 14238.39
172.8670, 14243.08
173.3491, 14247.93
173.8312, 14252.08
174.3134, 14253.93
174.7955, 14251.66
175.2776, 14247.22
175.7597, 14242.13
176.2418, 14236.19
176.7239, 14232.04
177.2061, 14234.29
177.6882, 14240.61
178.1703, 14244.54
178.6524, 14241.99
179.1345, 14235.37
179.6166, 14228.07
180.0988, 14219.89
180.5809, 14212.58
181.0630, 14209.31
181.5451, 14208.97
182.0272, 14207.29
182.5093, 14199.20
182.9915, 14188.15
183.4736, 14184.01
183.9557, 14188.83
184.4378, 14195.06
184.9199, 14190.73
185.4020, 14177.33
185.8842, 14165.43
186.3663, 14163.61
186.8484, 14168.55
187.3305, 14167.22
187.8126, 14156.97
188.2947, 14144.73
188.7769, 14143.27
189.2590, 14152.08
189.7411, 14159.60
190.2232, 14157.66
190.7053, 14147.96
191.1874, 14141.66
191.6696, 14140.60
192.1517, 14141.51
192.6338, 14138.30
193.1159, 14130.88
193.5980, 14122.12
194.0801, 14112.68
194.5623, 14102.77
195.0444, 14095.18
195.5265, 14090.24
196.0086, 14087.50
196.4907, 14086.58
196.9728, 14087.61
197.4550, 14088.71
197.9371, 14088.67
198.4192, 14087.47
198.9013, 14086.28
199.3834, 14085.41
199.8655, 14084.35
200.3477, 14081.17
200.8298, 14075.19
201.3119, 14070.34
201.7940, 14070.14
202.2761, 14075.33
202.7582, 14077.61
203.2404, 14076.19
203.7225, 14071.69
204.2046, 14064.31
204.6867, 14052.57
205.1688, 14043.43
205.6509, 14042.92
206.1331, 14052.93
206.6152, 14059.49
207.0973, 14060.91
207.5794, 14058.46
208.0615, 14055.92
208.5436, 14053.46
209.0258, 14050.42
209.5079, 14044.50
209.9900, 14033.08
210.4721, 14031.82
210.9542, 14046.06
211.4363, 14069.73
211.9185, 14081.46
212.4006, 14076.82
212.8827, 14069.46
213.3648, 14067.29
213.8469, 14070.75
214.3290, 14077.57
214.8112, 14089.05
215.2933, 14103.27
215.7754, 14114.01
216.2575, 14120.96
216.7396, 14124.83
217.2217, 14125.23
217.7038, 14120.48
218.1860, 14117.73
218.6681, 14119.24
219.1502, 14122.87
219.6323, 14120.26
220.1144, 14109.67
220.5965, 14096.15
221.0787, 14081.75
221.5608, 14064.33
222.0429, 14052.76
222.5250, 14049.89
223.0071, 14053.27
223.4892, 14053.63
223.9714, 14049.57
224.4535, 14045.07
224.9356, 14042.67
225.4177, 14044.53
225.8998, 14043.30
226.3819, 14037.05
226.8641, 14027.61
227.3462, 14021.48
227.8283, 14019.08
228.3104, 14019.06
228.7925, 14021.32
229.2746, 14028.49
229.7568, 14031.23
230.2389, 14026.36
230.7210, 14017.14
231.2031, 14015.00
231.6852, 14024.77
232.1673, 14034.22
232.6495, 14036.96
233.1316, 14029.35
233.6137, 14023.11
234.0958, 14018.90
234.5779, 14016.25
235.0600, 14013.92
235.5422, 14011.98
236.0243, 14010.38
236.5064, 14009.67
236.9885, 14012.60
237.4706, 14009.80
237.9527, 13997.16
238.4349, 13979.94
238.9170, 13971.54
239.3991, 13974.88
239.8812, 13982.62
240.3633, 13993.12
240.8454, 14011.21
241.3276, 14019.11
241.8097, 14010.04
242.2918, 13993.21
242.7739, 13990.24
243.2560, 14011.61
243.7381, 14030.69
244.2203, 14036.99
244.7024, 14026.34
245.1845, 14014.19
245.6666, 13997.01
246.1487, 13980.09
246.6308, 13974.31
247.1130, 13987.05
247.5951, 13998.80
248.0772, 14001.26
248.5593, 13989.76
249.0414, 13986.61
249.5235, 13996.58
250.0057, 14011.73
250.4878, 14018.51
250.9699, 14012.00
251.4520, 14005.70
251.9341, 14004.26
252.4162, 14009.02
252.8984, 14011.67
253.3805, 14011.24
253.8626, 14009.39
254.3447, 14008.57
254.8268, 14009.21
255.3089, 14010.08
255.7911, 14011.23
256.2732, 14012.96
256.7553, 14012.72
257.2374, 14010.50
257.7195, 14006.34
258.2017, 13999.94
258.6838, 13989.90
259.1659, 13980.85
259.6480, 13974.33
260.1301, 13970.56
260.6122, 13965.07
261.0944, 13956.70
261.5765, 13948.09
262.0586, 13941.55
262.5407, 13936.35
263.0228, 13935.88
263.5049, 13943.16
263.9871, 13957.76
264.4692, 13964.91
264.9513, 13962.36
265.4334, 13956.20
265.9155, 13951.42
266.3976, 13947.90
266.8798, 13946.22
267.3619, 13945.84
267.8440, 13947.16
268.3261, 13954.78
268.8082, 13971.56
269.2903, 13988.54
269.7725, 14000.14
270.2546, 14007.60
270.7367, 14001.56
271.2188, 13973.75
271.7009, 13932.58
272.1830, 13915.17
272.6652, 13927.01
273.1473, 13947.80
273.6294, 13965.70
274.1115, 13980.88
274.5936, 13991.00
275.0757, 13994.79
275.5579, 13994.10
276.0400, 13994.33
276.5221, 13995.84
277.0042, 13996.32
277.4863, 13993.78
277.9684, 13987.86
278.4506, 13983.18
278.9327, 13980.52
279.4148, 13978.72
279.8969, 13974.92
280.3790, 13968.89
280.8611, 13963.36
281.3433, 13961.22
281.8254, 13962.48
282.3075, 13958.75
282.7896, 13949.15
283.2717, 13936.28
283.7538, 13923.77
284.2360, 13911.68
284.7181, 13900.04
285.2002, 13887.48
285.6823, 13874.63
286.1644, 13868.56
286.6465, 13870.63
287.1287, 13874.45
287.6108, 13869.18
288.0929, 13855.49
288.5750, 13847.85
289.0571, 13856.07
289.5392, 13874.68
290.0214, 13881.41
290.5035, 13875.50
290.9856, 13864.22
291.4677, 13855.32
291.9498, 13847.97
292.4319, 13836.86
292.9141, 13817.46
293.3962, 13794.89
293.8783, 13781.87
294.3604, 13778.68
294.8425, 13778.61
295.3246, 13777.73
295.8068, 13775.72
296.2889, 13770.90
296.7710, 13761.42
297.2531, 13750.83
297.7352, 13744.33
298.2173, 13741.89
298.6995, 13743.18
299.1816, 13750.62
299.6637, 13761.33
300.1458, 13769.45
300.6279, 13774.14
301.1100, 13775.04
301.5922, 13768.81
302.0743, 13757.12
302.5564, 13747.31
303.0385, 13744.48
303.5206, 13745.56
304.0027, 13746.29
304.4849, 13745.97
304.9670, 13745.27
305.4491, 13747.22
305.9312, 13749.52
306.4133, 13746.71
306.8954, 13731.02
307.3776, 13711.89
307.8597, 13699.72
308.3418, 13695.76
308.8239, 13693.44
309.3060, 13689.54
309.7881, 13684.08
310.2703, 13677.08
310.7524, 13668.71
311.2345, 13658.88
311.7166, 13644.72
312.1987, 13626.65
312.6808, 13614.88
313.1630, 13620.17
313.6451, 13632.66
314.1272, 13641.76
314.6093, 13642.33
315.0914, 13639.84
315.5735, 13634.15
316.0557, 13626.30
316.5378, 13622.44
317.0199, 13629.28
317.5020, 13638.69
317.9841, 13645.04
318.4662, 13647.73
318.9484, 13646.13
319.4305, 13639.21
319.9126, 13627.83
320.3947, 13614.25
320.8768, 13597.34
321.3589, 13579.82
321.8411, 13561.59
322.3232, 13538.79
322.8053, 13525.31
323.2874, 13532.11
323.7695, 13548.32
324.2516, 13556.69
324.7338, 13547.32
325.2159, 13536.33
325.6980, 13528.54
326.1801, 13524.80
326.6622, 13521.18
327.1443, 13518.60
327.6265, 13515.54
328.1086, 13510.45
328.5907, 13500.71
329.0728, 13492.08
329.5549, 13485.63
330.0370, 13481.42
330.5192, 13477.89
331.0013, 13477.65
331.4834, 13475.98
331.9655, 13469.48
332.4476, 13456.16
332.9297, 13441.11
333.4119, 13422.90
333.8940, 13403.02
334.3761, 13388.83
334.8582, 13382.68
335.3403, 13378.61
335.8224, 13373.84
336.3046, 13368.23
336.7867, 13361.61
337.2688, 13353.47
337.7509, 13344.50
338.2330, 13336.25
338.7151, 13329.39
339.1973, 13321.48
339.6794, 13311.88
340.1615, 13300.82
340.6436, 13287.30
341.1257, 13271.92
341.6078, 13253.74
342.0899, 13227.81
342.5721, 13193.49
343.0542, 13169.33
343.5363, 13164.59
344.0184, 13174.56
344.5005, 13178.60
344.9826, 13176.40
345.4648, 13171.06
345.9469, 13164.39
346.4290, 13156.46
346.9111, 13148.45
347.3932, 13138.91
347.8753, 13130.97
348.3575, 13131.86
348.8396, 13140.84
349.3217, 13152.16
349.8038, 13164.95
350.2859, 13176.69
350.7680, 13180.75
351.2502, 13175.37
351.7323, 13165.50
352.2144, 13156.89
352.6965, 13148.53
353.1786, 13137.74
353.6607, 13120.07
354.1429, 13100.92
354.6250, 13087.24
355.1071, 13079.61
355.5892, 13074.81
356.0713, 13073.16
356.5534, 13072.43
357.0356, 13069.24
357.5177, 13062.95
357.9998, 13053.44
358.4819, 13036.88
358.9640, 13015.22
359.4461, 12999.82
359.9283, 13000.92
360.4104, 13008.37
360.8925, 13013.82
361.3746, 13015.02
361.8567, 13014.26
362.3388, 13010.14
362.8210, 13004.50
363.3031, 13001.61
363.7852, 13005.88
364.2673, 13010.53
364.7494, 13013.52
365.2315, 13015.98
365.7137, 13011.56
366.1958, 12990.42
366.6779, 12964.80
367.1600, 12948.87
367.6421, 12954.42
368.1242, 12959.29
368.6064, 12957.56
369.0885, 12948.73
369.5706, 12944.73
370.0527, 12953.65
370.5348, 12961.33
371.0169, 12957.86
371.4991, 12932.83
371.9812, 12914.92
372.4633, 12908.98
372.9454, 12911.47
373.4275, 12909.90
373.9096, 12903.00
374.3918, 12894.33
374.8739, 12884.89
375.3560, 12873.52
375.8381, 12866.71
376.3202, 12866.23
376.8023, 12867.96
377.2845, 12864.25
377.7666, 12853.30
378.2487, 12846.66
378.7308, 12850.19
379.2129, 12861.74
379.6950, 12866.68
380.1772, 12864.48
380.6593, 12858.34
381.1414, 12848.77
381.6235, 12836.61
382.1056, 12830.01
382.5877, 12833.08
383.0699, 12839.36
383.5520, 12834.63
384.0341, 12820.01
384.5162, 12807.15
384.9983, 12804.23
385.4804, 12808.23
385.9626, 12813.81
386.4447, 12821.14
386.9268, 12826.08
387.4089, 12822.66
387.8910, 12813.48
388.3731, 12804.46
388.8553, 12797.49
389.3374, 12792.25
389.8195, 12790.70
390.3016, 12792.38
390.7837, 12790.01
391.2658, 12774.09
391.7480, 12753.99
392.2301, 12739.74
392.7122, 12738.02
393.1943, 12737.52
393.6764, 12733.47
394.1585, 12726.74
394.6407, 12719.74
395.1228, 12713.72
395.6049, 12707.53
396.0870, 12700.40
396.5691, 12691.85
397.0512, 12684.01
397.5334, 12674.17
398.0155, 12666.23
398.4976, 12665.16
398.9797, 12682.93
399.4618, 12694.96
399.9439, 12693.27
400.4261, 12677.81
400.9082, 12669.28
401.3903, 12672.99
401.8724, 12678.21
402.3545, 12677.82
402.8366, 12668.55
403.3188, 12660.51
403.8009, 12654.10
404.2830, 12649.31
404.7651, 12646.52
405.2472, 12646.56
405.7293, 12646.49
406.2115, 12645.77
406.6936, 12644.53
407.1757, 12639.05
407.6578, 12627.94
408.1399, 12616.55
408.6220, 12611.89
409.1042, 12613.85
409.5863, 12615.01
410.0684, 12613.65
410.5505, 12610.06
411.0326, 12603.94
411.5147, 12595.35
411.9969, 12587.13
412.4790, 12582.02
412.9611, 12578.69
413.4432, 12573.10
413.9253, 12563.61
414.4074, 12556.14
414.8896, 12561.66
415.3717, 12574.36
415.8538, 12580.49
416.3359, 12563.03
416.8180, 12542.68
417.3001, 12541.72
417.7823, 12559.80
418.2644, 12575.06
418.7465, 12570.89
419.2286, 12559.66
419.7107, 12553.69
420.1928, 12562.08
420.6750, 12567.82
421.1571, 12562.63
421.6392, 12549.60
422.1213, 12536.92
422.6034, 12524.92
423.0855, 12515.31
423.5677, 12509.66
424.0498, 12510.06
424.5319, 12507.91
425.0140, 12503.00
425.4961, 12495.35
425.9782, 12484.67
426.4604, 12466.34
426.9425, 12452.27
427.4246, 12445.14
427.9067, 12444.14
428.3888, 12443.08
428.8709, 12440.41
429.3531, 12440.45
429.8352, 12447.67
430.3173, 12464.92
430.7994, 12472.64
431.2815, 12467.56
431.7636, 12456.84
432.2458, 12453.13
432.7279, 12456.86
433.2100, 12457.50
433.6921, 12449.04
434.1742, 12434.72
434.6563, 12427.52
435.1385, 12427.46
435.6206, 12429.00
436.1027, 12427.85
436.5848, 12424.62
437.0669, 12421.46
437.5490, 12419.80
438.0312, 12416.08
438.5133, 12402.37
438.9954, 12382.90
439.4775, 12369.16
439.9596, 12375.83
440.4417, 12385.64
440.9239, 12379.84
441.4060, 12357.44
441.8881, 12339.19
442.3702, 12339.92
442.8523, 12349.41
443.3344, 12357.90
443.8166, 12365.44
444.2987, 12368.35
444.7808, 12361.71
445.2629, 12348.89
445.7450, 12339.92
446.2271, 12341.22
446.7093, 12342.82
447.1914, 12340.56
447.6735, 12332.51
448.1556, 12325.86
448.6377, 12319.42
449.1198, 12315.16
449.6020, 12315.92
450.0841, 12326.09
450.5662, 12332.15
451.0483, 12331.50
451.5304, 12325.27
452.0125, 12317.71
452.4947, 12307.76
452.9768, 12299.56
453.4589, 12296.80
453.9410, 12299.62
454.4231, 12297.15
454.9052, 12287.92
455.3874, 12276.88
455.8695, 12270.70
456.3516, 12268.62
456.8337, 12265.53
457.3158, 12259.02
457.7979, 12251.08
458.2801, 12245.90
458.7622, 12243.07
459.2443, 12239.29
459.7264, 12231.50
460.2085, 12222.01
460.6906, 12213.94
461.1728, 12208.11
461.6549, 12203.00
462.1370, 12200.01
462.6191, 12196.75
463.1012, 12189.67
463.5833, 12169.20
464.0655, 12152.28
464.5476, 12149.09
465.0297, 12158.00
465.5118, 12164.78
465.9939, 12164.93
466.4760, 12162.07
466.9582, 12158.22
467.4403, 12155.14
467.9224, 12147.65
468.4045, 12131.45
468.8866, 12112.60
469.3687, 12099.48
469.8509, 12093.49
470.3330, 12091.50
470.8151, 12094.45
471.2972, 12101.67
471.7793, 12105.45
472.2614, 12105.53
472.7436, 12103.30
473.2257, 12099.47
473.7078, 12094.05
474.1899, 12086.97
474.6720, 12077.19
475.1541, 12068.43
475.6363, 12068.84
476.1184, 12076.61
476.6005, 12080.33
477.0826, 12073.54
477.5647, 12061.00
478.0468, 12048.33
478.5290, 12035.97
479.0111, 12028.09
479.4932, 12030.62
479.9753, 12037.99
480.4574, 12044.00
480.9395, 12047.69
481.4217, 12049.52
481.9038, 12048.86
482.3859, 12046.69
482.8680, 12044.47
483.3501, 12041.87
483.8322, 12039.91
484.3144, 12040.29
484.7965, 12042.50
485.2786, 12040.96
485.7607, 12030.37
486.2428, 12019.10
486.7249, 12011.43
487.2071, 12010.09
487.6892, 12006.38
488.1713, 11997.77
488.6534, 11988.72
489.1355, 11986.62
489.6176, 11994.91
490.0998, 12000.93
490.5819, 12002.35
491.0640, 11999.44
491.5461, 11990.72
492.0282, 11975.03
492.5103, 11963.21
492.9925, 11966.78
493.4746, 11982.09
493.9567, 11988.43
494.4388, 11983.00
494.9209, 11975.58
495.4030, 11976.72
495.8852, 11984.36
496.3673, 11993.88
496.8494, 12005.59
497.3315, 12015.84
497.8136, 12020.08
498.2957, 12019.32
498.7779, 12018.05
499.2600, 12016.92
499.7421, 12017.25
500.2242, 12019.86
500.7063, 12024.89
501.1884, 12032.58
501.6706, 12046.99
502.1527, 12062.58
502.6348, 12073.57
503.1169, 12074.79
503.5990, 12077.02
504.0811, 12081.77
504.5633, 12088.52
505.0454, 12095.03
505.5275, 12099.46
506.0096, 12106.78
506.4917, 12120.53
506.9738, 12141.80
507.4560, 12155.05
507.9381, 12157.44
508.4202, 12159.26
508.9023, 12172.95
509.3844, 12197.69
509.8665, 12218.32
510.3487, 12230.00
510.8308, 12240.20
511.3129, 12264.06
511.7950, 12298.78
512.2772, 12331.02
512.7593, 12355.15
513.2414, 12372.21
513.7235, 12381.71
514.2056, 12384.02
514.6877, 12385.87
515.1699, 12386.77
515.6520, 12391.55
516.1341, 12405.83
516.6162, 12437.26
517.0983, 12465.40
517.5804, 12484.11
518.0626, 12495.15
518.5447, 12501.53
519.0268, 12505.15
519.5089, 12502.15
519.9910, 12488.84
520.4731, 12466.08
520.9553, 12449.79
521.4374, 12448.22
521.9195, 12441.30
522.4016, 12414.54
522.8837, 12362.31
523.3658, 12323.34
523.8480, 12301.56
524.3301, 12285.71
524.8122, 12260.88
525.2943, 12227.84
525.7764, 12194.37
526.2585, 12161.26
526.7407, 12130.68
527.2228, 12107.72
527.7049, 12091.12
528.1870, 12073.98
528.6691, 12051.24
529.1512, 12025.79
529.6334, 12000.15
530.1155, 11974.13
530.5976, 11949.94
531.0797, 11928.82
531.5618, 11909.60
532.0439, 11891.31
532.5261, 11872.21
533.0082, 11855.54
533.4903, 11842.68
533.9724, 11832.46
534.4545, 11822.18
534.9366, 11813.00
535.4188, 11802.22
535.9009, 11787.94
536.3830, 11770.43
536.8651, 11759.38
537.3472, 11758.75
537.8293, 11757.33
538.3115, 11745.94
538.7936, 11723.62
539.2757, 11709.01
539.7578, 11705.01
540.2399, 11703.66
540.7220, 11691.66
541.2042, 11671.52
541.6863, 11657.24
542.1684, 11655.78
542.6505, 11658.82
543.1326, 11654.13
543.6147, 11643.30
544.0969, 11632.41
544.5790, 11623.95
545.0611, 11617.65
545.5432, 11614.71
546.0253, 11615.45
546.5074, 11613.49
546.9896, 11604.92
547.4717, 11593.25
547.9538, 11581.23
548.4359, 11566.53
548.9180, 11555.53
549.4001, 11549.70
549.8823, 11547.58
550.3644, 11547.27
550.8465, 11551.72
551.3286, 11552.51
551.8107, 11546.56
552.2928, 11534.95
552.7750, 11525.17
553.2571, 11517.01
553.7392, 11511.47
554.2213, 11510.42
554.7034, 11512.95
555.1855, 11514.47
555.6677, 11514.99
556.1498, 11512.25
556.6319, 11501.07
557.1140, 11485.11
557.5961, 11472.09
558.0782, 11465.08
558.5604, 11460.07
559.0425, 11452.73
559.5246, 11444.95
560.0067, 11441.00
560.4888, 11447.51
560.9709, 11453.88
561.4531, 11455.34
561.9352, 11451.73
562.4173, 11446.50
562.8994, 11438.28
563.3815, 11430.14
563.8636, 11423.97
564.3458, 11421.90
564.8279, 11415.85
565.3100, 11403.55
565.7921, 11390.22
566.2742, 11383.80
566.7563, 11385.22
567.2385, 11384.31
567.7206, 11378.58
568.2027, 11369.77
568.6848, 11360.74
569.1669, 11351.67
569.6490, 11344.94
570.1312, 11342.12
570.6133, 11342.15
571.0954, 11345.41
571.5775, 11351.45
572.0596, 11354.19
572.5417, 11346.07
573.0239, 11335.00
573.5060, 11328.08
573.9881, 11327.68
574.4702, 11328.31
574.9523, 11330.72
575.4344, 11332.46
575.9166, 11330.32
576.3987, 11317.13
576.8808, 11309.56
577.3629, 11311.79
577.8450, 11320.63
578.3271, 11325.88
578.8093, 11327.32
579.2914, 11325.25
579.7735, 11317.38
580.2556, 11305.16
580.7377, 11301.16
581.2198, 11305.90
581.7020, 11311.83
582.1841, 11312.67
582.6662, 11309.80
583.1483, 11306.90
583.6304, 11304.67
584.1125, 11301.12
584.5947, 11296.17
585.0768, 11288.55
585.5589, 11276.19
586.0410, 11250.41
586.5231, 11229.27
587.0052, 11222.23
587.4873, 11226.13
587.9694, 11232.25
588.4515, 11250.71
588.9337, 11259.16
589.4158, 11246.35
589.8979, 11212.13
