##NAMES=Hilairite
##RRUFFID=R080098
##IDEAL CHEMISTRY=Na_2_Zr^4+^Si_3_O_9_&#183;3H_2_O
##LOCALITY=St. Hilaire, Quebec, Canada
##OWNER=RRUFF
##SOURCE=William W. Pinch
##DESCRIPTION=Pale orange rhombohedral crystals associated with calcite
##STATUS=The identification of this mineral has been confirmed only by single crystal X-ray diffraction.
##URL=rruff.info/R080098
92.52344, 251.4703
93.00555, 249.7929
93.48767, 250.0879
93.96979, 257.3330
94.45190, 265.3776
94.93402, 273.8801
95.41614, 278.3731
95.89825, 279.4051
96.38037, 278.9492
96.86249, 277.2811
97.34460, 275.3116
97.82672, 273.2684
98.30884, 271.2811
98.79095, 269.3568
99.27307, 267.1724
99.75519, 264.6966
100.2373, 262.8426
100.7194, 261.6290
101.2015, 260.1114
101.6837, 257.7596
102.1658, 255.4056
102.6479, 253.6057
103.1300, 252.3447
103.6121, 251.5086
104.0942, 251.2499
104.5764, 251.3057
105.0585, 251.3355
105.5406, 251.3572
106.0227, 251.2617
106.5048, 250.6484
106.9869, 249.0324
107.4691, 247.4078
107.9512, 246.2199
108.4333, 245.3922
108.9154, 244.7265
109.3975, 244.0375
109.8796, 243.2810
110.3618, 242.7329
110.8439, 242.5941
111.3260, 242.4772
111.8081, 242.1931
112.2902, 241.7310
112.7723, 241.2146
113.2544, 240.8114
113.7366, 240.5255
114.2187, 240.3822
114.7008, 240.5590
115.1829, 240.7752
115.6650, 240.7944
116.1471, 240.5326
116.6293, 240.0342
117.1114, 239.3388
117.5935, 238.2017
118.0756, 237.3322
118.5577, 237.0466
119.0398, 237.1630
119.5220, 237.2346
120.0041, 237.0220
120.4862, 236.6768
120.9683, 236.5427
121.4504, 236.6973
121.9325, 236.9198
122.4147, 237.0798
122.8968, 237.1812
123.3789, 237.1539
123.8610, 236.9739
124.3431, 236.6296
124.8252, 236.0325
125.3074, 235.0538
125.7895, 233.9295
126.2716, 233.1652
126.7537, 232.9243
127.2358, 232.7923
127.7179, 232.6429
128.2001, 232.4957
128.6822, 232.3750
129.1643, 232.2965
129.6464, 232.2590
130.1285, 232.2506
130.6107, 232.3972
131.0928, 232.4534
131.5749, 232.2633
132.0570, 231.9220
132.5391, 231.6667
133.0212, 231.7477
133.5034, 232.2795
133.9855, 232.3071
134.4676, 231.4694
134.9497, 230.5331
135.4318, 229.9130
135.9139, 229.6527
136.3960, 229.5431
136.8782, 229.3323
137.3603, 228.9675
137.8424, 228.8687
138.3245, 229.4366
138.8066, 230.1382
139.2887, 230.3171
139.7709, 229.7869
140.2530, 228.8978
140.7351, 227.9009
141.2172, 226.8022
141.6993, 226.0266
142.1814, 225.9135
142.6636, 226.3133
143.1457, 226.6996
143.6278, 227.0457
144.1099, 227.2330
144.5920, 227.1509
145.0741, 226.8044
145.5563, 226.3980
146.0384, 226.1256
146.5205, 226.0116
147.0026, 225.8322
147.4847, 225.4401
147.9668, 225.0415
148.4490, 224.7457
148.9311, 224.5772
149.4132, 224.4899
149.8953, 224.4281
150.3774, 224.4317
150.8595, 224.3713
151.3417, 224.1395
151.8238, 223.9031
152.3059, 223.8686
152.7880, 224.0992
153.2701, 224.4065
153.7522, 224.3094
154.2344, 223.1999
154.7165, 222.3501
155.1986, 221.9010
155.6807, 221.7061
156.1628, 221.5911
156.6449, 221.4734
157.1271, 221.3639
157.6092, 221.3135
158.0913, 221.4043
158.5734, 221.4528
159.0555, 221.4112
159.5376, 221.2891
160.0198, 221.0989
160.5019, 220.8210
160.9840, 220.4952
161.4661, 220.2666
161.9482, 220.2262
162.4303, 220.1839
162.9125, 219.9043
163.3946, 219.4046
163.8767, 219.1498
164.3588, 219.7756
164.8409, 220.7143
165.3230, 220.9540
165.8052, 219.8659
166.2873, 218.4305
166.7694, 218.1200
167.2515, 219.3326
167.7336, 220.2985
168.2157, 219.7778
168.6979, 218.6276
169.1800, 217.8378
169.6621, 217.9064
170.1442, 218.5480
170.6263, 218.9727
171.1084, 219.1164
171.5906, 219.1155
172.0727, 218.9442
172.5548, 218.6956
173.0369, 218.5067
173.5190, 218.4794
174.0011, 218.5821
174.4833, 218.5475
174.9654, 218.0173
175.4475, 217.7101
175.9296, 217.9741
176.4117, 218.5706
176.8938, 219.0737
177.3760, 219.1672
177.8581, 218.8437
178.3402, 218.3818
178.8223, 217.6138
179.3044, 216.8893
179.7865, 216.2865
180.2687, 215.8283
180.7508, 215.5683
181.2329, 215.6051
181.7150, 215.9864
182.1971, 215.9401
182.6792, 215.2255
183.1614, 214.3569
183.6435, 213.5659
184.1256, 212.8859
184.6077, 212.2977
185.0898, 211.7651
185.5719, 211.3059
186.0541, 211.0581
186.5362, 211.1473
187.0183, 211.3789
187.5004, 211.6704
187.9825, 212.0287
188.4646, 212.1926
188.9468, 211.7720
189.4289, 210.9050
189.9110, 210.1254
190.3931, 209.4292
190.8752, 208.9273
191.3573, 208.8917
191.8395, 209.5098
192.3216, 210.1224
192.8037, 210.1853
193.2858, 209.8607
193.7679, 209.4736
194.2500, 209.0617
194.7322, 208.6883
195.2143, 208.5961
195.6964, 209.0050
196.1785, 209.3643
196.6606, 209.2453
197.1427, 208.8483
197.6249, 208.6238
198.1070, 208.9875
198.5891, 209.8552
199.0712, 210.3729
199.5533, 210.3535
200.0354, 210.1422
200.5176, 209.7126
200.9997, 209.1911
201.4818, 208.8354
201.9639, 208.9171
202.4460, 209.4541
202.9281, 209.6983
203.4103, 209.1909
203.8924, 208.7931
204.3745, 208.8717
204.8566, 209.3009
205.3387, 209.7080
205.8208, 209.7454
206.3030, 209.3521
206.7851, 209.1701
207.2672, 209.2482
207.7493, 209.4635
208.2314, 209.8671
208.7135, 210.3920
209.1957, 210.8783
209.6778, 211.1829
210.1599, 211.2878
210.6420, 211.3063
211.1241, 211.0915
211.6062, 210.9317
212.0884, 210.9652
212.5705, 211.1952
213.0526, 211.5709
213.5347, 212.0850
214.0168, 212.7625
214.4989, 213.2383
214.9811, 213.4350
215.4632, 213.5125
215.9453, 213.5071
216.4274, 213.4437
216.9095, 213.4642
217.3916, 213.7477
217.8737, 214.2921
218.3559, 214.5915
218.8380, 214.4767
219.3201, 214.2227
219.8022, 214.0569
220.2843, 213.9970
220.7664, 213.9463
221.2486, 213.7461
221.7307, 213.4798
222.2128, 213.4998
222.6949, 214.2610
223.1770, 215.1235
223.6591, 215.2274
224.1413, 214.4399
224.6234, 213.6686
225.1055, 213.7278
225.5876, 214.2592
226.0697, 214.6363
226.5518, 214.7079
227.0340, 214.5295
227.5161, 214.0563
227.9982, 213.1358
228.4803, 212.4548
228.9624, 212.6941
229.4445, 213.3518
229.9267, 213.7853
230.4088, 213.7044
230.8909, 213.3179
231.3730, 212.9887
231.8551, 212.6914
232.3372, 212.5280
232.8194, 212.6499
233.3015, 212.8816
233.7836, 213.0132
234.2657, 212.9391
234.7478, 212.7479
235.2299, 212.6236
235.7121, 212.5443
236.1942, 212.5917
236.6763, 212.9112
237.1584, 213.3010
237.6405, 213.4880
238.1227, 213.3157
238.6048, 212.6521
239.0869, 213.3782
239.5690, 213.8601
240.0511, 214.1111
240.5332, 213.4390
241.0154, 213.9588
241.4975, 214.0010
241.9796, 214.0235
242.4617, 214.7111
242.9438, 214.1733
243.4259, 214.8502
243.9081, 215.0423
244.3902, 215.4563
244.8723, 215.3897
245.3544, 215.4716
245.8365, 216.0342
246.3186, 216.3306
246.8008, 216.2087
247.2829, 216.6368
247.7650, 216.0822
248.2471, 216.3900
248.7292, 216.5503
249.2113, 216.8212
249.6935, 217.1821
250.1756, 217.5762
250.6577, 217.8864
251.1398, 217.9137
251.6219, 218.1545
252.1040, 218.8423
252.5862, 219.6058
253.0683, 220.1088
253.5504, 220.2544
254.0325, 220.1846
254.5146, 220.1106
254.9967, 219.8902
255.4789, 219.9774
255.9610, 220.7490
256.4431, 221.6102
256.9252, 221.9750
257.4073, 221.7258
257.8894, 221.2647
258.3716, 221.1101
258.8537, 221.3371
259.3358, 221.7872
259.8179, 222.7504
260.3000, 223.7666
260.7821, 224.3573
261.2643, 224.4605
261.7464, 224.4913
262.2285, 224.9156
262.7106, 225.8454
263.1927, 226.7074
263.6748, 227.5527
264.1570, 228.2856
264.6391, 228.7951
265.1212, 229.0762
265.6033, 229.2265
266.0854, 229.2480
266.5675, 229.1487
267.0497, 229.4232
267.5318, 230.6018
268.0139, 231.7957
268.4960, 232.0244
268.9781, 231.3041
269.4602, 230.9157
269.9424, 232.0953
270.4245, 234.5590
270.9066, 236.0491
271.3887, 235.7408
271.8708, 235.0339
272.3529, 234.9307
272.8351, 235.4165
273.3172, 236.1080
273.7993, 236.8758
274.2814, 237.6594
274.7635, 238.2998
275.2456, 238.7855
275.7278, 239.1355
276.2099, 239.2786
276.6920, 239.2464
277.1741, 239.3255
277.6562, 239.7810
278.1383, 240.3356
278.6205, 240.4528
279.1026, 240.0172
279.5847, 239.3966
280.0668, 238.7735
280.5489, 238.1510
281.0310, 237.5485
281.5132, 236.9005
281.9953, 236.3639
282.4774, 236.2696
282.9595, 236.7525
283.4416, 236.8931
283.9237, 235.8034
284.4059, 233.8136
284.8880, 232.3707
285.3701, 232.1092
285.8522, 232.1180
286.3343, 231.4277
286.8164, 230.0735
287.2986, 228.5838
287.7807, 227.0380
288.2628, 225.5494
288.7449, 224.5616
289.2270, 224.3216
289.7091, 224.2574
290.1913, 223.9159
290.6734, 223.3502
291.1555, 222.7190
291.6376, 222.0159
292.1197, 221.3102
292.6018, 220.8013
293.0840, 220.6024
293.5661, 220.3582
294.0482, 219.7821
294.5303, 219.0055
295.0124, 218.2379
295.4945, 217.4912
295.9767, 216.8440
296.4588, 216.4538
296.9409, 216.3575
297.4230, 216.3962
297.9051, 216.5912
298.3872, 216.8432
298.8694, 217.0585
299.3515, 217.2570
299.8336, 217.3289
300.3157, 217.0031
300.7978, 216.1674
301.2799, 215.6072
301.7621, 215.9520
302.2442, 216.5460
302.7263, 216.7765
303.2084, 216.4875
303.6905, 216.1113
304.1726, 216.1537
304.6548, 216.6387
305.1369, 216.9456
305.6190, 216.6961
306.1011, 216.4049
306.5832, 216.5105
307.0653, 217.0309
307.5475, 217.5977
308.0296, 217.8935
308.5117, 217.9439
308.9938, 218.0809
309.4759, 218.4914
309.9580, 218.8132
310.4402, 218.8034
310.9223, 217.9864
311.4044, 218.5199
311.8865, 218.8093
312.3686, 218.8677
312.8507, 218.0031
313.3329, 218.3303
313.8150, 218.1799
314.2971, 218.0099
314.7792, 218.5049
315.2613, 217.7745
315.7434, 218.2590
316.2256, 217.6088
316.7077, 218.1925
317.1898, 218.5320
317.6719, 218.6405
318.1540, 217.8260
318.6361, 218.2034
319.1183, 218.1031
319.6004, 217.9833
320.0825, 218.5284
320.5646, 217.8482
321.0467, 218.6011
321.5288, 218.6969
322.0110, 218.6952
322.4931, 218.6184
322.9752, 218.4445
323.4573, 218.1674
323.9394, 217.9129
324.4215, 217.8355
324.9037, 217.9306
325.3858, 217.9526
325.8679, 217.8630
326.3500, 217.6733
326.8321, 217.3898
327.3142, 217.0197
327.7964, 216.6003
328.2785, 216.1881
328.7606, 215.7579
329.2427, 215.1506
329.7248, 214.2360
330.2069, 213.3587
330.6891, 212.7999
331.1712, 212.4271
331.6533, 211.9616
332.1354, 211.3059
332.6175, 210.4656
333.0996, 209.3903
333.5818, 207.9779
334.0639, 206.6445
334.5460, 205.7148
335.0281, 204.9443
335.5102, 204.0712
335.9923, 203.0094
336.4745, 201.8568
336.9566, 200.7838
337.4387, 199.8159
337.9208, 198.5408
338.4029, 196.4349
338.8850, 194.2424
339.3671, 192.7635
339.8492, 192.0944
340.3314, 191.5554
340.8135, 190.6797
341.2956, 189.4964
341.7777, 188.2067
342.2598, 186.7547
342.7419, 185.3367
343.2241, 184.0736
343.7062, 182.9603
344.1883, 182.0296
344.6704, 181.4221
345.1525, 180.9874
345.6346, 180.4093
346.1168, 179.6689
346.5989, 178.7985
347.0810, 177.6489
347.5631, 176.4007
348.0452, 175.3730
348.5273, 174.5849
349.0095, 174.1072
349.4916, 174.2797
349.9737, 175.1261
350.4558, 175.5048
350.9379, 174.6010
351.4200, 173.0618
351.9022, 171.9674
352.3843, 171.4646
352.8664, 171.1411
353.3485, 170.7248
353.8306, 170.2624
354.3127, 169.9914
354.7949, 170.1024
355.2770, 170.2123
355.7591, 169.7349
356.2412, 168.6858
356.7233, 167.7726
357.2054, 167.3054
357.6876, 167.1121
358.1697, 166.9351
358.6518, 166.7416
359.1339, 166.5710
359.6160, 166.5371
360.0981, 166.5786
360.5803, 166.3686
361.0624, 165.5001
361.5445, 164.6432
362.0266, 164.4133
362.5087, 164.7554
362.9908, 165.2011
363.4730, 165.5756
363.9551, 165.8156
364.4372, 165.7533
364.9193, 165.1952
365.4014, 164.6850
365.8835, 164.5193
366.3657, 164.5529
366.8478, 164.4601
367.3299, 164.1084
367.8120, 163.7034
368.2941, 163.6019
368.7762, 163.8860
369.2584, 164.0825
369.7405, 163.9798
370.2226, 163.8463
370.7047, 164.0497
371.1868, 164.6036
371.6689, 165.0479
372.1511, 164.9320
372.6332, 164.2223
373.1153, 163.7178
373.5974, 163.4998
374.0795, 163.3802
374.5616, 163.3387
375.0438, 163.3259
375.5259, 163.1939
376.0080, 162.8303
376.4901, 162.3665
376.9722, 162.2818
377.4543, 163.3338
377.9365, 163.7855
378.4186, 162.9052
378.9007, 161.5864
379.3828, 160.8185
379.8649, 160.8701
380.3470, 161.3445
380.8292, 161.7149
381.3113, 161.9942
381.7934, 162.1031
382.2755, 161.8649
382.7576, 161.6327
383.2397, 161.5637
383.7219, 161.6790
384.2040, 162.0162
384.6861, 162.6714
385.1682, 163.5893
385.6503, 163.8377
386.1324, 162.6347
386.6146, 161.6006
387.0967, 160.9630
387.5788, 160.6723
388.0609, 160.6830
388.5430, 160.9746
389.0251, 161.4404
389.5073, 161.8919
389.9894, 162.4152
390.4715, 162.7270
390.9536, 162.6794
391.4357, 162.5500
391.9178, 162.5462
392.4000, 162.6622
392.8821, 162.7150
393.3642, 162.4617
393.8463, 161.8836
394.3284, 161.6122
394.8105, 161.8940
395.2927, 162.2138
395.7748, 162.4284
396.2569, 162.5544
396.7390, 162.6229
397.2211, 162.6338
397.7032, 162.6309
398.1854, 162.7354
398.6675, 163.0096
399.1496, 163.2045
399.6317, 163.2096
400.1138, 163.1352
400.5959, 162.9729
401.0781, 162.7316
401.5602, 162.6765
402.0423, 163.2486
402.5244, 164.3602
403.0065, 165.0046
403.4886, 164.8598
403.9708, 164.5120
404.4529, 164.2969
404.9350, 164.2139
405.4171, 164.2744
405.8992, 164.5646
406.3813, 164.9599
406.8635, 165.2960
407.3456, 165.5796
407.8277, 165.7351
408.3098, 165.6219
408.7919, 165.4056
409.2740, 165.3816
409.7562, 165.6381
410.2383, 165.8973
410.7204, 165.9560
411.2025, 165.8829
411.6846, 165.9018
412.1667, 166.1017
412.6489, 166.3120
413.1310, 166.2176
413.6131, 165.8227
414.0952, 165.7649
414.5773, 166.4682
415.0594, 167.3438
415.5416, 167.8264
416.0237, 167.9184
416.5058, 167.9658
416.9879, 168.1960
417.4700, 168.5674
417.9521, 168.8512
418.4343, 168.8670
418.9164, 169.0228
419.3985, 169.6523
419.8806, 170.4235
420.3627, 170.7407
420.8448, 170.4206
421.3270, 169.9626
421.8091, 170.1538
422.2912, 171.3983
422.7733, 172.1206
423.2554, 171.9176
423.7375, 171.5859
424.2197, 171.4872
424.7018, 171.6716
425.1839, 172.1445
425.6660, 172.9563
426.1481, 174.0144
426.6302, 174.6986
427.1124, 174.7291
427.5945, 174.6904
428.0766, 174.5195
428.5587, 174.3818
429.0408, 174.4464
429.5229, 174.7607
430.0051, 175.2303
430.4872, 175.7566
430.9693, 176.3758
431.4514, 176.8936
431.9335, 177.2902
432.4156, 177.5935
432.8978, 177.7331
433.3799, 177.7827
433.8620, 177.9150
434.3441, 178.2530
434.8262, 178.7332
435.3083, 179.1778
435.7905, 179.5810
436.2726, 179.9589
436.7547, 180.2837
437.2368, 180.6052
437.7189, 180.9812
438.2010, 181.4265
438.6832, 181.8599
439.1653, 182.2477
439.6474, 182.5751
440.1295, 182.7047
440.6116, 182.4561
441.0938, 182.3163
441.5759, 182.8724
442.0580, 183.9023
442.5401, 184.7348
443.0222, 185.1543
443.5043, 185.3111
443.9865, 185.2806
444.4686, 185.0856
444.9507, 184.9182
445.4328, 184.8796
445.9149, 184.9117
446.3970, 184.8969
446.8792, 184.8698
447.3613, 184.7228
447.8434, 184.3389
448.3255, 183.8600
448.8076, 183.3863
449.2897, 182.6971
449.7719, 182.8595
450.2540, 182.7778
450.7361, 182.4651
451.2182, 181.2294
451.7003, 181.1856
452.1824, 180.6641
452.6646, 180.1230
453.1467, 180.2469
453.6288, 179.1454
454.1109, 179.2588
454.5930, 178.8873
455.0751, 178.7376
455.5573, 178.4304
456.0394, 178.3326
456.5215, 177.7288
457.0036, 176.9989
457.4857, 176.3028
457.9678, 175.6800
458.4500, 175.1367
458.9321, 174.6885
459.4142, 174.3210
459.8963, 173.9191
460.3784, 173.3183
460.8605, 172.9937
461.3427, 173.3731
461.8248, 173.8883
462.3069, 173.9728
462.7890, 173.4859
463.2711, 172.7339
463.7532, 171.8743
464.2354, 170.9365
464.7175, 170.5030
465.1996, 171.0245
465.6817, 171.4408
466.1638, 170.7354
466.6459, 169.3409
467.1281, 168.3515
467.6102, 168.2668
468.0923, 168.6179
468.5744, 169.0468
469.0565, 169.5285
469.5386, 169.7565
470.0208, 169.5360
470.5029, 169.0925
470.9850, 168.8021
471.4671, 168.6559
471.9492, 168.6247
472.4313, 168.7803
472.9135, 169.0010
473.3956, 169.1463
473.8777, 169.2103
474.3598, 169.3040
474.8419, 169.5422
475.3240, 169.8892
475.8062, 169.9715
476.2883, 169.5865
476.7704, 169.2283
477.2525, 168.9070
477.7346, 168.7059
478.2167, 168.7666
478.6989, 169.1084
479.1810, 169.5541
479.6631, 169.8742
480.1452, 170.0249
480.6273, 170.2639
481.1094, 170.7742
481.5916, 171.1815
482.0737, 171.1900
482.5558, 171.0408
483.0379, 171.1923
483.5200, 171.8988
484.0021, 172.8378
484.4843, 173.3635
484.9664, 173.3734
485.4485, 173.4509
485.9306, 173.8109
486.4127, 174.1817
486.8948, 174.3222
487.3770, 174.2792
487.8591, 174.3437
488.3412, 174.5640
488.8233, 175.0373
489.3054, 176.1600
489.7875, 178.0257
490.2697, 179.5468
490.7518, 179.9659
491.2339, 179.7819
491.7160, 180.0676
492.1981, 180.9728
492.6802, 181.9019
493.1624, 182.4219
493.6445, 182.8740
494.1266, 183.8631
494.6087, 185.4824
495.0908, 187.1897
495.5729, 188.5268
496.0551, 189.4908
496.5372, 190.4200
497.0193, 190.8569
497.5014, 191.7840
497.9835, 193.8020
498.4656, 196.3916
498.9478, 198.8316
499.4299, 200.8851
499.9120, 202.8167
500.3941, 205.0301
500.8762, 207.6987
501.3583, 210.0140
501.8405, 211.3359
502.3226, 212.9493
502.8047, 215.3588
503.2868, 218.3909
503.7689, 221.6628
504.2510, 225.0250
504.7331, 228.4662
505.2152, 232.0575
505.6974, 235.8867
506.1795, 239.3610
506.6616, 242.0310
507.1437, 244.6017
507.6258, 247.3696
508.1079, 250.4370
508.5901, 254.1353
509.0722, 259.1653
509.5543, 264.6537
510.0364, 269.3513
510.5185, 273.2497
511.0006, 276.8367
511.4828, 280.0789
511.9649, 283.3654
512.4470, 287.6493
512.9291, 293.3324
513.4113, 298.4890
513.8934, 302.2414
514.3755, 305.4295
514.8576, 308.8070
515.3397, 312.4843
515.8218, 316.3753
516.3040, 320.5511
516.7861, 324.8503
517.2682, 328.0446
517.7503, 329.4562
518.2324, 330.5537
518.7145, 331.6841
519.1967, 332.4364
519.6788, 332.4664
520.1609, 331.6962
520.6430, 330.1997
521.1251, 328.0124
521.6072, 325.1274
522.0894, 321.8234
522.5715, 318.0991
523.0536, 313.9054
523.5357, 309.3064
524.0178, 304.2623
524.4999, 298.6175
524.9821, 292.2823
525.4642, 285.7836
525.9463, 279.4077
526.4284, 273.2391
526.9105, 267.5249
527.3926, 262.4407
527.8748, 257.5050
528.3569, 252.2476
528.8390, 246.8233
529.3211, 241.6941
529.8032, 236.8990
530.2853, 232.4406
530.7675, 228.4573
531.2496, 224.8081
531.7317, 221.1592
532.2138, 217.3934
532.6959, 213.8492
533.1780, 211.0108
533.6602, 209.0311
534.1423, 206.7801
534.6244, 203.9442
535.1065, 201.2060
535.5886, 198.7849
536.0707, 196.6459
536.5529, 194.8074
537.0350, 193.2750
537.5171, 191.7560
537.9992, 189.6945
538.4813, 186.8912
538.9634, 184.5960
539.4456, 183.1438
539.9277, 181.9323
540.4098, 180.7245
540.8919, 179.5535
541.3740, 178.5232
541.8561, 177.7225
542.3383, 176.9767
542.8204, 176.1320
543.3025, 175.1793
543.7846, 173.9598
544.2667, 172.2726
544.7488, 170.6291
545.2310, 169.7652
545.7131, 169.5752
546.1952, 169.0478
546.6773, 167.7010
547.1594, 166.2854
547.6415, 165.2602
548.1237, 164.5584
548.6058, 163.9970
549.0879, 163.5141
549.5700, 163.0151
550.0521, 162.3079
550.5342, 161.1936
551.0164, 160.5078
551.4985, 160.4868
551.9806, 160.5872
552.4627, 160.8030
552.9448, 160.9218
553.4269, 160.5255
553.9091, 159.3832
554.3912, 157.9756
554.8733, 157.1772
555.3554, 157.0779
555.8375, 156.9393
556.3196, 156.5659
556.8018, 156.2575
557.2839, 156.2827
557.7660, 156.5205
558.2481, 156.6410
558.7302, 156.5995
559.2123, 156.3060
559.6945, 155.5632
560.1766, 154.4583
560.6587, 153.3489
561.1408, 152.3074
561.6229, 151.4177
562.1050, 150.7910
562.5872, 150.4675
563.0693, 150.2305
563.5514, 149.9686
564.0335, 149.9053
564.5156, 150.3765
564.9977, 151.0814
565.4799, 151.5247
565.9620, 151.5038
566.4441, 151.0841
566.9262, 150.2493
567.4083, 148.7400
567.8904, 147.8707
568.3726, 148.1131
568.8547, 148.5446
569.3368, 149.0907
569.8189, 149.5576
570.3010, 149.6195
570.7831, 149.1111
571.2653, 148.4127
571.7474, 147.9238
572.2295, 147.6346
572.7116, 147.5094
573.1937, 147.6653
573.6758, 147.6745
574.1580, 146.9492
574.6401, 145.7400
575.1222, 145.0375
575.6043, 145.3143
576.0864, 145.6841
576.5685, 145.6880
577.0507, 145.5054
577.5328, 145.4660
578.0149, 145.6431
578.4970, 145.8127
578.9791, 145.7215
579.4612, 145.3566
579.9434, 145.0643
580.4255, 144.9156
580.9076, 144.7585
581.3897, 144.5986
581.8718, 144.3974
582.3539, 144.0686
582.8361, 143.6123
583.3182, 143.2027
583.8003, 143.0500
584.2824, 143.1147
584.7645, 143.0759
585.2466, 142.8477
585.7288, 142.7608
586.2108, 143.1313
586.6929, 143.6692
587.1750, 143.9330
587.6572, 143.8315
588.1393, 143.7214
588.6214, 143.7829
589.1035, 143.9193
589.5856, 144.0642
590.0677, 144.1852
