##NAMES=Hilgardite
##RRUFFID=R070427
##IDEAL CHEMISTRY=Ca_2_B_5_O_9_Cl&#183;H_2_O
##LOCALITY=Boulby mine, Loftus, Cleveland, England, UK
##OWNER=RRUFF
##SOURCE=Michael Scott
##DESCRIPTION=Massive etched pink crystallline associated with pale green boracite, polytype 3TC
##STATUS=The identification of this mineral has been confirmed by single-crystal X-ray diffraction.
##URL=rruff.info/R070427
132.1179, 808.6729
132.6000, 839.1705
133.0821, 873.2319
133.5642, 908.3729
134.0463, 946.5987
134.5284, 985.3869
135.0106, 1019.878
135.4927, 1045.866
135.9748, 1064.064
136.4569, 1090.601
136.9390, 1132.169
137.4211, 1174.250
137.9033, 1212.993
138.3854, 1248.797
138.8675, 1283.408
139.3496, 1317.453
139.8317, 1350.958
140.3138, 1391.459
140.7960, 1443.760
141.2781, 1496.736
141.7602, 1543.234
142.2423, 1585.114
142.7244, 1629.860
143.2065, 1683.759
143.6887, 1747.000
144.1708, 1810.419
144.6529, 1869.796
145.1350, 1932.522
145.6171, 2003.719
146.0992, 2082.901
146.5814, 2164.566
147.0635, 2242.079
147.5456, 2316.678
148.0277, 2409.510
148.5098, 2529.076
148.9919, 2659.932
149.4741, 2784.742
149.9562, 2904.854
150.4383, 3045.402
150.9204, 3233.545
151.4025, 3466.865
151.8846, 3699.392
152.3668, 3932.400
152.8489, 4161.146
153.3310, 4396.476
153.8131, 4640.031
154.2952, 4846.496
154.7773, 4981.363
155.2595, 5046.916
155.7416, 5052.443
156.2237, 4984.367
156.7058, 4863.672
157.1879, 4706.429
157.6700, 4510.669
158.1522, 4298.239
158.6343, 4071.713
159.1164, 3840.596
159.5985, 3631.341
160.0806, 3450.402
160.5627, 3295.677
161.0449, 3167.509
161.5270, 3067.873
162.0091, 2989.834
162.4912, 2933.899
162.9733, 2895.879
163.4554, 2871.514
163.9376, 2866.527
164.4197, 2872.664
164.9018, 2876.635
165.3839, 2879.589
165.8660, 2876.905
166.3481, 2857.375
166.8303, 2831.030
167.3124, 2815.767
167.7945, 2824.071
168.2766, 2846.334
168.7587, 2861.847
169.2408, 2868.906
169.7230, 2872.905
170.2051, 2876.789
170.6872, 2879.841
171.1693, 2880.481
171.6514, 2876.277
172.1335, 2869.908
172.6157, 2869.529
173.0978, 2880.446
173.5799, 2886.389
174.0620, 2876.781
174.5441, 2858.898
175.0262, 2843.207
175.5084, 2835.377
175.9905, 2832.588
176.4726, 2829.614
176.9547, 2835.626
177.4368, 2822.617
177.9189, 2770.041
178.4010, 2697.559
178.8832, 2632.307
179.3653, 2588.983
179.8474, 2559.224
180.3295, 2517.677
180.8116, 2459.968
181.2937, 2397.199
181.7759, 2329.686
182.2580, 2260.965
182.7401, 2196.719
183.2222, 2140.894
183.7043, 2089.227
184.1864, 2026.860
184.6686, 1939.057
185.1507, 1868.143
185.6328, 1827.975
186.1149, 1806.954
186.5970, 1792.445
187.0791, 1779.077
187.5613, 1767.619
188.0434, 1760.026
188.5255, 1757.704
189.0076, 1757.365
189.4897, 1753.564
189.9718, 1752.780
190.4540, 1763.776
190.9361, 1791.220
191.4182, 1827.323
191.9003, 1852.360
192.3824, 1857.611
192.8645, 1867.263
193.3467, 1878.840
193.8288, 1898.874
194.3109, 1936.154
194.7930, 1994.388
195.2751, 2064.734
195.7572, 2127.734
196.2394, 2180.238
196.7215, 2231.695
197.2036, 2280.805
197.6857, 2331.023
198.1678, 2385.316
198.6499, 2444.806
199.1321, 2507.688
199.6142, 2571.567
200.0963, 2640.538
200.5784, 2701.873
201.0605, 2765.922
201.5426, 2817.124
202.0248, 2840.399
202.5069, 2832.537
202.9890, 2804.729
203.4711, 2772.126
203.9532, 2726.968
204.4353, 2695.471
204.9175, 2694.878
205.3996, 2695.055
205.8817, 2677.972
206.3638, 2639.079
206.8459, 2582.685
207.3280, 2512.765
207.8102, 2426.415
208.2923, 2334.300
208.7744, 2234.144
209.2565, 2130.803
209.7386, 2025.052
210.2207, 1918.571
210.7029, 1814.263
211.1850, 1714.461
211.6671, 1617.718
212.1492, 1533.557
212.6313, 1462.273
213.1134, 1402.500
213.5956, 1358.085
214.0777, 1326.595
214.5598, 1299.754
215.0419, 1268.775
215.5240, 1231.894
216.0061, 1203.468
216.4883, 1187.958
216.9704, 1176.479
217.4525, 1166.668
217.9346, 1158.150
218.4167, 1150.936
218.8988, 1144.596
219.3810, 1139.008
219.8631, 1138.773
220.3452, 1152.156
220.8273, 1163.057
221.3094, 1166.154
221.7915, 1163.370
222.2737, 1158.335
222.7558, 1152.501
223.2379, 1146.732
223.7200, 1150.960
224.2021, 1180.652
224.6842, 1203.795
225.1664, 1211.553
225.6485, 1209.111
226.1306, 1203.596
226.6127, 1198.491
227.0948, 1194.809
227.5770, 1196.843
228.0591, 1206.575
228.5412, 1220.208
229.0233, 1241.773
229.5054, 1264.849
229.9875, 1280.920
230.4697, 1285.887
230.9518, 1285.404
231.4339, 1294.509
231.9160, 1323.244
232.3981, 1344.080
232.8802, 1352.518
233.3624, 1353.418
233.8445, 1348.662
234.3266, 1339.279
234.8087, 1330.096
235.2908, 1330.757
235.7729, 1347.907
236.2551, 1359.076
236.7372, 1354.908
237.2193, 1350.106
237.7014, 1356.488
238.1835, 1375.386
238.6656, 1396.993
239.1478, 1409.062
239.6299, 1409.297
240.1120, 1408.353
240.5941, 1406.942
241.0762, 1404.145
241.5583, 1397.622
242.0405, 1388.415
242.5226, 1380.897
243.0047, 1377.411
243.4868, 1377.328
243.9689, 1389.376
244.4510, 1425.669
244.9332, 1463.631
245.4153, 1492.098
245.8974, 1515.005
246.3795, 1543.870
246.8616, 1590.173
247.3437, 1651.216
247.8259, 1700.609
248.3080, 1739.236
248.7901, 1763.176
249.2722, 1771.759
249.7543, 1766.606
250.2364, 1749.603
250.7186, 1720.291
251.2007, 1681.280
251.6828, 1640.217
252.1649, 1598.512
252.6470, 1551.110
253.1291, 1492.359
253.6113, 1429.564
254.0934, 1369.039
254.5755, 1312.065
255.0576, 1262.067
255.5397, 1225.853
256.0219, 1206.553
256.5040, 1189.640
256.9861, 1173.106
257.4682, 1156.272
257.9503, 1138.147
258.4324, 1118.501
258.9146, 1098.723
259.3967, 1079.624
259.8788, 1061.110
260.3609, 1044.927
260.8430, 1032.490
261.3251, 1021.558
261.8073, 1011.006
262.2894, 1000.658
262.7715, 989.3685
263.2536, 974.6826
263.7357, 957.6407
264.2178, 944.4453
264.7000, 935.9516
265.1821, 931.3851
265.6642, 931.7857
266.1463, 935.6339
266.6284, 937.8421
267.1105, 935.9955
267.5927, 930.8940
268.0748, 923.0534
268.5569, 911.0332
269.0390, 901.0651
269.5211, 899.0903
270.0032, 902.0419
270.4854, 905.3067
270.9675, 908.7593
271.4496, 911.1776
271.9317, 910.3524
272.4138, 906.1655
272.8959, 902.9492
273.3781, 904.5309
273.8602, 907.5609
274.3423, 905.4955
274.8244, 895.5239
275.3065, 884.9962
275.7886, 878.9058
276.2708, 876.4409
276.7529, 874.5264
277.2350, 872.7465
277.7171, 870.0918
278.1992, 864.5388
278.6813, 855.5970
279.1635, 846.8685
279.6456, 837.9087
280.1277, 830.4074
280.6098, 828.1507
281.0919, 832.4489
281.5740, 839.0265
282.0562, 843.2776
282.5383, 845.1054
283.0204, 845.5716
283.5025, 844.6388
283.9846, 842.4751
284.4667, 838.0649
284.9489, 831.7142
285.4310, 826.9277
285.9131, 826.9458
286.3952, 831.7512
286.8773, 835.2520
287.3594, 838.3789
287.8416, 839.4659
288.3237, 835.7083
288.8058, 829.0485
289.2879, 824.6228
289.7700, 825.4238
290.2521, 830.3457
290.7343, 834.8211
291.2164, 840.0501
291.6985, 843.4238
292.1806, 844.3924
292.6627, 843.3399
293.1448, 839.8928
293.6270, 834.0082
294.1091, 827.8088
294.5912, 825.0813
295.0733, 827.2582
295.5554, 830.6174
296.0375, 838.7505
296.5197, 845.4047
297.0018, 844.9418
297.4839, 837.5303
297.9660, 828.3668
298.4481, 822.9664
298.9302, 822.1630
299.4124, 819.2396
299.8945, 809.8503
300.3766, 802.7298
300.8587, 802.4595
301.3408, 806.8238
301.8229, 810.7103
302.3050, 810.5547
302.7871, 807.4269
303.2693, 806.7745
303.7514, 809.2595
304.2335, 813.5532
304.7156, 820.6360
305.1977, 828.6119
305.6798, 835.2112
306.1620, 839.5457
306.6441, 843.2347
307.1262, 849.3960
307.6083, 859.1071
308.0904, 867.1707
308.5725, 872.2485
309.0547, 875.6049
309.5368, 876.0762
310.0189, 874.2386
310.5010, 874.8737
310.9831, 883.5185
311.4652, 899.3698
311.9474, 913.3054
312.4295, 923.4467
312.9116, 933.3560
313.3937, 945.4516
313.8758, 959.1158
314.3579, 972.5966
314.8401, 984.1791
315.3222, 995.5123
315.8043, 1011.032
316.2864, 1032.032
316.7685, 1049.384
317.2506, 1054.788
317.7328, 1054.292
318.2149, 1057.771
318.6970, 1066.829
319.1791, 1079.153
319.6612, 1094.855
320.1433, 1112.898
320.6255, 1128.504
321.1076, 1139.026
321.5897, 1147.878
322.0718, 1162.288
322.5539, 1184.007
323.0360, 1199.922
323.5182, 1199.224
324.0003, 1193.724
324.4824, 1199.385
324.9645, 1218.889
325.4466, 1243.954
325.9287, 1267.688
326.4109, 1289.964
326.8930, 1309.685
327.3751, 1325.681
327.8572, 1340.406
328.3393, 1354.131
328.8214, 1367.639
329.3036, 1382.968
329.7857, 1401.623
330.2678, 1422.642
330.7499, 1441.064
331.2320, 1453.165
331.7141, 1467.387
332.1963, 1484.543
332.6784, 1504.318
333.1605, 1527.363
333.6426, 1553.525
334.1247, 1580.256
334.6068, 1603.542
335.0890, 1620.917
335.5711, 1641.346
336.0532, 1672.176
336.5353, 1699.239
337.0174, 1713.923
337.4995, 1717.765
337.9817, 1718.465
338.4638, 1723.410
338.9459, 1730.830
339.4280, 1723.608
339.9101, 1690.376
340.3922, 1658.936
340.8744, 1638.199
341.3565, 1623.362
341.8386, 1608.191
342.3207, 1590.056
342.8028, 1571.883
343.2849, 1557.263
343.7671, 1545.950
344.2492, 1540.072
344.7313, 1543.254
345.2134, 1549.892
345.6955, 1553.524
346.1776, 1554.190
346.6598, 1561.220
347.1419, 1582.781
347.6240, 1615.112
348.1061, 1647.331
348.5882, 1677.122
349.0703, 1711.057
349.5525, 1758.651
350.0346, 1815.192
350.5167, 1866.435
350.9988, 1904.058
351.4809, 1940.356
351.9630, 1982.365
352.4452, 2030.961
352.9273, 2091.194
353.4094, 2167.168
353.8915, 2254.237
354.3736, 2342.299
354.8557, 2436.268
355.3379, 2520.706
355.8200, 2586.013
356.3021, 2642.626
356.7842, 2707.906
357.2663, 2784.213
357.7484, 2848.211
358.2306, 2872.496
358.7127, 2850.004
359.1948, 2824.141
359.6769, 2808.602
360.1590, 2777.173
360.6411, 2712.402
361.1233, 2622.719
361.6054, 2525.381
362.0875, 2429.141
362.5696, 2335.814
363.0517, 2250.830
363.5338, 2170.925
364.0160, 2106.334
364.4981, 2059.725
364.9802, 2025.873
365.4623, 2001.394
365.9444, 1985.293
366.4265, 1976.662
366.9087, 1973.445
367.3908, 1975.226
367.8729, 1989.412
368.3550, 2018.959
368.8371, 2059.121
369.3192, 2110.380
369.8014, 2169.541
370.2835, 2228.594
370.7656, 2280.871
371.2477, 2333.373
371.7298, 2400.026
372.2119, 2482.389
372.6941, 2562.975
373.1762, 2635.507
373.6583, 2700.646
374.1404, 2762.959
374.6225, 2826.277
375.1046, 2873.213
375.5868, 2901.292
376.0689, 2905.169
376.5510, 2870.893
377.0331, 2794.113
377.5152, 2690.136
377.9973, 2569.674
378.4795, 2430.969
378.9616, 2295.177
379.4437, 2163.571
379.9258, 2034.426
380.4079, 1903.874
380.8900, 1775.323
381.3722, 1659.153
381.8543, 1560.956
382.3364, 1478.764
382.8185, 1405.161
383.3006, 1341.610
383.7827, 1286.804
384.2649, 1244.328
384.7470, 1208.154
385.2291, 1173.008
385.7112, 1138.305
386.1933, 1107.117
386.6754, 1083.884
387.1576, 1069.353
387.6397, 1049.756
388.1218, 1013.961
388.6039, 986.2287
389.0860, 979.2983
389.5681, 984.1434
390.0503, 986.7152
390.5324, 980.8638
391.0145, 970.6389
391.4966, 962.8165
391.9787, 957.9765
392.4608, 949.7926
392.9430, 931.6246
393.4251, 914.1812
393.9072, 909.4569
394.3893, 917.3532
394.8714, 923.3463
395.3535, 916.1038
395.8357, 903.8677
396.3178, 902.5313
396.7999, 914.1259
397.2820, 924.3376
397.7641, 922.4298
398.2462, 910.5366
398.7284, 901.8953
399.2105, 896.4472
399.6926, 894.2618
400.1747, 896.8307
400.6568, 902.3563
401.1389, 908.5547
401.6211, 914.7190
402.1032, 919.4804
402.5853, 920.4814
403.0674, 915.4313
403.5495, 913.6609
404.0316, 919.7405
404.5138, 924.3907
404.9959, 919.8585
405.4780, 909.7885
405.9601, 903.7384
406.4422, 908.0069
406.9243, 920.1477
407.4065, 931.8353
407.8886, 943.7136
408.3707, 953.6933
408.8528, 959.2917
409.3349, 964.4161
409.8170, 973.6644
410.2992, 987.2420
410.7813, 998.5061
411.2634, 999.2754
411.7455, 992.0487
412.2276, 990.1744
412.7097, 996.2267
413.1919, 1003.498
413.6740, 1005.921
414.1561, 1006.361
414.6382, 1010.730
415.1203, 1021.465
415.6024, 1034.813
416.0846, 1050.327
416.5667, 1066.512
417.0488, 1077.567
417.5309, 1080.535
418.0130, 1081.110
418.4951, 1087.344
418.9773, 1099.782
419.4594, 1117.152
419.9415, 1140.744
420.4236, 1168.128
420.9057, 1201.666
421.3878, 1238.183
421.8700, 1268.324
422.3521, 1285.347
422.8342, 1293.233
423.3163, 1309.147
423.7984, 1337.329
424.2805, 1367.553
424.7627, 1397.726
425.2448, 1429.966
425.7269, 1466.165
426.2090, 1506.557
426.6911, 1549.240
427.1732, 1591.782
427.6554, 1634.813
428.1375, 1681.874
428.6196, 1733.288
429.1017, 1788.123
429.5838, 1851.477
430.0659, 1916.714
430.5481, 1973.164
431.0302, 2016.992
431.5123, 2054.503
431.9944, 2097.471
432.4765, 2139.587
432.9586, 2156.725
433.4408, 2140.722
433.9229, 2104.787
434.4050, 2061.139
434.8871, 2009.137
435.3692, 1957.576
435.8513, 1907.699
436.3335, 1857.860
436.8156, 1804.571
437.2977, 1750.350
437.7798, 1699.270
438.2619, 1652.959
438.7440, 1614.457
439.2262, 1592.637
439.7083, 1599.122
440.1904, 1602.184
440.6725, 1592.080
441.1546, 1586.082
441.6367, 1598.504
442.1189, 1626.512
442.6010, 1655.542
443.0831, 1674.287
443.5652, 1685.554
444.0473, 1700.605
444.5294, 1721.230
445.0116, 1740.648
445.4937, 1755.761
445.9758, 1768.755
446.4579, 1780.945
446.9400, 1792.087
447.4221, 1805.216
447.9043, 1823.355
448.3864, 1844.594
448.8685, 1861.915
449.3506, 1873.602
449.8327, 1893.647
450.3148, 1934.226
450.7970, 1994.279
451.2791, 2056.205
451.7612, 2120.520
452.2433, 2185.864
452.7254, 2249.186
453.2076, 2314.053
453.6897, 2384.221
454.1718, 2461.015
454.6539, 2544.952
455.1360, 2637.530
455.6181, 2740.150
456.1003, 2842.779
456.5824, 2944.522
457.0645, 3046.329
457.5466, 3150.354
458.0287, 3254.133
458.5108, 3355.823
458.9930, 3456.240
459.4751, 3547.153
459.9572, 3616.641
460.4393, 3664.285
460.9214, 3704.214
461.4035, 3750.996
461.8857, 3773.232
462.3678, 3743.372
462.8499, 3666.519
463.3320, 3561.118
463.8141, 3429.171
464.2962, 3272.552
464.7784, 3081.539
465.2605, 2864.864
465.7426, 2653.275
466.2247, 2459.015
466.7068, 2281.169
467.1889, 2121.301
467.6711, 1983.997
468.1532, 1856.664
468.6353, 1736.681
469.1174, 1628.432
469.5995, 1537.253
470.0816, 1460.990
470.5638, 1394.513
471.0459, 1334.136
471.5280, 1281.308
472.0101, 1240.758
472.4922, 1217.979
472.9743, 1193.211
473.4565, 1155.426
473.9386, 1119.543
474.4207, 1097.302
474.9028, 1088.130
475.3849, 1079.879
475.8670, 1062.985
476.3492, 1043.642
476.8313, 1033.581
477.3134, 1033.157
477.7955, 1032.795
478.2776, 1026.792
478.7597, 1018.613
479.2419, 1017.250
479.7240, 1025.387
480.2061, 1032.393
480.6882, 1035.118
481.1703, 1036.615
481.6524, 1039.771
482.1346, 1044.629
482.6167, 1049.495
483.0988, 1053.177
483.5809, 1055.762
484.0630, 1058.183
484.5451, 1064.139
485.0273, 1063.414
485.5094, 1052.577
485.9915, 1036.844
486.4736, 1019.592
486.9557, 1001.500
487.4378, 982.8091
487.9200, 962.5419
488.4021, 941.8492
488.8842, 924.7400
489.3663, 911.8348
489.8484, 899.1130
490.3305, 883.7449
490.8127, 867.8537
491.2948, 855.7075
491.7769, 848.0190
492.2590, 841.8267
492.7411, 835.2001
493.2232, 834.4714
493.7054, 832.4208
494.1875, 829.1395
494.6696, 819.9171
495.1517, 819.1461
495.6338, 815.4651
496.1159, 811.9911
496.5981, 813.3827
497.0802, 806.7760
497.5623, 808.7772
498.0444, 807.8185
498.5265, 808.7108
499.0086, 806.6728
499.4908, 805.9854
499.9729, 808.9102
500.4550, 810.3638
500.9371, 798.3438
501.4192, 796.1022
501.9013, 795.2996
502.3835, 793.4112
502.8656, 792.1710
503.3477, 794.5110
503.8298, 801.3998
504.3119, 807.9415
504.7940, 813.7928
505.2762, 817.4711
505.7583, 814.6591
506.2404, 806.5334
506.7225, 802.2704
507.2046, 808.7988
507.6867, 822.9296
508.1689, 830.6083
508.6510, 826.7252
509.1331, 823.6074
509.6152, 820.7686
510.0973, 819.7593
510.5794, 822.3014
511.0616, 827.9852
511.5437, 834.5710
512.0258, 840.3341
512.5079, 845.9065
512.9901, 853.2764
513.4722, 862.6565
513.9543, 872.3761
514.4364, 882.5325
514.9185, 892.1276
515.4006, 899.5492
515.8828, 904.5810
516.3649, 910.4333
516.8470, 919.3834
517.3291, 928.6285
517.8112, 935.8126
518.2933, 940.9421
518.7755, 944.6170
519.2576, 946.9194
519.7397, 948.9255
520.2218, 953.0843
520.7039, 959.0371
521.1860, 968.0752
521.6682, 987.3151
522.1503, 1002.659
522.6324, 1002.959
523.1145, 993.0970
523.5966, 986.3100
524.0787, 990.0922
524.5609, 999.1317
525.0430, 1005.467
525.5251, 1009.104
526.0072, 1011.033
526.4893, 1010.665
526.9714, 1009.999
527.4536, 1012.667
527.9357, 1017.987
528.4178, 1018.440
528.8999, 1009.641
529.3820, 998.9738
529.8641, 992.8915
530.3463, 987.6898
530.8284, 976.3627
531.3105, 956.4395
531.7926, 929.6747
532.2747, 896.9735
532.7568, 855.9254
533.2390, 823.3639
533.7211, 807.5728
534.2032, 790.8481
534.6853, 762.0920
535.1674, 731.4478
535.6495, 714.0101
536.1317, 714.9260
536.6138, 720.7374
537.0959, 719.8252
537.5780, 713.7683
538.0601, 707.0455
538.5422, 699.9520
539.0244, 694.0201
539.5065, 690.0613
539.9886, 688.2700
540.4707, 689.4962
540.9528, 698.5510
541.4349, 703.7340
541.9171, 697.5995
542.3992, 689.8263
542.8813, 689.9406
543.3634, 698.4647
543.8455, 710.6204
544.3276, 723.9811
544.8098, 736.5665
545.2919, 737.6553
545.7740, 720.6448
546.2561, 710.2844
546.7382, 718.2142
547.2203, 731.2850
547.7024, 740.4778
548.1845, 745.4401
548.6666, 748.4559
549.1487, 746.8582
549.6309, 746.3311
550.1130, 755.8553
550.5951, 772.8165
551.0772, 784.6351
551.5593, 785.7534
552.0414, 782.7287
552.5236, 785.8908
553.0057, 795.9705
553.4878, 810.2071
553.9699, 833.2759
554.4520, 854.9577
554.9341, 869.8677
555.4163, 881.0944
555.8984, 892.7663
556.3805, 906.3498
556.8626, 923.7183
557.3447, 947.6697
557.8268, 977.7586
558.3090, 1010.216
558.7911, 1044.401
559.2732, 1082.044
559.7553, 1125.871
560.2374, 1174.065
560.7195, 1219.619
561.2017, 1258.949
561.6838, 1302.046
562.1659, 1355.368
562.6480, 1411.933
563.1301, 1462.395
563.6122, 1507.647
564.0944, 1557.236
564.5765, 1618.422
565.0586, 1690.184
565.5407, 1769.860
566.0228, 1859.509
566.5049, 1951.657
566.9871, 2037.380
567.4692, 2132.431
567.9513, 2249.457
568.4334, 2385.887
568.9155, 2527.982
569.3976, 2679.361
569.8798, 2826.263
570.3619, 2961.163
570.8440, 3081.439
571.3261, 3183.763
571.8082, 3269.052
572.2903, 3316.805
572.7725, 3302.155
573.2546, 3222.810
573.7367, 3099.655
574.2188, 2906.967
574.7009, 2701.805
575.1830, 2475.918
575.6652, 2256.773
576.1473, 2073.131
576.6294, 1930.757
577.1115, 1814.032
577.5936, 1709.745
578.0757, 1619.519
578.5579, 1550.731
579.0400, 1504.772
579.5221, 1469.934
580.0042, 1443.013
580.4863, 1422.554
580.9684, 1405.430
581.4506, 1389.379
581.9327, 1383.807
582.4148, 1398.137
582.8969, 1416.079
583.3790, 1422.707
583.8611, 1424.778
584.3433, 1439.756
584.8254, 1475.646
585.3075, 1521.545
585.7896, 1561.985
586.2717, 1596.879
586.7538, 1625.300
587.2360, 1643.186
587.7181, 1661.650
588.2002, 1686.458
588.6823, 1716.203
589.1644, 1749.007
589.6465, 1784.741
590.1287, 1823.595
590.6108, 1868.747
591.0929, 1915.511
591.5750, 1956.399
592.0571, 1991.866
592.5392, 2029.869
593.0214, 2076.548
593.5035, 2126.433
593.9856, 2162.518
594.4677, 2178.961
594.9498, 2195.088
595.4319, 2214.728
595.9141, 2232.061
596.3962, 2242.827
596.8783, 2248.890
597.3604, 2255.130
597.8425, 2263.561
598.3246, 2272.226
598.8068, 2284.632
599.2889, 2295.473
599.7710, 2291.266
600.2531, 2269.373
600.7352, 2232.929
601.2173, 2182.069
601.6995, 2119.161
602.1816, 2063.722
602.6637, 2030.992
603.1458, 1984.577
603.6279, 1911.065
604.1100, 1831.623
604.5922, 1764.030
605.0743, 1706.078
605.5564, 1642.060
606.0385, 1558.090
606.5206, 1469.223
607.0027, 1397.383
607.4849, 1341.175
607.9670, 1290.186
608.4491, 1241.106
608.9312, 1198.812
609.4133, 1169.784
609.8954, 1154.067
610.3776, 1134.978
610.8597, 1106.293
611.3418, 1082.509
611.8239, 1070.083
612.3060, 1062.161
612.7881, 1051.471
613.2703, 1037.646
613.7524, 1026.260
614.2345, 1023.759
614.7166, 1024.831
615.1987, 1013.903
615.6808, 990.2033
616.1630, 972.0397
616.6451, 965.2415
617.1272, 964.9360
617.6093, 966.6566
618.0914, 970.4614
618.5735, 974.9675
619.0557, 979.9470
619.5378, 985.8116
620.0199, 994.1559
620.5020, 1002.765
620.9841, 1008.086
621.4662, 1009.988
621.9484, 1012.170
622.4305, 1016.885
622.9126, 1024.995
623.3947, 1041.577
623.8768, 1068.595
624.3589, 1092.207
624.8411, 1105.654
625.3232, 1116.924
625.8053, 1134.902
626.2874, 1159.195
626.7695, 1187.047
627.2516, 1222.694
627.7338, 1256.733
628.2159, 1285.149
628.6980, 1308.414
