##NAMES=Hilgardite
##RRUFFID=R070426
##IDEAL CHEMISTRY=Ca_2_B_5_O_9_Cl&#183;H_2_O
##LOCALITY=Boulby mine, Loftus, Cleveland, England, UK
##OWNER=RRUFF
##SOURCE=Michael Scott
##DESCRIPTION=Pink to orange poorly formed crystals scattered over a pale green boracite matrix, polytype 1A
##STATUS=The identification of this mineral is confirmed by single-crystal X-ray diffraction and chemical analysis.
##URL=rruff.info/R070426
##MEASURED CHEMISTRY=Ca_2.00_B_5_O_9_(Cl_0.95_(OH)_0.05_)_Σ=1_·H_2_O ; = darker. Trace amounts of Na ; OH by difference 1-Cl; gray: Ca_2.00_(B_4.98_Al_0.01_Fe^3+^_0.01_)_Σ=5_O_9_Cl_1.00_·H_2_O; traces of Na; B estimated by 5-Al-Fe; light: boracite
81.49561, 533.0732
81.97772, 533.4377
82.45984, 547.5635
82.94196, 560.3461
83.42407, 562.9005
83.90619, 559.8542
84.38831, 556.9471
84.87042, 555.3931
85.35254, 554.4933
85.83466, 553.5551
86.31677, 553.0658
86.79889, 551.0847
87.28101, 546.6249
87.76312, 540.3730
88.24524, 532.5045
88.72736, 521.3672
89.20947, 509.1545
89.69159, 505.0621
90.17371, 516.1920
90.65582, 526.6622
91.13794, 532.3274
91.62006, 533.5151
92.10217, 530.6192
92.58429, 522.3019
93.06641, 508.4286
93.54852, 502.1835
94.03064, 511.8129
94.51276, 522.1035
94.99487, 530.2338
95.47699, 535.3009
95.95911, 536.5272
96.44122, 531.9278
96.92334, 518.1760
97.40546, 514.3480
97.88757, 532.3156
98.36969, 548.6844
98.85181, 547.5101
99.33392, 529.0314
99.81604, 507.5435
100.2982, 501.3812
100.7803, 520.1367
101.2624, 530.8010
101.7445, 526.6091
102.2266, 518.7615
102.7087, 517.0560
103.1909, 523.8046
103.6730, 533.8240
104.1551, 538.9452
104.6372, 537.9266
105.1193, 534.9974
105.6014, 526.4653
106.0836, 517.3456
106.5657, 515.7264
107.0478, 525.2545
107.5299, 539.6580
108.0120, 545.7969
108.4941, 540.9989
108.9763, 539.8599
109.4584, 550.0056
109.9405, 567.9277
110.4226, 584.4370
110.9047, 596.5397
111.3868, 605.3306
111.8690, 612.6423
112.3511, 617.6779
112.8332, 623.5903
113.3153, 632.0947
113.7974, 643.1298
114.2795, 655.9681
114.7617, 669.9636
115.2438, 686.2542
115.7259, 707.1389
116.2080, 734.6714
116.6901, 761.4848
117.1722, 778.2477
117.6544, 783.4785
118.1365, 791.1169
118.6186, 804.8203
119.1007, 824.4113
119.5828, 852.7300
120.0649, 892.7703
120.5471, 935.2219
121.0292, 961.8091
121.5113, 961.7140
121.9934, 977.1335
122.4755, 1027.496
122.9576, 1095.391
123.4398, 1166.081
123.9219, 1234.280
124.4040, 1301.365
124.8861, 1369.678
125.3682, 1439.215
125.8503, 1511.444
126.3325, 1591.482
126.8146, 1672.480
127.2967, 1746.902
127.7788, 1809.872
128.2609, 1864.499
128.7430, 1920.451
129.2252, 1969.586
129.7073, 2031.531
130.1894, 2111.001
130.6715, 2204.411
131.1536, 2307.490
131.6357, 2418.540
132.1179, 2536.267
132.6000, 2650.461
133.0821, 2759.179
133.5642, 2866.168
134.0463, 2977.668
134.5284, 3087.289
135.0106, 3184.894
135.4927, 3263.187
135.9748, 3322.577
136.4569, 3368.365
136.9390, 3379.948
137.4211, 3400.120
137.9033, 3448.220
138.3854, 3516.087
138.8675, 3582.599
139.3496, 3631.001
139.8317, 3661.036
140.3138, 3708.330
140.7960, 3773.391
141.2781, 3850.443
141.7602, 3929.231
142.2423, 4015.132
142.7244, 4125.157
143.2065, 4272.219
143.6887, 4458.516
144.1708, 4678.946
144.6529, 4940.014
145.1350, 5223.954
145.6171, 5531.053
146.0992, 5856.763
146.5814, 6181.863
147.0635, 6494.818
147.5456, 6792.682
148.0277, 7066.620
148.5098, 7317.859
148.9919, 7544.910
149.4741, 7741.614
149.9562, 7909.984
150.4383, 8065.776
150.9204, 8216.575
151.4025, 8364.502
151.8846, 8529.564
152.3668, 8732.245
152.8489, 8940.715
153.3310, 9118.961
153.8131, 9262.843
154.2952, 9415.239
154.7773, 9615.521
155.2595, 9856.003
155.7416, 10100.19
156.2237, 10351.70
156.7058, 10599.84
157.1879, 10838.11
157.6700, 11068.31
158.1522, 11272.87
158.6343, 11447.28
159.1164, 11585.27
159.5985, 11656.92
160.0806, 11683.39
160.5627, 11628.25
161.0449, 11428.83
161.5270, 11071.20
162.0091, 10618.74
162.4912, 10060.77
162.9733, 9443.339
163.4554, 8835.093
163.9376, 8245.520
164.4197, 7686.865
164.9018, 7183.655
165.3839, 6734.308
165.8660, 6350.481
166.3481, 6053.481
166.8303, 5821.656
167.3124, 5626.698
167.7945, 5458.435
168.2766, 5318.669
168.7587, 5212.920
169.2408, 5146.764
169.7230, 5103.063
170.2051, 5081.271
170.6872, 5072.382
171.1693, 5063.453
171.6514, 5051.411
172.1335, 5034.379
172.6157, 5009.754
173.0978, 4983.323
173.5799, 4935.480
174.0620, 4849.232
174.5441, 4740.217
175.0262, 4631.758
175.5084, 4536.857
175.9905, 4448.254
176.4726, 4342.384
176.9547, 4207.280
177.4368, 4076.646
177.9189, 3959.116
178.4011, 3854.224
178.8832, 3761.775
179.3653, 3680.308
179.8474, 3611.223
180.3295, 3558.168
180.8116, 3524.908
181.2938, 3502.873
181.7759, 3487.367
182.2580, 3479.598
182.7401, 3481.736
183.2222, 3495.469
183.7043, 3518.708
184.1865, 3544.526
184.6686, 3566.556
185.1507, 3603.626
185.6328, 3664.113
186.1149, 3737.972
186.5970, 3815.290
187.0792, 3892.268
187.5613, 3967.755
188.0434, 4040.109
188.5255, 4106.688
189.0076, 4173.624
189.4897, 4234.967
189.9719, 4299.561
190.4540, 4377.854
190.9361, 4474.271
191.4182, 4584.513
191.9003, 4697.077
192.3824, 4805.394
192.8646, 4930.321
193.3467, 5071.584
193.8288, 5229.831
194.3109, 5406.983
194.7930, 5603.898
195.2751, 5817.726
195.7573, 6037.184
196.2394, 6245.960
196.7215, 6498.753
197.2036, 6807.713
197.6857, 7152.271
198.1678, 7505.302
198.6500, 7859.753
199.1321, 8241.624
199.6142, 8700.789
200.0963, 9258.045
200.5784, 9861.911
201.0605, 10528.83
201.5427, 11219.07
202.0248, 11910.07
202.5069, 12594.75
202.9890, 13248.67
203.4711, 13858.01
203.9532, 14510.00
204.4354, 14895.73
204.9175, 15028.29
205.3996, 14925.40
205.8817, 14571.52
206.3638, 13974.85
206.8459, 13192.22
207.3280, 12263.31
207.8102, 11106.10
208.2923, 10029.41
208.7744, 9017.863
209.2565, 8086.009
209.7386, 7247.033
210.2207, 6505.472
210.7029, 5852.760
211.1850, 5282.217
211.6671, 4800.584
212.1492, 4393.619
212.6313, 4088.655
213.1134, 3830.353
213.5956, 3602.990
214.0777, 3401.626
214.5598, 3223.233
215.0419, 3066.725
215.5240, 2934.494
216.0061, 2811.895
216.4883, 2688.030
216.9704, 2583.028
217.4525, 2515.339
217.9346, 2475.362
218.4167, 2434.946
218.8988, 2366.838
219.3810, 2269.416
219.8631, 2203.724
220.3452, 2201.916
220.8273, 2202.372
221.3094, 2188.465
221.7915, 2164.118
222.2737, 2140.015
222.7558, 2123.553
223.2379, 2114.115
223.7200, 2106.611
224.2021, 2107.608
224.6842, 2103.046
225.1664, 2087.546
225.6485, 2065.167
226.1306, 2040.826
226.6127, 2016.710
227.0948, 1994.432
227.5770, 1981.085
228.0591, 1982.664
228.5412, 1985.883
229.0233, 1989.605
229.5054, 1993.194
229.9875, 1994.999
230.4697, 1994.090
230.9518, 1993.455
231.4339, 2001.692
231.9160, 2028.450
232.3981, 2047.214
232.8802, 2049.487
233.3624, 2046.341
233.8445, 2046.604
234.3266, 2053.310
234.8087, 2065.058
235.2908, 2080.823
235.7729, 2105.477
236.2551, 2122.305
236.7372, 2118.543
237.2193, 2115.415
237.7014, 2129.201
238.1835, 2162.034
238.6656, 2201.815
239.1478, 2235.059
239.6299, 2261.821
240.1120, 2281.622
240.5941, 2286.255
241.0762, 2290.606
241.5583, 2300.942
242.0405, 2317.935
242.5226, 2339.338
243.0047, 2361.012
243.4868, 2381.875
243.9689, 2416.991
244.4510, 2476.641
244.9332, 2542.550
245.4153, 2608.995
245.8974, 2676.333
246.3795, 2746.433
246.8616, 2821.219
247.3437, 2900.703
247.8259, 2982.552
248.3080, 3083.975
248.7901, 3163.052
249.2722, 3206.504
249.7543, 3220.798
250.2364, 3216.872
250.7186, 3201.294
251.2007, 3170.566
251.6828, 3112.882
252.1649, 3019.586
252.6470, 2914.956
253.1291, 2796.653
253.6113, 2676.831
254.0934, 2567.916
254.5755, 2474.114
255.0576, 2393.949
255.5397, 2325.747
256.0219, 2271.127
256.5040, 2223.223
256.9861, 2181.655
257.4682, 2145.508
257.9503, 2116.969
258.4324, 2096.915
258.9146, 2075.354
259.3967, 2038.186
259.8788, 1984.330
260.3609, 1938.928
260.8430, 1912.583
261.3251, 1890.917
261.8073, 1864.390
262.2894, 1832.582
262.7715, 1797.647
263.2536, 1755.469
263.7357, 1709.107
264.2178, 1677.769
264.7000, 1668.073
265.1821, 1667.273
265.6642, 1668.300
266.1463, 1670.272
266.6284, 1670.067
267.1105, 1663.897
267.5927, 1654.971
268.0748, 1649.634
268.5569, 1647.893
269.0390, 1650.198
269.5211, 1660.333
270.0032, 1674.502
270.4854, 1686.350
270.9675, 1692.548
271.4496, 1697.143
271.9317, 1702.845
272.4138, 1709.541
272.8959, 1723.133
273.3781, 1752.430
273.8602, 1787.795
274.3423, 1810.949
274.8244, 1818.084
275.3065, 1818.379
275.7886, 1818.663
276.2708, 1817.537
276.7529, 1808.831
277.2350, 1789.420
277.7171, 1762.380
278.1992, 1731.489
278.6813, 1695.482
279.1635, 1662.305
279.6456, 1632.269
280.1277, 1607.569
280.6098, 1594.539
281.0919, 1595.833
281.5740, 1600.867
282.0562, 1598.451
282.5383, 1588.616
283.0204, 1571.128
283.5025, 1533.450
283.9846, 1495.995
284.4667, 1480.418
284.9489, 1487.112
285.4310, 1496.847
285.9131, 1493.743
286.3952, 1477.996
286.8773, 1468.197
287.3594, 1469.272
287.8416, 1470.922
288.3237, 1467.746
288.8058, 1461.031
289.2879, 1454.459
289.7700, 1449.843
290.2521, 1447.269
290.7343, 1447.360
291.2164, 1450.495
291.6985, 1455.579
292.1806, 1464.095
292.6627, 1473.904
293.1448, 1483.038
293.6270, 1490.740
294.1091, 1496.164
294.5912, 1498.084
295.0733, 1498.720
295.5554, 1490.420
296.0375, 1461.764
296.5197, 1433.113
297.0018, 1419.975
297.4839, 1423.176
297.9660, 1433.218
298.4481, 1441.359
298.9302, 1448.274
299.4124, 1448.241
299.8945, 1437.456
300.3766, 1423.787
300.8587, 1405.558
301.3408, 1386.531
301.8229, 1373.581
302.3051, 1371.502
302.7872, 1378.803
303.2693, 1388.655
303.7514, 1407.718
304.2335, 1418.935
304.7156, 1412.034
305.1978, 1399.344
305.6799, 1393.728
306.1620, 1399.960
306.6441, 1414.206
307.1262, 1432.498
307.6083, 1457.765
308.0905, 1475.832
308.5726, 1473.476
309.0547, 1441.270
309.5368, 1498.713
310.0189, 1542.135
310.5010, 1572.406
310.9832, 1543.881
311.4653, 1596.062
311.9474, 1618.820
312.4295, 1642.375
312.9116, 1711.880
313.3937, 1702.642
313.8759, 1775.633
314.3580, 1818.718
314.8401, 1878.526
315.3222, 1908.723
315.8043, 1950.795
316.2864, 2026.669
316.7686, 2087.078
317.2507, 2188.040
317.7328, 2323.738
318.2149, 2414.096
318.6970, 2432.628
319.1791, 2441.589
319.6613, 2489.452
320.1434, 2567.947
320.6255, 2645.610
321.1076, 2720.728
321.5897, 2775.452
322.0718, 2777.116
322.5540, 2724.296
323.0361, 2652.619
323.5182, 2551.740
324.0003, 2445.916
324.4824, 2366.394
324.9645, 2318.100
325.4467, 2288.610
325.9288, 2265.617
326.4109, 2249.578
326.8930, 2253.644
327.3751, 2292.340
327.8572, 2336.943
328.3394, 2372.418
328.8214, 2400.351
329.3036, 2426.866
329.7857, 2454.612
330.2678, 2485.648
330.7499, 2528.511
331.2320, 2596.249
331.7141, 2659.992
332.1963, 2711.597
332.6784, 2760.316
333.1605, 2814.770
333.6426, 2877.875
334.1247, 2949.617
334.6068, 3030.944
335.0890, 3123.494
335.5711, 3220.930
336.0532, 3329.597
336.5353, 3436.776
337.0174, 3538.328
337.4995, 3632.346
337.9817, 3717.847
338.4638, 3795.156
338.9459, 3863.045
339.4280, 3910.310
339.9101, 3933.291
340.3922, 3938.276
340.8744, 3929.789
341.3565, 3906.162
341.8386, 3864.698
342.3207, 3803.730
342.8028, 3727.401
343.2849, 3635.602
343.7671, 3524.064
344.2492, 3426.416
344.7313, 3351.277
345.2134, 3293.487
345.6955, 3249.541
346.1776, 3219.002
346.6598, 3197.692
347.1419, 3180.561
347.6240, 3170.620
348.1061, 3176.715
348.5882, 3200.863
349.0703, 3237.739
349.5525, 3285.680
350.0346, 3343.488
350.5167, 3409.063
350.9988, 3474.457
351.4809, 3553.888
351.9630, 3667.513
352.4452, 3809.403
352.9273, 3949.659
353.4094, 4075.833
353.8915, 4189.813
354.3736, 4295.780
354.8557, 4394.483
355.3379, 4485.458
355.8200, 4580.215
356.3021, 4661.797
356.7842, 4712.434
357.2663, 4727.753
357.7484, 4705.535
358.2306, 4643.313
358.7127, 4539.281
359.1948, 4396.786
359.6769, 4192.369
360.1590, 3979.711
360.6411, 3779.581
361.1233, 3590.207
361.6054, 3401.295
362.0875, 3204.745
362.5696, 3007.522
363.0517, 2833.705
363.5338, 2689.359
364.0160, 2561.328
364.4981, 2443.418
364.9802, 2341.638
365.4623, 2265.378
365.9444, 2215.133
366.4265, 2175.353
366.9087, 2127.874
367.3908, 2071.209
367.8729, 2025.971
368.3550, 1996.998
368.8371, 1975.412
369.3192, 1957.779
369.8014, 1943.216
370.2835, 1930.271
370.7656, 1919.988
371.2477, 1909.498
371.7298, 1890.538
372.2119, 1861.266
372.6941, 1842.073
373.1762, 1848.306
373.6583, 1865.878
374.1404, 1873.688
374.6225, 1870.256
375.1046, 1860.192
375.5868, 1848.078
376.0689, 1830.672
376.5510, 1798.516
377.0331, 1748.250
377.5152, 1694.223
377.9973, 1650.464
378.4795, 1618.376
378.9616, 1588.155
379.4437, 1562.109
379.9258, 1535.857
380.4079, 1506.055
380.8900, 1473.937
381.3722, 1443.053
381.8543, 1415.079
382.3364, 1390.464
382.8185, 1370.130
383.3006, 1352.078
383.7827, 1342.101
384.2649, 1349.503
384.7470, 1358.936
385.2291, 1355.716
385.7112, 1338.931
386.1933, 1320.632
386.6754, 1315.070
387.1576, 1323.453
387.6397, 1321.107
388.1218, 1291.055
388.6039, 1270.092
389.0860, 1277.951
389.5681, 1300.565
390.0503, 1315.075
390.5324, 1310.634
391.0145, 1297.585
391.4966, 1292.964
391.9787, 1297.981
392.4608, 1299.509
392.9430, 1288.446
393.4251, 1277.936
393.9072, 1282.877
394.3893, 1303.172
394.8714, 1320.122
395.3535, 1319.938
395.8357, 1312.161
396.3178, 1314.701
396.7999, 1329.736
397.2820, 1342.770
397.7641, 1342.037
398.2462, 1330.628
398.7284, 1326.226
399.2105, 1333.874
399.6926, 1342.713
400.1747, 1350.218
400.6568, 1355.773
401.1389, 1356.886
401.6211, 1352.706
402.1032, 1348.555
402.5853, 1352.666
403.0674, 1368.565
403.5495, 1382.263
404.0316, 1393.068
404.5138, 1402.781
404.9959, 1410.302
405.4780, 1417.505
405.9601, 1428.455
406.4422, 1446.019
406.9243, 1468.530
407.4065, 1490.607
407.8886, 1515.070
408.3707, 1532.941
408.8528, 1535.886
409.3349, 1536.563
409.8170, 1545.505
410.2992, 1564.079
410.7813, 1585.057
411.2634, 1604.551
411.7455, 1621.820
412.2276, 1632.044
412.7097, 1633.938
413.1919, 1631.005
413.6740, 1619.730
414.1561, 1605.689
414.6382, 1601.311
415.1203, 1614.513
415.6024, 1631.068
416.0846, 1639.300
416.5667, 1642.226
417.0488, 1649.675
417.5309, 1665.477
418.0130, 1684.957
418.4951, 1700.053
418.9773, 1706.460
419.4594, 1724.318
419.9415, 1764.985
420.4236, 1808.452
420.9057, 1839.316
421.3878, 1860.548
421.8700, 1885.211
422.3521, 1922.199
422.8342, 1968.659
423.3163, 2011.672
423.7984, 2044.307
424.2805, 2084.893
424.7627, 2134.396
425.2448, 2192.370
425.7269, 2258.994
426.2090, 2334.119
426.6911, 2415.418
427.1732, 2499.895
427.6554, 2588.540
428.1375, 2684.246
428.6196, 2783.768
429.1017, 2896.786
429.5838, 3031.136
430.0659, 3181.515
430.5481, 3343.563
431.0302, 3523.786
431.5123, 3699.302
431.9944, 3855.620
432.4765, 3992.256
432.9586, 4109.711
433.4408, 4210.477
433.9229, 4284.325
434.4050, 4321.366
434.8871, 4320.671
435.3692, 4271.749
435.8513, 4139.451
436.3335, 3989.555
436.8156, 3859.580
437.2977, 3745.176
437.7798, 3623.090
438.2619, 3480.021
438.7440, 3332.171
439.2262, 3222.531
439.7083, 3172.789
440.1904, 3124.822
440.6725, 3073.351
441.1546, 3025.628
441.6367, 2984.494
442.1189, 2951.155
442.6010, 2926.714
443.0831, 2911.620
443.5652, 2906.438
444.0473, 2917.195
444.5294, 2952.832
445.0116, 2979.319
445.4937, 2975.163
445.9758, 2959.711
446.4579, 2949.244
446.9400, 2945.265
447.4221, 2950.367
447.9043, 2971.754
448.3864, 3002.312
448.8685, 3022.637
449.3506, 3028.813
449.8327, 3045.135
450.3148, 3091.815
450.7970, 3167.373
451.2791, 3246.558
451.7612, 3319.604
452.2433, 3407.036
452.7254, 3522.531
453.2076, 3653.788
453.6897, 3779.743
454.1718, 3895.397
454.6539, 4017.430
455.1360, 4169.172
455.6181, 4356.001
456.1003, 4540.866
456.5824, 4708.962
457.0645, 4889.134
457.5466, 5089.236
458.0287, 5307.586
458.5108, 5540.678
458.9930, 5787.593
459.4751, 6047.929
459.9572, 6323.492
460.4393, 6613.263
460.9214, 6920.603
461.4035, 7264.102
461.8857, 7600.534
462.3678, 7907.529
462.8499, 8182.247
463.3320, 8400.845
463.8141, 8560.124
464.2962, 8659.329
464.7784, 8704.720
465.2605, 8690.765
465.7426, 8592.762
466.2247, 8397.170
466.7068, 8122.260
467.1889, 7805.893
467.6711, 7439.722
468.1532, 7041.134
468.6353, 6575.511
469.1174, 6107.524
469.5995, 5669.506
470.0816, 5266.342
470.5638, 4900.804
471.0459, 4571.926
471.5280, 4282.691
472.0101, 4039.794
472.4922, 3858.997
472.9743, 3685.967
473.4565, 3497.490
473.9386, 3323.509
474.4207, 3188.785
474.9028, 3092.162
475.3849, 3007.013
475.8670, 2913.200
476.3492, 2823.235
476.8313, 2758.919
477.3134, 2721.011
477.7955, 2698.328
478.2776, 2688.048
478.7597, 2687.360
479.2419, 2688.935
479.7240, 2688.358
480.2061, 2699.684
480.6882, 2730.574
481.1703, 2771.160
481.6524, 2814.651
482.1346, 2859.390
482.6167, 2905.738
483.0988, 2956.206
483.5809, 3006.476
484.0630, 3034.428
484.5451, 3044.741
485.0273, 3022.062
485.5094, 2957.888
485.9915, 2869.223
486.4736, 2763.892
486.9557, 2645.342
487.4378, 2524.722
487.9200, 2407.005
488.4021, 2293.935
488.8842, 2191.982
489.3663, 2102.552
489.8484, 2016.349
490.3305, 1922.699
490.8127, 1833.714
491.2948, 1774.091
491.7769, 1753.120
492.2590, 1733.607
492.7411, 1702.937
493.2232, 1667.569
493.7054, 1632.923
494.1875, 1600.580
494.6696, 1572.560
495.1517, 1550.460
495.6338, 1534.065
496.1159, 1521.451
496.5981, 1513.107
497.0802, 1508.366
497.5623, 1512.546
498.0444, 1516.402
498.5265, 1512.146
499.0086, 1499.139
499.4908, 1481.952
499.9729, 1461.342
500.4550, 1439.643
500.9371, 1427.741
501.4192, 1428.339
501.9013, 1426.973
502.3835, 1413.774
502.8656, 1397.144
503.3477, 1391.684
503.8298, 1401.178
504.3119, 1406.907
504.7940, 1395.546
505.2762, 1380.365
505.7583, 1378.569
506.2404, 1389.957
506.7225, 1401.820
507.2046, 1405.647
507.6867, 1403.273
508.1689, 1402.798
508.6510, 1408.807
509.1331, 1409.795
509.6152, 1396.832
510.0973, 1385.252
510.5794, 1389.466
511.0616, 1407.315
511.5437, 1423.438
512.0258, 1424.817
512.5079, 1417.811
512.9901, 1420.178
513.4722, 1433.077
513.9543, 1448.765
514.4364, 1467.951
514.9185, 1485.642
515.4006, 1494.467
515.8828, 1493.668
516.3649, 1494.426
516.8470, 1498.091
517.3291, 1506.262
517.8112, 1524.161
518.2933, 1548.828
518.7755, 1568.074
519.2576, 1574.514
519.7397, 1575.506
520.2218, 1589.534
520.7039, 1629.714
521.1860, 1657.852
521.6682, 1664.418
522.1503, 1669.299
522.6324, 1681.709
523.1145, 1701.403
523.5966, 1724.978
524.0787, 1751.107
524.5609, 1779.429
525.0430, 1807.325
525.5251, 1834.859
526.0072, 1874.653
526.4893, 1938.184
526.9714, 2001.144
527.4536, 2032.883
527.9357, 2037.474
528.4178, 2046.144
528.8999, 2072.102
529.3820, 2094.507
529.8641, 2108.389
530.3463, 2108.475
530.8284, 2084.830
531.3105, 2034.093
531.7926, 1962.002
532.2747, 1873.858
532.7568, 1765.650
533.2390, 1664.077
533.7211, 1562.026
534.2032, 1475.343
534.6853, 1410.042
535.1674, 1362.243
535.6495, 1327.834
536.1317, 1306.206
536.6138, 1291.196
537.0959, 1280.350
537.5780, 1271.650
538.0601, 1256.947
538.5422, 1234.323
539.0244, 1213.730
539.5065, 1202.379
539.9886, 1199.066
540.4707, 1197.544
540.9528, 1198.713
541.4349, 1200.199
541.9171, 1201.899
542.3992, 1203.459
542.8813, 1204.118
543.3634, 1204.118
543.8455, 1204.736
544.3276, 1206.907
544.8098, 1210.596
545.2919, 1216.520
545.7740, 1227.181
546.2561, 1233.067
546.7382, 1222.898
547.2203, 1213.779
547.7025, 1222.197
548.1846, 1246.867
548.6667, 1267.685
549.1488, 1270.335
549.6309, 1268.585
550.1130, 1277.353
550.5952, 1295.279
551.0773, 1315.352
551.5594, 1335.248
552.0415, 1354.625
552.5236, 1373.109
553.0057, 1391.035
553.4879, 1407.027
553.9700, 1416.521
554.4521, 1429.295
554.9342, 1446.908
555.4163, 1471.125
555.8984, 1504.779
556.3806, 1549.168
556.8627, 1600.025
557.3448, 1651.885
557.8269, 1705.349
558.3090, 1764.211
558.7911, 1827.048
559.2733, 1901.110
559.7554, 1994.085
560.2375, 2102.472
560.7196, 2211.692
561.2017, 2322.282
561.6838, 2433.089
562.1660, 2542.182
562.6481, 2652.191
563.1302, 2761.449
563.6123, 2873.318
564.0944, 3001.065
564.5765, 3156.501
565.0587, 3334.814
565.5408, 3518.246
566.0229, 3702.316
566.5050, 3902.291
566.9871, 4099.715
567.4692, 4334.058
567.9514, 4639.130
568.4335, 5007.283
568.9156, 5398.358
569.3977, 5806.286
569.8798, 6222.354
570.3619, 6654.906
570.8441, 7092.513
571.3262, 7513.253
