##NAMES=Hilgardite
##RRUFFID=R070426
##IDEAL CHEMISTRY=Ca_2_B_5_O_9_Cl&#183;H_2_O
##LOCALITY=Boulby mine, Loftus, Cleveland, England, UK
##OWNER=RRUFF
##SOURCE=Michael Scott
##DESCRIPTION=Pink to orange poorly formed crystals scattered over a pale green boracite matrix, polytype 1A
##STATUS=The identification of this mineral is confirmed by single-crystal X-ray diffraction and chemical analysis.
##URL=rruff.info/R070426
##MEASURED CHEMISTRY=Ca_2.00_B_5_O_9_(Cl_0.95_(OH)_0.05_)_Σ=1_·H_2_O ; = darker. Trace amounts of Na ; OH by difference 1-Cl; gray: Ca_2.00_(B_4.98_Al_0.01_Fe^3+^_0.01_)_Σ=5_O_9_Cl_1.00_·H_2_O; traces of Na; B estimated by 5-Al-Fe; light: boracite
105.0859, 0.0000000E+00
105.5681, 1418.243
106.0502, 1427.994
106.5323, 1445.640
107.0144, 1449.448
107.4965, 1429.293
107.9786, 1366.719
108.4608, 1311.471
108.9429, 1265.381
109.4250, 1227.220
109.9071, 1192.431
110.3892, 1156.041
110.8713, 1126.255
111.3535, 1107.800
111.8356, 1113.908
112.3177, 1117.862
112.7998, 1114.092
113.2819, 1101.983
113.7640, 1094.995
114.2462, 1094.102
114.7283, 1099.553
115.2104, 1111.659
115.6925, 1144.579
116.1746, 1172.575
116.6567, 1183.529
117.1389, 1171.012
117.6210, 1160.304
118.1031, 1160.188
118.5852, 1168.037
119.0673, 1178.662
119.5494, 1188.883
120.0316, 1201.688
120.5137, 1219.824
120.9958, 1247.238
121.4779, 1275.076
121.9600, 1295.117
122.4421, 1309.550
122.9243, 1328.728
123.4064, 1364.002
123.8885, 1406.427
124.3706, 1444.793
124.8527, 1463.702
125.3348, 1483.922
125.8170, 1532.571
126.2991, 1610.101
126.7812, 1688.321
127.2633, 1739.178
127.7454, 1770.764
128.2276, 1803.913
128.7097, 1845.499
129.1918, 1895.706
129.6739, 1956.933
130.1560, 2031.101
130.6381, 2109.988
131.1203, 2181.463
131.6024, 2245.904
132.0845, 2313.615
132.5666, 2388.704
133.0487, 2471.412
133.5308, 2563.032
134.0130, 2667.475
134.4951, 2777.149
134.9772, 2875.869
135.4593, 2962.618
135.9414, 3046.520
136.4235, 3134.021
136.9057, 3224.821
137.3878, 3315.705
137.8699, 3403.000
138.3520, 3488.309
138.8341, 3592.422
139.3162, 3720.748
139.7984, 3857.296
140.2805, 3986.789
140.7626, 4105.541
141.2447, 4221.453
141.7268, 4333.539
142.2089, 4438.000
142.6911, 4560.687
143.1732, 4704.269
143.6553, 4862.793
144.1374, 5027.463
144.6195, 5206.381
145.1016, 5375.941
145.5838, 5527.248
146.0659, 5664.269
146.5480, 5777.210
147.0301, 5863.407
147.5122, 5925.248
147.9943, 5975.469
148.4765, 6015.750
148.9586, 6042.197
149.4407, 6050.572
149.9228, 5984.860
150.4049, 5974.212
150.8870, 6044.189
151.3692, 6193.479
151.8513, 6341.281
152.3334, 6459.556
152.8155, 6589.213
153.2976, 6763.720
153.7797, 7012.740
154.2619, 7276.015
154.7440, 7554.053
155.2261, 7850.804
155.7082, 8126.868
156.1903, 8381.859
156.6724, 8614.563
157.1546, 8816.406
157.6367, 8991.700
158.1188, 9133.613
158.6009, 9244.312
159.0830, 9335.354
159.5651, 9365.988
160.0473, 9361.909
160.5294, 9289.409
161.0115, 9084.875
161.4936, 8653.195
161.9757, 8135.034
162.4578, 7597.487
162.9400, 7020.167
163.4221, 6481.305
163.9042, 6013.073
164.3863, 5611.044
164.8684, 5258.915
165.3506, 4952.174
165.8327, 4694.568
166.3148, 4491.683
166.7969, 4367.878
167.2790, 4276.229
167.7611, 4194.851
168.2433, 4123.868
168.7254, 4067.123
169.2075, 4022.288
169.6896, 3993.925
170.1717, 3987.773
170.6538, 4037.217
171.1360, 4089.308
171.6181, 4099.791
172.1002, 4066.944
172.5823, 4023.016
173.0644, 3990.642
173.5465, 3963.562
174.0287, 3929.909
174.5108, 3890.771
174.9929, 3839.525
175.4750, 3763.626
175.9571, 3659.021
176.4392, 3548.330
176.9214, 3449.087
177.4035, 3361.230
177.8856, 3283.129
178.3677, 3213.280
178.8498, 3153.242
179.3319, 3104.030
179.8141, 3065.498
180.2962, 3038.444
180.7783, 3030.588
181.2604, 3038.333
181.7425, 3041.879
182.2246, 3018.530
182.7068, 2981.488
183.1889, 2962.284
183.6710, 2970.663
184.1531, 2993.861
184.6352, 3012.070
185.1173, 3025.787
185.5995, 3041.175
186.0816, 3060.875
186.5637, 3085.615
187.0458, 3119.409
187.5279, 3165.501
188.0100, 3219.573
188.4922, 3267.960
188.9743, 3310.319
189.4564, 3358.569
189.9385, 3426.506
190.4206, 3512.265
190.9027, 3601.120
191.3849, 3689.115
191.8670, 3777.292
192.3491, 3868.581
192.8312, 3962.720
193.3133, 4065.604
193.7954, 4181.546
194.2776, 4310.688
194.7597, 4459.716
195.2418, 4629.080
195.7239, 4818.660
196.2060, 5040.321
196.6881, 5298.040
197.1703, 5574.815
197.6524, 5840.334
198.1345, 6088.495
198.6166, 6363.867
199.0987, 6687.697
199.5808, 7060.021
200.0630, 7447.967
200.5451, 7855.482
201.0272, 8269.828
201.5093, 8679.227
201.9914, 9085.833
202.4735, 9471.805
202.9557, 9863.036
203.4378, 10272.66
203.9199, 10535.22
204.4020, 10650.18
204.8841, 10607.06
205.3663, 10360.69
205.8484, 9882.719
206.3305, 9292.604
206.8126, 8627.711
207.2947, 7869.825
207.7768, 7146.907
208.2590, 6461.896
208.7411, 5822.354
209.2232, 5256.283
209.7053, 4764.653
210.1874, 4339.362
210.6695, 3965.039
211.1517, 3640.122
211.6338, 3376.001
212.1159, 3186.507
212.5980, 3060.633
213.0801, 2933.493
213.5622, 2802.943
214.0444, 2677.235
214.5265, 2563.799
215.0086, 2460.801
215.4907, 2373.131
215.9728, 2302.349
216.4549, 2247.835
216.9371, 2201.823
217.4192, 2166.319
217.9013, 2136.967
218.3834, 2109.745
218.8655, 2083.136
219.3476, 2063.525
219.8298, 2055.931
220.3119, 2060.635
220.7940, 2050.281
221.2761, 2013.608
221.7582, 1974.814
222.2403, 1964.424
222.7225, 2001.334
223.2046, 2023.057
223.6867, 2008.546
224.1688, 1952.678
224.6509, 1918.745
225.1330, 1913.958
225.6152, 1923.971
226.0973, 1931.633
226.5794, 1938.398
227.0615, 1939.640
227.5436, 1933.158
228.0257, 1917.556
228.5079, 1902.223
228.9900, 1887.342
229.4721, 1872.425
229.9542, 1855.249
230.4363, 1829.612
230.9184, 1813.234
231.4006, 1814.134
231.8827, 1838.402
232.3648, 1853.826
232.8469, 1855.755
233.3290, 1851.698
233.8111, 1855.502
234.2933, 1873.682
234.7754, 1888.748
235.2575, 1892.409
235.7396, 1876.889
236.2217, 1876.019
236.7038, 1897.350
237.1860, 1929.901
237.6681, 1950.692
238.1502, 1949.985
238.6323, 1952.856
239.1144, 1969.317
239.5965, 2004.165
240.0787, 2039.356
240.5608, 2073.072
241.0429, 2107.801
241.5250, 2149.817
242.0071, 2203.615
242.4892, 2258.090
242.9714, 2306.661
243.4535, 2342.925
243.9356, 2390.133
244.4177, 2449.302
244.8998, 2519.164
245.3819, 2598.744
245.8641, 2699.623
246.3462, 2793.500
246.8283, 2865.737
247.3104, 2906.965
247.7925, 2949.046
248.2747, 2997.363
248.7568, 3045.682
249.2389, 3077.355
249.7210, 3094.805
250.2031, 3091.928
250.6852, 3063.987
251.1674, 3003.975
251.6495, 2936.263
252.1316, 2863.432
252.6137, 2783.438
253.0958, 2687.316
253.5779, 2560.113
254.0601, 2439.577
254.5422, 2347.722
255.0243, 2295.204
255.5064, 2244.069
255.9885, 2189.929
256.4706, 2136.772
256.9528, 2097.899
257.4349, 2080.637
257.9170, 2065.489
258.3991, 2041.415
258.8812, 2005.067
259.3633, 1968.799
259.8455, 1930.001
260.3276, 1892.019
260.8097, 1868.879
261.2918, 1867.063
261.7739, 1867.855
262.2560, 1859.368
262.7382, 1835.970
263.2203, 1820.431
263.7024, 1815.750
264.1845, 1819.308
264.6666, 1822.546
265.1487, 1826.290
265.6309, 1827.945
266.1130, 1824.455
266.5951, 1812.618
267.0772, 1806.942
267.5593, 1808.147
268.0414, 1816.223
268.5236, 1833.613
269.0057, 1865.816
269.4878, 1894.425
269.9699, 1905.002
270.4520, 1891.023
270.9341, 1889.238
271.4163, 1905.096
271.8984, 1933.854
272.3805, 1962.445
272.8626, 1992.476
273.3447, 2018.400
273.8268, 2034.890
274.3090, 2039.944
274.7911, 2051.037
275.2732, 2074.860
275.7553, 2101.849
276.2374, 2102.184
276.7195, 2070.421
277.2017, 2033.070
277.6838, 2005.911
278.1659, 1989.635
278.6480, 1974.532
279.1301, 1958.635
279.6122, 1944.537
280.0944, 1939.912
280.5765, 1946.461
281.0586, 1953.040
281.5407, 1949.175
282.0228, 1934.695
282.5049, 1934.351
282.9871, 1954.949
283.4692, 1984.845
283.9513, 1999.515
284.4334, 1998.191
284.9155, 1990.604
285.3976, 1978.569
285.8798, 1962.976
286.3619, 1957.298
286.8440, 1965.452
287.3261, 1979.345
287.8082, 1982.916
288.2903, 1976.068
288.7725, 1969.310
289.2546, 1969.802
289.7367, 1976.213
290.2188, 1984.274
290.7009, 1997.953
291.1830, 2003.093
291.6652, 1974.993
292.1473, 1914.595
292.6294, 1838.999
293.1115, 1747.279
293.5936, 1646.190
294.0757, 1558.287
294.5579, 1484.786
295.0400, 1425.759
295.5221, 1383.727
296.0042, 1357.009
296.4863, 1338.003
296.9684, 1323.190
297.4506, 1312.828
297.9327, 1309.096
298.4148, 1313.211
298.8969, 1318.988
299.3790, 1318.577
299.8611, 1313.384
300.3433, 1308.182
300.8254, 1305.711
301.3075, 1304.746
301.7896, 1302.943
302.2717, 1299.885
302.7538, 1297.783
303.2360, 1300.710
303.7181, 1306.461
304.2002, 1309.727
304.6823, 1304.591
305.1644, 1297.112
305.6465, 1293.716
306.1287, 1294.600
306.6108, 1300.410
307.0929, 1315.500
307.5750, 1335.555
308.0572, 1353.293
308.5393, 1365.939
309.0214, 1374.384
309.5035, 1378.452
309.9856, 1378.031
310.4677, 1376.769
310.9499, 1371.179
311.4320, 1367.602
311.9141, 1374.607
312.3962, 1408.860
312.8783, 1444.603
313.3604, 1463.786
313.8426, 1466.605
314.3247, 1467.727
314.8068, 1468.712
315.2889, 1474.288
315.7710, 1489.319
316.2531, 1523.510
316.7353, 1560.415
317.2174, 1593.815
317.6995, 1623.705
318.1816, 1651.047
318.6637, 1669.382
319.1458, 1688.793
319.6280, 1717.375
320.1101, 1778.100
320.5922, 1826.965
321.0743, 1847.876
321.5564, 1844.421
322.0385, 1836.850
322.5207, 1833.468
323.0028, 1825.593
323.4849, 1807.653
323.9670, 1758.302
324.4491, 1723.191
324.9312, 1718.707
325.4134, 1736.208
325.8955, 1743.175
326.3776, 1718.855
326.8597, 1695.789
327.3418, 1689.147
327.8239, 1710.956
328.3061, 1733.696
328.7882, 1759.074
329.2703, 1785.098
329.7524, 1806.264
330.2345, 1808.532
330.7166, 1819.734
331.1988, 1852.410
331.6809, 1919.804
332.1630, 1975.796
332.6451, 2009.198
333.1272, 2035.428
333.6093, 2084.271
334.0915, 2172.689
334.5736, 2257.563
335.0557, 2322.188
335.5378, 2358.873
336.0199, 2410.896
336.5020, 2485.466
336.9842, 2568.805
337.4663, 2645.177
337.9484, 2717.702
338.4305, 2774.982
338.9126, 2813.261
339.3947, 2832.248
339.8769, 2841.755
340.3590, 2841.568
340.8411, 2832.526
341.3232, 2816.095
341.8053, 2792.905
342.2874, 2757.553
342.7696, 2704.148
343.2517, 2637.027
343.7338, 2582.101
344.2159, 2538.639
344.6980, 2506.922
345.1801, 2488.678
345.6623, 2483.521
346.1444, 2483.582
346.6265, 2487.395
347.1086, 2495.324
347.5907, 2505.503
348.0728, 2517.804
348.5550, 2542.193
349.0371, 2593.371
349.5192, 2663.345
350.0013, 2725.901
350.4834, 2772.600
350.9655, 2817.502
351.4477, 2877.364
351.9298, 2952.281
352.4119, 3039.149
352.8940, 3141.823
353.3761, 3254.146
353.8582, 3366.913
354.3404, 3481.246
354.8225, 3587.318
355.3046, 3677.168
355.7867, 3751.566
356.2688, 3812.354
356.7509, 3878.120
357.2331, 3920.480
357.7152, 3906.865
358.1973, 3831.438
358.6794, 3735.608
359.1615, 3642.302
359.6436, 3545.857
360.1258, 3438.346
360.6079, 3300.048
361.0900, 3163.600
361.5721, 3041.891
362.0542, 2935.638
362.5363, 2851.486
363.0185, 2800.648
363.5006, 2769.055
363.9827, 2744.582
364.4648, 2718.893
364.9469, 2704.943
365.4290, 2712.307
365.9112, 2737.752
366.3933, 2758.636
366.8754, 2765.095
367.3575, 2769.578
367.8396, 2779.039
368.3217, 2796.470
368.8039, 2816.059
369.2860, 2838.874
369.7681, 2863.710
370.2502, 2887.688
370.7323, 2914.033
371.2144, 2936.343
371.6966, 2951.563
372.1787, 2956.683
372.6608, 2961.853
373.1429, 2965.384
373.6250, 2969.882
374.1071, 2982.300
374.5893, 3013.138
375.0714, 3030.351
375.5535, 3018.991
376.0356, 2976.466
376.5177, 2946.912
376.9998, 2933.186
377.4820, 2928.004
377.9641, 2924.077
378.4462, 2921.469
378.9283, 2919.876
379.4104, 2920.772
379.8925, 2922.505
380.3747, 2916.497
380.8568, 2901.849
381.3389, 2884.717
381.8210, 2872.734
382.3031, 2864.460
382.7852, 2845.864
383.2674, 2811.765
383.7495, 2769.880
384.2316, 2736.024
384.7137, 2709.103
385.1958, 2682.945
385.6779, 2658.885
386.1601, 2631.925
386.6422, 2588.651
387.1243, 2522.657
387.6064, 2455.626
388.0885, 2411.372
388.5706, 2383.482
389.0528, 2356.533
389.5349, 2326.380
390.0170, 2291.509
390.4991, 2247.621
390.9813, 2194.058
391.4634, 2141.651
391.9455, 2097.484
392.4276, 2058.602
392.9097, 2021.248
393.3918, 1989.614
393.8740, 1954.388
394.3561, 1904.218
394.8382, 1841.986
395.3203, 1792.490
395.8024, 1769.942
396.2845, 1760.709
396.7667, 1755.818
397.2488, 1757.253
397.7309, 1758.340
398.2130, 1755.834
398.6951, 1751.784
399.1772, 1752.649
399.6594, 1764.450
400.1415, 1776.667
400.6236, 1785.324
401.1057, 1788.543
401.5878, 1792.742
402.0699, 1799.560
402.5521, 1806.559
403.0342, 1810.352
403.5163, 1811.319
403.9984, 1808.185
404.4805, 1799.004
404.9626, 1783.689
405.4448, 1772.047
405.9269, 1762.973
406.4090, 1759.603
406.8911, 1767.273
407.3732, 1788.140
407.8553, 1805.278
408.3375, 1813.826
408.8196, 1817.631
409.3017, 1830.609
409.7838, 1853.789
410.2659, 1874.633
410.7480, 1882.303
411.2302, 1879.308
411.7123, 1877.993
412.1944, 1879.989
412.6765, 1883.177
413.1586, 1883.599
413.6407, 1882.282
414.1229, 1883.663
414.6050, 1893.942
415.0871, 1906.870
415.5692, 1909.683
416.0513, 1901.316
416.5334, 1897.608
417.0156, 1916.874
417.4977, 1947.690
417.9798, 1972.628
418.4619, 1976.460
418.9440, 1980.392
419.4261, 2000.955
419.9083, 2034.975
420.3904, 2065.918
420.8725, 2078.506
421.3546, 2089.867
421.8367, 2112.339
422.3188, 2153.960
422.8010, 2197.103
423.2831, 2238.832
423.7652, 2279.111
424.2473, 2318.999
424.7294, 2351.202
425.2115, 2390.154
425.6937, 2442.901
426.1758, 2513.647
426.6579, 2580.656
427.1400, 2640.636
427.6221, 2699.645
428.1042, 2764.636
428.5864, 2835.596
429.0685, 2912.495
429.5506, 2996.493
430.0327, 3086.166
430.5148, 3173.054
430.9969, 3253.676
431.4791, 3339.077
431.9612, 3444.056
432.4433, 3571.613
432.9254, 3670.680
433.4075, 3734.177
433.8896, 3769.593
434.3718, 3791.639
434.8539, 3800.043
435.3360, 3785.264
435.8181, 3733.014
436.3002, 3654.689
436.7823, 3577.602
437.2645, 3502.068
437.7466, 3433.823
438.2287, 3377.935
438.7108, 3333.571
439.1929, 3299.177
439.6750, 3279.092
440.1572, 3264.448
440.6393, 3247.207
441.1214, 3228.021
441.6035, 3210.115
442.0856, 3193.060
442.5677, 3179.421
443.0499, 3172.558
443.5320, 3177.352
444.0141, 3178.522
444.4962, 3168.111
444.9783, 3150.437
445.4604, 3132.738
445.9426, 3115.017
446.4247, 3099.287
446.9068, 3085.393
447.3889, 3073.100
447.8710, 3065.626
448.3531, 3057.838
448.8353, 3058.355
449.3174, 3074.338
449.7995, 3115.310
450.2816, 3155.494
450.7637, 3188.022
451.2458, 3218.093
451.7280, 3264.999
452.2101, 3330.952
452.6922, 3407.679
453.1743, 3491.993
453.6564, 3583.285
454.1385, 3679.481
454.6207, 3779.010
455.1028, 3888.060
455.5849, 4020.395
456.0670, 4174.142
456.5491, 4327.714
457.0313, 4467.540
457.5134, 4603.781
457.9955, 4755.959
458.4776, 4925.167
458.9597, 5105.974
459.4418, 5298.538
459.9240, 5498.435
460.4061, 5702.443
460.8882, 5910.327
461.3703, 6116.241
461.8524, 6315.568
462.3345, 6508.064
462.8167, 6689.144
463.2988, 6890.980
463.7809, 7053.063
464.2630, 7134.033
464.7451, 7128.315
465.2272, 7069.885
465.7094, 6966.987
466.1915, 6818.583
466.6736, 6622.064
467.1557, 6347.488
467.6378, 6059.053
468.1199, 5756.057
468.6021, 5441.157
469.0842, 5138.690
469.5663, 4839.347
470.0484, 4564.359
470.5305, 4320.771
471.0126, 4112.835
471.4948, 3926.108
471.9769, 3762.315
472.4590, 3615.672
472.9411, 3476.522
473.4232, 3343.424
473.9054, 3230.279
474.3875, 3145.287
474.8696, 3082.989
475.3517, 3022.608
475.8338, 2963.452
476.3159, 2913.452
476.7981, 2880.843
477.2802, 2862.490
477.7623, 2849.674
478.2444, 2842.009
478.7265, 2836.824
479.2086, 2832.401
479.6908, 2828.176
480.1729, 2822.768
480.6550, 2802.360
481.1371, 2789.486
481.6192, 2809.833
482.1013, 2862.871
482.5835, 2913.238
483.0656, 2946.455
483.5477, 2967.000
484.0298, 2978.873
484.5119, 2992.423
484.9940, 2984.586
485.4762, 2945.928
485.9583, 2882.203
486.4404, 2808.239
486.9225, 2714.550
487.4046, 2621.160
487.8867, 2531.072
488.3689, 2443.007
488.8510, 2364.196
489.3331, 2293.946
489.8152, 2232.974
490.2973, 2182.409
490.7794, 2143.502
491.2616, 2111.260
491.7437, 2085.856
492.2258, 2065.929
492.7079, 2048.512
493.1900, 2033.791
493.6721, 2020.754
494.1543, 2010.987
494.6364, 2002.718
495.1185, 1988.242
495.6006, 1966.631
496.0827, 1946.021
496.5648, 1934.078
497.0470, 1929.435
497.5291, 1929.905
498.0112, 1939.213
498.4933, 1948.667
498.9754, 1952.339
499.4576, 1950.357
499.9397, 1942.850
500.4218, 1924.688
500.9039, 1904.719
501.3860, 1888.314
501.8681, 1877.045
502.3503, 1866.957
502.8324, 1851.115
503.3145, 1838.217
503.7966, 1838.912
504.2787, 1872.985
504.7608, 1896.846
505.2430, 1899.899
505.7251, 1885.948
506.2072, 1882.854
506.6893, 1899.245
507.1714, 1911.082
507.6535, 1901.042
508.1357, 1864.753
508.6178, 1844.073
509.0999, 1842.647
509.5820, 1851.258
510.0641, 1859.394
510.5462, 1866.950
511.0284, 1872.217
511.5105, 1874.301
511.9926, 1874.154
512.4747, 1872.619
512.9568, 1869.988
513.4390, 1868.714
513.9211, 1869.517
514.4032, 1873.084
514.8853, 1881.163
515.3674, 1895.187
515.8495, 1908.762
516.3317, 1919.182
516.8138, 1926.452
517.2959, 1930.576
517.7780, 1924.824
518.2601, 1922.668
518.7422, 1932.283
519.2244, 1952.012
519.7065, 1964.626
520.1886, 1954.042
520.6707, 1948.201
521.1528, 1961.957
521.6349, 2010.104
522.1171, 2037.682
522.5992, 2032.689
523.0813, 2019.119
523.5634, 2032.181
524.0455, 2077.363
524.5276, 2119.425
525.0098, 2147.288
525.4919, 2166.475
525.9740, 2198.583
526.4561, 2244.272
526.9382, 2288.831
527.4203, 2323.361
527.9025, 2350.081
528.3846, 2374.170
528.8667, 2396.655
529.3488, 2414.160
529.8309, 2426.841
530.3130, 2431.633
530.7952, 2423.575
531.2773, 2399.610
531.7594, 2363.258
532.2415, 2309.796
532.7236, 2243.226
533.2057, 2183.065
533.6879, 2139.604
534.1700, 2100.000
534.6521, 2055.930
535.1342, 1999.842
535.6163, 1959.734
536.0984, 1941.801
536.5806, 1936.265
537.0627, 1934.099
537.5448, 1937.153
538.0269, 1939.339
538.5090, 1940.727
538.9911, 1940.182
539.4733, 1931.388
539.9554, 1912.565
540.4375, 1897.983
540.9196, 1899.117
541.4017, 1911.927
541.8839, 1917.220
542.3660, 1914.169
542.8481, 1908.171
543.3302, 1903.503
543.8123, 1899.687
544.2944, 1895.169
544.7766, 1886.826
545.2587, 1882.031
545.7408, 1889.782
546.2229, 1905.823
546.7050, 1919.804
547.1871, 1930.733
547.6693, 1935.845
548.1514, 1929.508
548.6335, 1909.481
549.1156, 1899.963
549.5977, 1912.164
550.0798, 1931.070
550.5620, 1946.408
551.0441, 1955.904
551.5262, 1966.454
552.0083, 1978.375
552.4904, 1991.453
552.9725, 2006.979
553.4547, 2026.680
553.9368, 2038.843
554.4189, 2032.559
554.9010, 2016.510
555.3831, 2028.501
555.8652, 2068.962
556.3474, 2115.367
556.8295, 2148.708
557.3116, 2175.630
557.7937, 2208.968
558.2758, 2250.917
558.7579, 2298.694
559.2401, 2345.350
559.7222, 2396.789
560.2043, 2461.940
560.6864, 2554.335
561.1685, 2651.665
561.6506, 2743.976
562.1328, 2831.946
562.6149, 2922.390
563.0970, 3011.754
563.5791, 3108.121
564.0612, 3214.404
564.5433, 3329.489
565.0255, 3459.799
565.5076, 3608.623
565.9897, 3767.047
566.4718, 3926.010
566.9539, 4081.644
567.4360, 4253.926
567.9182, 4444.568
568.4003, 4652.521
568.8824, 4874.057
569.3645, 5107.757
569.8466, 5361.637
570.3287, 5650.832
570.8109, 5954.813
571.2930, 6245.988
571.7751, 6524.383
572.2572, 6749.577
572.7393, 6947.912
573.2214, 7054.985
573.7036, 6995.922
574.1857, 6713.917
574.6678, 6362.981
575.1499, 5954.927
575.6320, 5526.719
576.1141, 5126.789
576.5963, 4744.228
577.0784, 4417.546
577.5605, 4162.010
578.0426, 3974.063
578.5247, 3811.849
579.0068, 3675.857
579.4890, 3567.377
579.9711, 3490.954
580.4532, 3448.554
580.9353, 3406.782
581.4174, 3362.488
581.8995, 3331.841
582.3817, 3346.998
582.8638, 3393.764
583.3459, 3421.766
583.8280, 3422.900
584.3101, 3393.086
584.7922, 3313.972
585.2744, 3199.353
585.7565, 3082.813
586.2386, 2978.544
586.7207, 2878.763
587.2028, 2773.601
587.6849, 2664.065
588.1671, 2574.009
588.6492, 2509.560
589.1313, 2467.642
589.6134, 2446.866
590.0955, 2443.508
590.5776, 2468.121
591.0598, 2530.641
591.5419, 2612.216
592.0240, 2687.671
592.5061, 2754.324
592.9882, 2829.295
593.4703, 2915.992
593.9525, 3011.409
594.4346, 3105.989
594.9167, 3200.136
