##NAMES=Hilgardite
##RRUFFID=R070427
##IDEAL CHEMISTRY=Ca_2_B_5_O_9_Cl&#183;H_2_O
##LOCALITY=Boulby mine, Loftus, Cleveland, England, UK
##OWNER=RRUFF
##SOURCE=Michael Scott
##DESCRIPTION=Massive etched pink crystallline associated with pale green boracite, polytype 3TC
##STATUS=The identification of this mineral has been confirmed by single-crystal X-ray diffraction.
##URL=rruff.info/R070427
134.0130, 1329.175
134.4951, 1375.484
134.9772, 1415.057
135.4593, 1447.250
135.9414, 1477.767
136.4235, 1511.027
136.9057, 1546.962
137.3878, 1582.520
137.8699, 1615.232
138.3520, 1646.229
138.8341, 1689.240
139.3162, 1749.591
139.7984, 1811.170
140.2805, 1855.919
140.7626, 1880.343
141.2447, 1897.841
141.7268, 1909.964
142.2089, 1914.954
142.6911, 1927.655
143.1732, 1950.891
143.6553, 1979.639
144.1374, 2004.639
144.6195, 2025.151
145.1016, 2042.821
145.5838, 2058.095
146.0659, 2070.523
146.5480, 2081.331
147.0301, 2087.039
147.5122, 2090.703
147.9943, 2104.915
148.4765, 2132.434
148.9586, 2167.757
149.4407, 2208.180
149.9228, 2243.644
150.4049, 2296.998
150.8870, 2375.259
151.3692, 2477.800
151.8513, 2578.996
152.3334, 2670.178
152.8155, 2763.336
153.2976, 2869.545
153.7797, 3020.573
154.2619, 3151.985
154.7440, 3257.330
155.2261, 3336.804
155.7082, 3381.564
156.1903, 3377.572
156.6724, 3342.119
157.1546, 3295.829
157.6367, 3235.297
158.1188, 3170.192
158.6009, 3103.037
159.0830, 3031.792
159.5651, 2963.131
160.0473, 2891.061
160.5294, 2822.554
161.0115, 2772.156
161.4936, 2752.620
161.9757, 2746.071
162.4578, 2743.401
162.9400, 2744.389
163.4221, 2746.632
163.9042, 2748.742
164.3863, 2751.238
164.8684, 2755.867
165.3506, 2760.637
165.8327, 2769.151
166.3148, 2784.446
166.7969, 2809.925
167.2790, 2839.818
167.7611, 2872.128
168.2433, 2906.808
168.7254, 2942.072
169.2075, 2969.332
169.6896, 2998.729
170.1717, 3042.091
170.6538, 3129.173
171.1360, 3215.341
171.6181, 3263.153
172.1002, 3271.296
172.5823, 3267.114
173.0644, 3266.854
173.5465, 3268.510
174.0287, 3268.473
174.5108, 3269.313
174.9929, 3265.708
175.4750, 3250.063
175.9571, 3220.541
176.4392, 3186.682
176.9214, 3162.357
177.4035, 3142.248
177.8856, 3111.073
178.3677, 3050.513
178.8498, 2976.210
179.3319, 2913.273
179.8141, 2867.761
180.2962, 2825.872
180.7783, 2769.969
181.2604, 2702.519
181.7425, 2631.083
182.2246, 2557.960
182.7068, 2485.005
183.1889, 2413.424
183.6710, 2341.702
184.1531, 2275.019
184.6352, 2223.953
185.1173, 2187.723
185.5995, 2160.232
186.0816, 2138.001
186.5637, 2120.817
187.0458, 2107.229
187.5279, 2095.915
188.0100, 2088.771
188.4922, 2091.003
188.9743, 2102.869
189.4564, 2120.698
189.9385, 2140.930
190.4206, 2163.872
190.9027, 2191.811
191.3849, 2226.415
191.8670, 2266.681
192.3491, 2308.944
192.8312, 2353.356
193.3133, 2401.020
193.7954, 2454.175
194.2776, 2512.747
194.7597, 2573.018
195.2418, 2633.171
195.7239, 2693.315
196.2060, 2756.349
196.6881, 2821.318
197.1703, 2890.741
197.6524, 2968.552
198.1345, 3053.796
198.6166, 3145.971
199.0987, 3246.853
199.5808, 3356.452
200.0630, 3462.140
200.5451, 3564.006
201.0272, 3661.095
201.5093, 3750.907
201.9914, 3831.481
202.4735, 3914.068
202.9557, 4010.799
203.4378, 4124.530
203.9199, 4217.238
204.4020, 4283.914
204.8841, 4331.225
205.3663, 4383.296
205.8484, 4451.006
206.3305, 4486.320
206.8126, 4461.680
207.2947, 4374.170
207.7768, 4241.679
208.2590, 4056.679
208.7411, 3830.926
209.2232, 3601.462
209.7053, 3361.721
210.1874, 3131.432
210.6695, 2916.756
211.1517, 2715.669
211.6338, 2539.376
212.1159, 2391.524
212.5980, 2269.919
213.0801, 2161.775
213.5622, 2068.440
214.0444, 1987.822
214.5265, 1920.459
215.0086, 1867.495
215.4907, 1822.378
215.9728, 1784.392
216.4549, 1753.362
216.9371, 1727.127
217.4192, 1706.617
217.9013, 1689.880
218.3834, 1674.858
218.8655, 1660.100
219.3476, 1651.278
219.8298, 1651.119
220.3119, 1659.712
220.7940, 1666.060
221.2761, 1669.623
221.7582, 1671.558
222.2403, 1673.230
222.7225, 1674.997
223.2046, 1675.353
223.6867, 1671.884
224.1688, 1663.358
224.6509, 1666.089
225.1330, 1685.883
225.6152, 1711.546
226.0973, 1729.385
226.5794, 1739.828
227.0615, 1741.062
227.5436, 1730.359
228.0257, 1704.906
228.5079, 1683.845
228.9900, 1668.011
229.4721, 1655.734
229.9542, 1644.204
230.4363, 1631.825
230.9184, 1623.210
231.4006, 1620.894
231.8827, 1627.353
232.3648, 1629.504
232.8469, 1625.122
233.3290, 1617.748
233.8111, 1613.996
234.2933, 1617.539
234.7754, 1618.497
235.2575, 1611.835
235.7396, 1592.229
236.2217, 1582.881
236.7038, 1588.958
237.1860, 1602.875
237.6681, 1608.361
238.1502, 1597.028
238.6323, 1590.534
239.1144, 1598.344
239.5965, 1627.963
240.0787, 1651.042
240.5608, 1663.023
241.0429, 1670.138
241.5250, 1686.944
242.0071, 1718.775
242.4892, 1752.342
242.9714, 1782.049
243.4535, 1807.929
243.9356, 1830.251
244.4177, 1844.292
244.8998, 1855.961
245.3819, 1882.909
245.8641, 1938.311
246.3462, 1989.755
246.8283, 2020.956
247.3104, 2021.933
247.7925, 2026.520
248.2747, 2037.613
248.7568, 2052.046
249.2389, 2060.817
249.7210, 2062.656
250.2031, 2060.753
250.6852, 2056.601
251.1674, 2050.673
251.6495, 2041.411
252.1316, 2028.619
252.6137, 2012.557
253.0958, 1992.540
253.5779, 1961.737
254.0601, 1937.535
254.5422, 1931.638
255.0243, 1954.722
255.5064, 1967.789
255.9885, 1964.897
256.4706, 1951.580
256.9528, 1946.635
257.4349, 1953.443
257.9170, 1963.063
258.3991, 1972.075
258.8812, 1983.021
259.3633, 1985.904
259.8455, 1979.220
260.3276, 1964.259
260.8097, 1944.857
261.2918, 1918.093
261.7739, 1891.931
262.2560, 1872.057
262.7382, 1862.830
263.2203, 1845.415
263.7024, 1814.094
264.1845, 1774.783
264.6666, 1747.492
265.1487, 1735.611
265.6309, 1729.237
266.1130, 1723.336
266.5951, 1718.041
267.0772, 1712.102
267.5593, 1704.132
268.0414, 1695.833
268.5236, 1693.646
269.0057, 1699.017
269.4878, 1706.964
269.9699, 1712.730
270.4520, 1713.426
270.9341, 1726.551
271.4163, 1757.975
271.8984, 1800.580
272.3805, 1832.137
272.8626, 1850.814
273.3447, 1864.723
273.8268, 1876.980
274.3090, 1886.452
274.7911, 1903.372
275.2732, 1932.878
275.7553, 1967.136
276.2374, 1982.955
276.7195, 1977.518
277.2017, 1965.075
277.6838, 1950.849
278.1659, 1933.858
278.6480, 1928.307
279.1301, 1937.982
279.6122, 1957.355
280.0944, 1973.419
280.5765, 1985.342
281.0586, 1998.231
281.5407, 2013.770
282.0228, 2031.927
282.5049, 2059.772
282.9871, 2103.412
283.4692, 2150.053
283.9513, 2168.516
284.4334, 2156.445
284.9155, 2143.757
285.3976, 2150.369
285.8798, 2174.708
286.3619, 2196.770
286.8440, 2216.474
287.3261, 2230.408
287.8082, 2228.828
288.2903, 2211.583
288.7725, 2195.057
289.2546, 2192.729
289.7367, 2201.162
290.2188, 2202.092
290.7009, 2195.845
291.1830, 2177.170
291.6652, 2140.966
292.1473, 2086.477
292.6294, 2008.184
293.1115, 1885.234
293.5936, 1732.914
294.0757, 1602.803
294.5579, 1498.492
295.0400, 1417.483
295.5221, 1360.183
296.0042, 1324.309
296.4863, 1299.539
296.9684, 1282.678
297.4506, 1272.397
297.9327, 1266.353
298.4148, 1264.687
298.8969, 1265.608
299.3790, 1267.495
299.8611, 1270.292
300.3433, 1273.796
300.8254, 1280.101
301.3075, 1286.435
301.7896, 1286.911
302.2717, 1280.407
302.7538, 1273.418
303.2360, 1273.604
303.7181, 1278.433
304.2002, 1281.783
304.6823, 1278.328
305.1644, 1272.899
305.6465, 1271.206
306.1287, 1275.919
306.6108, 1279.498
307.0929, 1282.004
307.5750, 1280.225
308.0572, 1283.980
308.5393, 1285.517
309.0214, 1286.963
309.5035, 1291.496
309.9856, 1290.341
310.4677, 1294.825
310.9499, 1297.058
311.4320, 1300.322
311.9141, 1301.354
312.3962, 1303.075
312.8783, 1307.029
313.3604, 1309.746
313.8426, 1310.522
314.3247, 1313.851
314.8068, 1312.617
315.2889, 1315.816
315.7710, 1325.268
316.2531, 1351.205
316.7353, 1376.885
317.2174, 1393.370
317.6995, 1401.528
318.1816, 1410.971
318.6637, 1424.728
319.1458, 1441.701
319.6280, 1461.006
320.1101, 1485.891
320.5922, 1509.549
321.0743, 1529.085
321.5564, 1545.275
322.0385, 1562.481
322.5207, 1586.694
323.0028, 1609.285
323.4849, 1624.451
323.9670, 1614.732
324.4491, 1617.525
324.9312, 1645.719
325.4134, 1692.627
325.8955, 1733.088
326.3776, 1751.520
326.8597, 1772.271
327.3418, 1807.319
327.8239, 1875.032
328.3061, 1931.544
328.7882, 1967.869
329.2703, 1992.299
329.7524, 2026.003
330.2345, 2069.973
330.7166, 2122.272
331.1988, 2183.449
331.6809, 2255.434
332.1630, 2328.971
332.6451, 2404.368
333.1272, 2481.536
333.6093, 2559.199
334.0915, 2638.436
334.5736, 2717.542
335.0557, 2799.230
335.5378, 2887.730
336.0199, 2955.486
336.5020, 2998.073
336.9842, 3024.809
337.4663, 3052.004
337.9484, 3087.796
338.4305, 3101.502
338.9126, 3081.334
339.3947, 3027.114
339.8769, 2967.836
340.3590, 2903.852
340.8411, 2833.105
341.3232, 2749.578
341.8053, 2652.182
342.2874, 2555.043
342.7696, 2459.408
343.2517, 2366.675
343.7338, 2293.607
344.2159, 2241.175
344.6980, 2197.692
345.1801, 2150.202
345.6623, 2099.977
346.1444, 2059.840
346.6265, 2033.515
347.1086, 2018.530
347.5907, 2009.748
348.0728, 2007.305
348.5550, 2010.115
349.0371, 2017.871
349.5192, 2030.286
350.0013, 2047.163
350.4834, 2069.196
350.9655, 2094.151
351.4477, 2117.088
351.9298, 2139.312
352.4119, 2165.865
352.8940, 2199.888
353.3761, 2240.358
353.8582, 2286.183
354.3404, 2338.353
354.8225, 2391.527
355.3046, 2443.173
355.7867, 2492.070
356.2688, 2535.286
356.7509, 2570.332
357.2331, 2599.617
357.7152, 2627.594
358.1973, 2655.534
358.6794, 2672.300
359.1615, 2667.283
359.6436, 2647.433
360.1258, 2622.472
360.6079, 2596.480
361.0900, 2566.098
361.5721, 2522.037
362.0542, 2464.715
362.5363, 2424.221
363.0185, 2424.721
363.5006, 2442.126
363.9827, 2454.762
364.4648, 2434.723
364.9469, 2432.453
365.4290, 2467.921
365.9112, 2536.592
366.3933, 2607.242
366.8754, 2681.584
367.3575, 2751.391
367.8396, 2811.145
368.3217, 2845.804
368.8039, 2889.076
369.2860, 2945.364
369.7681, 3011.661
370.2502, 3080.597
370.7323, 3156.990
371.2144, 3231.448
371.6966, 3298.748
372.1787, 3352.014
372.6608, 3415.908
373.1429, 3502.431
373.6250, 3592.899
374.1071, 3656.184
374.5893, 3681.498
375.0714, 3702.033
375.5535, 3734.690
376.0356, 3782.975
376.5177, 3785.924
376.9998, 3733.060
377.4820, 3652.636
377.9641, 3575.591
378.4462, 3501.995
378.9283, 3428.262
379.4104, 3352.870
379.8925, 3277.097
380.3747, 3206.961
380.8568, 3141.976
381.3389, 3081.981
381.8210, 3028.549
382.3031, 2981.002
382.7852, 2928.100
383.2674, 2864.777
383.7495, 2799.923
384.2316, 2758.069
384.7137, 2736.098
385.1958, 2709.214
385.6779, 2657.663
386.1601, 2589.909
386.6422, 2523.500
387.1243, 2458.496
387.6064, 2399.466
388.0885, 2355.221
388.5706, 2320.208
389.0528, 2281.208
389.5349, 2227.250
390.0170, 2168.800
390.4991, 2116.239
390.9813, 2070.884
391.4634, 2024.158
391.9455, 1968.042
392.4276, 1907.979
392.9097, 1850.887
393.3918, 1797.040
393.8740, 1748.905
394.3561, 1707.771
394.8382, 1673.558
395.3203, 1643.311
395.8024, 1611.999
396.2845, 1586.986
396.7667, 1573.716
397.2488, 1584.005
397.7309, 1592.484
398.2130, 1590.865
398.6951, 1583.535
399.1772, 1584.345
399.6594, 1603.232
400.1415, 1623.173
400.6236, 1638.043
401.1057, 1646.162
401.5878, 1653.192
402.0699, 1659.808
402.5521, 1665.004
403.0342, 1666.716
403.5163, 1661.443
403.9984, 1659.014
404.4805, 1662.773
404.9626, 1672.807
405.4448, 1680.864
405.9269, 1685.421
406.4090, 1690.804
406.8911, 1703.939
407.3732, 1727.421
407.8553, 1740.070
408.3375, 1734.029
408.8196, 1717.001
409.3017, 1713.349
409.7838, 1723.857
410.2659, 1738.994
410.7480, 1754.594
411.2302, 1769.854
411.7123, 1780.942
412.1944, 1787.969
412.6765, 1788.893
413.1586, 1776.148
413.6407, 1753.010
414.1229, 1734.218
414.6050, 1728.981
415.0871, 1731.729
415.5692, 1734.663
416.0513, 1737.472
416.5334, 1741.046
417.0156, 1748.068
417.4977, 1755.951
417.9798, 1760.686
418.4619, 1752.985
418.9440, 1748.512
419.4261, 1759.279
419.9083, 1783.063
420.3904, 1807.812
420.8725, 1831.715
421.3546, 1852.247
421.8367, 1866.739
422.3188, 1870.794
422.8010, 1875.927
423.2831, 1885.525
423.7652, 1898.143
424.2473, 1910.865
424.7294, 1910.740
425.2115, 1922.227
425.6937, 1958.218
426.1758, 2028.687
426.6579, 2083.997
427.1400, 2117.594
427.6221, 2140.804
428.1042, 2164.748
428.5864, 2186.792
429.0685, 2215.146
429.5506, 2253.813
430.0327, 2300.571
430.5148, 2340.964
430.9969, 2374.998
431.4791, 2402.045
431.9612, 2422.304
432.4433, 2436.153
432.9254, 2438.689
433.4075, 2428.810
433.8896, 2408.314
434.3718, 2378.918
434.8539, 2340.748
435.3360, 2298.130
435.8181, 2245.564
436.3002, 2190.838
436.7823, 2160.418
437.2645, 2156.873
437.7466, 2155.979
438.2287, 2129.767
438.7108, 2088.448
439.1929, 2054.479
439.6750, 2038.141
440.1572, 2030.205
440.6393, 2021.399
441.1214, 2012.922
441.6035, 2010.686
442.0856, 2021.292
442.5677, 2037.812
443.0499, 2055.658
443.5320, 2076.132
444.0141, 2092.022
444.4962, 2096.457
444.9783, 2095.033
445.4604, 2097.124
445.9426, 2104.203
446.4247, 2116.040
446.9068, 2133.830
447.3889, 2158.253
447.8710, 2182.363
448.3531, 2202.527
448.8353, 2224.327
449.3174, 2252.547
449.7995, 2292.573
450.2816, 2329.870
450.7637, 2360.396
451.2458, 2387.228
451.7280, 2420.125
452.2101, 2457.255
452.6922, 2504.277
453.1743, 2567.273
453.6564, 2647.646
454.1385, 2724.157
454.6207, 2796.738
455.1028, 2865.572
455.5849, 2931.440
456.0670, 2994.053
456.5491, 3053.217
457.0313, 3107.821
457.5134, 3158.944
457.9955, 3208.061
458.4776, 3255.509
458.9597, 3299.177
459.4418, 3341.675
459.9240, 3378.368
460.4061, 3401.604
460.8882, 3408.662
461.3703, 3403.933
461.8524, 3397.564
462.3345, 3382.505
462.8167, 3342.228
463.2988, 3255.606
463.7809, 3151.902
464.2630, 3048.994
464.7451, 2949.220
465.2272, 2844.072
465.7094, 2722.347
466.1915, 2599.318
466.6736, 2487.294
467.1557, 2386.619
467.6378, 2300.513
468.1199, 2235.177
468.6021, 2185.744
469.0842, 2132.747
469.5663, 2060.791
470.0484, 2003.478
470.5305, 1977.791
471.0126, 1995.959
471.4948, 2005.099
471.9769, 2002.457
472.4590, 1994.344
472.9411, 1988.640
473.4232, 1985.271
473.9054, 1984.555
474.3875, 1985.499
474.8696, 1989.462
475.3517, 2003.735
475.8338, 2028.845
476.3159, 2055.215
476.7981, 2073.014
477.2802, 2085.929
477.7623, 2105.627
478.2444, 2134.570
478.7265, 2168.333
479.2086, 2200.619
479.6908, 2233.345
480.1729, 2271.035
480.6550, 2323.018
481.1371, 2376.188
481.6192, 2417.763
482.1013, 2447.920
482.5835, 2477.431
483.0656, 2517.428
483.5477, 2555.772
484.0298, 2582.424
484.5119, 2597.529
484.9940, 2597.497
485.4762, 2585.699
485.9583, 2558.539
486.4404, 2506.763
486.9225, 2404.579
487.4046, 2301.721
487.8867, 2209.925
488.3689, 2129.697
488.8510, 2055.675
489.3331, 1985.796
489.8152, 1923.847
490.2973, 1874.315
490.7794, 1839.346
491.2616, 1808.740
491.7437, 1780.521
492.2258, 1755.990
492.7079, 1740.954
493.1900, 1735.980
493.6721, 1731.670
494.1543, 1721.905
494.6364, 1708.416
495.1185, 1696.887
495.6006, 1687.781
496.0827, 1680.486
496.5648, 1672.634
497.0470, 1660.878
497.5291, 1668.398
498.0112, 1672.101
498.4933, 1672.193
498.9754, 1657.859
499.4576, 1662.153
499.9397, 1658.982
500.4218, 1655.505
500.9039, 1662.422
501.3860, 1650.186
501.8681, 1656.937
502.3503, 1656.109
502.8324, 1658.751
503.3145, 1653.880
503.7966, 1651.329
504.2787, 1656.293
504.7608, 1657.096
505.2430, 1651.361
505.7251, 1654.223
506.2072, 1641.724
506.6893, 1642.704
507.1714, 1649.500
507.6535, 1644.143
508.1357, 1647.141
508.6178, 1646.958
509.0999, 1632.310
509.5820, 1642.817
510.0641, 1639.626
510.5462, 1652.425
511.0284, 1663.827
511.5105, 1671.262
511.9926, 1675.202
512.4747, 1675.226
512.9568, 1671.815
513.4390, 1668.998
513.9211, 1668.658
514.4032, 1670.907
514.8853, 1676.603
515.3674, 1686.771
515.8495, 1696.578
516.3317, 1703.404
516.8138, 1707.982
517.2959, 1711.327
517.7780, 1714.749
518.2601, 1716.001
518.7422, 1711.785
519.2244, 1699.752
519.7065, 1719.781
520.1886, 1735.995
520.6707, 1748.598
521.1528, 1746.772
521.6349, 1763.578
522.1171, 1772.920
522.5992, 1781.951
523.0813, 1801.378
523.5634, 1801.652
524.0455, 1820.913
524.5276, 1832.595
525.0098, 1839.752
525.4919, 1843.732
525.9740, 1851.765
526.4561, 1863.994
526.9382, 1878.772
527.4203, 1897.571
527.9025, 1918.107
528.3846, 1935.130
528.8667, 1948.380
529.3488, 1957.315
529.8309, 1960.504
530.3130, 1959.105
530.7952, 1954.990
531.2773, 1949.855
531.7594, 1941.307
532.2415, 1927.137
532.7236, 1908.103
533.2057, 1888.080
533.6879, 1869.006
534.1700, 1848.419
534.6521, 1823.930
535.1342, 1791.714
535.6163, 1766.167
536.0984, 1748.012
536.5806, 1736.409
537.0627, 1731.830
537.5448, 1738.485
538.0269, 1741.790
538.5090, 1738.959
538.9911, 1731.503
539.4733, 1722.929
539.9554, 1712.429
540.4375, 1706.210
540.9196, 1710.046
541.4017, 1721.585
541.8839, 1730.303
542.3660, 1736.042
542.8481, 1738.639
543.3302, 1736.344
543.8123, 1731.069
544.2944, 1725.867
544.7766, 1718.426
545.2587, 1716.457
545.7408, 1731.308
546.2229, 1756.670
546.7050, 1777.282
547.1871, 1787.035
547.6693, 1790.483
548.1514, 1786.761
548.6335, 1774.704
549.1156, 1768.831
549.5977, 1772.102
550.0798, 1781.906
550.5620, 1797.286
551.0441, 1826.019
551.5262, 1844.192
552.0083, 1844.863
552.4904, 1838.828
552.9725, 1849.146
553.4547, 1879.298
553.9368, 1907.271
554.4189, 1922.329
554.9010, 1929.578
555.3831, 1950.402
555.8652, 1985.019
556.3474, 2022.156
556.8295, 2050.449
557.3116, 2075.437
557.7937, 2106.841
558.2758, 2145.415
558.7579, 2194.177
559.2401, 2257.456
559.7222, 2331.794
560.2043, 2411.526
560.6864, 2496.933
561.1685, 2585.329
561.6506, 2674.903
562.1328, 2765.531
562.6149, 2859.009
563.0970, 2947.016
563.5791, 3045.761
564.0612, 3163.556
564.5433, 3304.765
565.0255, 3448.688
565.5076, 3593.418
565.9897, 3741.246
566.4718, 3896.272
566.9539, 4057.363
567.4360, 4223.591
567.9182, 4390.430
568.4003, 4565.135
568.8824, 4764.650
569.3645, 4986.257
569.8466, 5219.453
570.3287, 5473.065
570.8109, 5725.792
571.2930, 5950.858
571.7751, 6147.574
572.2572, 6272.454
572.7393, 6313.721
573.2214, 6260.446
573.7036, 6092.912
574.1857, 5775.325
574.6678, 5419.237
575.1499, 5023.949
575.6320, 4629.137
576.1141, 4287.654
576.5963, 4028.380
577.0784, 3805.438
577.5605, 3614.778
578.0426, 3457.276
578.5247, 3324.602
579.0068, 3220.851
579.4890, 3135.813
579.9711, 3063.095
580.4532, 3002.738
580.9353, 2965.110
581.4174, 2953.794
581.8995, 2950.348
582.3817, 2937.479
582.8638, 2915.799
583.3459, 2887.629
583.8280, 2853.880
584.3101, 2813.335
584.7922, 2753.489
585.2744, 2685.480
585.7565, 2636.413
586.2386, 2676.194
586.7207, 2691.262
587.2028, 2584.292
587.6849, 2358.418
588.1671, 2182.095
588.6492, 2138.217
589.1313, 2131.009
589.6134, 2102.107
590.0955, 2027.032
590.5776, 1980.474
591.0598, 1970.791
591.5419, 1982.127
592.0240, 1995.859
592.5061, 2012.833
592.9882, 2027.795
593.4703, 2038.526
593.9525, 2047.228
594.4346, 2059.029
594.9167, 2073.792
595.3988, 2089.609
595.8809, 2106.966
596.3630, 2124.084
596.8452, 2139.421
597.3273, 2152.575
597.8094, 2160.058
598.2915, 2155.091
598.7736, 2145.478
599.2557, 2139.428
599.7379, 2142.958
600.2200, 2141.493
600.7021, 2129.260
601.1842, 2109.842
601.6663, 2088.718
602.1484, 2062.575
602.6306, 2040.042
603.1127, 2026.711
603.5948, 2018.707
604.0769, 1993.908
604.5590, 1947.126
605.0411, 1901.222
605.5233, 1868.739
606.0054, 1848.415
606.4875, 1834.784
606.9696, 1828.832
607.4517, 1820.813
607.9338, 1797.511
608.4160, 1765.829
608.8981, 1741.551
609.3802, 1729.777
609.8623, 1719.903
610.3444, 1701.794
610.8265, 1680.421
611.3087, 1663.738
611.7908, 1658.959
612.2729, 1654.987
612.7550, 1648.807
613.2371, 1640.426
613.7192, 1630.311
614.2014, 1616.234
614.6835, 1603.393
615.1656, 1594.526
615.6477, 1590.298
616.1298, 1582.967
616.6119, 1570.592
617.0941, 1560.291
617.5762, 1560.370
618.0583, 1569.528
618.5404, 1575.574
619.0225, 1574.819
619.5046, 1576.140
619.9868, 1596.297
620.4689, 1627.403
620.9510, 1650.944
621.4331, 1653.179
621.9152, 1650.300
622.3973, 1648.754
622.8795, 1649.944
623.3616, 1659.433
623.8437, 1686.942
624.3258, 1716.403
624.8079, 1741.261
625.2900, 1761.620
625.7722, 1774.887
626.2543, 1772.447
626.7364, 1773.626
627.2185, 1795.338
627.7006, 1841.465
628.1827, 1884.687
628.6649, 1924.331
629.1470, 1956.643
629.6291, 1970.714
630.1112, 1970.368
630.5933, 1975.560
