##NAMES=Hillebrandite
##RRUFFID=R110067
##IDEAL CHEMISTRY=Ca_2_SiO_3_(OH)_2_
##LOCALITY=Terneras mine, Velardeña, Velardeña District, Municipio de Cuencamé, Durango, Mexico
##OWNER=RRUFF
##SOURCE=Renato & Adriana Pagano
##DESCRIPTION=White, fine-grained massive. Cell parameters are given that match Dai and Post (1995) but the diffraction results indicate lower symmetry.
##STATUS=The identification of this mineral has been confirmed by single-crystal X-ray diffraction.
##URL=rruff.info/R110067
158.1356, 359.9656
158.6177, 361.0693
159.0999, 362.1580
159.5820, 363.6834
160.0641, 365.6793
160.5462, 368.7890
161.0283, 373.5127
161.5104, 378.9162
161.9926, 384.5000
162.4747, 390.1701
162.9568, 395.7054
163.4389, 400.8457
163.9210, 405.6083
164.4031, 409.8836
164.8853, 413.0254
165.3674, 415.8476
165.8495, 419.6710
166.3316, 425.0223
166.8137, 430.4904
167.2958, 434.4179
167.7780, 437.2151
168.2601, 440.4305
168.7422, 445.5483
169.2243, 451.8809
169.7064, 456.2505
170.1885, 456.4116
170.6707, 457.0376
171.1528, 461.4484
171.6349, 469.0383
172.1170, 477.1422
172.5991, 483.5092
173.0812, 488.0235
173.5634, 493.2910
174.0455, 500.1674
174.5276, 507.3449
175.0097, 514.4957
175.4918, 521.5021
175.9739, 528.2048
176.4561, 534.8121
176.9382, 542.2928
177.4203, 546.2939
177.9024, 545.3256
178.3845, 542.5018
178.8666, 539.7792
179.3488, 537.2105
179.8309, 533.1509
180.3130, 525.2733
180.7951, 511.8555
181.2772, 498.0798
181.7593, 483.8803
182.2415, 469.4625
182.7236, 454.7443
183.2057, 439.7971
183.6878, 425.2409
184.1699, 412.0505
184.6520, 400.9332
185.1342, 390.0199
185.6163, 378.7880
186.0984, 367.9936
186.5805, 358.7270
187.0626, 351.3790
187.5447, 344.8108
188.0269, 336.8843
188.5090, 326.9904
188.9911, 318.2974
189.4732, 311.8825
189.9553, 307.0748
190.4374, 302.9104
190.9196, 299.2015
191.4017, 295.7763
191.8838, 292.3535
192.3659, 288.9437
192.8480, 285.5493
193.3301, 281.9161
193.8123, 278.2381
194.2944, 275.2921
194.7765, 273.6561
195.2586, 272.3843
195.7407, 270.4681
196.2228, 267.9044
196.7050, 265.1474
197.1871, 262.1820
197.6692, 259.0570
198.1513, 256.9107
198.6334, 256.6820
199.1155, 256.9688
199.5977, 256.6991
200.0798, 255.8469
200.5619, 255.2194
201.0440, 256.0400
201.5261, 258.7362
202.0082, 260.0353
202.4904, 257.6579
202.9725, 255.0951
203.4546, 254.1636
203.9367, 255.0319
204.4188, 256.6049
204.9009, 257.4961
205.3831, 257.3409
205.8652, 257.6277
206.3473, 259.0575
206.8294, 260.4221
207.3115, 260.8602
207.7936, 260.3170
208.2758, 259.4824
208.7579, 259.3840
209.2400, 260.6468
209.7221, 261.2601
210.2042, 261.0971
210.6863, 260.5055
211.1685, 259.4240
211.6506, 257.9704
212.1327, 256.6982
212.6148, 256.4444
213.0969, 257.8492
213.5790, 259.0273
214.0612, 259.5036
214.5433, 260.0527
215.0254, 261.2957
215.5075, 263.3681
215.9896, 266.0278
216.4718, 268.9757
216.9539, 272.4937
217.4360, 275.6246
217.9181, 278.2451
218.4002, 280.5323
218.8823, 282.5868
219.3645, 284.4237
219.8466, 286.2350
220.3287, 288.2394
220.8108, 290.4207
221.2929, 292.9437
221.7750, 296.1043
222.2572, 299.5181
222.7393, 302.8500
223.2214, 306.0849
223.7035, 308.8844
224.1856, 310.2131
224.6677, 310.1756
225.1499, 311.2847
225.6320, 314.6557
226.1141, 319.4562
226.5962, 324.4781
227.0783, 329.6652
227.5604, 334.6910
228.0426, 338.9928
228.5247, 342.7511
229.0068, 346.9470
229.4889, 351.7115
229.9710, 357.1580
230.4531, 363.9868
230.9353, 373.1314
231.4174, 381.7370
231.8995, 386.5656
232.3816, 388.9654
232.8637, 392.6673
233.3458, 400.9856
233.8280, 412.1469
234.3101, 420.4137
234.7922, 424.6969
235.2743, 427.3698
235.7564, 430.0799
236.2385, 432.4407
236.7207, 433.5998
237.2028, 432.6791
237.6849, 430.1379
238.1670, 427.9440
238.6491, 426.4036
239.1312, 424.7592
239.6134, 422.6432
240.0955, 420.2302
240.5776, 417.7257
241.0597, 415.1032
241.5418, 412.5309
242.0239, 410.8621
242.5061, 410.1505
242.9882, 410.4311
243.4703, 411.9977
243.9524, 414.3802
244.4345, 416.9735
244.9166, 419.4712
245.3988, 421.8656
245.8809, 424.0875
246.3630, 426.3183
246.8451, 428.0765
247.3272, 428.7182
247.8093, 429.0106
248.2915, 430.2179
248.7736, 433.1554
249.2557, 436.9930
249.7378, 438.2726
250.2199, 434.3092
250.7020, 430.9482
251.1842, 428.8997
251.6663, 427.8756
252.1484, 427.8061
252.6305, 428.6848
253.1126, 429.9234
253.5947, 429.6408
254.0769, 425.8271
254.5590, 422.8339
255.0411, 421.6555
255.5232, 421.1413
256.0053, 419.8533
256.4874, 417.1960
256.9695, 413.8740
257.4517, 411.5968
257.9338, 412.3539
258.4159, 411.7582
258.8980, 408.7084
259.3801, 404.7533
259.8622, 401.2968
260.3444, 398.8458
260.8265, 397.3293
261.3086, 396.6426
261.7907, 397.2734
262.2728, 398.0674
262.7549, 398.9559
263.2371, 400.0284
263.7192, 401.4618
264.2013, 403.2921
264.6834, 405.2123
265.1655, 406.6910
265.6476, 407.1784
266.1298, 408.6812
266.6119, 412.3490
267.0940, 416.4462
267.5761, 419.1878
268.0582, 420.2701
268.5403, 420.9065
269.0225, 422.6828
269.5046, 426.1143
269.9867, 428.0192
270.4688, 427.8630
270.9509, 426.4371
271.4330, 423.8951
271.9152, 420.3782
272.3973, 417.1125
272.8794, 415.4590
273.3615, 415.5626
273.8436, 414.9188
274.3257, 413.5443
274.8079, 411.3641
275.2900, 407.6319
275.7721, 402.4970
276.2542, 398.2250
276.7363, 396.9238
277.2184, 398.2335
277.7006, 398.0448
278.1827, 394.3567
278.6648, 390.7557
279.1469, 390.2738
279.6290, 392.5656
280.1111, 394.5887
280.5933, 394.3355
281.0754, 392.4840
281.5575, 391.6121
282.0396, 391.9545
282.5217, 392.9650
283.0038, 395.1301
283.4860, 398.0320
283.9681, 399.1793
284.4502, 396.3397
284.9323, 392.0186
285.4144, 391.5443
285.8965, 396.2701
286.3787, 401.3178
286.8608, 404.0882
287.3429, 404.9935
287.8250, 405.4380
288.3071, 405.5558
288.7892, 405.8476
289.2714, 406.9714
289.7535, 408.9194
290.2356, 411.3842
290.7177, 414.2854
291.1998, 417.5957
291.6819, 421.2441
292.1641, 425.1534
292.6462, 429.5617
293.1283, 434.8289
293.6104, 440.8456
294.0925, 447.1585
294.5746, 453.8210
295.0568, 460.6006
295.5389, 466.8952
296.0210, 472.4254
296.5031, 478.0875
296.9852, 484.8343
297.4673, 492.3642
297.9495, 500.0367
298.4316, 507.6490
298.9137, 515.2552
299.3958, 522.8009
299.8779, 530.1960
300.3600, 537.9847
300.8422, 546.5024
301.3243, 555.6731
301.8064, 565.3436
302.2885, 575.6231
302.7706, 586.3805
303.2527, 597.4199
303.7349, 608.7621
304.2170, 620.7873
304.6991, 634.4404
305.1812, 648.5192
305.6633, 661.1855
306.1454, 671.6548
306.6276, 682.0060
307.1097, 694.4747
307.5918, 708.8798
308.0739, 722.5162
308.5560, 734.2938
309.0381, 744.8619
309.5203, 755.4988
310.0024, 766.4560
310.4845, 775.5984
310.9666, 780.8282
311.4487, 782.7711
311.9308, 784.8273
312.4130, 789.1097
312.8951, 791.2666
313.3772, 786.9797
313.8593, 777.0024
314.3414, 765.8854
314.8235, 756.3985
315.3057, 747.4146
315.7878, 735.6016
316.2699, 720.0211
316.7520, 703.3015
317.2341, 686.9567
317.7162, 671.0331
318.1984, 655.5909
318.6805, 640.6111
319.1626, 626.2170
319.6447, 612.5358
320.1268, 599.5252
320.6089, 587.4825
321.0911, 577.1228
321.5732, 567.6581
322.0553, 558.0084
322.5374, 547.5318
323.0195, 537.4316
323.5016, 529.2231
323.9838, 522.8691
324.4659, 516.7217
324.9480, 509.7793
325.4301, 503.0946
325.9122, 498.0966
326.3943, 495.0598
326.8765, 492.4162
327.3586, 488.8974
327.8407, 484.7101
328.3228, 481.2574
328.8049, 479.5118
329.2870, 477.6542
329.7692, 473.6484
330.2513, 467.6922
330.7334, 461.7130
331.2155, 456.3893
331.6976, 451.7448
332.1797, 448.2923
332.6619, 446.7784
333.1440, 444.4973
333.6261, 438.4248
334.1082, 429.8376
334.5903, 421.4618
335.0724, 414.0831
335.5546, 407.4232
336.0367, 401.2563
336.5188, 395.6387
337.0009, 390.1510
337.4830, 384.3994
337.9651, 378.6899
338.4473, 373.6432
338.9294, 369.5659
339.4115, 365.7895
339.8936, 361.5069
340.3758, 356.8799
340.8579, 353.3317
341.3400, 351.6644
341.8221, 351.0890
342.3042, 350.4857
342.7863, 349.9732
343.2685, 348.8483
343.7506, 346.2730
344.2327, 342.8462
344.7148, 339.9996
345.1969, 338.0640
345.6790, 336.6798
346.1612, 335.5625
346.6433, 334.6753
347.1254, 333.9532
347.6075, 333.4727
348.0896, 333.1043
348.5717, 332.8835
349.0539, 332.8356
349.5360, 332.3106
350.0181, 330.7775
350.5002, 328.2982
350.9823, 325.4593
351.4644, 321.9689
351.9466, 318.4165
352.4287, 315.0060
352.9108, 311.8091
353.3929, 309.2917
353.8750, 308.1497
354.3571, 307.3577
354.8393, 304.1558
355.3214, 297.2653
355.8035, 291.2069
356.2856, 288.2613
356.7677, 287.1277
357.2498, 285.5004
357.7320, 282.6996
358.2141, 279.4018
358.6962, 276.3859
359.1783, 273.6162
359.6604, 271.3403
360.1425, 269.8378
360.6247, 268.6766
361.1068, 267.5394
361.5889, 266.3655
362.0710, 265.1155
362.5531, 263.7022
363.0352, 262.1386
363.5174, 260.9044
363.9995, 260.0047
364.4816, 259.3835
364.9637, 259.1350
365.4458, 259.1541
365.9279, 259.2448
366.4101, 259.3459
366.8922, 259.3540
367.3743, 258.8910
367.8564, 257.0102
368.3385, 256.0155
368.8206, 257.0358
369.3028, 258.7383
369.7849, 259.6232
370.2670, 259.2660
370.7491, 258.1483
371.2312, 256.8809
371.7133, 255.3843
372.1955, 254.0044
372.6776, 252.8450
373.1597, 251.7118
373.6418, 250.2085
374.1239, 248.5343
374.6060, 247.5050
375.0882, 247.9189
375.5703, 249.6982
376.0524, 250.1372
376.5345, 248.3422
377.0166, 246.2786
377.4987, 243.5865
377.9809, 241.0980
378.4630, 240.1444
378.9451, 241.3492
379.4272, 243.7883
379.9093, 245.2224
380.3914, 244.6184
380.8736, 244.7388
381.3557, 246.4693
381.8378, 248.3284
382.3199, 248.8192
382.8020, 247.9783
383.2841, 247.4166
383.7663, 249.2770
384.2484, 254.1834
384.7305, 257.1616
385.2126, 256.2169
385.6947, 255.1880
386.1768, 254.7280
386.6590, 255.1397
387.1411, 256.9776
387.6232, 260.8984
388.1053, 265.9983
388.5874, 268.8419
389.0695, 268.0597
389.5517, 267.5458
390.0338, 268.0755
390.5159, 269.3017
390.9980, 271.2669
391.4801, 273.9576
391.9622, 276.3451
392.4444, 277.0019
392.9265, 275.7510
393.4086, 274.5031
393.8907, 273.6713
394.3728, 272.7039
394.8549, 271.0536
395.3371, 268.9284
395.8192, 267.1512
396.3013, 266.7417
396.7834, 267.0694
397.2655, 265.8585
397.7477, 262.5223
398.2298, 259.1790
398.7119, 256.9812
399.1940, 255.4234
399.6761, 253.9862
400.1582, 252.6529
400.6404, 251.1480
401.1225, 249.1646
401.6046, 246.7048
402.0867, 244.0356
402.5688, 241.0259
403.0509, 238.0776
403.5331, 235.7375
404.0152, 234.0189
404.4973, 232.2026
404.9794, 229.6670
405.4615, 226.9164
405.9436, 224.8867
406.4258, 223.7467
406.9079, 222.9143
407.3900, 221.9664
407.8721, 220.9502
408.3542, 220.0817
408.8363, 219.9411
409.3185, 219.4489
409.8006, 217.0616
410.2827, 213.5527
410.7648, 211.8823
411.2469, 213.7122
411.7290, 217.3923
412.2112, 219.0976
412.6933, 218.0566
413.1754, 217.3213
413.6575, 218.1822
414.1396, 219.1859
414.6217, 218.4016
415.1039, 215.6554
415.5860, 212.8096
416.0681, 211.7148
416.5502, 212.5359
417.0323, 213.5239
417.5144, 215.4586
417.9966, 216.7333
418.4787, 216.2673
418.9608, 214.7101
419.4429, 213.2265
419.9250, 212.3943
420.4071, 212.2099
420.8893, 212.7337
421.3714, 215.1087
421.8535, 216.4224
422.3356, 215.7040
422.8177, 214.5960
423.2998, 214.3817
423.7820, 215.1999
424.2641, 216.3558
424.7462, 217.1835
425.2283, 217.6801
425.7104, 217.9352
426.1925, 217.8004
426.6747, 217.5624
427.1568, 217.2542
427.6389, 216.9080
428.1210, 216.5512
428.6031, 216.1877
429.0852, 215.8560
429.5674, 215.7243
430.0495, 215.9568
430.5316, 215.8007
431.0137, 214.3769
431.4958, 212.9901
431.9779, 212.7941
432.4601, 213.7366
432.9422, 214.3762
433.4243, 213.1703
433.9064, 210.6563
434.3885, 209.4166
434.8706, 210.2767
435.3528, 210.7467
435.8349, 208.6510
436.3170, 205.1784
436.7991, 202.2355
437.2812, 200.4339
437.7633, 199.1069
438.2455, 197.5161
438.7276, 195.7655
439.2097, 194.6546
439.6918, 194.5465
440.1739, 195.0778
440.6560, 196.1341
441.1382, 197.9304
441.6203, 198.3290
442.1024, 195.7438
442.5845, 191.9968
443.0666, 188.7307
443.5487, 186.2034
444.0309, 185.0387
444.5130, 186.0759
444.9951, 188.9855
445.4772, 190.5813
445.9593, 190.2681
446.4414, 189.5471
446.9236, 188.6953
447.4057, 187.7691
447.8878, 186.6890
448.3699, 185.4436
448.8520, 184.4639
449.3341, 184.5351
449.8163, 186.4725
450.2984, 187.0898
450.7805, 185.6093
451.2626, 183.7417
451.7447, 182.1305
452.2268, 180.8826
452.7090, 180.0062
453.1911, 179.5583
453.6732, 179.3947
454.1553, 178.8291
454.6374, 177.1118
455.1195, 176.3211
455.6017, 177.0851
456.0838, 178.5745
456.5659, 180.4502
457.0480, 182.5186
457.5301, 184.0437
458.0122, 184.1922
458.4944, 182.9826
458.9765, 181.2773
459.4586, 178.5354
459.9407, 176.1681
460.4228, 175.0588
460.9049, 174.7559
461.3871, 174.4898
461.8692, 174.0391
462.3513, 173.4409
462.8334, 172.5965
463.3155, 171.5280
463.7976, 170.8771
464.2798, 171.1163
464.7619, 171.5305
465.2440, 171.0315
465.7261, 169.5918
466.2082, 168.6205
466.6903, 169.0824
467.1725, 169.9993
467.6546, 170.3531
468.1367, 170.0382
468.6188, 168.8993
469.1009, 166.5625
469.5830, 163.3927
470.0652, 161.1786
470.5473, 159.8893
471.0294, 159.4433
471.5115, 160.4971
471.9936, 162.1019
472.4757, 162.9204
472.9579, 162.6573
473.4400, 162.2589
473.9221, 162.9863
474.4042, 165.2517
474.8863, 166.2075
475.3684, 164.3321
475.8506, 162.9240
476.3327, 163.6186
476.8148, 165.5324
477.2969, 166.9626
477.7790, 167.0513
478.2611, 166.6457
478.7433, 167.7206
479.2254, 171.0598
479.7075, 173.6379
480.1896, 174.6301
480.6717, 175.1753
481.1538, 175.6592
481.6360, 176.2044
482.1181, 176.9889
482.6002, 178.1498
483.0823, 179.6264
483.5644, 181.3665
484.0465, 183.4898
484.5287, 185.4055
485.0108, 186.8301
485.4929, 187.8997
485.9750, 188.4965
486.4571, 188.3421
486.9392, 189.0797
487.4214, 192.3689
487.9035, 197.1793
488.3856, 201.3076
488.8677, 204.4477
489.3498, 206.7883
489.8319, 208.2595
490.3141, 208.9286
490.7962, 209.9284
491.2783, 211.8407
491.7604, 213.4756
492.2425, 214.5067
492.7246, 214.8483
493.2068, 214.2387
493.6889, 212.5912
494.1710, 210.3838
494.6531, 208.4212
495.1352, 207.0613
495.6173, 204.7504
496.0995, 201.0106
496.5816, 196.9352
497.0637, 192.5831
497.5458, 188.3575
498.0279, 185.0924
498.5100, 183.3433
498.9922, 182.3706
499.4743, 180.1493
499.9564, 176.0297
500.4385, 172.3121
500.9206, 168.9591
501.4027, 166.3621
501.8849, 165.0865
502.3670, 164.9585
502.8491, 165.0999
503.3312, 165.1749
503.8133, 165.0233
504.2954, 164.0324
504.7776, 161.9984
505.2597, 160.0974
505.7418, 158.7448
506.2239, 157.9444
506.7060, 157.8201
507.1881, 158.6171
507.6703, 159.0850
508.1524, 158.0379
508.6345, 156.4376
509.1166, 155.9247
509.5987, 156.7428
510.0808, 158.2298
510.5630, 160.1407
511.0451, 162.3222
511.5272, 163.2192
512.0093, 161.6384
512.4914, 160.3761
512.9735, 160.5602
513.4556, 161.4000
513.9377, 161.8065
514.4199, 161.5011
514.9020, 160.9888
515.3841, 160.8020
515.8662, 160.8407
516.3483, 161.8895
516.8304, 166.2285
517.3126, 169.1369
517.7947, 167.9960
518.2768, 164.9672
518.7589, 163.2132
519.2410, 164.0028
519.7231, 166.1438
520.2053, 168.2893
520.6874, 170.4951
521.1695, 171.6876
521.6516, 170.8961
522.1337, 170.1160
522.6158, 171.1200
523.0980, 173.2430
523.5801, 174.5204
524.0622, 173.4229
524.5443, 172.0108
525.0264, 172.7779
525.5085, 175.3437
525.9907, 177.3618
526.4728, 177.9007
526.9549, 177.8332
527.4370, 178.5381
527.9191, 180.2314
528.4012, 181.3185
528.8834, 181.2484
529.3655, 180.8634
529.8476, 180.5962
530.3297, 180.5060
530.8118, 180.7010
531.2939, 181.2756
531.7761, 181.9329
532.2582, 181.8754
532.7403, 180.5106
533.2224, 179.5076
533.7045, 179.9306
534.1866, 179.7808
534.6688, 177.2544
535.1509, 173.0157
535.6330, 169.2621
536.1151, 167.4970
536.5972, 167.0927
537.0793, 166.6182
537.5615, 166.3535
538.0436, 164.8429
538.5257, 160.5091
539.0078, 155.6430
539.4899, 152.2042
539.9720, 150.2168
540.4542, 148.6964
540.9363, 147.4083
541.4184, 146.1964
541.9005, 145.0243
542.3826, 143.8498
542.8647, 141.8934
543.3469, 138.3207
543.8290, 134.1275
544.3111, 132.0298
544.7932, 132.8243
545.2753, 133.4864
545.7574, 133.8497
546.2396, 133.7333
546.7217, 132.4821
547.2038, 130.4568
547.6859, 129.1827
548.1680, 129.8560
548.6501, 131.8788
549.1323, 132.4941
549.6144, 130.3254
550.0965, 129.1393
550.5786, 130.1683
551.0607, 131.5613
551.5428, 131.9132
552.0250, 131.2251
552.5071, 130.4607
552.9892, 130.3076
553.4713, 130.6000
553.9534, 130.9759
554.4355, 131.5379
554.9177, 131.6081
555.3998, 130.4549
555.8819, 129.0042
556.3640, 128.5559
556.8461, 129.2443
557.3282, 129.9730
557.8104, 130.4083
558.2925, 130.6091
558.7746, 130.5377
559.2567, 130.2444
559.7388, 130.1688
560.2209, 130.7476
560.7031, 131.4570
561.1852, 130.6090
561.6673, 124.9204
562.1494, 122.3714
562.6315, 125.5639
563.1136, 129.9729
563.5958, 132.4155
564.0779, 132.9267
564.5600, 133.2140
565.0421, 134.5931
565.5242, 136.4589
566.0063, 136.5184
566.4885, 133.8892
566.9706, 132.0305
567.4527, 132.1741
567.9348, 133.0824
568.4169, 134.0983
568.8990, 135.1471
569.3812, 136.2005
569.8633, 137.4962
570.3454, 138.6443
570.8275, 138.8408
571.3096, 138.1626
571.7917, 137.8216
572.2739, 138.4597
572.7560, 139.4924
573.2381, 139.8816
573.7202, 139.5430
574.2023, 138.9655
574.6844, 137.5718
575.1666, 136.4903
575.6487, 136.5811
576.1308, 137.6377
576.6129, 139.1923
577.0950, 141.0542
577.5771, 142.7226
578.0593, 142.7981
578.5414, 140.0527
579.0235, 139.0797
579.5056, 142.5100
579.9877, 145.5118
580.4698, 145.4283
580.9520, 143.2243
581.4341, 141.3150
581.9162, 140.7067
582.3983, 141.0086
582.8804, 142.1186
583.3625, 143.9080
583.8447, 144.8656
584.3268, 144.4342
584.8089, 143.5579
585.2910, 143.2198
585.7732, 143.3509
586.2553, 143.2240
586.7374, 142.5119
587.2195, 141.8051
587.7017, 140.9910
588.1838, 140.5018
588.6659, 141.4382
589.1480, 144.0339
589.6301, 146.7579
590.1122, 147.6554
590.5944, 146.5020
591.0765, 145.6337
591.5586, 144.8369
592.0407, 144.6146
592.5228, 145.6476
593.0049, 147.0487
593.4871, 147.6395
593.9692, 147.1447
594.4513, 146.6112
594.9334, 147.2014
595.4155, 148.6246
595.8976, 149.4821
596.3798, 149.5139
596.8619, 149.8241
597.3440, 151.2980
597.8261, 153.4007
598.3082, 154.8499
598.7903, 155.6299
599.2725, 155.8060
599.7546, 154.6618
600.2367, 153.3799
600.7188, 153.3332
601.2009, 154.5122
601.6830, 155.9946
602.1652, 157.1659
602.6473, 158.1563
603.1294, 159.5289
603.6115, 162.0841
604.0936, 163.5047
604.5757, 162.5456
605.0579, 161.4859
605.5400, 161.4414
606.0221, 162.5181
606.5042, 164.6730
606.9863, 168.3576
607.4684, 172.3720
607.9506, 174.6284
608.4327, 175.1713
608.9148, 175.5995
609.3969, 176.1328
609.8790, 177.0472
610.3611, 178.8727
610.8433, 181.5243
611.3254, 183.8376
611.8075, 185.2524
612.2896, 186.7604
612.7717, 188.7991
613.2538, 191.3079
613.7360, 194.2640
614.2181, 197.6333
614.7002, 201.0620
615.1823, 204.0099
615.6644, 206.3915
616.1465, 210.1140
616.6287, 216.1254
617.1108, 222.1964
617.5929, 227.6644
618.0750, 232.9289
618.5571, 238.3814
619.0392, 244.0883
619.5214, 249.9460
620.0035, 255.7544
620.4856, 261.6759
620.9677, 268.0329
621.4498, 274.8194
621.9319, 282.2433
622.4141, 290.1727
622.8962, 299.0334
623.3783, 310.0795
623.8604, 323.8789
624.3425, 337.7103
624.8246, 350.6782
625.3068, 364.0176
625.7889, 378.7972
626.2710, 394.6339
626.7531, 410.4650
627.2352, 425.6532
627.7173, 441.3945
628.1995, 459.9854
628.6816, 482.0206
629.1637, 503.9013
629.6458, 525.6790
630.1279, 546.8054
630.6100, 565.9626
631.0922, 584.6833
631.5743, 605.6827
632.0564, 629.9863
632.5385, 655.6000
633.0206, 680.8758
633.5027, 706.4479
633.9849, 733.8134
634.4670, 763.1770
634.9491, 793.7577
635.4312, 825.0894
635.9133, 857.2528
636.3954, 891.0995
636.8776, 927.8032
637.3597, 964.4257
637.8418, 1000.776
638.3239, 1036.930
638.8060, 1073.613
639.2881, 1110.234
639.7703, 1145.052
640.2524, 1177.141
640.7345, 1206.589
641.2166, 1234.280
641.6987, 1260.548
642.1808, 1279.602
642.6630, 1290.423
643.1451, 1293.717
643.6272, 1289.314
644.1093, 1277.830
644.5914, 1259.874
645.0735, 1235.297
645.5557, 1204.633
646.0378, 1166.635
646.5199, 1123.304
647.0020, 1076.861
647.4841, 1028.288
647.9662, 978.5148
648.4484, 928.0302
648.9305, 877.4813
649.4126, 829.2213
649.8947, 784.0212
650.3768, 740.3544
650.8589, 696.5904
651.3411, 655.4406
651.8232, 619.4816
652.3053, 588.2758
