##NAMES=Hingganite-(Y)
##RRUFFID=R070466
##IDEAL CHEMISTRY=BeY^3+^(SiO_4_)(OH)
##LOCALITY=Tuften Quarry, Tvedalen, Larvik, Vestfold, Norway
##OWNER=RRUFF
##SOURCE=Michael Scott
##DESCRIPTION=White prismatic crystals
##STATUS=The identification of this mineral has been confirmed only by single crystal X-ray diffraction.
##URL=rruff.info/R070466
172.5823, 7860.389
173.0644, 7869.240
173.5465, 7869.324
174.0287, 7881.596
174.5108, 7929.858
174.9929, 7988.498
175.4750, 8027.859
175.9571, 8043.466
176.4392, 8054.596
176.9214, 8081.965
177.4035, 8119.845
177.8856, 8152.713
178.3677, 8166.075
178.8498, 8170.419
179.3319, 8184.120
179.8141, 8212.478
180.2962, 8242.588
180.7783, 8254.783
181.2604, 8252.586
181.7425, 8255.773
182.2246, 8285.481
182.7068, 8330.012
183.1889, 8361.307
183.6710, 8369.637
184.1531, 8368.753
184.6352, 8381.188
185.1173, 8406.414
185.5995, 8432.779
186.0816, 8450.790
186.5637, 8462.186
187.0458, 8473.626
187.5279, 8486.271
188.0100, 8500.116
188.4922, 8513.184
188.9743, 8525.236
189.4564, 8541.824
189.9385, 8572.969
190.4206, 8616.274
190.9027, 8653.063
191.3849, 8676.394
191.8670, 8689.123
192.3491, 8702.211
192.8312, 8715.993
193.3133, 8729.068
193.7954, 8737.104
194.2776, 8740.332
194.7597, 8750.178
195.2418, 8774.015
195.7239, 8809.630
196.2060, 8840.885
196.6881, 8867.653
197.1703, 8889.810
197.6524, 8906.705
198.1345, 8918.016
198.6166, 8926.208
199.0987, 8929.722
199.5808, 8928.549
200.0630, 8934.014
200.5451, 8946.711
201.0272, 8965.311
201.5093, 8989.531
201.9914, 9020.693
202.4735, 9050.540
202.9557, 9077.878
203.4378, 9103.633
203.9199, 9112.832
204.4020, 9097.509
204.8841, 9071.418
205.3662, 9072.119
205.8484, 9106.585
206.3305, 9144.230
206.8126, 9164.235
207.2947, 9161.891
207.7768, 9173.339
208.2589, 9208.920
208.7411, 9257.936
209.2232, 9279.037
209.7053, 9262.226
210.1874, 9241.459
210.6695, 9241.366
211.1517, 9267.557
211.6338, 9290.641
212.1159, 9307.032
212.5980, 9317.317
213.0801, 9324.773
213.5622, 9329.104
214.0444, 9331.029
214.5265, 9327.468
215.0086, 9311.281
215.4907, 9314.157
215.9728, 9349.336
216.4549, 9412.953
216.9371, 9451.098
217.4192, 9453.517
217.9013, 9445.058
218.3834, 9449.705
218.8655, 9473.340
219.3476, 9493.591
219.8298, 9503.292
220.3119, 9502.169
220.7940, 9514.374
221.2761, 9549.594
221.7582, 9587.016
222.2403, 9601.150
222.7225, 9577.799
223.2046, 9563.395
223.6867, 9571.423
224.1688, 9604.448
224.6509, 9631.200
225.1330, 9649.113
225.6152, 9663.481
226.0973, 9683.065
226.5794, 9716.210
227.0615, 9736.555
227.5436, 9731.256
228.0257, 9692.497
228.5079, 9676.055
228.9900, 9691.054
229.4721, 9721.373
229.9542, 9743.189
230.4363, 9750.711
230.9184, 9760.352
231.4006, 9779.173
231.8827, 9811.671
232.3648, 9832.916
232.8469, 9836.054
233.3290, 9832.148
233.8111, 9842.179
234.2933, 9878.554
234.7754, 9908.035
235.2575, 9916.346
235.7396, 9892.585
236.2217, 9882.896
236.7038, 9889.947
237.1860, 9909.830
237.6681, 9936.414
238.1502, 9977.175
238.6323, 10012.78
239.1144, 10036.15
239.5965, 10043.32
240.0787, 10047.48
240.5608, 10043.67
241.0429, 10038.67
241.5250, 10050.37
242.0071, 10095.18
242.4892, 10131.86
242.9714, 10139.33
243.4535, 10095.46
243.9356, 10075.34
244.4177, 10087.28
244.8998, 10120.90
245.3819, 10150.78
245.8641, 10182.29
246.3462, 10202.18
246.8283, 10200.59
247.3104, 10160.38
247.7925, 10140.40
248.2746, 10148.65
248.7568, 10176.00
249.2389, 10196.10
249.7210, 10203.00
250.2031, 10211.63
250.6852, 10230.80
251.1674, 10268.77
251.6495, 10296.25
252.1316, 10306.24
252.6137, 10306.11
253.0958, 10321.96
253.5779, 10369.81
254.0601, 10408.84
254.5422, 10411.69
255.0243, 10353.17
255.5064, 10325.43
255.9885, 10343.86
256.4706, 10393.79
256.9528, 10426.73
257.4349, 10437.61
257.9170, 10439.85
258.3991, 10438.00
258.8812, 10425.77
259.3633, 10428.27
259.8455, 10453.29
260.3276, 10492.86
260.8097, 10517.01
261.2918, 10517.92
261.7739, 10518.12
262.2560, 10532.28
262.7382, 10568.10
263.2203, 10594.35
263.7024, 10606.48
264.1845, 10608.64
264.6666, 10616.89
265.1487, 10635.59
265.6309, 10651.22
266.1130, 10652.11
266.5951, 10630.07
267.0772, 10624.13
267.5593, 10641.61
268.0414, 10675.41
268.5236, 10700.55
269.0057, 10714.51
269.4878, 10726.42
269.9699, 10742.36
270.4520, 10763.51
270.9341, 10783.70
271.4163, 10804.98
271.8984, 10823.75
272.3805, 10824.45
272.8626, 10799.30
273.3447, 10779.10
273.8268, 10786.46
274.3090, 10826.23
274.7911, 10860.48
275.2732, 10886.95
275.7553, 10904.64
276.2374, 10906.35
276.7195, 10887.47
277.2017, 10870.65
277.6838, 10870.94
278.1659, 10889.58
278.6480, 10910.73
279.1301, 10934.65
279.6122, 10958.68
280.0944, 10976.38
280.5765, 10986.72
281.0586, 10996.05
281.5407, 11011.07
282.0228, 11031.91
282.5049, 11040.24
282.9871, 11030.39
283.4692, 11012.39
283.9513, 11007.91
284.4334, 11017.70
284.9155, 11031.88
285.3976, 11045.14
285.8798, 11057.62
286.3619, 11071.93
286.8440, 11089.75
287.3261, 11107.05
287.8082, 11111.87
288.2903, 11104.02
288.7725, 11104.14
289.2546, 11134.20
289.7367, 11186.71
290.2188, 11216.55
290.7009, 11214.71
291.1830, 11201.08
291.6652, 11209.46
292.1473, 11238.50
292.6294, 11268.49
293.1115, 11287.98
293.5936, 11299.55
294.0757, 11311.26
294.5579, 11323.15
295.0400, 11337.32
295.5221, 11360.17
296.0042, 11389.92
296.4863, 11414.69
296.9684, 11432.21
297.4506, 11440.09
297.9327, 11426.57
298.4148, 11385.95
298.8969, 11345.51
299.3790, 11338.15
299.8611, 11358.98
300.3433, 11392.24
300.8254, 11446.72
301.3075, 11503.78
301.7896, 11525.70
302.2717, 11506.33
302.7538, 11480.33
303.2360, 11483.02
303.7181, 11505.98
304.2002, 11529.05
304.6823, 11542.58
305.1644, 11550.95
305.6465, 11556.37
306.1287, 11558.33
306.6108, 11565.74
307.0929, 11594.63
307.5750, 11633.43
308.0571, 11662.06
308.5392, 11667.45
309.0214, 11661.17
309.5035, 11644.03
309.9856, 11615.60
310.4677, 11606.16
310.9498, 11661.32
311.4319, 11742.01
311.9141, 11794.92
312.3962, 11768.05
312.8783, 11731.66
313.3604, 11738.00
313.8426, 11785.90
314.3247, 11825.87
314.8068, 11821.90
315.2889, 11799.62
315.7710, 11785.92
316.2531, 11792.43
316.7353, 11806.56
317.2174, 11826.85
317.6995, 11852.18
318.1816, 11872.10
318.6637, 11872.02
319.1458, 11870.19
319.6280, 11881.27
320.1101, 11927.66
320.5922, 11968.41
321.0743, 11987.44
321.5564, 11988.70
322.0385, 11994.37
322.5207, 12019.54
323.0028, 12045.08
323.4849, 12058.70
323.9670, 12041.65
324.4491, 12032.96
324.9312, 12046.29
325.4134, 12074.51
325.8955, 12090.80
326.3776, 12068.38
326.8597, 12050.97
327.3418, 12060.35
327.8239, 12140.01
328.3061, 12186.57
328.7882, 12173.38
329.2703, 12124.92
329.7524, 12104.24
330.2345, 12135.08
330.7166, 12170.50
331.1988, 12193.90
331.6809, 12199.54
332.1630, 12205.50
332.6451, 12213.79
333.1272, 12221.71
333.6093, 12223.37
334.0915, 12213.13
334.5736, 12205.47
335.0557, 12205.64
335.5378, 12215.40
336.0199, 12224.82
336.5020, 12233.92
336.9842, 12242.76
337.4663, 12250.52
337.9484, 12254.73
338.4305, 12265.06
338.9126, 12287.16
339.3947, 12321.05
339.8769, 12345.30
340.3590, 12357.41
340.8411, 12365.39
341.3232, 12378.75
341.8053, 12398.25
342.2874, 12416.58
342.7696, 12432.41
343.2517, 12445.57
343.7338, 12452.98
344.2159, 12453.84
344.6980, 12453.73
345.1801, 12459.29
345.6623, 12469.83
346.1444, 12475.47
346.6265, 12471.86
347.1086, 12464.06
347.5907, 12461.49
348.0728, 12464.23
348.5550, 12476.20
349.0371, 12505.83
349.5192, 12547.72
350.0013, 12586.44
350.4834, 12621.17
350.9655, 12647.65
351.4477, 12653.58
351.9298, 12642.89
352.4119, 12634.53
352.8940, 12644.02
353.3761, 12662.34
353.8582, 12676.00
354.3404, 12684.10
354.8225, 12684.54
355.3046, 12663.18
355.7867, 12631.59
356.2688, 12617.48
356.7509, 12649.69
357.2331, 12697.09
357.7152, 12732.87
358.1973, 12754.75
358.6794, 12767.86
359.1615, 12769.82
359.6436, 12766.31
360.1258, 12765.24
360.6079, 12774.63
361.0900, 12783.20
361.5721, 12780.22
362.0542, 12765.85
362.5363, 12761.94
363.0185, 12784.12
363.5006, 12817.79
363.9827, 12849.56
364.4648, 12890.20
364.9469, 12914.38
365.4290, 12904.98
365.9112, 12867.58
366.3933, 12841.22
366.8754, 12826.18
367.3575, 12829.09
367.8396, 12854.04
368.3217, 12936.68
368.8039, 12997.74
369.2860, 13025.57
369.7681, 13027.71
370.2502, 13027.33
370.7323, 13022.57
371.2144, 13017.11
371.6966, 13011.96
372.1787, 13005.79
372.6608, 13002.75
373.1429, 12999.48
373.6250, 13001.20
374.1071, 13018.40
374.5893, 13059.60
375.0714, 13099.44
375.5535, 13130.37
376.0356, 13152.11
376.5177, 13168.55
376.9998, 13179.72
377.4820, 13185.32
377.9641, 13184.16
378.4462, 13175.65
378.9283, 13162.69
379.4104, 13139.03
379.8925, 13112.12
380.3747, 13124.06
380.8568, 13180.83
381.3389, 13239.91
381.8210, 13262.13
382.3031, 13251.67
382.7852, 13244.21
383.2674, 13245.60
383.7495, 13254.16
384.2316, 13266.67
384.7137, 13283.35
385.1958, 13305.02
385.6779, 13342.60
386.1601, 13384.45
386.6422, 13402.85
387.1243, 13391.33
387.6064, 13368.23
388.0885, 13336.26
388.5706, 13306.00
389.0528, 13305.72
389.5349, 13386.95
390.0170, 13483.03
390.4991, 13526.57
390.9812, 13510.81
391.4633, 13481.74
391.9455, 13460.76
392.4276, 13446.51
392.9097, 13437.25
393.3918, 13434.68
393.8739, 13434.89
394.3561, 13433.22
394.8382, 13430.84
395.3203, 13438.43
395.8024, 13473.45
396.2845, 13511.56
396.7667, 13535.53
397.2488, 13520.91
397.7309, 13518.71
398.2130, 13551.13
398.6951, 13604.75
399.1772, 13637.32
399.6594, 13620.60
400.1415, 13602.31
400.6236, 13600.58
401.1057, 13624.52
401.5878, 13643.45
402.0699, 13655.29
402.5521, 13663.13
403.0342, 13670.80
403.5163, 13675.36
403.9984, 13685.38
404.4805, 13706.31
404.9626, 13738.31
405.4448, 13757.65
405.9269, 13759.50
406.4090, 13757.55
406.8911, 13769.90
407.3732, 13801.63
407.8553, 13810.91
408.3375, 13782.37
408.8196, 13731.02
409.3017, 13700.54
409.7838, 13691.15
410.2659, 13700.43
410.7480, 13734.60
411.2302, 13788.58
411.7123, 13839.31
412.1944, 13886.76
412.6765, 13922.01
413.1586, 13925.18
413.6407, 13902.70
414.1229, 13882.92
414.6050, 13874.91
415.0871, 13880.13
415.5692, 13910.27
416.0513, 13967.67
416.5334, 14013.10
417.0156, 14000.91
417.4977, 13960.29
417.9798, 13935.19
418.4619, 13953.71
418.9440, 13981.92
419.4261, 14000.09
419.9083, 14009.35
420.3904, 14018.38
420.8725, 14028.55
421.3546, 14041.31
421.8367, 14058.33
422.3188, 14085.51
422.8010, 14107.44
423.2831, 14117.60
423.7652, 14120.07
424.2473, 14124.04
424.7294, 14132.96
425.2115, 14141.61
425.6937, 14147.39
426.1758, 14148.19
426.6579, 14154.29
427.1400, 14168.51
427.6221, 14186.25
428.1042, 14203.49
428.5864, 14221.25
429.0685, 14235.97
429.5506, 14244.37
430.0327, 14248.25
430.5148, 14263.53
430.9969, 14295.00
431.4791, 14326.26
431.9612, 14345.33
432.4433, 14351.68
432.9254, 14355.58
433.4075, 14357.42
433.8896, 14357.99
434.3718, 14358.18
434.8539, 14358.04
435.3360, 14358.96
435.8181, 14360.93
436.3002, 14364.49
436.7823, 14371.47
437.2645, 14381.97
437.7466, 14394.76
438.2287, 14409.32
438.7108, 14425.25
439.1929, 14441.63
439.6750, 14456.14
440.1572, 14472.73
440.6393, 14501.15
441.1214, 14537.59
441.6035, 14563.25
442.0856, 14555.34
442.5677, 14538.68
443.0499, 14535.66
443.5320, 14557.19
444.0141, 14575.73
444.4962, 14574.34
444.9783, 14563.79
445.4604, 14562.11
445.9426, 14585.13
446.4247, 14607.26
446.9068, 14617.94
447.3889, 14614.23
447.8710, 14617.42
448.3531, 14638.55
448.8353, 14660.60
449.3174, 14670.61
449.7995, 14659.18
450.2816, 14651.08
450.7637, 14646.98
451.2458, 14648.01
451.7280, 14658.92
452.2101, 14680.85
452.6922, 14709.63
453.1743, 14750.35
453.6564, 14806.66
454.1385, 14829.70
454.6207, 14810.56
455.1028, 14776.67
455.5849, 14765.49
456.0670, 14776.04
456.5491, 14792.04
457.0313, 14809.10
457.5134, 14827.16
457.9955, 14846.92
458.4776, 14868.39
458.9597, 14886.89
459.4418, 14899.61
459.9240, 14906.70
460.4061, 14905.31
460.8882, 14887.87
461.3703, 14878.52
461.8524, 14911.57
462.3345, 14969.59
462.8167, 15011.44
463.2988, 15006.80
463.7809, 14987.64
464.2630, 14968.54
464.7451, 14949.78
465.2272, 14943.24
465.7094, 14961.75
466.1915, 14990.17
466.6736, 15015.12
467.1557, 15031.16
467.6378, 15046.78
468.1199, 15058.76
468.6021, 15070.17
469.0842, 15095.66
469.5663, 15158.74
470.0484, 15208.25
470.5305, 15218.85
471.0126, 15174.24
471.4948, 15144.69
471.9769, 15131.97
472.4590, 15131.70
472.9411, 15139.60
473.4232, 15156.64
473.9053, 15175.20
474.3875, 15192.34
474.8696, 15209.53
475.3517, 15232.96
475.8338, 15262.96
476.3159, 15294.72
476.7981, 15325.95
477.2802, 15356.07
477.7623, 15384.89
478.2444, 15414.53
478.7265, 15436.26
479.2086, 15429.45
479.6908, 15405.72
480.1729, 15394.30
480.6550, 15422.75
481.1371, 15460.30
481.6192, 15483.72
482.1013, 15492.40
482.5835, 15489.48
483.0656, 15453.14
483.5477, 15418.42
484.0298, 15416.16
484.5119, 15488.00
484.9940, 15546.23
485.4762, 15570.06
485.9583, 15566.90
486.4404, 15555.85
486.9225, 15523.14
487.4046, 15497.98
487.8867, 15489.58
488.3689, 15500.73
488.8510, 15511.10
489.3331, 15514.31
489.8152, 15524.48
490.2973, 15562.34
490.7794, 15639.53
491.2616, 15692.01
491.7437, 15704.71
492.2258, 15690.37
492.7079, 15682.19
493.1900, 15680.56
493.6721, 15679.27
494.1543, 15672.26
494.6364, 15662.51
495.1185, 15659.79
495.6006, 15664.54
496.0827, 15676.47
496.5648, 15698.02
497.0470, 15726.42
497.5291, 15755.77
498.0112, 15789.03
498.4933, 15817.85
498.9754, 15830.40
499.4576, 15831.13
499.9397, 15836.24
500.4218, 15861.01
500.9039, 15887.28
501.3860, 15903.26
501.8681, 15904.60
502.3503, 15904.37
502.8324, 15899.27
503.3145, 15896.48
503.7966, 15904.80
504.2787, 15942.68
504.7608, 15969.32
505.2430, 15971.84
505.7251, 15955.61
506.2072, 15960.66
506.6893, 16000.65
507.1714, 16037.47
507.6535, 16048.37
508.1357, 16029.82
508.6178, 16011.67
509.0999, 15990.97
509.5820, 15979.49
510.0641, 16002.13
510.5462, 16055.71
511.0284, 16098.56
511.5105, 16115.56
511.9926, 16115.88
512.4747, 16112.34
512.9568, 16105.98
513.4389, 16105.55
513.9210, 16117.69
514.4031, 16139.09
514.8853, 16169.76
515.3674, 16214.70
515.8495, 16248.12
516.3316, 16244.18
516.8137, 16221.78
517.2958, 16207.04
517.7780, 16203.90
518.2601, 16214.07
518.7422, 16248.37
519.2244, 16302.90
519.7065, 16339.22
520.1886, 16332.34
520.6707, 16324.08
521.1528, 16336.04
521.6349, 16388.12
522.1171, 16406.08
522.5992, 16372.18
523.0813, 16321.84
523.5634, 16305.27
524.0455, 16329.54
524.5276, 16348.69
525.0098, 16345.76
525.4919, 16331.62
525.9740, 16349.31
526.4561, 16400.00
526.9382, 16446.50
527.4203, 16454.21
527.9025, 16440.62
528.3846, 16453.71
528.8667, 16503.25
529.3488, 16545.72
529.8309, 16524.23
530.3130, 16470.80
530.7952, 16437.11
531.2773, 16453.34
531.7594, 16485.71
532.2415, 16528.77
532.7236, 16576.77
533.2057, 16603.30
533.6879, 16574.75
534.1700, 16543.25
534.6521, 16535.38
535.1342, 16561.70
535.6163, 16588.51
536.0984, 16618.06
536.5806, 16645.71
537.0627, 16665.60
537.5448, 16674.62
538.0269, 16682.65
538.5090, 16686.31
538.9911, 16692.10
539.4733, 16732.61
539.9554, 16816.06
540.4375, 16876.54
540.9196, 16859.67
541.4017, 16785.10
541.8839, 16747.43
542.3660, 16750.87
542.8481, 16766.64
543.3302, 16761.33
543.8123, 16749.09
544.2944, 16760.29
544.7766, 16816.86
545.2587, 16877.41
545.7408, 16913.94
546.2229, 16928.80
546.7050, 16928.84
547.1871, 16906.48
547.6693, 16878.77
548.1514, 16845.40
548.6335, 16803.20
549.1156, 16793.29
549.5977, 16858.26
550.0798, 16933.20
550.5620, 16972.12
551.0441, 16948.54
551.5262, 16942.18
552.0083, 16962.20
552.4904, 16996.67
552.9725, 17022.59
553.4547, 17038.71
553.9368, 17052.54
554.4189, 17063.89
554.9010, 17075.29
555.3831, 17101.88
555.8652, 17144.10
556.3474, 17179.38
556.8295, 17184.33
557.3116, 17170.52
557.7937, 17161.49
558.2758, 17161.04
558.7579, 17163.27
559.2401, 17158.20
559.7222, 17153.51
560.2043, 17161.16
560.6864, 17195.29
561.1685, 17233.50
561.6506, 17271.31
562.1328, 17306.54
562.6149, 17329.16
563.0970, 17327.14
563.5791, 17320.88
564.0612, 17318.96
564.5433, 17323.05
565.0255, 17324.66
565.5076, 17321.64
565.9897, 17318.67
566.4718, 17319.42
566.9539, 17323.26
567.4360, 17337.15
567.9182, 17367.82
568.4003, 17401.64
568.8824, 17400.43
569.3645, 17367.77
569.8466, 17347.49
570.3287, 17377.07
570.8109, 17428.60
571.2930, 17447.71
571.7751, 17435.74
572.2572, 17434.73
572.7393, 17489.89
573.2214, 17563.27
573.7036, 17616.27
574.1857, 17637.28
574.6678, 17645.75
575.1499, 17642.98
575.6320, 17633.26
576.1141, 17622.75
576.5963, 17608.99
577.0784, 17598.32
577.5605, 17589.30
578.0426, 17583.44
578.5247, 17592.28
579.0068, 17623.38
579.4890, 17653.53
579.9711, 17670.22
580.4532, 17672.58
580.9353, 17677.37
581.4174, 17686.18
581.8995, 17690.77
582.3817, 17670.37
582.8638, 17635.74
583.3459, 17630.70
583.8280, 17677.86
584.3101, 17735.05
584.7922, 17748.57
585.2744, 17733.07
585.7565, 17726.58
586.2386, 17761.52
586.7207, 17798.90
587.2028, 17812.97
587.6849, 17803.56
588.1671, 17797.60
588.6492, 17800.81
589.1313, 17810.67
589.6134, 17827.37
590.0955, 17861.43
590.5776, 17877.81
591.0598, 17865.83
591.5419, 17845.77
592.0240, 17842.91
592.5061, 17857.88
592.9882, 17890.41
593.4703, 17949.87
593.9525, 18017.11
594.4346, 18034.53
594.9167, 18005.84
595.3988, 17983.18
595.8809, 18005.99
596.3630, 18050.38
596.8452, 18078.17
597.3273, 18087.66
597.8094, 18091.54
598.2915, 18097.83
598.7736, 18102.77
599.2557, 18101.96
599.7379, 18090.50
600.2200, 18081.44
600.7021, 18069.82
601.1842, 18065.08
601.6663, 18083.23
602.1484, 18148.97
602.6306, 18203.85
603.1127, 18236.51
603.5948, 18250.43
604.0769, 18261.85
604.5590, 18270.86
605.0411, 18276.79
605.5233, 18280.57
606.0054, 18281.63
606.4875, 18269.64
606.9696, 18242.95
607.4517, 18220.79
607.9338, 18226.70
608.4160, 18250.14
608.8981, 18268.51
609.3802, 18274.71
609.8623, 18282.09
610.3444, 18301.54
610.8265, 18328.90
611.3087, 18357.58
611.7908, 18399.46
612.2729, 18427.68
612.7550, 18414.54
613.2371, 18370.15
613.7192, 18369.82
614.2014, 18454.17
614.6835, 18535.02
615.1656, 18577.51
615.6477, 18578.86
616.1298, 18563.26
616.6119, 18522.79
617.0941, 18486.25
617.5762, 18487.71
618.0583, 18521.75
618.5404, 18539.50
619.0225, 18528.57
619.5046, 18514.89
619.9868, 18536.75
620.4689, 18581.55
620.9510, 18619.20
621.4331, 18627.00
621.9152, 18631.94
622.3973, 18657.17
622.8795, 18696.29
623.3616, 18723.02
623.8437, 18715.43
624.3258, 18705.05
624.8079, 18708.85
625.2900, 18731.33
625.7722, 18739.46
626.2543, 18716.10
626.7364, 18699.71
627.2185, 18729.13
627.7006, 18817.39
628.1827, 18862.51
628.6649, 18846.99
629.1470, 18810.91
629.6291, 18817.04
630.1112, 18856.52
630.5933, 18881.78
631.0754, 18864.17
631.5576, 18840.90
632.0397, 18868.47
632.5218, 18930.82
633.0039, 18977.46
633.4860, 18969.63
633.9681, 18949.12
634.4503, 18939.80
634.9324, 18943.45
635.4145, 18943.10
635.8966, 18916.53
636.3787, 18900.63
636.8608, 18919.67
637.3430, 18998.24
637.8251, 19041.61
638.3072, 19039.20
638.7893, 19017.08
639.2714, 19004.01
639.7535, 19000.13
640.2357, 19001.48
640.7178, 19008.19
641.1999, 19018.06
641.6820, 19024.60
642.1641, 19030.71
642.6462, 19046.41
643.1284, 19091.97
643.6105, 19137.63
644.0926, 19155.10
644.5747, 19148.11
645.0568, 19142.41
645.5389, 19142.15
646.0211, 19150.38
646.5032, 19173.32
646.9853, 19220.76
647.4674, 19244.64
647.9495, 19226.79
648.4316, 19205.92
648.9138, 19218.79
649.3959, 19275.02
649.8780, 19304.12
650.3601, 19293.61
650.8422, 19268.33
651.3243, 19265.08
651.8065, 19280.35
652.2886, 19295.23
652.7707, 19299.82
653.2528, 19305.83
653.7349, 19336.83
654.2170, 19381.89
654.6992, 19408.02
655.1813, 19367.80
655.6634, 19332.52
656.1455, 19353.16
656.6276, 19431.47
657.1097, 19475.33
657.5919, 19430.58
658.0740, 19390.44
658.5561, 19405.60
659.0382, 19496.38
659.5203, 19550.22
660.0024, 19558.88
660.4846, 19550.92
660.9667, 19558.33
661.4488, 19578.40
661.9309, 19585.07
662.4130, 19571.67
662.8951, 19550.11
663.3773, 19529.11
663.8594, 19511.78
664.3415, 19505.03
664.8236, 19511.73
665.3057, 19529.81
665.7878, 19567.27
666.2700, 19616.87
666.7521, 19654.11
667.2342, 19661.04
667.7163, 19666.49
668.1984, 19684.26
668.6805, 19714.08
669.1627, 19718.89
669.6448, 19689.09
670.1269, 19656.08
670.6090, 19638.12
