##NAMES=Hingganite-(Ce)
##RRUFFID=R060857
##IDEAL CHEMISTRY=BeCe^3+^(SiO_4_)(OH)
##LOCALITY=Tatyana pegmatite, Haldzan Buregteg massif, Mongolia
##OWNER=RRUFF
##SOURCE=Michael Scott
##DESCRIPTION=Brown vitreous fragments
##STATUS=The identification of this mineral has been confirmed only by single crystal X-ray diffraction.
##URL=rruff.info/R060857
145.1467, 6429.934
145.6288, 6471.266
146.1110, 6508.521
146.5931, 6543.571
147.0752, 6579.557
147.5573, 6604.089
148.0394, 6610.236
148.5215, 6605.845
149.0037, 6606.651
149.4858, 6613.957
149.9679, 6625.158
150.4500, 6640.151
150.9321, 6669.175
151.4142, 6687.729
151.8964, 6689.858
152.3785, 6680.616
152.8606, 6676.393
153.3427, 6678.010
153.8248, 6685.659
154.3069, 6699.487
154.7890, 6728.297
155.2712, 6754.766
155.7533, 6772.346
156.2354, 6782.967
156.7175, 6803.077
157.1996, 6844.460
157.6817, 6892.368
158.1639, 6935.717
158.6460, 6975.120
159.1281, 7006.198
159.6102, 7018.703
160.0923, 7011.351
160.5744, 7020.216
161.0566, 7072.413
161.5387, 7142.111
162.0208, 7200.648
162.5029, 7232.500
162.9850, 7254.709
163.4671, 7273.439
163.9493, 7288.073
164.4314, 7304.703
164.9135, 7333.640
165.3956, 7365.754
165.8777, 7386.331
166.3598, 7381.750
166.8420, 7368.096
167.3241, 7355.474
167.8062, 7344.163
168.2883, 7338.641
168.7704, 7342.591
169.2525, 7354.843
169.7346, 7372.346
170.2168, 7399.463
170.6989, 7428.548
171.1810, 7451.566
171.6631, 7465.966
172.1452, 7476.185
172.6273, 7486.666
173.1095, 7496.565
173.5916, 7502.868
174.0737, 7496.414
174.5558, 7486.576
175.0379, 7487.691
175.5201, 7506.261
176.0022, 7533.729
176.4843, 7562.484
176.9664, 7592.022
177.4485, 7619.574
177.9306, 7645.738
178.4128, 7668.117
178.8949, 7681.366
179.3770, 7675.188
179.8591, 7663.982
180.3412, 7676.097
180.8233, 7711.993
181.3055, 7745.963
181.7876, 7742.833
182.2697, 7715.146
182.7518, 7705.442
183.2339, 7743.944
183.7160, 7809.600
184.1981, 7851.748
184.6803, 7868.741
185.1624, 7873.464
185.6445, 7884.881
186.1266, 7899.506
186.6087, 7896.690
187.0908, 7844.719
187.5730, 7763.058
188.0551, 7734.021
188.5372, 7765.616
189.0193, 7826.210
189.5014, 7882.153
189.9835, 7933.394
190.4657, 7968.215
190.9478, 7975.529
191.4299, 7958.801
191.9120, 7938.919
192.3941, 7913.024
192.8762, 7892.497
193.3584, 7904.664
193.8405, 7951.117
194.3226, 7993.733
194.8047, 8004.978
195.2868, 7986.512
195.7689, 7979.246
196.2511, 7987.954
196.7332, 8007.859
197.2153, 8032.678
197.6974, 8065.033
198.1795, 8086.485
198.6616, 8077.359
199.1437, 8035.302
199.6259, 8009.935
200.1080, 8009.507
200.5901, 8028.062
201.0722, 8049.611
201.5543, 8076.457
202.0364, 8097.557
202.5186, 8097.873
203.0007, 8072.174
203.4828, 8067.540
203.9649, 8098.661
204.4470, 8155.117
204.9291, 8184.087
205.4113, 8177.887
205.8934, 8164.555
206.3755, 8166.944
206.8576, 8187.565
207.3397, 8212.070
207.8218, 8242.088
208.3040, 8275.361
208.7861, 8290.074
209.2682, 8281.803
209.7503, 8264.044
210.2324, 8245.263
210.7145, 8220.945
211.1967, 8215.108
211.6788, 8241.053
212.1609, 8297.271
212.6430, 8325.647
213.1251, 8314.413
213.6072, 8293.071
214.0894, 8292.572
214.5715, 8318.994
215.0536, 8350.178
215.5357, 8384.735
216.0178, 8423.588
216.4999, 8442.013
216.9820, 8432.460
217.4642, 8410.250
217.9463, 8390.317
218.4284, 8367.090
218.9105, 8359.476
219.3926, 8378.549
219.8747, 8428.896
220.3569, 8457.795
220.8390, 8452.443
221.3211, 8437.574
221.8032, 8450.106
222.2853, 8510.695
222.7674, 8556.162
223.2496, 8562.550
223.7317, 8519.238
224.2138, 8497.282
224.6959, 8503.729
225.1780, 8526.279
225.6601, 8548.678
226.1423, 8574.223
226.6244, 8593.218
227.1065, 8601.432
227.5886, 8596.299
228.0707, 8589.661
228.5528, 8576.117
229.0350, 8563.872
229.5171, 8569.029
229.9992, 8604.229
230.4813, 8635.142
230.9634, 8648.661
231.4455, 8637.921
231.9276, 8632.665
232.4098, 8634.996
232.8919, 8641.815
233.3740, 8646.896
233.8561, 8648.082
234.3382, 8651.233
234.8203, 8659.217
235.3025, 8674.863
235.7846, 8687.033
236.2667, 8692.386
236.7488, 8695.840
237.2309, 8709.016
237.7130, 8741.960
238.1952, 8769.107
238.6773, 8778.631
239.1594, 8760.148
239.6415, 8752.545
240.1236, 8760.143
240.6057, 8777.278
241.0879, 8790.028
241.5700, 8790.629
242.0521, 8798.479
242.5342, 8824.850
243.0163, 8887.136
243.4984, 8923.837
243.9806, 8923.194
244.4627, 8900.208
244.9448, 8890.624
245.4269, 8899.198
245.9090, 8913.427
246.3911, 8928.978
246.8732, 8947.580
247.3554, 8961.836
247.8375, 8968.323
248.3196, 8971.101
248.8017, 8981.121
249.2838, 9002.213
249.7659, 9024.464
250.2481, 9044.897
250.7302, 9066.397
251.2123, 9079.533
251.6944, 9081.438
252.1765, 9076.654
252.6586, 9076.956
253.1408, 9088.791
253.6229, 9096.313
254.1050, 9092.344
254.5871, 9073.424
255.0692, 9051.694
255.5513, 9019.932
256.0334, 8988.436
256.5156, 8983.081
256.9977, 9012.919
257.4798, 9053.261
257.9619, 9096.586
258.4440, 9151.284
258.9261, 9183.200
259.4083, 9182.182
259.8904, 9162.633
260.3725, 9160.059
260.8546, 9180.496
261.3367, 9205.443
261.8188, 9229.344
262.3010, 9257.132
262.7831, 9265.051
263.2652, 9241.882
263.7473, 9205.095
264.2294, 9197.882
264.7115, 9233.814
265.1937, 9268.659
265.6758, 9279.041
266.1579, 9255.560
266.6400, 9247.063
267.1221, 9257.968
267.6042, 9281.164
268.0864, 9303.040
268.5685, 9325.671
269.0506, 9342.506
269.5327, 9350.384
270.0148, 9348.535
270.4969, 9341.981
270.9791, 9329.039
271.4612, 9313.523
271.9433, 9303.124
272.4254, 9298.758
272.9075, 9296.775
273.3896, 9293.645
273.8718, 9287.876
274.3539, 9294.546
274.8360, 9315.527
275.3181, 9346.549
275.8002, 9385.315
276.2823, 9435.984
276.7645, 9473.005
277.2466, 9479.535
277.7287, 9452.795
278.2108, 9439.688
278.6929, 9443.635
279.1750, 9454.238
279.6572, 9451.769
280.1393, 9433.526
280.6214, 9423.868
281.1035, 9438.626
281.5856, 9476.630
282.0677, 9501.700
282.5499, 9513.143
283.0320, 9513.145
283.5141, 9500.270
283.9962, 9473.882
284.4783, 9451.662
284.9604, 9437.625
285.4425, 9432.747
285.9247, 9450.514
286.4068, 9496.157
286.8889, 9544.634
287.3710, 9558.610
287.8531, 9540.139
288.3352, 9527.291
288.8174, 9541.524
289.2995, 9573.846
289.7816, 9580.245
290.2637, 9556.368
290.7458, 9532.147
291.2279, 9549.107
291.7101, 9600.462
292.1922, 9640.924
292.6743, 9648.936
293.1564, 9635.569
293.6385, 9626.683
294.1206, 9622.184
294.6028, 9625.011
295.0849, 9648.578
295.5670, 9685.025
296.0491, 9703.353
296.5312, 9682.607
297.0133, 9643.806
297.4955, 9626.886
297.9776, 9632.192
298.4597, 9643.742
298.9418, 9645.477
299.4239, 9642.872
299.9060, 9649.938
300.3882, 9678.269
300.8703, 9711.668
301.3524, 9720.046
301.8345, 9706.019
302.3166, 9699.502
302.7987, 9729.854
303.2809, 9781.252
303.7630, 9829.177
304.2451, 9872.213
304.7272, 9901.265
305.2093, 9894.703
305.6914, 9858.893
306.1736, 9830.206
306.6557, 9839.077
307.1378, 9865.949
307.6199, 9886.244
308.1020, 9892.865
308.5841, 9895.325
309.0663, 9902.454
309.5484, 9912.624
310.0305, 9919.286
310.5126, 9918.438
310.9947, 9913.069
311.4768, 9904.045
311.9590, 9887.301
312.4411, 9877.014
312.9232, 9890.948
313.4053, 9918.755
313.8874, 9935.546
314.3695, 9909.959
314.8516, 9883.237
315.3337, 9890.047
315.8159, 9950.621
316.2980, 9996.063
316.7801, 9986.464
317.2622, 9943.294
317.7443, 9903.922
318.2264, 9876.120
318.7086, 9860.287
319.1907, 9860.088
319.6728, 9879.587
320.1549, 9897.231
320.6370, 9903.470
321.1191, 9905.369
321.6013, 9911.866
322.0834, 9929.841
322.5655, 9947.847
323.0476, 9963.877
323.5297, 9978.329
324.0118, 9984.589
324.4940, 9961.823
324.9761, 9938.792
325.4582, 9942.890
325.9403, 10021.67
326.4224, 10081.19
326.9045, 10093.51
327.3867, 10055.60
327.8688, 10037.75
328.3509, 10056.33
328.8330, 10086.24
329.3151, 10110.54
329.7972, 10130.25
330.2794, 10142.96
330.7615, 10145.77
331.2436, 10140.16
331.7257, 10137.91
332.2078, 10139.48
332.6899, 10144.10
333.1721, 10152.51
333.6542, 10170.87
334.1363, 10179.87
334.6184, 10174.06
335.1005, 10159.06
335.5826, 10152.21
336.0648, 10152.85
336.5469, 10163.09
337.0290, 10189.19
337.5111, 10241.46
337.9932, 10268.08
338.4753, 10259.72
338.9575, 10232.28
339.4396, 10216.95
339.9217, 10215.61
340.4038, 10218.11
340.8859, 10218.96
341.3680, 10217.77
341.8502, 10226.65
342.3323, 10248.58
342.8144, 10273.66
343.2965, 10288.60
343.7786, 10293.62
344.2607, 10291.54
344.7429, 10277.67
345.2250, 10257.06
345.7071, 10255.36
346.1892, 10274.53
346.6713, 10302.20
347.1534, 10332.12
347.6355, 10361.97
348.1176, 10378.21
348.5998, 10367.92
349.0819, 10346.63
349.5640, 10346.59
350.0461, 10367.24
350.5282, 10396.77
351.0103, 10437.93
351.4925, 10480.00
351.9746, 10497.36
352.4567, 10471.73
352.9388, 10436.32
353.4209, 10433.02
353.9030, 10456.28
354.3852, 10480.69
354.8673, 10489.93
355.3494, 10491.80
355.8315, 10496.78
356.3136, 10509.43
356.7957, 10518.69
357.2779, 10506.67
357.7600, 10484.61
358.2421, 10477.68
358.7242, 10517.04
359.2063, 10562.80
359.6884, 10586.62
360.1706, 10583.44
360.6527, 10570.38
361.1348, 10536.37
361.6169, 10501.81
362.0990, 10494.44
362.5811, 10559.47
363.0633, 10619.83
363.5454, 10638.80
364.0275, 10613.29
364.5096, 10594.27
364.9917, 10603.26
365.4738, 10619.49
365.9560, 10626.03
366.4381, 10608.75
366.9202, 10594.23
367.4023, 10584.29
367.8844, 10579.73
368.3665, 10585.73
368.8487, 10615.17
369.3308, 10646.24
369.8129, 10667.76
370.2950, 10670.03
370.7771, 10678.19
371.2592, 10701.19
371.7414, 10729.11
372.2235, 10733.86
372.7056, 10697.46
373.1877, 10664.41
373.6698, 10651.90
374.1519, 10662.16
374.6341, 10685.02
375.1162, 10728.25
375.5983, 10774.76
376.0804, 10799.05
376.5625, 10798.88
377.0446, 10782.46
377.5267, 10741.16
378.0089, 10678.95
378.4910, 10665.65
378.9731, 10710.90
379.4552, 10771.11
379.9373, 10801.79
380.4194, 10804.16
380.9016, 10802.82
381.3837, 10800.14
381.8658, 10800.53
382.3479, 10820.89
382.8300, 10860.91
383.3121, 10895.63
383.7943, 10902.33
384.2764, 10888.56
384.7585, 10872.28
385.2406, 10852.04
385.7227, 10840.20
386.2048, 10862.47
386.6870, 10909.29
387.1691, 10948.80
387.6512, 10954.83
388.1333, 10946.27
388.6154, 10945.59
389.0975, 10955.15
389.5797, 10967.48
390.0618, 10982.97
390.5439, 10996.41
391.0260, 10999.47
391.5081, 10982.64
391.9902, 10960.02
392.4724, 10935.22
392.9545, 10909.55
393.4366, 10895.14
393.9187, 10905.90
394.4008, 10926.15
394.8829, 10943.56
395.3651, 10954.91
395.8472, 10963.63
396.3293, 10971.34
396.8114, 10977.31
397.2935, 10978.76
397.7756, 10963.46
398.2578, 10952.58
398.7399, 10957.06
399.2220, 10993.17
399.7041, 11013.27
400.1862, 11001.60
400.6683, 10978.45
401.1505, 10976.86
401.6326, 11012.58
402.1147, 11047.31
402.5968, 11071.71
403.0789, 11085.24
403.5610, 11097.03
404.0432, 11108.73
404.5253, 11116.71
405.0074, 11116.21
405.4895, 11104.97
405.9716, 11093.56
406.4537, 11079.83
406.9359, 11068.61
407.4180, 11084.46
407.9001, 11132.60
408.3822, 11177.90
408.8643, 11194.06
409.3464, 11183.75
409.8285, 11170.90
410.3106, 11153.85
410.7928, 11145.31
411.2749, 11174.93
411.7570, 11236.30
412.2391, 11287.34
412.7212, 11307.42
413.2033, 11303.60
413.6855, 11278.83
414.1676, 11231.90
414.6497, 11196.70
415.1318, 11210.19
415.6139, 11254.86
416.0960, 11301.63
416.5782, 11354.48
417.0603, 11392.65
417.5424, 11389.67
418.0245, 11352.73
418.5066, 11318.47
418.9887, 11304.74
419.4709, 11301.34
419.9530, 11299.76
420.4351, 11295.12
420.9172, 11299.61
421.3993, 11322.50
421.8814, 11357.17
422.3636, 11391.25
422.8457, 11434.73
423.3278, 11466.04
423.8099, 11474.08
424.2920, 11453.56
424.7741, 11436.98
425.2563, 11427.33
425.7384, 11421.47
426.2205, 11417.52
426.7026, 11421.30
427.1847, 11416.46
427.6668, 11392.64
428.1490, 11356.33
428.6311, 11348.38
429.1132, 11380.37
429.5953, 11417.98
430.0774, 11439.53
430.5595, 11441.53
431.0417, 11452.40
431.5238, 11478.04
432.0059, 11505.27
432.4880, 11507.71
432.9701, 11484.49
433.4522, 11463.09
433.9344, 11455.14
434.4165, 11458.02
434.8986, 11458.35
435.3807, 11455.49
435.8628, 11461.87
436.3449, 11507.30
436.8271, 11571.99
437.3092, 11600.40
437.7913, 11560.69
438.2734, 11504.20
438.7555, 11489.55
439.2376, 11508.66
439.7197, 11531.06
440.2018, 11536.23
440.6840, 11537.81
441.1661, 11550.68
441.6482, 11579.96
442.1303, 11604.38
442.6124, 11613.32
443.0945, 11610.47
443.5767, 11601.00
444.0588, 11574.75
444.5409, 11553.44
445.0230, 11544.95
445.5051, 11549.40
445.9872, 11559.22
446.4694, 11579.64
446.9515, 11600.94
447.4336, 11617.33
447.9157, 11625.85
448.3978, 11634.53
448.8799, 11649.85
449.3621, 11664.04
449.8442, 11654.90
450.3263, 11604.89
450.8084, 11566.08
451.2905, 11559.95
451.7726, 11588.88
452.2548, 11611.08
452.7369, 11623.20
453.2190, 11635.63
453.7011, 11666.35
454.1832, 11715.94
454.6653, 11745.48
455.1475, 11741.69
455.6296, 11717.65
456.1117, 11703.14
456.5938, 11697.79
457.0759, 11691.64
457.5580, 11675.73
458.0402, 11654.88
458.5223, 11636.65
459.0044, 11620.24
459.4865, 11614.78
459.9686, 11643.92
460.4507, 11689.14
460.9329, 11715.43
461.4150, 11682.69
461.8971, 11645.02
462.3792, 11639.32
462.8613, 11663.77
463.3434, 11695.40
463.8256, 11735.99
464.3077, 11772.17
464.7898, 11794.22
465.2719, 11793.43
465.7540, 11789.01
466.2361, 11774.86
466.7183, 11760.22
467.2004, 11764.47
467.6825, 11813.13
468.1646, 11854.86
468.6467, 11874.68
469.1288, 11869.39
469.6109, 11870.16
470.0930, 11882.79
470.5752, 11893.67
471.0573, 11886.83
471.5394, 11852.99
472.0215, 11838.86
472.5036, 11856.35
472.9857, 11892.34
473.4679, 11912.79
473.9500, 11916.69
474.4321, 11916.42
474.9142, 11919.85
475.3963, 11925.13
475.8784, 11922.10
476.3606, 11909.81
476.8427, 11897.48
477.3248, 11897.39
477.8069, 11905.17
478.2890, 11909.92
478.7711, 11905.49
479.2533, 11900.28
479.7354, 11904.41
480.2175, 11915.63
480.6996, 11924.65
481.1817, 11915.80
481.6638, 11909.16
482.1460, 11922.11
482.6281, 11961.97
483.1102, 12000.46
483.5923, 12026.70
484.0744, 12045.75
484.5565, 12063.92
485.0387, 12083.48
485.5208, 12099.76
486.0029, 12113.83
486.4850, 12124.88
486.9671, 12124.00
487.4492, 12101.40
487.9314, 12078.68
488.4135, 12067.18
488.8956, 12069.62
489.3777, 12078.68
489.8598, 12100.05
490.3419, 12121.90
490.8241, 12120.14
491.3062, 12091.23
491.7883, 12075.61
492.2704, 12090.89
492.7525, 12127.98
493.2346, 12157.60
493.7168, 12179.22
494.1989, 12196.32
494.6810, 12223.75
495.1631, 12246.84
495.6452, 12220.97
496.1273, 12120.98
496.6095, 12032.14
497.0916, 12067.48
497.5737, 12173.96
498.0558, 12248.74
498.5379, 12209.62
499.0201, 12153.72
499.5022, 12143.05
499.9843, 12176.55
500.4664, 12207.50
500.9485, 12221.45
501.4306, 12225.42
501.9127, 12223.09
502.3948, 12207.13
502.8770, 12197.24
503.3591, 12196.60
503.8412, 12202.39
504.3233, 12209.72
504.8054, 12214.62
505.2875, 12227.39
505.7697, 12255.50
506.2518, 12297.96
506.7339, 12317.80
507.2160, 12308.87
507.6981, 12293.23
508.1802, 12285.22
508.6624, 12284.95
509.1445, 12297.81
509.6266, 12327.93
510.1087, 12363.45
510.5908, 12392.09
511.0729, 12412.11
511.5551, 12414.32
512.0372, 12379.16
512.5193, 12331.20
513.0014, 12300.63
513.4835, 12287.51
513.9656, 12292.89
514.4478, 12332.39
514.9299, 12383.16
515.4120, 12423.36
515.8941, 12447.43
516.3762, 12462.04
516.8583, 12461.71
517.3405, 12454.70
517.8226, 12454.58
518.3047, 12472.22
518.7868, 12488.62
519.2689, 12494.62
519.7510, 12490.33
520.2332, 12500.77
520.7153, 12537.18
521.1974, 12574.38
521.6795, 12596.05
522.1616, 12596.85
522.6437, 12603.41
523.1259, 12621.60
523.6080, 12639.10
524.0901, 12630.44
524.5722, 12594.32
525.0543, 12564.81
525.5364, 12552.45
526.0186, 12554.53
526.5007, 12573.23
526.9828, 12606.66
527.4649, 12627.08
527.9470, 12594.83
528.4291, 12542.85
528.9113, 12524.15
529.3934, 12553.80
529.8755, 12585.09
530.3576, 12579.72
530.8397, 12556.38
531.3218, 12542.34
531.8040, 12559.01
532.2861, 12575.26
532.7682, 12577.18
533.2503, 12567.26
533.7324, 12562.08
534.2145, 12572.70
534.6967, 12581.40
535.1788, 12578.34
535.6609, 12553.73
536.1430, 12549.16
536.6251, 12573.12
537.1072, 12608.30
537.5894, 12634.92
538.0715, 12652.23
538.5536, 12664.79
539.0357, 12672.50
539.5178, 12676.52
539.9999, 12681.25
540.4821, 12686.38
540.9642, 12686.29
541.4463, 12665.52
541.9284, 12639.08
542.4105, 12640.51
542.8926, 12671.56
543.3748, 12718.87
543.8569, 12798.22
544.3390, 12877.63
544.8211, 12911.14
545.3032, 12848.92
545.7853, 12793.72
546.2675, 12820.43
546.7495, 12892.17
547.2316, 12924.27
547.7137, 12831.57
548.1959, 12755.33
548.6780, 12757.16
549.1601, 12850.30
549.6422, 12905.42
550.1243, 12902.27
550.6064, 12883.06
551.0886, 12877.42
551.5707, 12892.43
552.0528, 12894.87
552.5349, 12879.12
553.0170, 12855.37
553.4991, 12838.33
553.9813, 12827.96
554.4634, 12828.93
554.9455, 12848.40
555.4276, 12877.32
555.9097, 12894.39
556.3918, 12900.61
556.8740, 12905.14
557.3561, 12917.92
557.8382, 12931.18
558.3203, 12935.44
558.8024, 12928.89
559.2845, 12916.66
559.7667, 12890.57
560.2488, 12864.60
560.7309, 12854.96
561.2130, 12879.24
561.6951, 12905.57
562.1772, 12925.04
562.6594, 12940.25
563.1415, 12963.69
563.6236, 13011.48
564.1057, 13045.36
564.5878, 13048.04
565.0699, 13016.32
565.5521, 12990.91
566.0342, 12970.07
566.5163, 12959.39
566.9984, 12967.28
567.4805, 12992.90
567.9626, 13019.04
568.4448, 13044.91
568.9269, 13066.78
569.4090, 13076.13
569.8911, 13076.38
570.3732, 13079.53
570.8553, 13099.16
571.3375, 13119.01
571.8196, 13118.98
572.3017, 13102.04
572.7838, 13088.28
573.2659, 13086.44
573.7480, 13091.98
574.2302, 13103.78
574.7123, 13126.33
575.1944, 13141.48
575.6765, 13144.06
576.1586, 13139.03
576.6407, 13131.55
577.1229, 13121.47
577.6050, 13108.93
578.0871, 13090.53
578.5692, 13071.35
579.0513, 13070.12
579.5334, 13090.73
580.0156, 13108.67
580.4977, 13105.51
580.9798, 13089.45
581.4619, 13106.07
581.9440, 13156.19
582.4261, 13201.68
582.9083, 13200.55
583.3904, 13173.76
583.8725, 13158.14
584.3546, 13163.29
584.8367, 13170.41
585.3188, 13164.02
585.8010, 13151.29
586.2831, 13143.38
586.7652, 13147.53
587.2473, 13153.26
587.7294, 13154.62
588.2115, 13153.42
588.6937, 13162.35
589.1758, 13193.88
589.6579, 13221.47
590.1400, 13234.52
590.6221, 13231.24
591.1042, 13225.78
591.5864, 13215.51
592.0685, 13209.47
592.5506, 13220.10
593.0327, 13246.40
593.5148, 13266.34
593.9969, 13276.18
594.4791, 13279.78
594.9612, 13278.70
595.4433, 13275.52
595.9254, 13277.94
596.4075, 13295.77
596.8896, 13316.17
597.3718, 13330.90
597.8539, 13339.33
598.3360, 13337.85
598.8181, 13311.79
599.3002, 13285.35
599.7823, 13271.77
600.2645, 13273.03
600.7466, 13284.41
601.2287, 13316.87
601.7108, 13350.25
602.1929, 13366.08
602.6750, 13354.38
603.1572, 13352.37
603.6393, 13366.44
604.1214, 13388.36
604.6035, 13400.88
605.0856, 13403.72
605.5677, 13410.15
606.0499, 13432.09
606.5320, 13456.99
607.0141, 13448.17
607.4962, 13411.01
607.9783, 13386.12
608.4604, 13419.36
608.9425, 13468.48
609.4246, 13486.51
609.9067, 13464.19
610.3889, 13443.05
610.8710, 13440.77
611.3531, 13449.01
611.8352, 13460.27
612.3173, 13470.46
612.7994, 13488.26
613.2816, 13524.62
613.7637, 13565.43
614.2458, 13582.98
614.7279, 13571.22
615.2100, 13552.34
615.6921, 13527.17
616.1743, 13500.68
616.6564, 13501.49
617.1385, 13530.91
617.6206, 13557.01
618.1027, 13547.70
618.5848, 13522.46
619.0670, 13530.23
619.5491, 13574.92
620.0312, 13617.42
620.5133, 13622.74
620.9954, 13611.24
621.4775, 13606.16
621.9597, 13613.44
622.4418, 13626.56
622.9239, 13654.20
623.4060, 13683.47
623.8881, 13693.59
624.3702, 13658.92
624.8524, 13634.88
625.3345, 13633.56
625.8166, 13650.30
626.2987, 13661.54
626.7808, 13664.93
627.2629, 13671.77
627.7451, 13694.94
628.2272, 13729.30
628.7093, 13734.10
629.1914, 13708.28
629.6735, 13674.32
630.1556, 13646.30
630.6378, 13625.80
631.1199, 13616.46
631.6020, 13619.88
632.0841, 13631.16
632.5662, 13662.92
633.0483, 13695.58
633.5305, 13703.60
634.0126, 13635.09
634.4947, 13591.58
634.9768, 13611.59
635.4589, 13674.23
635.9410, 13717.37
636.4232, 13739.88
636.9053, 13744.02
637.3874, 13721.32
637.8695, 13676.56
638.3516, 13665.71
638.8337, 13693.06
639.3159, 13723.73
639.7980, 13729.65
640.2801, 13719.20
640.7622, 13720.54
641.2443, 13736.56
641.7264, 13754.98
642.2086, 13772.32
642.6907, 13783.26
643.1728, 13778.05
