##NAMES=Hiortdahlite
##RRUFFID=R060092
##IDEAL CHEMISTRY=Na_2_Ca_4_(Ca_0.5_Zr^4+^_0.5_)Zr^4+^(Si_2_O_7_)_2_OF_3_
##LOCALITY=Vesuvius, Italy
##OWNER=RRUFF
##SOURCE=University of Arizona Mineral Museum
##DESCRIPTION=Tan colored prismatic crystals, variety guarinite
##STATUS=The identification of this mineral has been confirmed by single-crystal X-ray diffraction.
##URL=rruff.info/R060092
93.74609, 2.544926
94.22821, 2.473462
94.71033, 2.510448
95.19244, 2.637348
95.67456, 2.787090
96.15668, 2.922905
96.63879, 3.061036
97.12091, 3.267030
97.60303, 3.551995
98.08514, 3.867001
98.56726, 4.131001
99.04938, 4.343340
99.53149, 4.573810
100.0136, 4.849948
100.4957, 5.170345
100.9778, 5.534204
101.4600, 5.942443
101.9421, 6.390361
102.4242, 6.850211
102.9063, 7.315145
103.3884, 7.819714
103.8705, 8.391239
104.3527, 9.070243
104.8348, 9.712124
105.3169, 10.30510
105.7990, 10.85151
106.2811, 11.41857
106.7632, 12.05838
107.2454, 12.65946
107.7275, 13.12000
108.2096, 13.31434
108.6917, 13.55232
109.1738, 13.87366
109.6559, 14.28504
110.1381, 14.74554
110.6202, 15.27708
111.1023, 15.85292
111.5844, 16.44730
112.0665, 17.02435
112.5486, 17.66073
113.0308, 18.39417
113.5129, 19.26590
113.9950, 20.10949
114.4771, 20.79772
114.9592, 21.46071
115.4413, 22.29798
115.9235, 23.60064
116.4056, 24.90251
116.8877, 25.96119
117.3698, 26.67776
117.8519, 27.34963
118.3340, 28.11564
118.8162, 28.91819
119.2983, 29.61684
119.7804, 30.01530
120.2625, 30.36801
120.7446, 30.87949
121.2267, 31.68851
121.7089, 32.54240
122.1910, 33.32655
122.6731, 34.03747
123.1552, 34.65908
123.6373, 35.25135
124.1194, 35.72850
124.6016, 35.97356
125.0837, 35.69242
125.5658, 35.34957
126.0479, 35.43188
126.5300, 35.92908
127.0121, 36.60979
127.4943, 37.37280
127.9764, 38.17584
128.4585, 38.94183
128.9406, 39.61634
129.4227, 40.23292
129.9048, 40.82229
130.3869, 41.37634
130.8691, 41.96804
131.3512, 42.73603
131.8333, 43.50447
132.3154, 43.98234
132.7975, 44.19302
133.2796, 44.25267
133.7618, 44.41015
134.2439, 44.69800
134.7260, 45.01353
135.2081, 45.14300
135.6902, 45.08074
136.1723, 45.09930
136.6545, 45.41457
137.1366, 46.02417
137.6187, 46.45194
138.1008, 46.63626
138.5829, 46.67265
139.0650, 46.81797
139.5472, 47.12510
140.0293, 47.34561
140.5114, 47.30534
140.9935, 46.94607
141.4756, 46.58117
141.9577, 46.20354
142.4399, 45.83513
142.9220, 45.60091
143.4041, 45.52195
143.8862, 45.53110
144.3683, 45.60379
144.8504, 45.81475
145.3326, 45.91081
145.8147, 45.79861
146.2968, 45.49489
146.7789, 45.38433
147.2610, 45.63162
147.7431, 45.92455
148.2253, 45.99017
148.7074, 45.60623
149.1895, 45.30695
149.6716, 45.19821
150.1537, 45.29798
150.6358, 45.40259
151.1180, 45.57793
151.6001, 45.72831
152.0822, 45.75132
152.5643, 45.43761
153.0464, 45.20314
153.5285, 45.14399
154.0107, 45.29998
154.4928, 45.47292
154.9749, 45.75040
155.4570, 46.01233
155.9391, 46.10826
156.4212, 45.89043
156.9034, 45.62100
157.3855, 45.36309
157.8676, 45.09496
158.3497, 44.93188
158.8318, 44.97096
159.3139, 45.11987
159.7961, 45.22037
160.2782, 45.17789
160.7603, 45.11992
161.2424, 45.10999
161.7245, 45.17858
162.2066, 45.24794
162.6888, 45.29586
163.1709, 45.32583
163.6530, 45.34561
164.1351, 45.35275
164.6172, 45.35248
165.0993, 45.34453
165.5815, 45.31453
166.0636, 45.29911
166.5457, 45.30515
167.0278, 45.33591
167.5099, 45.40377
167.9921, 45.60975
168.4742, 45.81066
168.9563, 45.86092
169.4384, 45.59517
169.9205, 45.34260
170.4026, 45.36060
170.8848, 45.60022
171.3669, 45.85626
171.8490, 46.07941
172.3311, 46.22821
172.8132, 46.24143
173.2953, 46.00020
173.7775, 45.72400
174.2596, 45.61520
174.7417, 45.65907
175.2238, 45.75612
175.7059, 45.87058
176.1880, 45.98519
176.6702, 46.06929
177.1523, 46.08864
177.6344, 46.09002
178.1165, 46.13080
178.5986, 46.20979
179.0807, 46.30283
179.5629, 46.38802
180.0450, 46.47239
180.5271, 46.57177
181.0092, 46.70459
181.4913, 46.84990
181.9734, 46.97574
182.4556, 47.08168
182.9377, 47.16359
183.4198, 47.20457
183.9019, 47.21479
184.3840, 47.23044
184.8661, 47.26122
185.3483, 47.30720
185.8304, 47.38385
186.3125, 47.49606
186.7946, 47.59464
187.2767, 47.60397
187.7588, 47.54078
188.2409, 47.50164
188.7231, 47.58197
189.2052, 47.72411
189.6873, 47.67939
190.1694, 47.41647
190.6515, 47.12087
191.1336, 47.04693
191.6158, 47.18043
192.0979, 47.31528
192.5800, 47.35403
193.0621, 47.31400
193.5442, 47.30977
194.0263, 47.34489
194.5085, 47.40454
194.9906, 47.47627
195.4727, 47.55996
195.9548, 47.63079
196.4369, 47.66835
196.9190, 47.67506
197.4012, 47.70076
197.8833, 47.75068
198.3654, 47.80631
198.8475, 47.83460
199.3296, 47.83326
199.8117, 47.82775
200.2939, 47.82890
200.7760, 47.83668
201.2581, 47.84742
201.7402, 47.86786
202.2223, 47.88071
202.7044, 47.84782
203.1866, 47.76166
203.6687, 47.67603
204.1508, 47.60909
204.6329, 47.55979
205.1150, 47.54443
205.5971, 47.56342
206.0793, 47.61694
206.5614, 47.71622
207.0435, 47.87321
207.5256, 48.02679
208.0077, 48.16162
208.4898, 48.28595
208.9720, 48.32344
209.4541, 48.23071
209.9362, 48.08948
210.4183, 48.09051
210.9004, 48.28421
211.3825, 48.47082
211.8647, 48.54293
212.3468, 48.45811
212.8289, 48.45739
213.3110, 48.57266
213.7931, 48.75213
214.2752, 48.87279
214.7574, 48.91323
215.2395, 48.94911
215.7216, 49.02160
216.2037, 49.14943
216.6858, 49.24225
217.1679, 49.29456
217.6501, 49.31527
218.1322, 49.31244
218.6143, 49.25466
219.0964, 49.23951
219.5785, 49.34466
220.0606, 49.66865
220.5428, 49.78674
221.0249, 49.60070
221.5070, 49.25338
221.9891, 49.09094
222.4712, 49.16727
222.9533, 49.32457
223.4355, 49.51822
223.9176, 49.81668
224.3997, 49.95392
224.8818, 49.87108
225.3639, 49.65496
225.8460, 49.49486
226.3282, 49.38550
226.8103, 49.34388
227.2924, 49.38043
227.7745, 49.50676
228.2566, 49.69447
228.7387, 50.00843
229.2209, 50.35832
229.7030, 50.50775
230.1851, 50.33913
230.6672, 50.16463
231.1493, 50.11845
231.6314, 50.25904
232.1136, 50.37069
232.5957, 50.44297
233.0778, 50.49146
233.5599, 50.54298
234.0420, 50.57756
234.5241, 50.64664
235.0063, 50.77496
235.4884, 50.98073
235.9705, 51.19398
236.4526, 51.45814
236.9347, 51.71122
237.4168, 51.80455
237.8990, 51.59814
238.3811, 51.45485
238.8632, 51.53503
239.3453, 51.94628
239.8274, 52.25551
240.3095, 52.43783
240.7917, 52.53352
241.2738, 52.61692
241.7559, 52.69394
242.2380, 52.74963
242.7201, 52.77174
243.2022, 52.74260
243.6844, 52.74714
244.1665, 52.81798
244.6486, 52.90457
245.1307, 52.90886
245.6128, 52.76342
246.0949, 52.64863
246.5771, 52.61841
247.0592, 52.67768
247.5413, 52.80553
248.0234, 53.02288
248.5055, 53.29309
248.9876, 53.57832
249.4697, 53.97342
249.9519, 54.21023
250.4340, 54.16429
250.9161, 53.75793
251.3982, 53.46941
251.8803, 53.29955
252.3624, 53.25007
252.8446, 53.35268
253.3267, 53.71952
253.8088, 54.01659
254.2909, 54.12940
254.7730, 54.02607
255.2551, 54.00344
255.7373, 54.11113
256.2194, 54.24939
256.7015, 54.28209
257.1836, 54.13946
257.6657, 54.04570
258.1479, 54.07228
258.6300, 54.22822
259.1121, 54.32659
259.5942, 54.33083
260.0763, 54.31774
260.5584, 54.37896
261.0406, 54.55035
261.5227, 54.70204
262.0048, 54.80452
262.4869, 54.85796
262.9690, 54.90050
263.4511, 54.92576
263.9333, 54.95074
264.4154, 55.00253
264.8975, 55.10984
265.3796, 55.16032
265.8617, 55.12266
266.3438, 55.00621
266.8260, 54.87704
267.3081, 54.68969
267.7902, 54.57642
268.2723, 54.71802
268.7544, 55.24353
269.2365, 55.51448
269.7187, 55.32866
270.2008, 54.80311
270.6829, 54.64066
271.1650, 54.95916
271.6471, 55.35577
272.1292, 55.50421
272.6114, 55.35331
273.0935, 55.24482
273.5756, 55.23236
274.0577, 55.28574
274.5398, 55.29359
275.0219, 55.23714
275.5041, 55.18986
275.9862, 55.20404
276.4683, 55.28602
276.9504, 55.36917
277.4325, 55.44769
277.9146, 55.52330
278.3968, 55.63153
278.8788, 55.79852
279.3610, 55.86884
279.8431, 55.66871
280.3252, 55.18456
280.8073, 54.93669
281.2894, 55.00714
281.7715, 55.24853
282.2537, 55.39979
282.7358, 55.45935
283.2179, 55.45564
283.7000, 55.36689
284.1821, 55.19936
284.6642, 55.11357
285.1464, 55.12721
285.6285, 55.18429
286.1106, 55.20200
286.5927, 55.17912
287.0748, 55.14788
287.5569, 55.11749
288.0391, 55.08773
288.5212, 55.06669
289.0033, 55.05650
289.4854, 55.04242
289.9675, 55.00654
290.4496, 54.94954
290.9318, 54.87989
291.4139, 54.77800
291.8960, 54.66765
292.3781, 54.63335
292.8602, 54.67873
293.3423, 54.76595
293.8245, 54.91220
294.3066, 55.08779
294.7887, 55.13985
295.2708, 54.93645
295.7529, 54.62884
296.2350, 54.56587
296.7172, 54.74596
297.1993, 54.95382
297.6814, 55.01811
298.1635, 54.96920
298.6456, 54.88177
299.1277, 54.73393
299.6099, 54.60478
300.0920, 54.66429
300.5741, 54.88694
301.0562, 55.08414
301.5383, 55.09385
302.0204, 54.99298
302.5026, 54.92048
302.9847, 54.89796
303.4668, 54.92063
303.9489, 55.00393
304.4310, 55.13305
304.9131, 55.25950
305.3953, 55.36529
305.8774, 55.44517
306.3595, 55.47605
306.8416, 55.43819
307.3237, 55.41284
307.8058, 55.53584
308.2880, 55.72845
308.7701, 55.81429
309.2522, 55.58595
309.7343, 55.28079
310.2164, 55.11745
310.6985, 55.11990
311.1807, 55.19252
311.6628, 55.32174
312.1449, 55.47200
312.6270, 55.58493
313.1091, 55.65270
313.5912, 55.66734
314.0734, 55.58440
314.5555, 55.40540
315.0376, 55.28358
315.5197, 55.38276
316.0018, 55.54785
316.4839, 55.61520
316.9661, 55.35146
317.4482, 55.14801
317.9303, 55.24608
318.4124, 55.59146
318.8945, 55.84306
319.3766, 55.78801
319.8588, 55.63381
320.3409, 55.53169
320.8230, 55.55400
321.3051, 55.57619
321.7872, 55.62718
322.2693, 55.66327
322.7515, 55.55103
323.2336, 55.04458
323.7157, 54.54381
324.1978, 54.25549
324.6799, 54.33483
325.1620, 54.37501
325.6442, 54.20924
326.1263, 53.98519
326.6084, 53.96456
327.0905, 54.55738
327.5726, 55.00623
328.0547, 55.02591
328.5369, 54.42534
329.0190, 53.99548
329.5011, 53.81145
329.9832, 53.77566
330.4653, 53.78510
330.9474, 53.92014
331.4296, 54.00130
331.9117, 53.97948
332.3938, 53.84919
332.8759, 53.73857
333.3580, 53.61868
333.8401, 53.54518
334.3223, 53.57650
334.8044, 53.79804
335.2865, 53.94899
335.7686, 53.96819
336.2507, 53.88499
336.7328, 53.86057
337.2150, 53.90368
337.6971, 53.98668
338.1792, 54.11758
338.6613, 54.33394
339.1434, 54.42236
339.6255, 54.31151
340.1077, 54.11233
340.5898, 54.08618
341.0719, 54.26302
341.5540, 54.48873
342.0361, 54.71825
342.5182, 54.95679
343.0004, 55.09916
343.4825, 55.13188
343.9646, 55.10006
344.4467, 55.03369
344.9288, 54.93316
345.4109, 54.90414
345.8931, 55.00896
346.3752, 55.21622
346.8573, 55.37958
347.3394, 55.49279
347.8215, 55.62653
348.3036, 55.88023
348.7858, 56.22594
349.2679, 56.53021
349.7500, 56.75341
350.2321, 56.92136
350.7142, 57.06717
351.1964, 57.19115
351.6785, 57.30596
352.1606, 57.43732
352.6427, 57.56188
353.1248, 57.61877
353.6069, 57.57124
354.0891, 57.53392
354.5712, 57.66019
355.0533, 57.90379
355.5354, 58.13499
356.0175, 58.22535
356.4996, 58.29579
356.9818, 58.52038
357.4639, 58.93617
357.9460, 59.28713
358.4281, 59.24727
358.9102, 59.05692
359.3923, 59.06656
359.8745, 59.65376
360.3566, 60.29311
360.8387, 60.63630
361.3208, 60.69973
361.8029, 60.75229
362.2850, 60.87778
362.7672, 61.06510
363.2493, 61.30879
363.7314, 61.69348
364.2135, 62.03145
364.6956, 62.24733
365.1777, 62.36700
365.6599, 62.46659
366.1420, 62.50050
366.6241, 62.56898
367.1062, 62.73084
367.5883, 63.05227
368.0704, 63.33258
368.5526, 63.55000
369.0347, 63.71286
369.5168, 63.83783
369.9989, 63.88637
370.4810, 63.93608
370.9631, 64.01092
371.4453, 64.11791
371.9274, 64.18918
372.4095, 64.20937
372.8916, 64.20502
373.3737, 64.19539
373.8558, 64.16729
374.3380, 64.16315
374.8201, 64.20964
375.3022, 64.28823
375.7843, 64.28340
376.2664, 64.15883
376.7485, 64.02963
377.2307, 63.99824
377.7128, 64.10720
378.1949, 64.02840
378.6770, 63.67402
379.1591, 63.22384
379.6412, 63.05969
380.1234, 63.21250
380.6055, 63.35009
381.0876, 63.31723
381.5697, 63.13997
382.0518, 62.98725
382.5339, 62.86337
383.0161, 62.74634
383.4982, 62.61158
383.9803, 62.46129
384.4624, 62.31461
384.9445, 62.16846
385.4266, 62.03517
385.9088, 61.96510
386.3909, 61.94779
386.8730, 61.88260
387.3551, 61.62733
387.8372, 61.28906
388.3193, 61.07577
388.8015, 61.06477
389.2836, 61.05505
389.7657, 60.83041
390.2478, 60.46032
390.7299, 60.11135
391.2120, 59.83046
391.6942, 59.62801
392.1763, 59.54803
392.6584, 59.60048
393.1405, 59.63914
393.6226, 59.62569
394.1047, 59.54325
394.5869, 59.37341
395.0690, 58.90001
395.5511, 58.54700
396.0332, 58.60018
396.5153, 58.96322
396.9974, 59.11547
397.4796, 58.68183
397.9617, 58.17519
398.4438, 57.88049
398.9259, 57.97974
399.4080, 58.02348
399.8901, 57.94995
400.3723, 57.79931
400.8544, 57.64388
401.3365, 57.37082
401.8186, 57.22809
402.3007, 57.33325
402.7828, 57.73321
403.2649, 57.96144
403.7470, 57.94689
404.2292, 57.83619
404.7113, 57.76453
405.1934, 57.76117
405.6755, 57.70108
406.1576, 57.53865
406.6397, 57.31573
407.1219, 57.19934
407.6040, 57.21538
408.0861, 57.23447
408.5682, 57.13248
409.0503, 56.91485
409.5324, 56.91143
410.0146, 57.18625
410.4967, 57.53072
410.9788, 57.62947
411.4609, 57.50468
411.9430, 57.38015
412.4251, 57.37938
412.9073, 57.42321
413.3894, 57.28215
413.8715, 56.96117
414.3536, 56.69666
414.8357, 56.75127
415.3178, 56.98525
415.8000, 57.13241
416.2821, 57.11437
416.7642, 57.03255
417.2463, 56.96489
417.7284, 56.90894
418.2105, 56.85983
418.6927, 56.79469
419.1748, 56.74870
419.6569, 56.77283
420.1390, 56.88501
420.6211, 56.94410
421.1032, 56.78437
421.5854, 56.57758
422.0675, 56.50900
422.5496, 56.79953
423.0317, 57.05648
423.5138, 57.15486
423.9959, 57.11364
424.4781, 57.07079
424.9602, 56.98950
425.4423, 56.95650
425.9244, 57.02707
426.4065, 57.31818
426.8886, 57.48702
427.3708, 57.46669
427.8529, 57.35209
428.3350, 57.29029
428.8171, 57.30001
429.2992, 57.32507
429.7813, 57.33473
430.2635, 57.33177
430.7456, 57.46957
431.2277, 57.83765
431.7098, 58.14869
432.1919, 58.07358
432.6740, 57.56062
433.1562, 57.35291
433.6383, 57.63195
434.1204, 58.12828
434.6025, 58.26487
435.0846, 58.05016
435.5667, 57.84468
436.0489, 57.85724
436.5310, 58.02415
437.0131, 58.16582
437.4952, 58.28217
437.9773, 58.34047
438.4594, 58.22456
438.9416, 58.03246
439.4237, 57.97858
439.9058, 58.19125
440.3879, 58.49194
440.8700, 58.77551
441.3521, 59.02060
441.8343, 59.15014
442.3164, 58.93708
442.7985, 58.71011
443.2806, 58.77984
443.7627, 59.27205
444.2448, 59.66944
444.7270, 59.65942
445.2091, 59.46657
445.6912, 59.35616
446.1733, 59.45629
446.6554, 59.57741
447.1375, 59.66496
447.6197, 59.72252
448.1018, 59.80780
448.5839, 60.02749
449.0660, 60.18786
449.5481, 60.17723
450.0302, 59.82043
450.5124, 59.66428
450.9945, 59.78959
451.4766, 60.06297
451.9587, 60.26418
452.4408, 60.35776
452.9229, 60.48749
453.4051, 60.72188
453.8872, 61.03771
454.3693, 61.23757
454.8514, 61.29853
455.3335, 61.34678
455.8156, 61.52842
456.2978, 61.81791
456.7799, 61.96243
457.2620, 61.89654
457.7441, 61.75848
458.2262, 61.72043
458.7083, 61.78016
459.1905, 61.92950
459.6726, 62.25938
460.1547, 62.63202
460.6368, 62.83028
461.1189, 62.85899
461.6010, 62.87537
462.0832, 63.05753
462.5653, 63.26423
463.0474, 63.32178
463.5295, 63.12093
464.0116, 62.88319
464.4937, 62.67342
464.9759, 62.51337
465.4580, 62.45500
465.9401, 62.69380
466.4222, 62.88044
466.9043, 62.83228
467.3864, 62.49855
467.8686, 62.23879
468.3507, 62.15929
468.8328, 62.12544
469.3149, 62.03579
469.7970, 61.80320
470.2791, 61.66239
470.7613, 61.68399
471.2434, 61.79191
471.7255, 61.78182
472.2076, 61.63313
472.6897, 61.40894
473.1718, 61.05421
473.6540, 60.57059
474.1361, 60.46987
474.6182, 60.83347
475.1003, 61.28547
475.5824, 61.44820
476.0645, 61.34468
476.5467, 61.16687
477.0288, 60.93277
477.5109, 60.67857
477.9930, 60.43655
478.4751, 60.21649
478.9572, 60.06404
479.4394, 60.00725
479.9215, 60.03131
480.4036, 60.15592
480.8857, 60.38400
481.3678, 60.56700
481.8499, 60.59621
482.3321, 60.52739
482.8142, 60.41765
483.2963, 60.21171
483.7784, 60.05868
484.2605, 60.06634
484.7426, 60.17327
485.2248, 60.22797
485.7069, 60.12090
486.1890, 60.02347
486.6711, 60.00922
487.1532, 60.10755
487.6353, 60.16272
488.1175, 60.13948
488.5996, 60.10360
489.0817, 60.11530
489.5638, 60.21785
490.0459, 60.25259
490.5280, 60.16402
491.0102, 60.02338
491.4923, 60.04646
491.9744, 60.28002
492.4565, 60.43362
492.9386, 60.33766
493.4207, 60.03757
493.9029, 59.83647
494.3850, 59.73480
494.8671, 59.70961
495.3492, 59.80872
495.8313, 59.97040
496.3134, 59.99531
496.7956, 59.78583
497.2777, 59.56004
497.7598, 59.60437
498.2419, 59.82671
498.7240, 59.99377
499.2061, 59.93691
499.6883, 59.82607
500.1704, 59.78698
500.6525, 59.82353
501.1346, 59.85120
501.6167, 59.75655
502.0988, 59.68859
502.5810, 59.76625
503.0631, 60.18267
503.5452, 60.47754
504.0273, 60.48141
504.5094, 60.34961
504.9915, 60.35201
505.4737, 60.58224
505.9558, 60.80666
506.4379, 60.97276
506.9200, 61.08176
507.4021, 61.15618
507.8842, 61.18183
508.3664, 61.20650
508.8485, 61.25266
509.3306, 61.31939
509.8127, 61.46483
510.2948, 61.71980
510.7769, 61.97390
511.2591, 62.00229
511.7412, 61.85550
512.2233, 61.82428
512.7054, 62.09583
513.1875, 62.47149
513.6696, 62.64771
514.1517, 62.65442
514.6339, 62.65550
515.1160, 62.74715
515.5981, 62.88708
516.0802, 63.05437
516.5623, 63.26060
517.0444, 63.41645
517.5266, 63.49463
518.0087, 63.49565
518.4908, 63.41998
518.9729, 63.14001
519.4550, 62.92579
519.9371, 62.84106
520.4193, 62.87096
520.9014, 62.94653
521.3835, 63.12519
521.8656, 63.27730
522.3477, 63.36103
522.8298, 63.37555
523.3120, 63.31075
523.7941, 63.12498
524.2762, 62.94730
524.7583, 62.94571
525.2404, 63.13033
525.7225, 63.16703
526.2047, 62.95578
526.6868, 62.66963
527.1689, 62.64017
527.6510, 62.83257
528.1331, 63.02456
528.6152, 63.10078
529.0974, 63.11706
529.5795, 63.16584
530.0616, 63.24186
530.5437, 63.27744
531.0258, 63.20887
531.5079, 63.08958
531.9901, 62.94764
532.4722, 62.74137
532.9543, 62.64567
533.4364, 62.84149
533.9185, 63.15281
534.4006, 63.34430
534.8828, 63.25748
535.3649, 63.16980
535.8470, 63.13847
536.3291, 63.15292
536.8112, 63.14658
537.2933, 63.05341
537.7755, 63.04295
538.2576, 63.23216
538.7397, 63.66593
539.2218, 63.94561
539.7039, 64.05640
540.1860, 64.04563
540.6682, 63.86804
541.1503, 63.55467
541.6324, 63.49074
542.1145, 63.84455
542.5966, 64.31161
543.0787, 64.37113
543.5609, 64.11832
544.0430, 63.90683
544.5251, 64.00673
545.0072, 64.17973
545.4893, 64.12861
545.9714, 63.87191
546.4536, 63.73003
546.9357, 63.98843
547.4178, 64.35685
547.8999, 64.61616
548.3820, 64.69571
548.8641, 64.74267
549.3463, 64.75776
549.8284, 64.76534
550.3105, 64.79916
550.7926, 64.89623
551.2747, 64.96487
551.7568, 64.99984
552.2390, 64.99706
552.7211, 64.91984
553.2032, 64.72951
553.6853, 64.58778
554.1674, 64.62113
554.6495, 64.81043
555.1317, 64.81422
555.6138, 64.61218
556.0959, 64.39066
556.5780, 64.30624
557.0601, 64.34285
557.5422, 64.48075
558.0244, 64.75699
558.5065, 65.02041
558.9886, 65.09641
559.4707, 65.04733
559.9528, 64.99588
560.4349, 64.97453
560.9171, 64.98135
561.3992, 65.01723
561.8813, 65.08078
562.3634, 65.16407
562.8455, 65.30777
563.3276, 65.43449
563.8098, 65.51019
564.2919, 65.53596
564.7740, 65.49215
565.2561, 65.28886
565.7382, 65.10440
566.2203, 65.12407
566.7025, 65.40021
567.1846, 65.68015
567.6667, 65.95593
568.1488, 66.19349
568.6309, 66.29194
569.1130, 66.25863
569.5952, 66.23355
570.0773, 66.28329
570.5594, 66.37926
571.0415, 66.45951
571.5236, 66.53035
572.0057, 66.63929
572.4879, 66.86346
572.9700, 67.12069
573.4521, 67.30977
573.9342, 67.39899
574.4163, 67.53337
574.8984, 67.83142
575.3806, 68.18331
575.8627, 68.48096
576.3448, 68.69550
576.8269, 68.85745
577.3090, 68.95133
577.7911, 68.99809
578.2733, 69.04330
578.7554, 69.07162
579.2375, 69.12598
579.7196, 69.22179
580.2017, 69.35606
580.6838, 69.49552
581.1660, 69.63789
581.6481, 69.79543
582.1302, 70.00211
582.6123, 70.23622
583.0944, 70.42027
583.5765, 70.55689
584.0587, 70.58900
584.5408, 70.36054
585.0229, 70.00708
585.5050, 69.76083
585.9871, 69.71329
586.4692, 69.75515
586.9514, 69.89198
587.4335, 70.06564
587.9156, 70.15222
588.3977, 70.04637
588.8798, 69.91404
589.3619, 69.78480
589.8441, 69.66223
590.3262, 69.62370
590.8083, 69.73758
