##NAMES=Hiortdahlite
##RRUFFID=R070514
##IDEAL CHEMISTRY=Na_2_Ca_4_(Ca_0.5_Zr^4+^_0.5_)Zr^4+^(Si_2_O_7_)_2_OF_3_
##LOCALITY=Aroy, Langesundsfjord, near Larvik, Vestfold, Norway
##OWNER=RRUFF
##SOURCE=James Shigley
##DESCRIPTION=Brownish-yellow massive
##STATUS=The identification of this mineral is confirmed by single-crystal X-ray diffraction and chemical analysis.
##URL=rruff.info/R070514
##MEASURED CHEMISTRY=Na_4.00_Ca_8.00_Zr_2.00_(Zr_0.49_Nb^5+^_0.45_Fe^2+^_0.38_Ti_0.33_Mn_0.32_Mg_0.02_Al_0.01_)_Î£=2_(Si_2.00_O_7_)_4_O_3_F_5.00_
149.6732, 4687.537
150.1554, 4696.344
150.6375, 4706.239
151.1196, 4723.197
151.6017, 4752.997
152.0838, 4784.547
152.5659, 4815.348
153.0481, 4844.486
153.5302, 4877.530
154.0123, 4913.801
154.4944, 4954.350
154.9765, 5000.624
155.4586, 5064.224
155.9408, 5124.126
156.4229, 5172.697
156.9050, 5185.275
157.3871, 5169.299
157.8692, 5137.381
158.3513, 5101.957
158.8335, 5085.049
159.3156, 5109.385
159.7977, 5141.595
160.2798, 5164.317
160.7619, 5175.714
161.2440, 5176.616
161.7262, 5161.312
162.2083, 5133.786
162.6904, 5110.828
163.1725, 5099.643
163.6546, 5095.148
164.1367, 5093.361
164.6189, 5098.812
165.1010, 5101.537
165.5831, 5093.752
166.0652, 5075.876
166.5473, 5060.994
167.0294, 5053.523
167.5116, 5053.429
167.9937, 5060.949
168.4758, 5092.224
168.9579, 5119.967
169.4400, 5118.387
169.9221, 5082.750
170.4043, 5051.936
170.8864, 5056.289
171.3685, 5083.891
171.8506, 5112.805
172.3327, 5140.564
172.8148, 5160.479
173.2970, 5161.707
173.7791, 5138.362
174.2612, 5114.146
174.7433, 5111.235
175.2254, 5125.120
175.7076, 5142.552
176.1897, 5163.992
176.6718, 5182.250
177.1539, 5185.498
177.6360, 5166.886
178.1181, 5141.867
178.6003, 5126.138
179.0824, 5119.109
179.5645, 5117.479
180.0466, 5122.659
180.5287, 5131.377
181.0108, 5135.991
181.4930, 5132.593
181.9751, 5126.304
182.4572, 5123.625
182.9393, 5124.515
183.4214, 5131.008
183.9035, 5151.895
184.3857, 5181.310
184.8678, 5199.939
185.3499, 5198.776
185.8320, 5183.465
186.3141, 5163.930
186.7962, 5139.201
187.2784, 5117.383
187.7605, 5105.499
188.2426, 5103.405
188.7247, 5110.845
189.2068, 5134.417
189.6889, 5168.418
190.1711, 5192.483
190.6532, 5206.782
191.1353, 5209.833
191.6174, 5190.413
192.0995, 5150.073
192.5816, 5120.626
193.0638, 5127.172
193.5459, 5163.705
194.0280, 5178.318
194.5101, 5165.284
194.9922, 5139.696
195.4743, 5126.729
195.9565, 5127.034
196.4386, 5131.140
196.9207, 5135.715
197.4028, 5140.769
197.8849, 5142.237
198.3671, 5139.125
198.8492, 5133.321
199.3313, 5131.621
199.8134, 5136.054
200.2955, 5133.354
200.7776, 5106.426
201.2598, 5052.329
201.7419, 5024.086
202.2240, 5034.890
202.7061, 5071.726
203.1882, 5088.120
203.6703, 5078.715
204.1525, 5066.089
204.6346, 5071.473
205.1167, 5099.842
205.5988, 5110.488
206.0809, 5090.025
206.5630, 5046.054
207.0452, 5024.394
207.5273, 5031.540
208.0094, 5046.154
208.4915, 5048.871
208.9736, 5036.585
209.4557, 5027.213
209.9379, 5027.036
210.4200, 5034.831
210.9021, 5027.700
211.3842, 4996.109
211.8663, 4965.767
212.3484, 4970.558
212.8306, 5025.540
213.3127, 5064.522
213.7948, 5066.032
214.2769, 5028.542
214.7590, 5007.565
215.2411, 5009.713
215.7233, 5020.185
216.2054, 5019.736
216.6875, 5003.846
217.1696, 4989.136
217.6517, 4981.448
218.1338, 4982.319
218.6160, 4977.039
219.0981, 4962.967
219.5802, 4944.980
220.0623, 4929.444
220.5444, 4913.749
221.0265, 4906.117
221.5087, 4911.627
221.9908, 4935.210
222.4729, 4950.827
222.9550, 4957.516
223.4371, 4957.157
223.9192, 4951.975
224.4014, 4938.280
224.8835, 4927.143
225.3656, 4923.537
225.8477, 4930.355
226.3298, 4935.471
226.8119, 4937.482
227.2941, 4938.314
227.7762, 4942.736
228.2583, 4952.386
228.7404, 4962.387
229.2225, 4970.565
229.7046, 4976.402
230.1868, 4982.019
230.6689, 4991.983
231.1510, 5000.493
231.6331, 4988.226
232.1152, 4936.769
232.5974, 4892.021
233.0795, 4877.281
233.5616, 4910.682
234.0437, 4933.809
234.5258, 4942.868
235.0079, 4941.101
235.4901, 4938.549
235.9722, 4931.461
236.4543, 4929.303
236.9364, 4939.465
237.4185, 4974.912
237.9006, 4994.210
238.3828, 4989.033
238.8649, 4965.616
239.3470, 4950.126
239.8291, 4942.667
240.3112, 4942.870
240.7933, 4952.770
241.2755, 4983.310
241.7576, 4998.920
242.2397, 4989.429
242.7218, 4961.124
243.2039, 4949.688
243.6860, 4964.485
244.1682, 4984.069
244.6503, 4994.489
245.1324, 4991.015
245.6145, 4988.816
246.0966, 4989.591
246.5787, 4992.975
247.0609, 4995.823
247.5430, 4996.077
248.0251, 4998.520
248.5072, 5008.008
248.9893, 5031.917
249.4714, 5045.887
249.9536, 5041.281
250.4357, 5021.649
250.9178, 5020.490
251.3999, 5048.236
251.8820, 5080.978
252.3641, 5101.472
252.8463, 5106.729
253.3284, 5105.866
253.8105, 5097.865
254.2926, 5083.761
254.7747, 5072.853
255.2568, 5062.675
255.7390, 5059.006
256.2211, 5068.623
256.7032, 5100.116
257.1853, 5123.799
257.6674, 5133.068
258.1495, 5129.495
258.6317, 5129.870
259.1138, 5137.168
259.5959, 5144.090
260.0780, 5143.065
260.5601, 5128.547
261.0422, 5120.555
261.5244, 5123.432
262.0065, 5136.248
262.4886, 5147.964
262.9707, 5157.538
263.4528, 5167.829
263.9349, 5182.609
264.4171, 5205.417
264.8992, 5222.603
265.3813, 5231.716
265.8634, 5233.174
266.3455, 5230.740
266.8276, 5221.884
267.3098, 5213.635
267.7919, 5213.225
268.2740, 5223.699
268.7561, 5230.531
269.2382, 5228.569
269.7203, 5219.875
270.2025, 5222.689
270.6846, 5241.711
271.1667, 5262.204
271.6488, 5270.404
272.1309, 5263.388
272.6130, 5256.914
273.0952, 5252.845
273.5773, 5251.577
274.0594, 5256.445
274.5415, 5268.851
275.0236, 5283.667
275.5057, 5298.315
275.9879, 5313.989
276.4700, 5320.696
276.9521, 5312.659
277.4342, 5294.423
277.9163, 5289.881
278.3984, 5301.656
278.8806, 5318.103
279.3627, 5331.313
279.8448, 5341.537
280.3269, 5343.530
280.8090, 5332.085
281.2911, 5312.758
281.7733, 5308.458
282.2554, 5321.423
282.7375, 5337.603
283.2196, 5345.396
283.7017, 5344.736
284.1838, 5342.033
284.6660, 5337.631
285.1481, 5332.427
285.6302, 5327.619
286.1123, 5322.723
286.5944, 5322.628
287.0765, 5336.785
287.5587, 5363.256
288.0408, 5377.241
288.5229, 5368.967
289.0050, 5350.280
289.4871, 5355.280
289.9692, 5384.780
290.4514, 5408.803
290.9335, 5394.844
291.4156, 5351.285
291.8977, 5325.807
292.3798, 5331.621
292.8619, 5353.321
293.3441, 5360.806
293.8262, 5354.632
294.3083, 5347.315
294.7904, 5350.151
295.2726, 5359.445
295.7547, 5361.389
296.2368, 5349.205
296.7189, 5336.116
297.2010, 5347.460
297.6831, 5380.083
298.1653, 5411.489
298.6474, 5425.188
299.1295, 5426.719
299.6116, 5428.789
300.0937, 5434.497
300.5758, 5438.962
301.0580, 5432.225
301.5401, 5417.221
302.0222, 5406.688
302.5043, 5409.388
302.9864, 5421.545
303.4685, 5439.596
303.9507, 5466.477
304.4328, 5489.878
304.9149, 5494.942
305.3970, 5485.829
305.8791, 5474.840
306.3612, 5464.357
306.8434, 5457.747
307.3255, 5460.169
307.8076, 5473.689
308.2897, 5490.460
308.7718, 5506.891
309.2539, 5521.768
309.7361, 5532.441
310.2182, 5526.801
310.7003, 5522.548
311.1824, 5540.113
311.6645, 5586.715
312.1466, 5626.571
312.6288, 5629.155
313.1109, 5611.090
313.5930, 5600.867
314.0751, 5618.409
314.5572, 5641.740
315.0393, 5657.463
315.5215, 5663.957
316.0036, 5667.761
316.4857, 5668.896
316.9678, 5670.038
317.4499, 5674.680
317.9320, 5692.209
318.4142, 5706.564
318.8963, 5707.260
319.3784, 5692.588
319.8605, 5683.792
320.3426, 5693.978
320.8247, 5711.048
321.3069, 5722.564
321.7890, 5717.131
322.2711, 5713.865
322.7532, 5717.618
323.2353, 5728.493
323.7174, 5744.369
324.1996, 5774.725
324.6817, 5804.678
325.1638, 5822.295
325.6459, 5816.252
326.1280, 5808.789
326.6101, 5803.509
327.0923, 5800.233
327.5744, 5795.054
328.0565, 5780.457
328.5386, 5768.960
329.0207, 5768.420
329.5028, 5800.961
329.9850, 5815.957
330.4671, 5798.798
330.9492, 5758.376
331.4313, 5739.978
331.9134, 5759.083
332.3955, 5784.321
332.8777, 5798.810
333.3598, 5790.823
333.8419, 5794.990
334.3240, 5818.084
334.8061, 5852.631
335.2882, 5877.822
335.7704, 5890.806
336.2525, 5899.005
336.7346, 5905.651
337.2167, 5911.017
337.6988, 5912.202
338.1809, 5905.962
338.6631, 5898.197
339.1452, 5902.164
339.6273, 5921.587
340.1094, 5939.750
340.5915, 5949.368
341.0736, 5949.931
341.5558, 5952.354
342.0379, 5957.720
342.5200, 5963.015
343.0021, 5964.466
343.4842, 5962.110
343.9663, 5956.021
344.4485, 5941.690
344.9306, 5922.441
345.4127, 5921.658
345.8948, 5941.305
346.3769, 5967.978
346.8590, 5987.812
347.3412, 6001.746
347.8233, 6014.722
348.3054, 6027.239
348.7875, 6040.379
349.2696, 6057.551
349.7517, 6078.440
350.2339, 6098.588
350.7160, 6110.172
351.1981, 6117.406
351.6802, 6133.100
352.1623, 6167.101
352.6444, 6201.844
353.1266, 6209.283
353.6087, 6193.515
354.0908, 6177.458
354.5729, 6173.981
355.0550, 6180.340
355.5371, 6193.908
356.0193, 6216.590
356.5014, 6241.491
356.9835, 6267.599
357.4656, 6292.060
357.9477, 6306.800
358.4298, 6297.899
358.9120, 6283.858
359.3941, 6280.838
359.8762, 6293.794
360.3583, 6306.710
360.8404, 6309.481
361.3225, 6306.887
361.8047, 6306.574
362.2868, 6308.783
362.7689, 6315.851
363.2510, 6329.008
363.7331, 6348.402
364.2152, 6372.147
364.6974, 6405.953
365.1795, 6440.750
365.6616, 6467.604
366.1437, 6485.714
366.6258, 6494.694
367.1079, 6486.396
367.5901, 6461.114
368.0722, 6453.974
368.5543, 6488.761
369.0364, 6530.356
369.5185, 6555.068
370.0006, 6548.515
370.4828, 6544.410
370.9649, 6545.394
371.4470, 6550.785
371.9291, 6556.282
372.4112, 6554.566
372.8933, 6561.811
373.3755, 6589.583
373.8576, 6656.167
374.3397, 6696.155
374.8218, 6696.826
375.3039, 6676.435
375.7861, 6675.913
376.2682, 6701.020
376.7503, 6729.313
377.2324, 6752.368
377.7145, 6769.927
378.1967, 6783.829
378.6788, 6793.133
379.1609, 6800.691
379.6430, 6808.887
380.1251, 6817.572
380.6072, 6832.381
381.0894, 6861.362
381.5715, 6898.181
382.0536, 6912.643
382.5357, 6903.376
383.0178, 6887.991
383.4999, 6879.384
383.9821, 6877.918
384.4642, 6885.479
384.9463, 6905.577
385.4284, 6931.228
385.9105, 6952.209
386.3926, 6968.748
386.8748, 6984.591
387.3569, 7007.030
387.8390, 7029.138
388.3211, 7037.292
388.8032, 7023.295
389.2853, 7010.308
389.7675, 7028.076
390.2496, 7063.773
390.7317, 7085.704
391.2138, 7057.714
391.6959, 7022.970
392.1780, 7016.715
392.6602, 7046.394
393.1423, 7081.660
393.6244, 7112.866
394.1065, 7139.494
394.5886, 7161.205
395.0707, 7173.511
395.5529, 7184.685
396.0350, 7197.231
396.5171, 7211.202
396.9992, 7226.501
397.4813, 7244.031
397.9634, 7261.903
398.4456, 7278.925
398.9277, 7295.899
399.4098, 7310.513
399.8919, 7319.241
400.3740, 7324.430
400.8561, 7336.596
401.3383, 7363.034
401.8204, 7388.648
402.3025, 7406.083
402.7846, 7408.520
403.2667, 7419.718
403.7488, 7442.543
404.2310, 7472.277
404.7131, 7499.943
405.1952, 7522.809
405.6773, 7551.133
406.1594, 7592.177
406.6415, 7645.876
407.1237, 7684.125
407.6058, 7704.627
408.0879, 7714.758
408.5700, 7718.686
409.0521, 7716.201
409.5342, 7718.856
410.0164, 7730.863
410.4985, 7748.551
410.9806, 7760.775
411.4627, 7767.533
411.9448, 7778.098
412.4269, 7803.269
412.9091, 7838.052
413.3912, 7866.997
413.8733, 7887.064
414.3554, 7904.174
414.8375, 7926.610
415.3196, 7952.112
415.8018, 7973.590
416.2839, 7981.101
416.7660, 7985.991
417.2481, 8000.474
417.7302, 8025.973
418.2123, 8054.377
418.6945, 8082.728
419.1766, 8110.200
419.6587, 8135.199
420.1408, 8156.219
420.6229, 8176.056
421.1050, 8197.514
421.5872, 8219.887
422.0693, 8237.622
422.5514, 8243.619
423.0335, 8247.726
423.5156, 8256.198
423.9977, 8273.571
424.4799, 8289.937
424.9620, 8300.696
425.4441, 8309.313
425.9262, 8324.561
426.4083, 8349.885
426.8904, 8377.460
427.3726, 8406.225
427.8547, 8437.526
428.3368, 8462.939
428.8189, 8482.823
429.3010, 8496.874
429.7831, 8502.937
430.2653, 8496.890
430.7474, 8498.705
431.2295, 8518.045
431.7116, 8549.347
432.1937, 8558.019
432.6758, 8540.314
433.1580, 8518.826
433.6401, 8508.347
434.1222, 8508.599
434.6043, 8515.597
435.0864, 8526.658
435.5685, 8548.450
436.0507, 8608.101
436.5328, 8696.699
437.0149, 8758.948
437.4970, 8744.578
437.9791, 8692.393
438.4612, 8669.136
438.9434, 8678.859
439.4255, 8693.348
439.9076, 8690.617
440.3897, 8676.728
440.8718, 8661.396
441.3539, 8642.929
441.8361, 8629.184
442.3182, 8625.853
442.8003, 8632.181
443.2824, 8643.702
443.7645, 8668.912
444.2466, 8692.193
444.7288, 8701.233
445.2109, 8684.137
445.6930, 8673.629
446.1751, 8685.904
446.6572, 8707.330
447.1393, 8714.691
447.6215, 8685.446
448.1036, 8661.711
448.5857, 8655.709
449.0678, 8669.795
449.5499, 8678.056
450.0320, 8674.032
450.5142, 8670.920
450.9963, 8682.897
451.4784, 8721.970
451.9605, 8741.707
452.4426, 8729.569
452.9247, 8697.896
453.4069, 8682.476
453.8890, 8684.072
454.3711, 8698.120
454.8532, 8729.542
455.3353, 8775.868
455.8174, 8807.364
456.2996, 8823.576
456.7817, 8822.488
457.2638, 8782.946
457.7459, 8718.140
458.2281, 8684.515
458.7102, 8731.924
459.1923, 8803.240
459.6744, 8806.760
460.1565, 8748.895
460.6386, 8687.026
461.1208, 8654.389
461.6029, 8641.238
462.0850, 8638.623
462.5671, 8650.628
463.0492, 8660.128
463.5313, 8653.487
464.0135, 8638.182
464.4956, 8628.665
464.9777, 8636.393
465.4598, 8645.150
465.9419, 8646.787
466.4240, 8639.545
466.9062, 8636.103
467.3883, 8648.260
467.8704, 8658.791
468.3525, 8653.031
468.8346, 8610.538
469.3167, 8580.285
469.7989, 8568.597
470.2810, 8571.109
470.7631, 8574.351
471.2452, 8580.121
471.7273, 8582.843
472.2094, 8580.565
472.6916, 8573.617
473.1737, 8559.216
473.6558, 8534.751
474.1379, 8510.555
474.6200, 8503.963
475.1021, 8514.350
475.5843, 8514.049
476.0664, 8487.778
476.5485, 8451.700
477.0306, 8444.476
477.5127, 8464.036
477.9948, 8488.816
478.4770, 8505.506
478.9591, 8516.731
479.4412, 8525.358
479.9233, 8530.262
480.4054, 8537.596
480.8875, 8557.387
481.3697, 8581.964
481.8518, 8598.373
482.3339, 8596.410
482.8160, 8588.905
483.2981, 8579.097
483.7802, 8567.507
484.2624, 8562.343
484.7445, 8573.028
485.2266, 8585.946
485.7087, 8592.748
486.1908, 8594.518
486.6729, 8587.109
487.1551, 8564.810
487.6372, 8534.956
488.1193, 8511.292
488.6014, 8495.037
489.0835, 8484.022
489.5656, 8478.480
490.0478, 8478.572
490.5299, 8480.254
491.0120, 8483.858
491.4941, 8488.779
491.9762, 8496.476
492.4583, 8506.979
492.9405, 8510.476
493.4226, 8503.146
493.9047, 8492.271
494.3868, 8494.681
494.8689, 8507.662
495.3510, 8513.096
495.8332, 8492.358
496.3153, 8460.783
496.7974, 8441.532
497.2795, 8435.262
497.7616, 8436.339
498.2437, 8452.194
498.7259, 8468.586
499.2080, 8466.442
499.6901, 8416.010
500.1722, 8377.262
500.6543, 8393.147
501.1364, 8443.816
501.6186, 8475.679
502.1007, 8459.876
502.5828, 8434.437
503.0649, 8414.178
503.5470, 8402.082
504.0291, 8388.613
504.5113, 8370.963
504.9934, 8353.846
505.4755, 8341.303
505.9576, 8333.584
506.4397, 8330.564
506.9218, 8334.399
507.4040, 8342.131
507.8861, 8345.261
508.3682, 8344.184
508.8503, 8335.802
509.3324, 8312.896
509.8145, 8278.121
510.2967, 8255.136
510.7788, 8244.318
511.2609, 8243.786
511.7430, 8255.952
512.2252, 8277.100
512.7073, 8296.562
513.1894, 8309.405
513.6715, 8321.584
514.1536, 8343.175
514.6357, 8370.502
515.1179, 8390.832
515.6000, 8404.326
516.0821, 8403.536
516.5642, 8373.358
517.0463, 8303.913
517.5284, 8259.173
518.0106, 8279.034
518.4927, 8325.375
518.9748, 8360.567
519.4569, 8373.054
519.9390, 8381.688
520.4211, 8384.412
520.9033, 8384.469
521.3854, 8396.221
521.8675, 8434.019
522.3496, 8459.346
522.8317, 8451.104
523.3138, 8404.329
523.7960, 8377.734
524.2781, 8374.699
524.7602, 8382.396
525.2423, 8393.475
525.7244, 8406.698
526.2065, 8400.958
526.6887, 8364.035
527.1708, 8317.566
527.6529, 8299.813
528.1350, 8306.571
528.6171, 8318.099
529.0992, 8326.611
529.5814, 8331.895
530.0635, 8331.793
530.5456, 8325.747
531.0277, 8322.140
531.5098, 8330.060
531.9919, 8340.654
532.4741, 8345.323
532.9562, 8339.116
533.4383, 8329.512
533.9204, 8316.171
534.4025, 8300.516
534.8846, 8286.701
535.3668, 8270.292
535.8489, 8261.393
536.3310, 8268.091
536.8131, 8293.462
537.2952, 8294.253
537.7773, 8258.273
538.2595, 8219.095
538.7416, 8206.989
539.2237, 8225.417
539.7058, 8238.168
540.1879, 8241.204
540.6700, 8237.466
541.1522, 8227.157
541.6343, 8211.946
542.1164, 8205.670
542.5985, 8223.417
543.0806, 8250.020
543.5627, 8257.913
544.0449, 8248.591
544.5270, 8242.487
545.0091, 8260.251
545.4912, 8284.645
545.9733, 8296.667
546.4554, 8286.650
546.9376, 8279.339
547.4197, 8287.911
547.9018, 8304.672
548.3839, 8318.368
548.8660, 8333.519
549.3481, 8338.249
549.8303, 8323.634
550.3124, 8293.063
550.7945, 8276.672
551.2766, 8281.887
551.7587, 8290.417
552.2408, 8293.120
552.7230, 8289.153
553.2051, 8285.400
553.6872, 8283.026
554.1693, 8277.983
554.6514, 8263.100
555.1335, 8239.290
555.6157, 8217.664
556.0978, 8202.519
556.5799, 8188.856
557.0620, 8166.606
557.5441, 8137.841
558.0262, 8111.931
558.5084, 8096.728
558.9905, 8085.820
559.4726, 8075.618
559.9547, 8066.263
560.4368, 8049.424
560.9189, 8011.253
561.4011, 7969.464
561.8832, 7939.420
562.3653, 7946.326
562.8474, 7937.592
563.3295, 7891.741
563.8116, 7828.706
564.2938, 7788.130
564.7759, 7783.120
565.2580, 7777.938
565.7401, 7758.061
566.2222, 7726.059
566.7043, 7722.451
567.1865, 7754.127
567.6686, 7787.363
568.1507, 7798.448
568.6328, 7788.891
569.1149, 7764.797
569.5970, 7722.390
570.0792, 7682.684
570.5613, 7669.118
571.0434, 7677.422
571.5255, 7698.795
572.0076, 7746.023
572.4897, 7788.972
572.9719, 7795.267
573.4540, 7774.658
573.9361, 7763.406
574.4182, 7784.478
574.9003, 7812.501
575.3824, 7836.626
575.8646, 7857.541
576.3467, 7867.297
576.8288, 7851.280
577.3109, 7834.419
577.7930, 7837.044
578.2751, 7868.040
578.7573, 7897.982
579.2394, 7927.088
579.7215, 7951.640
580.2036, 7959.386
580.6857, 7948.386
581.1678, 7946.052
581.6500, 7967.945
582.1321, 8004.825
582.6142, 8034.691
583.0963, 8056.984
583.5784, 8064.360
584.0605, 8035.734
584.5427, 7995.406
585.0248, 7978.648
585.5069, 7994.511
585.9890, 8012.480
586.4711, 8011.308
586.9532, 8003.010
587.4354, 8001.518
587.9175, 8021.563
588.3996, 8036.106
588.8817, 8037.143
589.3638, 8027.735
589.8459, 8019.273
590.3281, 8015.592
590.8102, 8006.596
591.2923, 7985.878
591.7744, 7953.243
592.2565, 7932.956
592.7386, 7927.153
593.2208, 7925.849
593.7029, 7925.764
594.1850, 7924.782
594.6671, 7904.164
595.1492, 7856.735
595.6313, 7809.033
596.1135, 7799.743
596.5956, 7814.586
597.0777, 7821.246
597.5598, 7806.212
598.0419, 7779.787
598.5240, 7737.851
599.0062, 7688.134
599.4883, 7656.735
599.9704, 7665.849
600.4525, 7684.301
600.9346, 7698.249
601.4167, 7705.412
601.8989, 7715.538
602.3810, 7734.843
602.8631, 7750.200
603.3452, 7752.135
603.8273, 7739.795
604.3094, 7713.396
604.7916, 7665.712
605.2737, 7615.622
605.7558, 7597.018
606.2379, 7607.791
606.7200, 7618.111
607.2021, 7617.873
607.6843, 7611.572
608.1664, 7603.518
608.6485, 7594.998
609.1306, 7591.510
609.6127, 7600.033
610.0948, 7612.764
610.5770, 7627.410
611.0591, 7644.935
611.5412, 7647.884
612.0233, 7614.168
612.5054, 7573.184
612.9875, 7547.662
613.4697, 7553.719
613.9518, 7555.069
614.4339, 7551.919
614.9160, 7543.943
615.3981, 7528.413
615.8802, 7501.751
616.3624, 7483.332
616.8445, 7482.042
617.3266, 7490.034
617.8087, 7480.449
618.2908, 7454.206
618.7729, 7432.281
619.2551, 7430.821
619.7372, 7440.425
620.2193, 7450.304
620.7014, 7459.733
621.1835, 7457.560
621.6656, 7422.358
622.1478, 7379.583
622.6299, 7354.191
623.1120, 7359.650
623.5941, 7364.182
624.0762, 7357.857
624.5583, 7346.768
625.0405, 7339.310
625.5226, 7334.418
626.0047, 7336.348
626.4868, 7351.630
626.9689, 7372.685
627.4510, 7370.090
627.9332, 7339.736
628.4153, 7308.099
628.8974, 7284.264
629.3795, 7269.118
629.8616, 7269.678
630.3438, 7285.618
630.8259, 7300.790
631.3080, 7297.522
631.7901, 7287.535
632.2722, 7288.594
632.7543, 7306.422
633.2365, 7322.820
633.7186, 7330.823
634.2007, 7331.198
634.6828, 7324.814
635.1649, 7297.225
635.6470, 7281.182
636.1292, 7287.719
636.6113, 7307.703
637.0934, 7320.447
637.5755, 7324.583
638.0576, 7324.867
638.5397, 7321.995
639.0219, 7316.419
639.5040, 7308.295
639.9861, 7297.021
640.4682, 7291.496
640.9503, 7297.092
641.4324, 7312.931
641.9146, 7342.222
642.3967, 7385.956
642.8788, 7423.112
