##NAMES=Hodgkinsonite
##RRUFFID=R140280
##IDEAL CHEMISTRY=Zn^2+^_2_Mn^2+^SiO_4_(OH)_2_
##LOCALITY=Parker Shaft, Franklin mine, Franklin, Franklin Mining District, Sussex County, New Jersey, USA
##OWNER=RRUFF
##SOURCE=Marcus Origlieri
##DESCRIPTION=Pinkish striated subhedral crystals, associated with franklinite and calcite
##STATUS=The identification of this mineral has been confirmed by single-crystal X-ray diffraction.
##URL=rruff.info/R140280
86.52026, 719.7690
88.44873, 760.9405
90.37720, 807.0013
92.30566, 860.8820
94.23413, 869.0887
96.16260, 846.7682
98.09106, 833.5577
100.0195, 833.5668
101.9480, 844.8807
103.8765, 844.8261
105.8049, 823.2380
107.7334, 800.9044
109.6619, 777.1809
111.5903, 757.1692
113.5188, 746.9423
115.4473, 745.3672
117.3757, 748.7050
119.3042, 748.8087
121.2327, 762.5391
123.1611, 809.9246
125.0896, 863.1559
127.0181, 891.3792
128.9465, 895.0731
130.8750, 887.0841
132.8035, 848.8483
134.7319, 824.7781
136.6604, 831.9675
138.5889, 852.9208
140.5173, 875.2975
142.4458, 898.5494
144.3743, 904.1292
146.3027, 879.8776
148.2312, 852.5469
150.1597, 818.1917
152.0881, 788.8019
154.0166, 771.5280
155.9451, 766.1714
157.8735, 773.7000
159.8020, 791.2014
161.7305, 827.0947
163.6589, 887.2028
165.5874, 961.7564
167.5159, 1054.171
169.4443, 1156.235
171.3728, 1238.251
173.3013, 1308.553
175.2297, 1337.661
177.1582, 1306.163
179.0867, 1256.635
181.0151, 1201.564
182.9436, 1146.518
184.8721, 1101.805
186.8005, 1069.837
188.7290, 1040.397
190.6575, 1007.661
192.5859, 987.2980
194.5144, 982.7488
196.4429, 996.7992
198.3713, 1033.322
200.2998, 1092.905
202.2283, 1182.139
204.1567, 1320.589
206.0852, 1429.954
208.0137, 1509.552
209.9421, 1525.927
211.8706, 1436.543
213.7991, 1267.377
215.7275, 1108.880
217.6560, 957.2805
219.5845, 834.3330
221.5129, 748.7639
223.4414, 684.7158
225.3699, 635.6447
227.2983, 600.6735
229.2268, 581.0881
231.1553, 577.3358
233.0837, 576.5065
235.0122, 578.0397
236.9407, 583.5852
238.8691, 596.2554
240.7976, 610.6224
242.7261, 623.1703
244.6545, 634.7773
246.5830, 647.9119
248.5115, 662.4425
250.4399, 679.4623
252.3684, 698.6848
254.2969, 721.6238
256.2253, 751.0370
258.1538, 782.6378
260.0823, 812.4471
262.0107, 840.1389
263.9392, 863.2597
265.8677, 879.4938
267.7961, 899.4128
269.7246, 931.1065
271.6531, 960.6140
273.5815, 980.0546
275.5100, 993.3678
277.4385, 1006.190
279.3669, 1018.748
281.2954, 1035.134
283.2239, 1065.676
285.1523, 1080.656
287.0808, 1074.318
289.0093, 1051.392
290.9377, 1006.622
292.8662, 949.8239
294.7947, 899.0812
296.7231, 854.8353
298.6516, 815.8246
300.5801, 780.3810
302.5085, 752.5463
304.4370, 732.7078
306.3655, 721.2931
308.2939, 718.9843
310.2224, 725.3954
312.1509, 740.8531
314.0793, 764.7773
316.0078, 800.8051
317.9363, 847.8162
319.8647, 907.2781
321.7932, 985.4241
323.7217, 1071.305
325.6501, 1173.547
327.5786, 1275.420
329.5071, 1321.208
331.4355, 1299.629
333.3640, 1245.480
335.2925, 1137.727
337.2209, 1030.751
339.1494, 932.7609
341.0779, 847.6317
343.0063, 777.0989
344.9348, 720.4081
346.8633, 675.9870
348.7917, 645.5381
350.7202, 623.7057
352.6487, 611.6574
354.5771, 605.5237
356.5056, 608.3186
358.4341, 612.1581
360.3625, 612.9876
362.2910, 610.5899
364.2195, 604.0756
366.1479, 592.8348
368.0764, 580.0726
370.0049, 564.9056
371.9333, 550.5334
373.8618, 536.8464
375.7903, 525.5654
377.7188, 517.7853
379.6472, 512.6487
381.5757, 509.4949
383.5042, 508.3157
385.4326, 506.0139
387.3611, 502.6802
389.2896, 497.9511
391.2180, 490.9884
393.1465, 483.9621
395.0750, 478.1620
397.0034, 472.4934
398.9319, 466.0132
400.8604, 458.7346
402.7888, 450.3808
404.7173, 440.8671
406.6458, 432.5533
408.5742, 426.1001
410.5027, 419.8742
412.4312, 413.0938
414.3596, 406.6060
416.2881, 400.6196
418.2166, 395.3949
420.1450, 391.5996
422.0735, 389.0733
424.0020, 386.7124
425.9304, 384.3218
427.8589, 383.0297
429.7874, 383.1564
431.7158, 384.4249
433.6443, 387.5835
435.5728, 391.0514
437.5012, 393.4478
439.4297, 395.1328
441.3582, 396.7643
443.2866, 398.3935
445.2151, 400.5153
447.1436, 402.5390
449.0720, 406.9630
451.0005, 413.4839
452.9290, 423.2298
454.8574, 436.7797
456.7859, 453.6518
458.7144, 474.2126
460.6428, 497.5923
462.5713, 525.0529
464.4998, 556.9173
466.4282, 574.7874
468.3567, 575.1794
470.2852, 563.7170
472.2136, 532.1471
474.1421, 500.9000
476.0706, 477.2895
477.9990, 458.6594
479.9275, 442.1764
481.8560, 428.8833
483.7844, 421.8475
485.7129, 421.4620
487.6414, 422.8446
489.5698, 425.4530
491.4983, 430.6367
493.4268, 440.0122
495.3552, 449.8344
497.2837, 457.4685
499.2122, 466.5331
501.1406, 479.2412
503.0691, 495.3581
504.9976, 514.6256
506.9260, 537.0204
508.8545, 562.4528
510.7830, 590.5627
512.7114, 623.2411
514.6399, 662.8532
516.5684, 702.3311
518.4968, 743.2474
520.4253, 778.2680
522.3538, 805.0303
524.2822, 822.3176
526.2107, 827.9551
528.1392, 822.7230
530.0676, 808.0194
531.9961, 782.2641
533.9246, 758.6840
535.8530, 738.2823
537.7815, 716.3063
539.7100, 692.2549
541.6384, 665.6258
543.5669, 633.2072
545.4954, 601.2551
547.4238, 572.6215
549.3523, 547.4512
551.2808, 525.9027
553.2092, 507.9923
555.1377, 493.6240
557.0662, 482.5967
558.9946, 476.8592
560.9231, 476.6218
562.8516, 481.4747
564.7800, 491.5778
566.7085, 506.5218
568.6370, 528.1746
570.5654, 551.8044
572.4939, 577.2112
574.4224, 600.7228
576.3508, 619.4340
578.2793, 631.4257
580.2078, 629.9629
582.1362, 615.6749
584.0647, 595.2783
585.9932, 567.2022
587.9216, 544.3820
589.8501, 529.7709
591.7786, 520.5659
593.7070, 518.7090
595.6355, 518.5554
597.5640, 520.3698
599.4924, 519.5447
601.4209, 512.0967
603.3494, 497.7507
605.2778, 473.9960
607.2063, 443.1317
609.1348, 416.7851
611.0632, 395.7907
612.9917, 377.6649
614.9202, 362.1859
616.8486, 349.5757
618.7771, 340.6002
620.7056, 333.2487
622.6340, 327.1689
624.5625, 322.2193
626.4910, 318.4418
628.4194, 315.6507
630.3479, 313.9255
632.2764, 312.8710
634.2048, 311.7193
636.1333, 310.4841
638.0618, 309.4893
639.9902, 308.8830
641.9187, 308.0386
643.8472, 306.1151
645.7756, 305.4244
647.7041, 307.2621
649.6326, 308.5450
651.5610, 307.9023
653.4895, 307.0782
655.4180, 307.0631
657.3464, 307.3292
659.2749, 307.4848
661.2034, 307.5770
663.1318, 307.6193
665.0603, 307.6677
666.9888, 307.9969
668.9172, 308.6256
670.8457, 309.3943
672.7742, 310.3417
674.7026, 311.1618
676.6311, 311.6250
678.5596, 312.6420
680.4880, 315.1929
682.4165, 316.6368
684.3450, 314.7197
686.2734, 312.9852
688.2019, 313.5773
690.1304, 315.0890
692.0588, 316.6032
693.9873, 317.9510
695.9158, 318.8266
697.8442, 319.2730
699.7727, 319.5512
701.7012, 319.6224
703.6296, 318.5916
705.5581, 316.3275
707.4866, 315.5773
709.4150, 317.0460
711.3435, 317.6325
713.2720, 316.4629
715.2004, 314.9334
717.1289, 313.0011
719.0574, 311.5382
720.9858, 311.0129
722.9143, 310.8930
724.8428, 311.0339
726.7712, 311.2442
728.6997, 311.3634
730.6282, 311.3956
732.5566, 311.3730
734.4851, 311.2491
736.4136, 310.7707
738.3420, 310.0438
740.2705, 309.5737
742.1990, 309.3772
744.1274, 310.2303
746.0559, 312.5287
747.9844, 314.0912
749.9128, 314.2167
751.8413, 314.4788
753.7698, 315.2331
755.6982, 316.0409
757.6267, 315.4486
759.5552, 316.8142
761.4836, 324.5352
763.4121, 331.3084
765.3406, 330.6724
767.2690, 327.8998
769.1975, 327.9710
771.1260, 329.4515
773.0544, 331.0581
774.9829, 332.2291
776.9114, 331.0813
778.8398, 328.2779
780.7683, 327.5896
782.6968, 329.1359
784.6252, 330.8526
786.5537, 332.8344
788.4822, 334.5187
790.4106, 335.6601
792.3391, 337.0462
794.2676, 338.5919
796.1960, 340.5956
798.1245, 342.5381
800.0530, 346.1013
801.9814, 352.0186
803.9099, 359.1381
805.8384, 367.0622
807.7668, 375.9115
809.6953, 384.7063
811.6238, 395.7834
813.5522, 409.3427
815.4807, 427.2549
817.4092, 452.5392
819.3376, 482.3461
821.2661, 514.3019
823.1946, 546.7649
825.1230, 575.7037
827.0515, 602.1039
828.9800, 627.7275
830.9084, 653.6592
832.8369, 689.0059
834.7654, 733.9560
836.6938, 795.7936
838.6223, 874.6592
840.5508, 970.3147
842.4792, 1084.456
844.4077, 1201.740
846.3362, 1324.977
848.2646, 1426.601
850.1931, 1511.367
852.1216, 1535.632
854.0500, 1479.911
855.9785, 1382.093
857.9070, 1226.682
859.8354, 1077.711
861.7639, 950.5893
863.6924, 842.2908
865.6208, 752.2496
867.5493, 679.9072
869.4778, 629.5356
871.4063, 591.0992
873.3347, 559.5485
875.2632, 533.8694
877.1917, 513.5059
879.1201, 498.0906
881.0486, 487.7896
882.9771, 481.7450
884.9055, 479.3005
886.8340, 479.8703
888.7625, 483.2898
890.6909, 488.4327
892.6194, 494.1971
894.5479, 499.2527
896.4763, 500.3402
898.4048, 497.2025
900.3333, 488.7790
902.2617, 475.2968
904.1902, 457.5287
906.1187, 435.5759
908.0471, 418.6429
909.9756, 407.3223
911.9041, 398.7565
913.8325, 393.2240
915.7610, 388.5810
917.6895, 383.8724
919.6179, 382.4847
921.5464, 386.4381
923.4749, 389.8893
925.4033, 392.9710
927.3318, 395.2497
929.2603, 396.2490
931.1887, 397.4023
933.1172, 398.3549
935.0457, 400.5948
936.9741, 403.7286
938.9026, 409.7020
940.8311, 419.2251
942.7595, 431.1750
944.6880, 445.3398
946.6165, 461.6891
948.5449, 481.1762
950.4734, 501.0464
952.4019, 522.9306
954.3303, 539.7053
956.2588, 550.5828
958.1873, 551.0264
960.1157, 536.5724
962.0442, 514.2811
963.9727, 484.5445
965.9011, 452.6298
967.8296, 418.4271
969.7581, 386.7885
971.6865, 360.4256
973.6150, 338.0736
975.5435, 319.2069
977.4719, 303.6703
979.4004, 292.2012
981.3289, 283.0446
983.2573, 275.0678
985.1858, 268.3735
987.1143, 263.2679
989.0427, 259.2351
990.9712, 256.2534
992.8997, 253.5364
994.8281, 249.7275
996.7566, 246.2770
998.6851, 245.3409
1000.614, 245.1355
1002.542, 243.6619
1004.470, 241.6199
1006.399, 239.5640
1008.327, 237.7375
1010.256, 236.4071
1012.184, 235.5349
1014.113, 235.5616
1016.041, 235.5749
1017.970, 233.8877
1019.898, 231.8822
1021.827, 231.6912
1023.755, 232.1105
1025.684, 231.5446
1027.612, 230.5387
1029.541, 229.2754
1031.469, 228.4955
1033.397, 229.8324
1035.326, 231.6832
1037.254, 232.0004
1039.183, 231.4563
1041.111, 230.8864
1043.040, 230.0396
1044.968, 228.0990
1046.897, 226.1736
1048.825, 225.8548
1050.754, 226.1881
1052.682, 226.2296
1054.611, 226.0027
1056.539, 225.3816
1058.468, 224.6490
1060.396, 223.9386
1062.324, 223.4958
1064.253, 223.6779
1066.181, 224.1945
1068.110, 225.4603
1070.038, 226.1154
1071.967, 223.8504
1073.895, 221.2599
1075.824, 220.9853
1077.752, 221.4911
1079.681, 221.7865
1081.609, 221.7129
1083.538, 220.8365
1085.466, 219.8892
1087.395, 219.1023
1089.323, 218.9229
1091.251, 220.3101
1093.180, 221.6015
1095.108, 222.0423
1097.037, 221.5054
1098.965, 218.9407
1100.894, 216.7450
1102.822, 216.1316
1104.751, 216.4452
1106.679, 218.8720
1108.608, 219.8945
1110.536, 216.5355
1112.465, 213.6783
1114.393, 213.2532
1116.322, 213.4946
1118.250, 214.7187
1120.178, 214.9439
1122.107, 213.0396
1124.035, 211.1750
1125.964, 209.5763
1127.892, 208.7527
1129.821, 208.9697
1131.749, 209.6382
1133.678, 210.9283
1135.606, 211.8762
1137.535, 212.3248
1139.463, 212.3572
1141.392, 211.6740
1143.320, 212.0001
1145.249, 213.8053
1147.177, 214.9592
1149.105, 215.2832
1151.034, 215.0220
1152.962, 214.1201
1154.891, 214.0920
1156.819, 214.9898
1158.748, 214.8826
1160.676, 213.8108
1162.605, 213.4403
1164.533, 213.6601
1166.462, 213.2302
1168.390, 212.5113
1170.319, 213.8661
1172.247, 216.0425
1174.176, 214.2710
1176.104, 210.8974
1178.032, 211.3082
1179.961, 213.4256
1181.889, 213.8826
1183.818, 214.0135
1185.746, 216.0818
1187.675, 217.9931
1189.603, 217.2056
1191.532, 216.0804
1193.460, 216.5321
1195.389, 216.9292
1197.317, 216.1810
1199.246, 215.2620
1201.174, 214.4056
1203.103, 213.9981
1205.031, 214.1046
1206.959, 215.0884
1208.888, 217.7284
1210.816, 218.7995
1212.745, 217.1023
1214.673, 215.8706
1216.602, 215.7164
1218.530, 215.8323
1220.459, 216.1301
1222.387, 216.2410
1224.316, 216.1388
1226.244, 216.9010
1228.173, 218.4136
1230.101, 218.7134
1232.030, 218.0161
1233.958, 217.6286
1235.886, 217.4685
1237.815, 217.3262
1239.743, 217.2113
1241.672, 217.4407
1243.600, 217.4180
1245.529, 215.5242
1247.457, 213.8940
1249.386, 215.4002
1251.314, 217.1475
1253.243, 216.3486
1255.171, 216.0599
1257.100, 219.0285
1259.028, 220.9772
1260.957, 218.9865
1262.885, 218.2939
1264.813, 221.3526
1266.742, 222.7252
1268.670, 221.3562
1270.599, 220.1298
1272.527, 219.2401
1274.456, 218.3654
1276.384, 217.5075
1278.313, 217.9153
1280.241, 219.2482
1282.170, 218.8490
1284.098, 217.3629
1286.027, 216.7719
1287.955, 216.6386
1289.884, 216.1058
1291.812, 215.6398
1293.740, 215.4770
1295.669, 215.9799
1297.597, 218.1765
1299.526, 219.7915
1301.454, 219.2943
1303.383, 218.6393
1305.311, 218.5776
1307.240, 218.3274
1309.168, 217.6329
1311.097, 217.0085
1313.025, 216.5207
1314.954, 216.1301
1316.882, 215.8329
1318.811, 216.1252
1320.739, 216.8664
1322.667, 216.6027
1324.596, 215.9434
1326.524, 216.7068
1328.453, 218.2532
1330.381, 219.7887
1332.310, 221.2210
1334.238, 222.9529
1336.167, 223.8100
1338.095, 221.8055
1340.024, 221.0834
1341.952, 224.1402
1343.881, 225.0844
1345.809, 221.9252
1347.738, 220.5164
1349.666, 221.7469
1351.594, 223.3943
1353.523, 225.1279
1355.451, 225.3743
1357.380, 224.5960
1359.308, 224.6755
1361.237, 225.3368
1363.165, 226.5040
1365.094, 227.3516
1367.022, 226.2114
1368.951, 225.3174
1370.879, 226.7260
1372.808, 228.1303
1374.736, 228.3643
1376.665, 228.7928
1378.593, 230.0281
1380.521, 230.3414
1382.450, 229.3912
1384.378, 229.5533
1386.307, 230.8614
1388.235, 232.9066
1390.164, 235.0978
1392.092, 235.0838
1394.021, 234.4868
1395.949, 236.0916
1397.878, 237.8036
1399.806, 237.3533
1401.735, 237.2184
1403.663, 239.3632
1405.592, 240.6125
1407.520, 239.3609
1409.448, 239.1829
1411.377, 241.1944
1413.305, 241.2696
1415.234, 239.4766
1417.162, 239.5668
1419.091, 240.9652
1421.019, 241.9153
1422.948, 242.6130
1424.876, 243.2803
1426.805, 243.9747
1428.733, 245.1052
1430.662, 245.5652
1432.590, 244.8699
1434.519, 243.3494
1436.447, 240.7364
1438.375, 240.0368
1440.304, 241.6311
1442.232, 241.5983
1444.161, 240.2575
1446.089, 239.9311
1448.018, 239.7921
1449.946, 237.3987
1451.875, 235.3503
1453.803, 237.1668
1455.732, 238.7641
1457.660, 238.0278
1459.589, 236.9446
1461.517, 235.9112
1463.446, 234.4472
1465.374, 232.5329
1467.302, 231.2776
1469.231, 230.5499
1471.159, 229.4438
1473.088, 228.2525
1475.016, 227.4989
1476.945, 226.9286
1478.873, 226.6201
1480.802, 225.8824
1482.730, 223.1565
1484.659, 222.6957
1486.587, 226.0900
1488.516, 227.3042
1490.444, 226.1348
1492.373, 225.4958
1494.301, 225.1841
1496.229, 224.1360
1498.158, 223.0641
1500.086, 222.9527
1502.015, 223.0006
1503.943, 222.7829
1505.872, 222.4332
1507.800, 221.6631
1509.729, 221.6435
1511.657, 222.5274
1513.586, 223.6585
1515.514, 224.8586
1517.443, 224.8318
1519.371, 224.4463
1521.300, 225.3667
1523.228, 226.2790
1525.156, 226.3934
1527.085, 226.1026
1529.013, 225.5272
1530.942, 224.4846
1532.870, 222.7877
1534.799, 222.9126
1536.727, 224.4104
1538.656, 224.9727
1540.584, 224.7130
1542.513, 223.3608
1544.441, 221.9307
1546.370, 220.5933
1548.298, 220.7684
1550.227, 223.3941
1552.155, 223.7605
1554.083, 221.3422
1556.012, 221.8201
1557.940, 224.2988
1559.869, 225.6643
1561.797, 225.6756
1563.726, 222.8593
1565.654, 220.4480
1567.583, 220.6919
1569.511, 221.2338
1571.440, 221.8413
1573.368, 221.4363
1575.297, 220.1375
1577.225, 219.4079
1579.154, 219.1438
1581.082, 219.2827
1583.010, 219.3409
1584.939, 219.1393
1586.867, 218.2505
1588.796, 215.6235
1590.724, 214.5651
1592.653, 215.3618
1594.581, 215.5083
1596.510, 215.2051
1598.438, 215.3521
1600.367, 215.6871
1602.295, 216.5061
1604.224, 216.3819
1606.152, 213.8056
1608.081, 211.8259
1610.009, 210.8918
1611.938, 210.6724
1613.866, 211.0402
1615.794, 211.5366
1617.723, 211.7287
1619.651, 210.6239
1621.580, 209.7381
1623.508, 209.9630
1625.437, 210.3293
1627.365, 210.8025
1629.294, 209.8647
1631.222, 207.8797
1633.151, 207.6214
1635.079, 207.8124
1637.008, 206.2725
1638.936, 204.7821
1640.865, 204.2960
1642.793, 203.6005
1644.721, 202.3741
1646.650, 202.4369
1648.578, 203.4845
1650.507, 203.4910
1652.435, 203.2501
1654.364, 204.2269
1656.292, 204.5919
1658.221, 202.8569
1660.149, 203.4491
1662.078, 206.9700
1664.006, 206.2331
1665.935, 202.8347
1667.863, 203.2474
1669.792, 204.8752
1671.720, 205.5342
1673.648, 205.2001
1675.577, 203.0886
1677.505, 203.5640
1679.434, 206.6503
1681.362, 207.3133
1683.291, 206.6456
1685.219, 207.3166
1687.148, 207.8618
1689.076, 207.2026
1691.005, 205.9214
1692.933, 203.7230
1694.862, 203.3449
1696.790, 204.3987
1698.719, 204.2207
1700.647, 203.8033
1702.575, 204.3301
1704.504, 205.1593
1706.432, 206.6391
1708.361, 206.7240
1710.289, 205.2677
1712.218, 202.8851
1714.146, 200.5336
1716.075, 200.6784
1718.003, 201.7045
1719.932, 203.3127
1721.860, 203.2677
1723.789, 200.6119
1725.717, 198.4841
1727.646, 197.1202
1729.574, 198.0200
1731.502, 198.8891
1733.431, 196.8688
1735.359, 195.6241
1737.288, 196.4670
1739.216, 196.6501
1741.145, 196.0051
1743.073, 195.4573
1745.002, 194.9521
1746.930, 194.3733
1748.859, 193.8859
1750.787, 193.5271
1752.716, 193.5468
1754.644, 193.9058
1756.573, 193.6154
1758.501, 193.2031
1760.429, 193.9457
1762.358, 194.3154
1764.286, 193.2915
1766.215, 192.3480
1768.143, 191.6355
1770.072, 190.5971
1772.000, 189.9610
1773.929, 191.7476
1775.857, 193.4710
1777.786, 193.3840
1779.714, 193.2146
1781.643, 193.1535
1783.571, 193.1215
1785.500, 193.2778
1787.428, 194.3278
1789.356, 194.9232
1791.285, 193.5591
1793.213, 193.1051
1795.142, 193.9344
1797.070, 193.9202
1798.999, 193.2137
1800.927, 191.8637
1802.856, 190.6450
1804.784, 190.0118
1806.713, 189.6078
1808.641, 189.3937
1810.570, 189.6509
1812.498, 189.6734
1814.427, 188.0083
1816.355, 185.7623
1818.283, 182.8638
1820.212, 182.5188
1822.140, 184.6961
1824.069, 182.7877
1825.997, 179.5469
1827.926, 178.9393
1829.854, 178.7676
1831.783, 178.3137
1833.711, 178.5245
1835.640, 179.1575
1837.568, 178.4284
1839.497, 177.0089
1841.425, 174.8576
1843.354, 174.3540
1845.282, 176.1924
1847.210, 174.5870
1849.139, 171.0891
1851.067, 171.8220
1852.996, 172.7425
1854.924, 170.2028
1856.853, 168.7013
1858.781, 168.6645
1860.710, 166.6855
1862.638, 164.6997
1864.567, 167.6665
1866.495, 169.0363
1868.424, 164.4907
1870.352, 162.9355
1872.281, 164.1708
1874.209, 164.3698
1876.137, 163.8365
1878.066, 162.0468
1879.994, 161.6921
1881.923, 163.7343
1883.851, 164.1129
1885.780, 163.3115
1887.708, 162.4389
1889.637, 161.6242
1891.565, 161.3198
1893.494, 159.6795
1895.422, 156.8762
1897.351, 157.4937
1899.279, 158.8646
1901.208, 158.3355
1903.136, 157.1828
1905.064, 155.5154
1906.993, 155.6701
1908.921, 156.4879
1910.850, 154.5257
1912.778, 152.4506
1914.707, 151.4184
1916.635, 151.6557
1918.564, 152.6938
1920.492, 150.6758
1922.421, 148.1119
1924.349, 147.3574
1926.278, 147.3466
1928.206, 147.8218
1930.135, 146.4618
1932.063, 144.3514
1933.991, 143.3508
1935.920, 142.9343
1937.848, 142.9785
1939.777, 142.7543
1941.705, 142.1353
1943.634, 140.5495
1945.562, 139.3545
1947.491, 140.0144
1949.419, 139.5414
1951.348, 137.9589
1953.276, 137.6047
1955.205, 137.5171
1957.133, 136.2637
1959.062, 135.9451
1960.990, 136.8987
1962.918, 137.1602
1964.847, 136.7857
1966.775, 136.1170
1968.704, 134.6488
1970.632, 131.4672
1972.561, 131.9795
1974.489, 134.2957
1976.418, 133.4306
1978.346, 131.9067
1980.275, 130.6038
1982.203, 130.4340
1984.132, 131.0178
1986.060, 130.7255
1987.989, 129.8616
1989.917, 128.3455
1991.845, 127.5615
1993.774, 127.4393
1995.702, 125.5695
1997.631, 124.3060
1999.559, 125.8896
2001.488, 126.5232
2003.416, 125.5640
2005.345, 124.9994
2007.273, 124.1188
2009.202, 121.3631
2011.130, 121.0088
2013.059, 123.7317
2014.987, 124.2221
2016.916, 123.3516
2018.844, 121.7092
2020.772, 121.0770
2022.701, 121.7321
2024.629, 120.6769
2026.558, 118.9903
2028.486, 118.3949
2030.415, 117.7985
2032.343, 116.9412
2034.272, 116.0038
2036.200, 115.4450
2038.129, 116.2996
2040.057, 117.0938
2041.986, 117.4732
2043.914, 116.4895
2045.843, 115.3035
2047.771, 116.4123
2049.699, 116.4868
2051.628, 114.3619
2053.556, 114.0839
2055.485, 114.5226
2057.413, 113.4065
2059.342, 113.0033
2061.270, 114.2763
2063.199, 114.7117
2065.127, 113.9625
2067.056, 110.5592
