##NAMES=Hoelite
##RRUFFID=R060874
##IDEAL CHEMISTRY=C_14_H_8_O_2_
##LOCALITY=Kladno, Central Bohemia Region, Bohemia, Czech Republic
##OWNER=RRUFF
##SOURCE=Michael Scott
##DESCRIPTION=Straw-yellow acicular crystals
##STATUS=The identification of this mineral has been confirmed by single-crystal X-ray diffraction.
##URL=rruff.info/R060874
156.7219, 5641.269
157.2041, 5651.992
157.6862, 5649.183
158.1683, 5637.634
158.6504, 5638.617
159.1325, 5662.829
159.6146, 5707.231
160.0968, 5758.456
160.5789, 5818.522
161.0610, 5881.699
161.5431, 5944.805
162.0252, 6007.841
162.5073, 6071.073
162.9895, 6133.358
163.4716, 6196.781
163.9537, 6265.046
164.4358, 6343.050
164.9179, 6419.829
165.4000, 6491.526
165.8822, 6557.549
166.3643, 6605.924
166.8464, 6620.272
167.3285, 6616.713
167.8106, 6625.650
168.2927, 6656.641
168.7749, 6692.076
169.2570, 6717.667
169.7391, 6733.312
170.2212, 6742.775
170.7033, 6747.459
171.1854, 6746.814
171.6676, 6739.354
172.1497, 6721.089
172.6318, 6701.084
173.1139, 6689.942
173.5960, 6688.588
174.0781, 6686.268
174.5603, 6676.035
175.0424, 6662.439
175.5245, 6651.403
176.0066, 6644.943
176.4887, 6640.230
176.9708, 6632.978
177.4530, 6622.292
177.9351, 6614.771
178.4172, 6611.686
178.8993, 6614.370
179.3814, 6626.861
179.8635, 6655.370
180.3457, 6686.313
180.8278, 6701.703
181.3099, 6699.056
181.7920, 6693.408
182.2741, 6683.542
182.7562, 6677.129
183.2384, 6684.083
183.7205, 6709.849
184.2026, 6745.270
184.6847, 6783.089
185.1668, 6826.366
185.6489, 6856.186
186.1311, 6848.161
186.6132, 6827.570
187.0953, 6818.841
187.5774, 6830.405
188.0595, 6853.162
188.5416, 6876.116
189.0238, 6899.894
189.5059, 6921.516
189.9880, 6939.085
190.4701, 6954.292
190.9522, 6968.753
191.4343, 6983.771
191.9165, 6996.682
192.3986, 7001.888
192.8807, 6996.929
193.3628, 6995.585
193.8449, 7008.957
194.3270, 7026.244
194.8092, 7035.758
195.2913, 7031.174
195.7734, 7026.695
196.2555, 7047.076
196.7376, 7099.956
197.2197, 7141.580
197.7019, 7143.885
198.1840, 7133.072
198.6661, 7130.178
199.1482, 7141.463
199.6303, 7158.624
200.1124, 7170.709
200.5946, 7176.500
201.0767, 7183.870
201.5588, 7203.617
202.0409, 7221.918
202.5230, 7223.923
203.0051, 7203.133
203.4873, 7179.948
203.9694, 7179.920
204.4515, 7206.063
204.9336, 7235.897
205.4157, 7270.224
205.8978, 7301.168
206.3800, 7321.363
206.8621, 7328.909
207.3442, 7329.494
207.8263, 7325.840
208.3084, 7316.670
208.7905, 7316.036
209.2727, 7338.030
209.7548, 7363.702
210.2369, 7376.270
210.7190, 7372.202
211.2011, 7367.719
211.6832, 7382.773
212.1654, 7418.624
212.6475, 7444.887
213.1296, 7442.224
213.6117, 7436.802
214.0938, 7450.832
214.5759, 7486.908
215.0581, 7526.065
215.5402, 7552.512
216.0223, 7566.406
216.5044, 7577.629
216.9865, 7587.370
217.4686, 7595.571
217.9508, 7599.775
218.4329, 7600.236
218.9150, 7605.939
219.3971, 7626.897
219.8792, 7661.609
220.3613, 7692.944
220.8435, 7717.928
221.3256, 7738.938
221.8077, 7755.861
222.2898, 7769.493
222.7719, 7787.098
223.2540, 7819.136
223.7362, 7861.209
224.2183, 7887.966
224.7004, 7883.507
225.1825, 7881.457
225.6646, 7909.833
226.1467, 7964.143
226.6289, 8021.099
227.1110, 8066.273
227.5931, 8104.175
228.0752, 8147.635
228.5573, 8195.628
229.0394, 8253.389
229.5216, 8324.693
230.0037, 8407.580
230.4858, 8498.910
230.9679, 8596.759
231.4500, 8701.929
231.9321, 8816.418
232.4143, 8940.881
232.8964, 9072.919
233.3785, 9219.959
233.8606, 9374.704
234.3427, 9518.742
234.8248, 9641.212
235.3070, 9752.413
235.7891, 9870.213
236.2712, 9999.201
236.7533, 10116.09
237.2354, 10211.08
237.7175, 10281.52
238.1997, 10316.05
238.6818, 10298.19
239.1639, 10253.50
239.6460, 10207.15
240.1281, 10159.13
240.6102, 10104.06
241.0924, 10032.36
241.5745, 9952.955
242.0566, 9887.887
242.5387, 9847.658
243.0208, 9812.638
243.5029, 9770.030
243.9851, 9720.279
244.4672, 9665.495
244.9493, 9607.529
245.4314, 9544.371
245.9135, 9474.486
246.3956, 9403.929
246.8778, 9317.534
247.3599, 9194.796
247.8420, 9046.926
248.3241, 8911.748
248.8062, 8801.319
249.2883, 8714.236
249.7705, 8648.382
250.2526, 8606.170
250.7347, 8572.762
251.2168, 8544.109
251.6989, 8520.318
252.1810, 8501.401
252.6632, 8487.088
253.1453, 8478.615
253.6274, 8481.529
254.1095, 8501.663
254.5916, 8510.375
255.0737, 8501.518
255.5559, 8478.610
256.0380, 8439.577
256.5201, 8383.603
257.0022, 8329.733
257.4843, 8303.993
257.9665, 8318.314
258.4486, 8316.582
258.9307, 8284.910
259.4128, 8244.818
259.8949, 8211.939
260.3770, 8188.519
260.8592, 8171.073
261.3413, 8156.081
261.8234, 8143.397
262.3055, 8137.782
262.7876, 8144.562
263.2697, 8152.897
263.7519, 8157.152
264.2340, 8157.646
264.7161, 8157.515
265.1982, 8159.309
265.6803, 8162.900
266.1624, 8162.823
266.6446, 8161.629
267.1267, 8154.773
267.6088, 8131.423
268.0909, 8102.178
268.5730, 8088.404
269.0551, 8103.646
269.5373, 8139.460
270.0194, 8158.396
270.5015, 8135.948
270.9836, 8123.547
271.4657, 8135.725
271.9478, 8156.621
272.4300, 8163.438
272.9121, 8147.195
273.3942, 8124.375
273.8763, 8133.488
274.3584, 8209.903
274.8405, 8256.601
275.3227, 8251.350
275.8048, 8229.258
276.2869, 8214.475
276.7690, 8213.503
277.2511, 8220.399
277.7332, 8227.855
278.2154, 8235.764
278.6975, 8244.349
279.1796, 8256.843
279.6617, 8267.278
280.1438, 8274.104
280.6259, 8276.355
281.1081, 8272.000
281.5902, 8254.490
282.0723, 8223.210
282.5544, 8208.770
283.0365, 8228.246
283.5186, 8246.191
284.0008, 8242.368
284.4829, 8225.847
284.9650, 8217.979
285.4471, 8235.484
285.9292, 8270.188
286.4113, 8293.780
286.8935, 8302.004
287.3756, 8308.104
287.8577, 8327.317
288.3398, 8345.755
288.8219, 8341.627
289.3040, 8299.540
289.7862, 8244.888
290.2683, 8211.370
290.7504, 8200.771
291.2325, 8200.693
291.7146, 8213.580
292.1967, 8231.317
292.6789, 8244.549
293.1610, 8251.198
293.6431, 8256.733
294.1252, 8264.766
294.6073, 8275.119
295.0894, 8286.132
295.5716, 8295.210
296.0537, 8307.862
296.5358, 8331.318
297.0179, 8365.545
297.5000, 8403.229
297.9821, 8448.270
298.4643, 8492.780
298.9464, 8522.329
299.4285, 8533.239
299.9106, 8535.148
300.3927, 8538.158
300.8748, 8542.141
301.3570, 8536.535
301.8391, 8506.090
302.3212, 8475.511
302.8033, 8471.596
303.2854, 8492.160
303.7675, 8506.702
304.2497, 8491.443
304.7318, 8449.032
305.2139, 8418.654
305.6960, 8390.388
306.1781, 8382.158
306.6602, 8419.429
307.1424, 8480.789
307.6245, 8523.492
308.1066, 8525.750
308.5887, 8498.167
309.0708, 8472.644
309.5529, 8434.571
310.0351, 8417.809
310.5172, 8443.406
310.9993, 8481.354
311.4814, 8502.459
311.9635, 8498.455
312.4456, 8480.476
312.9278, 8463.663
313.4099, 8446.689
313.8920, 8435.020
314.3741, 8429.563
314.8562, 8427.911
315.3383, 8432.025
315.8205, 8439.733
316.3026, 8444.151
316.7847, 8437.244
317.2668, 8419.141
317.7489, 8411.437
318.2310, 8424.535
318.7132, 8436.343
319.1953, 8435.665
319.6774, 8429.521
320.1595, 8431.660
320.6416, 8452.529
321.1237, 8480.697
321.6059, 8486.122
322.0880, 8458.596
322.5701, 8437.097
323.0522, 8434.278
323.5343, 8443.720
324.0164, 8462.626
324.4986, 8491.556
324.9807, 8522.811
325.4628, 8550.431
325.9449, 8574.239
326.4270, 8592.059
326.9091, 8601.205
327.3913, 8606.379
327.8734, 8612.265
328.3555, 8618.850
328.8376, 8625.947
329.3197, 8636.059
329.8018, 8645.967
330.2840, 8650.303
330.7661, 8648.332
331.2482, 8641.295
331.7303, 8625.895
332.2124, 8604.277
332.6945, 8595.642
333.1767, 8615.400
333.6588, 8636.845
334.1409, 8643.019
334.6230, 8635.081
335.1051, 8618.630
335.5872, 8594.009
336.0694, 8565.683
336.5515, 8551.855
337.0336, 8561.433
337.5157, 8572.257
337.9978, 8588.634
338.4799, 8601.325
338.9621, 8593.542
339.4442, 8560.962
339.9263, 8522.779
340.4084, 8510.213
340.8905, 8538.753
341.3727, 8556.237
341.8548, 8553.760
342.3369, 8549.239
342.8190, 8554.665
343.3011, 8568.675
343.7832, 8580.795
344.2654, 8580.472
344.7475, 8568.501
345.2296, 8568.785
345.7117, 8594.879
346.1938, 8616.654
346.6759, 8624.013
347.1581, 8622.475
347.6402, 8618.782
348.1223, 8614.829
348.6044, 8613.671
349.0865, 8622.387
349.5686, 8643.614
350.0508, 8663.486
350.5329, 8680.813
351.0150, 8693.385
351.4971, 8696.461
351.9792, 8689.243
352.4613, 8684.013
352.9435, 8691.317
353.4256, 8708.177
353.9077, 8723.951
354.3898, 8737.367
354.8719, 8748.812
355.3540, 8757.694
355.8362, 8764.584
356.3183, 8771.754
356.8004, 8774.838
357.2825, 8781.717
357.7646, 8801.327
358.2467, 8832.994
358.7289, 8869.024
359.2110, 8907.364
359.6931, 8945.672
360.1752, 8974.532
360.6573, 8985.257
361.1394, 8998.861
361.6216, 9025.331
362.1037, 9056.401
362.5858, 9085.757
363.0679, 9110.902
363.5500, 9120.439
364.0321, 9094.947
364.5143, 9015.630
364.9964, 8947.301
365.4785, 8884.994
365.9606, 8835.850
366.4427, 8810.594
366.9248, 8803.525
367.4070, 8796.301
367.8891, 8772.746
368.3712, 8736.326
368.8533, 8719.396
369.3354, 8736.584
369.8175, 8752.802
370.2997, 8755.431
370.7818, 8753.636
371.2639, 8759.645
371.7460, 8778.556
372.2281, 8799.792
372.7102, 8805.926
373.1924, 8794.891
373.6745, 8795.313
374.1566, 8824.587
374.6387, 8855.751
375.1208, 8867.015
375.6029, 8858.723
376.0851, 8843.081
376.5672, 8817.035
377.0493, 8790.230
377.5314, 8784.144
378.0135, 8802.547
378.4956, 8820.796
378.9778, 8818.841
379.4599, 8801.525
379.9420, 8796.418
380.4241, 8813.477
380.9062, 8833.101
381.3883, 8848.253
381.8705, 8858.599
382.3526, 8864.058
382.8347, 8864.765
383.3168, 8859.421
383.7989, 8845.087
384.2810, 8814.055
384.7632, 8788.150
385.2453, 8766.471
385.7274, 8750.567
386.2095, 8742.973
386.6916, 8742.913
387.1737, 8747.322
387.6559, 8754.868
388.1380, 8765.171
388.6201, 8765.110
389.1022, 8721.399
389.5843, 8710.560
390.0664, 8784.470
390.5486, 8887.738
391.0307, 8945.856
391.5128, 8928.239
391.9949, 8878.387
392.4770, 8857.921
392.9591, 8869.664
393.4413, 8882.060
393.9234, 8889.179
394.4055, 8894.903
394.8876, 8902.110
395.3697, 8910.746
395.8518, 8920.207
396.3340, 8933.394
396.8161, 8945.987
397.2982, 8949.389
397.7803, 8942.633
398.2624, 8934.923
398.7445, 8934.617
399.2267, 8937.632
399.7088, 8927.406
400.1909, 8886.345
400.6730, 8852.948
401.1551, 8846.818
401.6372, 8856.846
402.1194, 8864.757
402.6015, 8864.601
403.0836, 8860.965
403.5657, 8860.683
404.0478, 8865.520
404.5299, 8869.089
405.0121, 8868.529
405.4942, 8869.719
405.9763, 8875.995
406.4584, 8886.898
406.9405, 8901.763
407.4226, 8922.192
407.9048, 8943.608
408.3869, 8944.617
408.8690, 8910.608
409.3511, 8885.516
409.8332, 8880.040
410.3153, 8887.158
410.7975, 8906.590
411.2796, 8938.155
411.7617, 8963.310
412.2438, 8956.522
412.7259, 8925.426
413.2080, 8914.471
413.6902, 8933.689
414.1723, 8962.729
414.6544, 8990.572
415.1365, 9015.648
415.6186, 9030.334
416.1007, 9018.411
416.5829, 9007.932
417.0650, 9027.456
417.5471, 9068.424
418.0292, 9098.073
418.5113, 9100.952
418.9934, 9087.596
419.4756, 9080.307
419.9577, 9084.154
420.4398, 9085.121
420.9219, 9084.380
421.4040, 9079.588
421.8861, 9064.848
422.3683, 9042.724
422.8504, 9025.202
423.3325, 9023.887
423.8146, 9037.030
424.2967, 9040.548
424.7788, 9021.639
425.2610, 9011.323
425.7431, 9025.982
426.2252, 9048.090
426.7073, 9055.851
427.1894, 9042.254
427.6715, 9025.136
428.1537, 9030.011
428.6358, 9054.759
429.1179, 9060.631
429.6000, 9032.680
430.0821, 8999.923
430.5642, 8985.560
431.0464, 8986.510
431.5285, 8993.041
432.0106, 9003.077
432.4927, 9017.226
432.9748, 9035.818
433.4569, 9058.895
433.9391, 9088.033
434.4212, 9125.339
434.9033, 9166.288
435.3854, 9201.104
435.8675, 9233.272
436.3496, 9252.212
436.8318, 9246.953
437.3139, 9235.643
437.7960, 9234.827
438.2781, 9243.773
438.7602, 9247.552
439.2423, 9230.320
439.7245, 9196.161
440.2066, 9189.659
440.6887, 9237.690
441.1708, 9273.585
441.6529, 9273.814
442.1350, 9259.049
442.6172, 9253.542
443.0993, 9264.123
443.5814, 9270.272
444.0635, 9242.062
444.5456, 9186.312
445.0277, 9154.032
445.5099, 9158.226
445.9920, 9172.556
446.4741, 9179.188
446.9562, 9178.713
447.4383, 9171.255
447.9204, 9150.648
448.4026, 9128.681
448.8847, 9114.342
449.3668, 9105.331
449.8489, 9094.682
450.3310, 9079.301
450.8131, 9063.120
451.2953, 9052.888
451.7774, 9050.520
452.2595, 9050.964
452.7416, 9051.204
453.2237, 9056.859
453.7059, 9082.142
454.1880, 9116.736
454.6701, 9131.183
455.1522, 9102.054
455.6343, 9045.796
456.1165, 9017.174
456.5986, 9025.083
457.0807, 9037.264
457.5628, 9048.801
458.0449, 9059.160
458.5270, 9065.257
459.0092, 9067.067
459.4913, 9074.813
459.9734, 9097.346
460.4555, 9129.582
460.9376, 9165.568
461.4197, 9205.656
461.9019, 9233.478
462.3840, 9231.657
462.8661, 9209.384
463.3482, 9207.637
463.8303, 9239.064
464.3124, 9273.103
464.7946, 9293.031
465.2767, 9314.667
465.7588, 9361.673
466.2409, 9437.563
466.7230, 9521.130
467.2051, 9587.644
467.6873, 9634.643
468.1694, 9696.133
468.6515, 9773.914
469.1336, 9865.632
469.6157, 9972.572
470.0978, 10092.44
470.5800, 10221.81
471.0621, 10359.10
471.5442, 10510.38
472.0263, 10689.65
472.5084, 10894.82
472.9905, 11099.73
473.4727, 11308.83
473.9548, 11499.60
474.4369, 11656.62
474.9190, 11780.67
475.4011, 11854.58
475.8832, 11866.68
476.3654, 11836.09
476.8475, 11781.13
477.3296, 11694.05
477.8117, 11547.11
478.2938, 11327.12
478.7759, 11064.68
479.2581, 10808.79
479.7402, 10549.59
480.2223, 10322.03
480.7044, 10132.60
481.1865, 9965.225
481.6686, 9806.509
482.1508, 9664.021
482.6329, 9560.011
483.1150, 9512.878
483.5971, 9494.382
484.0792, 9438.232
484.5613, 9334.219
485.0435, 9259.798
485.5256, 9251.676
486.0077, 9262.374
486.4898, 9240.686
486.9719, 9189.979
487.4540, 9159.470
487.9362, 9188.994
488.4183, 9233.313
488.9004, 9239.737
489.3825, 9212.974
489.8646, 9191.459
490.3467, 9195.942
490.8289, 9214.047
491.3110, 9215.104
491.7931, 9176.514
492.2752, 9157.510
492.7573, 9173.818
493.2394, 9196.444
493.7216, 9211.050
494.2037, 9214.216
494.6858, 9202.068
495.1679, 9167.188
495.6500, 9121.693
496.1321, 9109.988
496.6143, 9147.896
497.0964, 9165.540
497.5785, 9124.103
498.0606, 9068.166
498.5427, 9037.953
499.0248, 9035.389
499.5070, 9034.831
499.9891, 9021.219
500.4712, 9004.741
500.9533, 9002.453
501.4354, 9013.206
501.9175, 9017.293
502.3997, 9001.636
502.8818, 8974.724
503.3639, 8961.652
503.8460, 8976.411
504.3281, 8985.290
504.8102, 8980.683
505.2924, 8975.255
505.7745, 8980.344
506.2566, 8994.388
506.7387, 9005.890
507.2208, 9003.799
507.7029, 8995.533
508.1851, 9010.360
508.6672, 9057.493
509.1493, 9098.188
509.6314, 9124.168
510.1135, 9135.866
510.5956, 9130.690
511.0778, 9108.382
511.5599, 9083.433
512.0420, 9056.521
512.5241, 9033.749
513.0062, 9023.787
513.4883, 9026.087
513.9705, 9035.500
514.4526, 9051.544
514.9347, 9068.236
515.4168, 9068.234
515.8989, 9026.623
516.3810, 9005.405
516.8632, 9019.537
517.3453, 9041.576
517.8274, 9054.384
518.3095, 9057.697
518.7916, 9059.042
519.2737, 9063.119
519.7559, 9068.968
520.2380, 9073.902
520.7201, 9077.437
521.2022, 9083.159
521.6843, 9098.434
522.1664, 9110.020
522.6486, 9100.128
523.1307, 9068.889
523.6128, 9045.848
524.0949, 9049.749
524.5770, 9058.896
525.0591, 9052.141
525.5413, 9032.227
526.0234, 9011.769
526.5055, 8996.225
526.9876, 8986.594
527.4697, 8986.014
527.9518, 9004.734
528.4340, 9010.554
528.9161, 8990.540
529.3982, 8971.715
529.8803, 8969.202
530.3624, 8978.991
530.8445, 8990.190
531.3267, 8998.888
531.8088, 9003.160
532.2909, 8995.253
532.7730, 8975.939
533.2551, 8970.461
533.7372, 8990.061
534.2194, 9015.078
534.7015, 9020.861
535.1836, 9009.058
535.6657, 9009.995
536.1478, 9045.724
536.6299, 9075.600
537.1121, 9067.875
537.5942, 9040.338
538.0763, 9029.043
538.5584, 9045.919
539.0405, 9070.900
539.5226, 9076.276
540.0048, 9059.960
540.4869, 9035.773
540.9690, 8990.334
541.4511, 8953.939
541.9332, 8935.833
542.4153, 8933.625
542.8975, 8947.130
543.3796, 8980.345
543.8617, 9011.834
544.3438, 9022.906
544.8259, 9019.265
545.3080, 9016.030
545.7902, 9015.730
546.2723, 9011.652
546.7544, 8995.275
547.2365, 8969.618
547.7186, 8963.955
548.2007, 9006.459
548.6829, 9030.315
549.1650, 9014.324
549.6471, 8981.984
550.1292, 8947.944
550.6113, 8918.597
551.0934, 8904.178
551.5756, 8918.179
552.0577, 8952.305
552.5398, 8972.732
553.0219, 8975.906
553.5040, 8979.105
553.9861, 8990.621
554.4683, 9003.454
554.9504, 9007.903
555.4325, 9002.955
555.9146, 8999.248
556.3967, 8999.056
556.8788, 9002.264
557.3610, 9012.971
557.8431, 9027.585
558.3252, 9033.354
558.8073, 9023.232
559.2894, 9006.266
559.7715, 9004.234
560.2537, 9031.333
560.7358, 9035.776
561.2179, 8983.790
561.7000, 8940.174
562.1821, 8942.271
562.6642, 8971.861
563.1464, 8987.796
563.6285, 8970.174
564.1106, 8943.752
564.5927, 8931.240
565.0748, 8930.690
565.5569, 8938.900
566.0391, 8956.867
566.5212, 8969.911
567.0033, 8962.096
567.4854, 8934.030
567.9675, 8918.730
568.4496, 8927.269
568.9318, 8932.972
569.4139, 8927.847
569.8960, 8918.690
570.3781, 8912.330
570.8602, 8910.056
571.3423, 8909.191
571.8245, 8907.420
572.3066, 8905.242
572.7887, 8905.951
573.2708, 8911.391
573.7529, 8909.945
574.2350, 8891.422
574.7172, 8868.552
575.1993, 8860.174
575.6814, 8867.424
576.1635, 8878.447
576.6456, 8900.794
577.1277, 8917.194
577.6099, 8907.608
578.0920, 8881.380
578.5741, 8864.587
579.0562, 8869.485
579.5383, 8884.533
580.0204, 8888.397
580.5026, 8877.420
580.9847, 8873.162
581.4668, 8882.074
581.9489, 8890.291
582.4310, 8886.921
582.9131, 8879.088
583.3953, 8880.607
583.8774, 8897.823
584.3595, 8916.751
584.8416, 8931.375
585.3237, 8940.561
585.8058, 8939.529
586.2880, 8928.563
586.7701, 8919.408
587.2522, 8922.970
587.7343, 8934.609
588.2164, 8927.645
588.6985, 8881.110
589.1807, 8849.519
589.6628, 8841.438
590.1449, 8845.493
590.6270, 8862.788
591.1091, 8886.804
591.5912, 8896.485
592.0734, 8870.115
592.5555, 8834.025
593.0376, 8824.296
593.5197, 8838.027
594.0018, 8861.538
594.4839, 8894.253
594.9661, 8920.337
595.4482, 8920.061
595.9303, 8890.471
596.4124, 8862.051
596.8945, 8825.702
597.3766, 8800.910
597.8588, 8802.968
598.3409, 8814.437
598.8230, 8814.719
599.3051, 8799.848
599.7872, 8781.893
600.2693, 8766.962
600.7515, 8757.812
601.2336, 8769.757
601.7157, 8806.474
602.1978, 8831.551
602.6799, 8823.015
603.1620, 8801.339
603.6442, 8805.616
604.1263, 8844.984
604.6084, 8867.338
605.0905, 8851.731
605.5726, 8832.813
606.0547, 8830.542
606.5369, 8840.243
607.0190, 8851.614
607.5011, 8860.341
607.9832, 8864.904
608.4653, 8862.612
608.9474, 8853.510
609.4296, 8840.297
609.9117, 8819.430
610.3938, 8803.694
610.8759, 8801.831
611.3580, 8809.576
611.8401, 8817.821
612.3223, 8828.308
612.8044, 8834.325
613.2865, 8832.144
613.7686, 8826.066
614.2507, 8815.846
614.7328, 8805.027
615.2150, 8805.472
615.6971, 8825.390
616.1792, 8850.104
616.6613, 8842.472
617.1434, 8793.959
617.6255, 8773.003
618.1077, 8803.684
618.5898, 8837.888
619.0719, 8838.942
619.5540, 8820.400
620.0361, 8812.768
620.5182, 8828.438
621.0004, 8841.525
621.4825, 8838.507
621.9646, 8826.858
622.4467, 8812.636
622.9288, 8798.441
623.4109, 8790.014
623.8931, 8792.048
624.3752, 8801.190
624.8573, 8806.709
625.3394, 8807.849
625.8215, 8807.872
626.3036, 8806.614
626.7858, 8805.096
627.2679, 8803.259
627.7500, 8801.737
628.2321, 8802.625
628.7142, 8809.424
629.1964, 8814.972
629.6785, 8813.067
630.1606, 8807.932
630.6427, 8806.616
631.1248, 8810.028
631.6069, 8814.281
632.0891, 8816.481
632.5712, 8816.401
633.0533, 8812.028
633.5354, 8799.975
634.0175, 8792.180
634.4996, 8793.929
634.9818, 8797.992
635.4639, 8800.376
635.9460, 8800.777
636.4281, 8798.743
636.9102, 8791.118
637.3923, 8784.063
637.8745, 8781.719
638.3566, 8782.831
638.8387, 8787.525
639.3208, 8794.813
639.8029, 8796.597
640.2850, 8783.357
640.7672, 8758.719
641.2493, 8750.474
641.7314, 8768.310
642.2135, 8779.969
642.6956, 8774.672
643.1777, 8763.857
643.6599, 8754.573
644.1420, 8747.104
644.6241, 8741.058
645.1062, 8734.885
645.5883, 8731.675
646.0704, 8736.133
646.5526, 8744.532
647.0347, 8748.664
647.5168, 8747.293
647.9989, 8748.192
648.4810, 8759.891
648.9631, 8780.286
649.4453, 8792.392
649.9274, 8795.192
650.4095, 8792.230
650.8916, 8776.864
651.3737, 8762.269
651.8558, 8759.530
652.3380, 8767.698
652.8201, 8778.546
653.3022, 8790.612
653.7843, 8803.518
654.2664, 8818.764
654.7485, 8833.932
