##NAMES=Holdawayite
##RRUFFID=R090029
##IDEAL CHEMISTRY=Mn^2+^_6_(CO_3_)_2_(OH)_7_(Cl,OH)
##LOCALITY=Kombat, Namibia
##OWNER=RRUFF
##SOURCE=William W. Pinch
##DESCRIPTION=Compact platy crystalline. Colorless when thin, but brown when thick.
##STATUS=The identification of this mineral has been confirmed by single-crystal X-ray diffraction.
##URL=rruff.info/R090029
92.37695, 756.5402
92.85907, 752.0532
93.34119, 753.4329
93.82330, 754.1784
94.30542, 752.2695
94.78754, 749.0471
95.26965, 745.6630
95.75177, 740.7489
96.23389, 733.5596
96.71600, 725.5451
97.19812, 718.7462
97.68024, 713.8499
98.16235, 709.2992
98.64447, 702.9613
99.12659, 694.4486
99.60870, 683.7576
100.0908, 671.5908
100.5729, 659.9166
101.0551, 650.5505
101.5372, 644.3694
102.0193, 640.6495
102.5014, 636.2808
102.9835, 630.3574
103.4656, 624.4410
103.9478, 618.4596
104.4299, 612.5740
104.9120, 607.1870
105.3941, 602.7360
105.8762, 599.3369
106.3583, 594.5984
106.8405, 587.5466
107.3226, 580.0560
107.8047, 573.2346
108.2868, 567.1779
108.7689, 561.1153
109.2510, 554.0013
109.7332, 545.6895
110.2153, 538.2857
110.6974, 532.5672
111.1795, 527.7828
111.6616, 522.8780
112.1437, 517.8010
112.6259, 512.2725
113.1080, 505.3963
113.5901, 497.3348
114.0722, 490.3487
114.5543, 486.3055
115.0364, 485.0568
115.5185, 483.9461
116.0007, 482.2186
116.4828, 480.6617
116.9649, 479.6733
117.4470, 479.3302
117.9291, 479.5732
118.4112, 480.3016
118.8934, 481.4187
119.3755, 483.3517
119.8576, 486.3018
120.3397, 489.8310
120.8218, 493.7154
121.3039, 497.8536
121.7861, 502.1328
122.2682, 506.2677
122.7503, 509.4522
123.2324, 513.3867
123.7145, 518.6888
124.1966, 524.7411
124.6788, 530.6285
125.1609, 535.8671
125.6430, 540.5258
126.1251, 545.2269
126.6072, 549.3328
127.0893, 554.0651
127.5715, 560.0205
128.0536, 567.1169
128.5357, 574.8618
129.0178, 583.3329
129.4999, 592.2374
129.9821, 600.0661
130.4642, 606.2823
130.9463, 611.7164
131.4284, 617.0652
131.9105, 622.2674
132.3926, 627.7911
132.8748, 634.4924
133.3569, 641.8138
133.8390, 648.5868
134.3211, 654.0949
134.8032, 658.6334
135.2853, 663.2648
135.7674, 667.9045
136.2496, 672.8026
136.7317, 678.4113
137.2138, 684.4026
137.6959, 689.9357
138.1780, 694.3881
138.6601, 697.7158
139.1423, 700.4413
139.6244, 701.3978
140.1065, 702.7121
140.5886, 706.0470
141.0707, 710.9368
141.5528, 715.2740
142.0350, 716.2946
142.5171, 712.0062
142.9992, 709.4642
143.4813, 710.2195
143.9634, 711.3249
144.4455, 710.5529
144.9277, 707.4506
145.4098, 703.5031
145.8919, 701.2047
146.3740, 702.2987
146.8561, 701.7940
147.3382, 698.4854
147.8204, 693.7917
148.3025, 689.3837
148.7846, 685.8325
149.2667, 682.8277
149.7488, 679.7106
150.2309, 676.3574
150.7131, 673.2262
151.1952, 670.9440
151.6773, 669.1172
152.1594, 666.3843
152.6415, 661.6523
153.1236, 656.3143
153.6058, 652.5509
154.0879, 650.7451
154.5700, 649.3882
155.0521, 647.1931
155.5342, 644.1163
156.0163, 641.3580
156.4985, 640.0755
156.9806, 638.9628
157.4627, 636.8434
157.9448, 633.3226
158.4269, 629.2460
158.9090, 625.7795
159.3912, 622.9915
159.8733, 620.7323
160.3554, 619.6608
160.8375, 618.7070
161.3196, 616.8200
161.8017, 613.5076
162.2839, 609.2386
162.7660, 605.5220
163.2481, 603.6799
163.7302, 600.5067
164.2123, 594.7405
164.6944, 587.6869
165.1766, 580.9846
165.6587, 575.5446
166.1408, 571.1619
166.6229, 566.3278
167.1050, 561.1110
167.5871, 555.3783
168.0693, 548.6415
168.5514, 541.3465
169.0335, 534.3370
169.5156, 528.2379
169.9977, 522.9274
170.4798, 517.1516
170.9620, 510.5296
171.4441, 503.9147
171.9262, 497.7880
172.4083, 492.0713
172.8904, 486.2155
173.3725, 479.6708
173.8547, 472.6411
174.3368, 466.4933
174.8189, 461.9922
175.3010, 457.8001
175.7831, 452.6954
176.2652, 446.5914
176.7474, 440.6053
177.2295, 435.7411
177.7116, 431.6297
178.1937, 427.5314
178.6758, 422.9765
179.1579, 418.4489
179.6401, 414.8564
180.1222, 412.6340
180.6043, 410.0979
181.0864, 405.4137
181.5685, 399.7745
182.0506, 395.2354
182.5328, 393.2277
183.0149, 392.9474
183.4970, 391.9264
183.9791, 390.1143
184.4612, 387.5078
184.9433, 383.3934
185.4255, 378.6744
185.9076, 374.9494
186.3897, 373.6161
186.8718, 374.3802
187.3539, 373.9853
187.8360, 370.7343
188.3182, 368.0692
188.8003, 367.5364
189.2824, 368.3746
189.7645, 368.9254
190.2466, 367.7479
190.7287, 364.7240
191.2109, 362.7536
191.6930, 362.3919
192.1751, 362.5182
192.6572, 363.0510
193.1393, 363.8184
193.6214, 364.5495
194.1036, 364.9916
194.5857, 365.0995
195.0678, 365.2934
195.5499, 365.5692
196.0320, 365.9094
196.5141, 366.1853
196.9963, 366.4686
197.4784, 367.0459
197.9605, 368.2246
198.4426, 370.1123
198.9247, 371.8491
199.4068, 373.7137
199.8890, 375.2393
200.3711, 375.6217
200.8532, 374.9636
201.3353, 374.8447
201.8174, 377.1012
202.2995, 381.8947
202.7817, 385.1892
203.2638, 385.7559
203.7459, 385.3897
204.2280, 385.6842
204.7101, 386.8217
205.1922, 388.3060
205.6744, 389.7741
206.1565, 391.2434
206.6386, 392.7776
207.1207, 394.5569
207.6028, 396.3477
208.0849, 397.7690
208.5671, 398.7193
209.0492, 399.6120
209.5313, 400.7785
210.0134, 402.1374
210.4955, 403.5455
210.9776, 405.1071
211.4598, 406.6689
211.9419, 407.8491
212.4240, 408.4823
212.9061, 409.0517
213.3882, 410.0219
213.8703, 411.1372
214.3525, 411.9015
214.8346, 411.9446
215.3167, 411.4395
215.7988, 411.0129
216.2809, 410.7113
216.7630, 410.4150
217.2451, 410.0901
217.7273, 409.7319
218.2094, 409.3578
218.6915, 409.0592
219.1736, 408.7553
219.6557, 407.9433
220.1378, 406.3628
220.6200, 404.5291
221.1021, 402.4140
221.5842, 400.2000
222.0663, 398.1666
222.5484, 396.5497
223.0305, 395.2865
223.5127, 393.7682
223.9948, 392.0959
224.4769, 390.0213
224.9590, 387.8314
225.4411, 385.1660
225.9232, 381.3083
226.4054, 375.6053
226.8875, 368.3237
227.3696, 362.2006
227.8517, 358.2074
228.3338, 354.4494
228.8159, 351.0669
229.2981, 347.6125
229.7802, 343.3431
230.2623, 337.6766
230.7444, 330.7793
231.2265, 324.6936
231.7086, 320.0794
232.1908, 315.4835
232.6729, 310.4502
233.1550, 305.1608
233.6371, 300.0174
234.1192, 295.2875
234.6013, 290.8906
235.0835, 286.2303
235.5656, 280.6181
236.0477, 275.4979
236.5298, 271.6310
237.0119, 268.5958
237.4940, 265.4488
237.9762, 261.6879
238.4583, 257.3922
238.9404, 252.9166
239.4225, 247.8568
239.9046, 243.1058
240.3867, 239.1003
240.8689, 235.6568
241.3510, 232.3633
241.8331, 229.0327
242.3152, 225.7012
242.7973, 222.4497
243.2794, 219.3200
243.7616, 216.1991
244.2437, 212.9428
244.7258, 209.6570
245.2079, 206.7766
245.6900, 204.7444
246.1721, 202.8952
246.6543, 199.6588
247.1364, 194.2929
247.6185, 189.6691
248.1006, 187.7031
248.5827, 187.7856
249.0648, 187.7411
249.5470, 186.9140
250.0291, 185.5208
250.5112, 183.9280
250.9933, 182.1157
251.4754, 180.2313
251.9576, 178.3257
252.4397, 176.4048
252.9218, 174.3668
253.4039, 171.9165
253.8860, 169.7301
254.3681, 168.6894
254.8503, 168.7867
255.3324, 168.7428
255.8145, 167.5501
256.2966, 165.4610
256.7787, 163.7819
257.2608, 162.8975
257.7430, 162.2914
258.2251, 161.5153
258.7072, 160.5960
259.1893, 159.7058
259.6714, 158.9189
260.1535, 158.2430
260.6357, 157.7693
261.1178, 157.8268
261.5999, 157.6357
262.0820, 156.6209
262.5641, 154.9753
263.0462, 153.2964
263.5284, 151.9439
264.0105, 150.8815
264.4926, 149.8189
264.9747, 148.5210
265.4568, 147.6101
265.9389, 147.5359
266.4211, 148.0068
266.9032, 148.4513
267.3853, 148.6105
267.8674, 148.4699
268.3495, 147.8839
268.8316, 146.3656
269.3138, 145.1497
269.7959, 144.9388
270.2780, 145.2281
270.7601, 145.2684
271.2422, 144.6461
271.7243, 143.5212
272.2065, 142.3489
272.6886, 140.7721
273.1707, 139.8233
273.6528, 140.1482
274.1349, 141.0073
274.6170, 141.5065
275.0992, 141.2095
275.5813, 140.5009
276.0634, 140.3804
276.5455, 141.2686
277.0276, 141.9677
277.5097, 142.3958
277.9919, 142.5071
278.4740, 142.1158
278.9561, 141.1619
279.4382, 140.0553
279.9203, 139.5988
280.4024, 140.1419
280.8846, 140.6228
281.3667, 141.1948
281.8488, 141.5142
282.3309, 141.0892
282.8130, 139.8870
283.2951, 138.5894
283.7773, 138.2690
284.2594, 139.3958
284.7415, 140.3596
285.2236, 141.3282
285.7057, 141.9972
286.1878, 142.0331
286.6700, 141.4838
287.1521, 140.7734
287.6342, 140.3526
288.1163, 140.2286
288.5984, 140.4048
289.0805, 141.3551
289.5627, 142.1601
290.0448, 142.2385
290.5269, 141.7255
291.0090, 141.2093
291.4911, 141.2325
291.9732, 141.8356
292.4554, 142.4584
292.9375, 143.4161
293.4196, 144.0832
293.9017, 144.0100
294.3838, 143.4736
294.8659, 143.0602
295.3481, 143.1879
295.8302, 143.8247
296.3123, 144.5334
296.7944, 145.7754
297.2765, 146.5865
297.7586, 146.5137
298.2408, 145.9384
298.7229, 145.4460
299.2050, 145.3706
299.6871, 145.5616
300.1692, 145.4303
300.6513, 144.3401
301.1335, 143.7068
301.6156, 143.9833
302.0977, 144.6386
302.5798, 145.0735
303.0619, 145.0536
303.5440, 144.8186
304.0262, 144.9013
304.5083, 145.8469
304.9904, 146.2661
305.4725, 145.7042
305.9546, 144.9220
306.4367, 144.5663
306.9189, 144.7720
307.4010, 145.1783
307.8831, 145.2582
308.3652, 144.7759
308.8473, 144.5868
309.3294, 144.9947
309.8116, 145.3998
310.2937, 145.4169
310.7758, 145.0448
311.2579, 144.5064
311.7400, 143.9785
312.2221, 143.3943
312.7043, 143.3076
313.1864, 144.0365
313.6685, 144.8703
314.1506, 145.8369
314.6327, 146.7004
315.1148, 146.8931
315.5970, 145.8731
316.0791, 143.8050
316.5612, 142.9755
317.0433, 144.8884
317.5254, 146.3659
318.0075, 146.5466
318.4897, 145.9131
318.9718, 145.1724
319.4539, 144.6759
319.9360, 144.4252
320.4181, 144.4266
320.9002, 144.8115
321.3824, 145.3175
321.8645, 146.1625
322.3466, 147.0067
322.8287, 147.5657
323.3108, 147.7300
323.7929, 147.5126
324.2751, 146.8531
324.7572, 145.0612
325.2393, 144.2096
325.7214, 144.9489
326.2035, 146.0033
326.6856, 146.6158
327.1678, 146.6387
327.6499, 146.2648
328.1320, 145.6733
328.6141, 144.8195
329.0962, 143.9536
329.5783, 142.9629
330.0605, 142.0655
330.5426, 141.2015
331.0247, 140.4929
331.5068, 140.2953
331.9889, 140.9849
332.4710, 142.4560
332.9532, 142.9750
333.4353, 141.2270
333.9174, 139.9143
334.3995, 139.7349
334.8816, 140.2668
335.3637, 140.9073
335.8459, 141.3520
336.3280, 141.6728
336.8101, 142.1126
337.2922, 143.2767
337.7743, 143.5922
338.2564, 142.2603
338.7386, 140.4908
339.2206, 139.3088
339.7028, 139.0055
340.1849, 139.2527
340.6670, 139.6465
341.1491, 140.4442
341.6312, 140.7187
342.1133, 140.0392
342.5955, 139.2663
343.0776, 138.8364
343.5597, 138.7759
344.0418, 138.9025
344.5239, 139.0992
345.0060, 139.3854
345.4882, 139.3967
345.9703, 138.7719
346.4524, 138.2092
346.9345, 137.8237
347.4166, 137.6427
347.8987, 137.7851
348.3809, 138.4238
348.8630, 139.2682
349.3451, 139.0046
349.8272, 136.3892
350.3093, 134.5996
350.7914, 134.5273
351.2736, 135.3230
351.7557, 136.3348
352.2378, 137.3233
352.7199, 138.0200
353.2020, 137.8500
353.6841, 136.4432
354.1663, 135.2942
354.6484, 134.6830
355.1305, 134.2764
355.6126, 133.9569
356.0947, 133.6828
356.5768, 133.3981
357.0590, 132.9316
357.5411, 132.2594
358.0232, 132.1134
358.5053, 133.1600
358.9874, 134.0018
359.4695, 134.0296
359.9517, 133.4286
360.4338, 132.5723
360.9159, 131.5337
361.3980, 130.4898
361.8801, 130.0973
362.3622, 130.8186
362.8444, 131.1653
363.3265, 130.2195
363.8086, 128.8352
364.2907, 127.8920
364.7728, 127.6731
365.2549, 127.8118
365.7371, 127.9136
366.2192, 127.9924
366.7013, 127.8988
367.1834, 127.4437
367.6655, 126.9221
368.1476, 126.5858
368.6298, 126.4315
369.1119, 126.2336
369.5940, 125.8333
370.0761, 125.2529
370.5582, 124.5450
371.0403, 123.5512
371.5225, 122.7382
372.0046, 122.5832
372.4867, 122.8383
372.9688, 122.9305
373.4509, 122.5240
373.9330, 121.9096
374.4152, 121.4973
374.8973, 121.2976
375.3794, 121.2407
375.8615, 121.5244
376.3436, 121.8168
376.8257, 121.5192
377.3079, 120.2741
377.7900, 119.1991
378.2721, 119.3051
378.7542, 120.3306
379.2363, 121.1570
379.7184, 121.5056
380.2006, 121.4929
380.6827, 121.1315
381.1648, 120.4252
381.6469, 119.9374
382.1290, 120.1173
382.6111, 120.5099
383.0933, 120.3746
383.5754, 119.6004
384.0575, 118.8412
384.5396, 118.5968
385.0217, 118.8543
385.5038, 119.2233
385.9860, 119.8203
386.4681, 120.4110
386.9502, 120.9473
387.4323, 121.3766
387.9144, 121.4668
388.3965, 121.0088
388.8787, 120.2991
389.3608, 120.1457
389.8429, 120.6764
390.3250, 121.3542
390.8071, 122.1656
391.2892, 123.0255
391.7714, 123.8929
392.2535, 124.7466
392.7356, 125.4323
393.2177, 125.7207
393.6998, 125.4813
394.1819, 125.4867
394.6641, 125.9283
395.1462, 126.4194
395.6283, 126.7700
396.1104, 126.9839
396.5925, 127.1128
397.0746, 127.1783
397.5568, 127.2055
398.0389, 127.3411
398.5210, 127.4099
399.0031, 127.8107
399.4852, 128.9061
399.9673, 130.2134
400.4495, 131.1817
400.9316, 131.6470
401.4137, 131.9119
401.8958, 132.5179
402.3779, 133.9020
402.8600, 134.3966
403.3422, 133.2863
403.8243, 132.0555
404.3064, 131.2462
404.7885, 130.9657
405.2706, 131.2590
405.7527, 132.2663
406.2349, 133.8612
406.7170, 134.9890
407.1991, 135.4469
407.6812, 135.6744
408.1633, 135.7753
408.6454, 135.7300
409.1276, 135.4355
409.6097, 134.8470
410.0918, 134.2413
410.5739, 134.2243
411.0560, 135.0539
411.5381, 135.0754
412.0203, 132.9822
412.5024, 130.8845
412.9845, 130.1257
413.4666, 130.5625
413.9487, 131.1124
414.4308, 130.9088
414.9130, 130.2041
415.3951, 130.0989
415.8772, 130.9937
416.3593, 131.4991
416.8414, 130.5581
417.3235, 128.8478
417.8057, 127.1672
418.2878, 125.6001
418.7699, 124.3335
419.2520, 123.7026
419.7341, 123.6349
420.2162, 123.4465
420.6984, 122.9803
421.1805, 122.2390
421.6626, 121.1081
422.1447, 119.5695
422.6268, 118.3041
423.1089, 117.6527
423.5911, 117.3720
424.0732, 117.2397
424.5553, 117.2358
425.0374, 117.0675
425.5195, 116.5072
426.0016, 115.5658
426.4838, 114.5084
426.9659, 112.7156
427.4480, 111.4565
427.9301, 111.8699
428.4122, 113.1974
428.8943, 113.8029
429.3765, 113.0416
429.8586, 111.5002
430.3407, 110.1441
430.8228, 108.8667
431.3049, 108.1002
431.7870, 108.3431
432.2692, 108.7318
432.7513, 108.6354
433.2334, 108.0491
433.7155, 107.2860
434.1976, 106.5509
434.6797, 105.8697
435.1619, 105.6279
435.6440, 106.5892
436.1261, 107.1093
436.6082, 106.6759
437.0903, 105.7625
437.5724, 104.8118
438.0546, 104.0068
438.5367, 103.4615
439.0188, 103.5223
439.5009, 104.6304
439.9830, 104.9069
440.4651, 103.3393
440.9473, 101.7901
441.4294, 101.0995
441.9115, 101.1600
442.3936, 101.4785
442.8757, 101.7817
443.3578, 102.0690
443.8400, 102.3997
444.3221, 102.9670
444.8042, 103.0890
445.2863, 101.9597
445.7684, 100.5738
446.2505, 99.93442
446.7327, 100.2810
447.2148, 100.7944
447.6969, 100.8547
448.1790, 100.4894
448.6611, 99.79443
449.1432, 98.66212
449.6254, 97.44173
450.1075, 96.31200
450.5896, 95.31233
451.0717, 94.63195
451.5538, 94.40904
452.0359, 94.46792
452.5181, 94.76958
453.0002, 95.26379
453.4823, 95.60753
453.9644, 95.62755
454.4465, 95.42480
454.9286, 95.20430
455.4108, 94.95195
455.8929, 94.72721
456.3750, 94.84812
456.8571, 94.84003
457.3392, 93.92922
457.8214, 92.11465
458.3035, 90.43401
458.7856, 89.89087
459.2677, 90.50460
459.7498, 90.40188
460.2319, 88.90862
460.7141, 87.59577
461.1962, 87.07522
461.6783, 86.94939
462.1604, 86.64837
462.6425, 85.95393
463.1246, 85.04142
463.6068, 84.20902
464.0889, 83.52581
464.5710, 82.75115
465.0531, 81.54979
465.5352, 80.57301
466.0173, 80.21277
466.4995, 80.34557
466.9816, 80.65493
467.4637, 81.04836
467.9458, 81.33897
468.4279, 80.81794
468.9100, 79.09175
469.3922, 77.56956
469.8743, 76.51323
470.3564, 75.91612
470.8385, 76.13277
471.3206, 77.17965
471.8027, 77.82064
472.2849, 76.62141
472.7670, 74.15456
473.2491, 72.69033
473.7312, 72.63860
474.2133, 72.99362
474.6954, 73.32474
475.1776, 73.51069
475.6597, 73.18554
476.1418, 71.81992
476.6239, 70.51054
477.1060, 70.07043
477.5881, 70.30920
478.0703, 70.69983
478.5524, 71.09940
479.0345, 71.47066
479.5166, 71.78822
479.9987, 72.09631
480.4808, 72.10345
480.9630, 71.50014
481.4451, 70.83553
481.9272, 70.50126
482.4093, 70.44669
482.8914, 70.41068
483.3735, 70.23264
483.8557, 69.96791
484.3378, 69.81622
484.8199, 69.91035
485.3020, 69.93001
485.7841, 69.93442
486.2662, 69.81352
486.7484, 69.46609
487.2305, 68.89261
487.7126, 68.15405
488.1947, 67.17823
488.6768, 66.02061
489.1589, 65.60537
489.6411, 66.48570
490.1232, 67.24365
490.6053, 67.21162
491.0874, 66.93571
491.5695, 67.16227
492.0516, 68.14375
492.5338, 69.05394
493.0159, 68.75173
493.4980, 67.42518
493.9801, 66.84595
494.4622, 67.53432
494.9443, 68.50121
495.4265, 68.99128
495.9086, 69.11904
496.3907, 69.14882
496.8728, 69.25909
497.3549, 69.19275
497.8370, 68.59744
498.3192, 67.61257
498.8013, 66.77944
499.2834, 66.33538
499.7655, 66.04049
500.2476, 65.41766
500.7297, 64.19356
501.2119, 63.65815
501.6940, 64.44699
502.1761, 65.49267
502.6582, 66.06556
503.1403, 66.21323
503.6224, 66.32592
504.1045, 66.64310
504.5866, 67.11222
505.0688, 67.58965
505.5509, 68.67135
506.0330, 68.75644
506.5151, 66.71855
506.9972, 64.51676
507.4793, 63.69432
507.9615, 64.25356
508.4436, 65.10903
508.9257, 65.34779
509.4078, 65.10088
509.8899, 65.26472
510.3720, 66.27103
510.8542, 66.73829
511.3363, 65.61578
511.8184, 63.98652
512.3005, 62.82022
512.7827, 62.28265
513.2648, 62.27862
513.7469, 63.08793
514.2290, 64.37199
514.7111, 65.17636
515.1932, 65.38049
515.6754, 65.07509
516.1575, 63.97031
516.6396, 62.37298
517.1217, 61.67421
517.6038, 62.71123
518.0859, 63.73902
518.5681, 63.81377
519.0502, 63.39705
519.5323, 63.37616
520.0144, 63.99105
520.4965, 64.58964
520.9786, 64.30003
521.4608, 62.87015
521.9429, 62.09804
522.4250, 62.23692
522.9071, 62.63593
523.3892, 63.28109
523.8713, 63.97310
524.3535, 64.39219
524.8356, 64.40970
525.3177, 64.31318
525.7998, 64.67377
526.2819, 65.67696
526.7640, 66.20357
527.2462, 65.96425
527.7283, 65.43716
528.2104, 64.56834
528.6925, 63.61152
529.1746, 63.11310
529.6567, 63.39021
530.1389, 64.09322
530.6210, 64.89424
531.1031, 65.77535
531.5852, 66.44024
532.0673, 66.85896
532.5494, 66.94381
533.0316, 66.21885
533.5137, 64.74723
533.9958, 64.13852
534.4779, 65.30517
534.9600, 66.96404
535.4421, 68.37225
535.9243, 69.43049
536.4064, 69.97700
536.8885, 69.89207
537.3706, 69.44472
537.8527, 69.18380
538.3348, 69.05164
538.8170, 69.26048
539.2991, 70.17451
539.7812, 71.07441
540.2633, 71.56451
540.7454, 71.68330
541.2275, 71.66905
541.7097, 71.67565
542.1918, 71.61314
542.6739, 71.11451
543.1560, 69.84976
543.6381, 69.20622
544.1202, 70.08374
544.6024, 71.16993
545.0845, 71.63894
545.5666, 71.54075
546.0487, 71.38694
546.5308, 71.53397
547.0129, 71.74503
547.4951, 71.36317
547.9772, 70.42104
548.4593, 70.37885
548.9414, 72.20969
549.4235, 74.82695
549.9056, 76.24207
550.3878, 76.37237
550.8699, 76.26271
551.3520, 75.83456
551.8341, 75.44093
552.3162, 75.42266
552.7983, 75.72045
553.2805, 76.02499
553.7626, 76.14614
554.2447, 76.19959
554.7268, 76.52254
555.2089, 77.19833
555.6910, 78.01379
556.1732, 79.25034
556.6553, 80.36204
557.1374, 80.91106
557.6195, 81.02481
558.1016, 81.17449
558.5837, 81.67449
559.0659, 82.37596
559.5480, 82.98186
560.0301, 83.51794
560.5122, 83.76943
560.9943, 83.45564
561.4764, 83.03483
561.9586, 83.03494
562.4407, 83.41999
562.9228, 83.61730
563.4049, 82.98003
563.8870, 82.35353
564.3691, 82.88022
564.8513, 84.35091
565.3334, 85.52422
565.8155, 85.80207
566.2976, 85.59953
566.7797, 85.70842
567.2618, 86.35014
567.7440, 86.79515
568.2261, 86.77023
568.7082, 86.79803
569.1903, 87.21144
569.6724, 87.92515
570.1545, 88.78257
570.6367, 89.72461
571.1188, 90.49971
571.6009, 90.38550
572.0830, 88.96706
572.5651, 88.25258
573.0472, 88.90495
573.5294, 89.89318
574.0115, 90.77663
574.4936, 91.54466
574.9757, 92.22371
575.4578, 92.79196
575.9399, 93.32153
576.4221, 93.95091
576.9042, 94.63773
577.3863, 95.09567
577.8684, 95.17086
578.3505, 95.21216
578.8326, 95.70661
579.3148, 96.70435
579.7969, 97.28837
580.2790, 97.19832
580.7611, 96.93548
581.2432, 96.40362
581.7253, 95.95670
582.2075, 96.42261
582.6896, 98.01382
583.1717, 99.60301
583.6538, 99.39821
584.1359, 96.96127
584.6180, 95.87804
585.1002, 96.99004
585.5823, 98.52451
586.0643, 100.7184
586.5464, 102.6770
587.0286, 102.9211
587.5107, 100.9075
587.9928, 98.78722
588.4749, 98.83485
588.9570, 100.5240
589.4391, 101.8192
589.9213, 102.4824
