##NAMES=Hollandite
##RRUFFID=R060852
##IDEAL CHEMISTRY=Ba(Mn^4+^_6_Mn^3+^_2_)O_16_
##LOCALITY=Ultevis, Sorharas, Sweden
##OWNER=RRUFF
##SOURCE=Michael Scott
##DESCRIPTION=Black semi-metallic elongated prismatic crystals associated with purple fluorite
##STATUS=The identification of this mineral has been confirmed by X-ray diffraction and chemical analysis
##URL=rruff.info/R060852
##MEASURED CHEMISTRY=(Ba_0.71_Pb_0.12_Na_0.11_Sr_0.04_K_0.02_)_Σ=1_(Mn^4+^_5.85_Fe^3+^_1.23_Mn^3+^_0.58_Ti_0.28_Al_0.06_)_Σ=8_O_16_ ; trace amounts of Ca; Mn^4+^ and Mn^3+^ splitted by charge balance
177.9351, 5750.762
178.4172, 5718.512
178.8993, 5670.173
179.3814, 5630.251
179.8635, 5608.617
180.3457, 5598.846
180.8278, 5591.003
181.3099, 5582.244
181.7920, 5571.023
182.2741, 5552.434
182.7562, 5523.151
183.2384, 5494.973
183.7205, 5472.960
184.2026, 5454.100
184.6847, 5430.731
185.1668, 5398.169
185.6489, 5364.058
186.1311, 5349.135
186.6132, 5363.920
187.0953, 5369.375
187.5774, 5344.304
188.0595, 5302.345
188.5416, 5271.770
189.0238, 5264.441
189.5059, 5269.302
189.9880, 5264.198
190.4701, 5249.755
190.9522, 5228.350
191.4343, 5194.901
191.9165, 5155.446
192.3986, 5121.687
192.8807, 5097.588
193.3628, 5080.613
193.8449, 5065.754
194.3270, 5050.805
194.8092, 5042.644
195.2913, 5049.782
195.7734, 5064.635
196.2555, 5073.276
196.7376, 5072.087
197.2197, 5061.478
197.7019, 5037.934
198.1840, 4997.156
198.6661, 4963.175
199.1482, 4949.116
199.6303, 4945.746
200.1124, 4935.165
200.5946, 4910.681
201.0767, 4881.498
201.5588, 4864.396
202.0409, 4861.202
202.5230, 4855.391
203.0051, 4845.225
203.4873, 4828.908
203.9694, 4800.523
204.4515, 4756.096
204.9336, 4707.644
205.4157, 4674.194
205.8978, 4656.628
206.3800, 4639.511
206.8621, 4617.502
207.3442, 4594.026
207.8263, 4574.354
208.3084, 4559.729
208.7905, 4548.458
209.2727, 4539.898
209.7548, 4534.585
210.2369, 4526.227
210.7190, 4514.154
211.2011, 4498.099
211.6832, 4476.775
212.1654, 4449.639
212.6475, 4420.044
213.1296, 4389.167
213.6117, 4355.854
214.0938, 4335.493
214.5760, 4340.220
215.0581, 4354.660
215.5402, 4361.895
216.0223, 4359.134
216.5044, 4352.065
216.9865, 4346.972
217.4687, 4344.170
217.9508, 4335.317
218.4329, 4309.176
218.9150, 4282.692
219.3971, 4276.056
219.8792, 4291.211
220.3614, 4308.041
220.8435, 4308.461
221.3256, 4291.157
221.8077, 4273.046
222.2898, 4247.717
222.7719, 4226.346
223.2541, 4223.672
223.7362, 4238.576
224.2183, 4249.195
224.7004, 4236.405
225.1825, 4199.521
225.6646, 4170.661
226.1468, 4148.056
226.6289, 4134.382
227.1110, 4136.611
227.5931, 4151.884
228.0752, 4165.282
228.5573, 4166.347
229.0395, 4155.574
229.5216, 4144.591
230.0037, 4130.846
230.4858, 4119.251
230.9679, 4113.798
231.4500, 4112.980
231.9322, 4111.285
232.4143, 4104.695
232.8964, 4094.826
233.3785, 4091.618
233.8606, 4103.847
234.3427, 4112.078
234.8249, 4105.732
235.3070, 4090.405
235.7891, 4079.155
236.2712, 4079.203
236.7533, 4086.498
237.2354, 4085.601
237.7176, 4068.893
238.1997, 4054.455
238.6818, 4042.094
239.1639, 4034.896
239.6460, 4040.468
240.1281, 4063.028
240.6103, 4093.249
241.0924, 4108.438
241.5745, 4101.229
242.0566, 4089.233
242.5387, 4063.325
243.0208, 4037.542
243.5030, 4032.167
243.9851, 4053.155
244.4672, 4082.938
244.9493, 4090.499
245.4314, 4054.933
245.9135, 4032.401
246.3957, 4030.299
246.8778, 4036.397
247.3599, 4042.282
247.8420, 4045.584
248.3241, 4046.180
248.8062, 4043.030
249.2884, 4031.520
249.7705, 4029.947
250.2526, 4047.605
250.7347, 4066.452
251.2168, 4074.402
251.6989, 4071.357
252.1811, 4065.348
252.6632, 4064.512
253.1453, 4069.994
253.6274, 4073.658
254.1095, 4070.421
254.5916, 4070.192
255.0738, 4080.503
255.5559, 4097.996
256.0380, 4112.425
256.5201, 4114.332
257.0022, 4104.002
257.4843, 4105.215
257.9665, 4140.401
258.4486, 4164.548
258.9307, 4157.446
259.4128, 4132.942
259.8949, 4115.797
260.3770, 4122.022
260.8592, 4145.936
261.3413, 4159.902
261.8234, 4148.763
262.3055, 4148.734
262.7876, 4176.013
263.2697, 4213.822
263.7519, 4242.540
264.2340, 4253.422
264.7161, 4252.428
265.1982, 4251.567
265.6803, 4249.137
266.1624, 4250.801
266.6446, 4257.946
267.1267, 4268.741
267.6088, 4282.771
268.0909, 4299.901
268.5730, 4317.653
269.0551, 4333.400
269.5373, 4347.596
270.0194, 4357.707
270.5015, 4358.320
270.9836, 4358.051
271.4657, 4362.903
271.9478, 4372.985
272.4300, 4381.945
272.9121, 4383.324
273.3942, 4377.329
273.8763, 4371.058
274.3584, 4360.325
274.8405, 4355.564
275.3227, 4367.305
275.8048, 4391.463
276.2869, 4411.775
276.7690, 4412.780
277.2511, 4401.552
277.7332, 4404.070
278.2154, 4428.183
278.6975, 4450.451
279.1796, 4450.233
279.6617, 4437.157
280.1438, 4431.201
280.6259, 4414.492
281.1081, 4448.746
281.5902, 4467.386
282.0723, 4471.251
282.5544, 4416.088
283.0365, 4437.148
283.5186, 4427.661
284.0008, 4416.921
284.4829, 4448.708
284.9650, 4402.131
285.4471, 4433.244
285.9292, 4433.344
286.4113, 4447.639
286.8935, 4431.197
287.3756, 4397.528
287.8577, 4372.462
288.3398, 4348.111
288.8219, 4329.417
289.3040, 4321.459
289.7862, 4320.235
290.2683, 4318.776
290.7504, 4315.570
291.2325, 4309.504
291.7146, 4297.098
292.1967, 4275.245
292.6789, 4260.312
293.1610, 4262.058
293.6431, 4267.741
294.1252, 4265.168
294.6073, 4252.415
295.0894, 4233.028
295.5716, 4208.313
296.0537, 4175.752
296.5358, 4158.324
297.0179, 4170.042
297.5000, 4182.754
297.9821, 4179.548
298.4643, 4163.076
298.9464, 4145.255
299.4285, 4133.998
299.9106, 4129.174
300.3927, 4129.945
300.8748, 4145.348
301.3570, 4155.863
301.8391, 4153.850
302.3212, 4145.225
302.8033, 4140.392
303.2854, 4144.607
303.7675, 4150.909
304.2497, 4139.816
304.7318, 4092.830
305.2139, 4058.633
305.6960, 4047.986
306.1781, 4045.414
306.6602, 4037.240
307.1424, 4020.724
307.6245, 4004.192
308.1066, 3999.060
308.5887, 4007.872
309.0708, 4017.891
309.5529, 4037.237
310.0351, 4050.418
310.5172, 4049.329
310.9993, 4034.982
311.4814, 4013.124
311.9635, 3980.795
312.4456, 3941.835
312.9278, 3930.753
313.4099, 3971.780
313.8920, 4002.328
314.3741, 3985.716
314.8562, 3941.386
315.3383, 3901.573
315.8205, 3877.156
316.3026, 3866.808
316.7847, 3873.327
317.2668, 3900.364
317.7489, 3921.969
318.2310, 3924.782
318.7132, 3916.812
319.1953, 3908.795
319.6774, 3903.271
320.1595, 3893.894
320.6416, 3867.331
321.1237, 3830.323
321.6059, 3815.345
322.0880, 3838.956
322.5701, 3875.479
323.0522, 3888.229
323.5343, 3876.514
324.0164, 3862.967
324.4986, 3846.662
324.9807, 3835.079
325.4628, 3842.076
325.9449, 3869.589
326.4270, 3899.292
326.9091, 3914.765
327.3913, 3914.560
327.8734, 3912.976
328.3555, 3910.305
328.8376, 3906.086
329.3197, 3899.565
329.8018, 3891.267
330.2840, 3882.128
330.7661, 3872.461
331.2482, 3862.903
331.7303, 3856.288
332.2124, 3858.273
332.6945, 3856.395
333.1767, 3846.246
333.6588, 3832.795
334.1409, 3820.962
334.6230, 3812.575
335.1051, 3807.264
335.5873, 3804.838
336.0694, 3807.463
336.5515, 3808.207
337.0336, 3805.313
337.5157, 3802.291
337.9979, 3803.879
338.4800, 3808.211
338.9621, 3807.107
339.4442, 3790.477
339.9263, 3759.500
340.4084, 3738.787
340.8906, 3727.455
341.3727, 3728.848
341.8548, 3754.984
342.3369, 3790.989
342.8190, 3811.787
343.3011, 3802.984
343.7833, 3779.833
344.2654, 3767.382
344.7475, 3766.956
345.2296, 3768.893
345.7117, 3771.080
346.1938, 3773.241
346.6760, 3774.439
347.1581, 3774.049
347.6402, 3775.672
348.1223, 3784.787
348.6044, 3798.084
349.0865, 3804.587
349.5687, 3800.728
350.0508, 3793.347
350.5329, 3788.728
351.0150, 3786.658
351.4971, 3788.451
351.9792, 3796.850
352.4614, 3807.526
352.9435, 3817.388
353.4256, 3826.062
353.9077, 3834.053
354.3898, 3843.167
354.8719, 3851.884
355.3541, 3846.383
355.8362, 3809.618
356.3183, 3781.473
356.8004, 3779.205
357.2825, 3790.406
357.7646, 3797.100
358.2468, 3792.468
358.7289, 3781.709
359.2110, 3773.719
359.6931, 3766.547
360.1752, 3766.789
360.6573, 3777.691
361.1395, 3792.238
361.6216, 3810.811
362.1037, 3830.250
362.5858, 3841.413
363.0679, 3833.018
363.5500, 3806.472
364.0322, 3793.609
364.5143, 3808.510
364.9964, 3818.150
365.4785, 3803.603
365.9606, 3779.578
366.4427, 3768.055
366.9249, 3779.742
367.4070, 3802.640
367.8891, 3820.530
368.3712, 3833.508
368.8533, 3840.567
369.3354, 3837.709
369.8176, 3831.501
370.2997, 3826.576
370.7818, 3822.618
371.2639, 3826.867
371.7460, 3855.035
372.2281, 3891.726
372.7103, 3901.088
373.1924, 3874.049
373.6745, 3845.157
374.1566, 3846.230
374.6387, 3875.761
375.1208, 3897.896
375.6030, 3910.896
376.0851, 3916.391
376.5672, 3908.504
377.0493, 3893.302
377.5314, 3888.580
378.0135, 3904.528
378.4957, 3932.157
378.9778, 3947.048
379.4599, 3930.844
379.9420, 3925.130
380.4241, 3940.977
380.9063, 3960.881
381.3884, 3970.584
381.8705, 3967.546
382.3526, 3956.515
382.8347, 3940.125
383.3168, 3916.517
383.7990, 3906.327
384.2811, 3928.188
384.7632, 3944.598
385.2453, 3938.238
385.7274, 3919.600
386.2095, 3907.682
386.6917, 3912.866
387.1738, 3927.335
387.6559, 3938.279
388.1380, 3946.994
388.6201, 3945.306
389.1022, 3919.793
389.5844, 3890.197
390.0665, 3872.108
390.5486, 3866.628
391.0307, 3873.922
391.5128, 3905.031
391.9949, 3947.635
392.4771, 3972.440
392.9592, 3973.802
393.4413, 3967.325
393.9234, 3965.151
394.4055, 3966.578
394.8876, 3964.325
395.3698, 3946.527
395.8519, 3935.890
396.3340, 3951.146
396.8161, 3983.946
397.2982, 4013.555
397.7803, 4030.682
398.2625, 4039.240
398.7446, 4048.297
399.2267, 4066.539
399.7088, 4070.536
400.1909, 4046.141
400.6730, 4018.452
401.1552, 4007.385
401.6373, 4012.927
402.1194, 4020.308
402.6015, 4015.481
403.0836, 3999.260
403.5657, 3989.632
404.0479, 3987.172
404.5300, 3991.287
405.0121, 4008.803
405.4942, 4029.618
405.9763, 4040.700
406.4584, 4037.265
406.9406, 4025.330
407.4227, 4009.279
407.9048, 3989.257
408.3869, 3975.043
408.8690, 3967.897
409.3511, 3968.797
409.8333, 3983.016
410.3154, 4008.961
410.7975, 4026.734
411.2796, 3997.107
411.7617, 4033.006
412.2438, 4053.291
412.7260, 4058.801
413.2081, 4005.283
413.6902, 4027.987
414.1723, 4020.144
414.6544, 4011.049
415.1365, 4044.481
415.6187, 3999.549
416.1008, 4032.306
416.5829, 4034.052
417.0650, 4049.990
417.5471, 4035.194
418.0292, 4029.891
418.5114, 4055.332
418.9935, 4063.750
419.4756, 4045.416
419.9577, 4062.257
420.4398, 4016.250
420.9219, 4025.393
421.4041, 4058.331
421.8862, 4041.542
422.3683, 4031.488
422.8504, 4026.018
423.3325, 4018.960
423.8146, 4010.041
424.2968, 4001.591
424.7789, 3995.051
425.2610, 3988.481
425.7431, 3977.067
426.2252, 3960.841
426.7073, 3953.522
427.1895, 3969.817
427.6716, 3995.995
428.1537, 4009.464
428.6358, 4008.364
429.1179, 4004.068
429.6000, 4003.541
430.0822, 4006.243
430.5643, 4008.864
431.0464, 4009.871
431.5285, 4012.631
432.0106, 4020.338
432.4927, 4029.464
432.9749, 4036.325
433.4570, 4039.603
433.9391, 4038.122
434.4212, 4028.009
434.9033, 4003.799
435.3854, 3997.418
435.8676, 4035.691
436.3497, 4064.509
436.8318, 4053.450
437.3139, 4021.113
437.7960, 4003.908
438.2781, 4021.965
438.7603, 4057.684
439.2424, 4077.225
439.7245, 4077.563
440.2066, 4085.104
440.6887, 4116.307
441.1708, 4147.923
441.6530, 4154.428
442.1351, 4136.402
442.6172, 4123.410
443.0993, 4131.801
443.5814, 4150.498
444.0635, 4166.080
444.5457, 4177.568
445.0278, 4184.982
445.5099, 4186.102
445.9920, 4184.039
446.4741, 4164.126
446.9562, 4204.357
447.4384, 4228.974
447.9205, 4238.815
448.4026, 4189.628
448.8847, 4216.665
449.3668, 4213.153
449.8489, 4208.390
450.3311, 4246.155
450.8132, 4205.553
451.2953, 4242.643
451.7774, 4248.719
452.2595, 4268.989
452.7416, 4258.524
453.2238, 4257.554
453.7059, 4287.327
454.1880, 4300.076
454.6701, 4286.073
455.1522, 4307.246
455.6343, 4265.571
456.1165, 4279.046
456.5986, 4316.315
457.0807, 4291.812
457.5628, 4284.833
458.0449, 4270.579
458.5270, 4262.739
459.0092, 4268.568
459.4913, 4277.833
459.9734, 4282.022
460.4555, 4282.864
460.9376, 4287.808
461.4197, 4300.854
461.9019, 4316.697
462.3840, 4323.329
462.8661, 4312.572
463.3482, 4307.573
463.8303, 4312.241
464.3124, 4319.013
464.7946, 4325.150
465.2767, 4329.356
465.7588, 4328.731
466.2409, 4318.668
466.7230, 4305.194
467.2051, 4312.211
467.6873, 4350.130
468.1694, 4377.409
468.6515, 4373.795
469.1336, 4358.458
469.6157, 4345.051
470.0978, 4334.839
470.5800, 4329.993
471.0621, 4337.482
471.5442, 4349.096
472.0263, 4348.223
472.5084, 4333.416
472.9905, 4321.283
473.4727, 4324.903
473.9548, 4340.189
474.4369, 4344.120
474.9190, 4330.658
475.4011, 4315.760
475.8832, 4295.861
476.3654, 4279.501
476.8475, 4276.837
477.3296, 4288.994
477.8117, 4309.248
478.2938, 4333.113
478.7759, 4360.634
479.2581, 4374.986
479.7402, 4370.528
480.2223, 4360.320
480.7044, 4344.866
481.1865, 4328.328
481.6686, 4315.390
482.1508, 4307.312
482.6329, 4303.481
483.1150, 4303.762
483.5971, 4307.968
484.0792, 4316.667
484.5613, 4331.312
485.0435, 4344.809
485.5256, 4350.625
486.0077, 4349.109
486.4898, 4348.989
486.9719, 4345.436
487.4540, 4348.524
487.9362, 4369.530
488.4183, 4397.924
488.9004, 4415.695
489.3825, 4417.522
489.8646, 4414.232
490.3467, 4422.427
490.8289, 4447.547
491.3110, 4455.465
491.7931, 4424.405
492.2752, 4398.355
492.7573, 4395.738
493.2394, 4406.173
493.7216, 4412.284
494.2037, 4407.485
494.6858, 4396.462
495.1679, 4379.692
495.6500, 4359.095
496.1321, 4353.522
496.6143, 4371.553
497.0964, 4394.455
497.5785, 4405.158
498.0606, 4404.388
498.5427, 4398.629
499.0248, 4379.458
499.5070, 4364.412
499.9891, 4368.735
500.4712, 4383.459
500.9533, 4392.169
501.4355, 4388.690
501.9176, 4373.904
502.3997, 4345.234
502.8818, 4291.410
503.3639, 4265.866
503.8460, 4299.389
504.3282, 4331.213
504.8103, 4336.925
505.2924, 4326.068
505.7745, 4317.998
506.2566, 4321.578
506.7387, 4328.139
507.2209, 4324.471
507.7030, 4312.092
508.1851, 4307.437
508.6672, 4316.844
509.1493, 4328.708
509.6314, 4332.460
510.1136, 4328.297
510.5957, 4318.543
511.0778, 4295.051
511.5599, 4274.264
512.0420, 4262.479
512.5241, 4260.294
513.0062, 4273.358
513.4883, 4303.081
513.9705, 4332.433
514.4526, 4333.279
514.9347, 4297.697
515.4168, 4267.970
515.8989, 4241.646
516.3810, 4224.660
516.8632, 4223.702
517.3453, 4232.566
517.8274, 4241.949
518.3095, 4249.605
518.7916, 4252.833
519.2737, 4245.533
519.7559, 4230.181
520.2380, 4218.941
520.7201, 4214.206
521.2022, 4214.330
521.6843, 4220.439
522.1664, 4232.154
522.6486, 4234.633
523.1307, 4221.904
523.6128, 4206.705
524.0949, 4189.390
524.5770, 4174.272
525.0591, 4170.307
525.5413, 4178.898
526.0234, 4187.406
526.5055, 4177.226
526.9876, 4146.090
527.4697, 4131.531
527.9518, 4146.012
528.4340, 4159.190
528.9161, 4157.364
529.3982, 4148.266
529.8803, 4142.029
530.3624, 4141.149
530.8445, 4142.506
531.3267, 4148.786
531.8088, 4154.832
532.2909, 4144.483
532.7730, 4114.925
533.2551, 4089.635
533.7372, 4089.083
534.2194, 4109.502
534.7015, 4116.633
535.1836, 4091.902
535.6657, 4078.904
536.1478, 4092.261
536.6299, 4115.233
537.1121, 4132.806
537.5942, 4142.531
538.0763, 4149.903
538.5584, 4159.315
539.0405, 4170.473
539.5226, 4181.424
540.0048, 4190.883
540.4869, 4204.951
540.9690, 4235.836
541.4511, 4265.920
541.9332, 4269.407
542.4153, 4240.933
542.8975, 4220.674
543.3796, 4225.474
543.8617, 4244.429
544.3438, 4277.377
544.8259, 4288.969
545.3080, 4332.469
545.7902, 4360.357
546.2723, 4373.468
546.7544, 4327.552
547.2365, 4357.858
547.7186, 4357.617
548.2007, 4356.123
548.6829, 4397.159
549.1650, 4359.827
549.6471, 4400.187
550.1292, 4409.534
550.6113, 4433.075
551.0934, 4425.879
551.5756, 4428.180
552.0577, 4461.223
552.5398, 4477.243
553.0219, 4458.254
553.5040, 4486.558
553.9861, 4516.489
554.4683, 4548.621
554.9504, 4566.532
555.4325, 4551.080
555.9146, 4542.083
556.3967, 4559.817
556.8788, 4593.151
557.3610, 4626.675
557.8431, 4655.174
558.3252, 4681.100
558.8073, 4706.308
559.2894, 4730.759
559.7715, 4759.839
560.2537, 4796.307
560.7358, 4832.083
561.2179, 4862.014
561.7000, 4889.422
562.1821, 4918.821
562.6642, 4951.195
563.1464, 4983.770
563.6285, 5016.832
564.1106, 5048.297
564.5927, 5070.967
565.0748, 5086.606
565.5569, 5111.272
566.0391, 5157.421
566.5212, 5217.585
567.0033, 5263.787
567.4854, 5286.205
567.9675, 5312.030
568.4496, 5342.873
568.9318, 5377.340
569.4139, 5410.483
569.8960, 5445.888
570.3781, 5496.878
570.8602, 5580.972
571.3423, 5670.622
571.8245, 5722.538
572.3066, 5741.930
572.7887, 5766.773
573.2708, 5808.277
573.7529, 5857.214
574.2350, 5903.987
574.7172, 5948.085
575.1993, 5993.354
575.6814, 6037.638
576.1635, 6085.549
576.6456, 6145.947
577.1277, 6207.544
577.6099, 6255.071
578.0920, 6284.828
578.5741, 6308.878
579.0562, 6344.221
579.5383, 6387.616
580.0204, 6409.006
580.5026, 6402.176
580.9847, 6394.183
581.4668, 6400.264
581.9489, 6411.252
582.4310, 6409.662
582.9132, 6391.022
583.3953, 6376.526
583.8774, 6378.853
584.3596, 6382.670
584.8417, 6380.036
585.3238, 6366.996
585.8059, 6332.239
586.2880, 6268.164
586.7701, 6192.034
587.2523, 6145.193
587.7344, 6138.439
588.2165, 6117.631
588.6986, 6074.842
589.1807, 6021.171
589.6628, 5954.410
590.1450, 5883.006
590.6271, 5827.243
591.1092, 5803.840
591.5913, 5776.980
592.0734, 5712.396
592.5555, 5629.744
593.0377, 5566.124
593.5198, 5527.335
594.0019, 5495.684
594.4840, 5456.713
594.9661, 5411.385
595.4482, 5368.590
595.9304, 5329.363
596.4125, 5290.489
596.8946, 5249.489
597.3767, 5210.049
597.8588, 5175.482
598.3409, 5145.163
598.8231, 5116.175
599.3052, 5088.173
599.7873, 5059.571
600.2694, 5026.937
600.7515, 4991.356
601.2336, 4956.108
601.7158, 4921.168
602.1979, 4893.874
602.6800, 4887.113
603.1621, 4906.354
603.6442, 4899.535
604.1263, 4836.106
604.6085, 4785.416
605.0906, 4774.300
605.5727, 4781.464
606.0548, 4785.305
606.5369, 4780.112
607.0190, 4767.729
607.5012, 4744.544
607.9833, 4716.069
608.4654, 4700.248
608.9475, 4697.887
609.4296, 4690.161
609.9117, 4664.391
610.3939, 4635.367
610.8760, 4631.495
611.3581, 4666.050
611.8402, 4683.236
612.3223, 4673.636
612.8044, 4654.654
613.2866, 4629.955
613.7687, 4603.519
614.2508, 4579.782
614.7329, 4560.424
615.2150, 4546.419
615.6971, 4540.729
616.1793, 4542.234
616.6614, 4541.924
617.1435, 4538.173
617.6256, 4538.537
618.1077, 4552.195
618.5898, 4570.328
619.0720, 4569.464
619.5541, 4541.325
620.0362, 4517.138
620.5183, 4504.379
621.0004, 4495.120
621.4825, 4482.204
621.9647, 4468.040
622.4468, 4459.996
622.9289, 4461.870
623.4110, 4469.554
623.8931, 4478.938
624.3752, 4489.974
624.8574, 4493.633
625.3395, 4489.019
625.8216, 4476.392
626.3037, 4446.008
626.7858, 4409.148
627.2679, 4400.646
627.7501, 4443.930
628.2322, 4473.477
628.7143, 4464.238
629.1964, 4439.845
629.6785, 4413.744
630.1606, 4392.354
630.6428, 4388.511
631.1249, 4412.600
631.6070, 4445.849
632.0891, 4443.906
632.5712, 4402.896
633.0533, 4377.145
633.5355, 4376.366
634.0176, 4387.687
634.4997, 4412.565
634.9818, 4442.313
635.4639, 4447.919
635.9460, 4406.906
636.4282, 4372.224
636.9103, 4361.619
637.3924, 4365.358
637.8745, 4383.191
638.3566, 4407.391
638.8387, 4413.126
639.3209, 4380.049
639.8030, 4329.269
640.2851, 4315.959
640.7672, 4345.365
641.2493, 4363.568
641.7314, 4355.584
642.2136, 4345.179
642.6957, 4357.349
643.1778, 4383.617
643.6599, 4392.207
644.1420, 4364.239
644.6241, 4340.090
645.1063, 4335.524
645.5884, 4340.314
646.0705, 4345.024
646.5526, 4320.054
647.0347, 4356.676
647.5168, 4377.685
647.9990, 4383.918
648.4811, 4331.124
648.9632, 4354.551
649.4453, 4347.433
649.9274, 4339.062
650.4095, 4373.217
650.8917, 4329.009
651.3738, 4362.490
651.8559, 4364.959
652.3380, 4381.622
652.8201, 4367.549
653.3022, 4355.781
653.7844, 4356.819
654.2665, 4367.250
654.7486, 4383.239
655.2307, 4389.663
655.7128, 4373.258
656.1949, 4348.490
656.6771, 4349.237
657.1592, 4376.405
657.6413, 4402.074
658.1234, 4423.859
658.6055, 4437.204
659.0876, 4436.580
659.5698, 4423.370
660.0519, 4409.827
660.5340, 4388.463
661.0161, 4376.649
661.4982, 4388.365
661.9803, 4403.666
662.4625, 4404.692
662.9446, 4392.107
663.4267, 4375.339
663.9088, 4358.090
664.3909, 4344.940
664.8730, 4347.160
665.3552, 4363.204
665.8373, 4372.991
666.3194, 4371.775
666.8015, 4369.931
667.2836, 4375.723
667.7657, 4387.640
668.2479, 4397.227
668.7300, 4407.497
669.2121, 4411.403
669.6942, 4401.588
