##NAMES=Hollandite
##RRUFFID=R070539
##IDEAL CHEMISTRY=Ba(Mn^4+^_6_Mn^3+^_2_)O_16_
##LOCALITY=Tangen mine, Hurdalsjoen, Nannestad, Akershus, Norway
##OWNER=RRUFF
##SOURCE=James Shigley
##DESCRIPTION=Fibrous dark gray submetallic crystals
##STATUS=The identification of this mineral has been confirmed by X-ray diffraction and chemical analysis
##URL=rruff.info/R070539
##MEASURED CHEMISTRY=(Ba_0.94_[box]_0.06_)_Σ=1_(Mn^4+^_7.06_Mn^2+^_0.94_)_Σ=8_O_16_; Mn^4+^ and Mn^2+^ splitted by charge balance
148.3986, 2402.493
148.8807, 2461.581
149.3628, 2504.008
149.8449, 2526.403
150.3270, 2539.266
150.8091, 2564.200
151.2913, 2622.318
151.7734, 2653.783
152.2555, 2640.649
152.7376, 2610.726
153.2197, 2586.353
153.7018, 2575.906
154.1840, 2573.972
154.6661, 2569.414
155.1482, 2566.779
155.6303, 2553.540
156.1124, 2514.457
156.5945, 2471.793
157.0767, 2448.677
157.5588, 2454.243
158.0409, 2478.490
158.5230, 2496.724
159.0051, 2504.180
159.4872, 2510.840
159.9694, 2509.353
160.4515, 2499.239
160.9336, 2494.430
161.4157, 2506.269
161.8978, 2527.878
162.3799, 2540.700
162.8621, 2541.782
163.3442, 2537.660
163.8263, 2524.674
164.3084, 2508.466
164.7905, 2495.258
165.2726, 2487.800
165.7548, 2485.224
166.2369, 2485.326
166.7190, 2499.462
167.2011, 2502.879
167.6832, 2485.868
168.1653, 2459.314
168.6475, 2437.887
169.1296, 2428.097
169.6117, 2425.973
170.0938, 2420.138
170.5759, 2406.455
171.0580, 2394.688
171.5402, 2390.568
172.0223, 2388.289
172.5044, 2376.099
172.9865, 2347.123
173.4686, 2311.279
173.9507, 2299.186
174.4329, 2329.823
174.9150, 2354.069
175.3971, 2362.547
175.8792, 2358.647
176.3613, 2344.216
176.8434, 2317.581
177.3256, 2287.500
177.8077, 2280.802
178.2898, 2316.844
178.7719, 2341.663
179.2540, 2329.922
179.7361, 2299.859
180.2183, 2286.075
180.7004, 2304.762
181.1825, 2342.104
181.6646, 2362.106
182.1467, 2361.678
182.6288, 2355.644
183.1110, 2343.441
183.5931, 2328.850
184.0752, 2319.449
184.5573, 2319.020
185.0394, 2323.590
185.5215, 2323.803
186.0037, 2318.258
186.4858, 2312.956
186.9679, 2311.523
187.4500, 2311.427
187.9321, 2307.736
188.4142, 2298.490
188.8964, 2285.260
189.3785, 2269.250
189.8606, 2246.802
190.3427, 2231.368
190.8248, 2230.385
191.3069, 2238.923
191.7891, 2248.966
192.2712, 2259.333
192.7533, 2267.027
193.2354, 2265.100
193.7175, 2252.192
194.1996, 2238.878
194.6818, 2226.617
195.1639, 2216.328
195.6460, 2209.911
196.1281, 2208.211
196.6102, 2209.845
197.0923, 2213.699
197.5745, 2220.409
198.0566, 2225.481
198.5387, 2227.532
199.0208, 2227.119
199.5029, 2225.743
199.9850, 2224.389
200.4672, 2220.457
200.9493, 2207.250
201.4314, 2183.855
201.9135, 2165.142
202.3956, 2156.671
202.8777, 2154.990
203.3599, 2154.244
203.8420, 2152.755
204.3241, 2153.507
204.8062, 2163.655
205.2883, 2183.534
205.7704, 2196.575
206.2526, 2195.643
206.7347, 2186.411
207.2168, 2174.820
207.6989, 2160.843
208.1810, 2150.396
208.6631, 2155.372
209.1453, 2175.042
209.6274, 2183.683
210.1095, 2164.635
210.5916, 2136.554
211.0737, 2125.267
211.5558, 2135.844
212.0380, 2149.465
212.5201, 2145.560
213.0022, 2125.831
213.4843, 2112.557
213.9664, 2115.446
214.4485, 2123.164
214.9307, 2122.435
215.4128, 2111.728
215.8949, 2100.191
216.3770, 2094.033
216.8591, 2093.644
217.3412, 2099.632
217.8233, 2122.483
218.3055, 2145.052
218.7876, 2148.900
219.2697, 2133.586
219.7518, 2117.082
220.2339, 2112.699
220.7160, 2119.123
221.1982, 2123.115
221.6803, 2124.584
222.1624, 2123.299
222.6445, 2117.940
223.1266, 2108.951
223.6087, 2099.405
224.0909, 2089.639
224.5730, 2081.382
225.0551, 2080.198
225.5372, 2093.553
226.0193, 2106.984
226.5014, 2111.959
226.9836, 2109.752
227.4657, 2105.772
227.9478, 2102.215
228.4299, 2099.343
228.9120, 2097.939
229.3941, 2100.791
229.8763, 2101.510
230.3584, 2094.935
230.8405, 2083.758
231.3226, 2075.771
231.8047, 2075.252
232.2868, 2078.727
232.7690, 2076.112
233.2511, 2061.218
233.7332, 2052.396
234.2153, 2058.615
234.6974, 2074.396
235.1796, 2090.985
235.6617, 2105.994
236.1438, 2118.087
236.6259, 2124.220
237.1080, 2124.904
237.5901, 2120.129
238.0723, 2104.927
238.5544, 2085.949
239.0365, 2071.324
239.5186, 2063.309
240.0007, 2060.675
240.4828, 2063.111
240.9650, 2074.353
241.4471, 2078.592
241.9292, 2066.341
242.4113, 2051.135
242.8934, 2048.084
243.3755, 2059.359
243.8577, 2073.099
244.3398, 2075.898
244.8219, 2064.244
245.3040, 2055.329
245.7861, 2045.940
246.2682, 2041.408
246.7504, 2049.363
247.2325, 2068.098
247.7146, 2085.868
248.1967, 2092.409
248.6788, 2086.811
249.1609, 2078.458
249.6431, 2065.143
250.1252, 2051.576
250.6073, 2037.512
251.0894, 2024.680
251.5715, 2017.794
252.0536, 2021.179
252.5358, 2033.750
253.0179, 2039.283
253.5000, 2028.381
253.9821, 2021.730
254.4642, 2031.508
254.9463, 2048.703
255.4285, 2055.497
255.9106, 2041.426
256.3927, 2014.121
256.8748, 2002.522
257.3569, 2025.706
257.8391, 2043.150
258.3212, 2048.725
258.8033, 2047.835
259.2854, 2046.271
259.7675, 2046.339
260.2496, 2047.264
260.7318, 2047.428
261.2139, 2046.192
261.6960, 2045.182
262.1781, 2046.496
262.6602, 2046.778
263.1423, 2040.225
263.6245, 2026.984
264.1066, 2016.108
264.5887, 2022.074
265.0708, 2055.839
265.5529, 2075.354
266.0350, 2071.985
266.5172, 2063.614
266.9993, 2058.205
267.4814, 2056.751
267.9635, 2056.989
268.4456, 2056.660
268.9277, 2055.573
269.4099, 2056.330
269.8920, 2065.062
270.3741, 2069.798
270.8562, 2061.810
271.3383, 2046.804
271.8204, 2037.505
272.3026, 2044.412
272.7847, 2063.655
273.2668, 2072.280
273.7489, 2060.100
274.2310, 2051.895
274.7131, 2056.211
275.1953, 2067.733
275.6774, 2080.441
276.1595, 2092.307
276.6416, 2101.949
277.1237, 2106.113
277.6058, 2103.788
278.0880, 2098.678
278.5701, 2089.923
279.0522, 2079.970
279.5343, 2069.115
280.0164, 2057.012
280.4985, 2049.338
280.9807, 2056.531
281.4628, 2080.170
281.9449, 2095.634
282.4270, 2093.374
282.9091, 2084.410
283.3912, 2075.368
283.8734, 2066.792
284.3555, 2061.226
284.8376, 2064.239
285.3197, 2072.881
285.8018, 2071.087
286.2839, 2049.197
286.7661, 2029.987
287.2482, 2037.297
287.7303, 2064.268
288.2124, 2084.462
288.6945, 2080.943
289.1766, 2066.593
289.6588, 2064.400
290.1409, 2077.333
290.6230, 2090.351
291.1051, 2094.235
291.5872, 2090.153
292.0693, 2081.214
292.5515, 2061.651
293.0336, 2042.457
293.5157, 2033.956
293.9978, 2034.792
294.4799, 2035.392
294.9620, 2029.519
295.4442, 2021.561
295.9263, 2023.570
296.4084, 2043.036
296.8905, 2058.401
297.3726, 2057.619
297.8547, 2047.176
298.3369, 2040.442
298.8190, 2042.385
299.3011, 2046.549
299.7832, 2041.188
300.2653, 2020.994
300.7474, 2006.993
301.2296, 2005.884
301.7117, 2009.076
302.1938, 2008.658
302.6759, 2003.385
303.1580, 1996.364
303.6401, 1990.677
304.1223, 1986.590
304.6044, 1982.384
305.0865, 1976.862
305.5686, 1972.377
306.0507, 1971.999
306.5328, 1973.875
307.0150, 1972.135
307.4971, 1961.870
307.9792, 1945.254
308.4613, 1939.453
308.9434, 1960.478
309.4255, 1974.634
309.9077, 1973.560
310.3898, 1964.327
310.8719, 1953.909
311.3540, 1945.282
311.8361, 1940.722
312.3182, 1947.072
312.8004, 1975.633
313.2825, 1990.745
313.7646, 1980.049
314.2467, 1963.999
314.7288, 1956.200
315.2109, 1958.487
315.6931, 1964.029
316.1752, 1967.224
316.6573, 1968.371
317.1394, 1963.053
317.6215, 1940.625
318.1036, 1923.021
318.5858, 1923.983
319.0679, 1937.666
319.5500, 1948.157
320.0321, 1943.298
320.5142, 1929.487
320.9963, 1926.734
321.4785, 1940.444
321.9606, 1950.892
322.4427, 1943.489
322.9248, 1929.140
323.4069, 1921.255
323.8890, 1925.171
324.3712, 1932.041
324.8533, 1932.083
325.3354, 1925.790
325.8175, 1921.546
326.2996, 1923.054
326.7817, 1926.856
327.2639, 1928.229
327.7460, 1926.999
328.2281, 1924.983
328.7102, 1923.135
329.1923, 1920.998
329.6744, 1916.569
330.1566, 1908.897
330.6387, 1903.281
331.1208, 1906.812
331.6029, 1919.844
332.0850, 1927.520
332.5671, 1924.306
333.0493, 1919.046
333.5314, 1919.539
334.0135, 1924.454
334.4956, 1925.934
334.9777, 1918.058
335.4598, 1903.084
335.9420, 1894.578
336.4241, 1893.746
336.9062, 1896.819
337.3883, 1909.246
337.8704, 1923.070
338.3525, 1925.226
338.8346, 1911.379
339.3167, 1892.624
339.7989, 1889.648
340.2810, 1918.754
340.7631, 1929.933
341.2452, 1910.074
341.7273, 1885.779
342.2094, 1871.719
342.6916, 1869.202
343.1737, 1872.332
343.6558, 1876.410
344.1379, 1881.447
344.6200, 1887.788
345.1021, 1900.165
345.5843, 1907.826
346.0664, 1902.788
346.5485, 1892.498
347.0306, 1889.451
347.5127, 1901.213
347.9948, 1917.424
348.4770, 1914.882
348.9591, 1886.857
349.4412, 1870.243
349.9233, 1884.672
350.4054, 1909.345
350.8875, 1931.367
351.3697, 1949.453
351.8518, 1957.539
352.3339, 1943.861
352.8160, 1915.447
353.2981, 1898.956
353.7802, 1901.595
354.2624, 1908.719
354.7445, 1905.975
355.2266, 1896.101
355.7087, 1889.246
356.1908, 1889.351
356.6729, 1892.261
357.1551, 1893.969
357.6372, 1894.641
358.1193, 1896.931
358.6014, 1903.130
359.0835, 1911.520
359.5656, 1915.481
360.0478, 1911.727
360.5299, 1908.956
361.0120, 1911.533
361.4941, 1915.540
361.9762, 1915.165
362.4583, 1908.844
362.9405, 1900.043
363.4226, 1893.086
363.9047, 1887.011
364.3868, 1886.414
364.8689, 1895.169
365.3510, 1905.069
365.8332, 1914.487
366.3153, 1921.581
366.7974, 1922.343
367.2795, 1912.921
367.7616, 1895.691
368.2437, 1884.325
368.7259, 1879.522
369.2080, 1880.291
369.6901, 1891.382
370.1722, 1904.786
370.6543, 1912.673
371.1364, 1912.755
371.6186, 1907.577
372.1007, 1897.596
372.5828, 1882.060
373.0649, 1874.535
373.5470, 1881.909
374.0291, 1892.551
374.5113, 1897.830
374.9934, 1898.799
375.4755, 1900.991
375.9576, 1910.050
376.4397, 1920.996
376.9218, 1924.325
377.4040, 1919.079
377.8861, 1913.353
378.3682, 1911.431
378.8503, 1912.544
379.3324, 1913.763
379.8145, 1914.062
380.2967, 1915.976
380.7788, 1924.151
381.2609, 1934.346
381.7430, 1936.918
382.2251, 1928.545
382.7072, 1916.081
383.1894, 1909.111
383.6715, 1909.844
384.1536, 1909.753
384.6357, 1903.672
385.1178, 1901.098
385.5999, 1912.951
386.0821, 1934.643
386.5642, 1950.720
387.0463, 1949.877
387.5284, 1934.966
388.0105, 1923.425
388.4926, 1913.283
388.9748, 1909.812
389.4569, 1919.975
389.9390, 1933.384
390.4211, 1939.178
390.9032, 1934.641
391.3853, 1926.981
391.8675, 1926.036
392.3496, 1932.591
392.8317, 1934.419
393.3138, 1927.143
393.7959, 1918.988
394.2780, 1914.197
394.7602, 1912.259
395.2423, 1911.389
395.7244, 1909.420
396.2065, 1909.039
396.6886, 1916.855
397.1707, 1933.302
397.6529, 1945.462
398.1350, 1948.148
398.6171, 1942.396
399.0992, 1929.597
399.5813, 1904.962
400.0634, 1887.495
400.5456, 1887.342
401.0277, 1897.543
401.5098, 1910.116
401.9919, 1923.339
402.4740, 1933.519
402.9561, 1937.408
403.4383, 1934.816
403.9204, 1925.202
404.4025, 1897.427
404.8846, 1875.327
405.3667, 1871.022
405.8488, 1878.363
406.3310, 1886.119
406.8131, 1888.981
407.2952, 1889.252
407.7773, 1892.699
408.2594, 1903.510
408.7415, 1907.777
409.2237, 1898.480
409.7058, 1887.821
410.1879, 1883.713
410.6700, 1885.681
411.1521, 1887.754
411.6342, 1885.866
412.1164, 1880.399
412.5985, 1871.310
413.0806, 1855.477
413.5627, 1844.610
414.0448, 1847.039
414.5269, 1857.304
415.0091, 1871.234
415.4912, 1891.997
415.9733, 1906.076
416.4554, 1899.252
416.9375, 1877.960
417.4196, 1860.204
417.9018, 1850.115
418.3839, 1844.939
418.8660, 1842.374
419.3481, 1842.814
419.8302, 1842.815
420.3123, 1841.413
420.7945, 1840.334
421.2766, 1841.583
421.7587, 1844.066
422.2408, 1844.827
422.7229, 1842.228
423.2050, 1837.238
423.6872, 1832.426
424.1693, 1825.890
424.6514, 1822.855
425.1335, 1824.090
425.6156, 1828.087
426.0977, 1836.317
426.5799, 1847.235
427.0620, 1854.631
427.5441, 1851.272
428.0262, 1839.222
428.5083, 1834.446
428.9904, 1842.160
429.4726, 1846.291
429.9547, 1833.071
430.4368, 1814.939
430.9189, 1807.947
431.4010, 1817.644
431.8831, 1831.379
432.3653, 1840.243
432.8474, 1844.927
433.3295, 1847.348
433.8116, 1847.424
434.2937, 1847.105
434.7758, 1849.170
435.2580, 1853.687
435.7401, 1854.413
436.2222, 1846.377
436.7043, 1838.857
437.1864, 1839.008
437.6685, 1844.014
438.1507, 1846.572
438.6328, 1843.185
439.1149, 1835.968
439.5970, 1829.113
440.0791, 1818.254
440.5612, 1816.188
441.0434, 1833.051
441.5255, 1849.125
442.0076, 1850.479
442.4897, 1839.262
442.9718, 1827.363
443.4539, 1823.466
443.9361, 1825.465
444.4182, 1825.611
444.9003, 1823.051
445.3824, 1821.053
445.8645, 1822.081
446.3466, 1823.570
446.8288, 1822.693
447.3109, 1818.826
447.7930, 1815.000
448.2751, 1810.684
448.7572, 1808.203
449.2393, 1815.400
449.7215, 1834.248
450.2036, 1849.402
450.6857, 1845.892
451.1678, 1826.029
451.6499, 1819.648
452.1320, 1842.244
452.6142, 1859.341
453.0963, 1855.781
453.5784, 1840.829
454.0605, 1826.605
454.5426, 1817.155
455.0247, 1811.273
455.5069, 1806.723
455.9890, 1802.097
456.4711, 1805.383
456.9532, 1831.125
457.4353, 1850.251
457.9174, 1847.080
458.3996, 1831.643
458.8817, 1822.939
459.3638, 1830.404
459.8459, 1844.851
460.3280, 1853.295
460.8102, 1855.631
461.2923, 1856.586
461.7744, 1857.771
462.2565, 1857.152
462.7386, 1849.990
463.2207, 1837.204
463.7029, 1831.108
464.1850, 1840.885
464.6671, 1854.458
465.1492, 1861.901
465.6313, 1863.313
466.1134, 1860.696
466.5956, 1854.434
467.0777, 1846.508
467.5598, 1841.699
468.0419, 1839.982
468.5240, 1841.982
469.0061, 1851.792
469.4883, 1862.006
469.9704, 1869.134
470.4525, 1872.056
470.9346, 1869.271
471.4167, 1858.534
471.8988, 1842.220
472.3810, 1829.668
472.8631, 1821.134
473.3452, 1815.672
473.8273, 1810.153
474.3094, 1809.552
474.7915, 1822.232
475.2737, 1849.137
475.7558, 1871.145
476.2379, 1874.327
476.7200, 1866.020
477.2021, 1858.451
477.6842, 1852.594
478.1664, 1848.724
478.6485, 1847.891
479.1306, 1848.941
479.6127, 1846.570
480.0948, 1835.482
480.5769, 1828.601
481.0591, 1830.021
481.5412, 1835.790
482.0233, 1843.300
482.5054, 1851.344
482.9875, 1857.777
483.4696, 1860.652
483.9518, 1860.031
484.4339, 1856.616
484.9160, 1845.095
485.3981, 1839.182
485.8802, 1848.019
486.3623, 1860.684
486.8445, 1863.354
487.3266, 1852.476
487.8087, 1843.891
488.2908, 1856.539
488.7729, 1882.506
489.2550, 1894.527
489.7372, 1887.946
490.2193, 1877.112
490.7014, 1871.629
491.1835, 1870.438
491.6656, 1867.398
492.1477, 1859.995
492.6299, 1853.828
493.1120, 1848.685
493.5941, 1846.743
494.0762, 1853.838
494.5583, 1869.959
495.0404, 1884.745
495.5226, 1886.430
496.0047, 1874.436
496.4868, 1864.109
496.9689, 1851.384
497.4510, 1845.890
497.9331, 1857.772
498.4153, 1874.224
498.8974, 1878.766
499.3795, 1866.650
499.8616, 1851.337
500.3437, 1846.802
500.8258, 1850.512
501.3080, 1850.006
501.7901, 1842.591
502.2722, 1836.075
502.7543, 1836.364
503.2364, 1842.411
503.7185, 1848.636
504.2007, 1854.431
504.6828, 1860.954
505.1649, 1872.541
505.6470, 1883.487
506.1291, 1884.602
506.6112, 1874.549
507.0934, 1860.758
507.5755, 1850.310
508.0576, 1843.227
508.5397, 1840.321
509.0218, 1846.397
509.5039, 1850.535
509.9861, 1849.976
510.4682, 1846.499
510.9503, 1841.298
511.4324, 1834.721
511.9145, 1829.185
512.3967, 1827.467
512.8788, 1828.661
513.3609, 1829.772
513.8430, 1830.849
514.3251, 1830.318
514.8073, 1825.988
515.2894, 1819.369
515.7715, 1816.410
516.2536, 1822.519
516.7357, 1824.007
517.2178, 1810.382
517.7000, 1793.265
518.1821, 1787.898
518.6642, 1795.349
519.1463, 1804.215
519.6284, 1803.784
520.1105, 1795.354
520.5927, 1792.256
521.0748, 1794.089
521.5569, 1802.423
522.0390, 1826.820
522.5211, 1851.161
523.0032, 1860.584
523.4854, 1853.104
523.9675, 1838.876
524.4496, 1820.240
524.9317, 1801.138
525.4138, 1790.123
525.8959, 1787.658
526.3781, 1789.865
526.8602, 1795.956
527.3423, 1804.347
527.8244, 1810.958
528.3065, 1817.285
528.7886, 1819.284
529.2708, 1808.987
529.7529, 1799.837
530.2350, 1807.194
530.7171, 1826.916
531.1992, 1841.023
531.6813, 1837.216
532.1635, 1820.380
532.6456, 1803.147
533.1277, 1780.915
533.6098, 1772.370
534.0919, 1793.158
534.5740, 1818.967
535.0562, 1835.864
535.5383, 1843.299
536.0204, 1842.411
536.5025, 1828.091
536.9846, 1809.769
537.4667, 1797.527
537.9489, 1790.440
538.4310, 1782.580
538.9131, 1770.792
539.3952, 1761.659
539.8773, 1766.565
540.3594, 1792.395
540.8416, 1808.329
541.3237, 1809.761
541.8058, 1807.244
542.2879, 1800.370
542.7700, 1794.057
543.2521, 1797.797
543.7343, 1815.861
544.2164, 1835.645
544.6985, 1838.877
545.1806, 1826.017
545.6627, 1812.305
546.1448, 1797.608
546.6270, 1785.326
547.1091, 1776.151
547.5912, 1771.324
548.0733, 1775.176
548.5554, 1794.951
549.0375, 1813.451
549.5197, 1823.125
550.0018, 1826.536
550.4839, 1825.263
550.9660, 1820.489
551.4481, 1816.913
551.9302, 1819.172
552.4124, 1826.568
552.8945, 1831.546
553.3766, 1834.182
553.8587, 1834.012
554.3408, 1827.541
554.8229, 1820.940
555.3051, 1820.506
555.7872, 1826.299
556.2693, 1831.391
556.7514, 1830.643
557.2335, 1826.611
557.7156, 1822.812
558.1978, 1819.447
558.6799, 1818.992
559.1620, 1823.426
559.6441, 1829.743
560.1262, 1832.232
560.6083, 1828.688
561.0905, 1827.120
561.5726, 1828.575
562.0547, 1831.089
562.5368, 1833.265
563.0189, 1835.719
563.5010, 1839.561
563.9832, 1845.226
564.4653, 1853.184
564.9474, 1867.129
565.4295, 1887.465
565.9116, 1896.632
566.3937, 1890.101
566.8759, 1877.284
567.3580, 1856.939
567.8401, 1835.595
568.3222, 1830.476
568.8043, 1854.543
569.2864, 1877.916
569.7686, 1884.508
570.2507, 1883.152
570.7328, 1884.940
571.2149, 1891.958
571.6970, 1902.734
572.1791, 1917.159
572.6613, 1933.601
573.1434, 1939.753
573.6255, 1925.559
574.1076, 1920.244
574.5897, 1940.633
575.0718, 1962.391
575.5540, 1965.894
576.0361, 1952.188
576.5182, 1937.906
577.0003, 1930.198
577.4824, 1927.690
577.9645, 1932.118
578.4467, 1941.352
578.9288, 1943.045
579.4109, 1931.483
579.8930, 1917.448
580.3751, 1916.401
580.8572, 1931.646
581.3394, 1943.722
581.8215, 1952.863
582.3036, 1959.073
582.7857, 1959.788
583.2678, 1958.649
583.7499, 1960.674
584.2321, 1967.214
584.7142, 1974.753
585.1963, 1980.657
585.6783, 1984.668
586.1605, 1984.961
586.6426, 1980.916
587.1247, 1976.502
587.6068, 1973.375
588.0889, 1971.524
588.5710, 1971.176
589.0532, 1973.215
589.5353, 1974.242
590.0174, 1973.506
590.4995, 1971.789
590.9816, 1969.422
591.4637, 1966.597
591.9459, 1963.041
592.4280, 1958.451
592.9101, 1954.753
593.3922, 1957.526
593.8743, 1968.008
594.3564, 1970.060
594.8386, 1956.699
595.3207, 1942.938
595.8028, 1939.892
596.2849, 1944.001
596.7670, 1947.960
597.2491, 1953.323
597.7313, 1954.219
598.2134, 1941.974
598.6955, 1926.753
599.1776, 1924.083
599.6597, 1934.039
600.1418, 1943.157
600.6240, 1940.774
601.1061, 1930.101
601.5882, 1924.161
602.0703, 1924.524
602.5524, 1925.689
603.0345, 1929.038
603.5167, 1930.965
603.9988, 1928.731
604.4809, 1922.974
604.9630, 1916.454
605.4451, 1907.892
605.9272, 1901.364
606.4094, 1900.410
606.8915, 1904.036
607.3736, 1913.230
607.8557, 1927.782
608.3378, 1935.919
608.8199, 1923.892
609.3021, 1892.872
609.7842, 1871.778
610.2663, 1865.662
610.7484, 1862.081
611.2305, 1857.169
611.7126, 1854.874
612.1948, 1860.976
612.6769, 1874.415
613.1590, 1884.964
613.6411, 1886.602
614.1232, 1882.321
614.6053, 1871.136
615.0875, 1856.038
615.5696, 1853.780
616.0517, 1871.269
616.5338, 1892.474
617.0159, 1896.087
617.4980, 1879.161
617.9802, 1870.458
618.4623, 1879.136
618.9444, 1884.915
619.4265, 1881.409
619.9086, 1873.882
620.3907, 1867.737
620.8729, 1863.985
621.3550, 1860.714
621.8371, 1857.067
622.3192, 1852.754
622.8013, 1844.692
623.2834, 1833.698
623.7656, 1831.867
624.2477, 1846.342
624.7298, 1864.760
625.2119, 1868.299
625.6940, 1852.971
626.1761, 1839.747
626.6583, 1829.418
627.1404, 1820.007
627.6225, 1807.248
628.1046, 1796.711
628.5867, 1798.895
629.0688, 1815.299
629.5510, 1829.013
630.0331, 1823.129
630.5152, 1804.169
630.9973, 1786.333
631.4794, 1770.045
631.9615, 1761.560
632.4437, 1764.700
632.9258, 1775.180
633.4079, 1787.223
633.8900, 1804.340
634.3721, 1809.983
634.8542, 1791.737
635.3364, 1776.201
635.8185, 1779.151
636.3006, 1789.601
636.7827, 1788.615
637.2648, 1771.553
637.7469, 1757.113
638.2291, 1771.915
638.7112, 1802.396
639.1933, 1804.156
639.6754, 1774.890
640.1575, 1748.518
640.6396, 1739.889
641.1218, 1742.849
641.6039, 1747.831
642.0860, 1758.129
642.5681, 1759.400
