##NAMES=Hollandite
##RRUFFID=R070539
##IDEAL CHEMISTRY=Ba(Mn^4+^_6_Mn^3+^_2_)O_16_
##LOCALITY=Tangen mine, Hurdalsjoen, Nannestad, Akershus, Norway
##OWNER=RRUFF
##SOURCE=James Shigley
##DESCRIPTION=Fibrous dark gray submetallic crystals
##STATUS=The identification of this mineral has been confirmed by X-ray diffraction and chemical analysis
##URL=rruff.info/R070539
##MEASURED CHEMISTRY=(Ba_0.94_[box]_0.06_)_Σ=1_(Mn^4+^_7.06_Mn^2+^_0.94_)_Σ=8_O_16_; Mn^4+^ and Mn^2+^ splitted by charge balance
150.1554, 1107.750
150.6375, 1112.751
151.1196, 1114.909
151.6017, 1106.170
152.0838, 1102.989
152.5659, 1108.233
153.0481, 1122.715
153.5302, 1139.467
154.0123, 1165.243
154.4944, 1190.541
154.9765, 1205.478
155.4586, 1196.434
155.9408, 1188.166
156.4229, 1187.162
156.9050, 1189.619
157.3871, 1191.716
157.8692, 1202.661
158.3513, 1217.508
158.8335, 1227.598
159.3156, 1226.637
159.7977, 1224.094
160.2798, 1224.420
160.7619, 1229.665
161.2440, 1234.967
161.7262, 1240.969
162.2083, 1246.249
162.6904, 1247.116
163.1725, 1236.756
163.6546, 1224.804
164.1367, 1217.477
164.6189, 1215.005
165.1010, 1218.500
165.5831, 1235.146
166.0652, 1261.078
166.5473, 1277.780
167.0294, 1266.533
167.5116, 1244.882
167.9937, 1229.619
168.4758, 1232.492
168.9579, 1238.516
169.4400, 1235.979
169.9221, 1225.513
170.4043, 1219.016
170.8864, 1231.187
171.3685, 1250.861
171.8506, 1262.114
172.3327, 1249.541
172.8148, 1230.878
173.2970, 1220.853
173.7791, 1219.962
174.2612, 1226.644
174.7433, 1248.419
175.2254, 1277.097
175.7076, 1295.552
176.1897, 1284.201
176.6718, 1262.316
177.1539, 1257.000
177.6360, 1273.293
178.1181, 1292.936
178.6003, 1294.648
179.0824, 1283.019
179.5645, 1274.696
180.0466, 1283.481
180.5287, 1301.108
181.0108, 1311.708
181.4930, 1312.706
181.9751, 1308.033
182.4572, 1300.627
182.9393, 1290.993
183.4214, 1283.371
183.9035, 1282.109
184.3857, 1285.180
184.8678, 1287.049
185.3499, 1286.733
185.8320, 1284.696
186.3141, 1280.993
186.7962, 1275.626
187.2784, 1270.814
187.7605, 1268.097
188.2426, 1267.352
188.7247, 1268.198
189.2068, 1271.065
189.6889, 1275.110
190.1711, 1278.897
190.6532, 1282.515
191.1353, 1284.571
191.6174, 1283.010
192.0995, 1278.166
192.5816, 1273.037
193.0638, 1267.541
193.5459, 1262.495
194.0280, 1261.900
194.5101, 1266.389
194.9922, 1272.453
195.4743, 1276.623
195.9565, 1278.882
196.4386, 1279.560
196.9207, 1277.250
197.4028, 1272.745
197.8849, 1274.351
198.3671, 1284.001
198.8492, 1294.835
199.3313, 1298.123
199.8134, 1293.612
200.2955, 1283.692
200.7776, 1265.250
201.2598, 1238.052
201.7419, 1222.966
202.2240, 1221.647
202.7061, 1229.407
203.1882, 1240.557
203.6703, 1256.665
204.1525, 1268.799
204.6346, 1271.680
205.1167, 1264.062
205.5988, 1258.120
206.0809, 1253.833
206.5630, 1251.488
207.0452, 1252.316
207.5273, 1257.277
208.0094, 1262.334
208.4915, 1265.010
208.9736, 1264.476
209.4557, 1266.976
209.9379, 1275.197
210.4200, 1285.214
210.9021, 1285.183
211.3842, 1271.957
211.8663, 1256.516
212.3484, 1244.624
212.8306, 1236.305
213.3127, 1231.497
213.7948, 1230.196
214.2769, 1232.396
214.7590, 1239.291
215.2411, 1253.766
215.7233, 1267.113
216.2054, 1274.036
216.6875, 1274.283
217.1696, 1268.297
217.6517, 1252.745
218.1338, 1230.368
218.6160, 1218.136
219.0981, 1219.260
219.5802, 1225.067
220.0623, 1229.006
220.5444, 1229.044
221.0265, 1233.040
221.5087, 1244.714
221.9908, 1262.543
222.4729, 1269.774
222.9550, 1260.409
223.4371, 1248.789
223.9192, 1247.754
224.4014, 1264.685
224.8835, 1274.658
225.3656, 1272.182
225.8477, 1257.795
226.3298, 1245.344
226.8119, 1234.884
227.2941, 1226.116
227.7762, 1218.049
228.2583, 1208.563
228.7404, 1204.631
229.2225, 1208.947
229.7046, 1221.486
230.1868, 1232.448
230.6689, 1241.794
231.1510, 1249.415
231.6331, 1255.653
232.1152, 1262.132
232.5974, 1263.928
233.0795, 1259.230
233.5616, 1247.716
234.0437, 1236.098
234.5258, 1222.128
235.0079, 1210.112
235.4901, 1204.956
235.9722, 1209.482
236.4543, 1215.849
236.9364, 1223.382
237.4185, 1232.572
237.9006, 1238.003
238.3828, 1238.256
238.8649, 1235.998
239.3470, 1234.104
239.8291, 1232.209
240.3112, 1231.225
240.7933, 1231.198
241.2755, 1231.990
241.7576, 1234.753
242.2397, 1241.161
242.7218, 1248.115
243.2039, 1251.248
243.6860, 1247.367
244.1682, 1245.451
244.6503, 1249.313
245.1324, 1260.896
245.6145, 1264.551
246.0966, 1254.947
246.5787, 1241.649
247.0609, 1238.113
247.5430, 1249.938
248.0251, 1261.567
248.5072, 1269.460
248.9893, 1273.667
249.4714, 1273.005
249.9536, 1264.520
250.4357, 1253.458
250.9178, 1247.372
251.3999, 1248.606
251.8820, 1250.496
252.3641, 1251.066
252.8463, 1249.876
253.3284, 1249.819
253.8105, 1250.692
254.2926, 1252.870
254.7747, 1257.920
255.2568, 1269.931
255.7390, 1276.571
256.2211, 1271.139
256.7032, 1249.543
257.1853, 1243.198
257.6674, 1260.818
258.1495, 1285.935
258.6317, 1292.887
259.1138, 1271.850
259.5959, 1253.905
260.0780, 1250.568
260.5601, 1265.205
261.0422, 1271.877
261.5244, 1266.784
262.0065, 1257.512
262.4886, 1256.136
262.9707, 1266.515
263.4528, 1275.256
263.9349, 1277.366
264.4171, 1271.502
264.8992, 1268.932
265.3813, 1270.176
265.8634, 1274.020
266.3455, 1279.578
266.8276, 1288.427
267.3098, 1294.507
267.7919, 1295.200
268.2740, 1289.930
268.7561, 1285.527
269.2382, 1281.169
269.7203, 1278.910
270.2025, 1283.176
270.6846, 1296.648
271.1667, 1306.851
271.6488, 1308.306
272.1309, 1300.468
272.6130, 1298.012
273.0952, 1302.808
273.5773, 1309.805
274.0594, 1312.091
274.5415, 1308.882
275.0236, 1304.971
275.5057, 1301.345
275.9879, 1298.045
276.4700, 1297.021
276.9521, 1298.578
277.4342, 1301.779
277.9163, 1306.209
278.3984, 1312.257
278.8806, 1316.641
279.3627, 1318.541
279.8448, 1317.961
280.3269, 1313.510
280.8090, 1303.586
281.2911, 1294.175
281.7733, 1293.889
282.2554, 1303.280
282.7375, 1310.548
283.2196, 1311.471
283.7017, 1307.012
284.1838, 1302.315
284.6660, 1296.842
285.1481, 1293.189
285.6302, 1295.026
286.1123, 1302.203
286.5944, 1309.633
287.0765, 1316.303
287.5587, 1322.033
288.0408, 1326.819
288.5229, 1331.054
289.0050, 1331.950
289.4871, 1323.389
289.9692, 1307.027
290.4514, 1295.979
290.9335, 1294.456
291.4156, 1300.602
291.8977, 1312.202
292.3798, 1329.734
292.8619, 1344.337
293.3441, 1344.155
293.8262, 1332.701
294.3083, 1325.709
294.7904, 1329.481
295.2726, 1338.405
295.7547, 1341.815
296.2368, 1339.748
296.7189, 1334.680
297.2010, 1326.724
297.6831, 1317.282
298.1653, 1310.004
298.6474, 1305.895
299.1295, 1304.258
299.6116, 1304.131
300.0937, 1305.517
300.5758, 1308.432
301.0580, 1315.009
301.5401, 1322.836
302.0222, 1327.001
302.5043, 1324.791
302.9864, 1320.962
303.4685, 1322.281
303.9507, 1327.554
304.4328, 1330.848
304.9149, 1325.543
305.3970, 1316.766
305.8791, 1312.099
306.3612, 1315.254
306.8434, 1318.382
307.3255, 1310.871
307.8076, 1296.526
308.2897, 1287.131
308.7718, 1294.944
309.2539, 1308.721
309.7361, 1316.199
310.2182, 1313.141
310.7003, 1309.684
311.1824, 1313.683
311.6645, 1322.726
312.1466, 1331.304
312.6288, 1336.483
313.1109, 1340.392
313.5930, 1345.826
314.0751, 1354.786
314.5572, 1359.197
315.0393, 1350.224
315.5215, 1334.379
316.0036, 1322.725
316.4857, 1322.780
316.9678, 1325.700
317.4499, 1326.330
317.9320, 1323.559
318.4142, 1322.208
318.8963, 1324.565
319.3784, 1329.205
319.8605, 1334.382
320.3426, 1347.196
320.8247, 1353.677
321.3069, 1342.989
321.7890, 1311.905
322.2711, 1292.422
322.7532, 1302.402
323.2353, 1323.047
323.7174, 1336.038
324.1996, 1329.176
324.6817, 1323.317
325.1638, 1324.458
325.6459, 1332.941
326.1280, 1339.364
326.6101, 1346.115
327.0923, 1348.676
327.5744, 1343.643
328.0565, 1316.651
328.5386, 1298.289
329.0207, 1293.358
329.5028, 1300.935
329.9850, 1310.695
330.4671, 1328.458
330.9492, 1343.631
331.4313, 1349.958
331.9134, 1341.694
332.3955, 1333.769
332.8777, 1326.292
333.3598, 1319.723
333.8419, 1315.828
334.3240, 1317.218
334.8061, 1317.575
335.2882, 1312.713
335.7704, 1298.001
336.2525, 1289.801
336.7346, 1288.006
337.2167, 1293.113
337.6988, 1308.534
338.1809, 1339.597
338.6631, 1367.297
339.1452, 1383.006
339.6273, 1385.824
340.1094, 1382.081
340.5915, 1369.166
341.0736, 1353.506
341.5558, 1346.688
342.0379, 1349.799
342.5200, 1353.244
343.0021, 1352.769
343.4842, 1348.887
343.9663, 1348.807
344.4485, 1353.685
344.9306, 1358.361
345.4127, 1354.142
345.8948, 1341.940
346.3769, 1334.202
346.8590, 1336.138
347.3412, 1345.208
347.8233, 1356.543
348.3054, 1370.502
348.7875, 1379.297
349.2696, 1368.396
349.7517, 1344.906
350.2339, 1333.217
350.7160, 1345.024
351.1981, 1366.218
351.6802, 1375.144
352.1623, 1372.748
352.6444, 1368.407
353.1266, 1367.760
353.6087, 1369.868
354.0908, 1374.189
354.5729, 1382.715
355.0550, 1388.965
355.5371, 1381.907
356.0193, 1366.189
356.5014, 1356.633
356.9835, 1369.353
357.4656, 1388.329
357.9477, 1397.366
358.4298, 1391.998
358.9120, 1385.653
359.3941, 1387.133
359.8762, 1393.318
360.3583, 1398.877
360.8404, 1403.635
361.3225, 1405.501
361.8047, 1402.295
362.2868, 1393.294
362.7689, 1384.541
363.2510, 1376.323
363.7331, 1370.208
364.2152, 1367.909
364.6974, 1371.299
365.1795, 1377.126
365.6616, 1387.373
366.1437, 1401.718
366.6258, 1408.999
367.1079, 1402.807
367.5901, 1391.739
368.0722, 1381.667
368.5543, 1366.151
369.0364, 1359.853
369.5185, 1370.832
370.0006, 1394.281
370.4828, 1406.331
370.9649, 1396.709
371.4470, 1385.912
371.9291, 1383.498
372.4112, 1395.130
372.8933, 1404.237
373.3755, 1409.750
373.8576, 1413.025
374.3397, 1416.675
374.8218, 1420.507
375.3039, 1424.909
375.7861, 1430.526
376.2682, 1437.698
376.7503, 1442.273
377.2324, 1443.685
377.7145, 1443.315
378.1967, 1443.123
378.6788, 1443.334
379.1609, 1441.979
379.6430, 1437.682
380.1251, 1431.335
380.6072, 1427.337
381.0894, 1425.851
381.5715, 1426.229
382.0536, 1427.231
382.5357, 1429.270
383.0178, 1436.020
383.4999, 1451.581
383.9821, 1468.475
384.4642, 1469.897
384.9463, 1457.107
385.4284, 1444.672
385.9105, 1443.965
386.3926, 1450.167
386.8748, 1453.307
387.3569, 1451.155
387.8390, 1448.225
388.3211, 1449.681
388.8032, 1454.180
389.2853, 1458.091
389.7675, 1458.137
390.2496, 1457.636
390.7317, 1460.304
391.2138, 1466.718
391.6959, 1472.519
392.1780, 1474.688
392.6602, 1474.876
393.1423, 1475.237
393.6244, 1476.510
394.1065, 1478.194
394.5886, 1481.371
395.0707, 1485.630
395.5529, 1486.688
396.0350, 1477.373
396.5171, 1467.810
396.9992, 1465.051
397.4813, 1478.486
397.9634, 1488.725
398.4456, 1491.648
398.9277, 1489.183
399.4098, 1487.640
399.8919, 1491.385
400.3740, 1492.597
400.8561, 1486.946
401.3383, 1467.695
401.8204, 1459.350
402.3025, 1466.667
402.7846, 1482.211
403.2667, 1495.804
403.7488, 1507.965
404.2310, 1516.980
404.7131, 1522.615
405.1952, 1524.843
405.6773, 1522.223
406.1594, 1513.216
406.6415, 1502.651
407.1237, 1494.182
407.6058, 1487.729
408.0879, 1485.337
408.5700, 1489.047
409.0521, 1495.703
409.5342, 1495.621
410.0164, 1488.554
410.4985, 1480.975
410.9806, 1476.585
411.4627, 1475.113
411.9448, 1475.692
412.4269, 1478.391
412.9091, 1482.542
413.3912, 1489.526
413.8733, 1497.758
414.3554, 1501.659
414.8375, 1494.789
415.3196, 1483.801
415.8018, 1477.576
416.2839, 1476.409
416.7660, 1475.568
417.2481, 1469.067
417.7302, 1461.589
418.2123, 1459.444
418.6945, 1471.308
419.1766, 1482.058
419.6587, 1479.180
420.1408, 1466.516
420.6229, 1459.805
421.1050, 1472.900
421.5872, 1488.887
422.0693, 1497.574
422.5514, 1495.026
423.0335, 1489.913
423.5156, 1479.912
423.9977, 1469.145
424.4799, 1464.312
424.9620, 1475.593
425.4441, 1483.643
425.9262, 1481.800
426.4083, 1467.951
426.8904, 1459.786
427.3726, 1458.285
427.8547, 1461.523
428.3368, 1469.109
428.8189, 1486.426
429.3010, 1495.792
429.7831, 1492.887
430.2653, 1480.764
430.7474, 1469.943
431.2295, 1458.897
431.7116, 1454.366
432.1937, 1465.014
432.6758, 1491.365
433.1580, 1503.980
433.6401, 1498.704
434.1222, 1486.261
434.6043, 1482.718
435.0864, 1487.267
435.5685, 1491.604
436.0507, 1492.025
436.5328, 1489.832
437.0149, 1487.608
437.4970, 1485.316
437.9791, 1483.661
438.4612, 1481.430
438.9434, 1480.560
439.4255, 1485.775
439.9076, 1504.110
440.3897, 1519.986
440.8718, 1514.258
441.3539, 1493.899
441.8361, 1478.976
442.3182, 1483.621
442.8003, 1494.520
443.2824, 1503.362
443.7645, 1509.224
444.2466, 1512.716
444.7288, 1512.202
445.2109, 1510.037
445.6930, 1509.045
446.1751, 1509.883
446.6572, 1511.798
447.1393, 1515.550
447.6215, 1521.035
448.1036, 1524.090
448.5857, 1521.875
449.0678, 1519.610
449.5499, 1520.342
450.0320, 1526.008
450.5142, 1530.984
450.9963, 1536.321
451.4784, 1540.304
451.9605, 1537.532
452.4426, 1524.503
452.9247, 1515.704
453.4069, 1519.048
453.8890, 1517.219
454.3711, 1538.930
454.8532, 1551.755
455.3353, 1556.171
455.8174, 1526.997
456.2996, 1541.199
456.7817, 1538.018
457.2638, 1534.123
457.7459, 1554.430
458.2281, 1530.142
458.7102, 1550.065
459.1923, 1552.339
459.6744, 1562.691
460.1565, 1555.552
460.6386, 1553.816
461.1208, 1569.575
461.6029, 1575.647
462.0850, 1566.495
462.5671, 1577.360
463.0492, 1552.461
463.5313, 1558.945
464.0135, 1578.971
464.4956, 1570.698
464.9777, 1581.883
465.4598, 1585.657
465.9419, 1555.754
466.4240, 1584.420
466.9062, 1587.756
467.3883, 1565.085
467.8704, 1591.744
468.3525, 1572.658
468.8346, 1569.900
469.3167, 1579.431
469.7989, 1576.151
470.2810, 1593.068
470.7631, 1590.528
471.2452, 1609.436
471.7273, 1618.085
472.2094, 1603.152
472.6916, 1582.920
473.1737, 1572.926
473.6558, 1573.704
474.1379, 1578.511
474.6200, 1588.611
475.1021, 1599.380
475.5843, 1597.546
476.0664, 1584.024
476.5485, 1575.488
477.0306, 1587.789
477.5127, 1610.712
477.9948, 1620.769
478.4770, 1616.431
478.9591, 1607.970
479.4412, 1601.428
479.9233, 1597.531
480.4054, 1597.891
480.8875, 1607.532
481.3697, 1616.361
481.8518, 1615.288
482.3339, 1607.131
482.8160, 1601.884
483.2981, 1606.299
483.7802, 1613.033
484.2624, 1617.660
484.7445, 1618.926
485.2266, 1620.710
485.7087, 1625.158
486.1908, 1629.932
486.6729, 1632.162
487.1551, 1630.319
487.6372, 1627.892
488.1193, 1624.079
488.6014, 1619.683
489.0835, 1620.498
489.5656, 1629.382
490.0478, 1638.212
490.5299, 1642.211
491.0120, 1640.703
491.4941, 1639.067
491.9762, 1636.754
492.4583, 1635.891
492.9405, 1641.194
493.4226, 1652.218
493.9047, 1661.063
494.3868, 1664.602
494.8689, 1664.521
495.3510, 1662.839
495.8332, 1659.844
496.3153, 1659.340
496.7974, 1667.615
497.2795, 1678.794
497.7616, 1683.452
498.2437, 1677.682
498.7259, 1673.046
499.2080, 1681.300
499.6901, 1695.423
500.1722, 1703.700
500.6543, 1696.867
501.1364, 1688.036
501.6186, 1682.171
502.1007, 1679.437
502.5828, 1677.078
503.0649, 1672.982
503.5470, 1670.352
504.0291, 1671.129
504.5113, 1676.964
504.9934, 1683.682
505.4755, 1693.311
505.9576, 1702.713
506.4397, 1705.355
506.9218, 1697.588
507.4040, 1693.242
507.8861, 1697.091
508.3682, 1708.050
508.8503, 1718.655
509.3324, 1729.129
509.8145, 1737.640
510.2967, 1743.283
510.7788, 1745.805
511.2609, 1742.929
511.7430, 1732.824
512.2252, 1722.046
512.7073, 1718.451
513.1894, 1720.765
513.6715, 1725.519
514.1536, 1735.230
514.6357, 1743.833
515.1179, 1745.486
515.6000, 1740.509
516.0821, 1733.450
516.5642, 1723.592
517.0463, 1714.411
517.5284, 1708.403
518.0106, 1705.877
518.4927, 1706.844
518.9748, 1717.814
519.4569, 1730.983
519.9390, 1732.617
520.4211, 1708.902
520.9033, 1691.345
521.3854, 1687.358
521.8675, 1696.333
522.3496, 1707.419
522.8317, 1706.609
523.3138, 1725.594
523.7960, 1735.692
524.2781, 1737.382
524.7602, 1705.482
525.2423, 1716.957
525.7244, 1711.049
526.2065, 1704.429
526.6887, 1722.009
527.1708, 1694.994
527.6529, 1712.190
528.1350, 1711.738
528.6171, 1719.364
529.0992, 1709.499
529.5814, 1705.036
530.0635, 1718.069
530.5456, 1700.254
531.0277, 1699.816
531.5098, 1704.217
531.9919, 1711.276
532.4741, 1725.682
532.9562, 1740.233
533.4383, 1746.109
533.9204, 1730.205
534.4025, 1717.188
534.8846, 1714.037
535.3668, 1719.341
535.8489, 1723.132
536.3310, 1725.846
536.8131, 1726.661
537.2952, 1724.680
537.7773, 1719.011
538.2595, 1715.370
538.7416, 1713.935
539.2237, 1714.271
539.7058, 1717.203
540.1879, 1722.702
540.6700, 1724.163
541.1522, 1718.192
541.6343, 1709.795
542.1164, 1709.846
542.5985, 1717.027
543.0806, 1723.564
543.5627, 1721.883
544.0449, 1718.407
544.5270, 1723.206
545.0091, 1737.206
545.4912, 1747.624
545.9733, 1740.922
546.4554, 1729.183
546.9376, 1724.784
547.4197, 1739.657
547.9018, 1750.107
548.3839, 1746.070
548.8660, 1733.491
549.3481, 1726.190
549.8303, 1730.492
550.3124, 1734.183
550.7945, 1733.731
551.2766, 1729.107
551.7587, 1726.840
552.2408, 1727.593
552.7230, 1729.432
553.2051, 1729.933
553.6872, 1728.782
554.1693, 1733.820
554.6514, 1747.501
555.1335, 1763.004
555.6157, 1770.521
556.0978, 1770.798
556.5799, 1766.947
557.0620, 1756.914
557.5441, 1745.913
558.0262, 1740.054
558.5084, 1739.250
558.9905, 1742.736
559.4726, 1755.476
559.9547, 1768.844
560.4368, 1774.581
560.9189, 1769.144
561.4011, 1766.831
561.8832, 1774.809
562.3653, 1787.069
562.8474, 1797.430
563.3295, 1806.357
563.8116, 1811.439
564.2938, 1811.563
564.7759, 1807.766
565.2580, 1802.541
565.7401, 1793.967
566.2222, 1788.542
566.7043, 1789.960
567.1865, 1797.735
567.6686, 1802.658
568.1507, 1804.414
568.6328, 1805.303
569.1149, 1805.685
569.5970, 1806.693
570.0792, 1813.567
570.5613, 1829.033
571.0434, 1844.633
571.5255, 1852.572
572.0076, 1853.933
572.4897, 1851.161
572.9719, 1837.840
573.4540, 1827.177
573.9361, 1829.046
574.4182, 1841.843
574.9003, 1853.658
575.3824, 1862.847
575.8646, 1868.699
576.3467, 1869.932
576.8288, 1864.023
577.3109, 1860.639
577.7930, 1857.893
578.2751, 1859.448
578.7573, 1871.559
579.2394, 1898.966
579.7215, 1917.435
580.2036, 1922.265
580.6857, 1917.529
581.1678, 1910.757
581.6500, 1902.123
582.1321, 1895.136
582.6142, 1890.352
583.0963, 1888.862
583.5784, 1895.448
584.0605, 1909.467
584.5427, 1920.998
585.0248, 1921.596
585.5069, 1916.405
585.9890, 1909.968
586.4711, 1901.742
586.9532, 1896.742
587.4354, 1900.612
587.9175, 1907.678
588.3996, 1910.609
588.8817, 1899.311
589.3638, 1894.272
589.8459, 1901.894
590.3281, 1918.367
590.8102, 1928.854
591.2923, 1933.221
591.7744, 1931.273
592.2565, 1918.514
592.7386, 1895.597
593.2208, 1892.492
593.7029, 1912.488
594.1850, 1933.392
594.6671, 1928.968
595.1492, 1907.948
595.6313, 1900.359
596.1135, 1915.705
596.5956, 1931.774
597.0777, 1923.325
597.5598, 1899.782
598.0419, 1879.245
598.5240, 1866.635
599.0062, 1860.969
599.4883, 1863.762
599.9704, 1873.773
600.4525, 1884.767
600.9346, 1898.921
601.4167, 1910.351
601.8989, 1916.626
602.3810, 1917.205
602.8631, 1914.826
603.3452, 1908.535
603.8273, 1900.506
604.3094, 1890.920
604.7916, 1878.892
605.2737, 1875.263
605.7558, 1884.011
606.2379, 1895.467
606.7200, 1893.188
607.2021, 1879.634
607.6843, 1866.810
608.1664, 1857.629
608.6485, 1853.124
609.1306, 1856.613
609.6127, 1866.509
610.0948, 1876.057
610.5770, 1883.911
611.0591, 1888.521
611.5412, 1886.695
612.0233, 1876.356
612.5054, 1871.803
612.9875, 1881.547
613.4697, 1894.484
613.9518, 1902.309
614.4339, 1904.308
614.9160, 1901.884
615.3981, 1891.161
615.8802, 1879.975
616.3624, 1884.707
616.8445, 1907.280
617.3266, 1923.769
617.8087, 1926.247
618.2908, 1918.922
618.7729, 1908.550
619.2551, 1895.859
619.7372, 1885.909
620.2193, 1880.827
620.7014, 1880.541
621.1835, 1888.462
621.6656, 1904.778
622.1478, 1914.641
622.6299, 1901.864
623.1120, 1884.800
623.5941, 1878.534
624.0762, 1893.456
624.5583, 1905.371
625.0405, 1911.133
625.5226, 1913.232
626.0047, 1914.384
626.4868, 1913.699
626.9689, 1914.705
627.4510, 1919.475
627.9332, 1925.409
628.4153, 1924.861
628.8974, 1917.695
629.3795, 1906.574
629.8616, 1887.157
630.3438, 1866.036
630.8259, 1859.588
631.3080, 1867.130
631.7901, 1877.101
632.2722, 1883.353
632.7543, 1886.782
633.2365, 1888.394
633.7186, 1888.567
634.2007, 1886.337
634.6828, 1875.582
635.1649, 1864.914
635.6470, 1864.031
636.1292, 1887.692
636.6113, 1900.727
637.0934, 1896.141
637.5755, 1881.802
638.0576, 1873.618
638.5397, 1871.749
639.0219, 1876.057
639.5040, 1890.526
639.9861, 1909.591
640.4682, 1911.581
640.9503, 1897.269
641.4324, 1883.695
641.9146, 1887.465
642.3967, 1896.416
642.8788, 1889.952
643.3609, 1865.834
643.8430, 1848.948
644.3251, 1864.497
