##NAMES=Holmquistite
##RRUFFID=R070004
##IDEAL CHEMISTRY=[box]Li_2_(Mg_3_Al_2_)Si_8_O_22_(OH)_2_
##LOCALITY=Uto, Sodermanland, Sweden
##OWNER=RRUFF
##SOURCE=Michael Scott
##DESCRIPTION=Mass of dark blue thin bladed crystals
##STATUS=The identification of this mineral has been confirmed only by single crystal X-ray diffraction.
##URL=rruff.info/R070004
120.8279, 405.0457
121.3100, 423.5529
121.7921, 445.2412
122.2742, 460.4740
122.7563, 465.9181
123.2384, 482.7128
123.7206, 520.7494
124.2027, 570.3920
124.6848, 617.9103
125.1669, 660.1309
125.6490, 700.3237
126.1311, 744.2776
126.6133, 792.7079
127.0954, 837.0029
127.5775, 866.7369
128.0596, 890.1442
128.5417, 925.8176
129.0238, 975.4317
129.5060, 1045.702
129.9881, 1149.119
130.4702, 1287.083
130.9523, 1422.712
131.4344, 1532.791
131.9165, 1621.309
132.3987, 1711.449
132.8808, 1819.215
133.3629, 1917.786
133.8450, 1987.694
134.3271, 2028.387
134.8092, 2040.065
135.2914, 2010.933
135.7735, 1941.809
136.2556, 1881.141
136.7377, 1847.165
137.2198, 1820.652
137.7019, 1786.701
138.1841, 1743.875
138.6662, 1701.143
139.1483, 1665.834
139.6304, 1637.455
140.1125, 1620.728
140.5946, 1609.948
141.0768, 1616.571
141.5589, 1652.830
142.0410, 1720.614
142.5231, 1804.877
143.0052, 1888.145
143.4873, 1970.223
143.9695, 2051.574
144.4516, 2126.933
144.9337, 2205.780
145.4158, 2297.928
145.8979, 2405.308
146.3800, 2516.567
146.8622, 2613.868
147.3443, 2689.712
147.8264, 2769.553
148.3085, 2867.436
148.7906, 2962.595
149.2727, 3042.893
149.7549, 3104.065
150.2370, 3146.190
150.7191, 3169.609
151.2012, 3174.819
151.6833, 3156.119
152.1654, 3113.823
152.6476, 3051.677
153.1297, 2965.875
153.6118, 2856.540
154.0939, 2738.972
154.5760, 2642.239
155.0581, 2565.754
155.5403, 2516.196
156.0224, 2504.384
156.5045, 2511.573
156.9866, 2522.855
157.4687, 2532.625
157.9508, 2542.083
158.4330, 2553.314
158.9151, 2554.195
159.3972, 2574.410
159.8793, 2630.532
160.3614, 2698.243
160.8435, 2753.329
161.3257, 2787.011
161.8078, 2806.424
162.2899, 2826.747
162.7720, 2849.256
163.2541, 2870.854
163.7362, 2890.186
164.2184, 2908.999
164.7005, 2930.173
165.1826, 2954.909
165.6647, 2980.124
166.1468, 2999.045
166.6289, 3002.970
167.1111, 3014.956
167.5932, 3038.972
168.0753, 3071.558
168.5574, 3109.677
169.0395, 3152.937
169.5216, 3198.685
170.0038, 3241.320
170.4859, 3275.940
170.9680, 3317.757
171.4501, 3376.003
171.9322, 3441.009
172.4143, 3498.114
172.8965, 3541.729
173.3786, 3580.565
173.8607, 3631.459
174.3428, 3697.308
174.8249, 3765.495
175.3070, 3833.998
175.7892, 3903.604
176.2713, 3976.820
176.7534, 4055.179
177.2355, 4133.324
177.7176, 4199.613
178.1997, 4253.773
178.6819, 4304.010
179.1640, 4344.170
179.6461, 4383.396
180.1282, 4438.447
180.6103, 4515.921
181.0924, 4602.874
181.5745, 4679.715
182.0567, 4745.883
182.5388, 4813.313
183.0209, 4891.619
183.5030, 4971.823
183.9851, 5032.133
184.4672, 5060.402
184.9494, 5089.592
185.4315, 5175.802
185.9136, 5316.706
186.3957, 5446.098
186.8778, 5540.724
187.3599, 5612.080
187.8421, 5683.487
188.3242, 5763.055
188.8063, 5831.329
189.2884, 5865.130
189.7705, 5869.235
190.2526, 5846.740
190.7348, 5791.839
191.2169, 5712.365
191.6990, 5622.816
192.1811, 5526.545
192.6632, 5415.974
193.1453, 5271.408
193.6275, 5100.521
194.1096, 4939.646
194.5917, 4803.884
195.0738, 4684.039
195.5559, 4565.785
196.0380, 4446.978
196.5202, 4330.492
197.0023, 4216.551
197.4844, 4105.747
197.9665, 4004.248
198.4486, 3906.650
198.9307, 3820.870
199.4129, 3763.398
199.8950, 3739.498
200.3771, 3725.684
200.8592, 3704.362
201.3413, 3679.391
201.8234, 3659.702
202.3056, 3656.671
202.7877, 3656.847
203.2698, 3637.153
203.7519, 3592.855
204.2340, 3550.679
204.7161, 3528.292
205.1983, 3520.892
205.6804, 3522.963
206.1625, 3542.554
206.6446, 3564.685
207.1267, 3566.741
207.6088, 3545.467
208.0910, 3526.874
208.5731, 3528.183
209.0552, 3541.153
209.5373, 3553.728
210.0194, 3562.334
210.5015, 3571.012
210.9837, 3584.803
211.4658, 3603.998
211.9479, 3623.529
212.4300, 3640.297
212.9121, 3656.411
213.3942, 3675.204
213.8764, 3699.122
214.3585, 3722.194
214.8406, 3740.111
215.3227, 3753.008
215.8048, 3758.662
216.2869, 3753.296
216.7691, 3741.468
217.2512, 3728.496
217.7333, 3713.864
218.2154, 3700.769
218.6975, 3692.331
219.1796, 3688.242
219.6618, 3684.806
220.1439, 3681.452
220.6260, 3677.791
221.1081, 3673.332
221.5902, 3667.951
222.0723, 3662.629
222.5545, 3664.439
223.0366, 3669.522
223.5187, 3653.561
224.0008, 3597.075
224.4829, 3535.328
224.9650, 3504.121
225.4472, 3502.584
225.9293, 3510.988
226.4114, 3522.585
226.8935, 3536.176
227.3756, 3548.291
227.8577, 3559.651
228.3399, 3566.869
228.8220, 3565.859
229.3041, 3557.879
229.7862, 3548.797
230.2683, 3536.976
230.7504, 3526.362
231.2325, 3527.415
231.7147, 3544.765
232.1968, 3563.526
232.6789, 3570.872
233.1610, 3569.968
233.6431, 3568.256
234.1252, 3566.068
234.6074, 3565.163
235.0895, 3569.311
235.5716, 3579.614
236.0537, 3589.473
236.5358, 3594.135
237.0179, 3595.133
237.5001, 3595.334
237.9822, 3593.174
238.4643, 3592.052
238.9464, 3595.070
239.4285, 3602.225
239.9106, 3594.732
240.3928, 3624.904
240.8749, 3644.728
241.3570, 3654.762
241.8391, 3625.684
242.3212, 3647.111
242.8033, 3648.298
243.2855, 3648.657
243.7676, 3677.192
244.2497, 3653.803
244.7318, 3681.892
245.2139, 3689.432
245.6960, 3706.376
246.1782, 3702.957
246.6603, 3705.827
247.1424, 3729.068
247.6245, 3741.029
248.1066, 3735.264
248.5887, 3752.807
249.0709, 3728.708
249.5530, 3741.149
250.0351, 3769.357
250.5172, 3764.616
250.9993, 3782.531
251.4814, 3791.817
251.9636, 3761.891
252.4457, 3800.160
252.9278, 3808.937
253.4099, 3787.430
253.8920, 3823.363
254.3741, 3806.031
254.8563, 3823.409
255.3384, 3830.994
255.8205, 3831.632
256.3026, 3825.064
256.7847, 3806.498
257.2668, 3777.017
257.7490, 3764.191
258.2311, 3784.578
258.7132, 3809.428
259.1953, 3816.654
259.6774, 3807.812
260.1595, 3798.180
260.6417, 3797.263
261.1238, 3804.015
261.6059, 3810.276
262.0880, 3814.171
262.5701, 3819.523
263.0522, 3834.834
263.5344, 3853.030
264.0165, 3854.985
264.4986, 3828.513
264.9807, 3785.755
265.4628, 3763.491
265.9449, 3773.162
266.4271, 3782.663
266.9092, 3780.734
267.3913, 3777.131
267.8734, 3789.100
268.3555, 3822.524
268.8376, 3860.608
269.3198, 3875.982
269.8019, 3855.653
270.2840, 3834.989
270.7661, 3805.421
271.2482, 3780.871
271.7303, 3776.747
272.2125, 3793.572
272.6946, 3815.748
273.1767, 3826.440
273.6588, 3822.826
274.1409, 3820.782
274.6230, 3818.073
275.1052, 3818.634
275.5873, 3828.540
276.0694, 3844.290
276.5515, 3854.747
277.0336, 3850.243
277.5157, 3831.964
277.9979, 3825.921
278.4800, 3839.765
278.9621, 3857.236
279.4442, 3875.911
279.9263, 3895.813
280.4084, 3918.354
280.8906, 3944.469
281.3727, 3971.966
281.8548, 3994.160
282.3369, 4009.886
282.8190, 4021.182
283.3011, 4020.540
283.7833, 4020.076
284.2654, 4033.101
284.7475, 4062.522
285.2296, 4097.695
285.7117, 4121.680
286.1938, 4130.434
286.6760, 4139.178
287.1581, 4150.964
287.6402, 4160.839
288.1223, 4160.783
288.6044, 4153.863
289.0865, 4154.177
289.5687, 4177.805
290.0508, 4225.550
290.5329, 4266.568
291.0150, 4300.711
291.4971, 4327.052
291.9792, 4338.872
292.4614, 4343.260
292.9435, 4354.294
293.4256, 4382.845
293.9077, 4421.791
294.3898, 4447.260
294.8719, 4451.121
295.3541, 4459.982
295.8362, 4494.610
296.3183, 4534.532
296.8004, 4554.630
297.2825, 4543.901
297.7646, 4524.965
298.2468, 4527.683
298.7289, 4554.024
299.2110, 4579.108
299.6931, 4604.145
300.1752, 4618.232
300.6573, 4600.666
301.1395, 4549.021
301.6216, 4517.151
302.1037, 4561.896
302.5858, 4660.116
303.0679, 4722.887
303.5500, 4730.187
304.0321, 4713.675
304.5143, 4694.259
304.9964, 4673.423
305.4785, 4658.935
305.9606, 4662.899
306.4427, 4669.953
306.9248, 4657.686
307.4070, 4624.430
307.8891, 4588.792
308.3712, 4562.189
308.8533, 4543.162
309.3354, 4523.605
309.8175, 4498.305
310.2997, 4477.661
310.7818, 4471.144
311.2639, 4474.720
311.7460, 4476.341
312.2281, 4471.646
312.7102, 4460.883
313.1924, 4442.061
313.6745, 4406.484
314.1566, 4383.899
314.6387, 4388.427
315.1208, 4405.593
315.6029, 4421.063
316.0851, 4431.199
316.5672, 4433.963
317.0493, 4425.664
317.5314, 4402.139
318.0135, 4385.357
318.4956, 4371.697
318.9778, 4367.293
319.4599, 4385.368
319.9420, 4417.774
320.4241, 4439.309
320.9062, 4430.322
321.3883, 4394.521
321.8705, 4369.014
322.3526, 4353.836
322.8347, 4349.471
323.3168, 4357.561
323.7989, 4376.147
324.2810, 4407.466
324.7632, 4451.943
325.2453, 4498.251
325.7274, 4522.787
326.2095, 4516.131
326.6916, 4507.651
327.1737, 4493.438
327.6559, 4482.372
328.1380, 4483.790
328.6201, 4496.190
329.1022, 4507.082
329.5843, 4500.084
330.0664, 4474.928
330.5486, 4469.216
331.0307, 4499.756
331.5128, 4529.587
331.9949, 4538.843
332.4770, 4536.923
332.9591, 4541.833
333.4413, 4564.063
333.9234, 4596.024
334.4055, 4623.803
334.8876, 4647.358
335.3697, 4667.331
335.8518, 4681.860
336.3340, 4693.948
336.8161, 4707.631
337.2982, 4724.470
337.7803, 4737.311
338.2624, 4734.140
338.7445, 4720.530
339.2267, 4724.694
339.7088, 4761.136
340.1909, 4800.109
340.6730, 4800.599
341.1551, 4768.044
341.6372, 4750.603
342.1194, 4778.016
342.6015, 4817.271
343.0836, 4826.178
343.5657, 4803.978
344.0478, 4786.751
344.5299, 4801.079
345.0121, 4841.535
345.4942, 4871.838
345.9763, 4888.656
346.4584, 4899.985
346.9405, 4908.534
347.4226, 4913.580
347.9048, 4911.021
348.3869, 4898.712
348.8690, 4885.778
349.3511, 4889.421
349.8332, 4924.993
350.3153, 4948.470
350.7975, 4951.219
351.2796, 4948.883
351.7617, 4951.456
352.2438, 4960.063
352.7259, 4971.261
353.2080, 4982.021
353.6902, 4992.270
354.1723, 5004.380
354.6544, 5017.957
355.1365, 5034.079
355.6186, 5060.588
356.1007, 5087.598
356.5829, 5098.155
357.0650, 5083.059
357.5471, 5060.247
358.0292, 5068.084
358.5113, 5118.905
358.9934, 5161.123
359.4756, 5184.038
359.9577, 5197.065
360.4398, 5201.573
360.9219, 5199.252
361.4040, 5198.126
361.8861, 5201.854
362.3683, 5211.361
362.8504, 5233.162
363.3325, 5272.951
363.8146, 5313.566
364.2967, 5343.158
364.7788, 5365.805
365.2610, 5388.104
365.7431, 5412.468
366.2252, 5436.225
366.7073, 5455.737
367.1894, 5471.561
367.6715, 5488.042
368.1537, 5504.776
368.6358, 5525.496
369.1179, 5559.476
369.6000, 5610.726
370.0821, 5656.221
370.5642, 5680.272
371.0464, 5699.432
371.5285, 5736.432
372.0106, 5793.678
372.4927, 5853.616
372.9748, 5900.359
373.4569, 5933.050
373.9391, 5963.857
374.4212, 5986.688
374.9033, 6014.314
375.3854, 6058.630
375.8675, 6109.982
376.3496, 6149.806
376.8318, 6169.093
377.3139, 6177.944
377.7960, 6200.301
378.2781, 6247.191
378.7602, 6287.675
379.2423, 6324.623
379.7245, 6352.957
380.2066, 6356.883
380.6887, 6343.877
381.1708, 6348.595
381.6529, 6412.754
382.1350, 6528.960
382.6172, 6605.632
383.0993, 6628.335
383.5814, 6632.739
384.0635, 6624.077
384.5456, 6611.095
385.0277, 6605.710
385.5099, 6612.149
385.9920, 6626.189
386.4741, 6648.655
386.9562, 6678.543
387.4383, 6695.110
387.9204, 6693.926
388.4026, 6675.357
388.8847, 6636.373
389.3668, 6577.751
389.8489, 6520.554
390.3310, 6482.732
390.8131, 6444.423
391.2953, 6373.693
391.7774, 6270.430
392.2595, 6175.686
392.7416, 6118.929
393.2237, 6093.677
393.7058, 6060.327
394.1880, 6009.309
394.6701, 5963.158
395.1522, 5929.024
395.6343, 5902.626
396.1164, 5876.972
396.5985, 5850.259
397.0807, 5827.424
397.5628, 5815.830
398.0449, 5818.471
398.5270, 5822.214
399.0091, 5839.755
399.4912, 5846.075
399.9734, 5817.108
400.4555, 5768.837
400.9376, 5736.383
401.4197, 5742.342
401.9018, 5773.744
402.3839, 5794.635
402.8660, 5802.824
403.3481, 5805.817
403.8303, 5791.292
404.3124, 5781.485
404.7945, 5798.155
405.2766, 5843.004
405.7587, 5890.011
406.2408, 5919.335
406.7230, 5935.108
407.2051, 5951.633
407.6872, 5969.803
408.1693, 5989.393
408.6514, 6011.038
409.1335, 6033.979
409.6157, 6056.269
410.0978, 6076.824
410.5799, 6097.544
411.0620, 6116.259
411.5441, 6135.921
412.0262, 6168.090
412.5084, 6219.180
412.9905, 6271.583
413.4726, 6296.133
413.9547, 6276.410
414.4368, 6272.611
414.9189, 6296.171
415.4011, 6325.911
415.8832, 6350.803
416.3653, 6369.998
416.8474, 6386.157
417.3295, 6401.145
417.8116, 6414.439
418.2938, 6424.347
418.7759, 6437.460
419.2580, 6435.212
419.7401, 6411.742
420.2222, 6376.376
420.7043, 6331.695
421.1865, 6280.390
421.6686, 6233.729
422.1507, 6207.137
422.6328, 6197.853
423.1149, 6177.771
423.5970, 6144.547
424.0792, 6103.412
424.5613, 6049.193
425.0434, 5990.971
425.5255, 5944.652
426.0076, 5916.850
426.4897, 5896.963
426.9719, 5877.675
427.4540, 5859.146
427.9361, 5840.945
428.4182, 5822.113
428.9003, 5806.242
429.3824, 5799.870
429.8646, 5805.327
430.3467, 5804.268
430.8288, 5782.669
431.3109, 5765.294
431.7930, 5774.686
432.2751, 5803.002
432.7573, 5824.689
433.2394, 5824.663
433.7215, 5810.977
434.2036, 5809.607
434.6857, 5839.484
435.1678, 5850.160
435.6500, 5818.811
436.1321, 5785.063
436.6142, 5775.449
437.0963, 5792.042
437.5784, 5823.311
438.0605, 5866.561
438.5427, 5916.989
439.0248, 5944.297
439.5069, 5938.101
439.9890, 5932.824
440.4711, 5941.851
440.9532, 5960.346
441.4354, 5987.495
441.9175, 6027.060
442.3996, 6057.899
442.8817, 6052.574
443.3638, 6027.726
443.8459, 6030.000
444.3281, 6070.600
444.8102, 6119.554
445.2923, 6151.836
445.7744, 6166.825
446.2565, 6178.914
446.7386, 6187.877
447.2208, 6194.095
447.7029, 6190.240
448.1850, 6185.405
448.6671, 6198.874
449.1492, 6237.399
449.6313, 6283.361
450.1135, 6307.434
450.5956, 6300.867
451.0777, 6299.393
451.5598, 6313.858
452.0419, 6322.521
452.5240, 6309.771
453.0062, 6284.690
453.4883, 6267.674
453.9704, 6271.598
454.4525, 6284.032
454.9346, 6279.538
455.4167, 6255.561
455.8989, 6232.906
456.3810, 6215.747
456.8631, 6202.788
457.3452, 6191.870
457.8273, 6183.110
458.3094, 6178.934
458.7916, 6187.743
459.2737, 6197.183
459.7558, 6188.620
460.2379, 6163.608
460.7200, 6142.706
461.2021, 6137.444
461.6843, 6143.026
462.1664, 6146.230
462.6485, 6147.176
463.1306, 6145.639
463.6127, 6135.783
464.0948, 6127.468
464.5770, 6130.526
465.0591, 6144.237
465.5412, 6159.801
466.0233, 6169.623
466.5054, 6175.324
466.9875, 6189.602
467.4697, 6225.273
467.9518, 6246.497
468.4339, 6234.354
468.9160, 6212.573
469.3981, 6199.207
469.8802, 6197.876
470.3624, 6208.006
470.8445, 6239.255
471.3266, 6281.759
471.8087, 6299.831
472.2908, 6286.170
472.7729, 6274.218
473.2551, 6288.368
473.7372, 6319.882
474.2193, 6338.212
474.7014, 6333.755
475.1835, 6331.283
475.6656, 6343.129
476.1478, 6361.318
476.6299, 6374.548
477.1120, 6380.757
477.5941, 6385.067
478.0762, 6391.533
478.5583, 6399.960
479.0405, 6418.183
479.5226, 6464.513
480.0047, 6499.523
480.4868, 6511.063
480.9689, 6509.400
481.4510, 6501.838
481.9332, 6491.488
482.4153, 6489.138
482.8974, 6518.202
483.3795, 6574.686
483.8616, 6592.740
484.3438, 6549.637
484.8259, 6505.938
485.3080, 6504.609
485.7901, 6528.985
486.2722, 6550.533
486.7543, 6561.140
487.2365, 6573.952
487.7186, 6603.729
488.2007, 6640.563
488.6828, 6661.469
489.1649, 6660.828
489.6470, 6655.857
490.1292, 6665.157
490.6113, 6690.436
491.0934, 6708.709
491.5755, 6716.127
492.0576, 6722.140
492.5397, 6722.013
493.0219, 6725.047
493.5040, 6749.098
493.9861, 6797.920
494.4682, 6846.426
494.9503, 6855.315
495.4324, 6822.133
495.9146, 6813.244
496.3967, 6846.030
496.8788, 6878.735
497.3609, 6884.216
497.8430, 6876.000
498.3251, 6878.084
498.8073, 6902.398
499.2894, 6923.846
499.7715, 6915.756
500.2536, 6891.152
500.7357, 6883.133
501.2178, 6899.511
501.6999, 6924.268
502.1820, 6942.191
502.6642, 6952.983
503.1463, 6968.786
503.6284, 6993.940
504.1105, 7018.114
504.5926, 7038.702
505.0747, 7056.424
505.5569, 7072.366
506.0390, 7086.797
506.5211, 7100.027
507.0032, 7111.962
507.4853, 7122.541
507.9674, 7132.998
508.4496, 7138.231
508.9317, 7152.145
509.4138, 7192.935
509.8959, 7241.262
510.3780, 7268.267
510.8601, 7263.416
511.3423, 7255.426
511.8244, 7261.269
512.3065, 7278.995
512.7886, 7306.551
513.2708, 7343.548
513.7529, 7384.457
514.2350, 7427.637
514.7171, 7471.434
515.1992, 7496.308
515.6813, 7483.612
516.1635, 7478.313
516.6456, 7491.288
517.1277, 7513.802
517.6098, 7540.054
518.0919, 7567.320
518.5740, 7590.021
519.0562, 7598.675
519.5383, 7597.568
520.0204, 7623.010
520.5025, 7689.305
520.9846, 7748.113
521.4667, 7775.089
521.9489, 7788.980
522.4310, 7806.636
522.9131, 7829.924
523.3952, 7854.459
523.8773, 7874.958
524.3594, 7897.007
524.8416, 7929.527
525.3237, 7972.581
525.8058, 8020.214
526.2879, 8070.563
526.7700, 8120.960
527.2521, 8161.707
527.7343, 8170.762
528.2164, 8202.720
528.6985, 8287.822
529.1806, 8370.534
529.6627, 8405.805
530.1448, 8402.910
530.6270, 8403.736
531.1091, 8436.478
531.5912, 8486.083
532.0733, 8516.833
532.5554, 8525.566
533.0375, 8536.806
533.5197, 8552.326
534.0018, 8577.330
534.4839, 8622.337
534.9660, 8684.387
535.4481, 8737.127
535.9302, 8766.145
536.4124, 8789.959
536.8945, 8822.186
537.3766, 8860.728
537.8587, 8900.171
538.3408, 8938.416
538.8229, 8973.817
539.3051, 9003.013
539.7872, 9022.565
540.2693, 9050.008
540.7514, 9094.106
541.2335, 9136.357
541.7156, 9172.881
542.1978, 9203.536
542.6799, 9228.036
543.1620, 9246.021
543.6441, 9261.459
544.1262, 9278.494
544.6083, 9296.690
545.0905, 9316.776
545.5726, 9342.244
546.0547, 9353.309
546.5368, 9323.755
547.0189, 9269.422
547.5010, 9256.763
547.9832, 9314.289
548.4653, 9369.423
548.9474, 9412.996
549.4295, 9438.507
549.9116, 9428.979
550.3937, 9389.607
550.8758, 9351.736
551.3579, 9342.459
551.8400, 9352.888
552.3221, 9338.658
552.8043, 9282.341
553.2864, 9242.968
553.7685, 9259.922
554.2506, 9279.010
554.7327, 9257.460
555.2148, 9198.249
555.6970, 9142.915
556.1791, 9110.079
556.6612, 9091.132
557.1433, 9086.256
557.6254, 9089.338
558.1075, 9068.528
558.5897, 9007.855
559.0718, 8938.690
559.5539, 8908.736
560.0360, 8931.052
560.5181, 8939.629
561.0002, 8923.456
561.4824, 8907.649
561.9645, 8902.219
562.4466, 8902.838
562.9287, 8901.914
563.4108, 8896.941
563.8929, 8893.402
564.3751, 8905.100
564.8572, 8926.931
565.3393, 8917.980
565.8214, 8865.109
566.3035, 8818.527
566.7856, 8809.637
567.2678, 8828.129
567.7499, 8844.219
568.2320, 8855.854
568.7141, 8869.499
569.1962, 8893.599
569.6783, 8915.952
570.1605, 8923.923
570.6426, 8918.359
571.1247, 8905.856
571.6068, 8888.873
572.0889, 8874.743
572.5710, 8890.540
573.0532, 8955.372
573.5353, 8989.922
574.0174, 8952.859
574.4995, 8912.870
574.9816, 8916.031
575.4637, 8950.763
575.9459, 8976.572
576.4280, 8977.294
576.9101, 8967.389
577.3922, 8950.929
577.8743, 8933.878
578.3564, 8933.193
578.8386, 8953.055
579.3207, 8981.642
579.8028, 9009.854
580.2849, 9037.426
580.7670, 9046.801
581.2491, 9015.724
581.7313, 8993.361
582.2134, 8995.634
582.6955, 9003.265
583.1776, 8995.642
583.6597, 8972.590
584.1418, 8953.579
584.6240, 8956.701
585.1061, 8971.792
585.5882, 8975.176
586.0703, 8967.017
586.5524, 8967.200
587.0345, 8985.803
587.5167, 9010.642
587.9988, 9024.620
588.4809, 9025.607
588.9630, 9025.861
589.4451, 9020.271
589.9272, 9019.674
590.4094, 8964.910
590.8915, 9051.060
591.3736, 9101.385
591.8557, 9117.810
592.3378, 8998.799
592.8199, 9054.675
593.3021, 9040.465
593.7842, 9023.380
594.2663, 9103.870
594.7484, 9004.559
595.2305, 9083.502
595.7126, 9091.288
596.1948, 9131.643
596.6769, 9100.975
597.1590, 9120.203
597.6411, 9141.254
598.1232, 9160.308
598.6053, 9167.044
599.0875, 9168.637
599.5696, 9190.466
600.0517, 9245.453
600.5338, 9306.837
601.0159, 9320.104
601.4980, 9271.604
601.9802, 9247.374
602.4623, 9264.979
602.9444, 9285.556
603.4265, 9289.138
603.9086, 9283.927
604.3907, 9283.385
604.8729, 9291.441
605.3550, 9299.016
605.8371, 9298.047
606.3192, 9295.033
606.8013, 9301.989
607.2834, 9317.763
607.7656, 9327.942
608.2477, 9322.801
608.7298, 9309.075
609.2119, 9306.746
609.6940, 9327.775
610.1761, 9332.491
610.6583, 9296.092
611.1404, 9265.786
611.6225, 9271.443
612.1046, 9297.743
612.5867, 9310.148
613.0688, 9292.646
613.5510, 9272.716
614.0331, 9275.381
614.5152, 9292.746
614.9973, 9307.834
615.4794, 9318.205
615.9615, 9327.358
616.4437, 9338.648
616.9258, 9349.683
617.4079, 9350.006
617.8900, 9327.437
618.3721, 9313.934
618.8542, 9315.845
