##NAMES=Holmquistite
##RRUFFID=R070004
##IDEAL CHEMISTRY=[box]Li_2_(Mg_3_Al_2_)Si_8_O_22_(OH)_2_
##LOCALITY=Uto, Sodermanland, Sweden
##OWNER=RRUFF
##SOURCE=Michael Scott
##DESCRIPTION=Mass of dark blue thin bladed crystals
##STATUS=The identification of this mineral has been confirmed only by single crystal X-ray diffraction.
##URL=rruff.info/R070004
160.3054, 2477.420
160.7875, 2492.545
161.2696, 2530.992
161.7517, 2573.292
162.2338, 2612.769
162.7160, 2649.650
163.1981, 2687.029
163.6802, 2725.478
164.1623, 2765.429
164.6444, 2807.340
165.1265, 2853.224
165.6087, 2899.970
166.0908, 2942.685
166.5729, 2980.748
167.0550, 3025.377
167.5371, 3083.262
168.0192, 3152.250
168.5014, 3229.198
168.9835, 3307.791
169.4656, 3395.941
169.9477, 3502.635
170.4298, 3632.516
170.9119, 3765.845
171.3941, 3884.440
171.8762, 3993.274
172.3583, 4107.954
172.8404, 4239.314
173.3225, 4380.940
173.8046, 4522.192
174.2868, 4658.108
174.7689, 4799.574
175.2510, 4961.320
175.7331, 5140.616
176.2152, 5319.925
176.6973, 5484.473
177.1795, 5643.691
177.6616, 5813.294
178.1437, 5997.566
178.6258, 6192.901
179.1079, 6395.658
179.5900, 6606.636
180.0722, 6812.030
180.5543, 6992.258
181.0364, 7159.278
181.5185, 7344.565
182.0006, 7568.557
182.4827, 7810.964
182.9649, 8039.226
183.4470, 8250.452
183.9291, 8467.999
184.4112, 8718.051
184.8933, 8996.224
185.3754, 9268.541
185.8576, 9532.689
186.3397, 9783.394
186.8218, 10011.61
187.3039, 10219.19
187.7860, 10393.86
188.2681, 10529.30
188.7503, 10623.35
189.2324, 10663.79
189.7145, 10649.38
190.1966, 10577.91
190.6787, 10432.27
191.1608, 10207.54
191.6430, 9922.428
192.1251, 9591.813
192.6072, 9216.309
193.0893, 8817.151
193.5714, 8397.634
194.0535, 7955.846
194.5357, 7517.187
195.0178, 7078.280
195.4999, 6659.367
195.9820, 6299.671
196.4641, 6004.090
196.9462, 5746.813
197.4284, 5517.512
197.9105, 5316.584
198.3926, 5130.561
198.8747, 4957.998
199.3568, 4799.688
199.8389, 4656.177
200.3211, 4526.011
200.8032, 4416.667
201.2853, 4340.079
201.7674, 4300.521
202.2495, 4255.589
202.7316, 4196.698
203.2138, 4128.959
203.6959, 4076.114
204.1780, 4040.939
204.6601, 4013.020
205.1422, 3981.564
205.6243, 3943.223
206.1065, 3919.001
206.5886, 3916.055
207.0707, 3931.808
207.5528, 3943.408
208.0349, 3949.077
208.5170, 3954.025
208.9992, 3962.732
209.4813, 3974.978
209.9634, 3992.204
210.4455, 4016.520
210.9276, 4047.546
211.4097, 4073.920
211.8919, 4091.684
212.3740, 4110.501
212.8561, 4144.252
213.3382, 4200.441
213.8203, 4251.119
214.3024, 4291.287
214.7846, 4321.307
215.2667, 4332.383
215.7488, 4321.274
216.2309, 4294.894
216.7130, 4261.009
217.1951, 4216.794
217.6773, 4171.268
218.1594, 4127.568
218.6415, 4086.609
219.1236, 4039.381
219.6057, 3980.619
220.0878, 3918.902
220.5700, 3869.430
221.0521, 3835.219
221.5342, 3806.640
222.0163, 3781.491
222.4984, 3762.402
222.9805, 3737.232
223.4627, 3703.062
223.9448, 3664.812
224.4269, 3632.605
224.9090, 3605.583
225.3911, 3585.658
225.8732, 3575.849
226.3554, 3584.530
226.8375, 3579.547
227.3196, 3554.597
227.8017, 3518.477
228.2838, 3491.105
228.7659, 3473.980
229.2481, 3463.670
229.7302, 3459.640
230.2123, 3465.016
230.6944, 3469.945
231.1765, 3476.584
231.6587, 3482.244
232.1408, 3478.060
232.6229, 3457.581
233.1050, 3436.385
233.5871, 3421.025
234.0692, 3408.511
234.5514, 3409.105
235.0335, 3431.281
235.5156, 3466.438
235.9977, 3483.452
236.4798, 3470.558
236.9619, 3455.498
237.4441, 3454.019
237.9262, 3475.623
238.4083, 3490.765
238.8904, 3495.873
239.3725, 3493.108
239.8546, 3491.215
240.3368, 3484.742
240.8189, 3486.144
241.3010, 3506.020
241.7831, 3562.992
242.2652, 3599.182
242.7473, 3601.687
243.2295, 3577.624
243.7116, 3568.798
244.1937, 3580.390
244.6758, 3600.377
245.1579, 3622.150
245.6400, 3648.560
246.1222, 3671.154
246.6043, 3691.149
247.0864, 3707.404
247.5685, 3710.115
248.0506, 3690.373
248.5327, 3668.846
249.0149, 3658.728
249.4970, 3660.439
249.9791, 3673.827
250.4612, 3706.336
250.9433, 3753.907
251.4254, 3778.983
251.9076, 3771.993
252.3897, 3755.454
252.8718, 3745.631
253.3539, 3747.303
253.8360, 3744.463
254.3181, 3732.604
254.8003, 3713.352
255.2824, 3702.755
255.7645, 3706.207
256.2466, 3710.658
256.7287, 3705.425
257.2108, 3685.733
257.6930, 3668.175
258.1751, 3654.806
258.6572, 3645.434
259.1393, 3640.140
259.6214, 3642.855
260.1035, 3643.755
260.5857, 3633.019
261.0678, 3603.346
261.5499, 3582.867
262.0320, 3578.648
262.5141, 3588.310
262.9962, 3591.054
263.4784, 3586.302
263.9605, 3575.545
264.4426, 3558.737
264.9247, 3533.437
265.4068, 3509.264
265.8889, 3485.555
266.3711, 3463.618
266.8532, 3454.113
267.3353, 3463.318
267.8174, 3472.896
268.2995, 3464.046
268.7816, 3428.988
269.2638, 3409.928
269.7459, 3421.747
270.2280, 3456.228
270.7101, 3460.781
271.1922, 3424.869
271.6743, 3383.323
272.1565, 3369.105
272.6386, 3388.792
273.1207, 3395.606
273.6028, 3377.430
274.0849, 3340.807
274.5670, 3315.083
275.0492, 3300.422
275.5313, 3296.864
276.0134, 3310.042
276.4955, 3342.596
276.9776, 3363.338
277.4597, 3363.720
277.9419, 3349.194
278.4240, 3340.558
278.9061, 3338.622
279.3882, 3339.160
279.8703, 3336.237
280.3524, 3329.485
280.8346, 3334.593
281.3167, 3358.107
281.7988, 3392.805
282.2809, 3416.578
282.7630, 3428.502
283.2451, 3435.867
283.7273, 3441.015
284.2094, 3444.400
284.6915, 3457.140
285.1736, 3484.927
285.6557, 3519.583
286.1378, 3537.837
286.6200, 3538.562
287.1021, 3540.264
287.5842, 3560.128
288.0663, 3595.138
288.5484, 3623.320
289.0305, 3637.256
289.5127, 3647.757
289.9948, 3683.276
290.4769, 3743.357
290.9590, 3797.073
291.4411, 3813.238
291.9232, 3802.009
292.4054, 3807.509
292.8875, 3841.024
293.3696, 3885.567
293.8517, 3912.422
294.3338, 3923.064
294.8159, 3930.275
295.2981, 3943.635
295.7802, 3960.137
296.2623, 3970.093
296.7444, 3969.561
297.2265, 3968.157
297.7086, 3979.850
298.1908, 4002.758
298.6729, 4027.737
299.1550, 4051.674
299.6371, 4073.396
300.1192, 4090.338
300.6013, 4101.280
301.0835, 4110.106
301.5656, 4122.492
302.0477, 4136.702
302.5298, 4146.550
303.0119, 4149.928
303.4940, 4146.522
303.9762, 4135.064
304.4583, 4114.603
304.9404, 4089.837
305.4225, 4065.896
305.9046, 4041.233
306.3867, 4011.758
306.8689, 3977.111
307.3510, 3935.756
307.8331, 3883.751
308.3152, 3818.563
308.7973, 3756.523
309.2794, 3712.293
309.7616, 3679.606
310.2437, 3647.014
310.7258, 3612.173
311.2079, 3574.209
311.6900, 3528.018
312.1721, 3472.217
312.6543, 3424.918
313.1364, 3400.404
313.6185, 3389.221
314.1006, 3379.139
314.5827, 3367.927
315.0648, 3354.654
315.5470, 3336.832
316.0291, 3314.266
316.5112, 3295.438
316.9933, 3284.224
317.4754, 3278.476
317.9576, 3275.973
318.4397, 3281.598
318.9218, 3285.197
319.4039, 3284.593
319.8860, 3279.605
320.3681, 3267.711
320.8503, 3232.354
321.3324, 3198.054
321.8145, 3184.146
322.2966, 3220.512
322.7787, 3249.705
323.2608, 3257.912
323.7430, 3246.616
324.2251, 3234.720
324.7072, 3218.689
325.1893, 3206.404
325.6714, 3202.632
326.1535, 3217.506
326.6357, 3229.552
327.1178, 3233.002
327.5999, 3230.636
328.0820, 3238.090
328.5641, 3266.835
329.0462, 3295.292
329.5284, 3312.472
330.0105, 3302.251
330.4926, 3306.167
330.9747, 3330.437
331.4568, 3368.907
331.9389, 3403.627
332.4211, 3434.194
332.9032, 3461.060
333.3853, 3483.630
333.8674, 3498.685
334.3495, 3518.617
334.8316, 3545.250
335.3138, 3575.853
335.7959, 3606.363
336.2780, 3640.176
336.7601, 3665.105
337.2422, 3672.181
337.7243, 3657.667
338.2065, 3657.201
338.6886, 3673.791
339.1707, 3699.755
339.6528, 3726.663
340.1349, 3756.514
340.6170, 3777.042
341.0992, 3781.088
341.5813, 3770.553
342.0634, 3766.762
342.5455, 3770.379
343.0276, 3778.500
343.5097, 3790.644
343.9919, 3806.668
344.4740, 3816.339
344.9561, 3813.978
345.4382, 3804.269
345.9203, 3802.768
346.4024, 3809.988
346.8846, 3816.832
347.3667, 3813.309
347.8488, 3802.009
348.3309, 3792.594
348.8130, 3785.943
349.2951, 3784.154
349.7773, 3796.334
350.2594, 3820.437
350.7415, 3838.473
351.2236, 3831.328
351.7057, 3810.366
352.1878, 3796.179
352.6700, 3792.328
353.1521, 3796.460
353.6342, 3814.988
354.1163, 3841.682
354.5984, 3856.590
355.0806, 3832.109
355.5627, 3798.277
356.0448, 3788.785
356.5269, 3813.639
357.0090, 3840.173
357.4911, 3836.323
357.9733, 3819.823
358.4554, 3822.388
358.9375, 3880.565
359.4196, 3944.893
359.9017, 3982.135
360.3839, 3986.063
360.8660, 3993.684
361.3481, 4028.923
361.8302, 4072.697
362.3123, 4103.593
362.7944, 4095.703
363.2766, 4093.048
363.7587, 4114.124
364.2408, 4159.220
364.7229, 4199.865
365.2050, 4220.081
365.6871, 4239.771
366.1693, 4273.471
366.6514, 4327.701
367.1335, 4390.365
367.6156, 4472.074
368.0977, 4567.225
368.5798, 4634.796
369.0620, 4643.432
369.5441, 4652.834
370.0262, 4692.512
370.5083, 4789.801
370.9904, 4869.758
371.4725, 4921.211
371.9547, 4958.287
372.4368, 5017.223
372.9189, 5107.818
373.4010, 5201.175
373.8831, 5283.632
374.3652, 5349.493
374.8474, 5434.394
375.3295, 5548.398
375.8116, 5668.529
376.2937, 5757.242
376.7758, 5805.064
377.2579, 5867.137
377.7401, 5971.055
378.2222, 6109.004
378.7043, 6205.074
379.1864, 6251.961
379.6685, 6284.998
380.1506, 6336.337
380.6328, 6405.258
381.1149, 6485.462
381.5970, 6583.254
382.0791, 6685.869
382.5612, 6762.157
383.0433, 6813.679
383.5255, 6861.671
384.0076, 6933.960
384.4897, 7014.051
384.9718, 7065.750
385.4539, 7077.742
385.9360, 7069.493
386.4182, 7068.875
386.9003, 7068.213
387.3824, 7042.036
387.8645, 6965.528
388.3466, 6861.165
388.8287, 6753.465
389.3109, 6647.629
389.7930, 6524.669
390.2751, 6364.583
390.7572, 6181.245
391.2393, 5996.850
391.7214, 5814.242
392.2036, 5635.587
392.6857, 5454.496
393.1678, 5270.829
393.6499, 5107.424
394.1320, 4982.924
394.6141, 4876.733
395.0963, 4772.917
395.5784, 4669.690
396.0605, 4566.101
396.5426, 4452.331
397.0247, 4333.886
397.5068, 4244.690
397.9890, 4215.806
398.4711, 4195.753
398.9532, 4158.763
399.4353, 4075.651
399.9174, 4024.793
400.3995, 4027.621
400.8817, 4056.959
401.3638, 4054.408
401.8459, 3994.566
402.3280, 3945.079
402.8101, 3930.066
403.2922, 3954.054
403.7744, 3980.592
404.2565, 4011.488
404.7386, 4042.373
405.2207, 4069.048
405.7028, 4091.210
406.1849, 4110.155
406.6671, 4122.405
407.1492, 4132.133
407.6313, 4160.711
408.1134, 4210.296
408.5955, 4264.525
409.0776, 4310.643
409.5598, 4349.797
410.0419, 4391.282
410.5240, 4437.339
411.0061, 4485.035
411.4882, 4531.524
411.9703, 4575.833
412.4525, 4613.968
412.9346, 4637.139
413.4167, 4654.294
413.8988, 4681.667
414.3809, 4722.092
414.8630, 4759.734
415.3452, 4777.372
415.8273, 4782.973
416.3094, 4789.953
416.7915, 4814.263
417.2736, 4833.814
417.7557, 4834.351
418.2379, 4816.045
418.7200, 4785.129
419.2021, 4737.659
419.6842, 4682.141
420.1663, 4625.901
420.6484, 4583.531
421.1306, 4524.629
421.6127, 4432.937
422.0948, 4318.216
422.5769, 4208.369
423.0590, 4114.483
423.5411, 4021.547
424.0233, 3922.493
424.5054, 3811.176
424.9875, 3711.736
425.4696, 3626.772
425.9517, 3553.338
426.4338, 3487.310
426.9160, 3432.486
427.3981, 3378.897
427.8802, 3322.990
428.3623, 3265.142
428.8444, 3215.471
429.3265, 3174.424
429.8087, 3140.713
430.2908, 3112.628
430.7729, 3090.106
431.2550, 3075.902
431.7371, 3071.116
432.2192, 3074.047
432.7014, 3084.927
433.1835, 3103.646
433.6656, 3116.254
434.1477, 3107.411
434.6298, 3085.353
435.1119, 3077.101
435.5941, 3085.144
436.0762, 3101.057
436.5583, 3119.739
437.0404, 3139.524
437.5225, 3156.369
438.0046, 3168.119
438.4868, 3176.501
438.9689, 3178.624
439.4510, 3176.041
439.9331, 3182.674
440.4152, 3209.619
440.8973, 3248.418
441.3795, 3293.509
441.8616, 3355.626
442.3437, 3403.308
442.8258, 3410.820
443.3079, 3394.280
443.7900, 3388.744
444.2722, 3412.009
444.7543, 3440.931
445.2364, 3466.190
445.7185, 3484.693
446.2006, 3508.443
446.6827, 3547.649
447.1649, 3587.684
447.6470, 3613.564
448.1291, 3612.417
448.6112, 3618.492
449.0933, 3642.478
449.5754, 3679.196
450.0576, 3696.223
450.5397, 3686.758
451.0218, 3671.537
451.5039, 3664.963
451.9860, 3669.688
452.4681, 3661.028
452.9503, 3635.952
453.4324, 3600.391
453.9145, 3561.814
454.3966, 3520.104
454.8787, 3478.529
455.3608, 3441.271
455.8430, 3404.369
456.3251, 3354.246
456.8072, 3291.043
457.2893, 3224.349
457.7714, 3155.809
458.2535, 3091.006
458.7357, 3043.641
459.2178, 3022.665
459.6999, 3009.957
460.1820, 2993.085
460.6641, 2971.482
461.1462, 2943.496
461.6284, 2894.470
462.1105, 2848.125
462.5926, 2823.135
463.0747, 2824.746
463.5568, 2827.783
464.0389, 2828.177
464.5211, 2823.485
465.0032, 2810.985
465.4853, 2775.306
465.9674, 2747.835
466.4495, 2737.962
466.9316, 2744.066
467.4138, 2748.919
467.8959, 2753.581
468.3780, 2755.864
468.8601, 2753.628
469.3422, 2742.214
469.8243, 2738.880
470.3065, 2746.224
470.7886, 2759.077
471.2707, 2770.163
471.7528, 2780.393
472.2349, 2783.613
472.7170, 2773.917
473.1992, 2755.356
473.6813, 2748.882
474.1634, 2754.980
474.6455, 2768.207
475.1276, 2789.919
475.6097, 2815.862
476.0919, 2829.845
476.5740, 2826.119
477.0561, 2816.368
477.5382, 2813.479
478.0203, 2816.069
478.5024, 2819.962
478.9846, 2825.262
479.4667, 2829.439
479.9488, 2827.307
480.4309, 2818.179
480.9130, 2815.700
481.3951, 2837.417
481.8773, 2864.402
482.3594, 2878.689
482.8415, 2851.811
483.3236, 2837.852
483.8057, 2864.294
484.2878, 2916.709
484.7700, 2943.926
485.2521, 2906.906
485.7342, 2875.742
486.2163, 2877.053
486.6984, 2922.954
487.1805, 2954.579
487.6627, 2966.109
488.1448, 2969.083
488.6269, 2975.641
489.1090, 2986.124
489.5911, 2999.296
490.0732, 3016.121
490.5554, 3034.964
491.0375, 3050.143
491.5196, 3061.405
492.0017, 3072.897
492.4838, 3089.322
492.9659, 3108.528
493.4481, 3123.633
493.9302, 3134.041
494.4123, 3139.924
494.8944, 3136.680
495.3765, 3128.957
495.8586, 3127.419
496.3408, 3143.520
496.8229, 3161.517
497.3050, 3168.114
497.7871, 3164.713
498.2692, 3159.288
498.7513, 3156.074
499.2335, 3152.146
499.7156, 3143.443
500.1977, 3122.685
500.6798, 3113.958
501.1619, 3139.207
501.6440, 3175.137
502.1262, 3189.051
502.6083, 3153.569
503.0904, 3124.239
503.5725, 3113.062
504.0546, 3118.448
504.5367, 3118.070
505.0189, 3107.571
505.5010, 3098.736
505.9831, 3098.797
506.4652, 3108.469
506.9473, 3123.986
507.4294, 3147.631
507.9116, 3172.196
508.3937, 3187.042
508.8758, 3192.425
509.3579, 3193.592
509.8400, 3182.829
510.3221, 3173.905
510.8043, 3205.034
511.2864, 3272.728
511.7685, 3336.864
512.2506, 3363.141
512.7327, 3370.433
513.2148, 3383.070
513.6970, 3407.050
514.1791, 3431.822
514.6612, 3451.452
515.1433, 3467.359
515.6254, 3482.177
516.1075, 3489.711
516.5897, 3503.090
517.0718, 3532.020
517.5539, 3575.991
518.0360, 3609.722
518.5181, 3614.325
519.0002, 3620.759
519.4824, 3645.747
519.9645, 3704.036
520.4466, 3748.562
520.9287, 3772.365
521.4108, 3788.364
521.8929, 3816.955
522.3751, 3859.093
522.8572, 3909.354
523.3393, 3971.958
523.8214, 4040.205
524.3035, 4078.640
524.7856, 4086.406
525.2678, 4093.714
525.7499, 4124.042
526.2320, 4171.196
526.7141, 4221.549
527.1962, 4273.389
527.6783, 4323.819
528.1605, 4368.808
528.6426, 4410.059
529.1247, 4451.551
529.6068, 4497.522
530.0889, 4541.821
530.5710, 4582.425
531.0532, 4618.532
531.5353, 4650.193
532.0174, 4665.138
532.4995, 4684.493
532.9816, 4721.500
533.4637, 4791.051
533.9459, 4847.808
534.4280, 4883.065
534.9101, 4909.917
535.3922, 4945.066
535.8743, 4995.436
536.3564, 5036.355
536.8386, 5057.403
537.3207, 5066.887
537.8028, 5105.021
538.2849, 5176.517
538.7670, 5247.264
539.2491, 5296.428
539.7313, 5327.291
540.2134, 5352.326
540.6955, 5370.894
541.1776, 5394.391
541.6597, 5442.927
542.1418, 5504.651
542.6240, 5553.764
543.1061, 5574.263
543.5882, 5590.209
544.0703, 5628.695
544.5524, 5679.095
545.0345, 5711.630
545.5167, 5694.705
545.9988, 5671.246
546.4809, 5667.155
546.9630, 5689.380
547.4451, 5698.206
547.9272, 5673.515
548.4094, 5642.187
548.8915, 5626.056
549.3736, 5643.096
549.8557, 5641.704
550.3378, 5612.810
550.8199, 5566.954
551.3021, 5526.950
551.7842, 5494.253
552.2663, 5461.033
552.7484, 5428.956
553.2305, 5394.258
553.7126, 5331.510
554.1948, 5238.878
554.6769, 5147.284
555.1590, 5088.903
555.6411, 5049.017
556.1232, 4997.173
556.6053, 4926.464
557.0875, 4850.116
557.5696, 4773.618
558.0517, 4699.685
558.5338, 4635.276
559.0159, 4585.147
559.4980, 4541.368
559.9802, 4504.154
560.4623, 4471.866
560.9444, 4434.608
561.4265, 4374.478
561.9086, 4321.881
562.3907, 4294.828
562.8729, 4306.462
563.3550, 4299.435
563.8371, 4262.050
564.3192, 4218.696
564.8013, 4198.192
565.2834, 4205.443
565.7656, 4209.038
566.2477, 4202.976
566.7298, 4190.196
567.2119, 4176.584
567.6940, 4162.061
568.1761, 4146.470
568.6583, 4130.233
569.1404, 4112.609
569.6225, 4089.837
570.1046, 4062.336
570.5867, 4037.654
571.0688, 4019.025
571.5510, 4007.429
572.0331, 4006.213
572.5152, 4025.422
572.9973, 4036.326
573.4794, 4014.408
573.9615, 3979.740
574.4437, 3966.388
574.9258, 4013.130
575.4079, 4043.656
575.8900, 4036.948
576.3721, 3997.126
576.8542, 3966.729
577.3364, 3946.366
577.8185, 3934.240
578.3006, 3932.982
578.7827, 3943.563
579.2648, 3945.973
579.7469, 3939.524
580.2291, 3926.607
580.7112, 3905.905
581.1933, 3880.243
581.6754, 3860.786
582.1575, 3853.221
582.6396, 3849.438
583.1218, 3840.390
583.6039, 3827.560
584.0860, 3815.182
584.5681, 3800.715
585.0502, 3790.933
585.5323, 3794.287
586.0145, 3811.032
586.4966, 3819.995
586.9787, 3807.920
587.4608, 3791.626
587.9429, 3781.267
588.4250, 3775.555
588.9072, 3779.196
589.3893, 3796.844
589.8714, 3820.019
590.3535, 3838.456
590.8356, 3852.795
591.3177, 3858.387
591.7999, 3851.140
592.2820, 3836.703
592.7641, 3827.521
593.2462, 3823.867
593.7283, 3831.464
594.2104, 3866.700
594.6926, 3910.615
595.1747, 3926.829
595.6568, 3913.562
596.1389, 3902.225
596.6210, 3917.442
597.1031, 3944.844
597.5853, 3970.576
598.0674, 3995.495
598.5495, 4011.484
599.0316, 4011.621
599.5137, 4002.488
599.9958, 3994.934
600.4780, 3985.879
600.9601, 3984.143
601.4423, 3996.247
601.9244, 4017.879
602.4065, 4025.629
602.8886, 4017.675
603.3707, 4001.332
603.8528, 3980.125
604.3350, 3954.080
604.8171, 3920.033
605.2992, 3876.912
605.7813, 3831.748
606.2634, 3792.537
606.7455, 3755.344
607.2277, 3709.604
607.7098, 3649.658
608.1919, 3589.767
608.6740, 3545.104
609.1561, 3507.972
609.6382, 3466.274
610.1204, 3415.110
610.6025, 3358.215
611.0846, 3295.395
611.5667, 3226.798
612.0488, 3158.386
612.5309, 3092.059
613.0131, 3022.758
613.4952, 2946.485
613.9773, 2859.308
614.4594, 2787.607
614.9415, 2732.573
615.4236, 2690.197
615.9058, 2663.007
616.3879, 2648.766
616.8700, 2623.543
617.3521, 2579.257
617.8342, 2534.831
618.3163, 2520.445
618.7985, 2525.668
619.2806, 2524.801
619.7627, 2502.429
620.2448, 2473.648
620.7269, 2445.931
621.2090, 2420.093
621.6912, 2398.368
622.1733, 2378.732
622.6554, 2365.808
623.1375, 2365.955
623.6196, 2384.963
624.1017, 2386.040
624.5839, 2355.957
625.0660, 2323.403
625.5481, 2310.018
626.0302, 2318.054
626.5123, 2335.055
626.9944, 2365.290
627.4766, 2392.494
627.9587, 2383.634
628.4408, 2345.572
628.9229, 2319.681
629.4050, 2323.612
629.8871, 2342.011
630.3693, 2363.668
630.8514, 2385.527
631.3335, 2397.385
631.8156, 2380.534
632.2977, 2362.888
632.7798, 2364.440
633.2620, 2387.026
633.7441, 2405.100
634.2262, 2407.809
634.7083, 2409.235
635.1904, 2416.674
635.6725, 2429.524
636.1547, 2452.145
636.6368, 2491.221
637.1189, 2529.997
637.6010, 2544.489
638.0831, 2534.227
638.5652, 2529.035
639.0474, 2535.628
639.5295, 2549.241
640.0116, 2560.311
640.4937, 2570.956
640.9758, 2589.058
641.4579, 2629.630
641.9401, 2670.904
642.4222, 2692.912
642.9043, 2697.594
643.3864, 2698.928
643.8685, 2694.359
644.3506, 2694.575
644.8328, 2705.493
645.3149, 2729.318
645.7970, 2759.449
646.2791, 2807.806
646.7612, 2849.361
647.2433, 2854.783
647.7255, 2811.353
648.2076, 2804.773
648.6897, 2850.034
649.1718, 2917.261
649.6539, 2962.457
650.1360, 2989.074
650.6182, 3012.632
651.1003, 3035.688
651.5824, 3061.632
652.0645, 3091.091
652.5466, 3125.845
653.0287, 3170.849
653.5109, 3237.896
653.9930, 3308.223
654.4751, 3372.947
654.9572, 3431.290
655.4393, 3486.361
655.9214, 3530.714
656.4036, 3578.684
656.8857, 3637.917
657.3678, 3710.390
657.8499, 3782.208
658.3320, 3848.285
