##NAMES=Holtite
##RRUFFID=R061049
##IDEAL CHEMISTRY=(Ta_0.6_[box]_0.4_)Al_6_BSi_3_O_18_
##LOCALITY=Kola Peninsula, U.S.S.R.
##OWNER=RRUFF
##SOURCE=Michael Scott
##DESCRIPTION=Blocky crystals; as pseudohexagonal elongated needles, light buff to cream-buff or deep olive-buff in color. Crystals are twinned by a 2-fold rotation around [010].
##STATUS=The identification of this mineral has been confirmed only by single crystal X-ray diffraction.
##URL=rruff.info/R061049
108.9927, 315.7804
109.4749, 313.1699
109.9570, 317.0970
110.4391, 324.7386
110.9212, 332.7403
111.4033, 339.6139
111.8854, 346.1126
112.3676, 354.6149
112.8497, 368.9731
113.3318, 380.7197
113.8139, 385.9593
114.2960, 387.2104
114.7781, 389.6465
115.2603, 396.2186
115.7424, 405.8385
116.2245, 413.8079
116.7066, 417.3094
117.1887, 422.0295
117.6708, 431.2123
118.1530, 444.1987
118.6351, 457.2657
119.1172, 466.1296
119.5993, 473.9203
120.0814, 491.7816
120.5635, 525.3522
121.0457, 564.9189
121.5278, 600.4328
122.0099, 631.6205
122.4920, 671.2867
122.9741, 732.9767
123.4562, 810.5480
123.9384, 886.4543
124.4205, 956.0749
124.9026, 1023.333
125.3847, 1093.054
125.8668, 1165.791
126.3489, 1240.866
126.8311, 1318.622
127.3132, 1398.553
127.7953, 1481.282
128.2774, 1571.807
128.7595, 1664.958
129.2416, 1749.743
129.7238, 1827.026
130.2059, 1892.454
130.6880, 1946.502
131.1701, 1988.750
131.6522, 2014.994
132.1343, 2019.177
132.6165, 2004.302
133.0986, 1982.504
133.5807, 1943.962
134.0628, 1912.453
134.5449, 1902.046
135.0270, 1909.571
135.5092, 1923.350
135.9913, 1931.029
136.4734, 1933.228
136.9555, 1954.787
137.4376, 2008.174
137.9197, 2072.047
138.4019, 2131.241
138.8840, 2188.496
139.3661, 2260.100
139.8482, 2365.744
140.3303, 2511.077
140.8124, 2649.607
141.2946, 2772.600
141.7767, 2893.908
142.2588, 3018.108
142.7409, 3145.923
143.2230, 3278.825
143.7051, 3421.191
144.1873, 3579.568
144.6694, 3722.532
145.1515, 3839.771
145.6336, 3950.214
146.1157, 4069.239
146.5978, 4196.602
147.0800, 4315.333
147.5621, 4401.250
148.0442, 4443.092
148.5263, 4478.159
149.0084, 4509.252
149.4906, 4534.136
149.9727, 4552.384
150.4548, 4563.502
150.9369, 4565.783
151.4190, 4555.351
151.9011, 4523.900
152.3833, 4494.388
152.8654, 4468.563
153.3475, 4443.781
153.8296, 4417.147
154.3117, 4388.178
154.7938, 4359.981
155.2760, 4338.037
155.7581, 4319.360
156.2402, 4313.330
156.7223, 4325.841
157.2044, 4346.797
157.6865, 4366.927
158.1687, 4383.010
158.6508, 4399.202
159.1329, 4423.890
159.6150, 4462.479
160.0971, 4503.879
160.5792, 4549.273
161.0614, 4596.724
161.5435, 4643.773
162.0256, 4689.271
162.5077, 4734.621
162.9898, 4783.032
163.4719, 4841.664
163.9541, 4894.460
164.4362, 4933.417
164.9183, 4968.454
165.4004, 5013.923
165.8825, 5076.361
166.3646, 5145.177
166.8468, 5193.770
167.3289, 5213.924
167.8110, 5224.043
168.2931, 5218.339
168.7752, 5205.436
169.2573, 5197.036
169.7395, 5198.225
170.2216, 5205.422
170.7037, 5208.811
171.1858, 5206.551
171.6679, 5203.519
172.1500, 5202.696
172.6322, 5201.170
173.1143, 5191.994
173.5964, 5170.768
174.0785, 5145.227
174.5606, 5138.027
175.0427, 5162.789
175.5249, 5184.047
176.0070, 5193.517
176.4891, 5195.089
176.9712, 5193.710
177.4533, 5190.445
177.9354, 5188.066
178.4176, 5195.855
178.8997, 5221.332
179.3818, 5243.560
179.8639, 5256.204
180.3460, 5262.184
180.8281, 5264.705
181.3103, 5263.436
181.7924, 5262.940
182.2745, 5277.969
182.7566, 5315.781
183.2387, 5352.936
183.7208, 5383.492
184.2030, 5408.607
184.6851, 5430.374
185.1672, 5449.664
185.6493, 5465.927
186.1314, 5476.422
186.6135, 5474.493
187.0957, 5479.520
187.5778, 5502.669
188.0599, 5536.560
188.5420, 5567.370
189.0241, 5590.158
189.5062, 5606.016
189.9884, 5615.813
190.4705, 5615.407
190.9526, 5618.828
191.4347, 5631.231
191.9168, 5650.480
192.3989, 5672.788
192.8811, 5697.053
193.3632, 5723.027
193.8453, 5751.668
194.3274, 5787.967
194.8095, 5815.926
195.2916, 5821.446
195.7738, 5815.928
196.2559, 5823.661
196.7380, 5855.616
197.2201, 5898.707
197.7022, 5926.161
198.1843, 5935.629
198.6665, 5941.983
199.1486, 5946.917
199.6307, 5952.003
200.1128, 5960.156
200.5949, 5972.210
201.0770, 5987.720
201.5592, 6007.315
202.0413, 6032.710
202.5234, 6054.964
203.0055, 6071.124
203.4876, 6082.525
203.9697, 6091.362
204.4519, 6098.159
204.9340, 6102.879
205.4161, 6104.766
205.8982, 6103.468
206.3803, 6101.922
206.8624, 6098.599
207.3446, 6095.971
207.8267, 6098.573
208.3088, 6108.066
208.7909, 6120.653
209.2730, 6131.383
209.7551, 6140.392
210.2373, 6147.725
210.7194, 6150.913
211.2015, 6153.260
211.6836, 6159.595
212.1657, 6171.217
212.6478, 6185.271
213.1300, 6199.156
213.6121, 6213.513
214.0942, 6223.920
214.5763, 6221.424
215.0584, 6218.396
215.5405, 6233.520
216.0227, 6271.023
216.5048, 6310.328
216.9869, 6326.753
217.4690, 6317.581
217.9511, 6311.084
218.4332, 6314.668
218.9154, 6319.506
219.3975, 6314.231
219.8796, 6297.541
220.3617, 6282.614
220.8438, 6286.676
221.3259, 6312.850
221.8081, 6315.221
222.2902, 6272.556
222.7723, 6218.457
223.2544, 6183.063
223.7365, 6167.495
224.2186, 6148.182
224.7008, 6101.213
225.1829, 6024.946
225.6650, 5970.323
226.1471, 5948.187
226.6292, 5938.530
227.1113, 5934.180
227.5935, 5932.618
228.0756, 5925.736
228.5577, 5906.703
229.0398, 5875.729
229.5219, 5845.837
230.0040, 5814.458
230.4862, 5786.303
230.9683, 5763.330
231.4504, 5745.567
231.9325, 5734.080
232.4146, 5731.769
232.8967, 5736.171
233.3789, 5725.771
233.8610, 5679.911
234.3431, 5643.950
234.8252, 5641.628
235.3073, 5661.923
235.7894, 5678.604
236.2716, 5676.992
236.7537, 5661.955
237.2358, 5655.044
237.7179, 5665.964
238.2000, 5672.449
238.6821, 5664.243
239.1643, 5649.449
239.6464, 5641.438
240.1285, 5646.402
240.6106, 5660.136
241.0927, 5671.271
241.5748, 5674.490
242.0570, 5681.864
242.5391, 5698.430
243.0212, 5718.148
243.5033, 5733.299
243.9854, 5741.270
244.4675, 5746.267
244.9497, 5756.434
245.4318, 5782.169
245.9139, 5796.577
246.3960, 5787.266
246.8781, 5773.890
247.3602, 5774.586
247.8424, 5793.001
248.3245, 5818.795
248.8066, 5838.097
249.2887, 5848.776
249.7708, 5856.641
250.2529, 5866.739
250.7351, 5870.583
251.2172, 5856.741
251.6993, 5827.651
252.1814, 5799.711
252.6635, 5791.854
253.1456, 5809.408
253.6278, 5821.007
254.1099, 5828.343
254.5920, 5829.009
255.0741, 5816.037
255.5562, 5794.171
256.0384, 5776.624
256.5205, 5775.521
257.0026, 5791.234
257.4847, 5801.036
257.9668, 5801.360
258.4489, 5799.035
258.9311, 5796.672
259.4132, 5792.843
259.8953, 5784.685
260.3774, 5770.238
260.8595, 5750.156
261.3416, 5726.212
261.8238, 5682.728
262.3059, 5657.849
262.7880, 5675.021
263.2701, 5709.017
263.7522, 5728.142
264.2343, 5716.713
264.7165, 5686.885
265.1986, 5667.423
265.6807, 5662.532
266.1628, 5659.477
266.6449, 5650.686
267.1270, 5644.886
267.6092, 5649.982
268.0913, 5668.406
268.5734, 5696.188
269.0555, 5733.161
269.5376, 5785.303
270.0197, 5819.299
270.5019, 5804.996
270.9840, 5785.834
271.4661, 5788.718
271.9482, 5816.473
272.4303, 5851.165
272.9124, 5877.424
273.3946, 5895.447
273.8767, 5910.972
274.3588, 5924.755
274.8409, 5935.639
275.3230, 5939.539
275.8051, 5938.513
276.2873, 5943.617
276.7694, 5968.246
277.2515, 6005.017
277.7336, 6028.102
278.2157, 6032.586
278.6978, 6030.534
279.1800, 6029.282
279.6621, 6028.162
280.1442, 6025.415
280.6263, 6018.057
281.1084, 6009.686
281.5905, 6005.526
282.0727, 6005.818
282.5548, 6008.512
283.0369, 6011.240
283.5190, 6016.043
284.0011, 6028.254
284.4832, 6063.047
284.9654, 6089.684
285.4475, 6076.295
285.9296, 6028.756
286.4117, 5985.030
286.8938, 5962.681
287.3759, 5954.639
287.8581, 5943.584
288.3402, 5926.926
288.8223, 5913.019
289.3044, 5909.084
289.7865, 5910.137
290.2686, 5904.574
290.7508, 5887.574
291.2329, 5867.759
291.7150, 5861.355
292.1971, 5876.011
292.6792, 5878.123
293.1613, 5851.735
293.6435, 5816.806
294.1256, 5794.349
294.6077, 5787.729
295.0898, 5785.922
295.5719, 5776.559
296.0540, 5756.828
296.5362, 5745.270
297.0183, 5749.343
297.5004, 5754.254
297.9825, 5751.788
298.4646, 5742.354
298.9467, 5731.117
299.4289, 5722.550
299.9110, 5715.964
300.3931, 5697.229
300.8752, 5646.572
301.3573, 5606.050
301.8394, 5596.059
302.3216, 5600.021
302.8037, 5590.232
303.2858, 5552.249
303.7679, 5498.411
304.2500, 5464.859
304.7321, 5472.390
305.2143, 5467.311
305.6964, 5441.156
306.1785, 5403.984
306.6606, 5360.992
307.1427, 5314.436
307.6248, 5269.762
308.1070, 5237.523
308.5891, 5223.581
309.0712, 5198.103
309.5533, 5137.564
310.0354, 5082.463
310.5175, 5059.101
310.9997, 5062.756
311.4818, 5064.710
311.9639, 5035.655
312.4460, 4980.540
312.9281, 4947.984
313.4102, 4956.447
313.8924, 4959.358
314.3745, 4922.802
314.8566, 4865.969
315.3387, 4825.819
315.8208, 4826.997
316.3029, 4846.885
316.7851, 4846.909
317.2672, 4824.161
317.7493, 4799.499
318.2314, 4778.949
318.7135, 4763.668
319.1956, 4756.065
319.6778, 4758.873
320.1599, 4763.610
320.6420, 4761.169
321.1241, 4754.324
321.6062, 4757.596
322.0883, 4779.396
322.5705, 4806.582
323.0526, 4816.054
323.5347, 4805.114
324.0168, 4801.243
324.4989, 4818.880
324.9810, 4845.211
325.4632, 4864.058
325.9453, 4872.761
326.4274, 4876.698
326.9095, 4881.061
327.3916, 4886.059
327.8737, 4887.054
328.3559, 4880.282
328.8380, 4873.089
329.3201, 4868.275
329.8022, 4866.500
330.2843, 4868.594
330.7664, 4875.144
331.2486, 4885.916
331.7307, 4899.779
332.2128, 4920.489
332.6949, 4939.820
333.1770, 4960.699
333.6591, 4978.024
334.1413, 4984.296
334.6234, 4977.158
335.1055, 4963.341
335.5876, 4954.399
336.0697, 4952.044
336.5518, 4950.993
337.0340, 4944.543
337.5161, 4944.371
337.9982, 4962.832
338.4803, 4996.809
338.9624, 5029.271
339.4445, 5044.859
339.9267, 5043.996
340.4088, 5039.262
340.8909, 5024.984
341.3730, 5014.520
341.8551, 5013.530
342.3372, 5019.509
342.8194, 5028.569
343.3015, 5040.378
343.7836, 5052.336
344.2657, 5056.767
344.7478, 5050.769
345.2299, 5055.138
345.7121, 5087.318
346.1942, 5128.744
346.6763, 5158.261
347.1584, 5172.898
347.6405, 5180.532
348.1227, 5179.518
348.6048, 5174.953
349.0869, 5184.770
349.5690, 5215.894
350.0511, 5254.377
350.5332, 5284.338
351.0154, 5306.146
351.4975, 5326.497
351.9796, 5345.899
352.4617, 5364.788
352.9438, 5383.513
353.4259, 5402.105
353.9081, 5420.185
354.3902, 5437.577
354.8723, 5454.300
355.3544, 5470.495
355.8365, 5476.555
356.3186, 5493.025
356.8008, 5537.491
357.2829, 5592.920
357.7650, 5633.744
358.2471, 5649.657
358.7292, 5650.251
359.2113, 5654.432
359.6935, 5667.387
360.1756, 5674.254
360.6577, 5669.083
361.1398, 5663.404
361.6219, 5665.458
362.1040, 5675.057
362.5862, 5686.156
363.0683, 5693.799
363.5504, 5698.037
364.0325, 5699.956
364.5146, 5701.922
364.9967, 5697.774
365.4789, 5682.805
365.9610, 5661.496
366.4431, 5640.790
366.9252, 5623.418
367.4073, 5607.921
367.8894, 5590.805
368.3716, 5571.503
368.8537, 5557.602
369.3358, 5558.866
369.8179, 5560.869
370.3000, 5546.670
370.7821, 5514.265
371.2643, 5479.813
371.7464, 5454.186
372.2285, 5432.422
372.7106, 5400.677
373.1927, 5354.566
373.6748, 5313.736
374.1570, 5298.989
374.6391, 5310.220
375.1212, 5314.747
375.6033, 5308.474
376.0854, 5297.812
376.5675, 5286.176
377.0497, 5273.288
377.5318, 5257.254
378.0139, 5236.606
378.4960, 5213.307
378.9781, 5193.508
379.4602, 5179.877
379.9424, 5166.406
380.4245, 5154.523
380.9066, 5141.799
381.3887, 5123.184
381.8708, 5099.276
382.3529, 5078.925
382.8351, 5073.423
383.3172, 5085.244
383.7993, 5091.975
384.2814, 5091.585
384.7635, 5087.807
385.2456, 5080.883
385.7278, 5071.581
386.2099, 5059.266
386.6920, 5040.315
387.1741, 5024.122
387.6562, 5034.934
388.1383, 5080.484
388.6205, 5114.876
389.1026, 5113.135
389.5847, 5100.264
390.0668, 5099.310
390.5489, 5112.566
391.0310, 5132.271
391.5132, 5158.141
391.9953, 5186.510
392.4774, 5208.562
392.9595, 5222.579
393.4416, 5232.590
393.9237, 5242.207
394.4059, 5251.020
394.8880, 5255.462
395.3701, 5240.493
395.8522, 5234.928
396.3343, 5265.935
396.8164, 5320.013
397.2986, 5360.816
397.7807, 5370.274
398.2628, 5361.830
398.7449, 5368.285
399.2270, 5409.542
399.7091, 5436.678
400.1913, 5447.454
400.6734, 5446.374
401.1555, 5431.036
401.6376, 5405.067
402.1197, 5381.227
402.6018, 5370.560
403.0840, 5372.965
403.5661, 5384.032
404.0482, 5411.041
404.5303, 5437.370
405.0124, 5460.184
405.4945, 5478.655
405.9767, 5489.935
406.4588, 5491.504
406.9409, 5491.910
407.4230, 5504.750
407.9051, 5529.892
408.3872, 5547.338
408.8694, 5548.745
409.3515, 5545.106
409.8336, 5548.427
410.3157, 5558.252
410.7978, 5566.558
411.2799, 5567.084
411.7621, 5566.532
412.2442, 5576.523
412.7263, 5596.201
413.2084, 5607.687
413.6905, 5595.478
414.1726, 5566.587
414.6548, 5560.497
415.1369, 5597.636
415.6190, 5627.692
416.1011, 5640.697
416.5832, 5641.138
417.0653, 5631.426
417.5475, 5613.299
418.0296, 5593.156
418.5117, 5579.380
418.9938, 5573.821
419.4759, 5565.624
419.9580, 5551.585
420.4402, 5538.160
420.9223, 5528.356
421.4044, 5520.684
421.8865, 5513.512
422.3686, 5507.817
422.8507, 5497.952
423.3329, 5469.421
423.8150, 5418.306
424.2971, 5373.248
424.7792, 5345.679
425.2613, 5325.213
425.7434, 5301.822
426.2256, 5275.245
426.7077, 5249.495
427.1898, 5228.423
427.6719, 5208.941
428.1540, 5184.859
428.6361, 5155.632
429.1183, 5128.071
429.6004, 5107.482
430.0825, 5092.622
430.5646, 5074.059
431.0467, 5051.433
431.5288, 5026.096
432.0110, 4988.226
432.4931, 4951.734
432.9752, 4943.344
433.4573, 4968.489
433.9394, 4995.690
434.4215, 4980.126
434.9037, 4908.822
435.3858, 4848.936
435.8679, 4797.100
436.3500, 4759.896
436.8321, 4750.249
437.3142, 4756.079
437.7964, 4753.693
438.2785, 4728.671
438.7606, 4695.058
439.2427, 4683.383
439.7248, 4698.761
440.2069, 4698.891
440.6891, 4660.164
441.1712, 4612.292
441.6533, 4586.735
442.1354, 4583.750
442.6175, 4578.252
443.0996, 4553.744
443.5818, 4523.270
444.0639, 4506.537
444.5460, 4504.078
445.0281, 4500.438
445.5102, 4484.983
445.9923, 4460.613
446.4745, 4441.784
446.9566, 4432.337
447.4387, 4422.698
447.9208, 4409.679
448.4029, 4396.581
448.8850, 4388.625
449.3672, 4386.041
449.8493, 4381.935
450.3314, 4366.658
450.8135, 4338.503
451.2956, 4324.281
451.7777, 4333.924
452.2599, 4346.372
452.7420, 4360.815
453.2241, 4372.234
453.7062, 4371.748
454.1883, 4354.005
454.6704, 4333.543
455.1526, 4328.466
455.6347, 4337.722
456.1168, 4347.052
456.5989, 4351.974
457.0811, 4358.861
457.5632, 4379.386
458.0453, 4410.787
458.5274, 4430.636
459.0095, 4423.729
459.4916, 4412.629
459.9738, 4411.808
460.4559, 4421.307
460.9380, 4441.978
461.4201, 4476.130
461.9022, 4513.646
462.3843, 4531.130
462.8665, 4506.639
463.3486, 4500.463
463.8307, 4524.770
464.3128, 4555.973
464.7949, 4580.491
465.2770, 4598.015
465.7592, 4614.556
466.2413, 4634.863
466.7234, 4656.842
467.2055, 4671.751
467.6876, 4675.843
468.1697, 4683.991
468.6519, 4705.991
469.1340, 4731.253
469.6161, 4749.491
470.0982, 4759.312
470.5803, 4770.268
471.0624, 4788.496
471.5446, 4811.050
472.0267, 4832.833
472.5088, 4853.415
472.9909, 4874.514
473.4730, 4898.445
473.9551, 4923.970
474.4373, 4942.716
474.9194, 4950.683
475.4015, 4958.338
475.8836, 4968.826
476.3657, 4979.522
476.8478, 4985.297
477.3300, 4986.406
477.8121, 4990.885
478.2942, 5008.737
478.7763, 5040.460
479.2584, 5066.179
479.7405, 5087.419
480.2227, 5099.979
480.7048, 5095.683
481.1869, 5085.779
481.6690, 5085.671
482.1511, 5100.892
482.6332, 5118.653
483.1154, 5126.938
483.5975, 5127.781
484.0796, 5127.821
484.5617, 5127.024
485.0438, 5130.181
485.5259, 5144.802
486.0081, 5169.502
486.4902, 5182.413
486.9723, 5176.784
487.4544, 5166.066
487.9365, 5152.672
488.4186, 5138.892
488.9008, 5127.733
489.3829, 5120.263
489.8650, 5116.156
490.3471, 5115.111
490.8292, 5117.333
491.3113, 5121.561
491.7935, 5133.495
492.2756, 5141.447
492.7577, 5141.328
493.2398, 5134.667
493.7219, 5121.538
494.2040, 5098.479
494.6862, 5081.161
495.1683, 5099.180
495.6504, 5146.653
496.1325, 5167.394
496.6146, 5142.208
497.0967, 5105.318
497.5789, 5090.088
498.0610, 5095.061
498.5431, 5101.864
499.0252, 5111.695
499.5073, 5120.070
499.9894, 5121.501
500.4716, 5120.029
500.9537, 5125.600
501.4358, 5141.947
501.9179, 5159.985
502.4000, 5164.104
502.8821, 5148.242
503.3643, 5139.346
503.8464, 5148.659
504.3285, 5153.915
504.8106, 5143.699
505.2927, 5124.109
505.7748, 5106.848
506.2570, 5096.841
506.7391, 5091.277
507.2212, 5088.811
507.7033, 5088.791
508.1854, 5084.877
508.6675, 5076.395
509.1497, 5062.198
509.6318, 5041.820
510.1139, 5015.062
510.5960, 4978.300
511.0781, 4920.907
511.5602, 4863.595
512.0424, 4816.525
512.5245, 4777.818
513.0066, 4746.760
513.4887, 4722.719
513.9708, 4696.179
514.4529, 4648.860
514.9351, 4570.382
515.4172, 4514.080
515.8993, 4496.320
516.3814, 4484.953
516.8635, 4477.454
517.3456, 4466.527
517.8278, 4437.281
518.3099, 4377.890
518.7920, 4318.113
519.2741, 4298.165
519.7562, 4308.853
520.2383, 4299.989
520.7205, 4257.292
521.2026, 4208.207
521.6847, 4179.349
522.1668, 4171.297
522.6489, 4157.978
523.1310, 4125.682
523.6132, 4103.312
524.0953, 4111.804
524.5774, 4134.026
525.0595, 4146.729
525.5416, 4142.413
526.0237, 4126.016
526.5059, 4099.382
526.9880, 4060.352
527.4701, 4040.650
527.9522, 4052.129
528.4343, 4066.187
528.9164, 4073.944
529.3986, 4076.307
529.8807, 4073.105
530.3628, 4062.774
530.8449, 4053.473
531.3270, 4047.913
531.8091, 4048.444
532.2913, 4065.775
532.7734, 4102.017
533.2555, 4131.864
533.7376, 4131.322
534.2197, 4105.020
534.7018, 4100.083
535.1840, 4127.939
535.6661, 4160.420
536.1482, 4204.890
536.6303, 4244.752
537.1124, 4257.368
537.5945, 4244.102
538.0767, 4232.020
538.5588, 4244.650
539.0409, 4278.769
539.5230, 4321.527
540.0051, 4377.737
540.4872, 4425.661
540.9694, 4453.081
541.4515, 4469.763
541.9336, 4487.338
542.4157, 4505.959
542.8978, 4527.028
543.3799, 4554.344
543.8621, 4582.310
544.3442, 4604.047
544.8263, 4620.387
545.3084, 4637.123
545.7905, 4657.527
546.2726, 4680.626
546.7548, 4703.227
547.2369, 4722.920
547.7190, 4747.019
548.2011, 4782.962
548.6832, 4816.553
549.1653, 4833.297
549.6475, 4840.458
550.1296, 4859.998
550.6117, 4908.646
551.0938, 4966.071
551.5759, 5004.690
552.0580, 5025.486
552.5402, 5032.900
553.0223, 5022.757
553.5044, 5014.429
553.9865, 5032.999
554.4686, 5082.425
554.9507, 5117.686
555.4329, 5124.069
555.9150, 5132.004
556.3971, 5162.916
556.8792, 5200.591
557.3613, 5218.267
557.8434, 5208.525
558.3256, 5189.147
558.8077, 5182.039
559.2898, 5187.396
559.7719, 5189.969
560.2540, 5190.652
560.7361, 5186.729
561.2183, 5167.391
561.7004, 5146.077
562.1825, 5143.383
562.6646, 5167.202
563.1467, 5189.895
563.6288, 5199.679
564.1110, 5199.646
564.5931, 5191.107
565.0752, 5175.688
565.5573, 5161.316
566.0394, 5153.772
566.5215, 5150.537
567.0037, 5141.124
567.4858, 5114.423
567.9679, 5101.826
568.4500, 5118.347
568.9321, 5137.044
569.4142, 5140.882
569.8964, 5131.401
570.3785, 5119.306
570.8606, 5110.357
571.3427, 5101.600
571.8248, 5087.436
572.3069, 5068.958
572.7891, 5056.479
573.2712, 5055.982
573.7533, 5051.498
574.2354, 5018.875
574.7175, 4951.449
575.1996, 4918.283
575.6818, 4953.846
576.1639, 4982.271
576.6460, 4969.056
577.1281, 4936.264
577.6102, 4914.610
578.0923, 4912.112
578.5745, 4914.184
579.0566, 4907.348
579.5387, 4891.680
580.0208, 4865.030
580.5029, 4821.653
580.9850, 4787.125
581.4672, 4781.021
581.9493, 4787.261
582.4314, 4776.027
582.9135, 4742.946
583.3956, 4708.356
583.8777, 4672.788
584.3599, 4642.145
584.8420, 4624.253
585.3241, 4616.662
585.8062, 4612.091
586.2883, 4607.213
586.7704, 4597.877
587.2526, 4572.528
587.7347, 4525.094
588.2168, 4485.918
588.6989, 4467.285
589.1810, 4445.672
589.6631, 4400.195
590.1453, 4342.893
590.6274, 4302.491
591.1095, 4293.572
591.5916, 4290.557
592.0737, 4278.385
592.5558, 4259.121
593.0380, 4234.633
593.5201, 4205.906
594.0022, 4178.568
594.4843, 4158.083
594.9664, 4143.083
595.4485, 4121.708
595.9307, 4080.121
596.4128, 4054.964
596.8949, 4063.609
597.3770, 4078.765
597.8591, 4083.077
598.3412, 4074.859
598.8234, 4057.679
599.3055, 4025.456
599.7876, 3991.914
600.2697, 3979.429
600.7518, 3983.887
601.2339, 3983.638
601.7161, 3971.927
602.1982, 3953.349
602.6803, 3931.347
603.1624, 3904.019
603.6445, 3889.935
