##NAMES=Holtite
##RRUFFID=R061049
##IDEAL CHEMISTRY=(Ta_0.6_[box]_0.4_)Al_6_BSi_3_O_18_
##LOCALITY=Kola Peninsula, U.S.S.R.
##OWNER=RRUFF
##SOURCE=Michael Scott
##DESCRIPTION=Blocky crystals; as pseudohexagonal elongated needles, light buff to cream-buff or deep olive-buff in color. Crystals are twinned by a 2-fold rotation around [010].
##STATUS=The identification of this mineral has been confirmed only by single crystal X-ray diffraction.
##URL=rruff.info/R061049
196.4649, 32123.99
196.9470, 32248.75
197.4291, 32386.53
197.9112, 32464.49
198.3934, 32475.47
198.8755, 32487.95
199.3576, 32530.46
199.8397, 32604.02
200.3218, 32680.10
200.8039, 32762.43
201.2861, 32841.70
201.7682, 32898.16
202.2503, 32927.26
202.7324, 32954.43
203.2145, 32991.77
203.6966, 33040.66
204.1788, 33088.43
204.6609, 33133.03
205.1430, 33177.35
205.6251, 33230.31
206.1072, 33296.67
206.5893, 33356.73
207.0715, 33398.71
207.5536, 33419.16
208.0357, 33436.00
208.5178, 33445.93
208.9999, 33454.87
209.4820, 33481.27
209.9642, 33527.73
210.4463, 33585.50
210.9284, 33654.45
211.4105, 33741.39
211.8926, 33810.18
212.3747, 33853.08
212.8569, 33875.67
213.3390, 33904.86
213.8211, 33946.07
214.3032, 33983.07
214.7853, 34000.51
215.2674, 33986.48
215.7496, 33989.10
216.2317, 34018.78
216.7138, 34071.32
217.1959, 34116.58
217.6780, 34148.38
218.1601, 34183.06
218.6423, 34237.88
219.1244, 34330.87
219.6065, 34399.74
220.0886, 34435.24
220.5707, 34438.09
221.0528, 34418.40
221.5350, 34360.05
222.0171, 34299.75
222.4992, 34270.50
222.9813, 34285.90
223.4634, 34302.13
223.9455, 34307.27
224.4277, 34301.38
224.9098, 34319.92
225.3919, 34375.22
225.8740, 34441.41
226.3561, 34495.52
226.8382, 34537.13
227.3204, 34566.68
227.8025, 34584.88
228.2846, 34592.07
228.7667, 34579.57
229.2488, 34532.86
229.7310, 34480.69
230.2131, 34452.69
230.6952, 34450.55
231.1773, 34470.93
231.6594, 34521.68
232.1415, 34608.61
232.6237, 34671.66
233.1058, 34704.72
233.5879, 34719.01
234.0700, 34724.69
234.5521, 34708.17
235.0342, 34707.97
235.5164, 34741.89
235.9985, 34820.23
236.4806, 34863.13
236.9627, 34842.66
237.4448, 34807.84
237.9269, 34827.79
238.4091, 34941.92
238.8912, 35044.22
239.3733, 35102.51
239.8554, 35106.33
240.3375, 35118.57
240.8196, 35142.07
241.3018, 35172.08
241.7839, 35201.16
242.2660, 35223.31
242.7481, 35255.33
243.2302, 35308.44
243.7123, 35394.18
244.1945, 35447.09
244.6766, 35450.71
245.1587, 35432.09
245.6408, 35433.61
246.1229, 35465.14
246.6050, 35499.98
247.0872, 35530.71
247.5693, 35557.40
248.0514, 35578.19
248.5335, 35584.57
249.0156, 35590.29
249.4977, 35620.04
249.9799, 35684.13
250.4620, 35753.41
250.9441, 35820.82
251.4262, 35889.50
251.9083, 35944.84
252.3904, 35986.93
252.8726, 36015.23
253.3547, 36026.09
253.8368, 36011.59
254.3189, 35994.25
254.8010, 35976.43
255.2831, 35949.09
255.7653, 35961.33
256.2474, 36034.80
256.7295, 36133.02
257.2116, 36189.08
257.6937, 36190.77
258.1758, 36175.06
258.6580, 36146.55
259.1401, 36092.24
259.6222, 36083.61
260.1043, 36139.39
260.5864, 36226.86
261.0685, 36286.84
261.5507, 36314.08
262.0328, 36325.64
262.5149, 36320.49
262.9970, 36288.48
263.4791, 36290.63
263.9612, 36337.96
264.4434, 36409.84
264.9255, 36473.00
265.4076, 36529.41
265.8897, 36571.57
266.3718, 36593.20
266.8539, 36589.65
267.3361, 36590.39
267.8182, 36589.26
268.3003, 36599.01
268.7824, 36651.54
269.2645, 36765.91
269.7466, 36862.22
270.2288, 36904.36
270.7109, 36884.32
271.1930, 36878.23
271.6751, 36884.79
272.1572, 36907.00
272.6393, 36957.36
273.1215, 37045.02
273.6036, 37121.51
274.0857, 37164.14
274.5678, 37170.85
275.0499, 37180.50
275.5320, 37190.41
276.0142, 37208.06
276.4963, 37252.96
276.9784, 37331.99
277.4605, 37396.26
277.9426, 37424.12
278.4247, 37416.32
278.9069, 37402.86
279.3890, 37378.60
279.8711, 37360.31
280.3532, 37376.95
280.8354, 37431.20
281.3175, 37487.14
281.7996, 37531.51
282.2817, 37565.28
282.7638, 37598.26
283.2459, 37632.77
283.7281, 37659.20
284.2102, 37653.91
284.6923, 37616.93
285.1744, 37600.22
285.6565, 37640.63
286.1386, 37722.38
286.6208, 37751.85
287.1029, 37719.76
287.5850, 37677.14
288.0671, 37691.88
288.5492, 37758.29
289.0313, 37813.27
289.5135, 37825.43
289.9956, 37808.88
290.4777, 37814.01
290.9598, 37842.68
291.4419, 37877.08
291.9240, 37898.73
292.4062, 37909.42
292.8883, 37917.52
293.3704, 37916.60
293.8525, 37918.27
294.3346, 37964.36
294.8167, 38056.95
295.2989, 38137.00
295.7810, 38133.42
296.2631, 38068.11
296.7452, 38009.73
297.2273, 37979.30
297.7094, 37970.32
298.1916, 37976.16
298.6737, 37996.43
299.1558, 38021.54
299.6379, 38045.55
300.1200, 38068.37
300.6021, 38091.45
301.0843, 38122.09
301.5664, 38146.54
302.0485, 38141.36
302.5306, 38109.49
303.0127, 38077.33
303.4948, 38064.34
303.9770, 38063.33
304.4591, 38062.76
304.9412, 38057.59
305.4233, 38054.21
305.9054, 38064.11
306.3875, 38083.64
306.8697, 38095.27
307.3518, 38084.47
307.8339, 38060.75
308.3160, 38033.00
308.7981, 37995.37
309.2802, 37966.91
309.7624, 37966.84
310.2445, 37989.24
310.7266, 38015.10
311.2087, 38035.19
311.6908, 38054.21
312.1729, 38077.61
312.6551, 38111.79
313.1372, 38140.06
313.6193, 38153.20
314.1014, 38153.49
314.5835, 38146.14
315.0656, 38121.89
315.5478, 38098.22
316.0299, 38087.86
316.5120, 38098.21
316.9941, 38107.47
317.4762, 38097.46
317.9583, 38081.83
318.4405, 38084.54
318.9226, 38130.27
319.4047, 38182.47
319.8868, 38225.45
320.3689, 38256.32
320.8510, 38281.83
321.3332, 38290.73
321.8153, 38298.09
322.2974, 38325.36
322.7795, 38406.10
323.2616, 38480.13
323.7437, 38526.51
324.2259, 38538.34
324.7080, 38549.75
325.1901, 38565.17
325.6722, 38581.49
326.1543, 38595.28
326.6364, 38606.64
327.1186, 38615.27
327.6007, 38616.29
328.0828, 38607.35
328.5649, 38616.08
329.0470, 38646.79
329.5291, 38692.61
330.0113, 38749.78
330.4934, 38842.15
330.9755, 38910.45
331.4576, 38938.73
331.9397, 38929.50
332.4218, 38930.18
332.9040, 38941.87
333.3861, 38962.34
333.8682, 38990.55
334.3503, 39028.83
334.8324, 39070.58
335.3145, 39119.19
335.7967, 39171.11
336.2788, 39205.38
336.7609, 39212.04
337.2430, 39223.39
337.7251, 39263.11
338.2072, 39338.99
338.6894, 39403.42
339.1715, 39453.00
339.6536, 39490.01
340.1357, 39516.41
340.6178, 39530.18
341.0999, 39544.71
341.5821, 39568.33
342.0642, 39600.52
342.5463, 39631.50
343.0284, 39659.84
343.5105, 39688.54
343.9926, 39721.81
344.4748, 39759.47
344.9569, 39800.13
345.4390, 39851.63
345.9211, 39907.27
346.4032, 39933.66
346.8853, 39927.32
347.3675, 39910.84
347.8496, 39896.23
348.3317, 39889.40
348.8138, 39916.63
349.2959, 40017.67
349.7780, 40147.80
350.2602, 40219.73
350.7423, 40232.63
351.2244, 40243.64
351.7065, 40313.48
352.1887, 40416.76
352.6708, 40501.78
353.1529, 40550.45
353.6350, 40575.23
354.1171, 40577.19
354.5992, 40561.09
355.0814, 40556.95
355.5635, 40586.66
356.0456, 40638.22
356.5277, 40698.13
357.0098, 40762.55
357.4919, 40835.76
357.9741, 40941.65
358.4562, 41062.00
358.9383, 41147.64
359.4204, 41142.66
359.9025, 41114.50
360.3846, 41113.28
360.8668, 41162.52
361.3489, 41198.05
361.8310, 41174.13
362.3131, 41122.61
362.7952, 41098.24
363.2773, 41149.28
363.7595, 41202.71
364.2416, 41227.34
364.7237, 41213.43
365.2058, 41204.36
365.6879, 41220.32
366.1700, 41239.66
366.6522, 41239.03
367.1343, 41176.45
367.6164, 41135.34
368.0985, 41143.43
368.5806, 41203.86
369.0627, 41237.24
369.5449, 41223.21
370.0270, 41197.63
370.5091, 41186.18
370.9912, 41195.84
371.4733, 41208.32
371.9554, 41226.45
372.4376, 41246.88
372.9197, 41248.30
373.4018, 41218.80
373.8839, 41190.86
374.3660, 41188.20
374.8481, 41222.46
375.3303, 41229.75
375.8124, 41194.86
376.2945, 41142.05
376.7766, 41129.45
377.2587, 41165.48
377.7408, 41198.50
378.2230, 41192.86
378.7051, 41150.99
379.1872, 41158.27
379.6693, 41227.56
380.1514, 41307.11
380.6335, 41310.43
381.1157, 41245.79
381.5978, 41211.95
382.0799, 41274.04
382.5620, 41385.65
383.0441, 41413.32
383.5262, 41355.15
384.0084, 41296.61
384.4905, 41332.67
384.9726, 41428.04
385.4547, 41490.11
385.9368, 41467.88
386.4189, 41434.41
386.9011, 41491.79
387.3832, 41623.20
387.8653, 41742.15
388.3474, 41797.07
388.8295, 41808.67
389.3116, 41789.77
389.7938, 41725.09
390.2759, 41676.84
390.7580, 41698.16
391.2401, 41764.52
391.7222, 41824.10
392.2043, 41839.53
392.6865, 41853.43
393.1686, 41896.34
393.6507, 41977.98
394.1328, 42045.71
394.6149, 42070.07
395.0970, 42076.22
395.5792, 42092.39
396.0613, 42128.89
396.5434, 42171.23
397.0255, 42219.84
397.5076, 42274.13
397.9897, 42322.44
398.4719, 42374.74
398.9540, 42413.46
399.4361, 42426.30
399.9182, 42378.58
400.4003, 42357.08
400.8824, 42378.39
401.3646, 42429.61
401.8467, 42462.60
402.3288, 42462.80
402.8109, 42469.39
403.2930, 42500.42
403.7751, 42560.14
404.2573, 42630.93
404.7394, 42722.83
405.2215, 42813.29
405.7036, 42858.79
406.1857, 42852.68
406.6678, 42848.70
407.1500, 42866.16
407.6321, 42901.92
408.1142, 42939.07
408.5963, 42978.64
409.0784, 43011.20
409.5605, 43022.72
410.0427, 43016.89
410.5248, 43014.14
411.0069, 43019.61
411.4890, 43030.31
411.9711, 43041.64
412.4532, 43053.69
412.9354, 43066.90
413.4175, 43066.84
413.8996, 43072.35
414.3817, 43124.35
414.8638, 43245.86
415.3459, 43352.45
415.8281, 43348.57
416.3102, 43277.45
416.7923, 43224.73
417.2744, 43260.43
417.7565, 43307.09
418.2386, 43300.76
418.7208, 43234.03
419.2029, 43195.69
419.6850, 43259.73
420.1671, 43353.59
420.6492, 43409.36
421.1313, 43363.60
421.6135, 43326.18
422.0956, 43337.99
422.5777, 43387.90
423.0598, 43405.00
423.5420, 43325.66
424.0241, 43254.61
424.5062, 43243.84
424.9883, 43354.05
425.4704, 43416.93
425.9525, 43415.56
426.4347, 43374.49
426.9168, 43338.10
427.3989, 43311.01
427.8810, 43278.13
428.3631, 43226.43
428.8452, 43153.95
429.3274, 43128.99
429.8095, 43168.91
430.2916, 43220.65
430.7737, 43224.07
431.2558, 43175.85
431.7379, 43139.47
432.2201, 43130.61
432.7022, 43140.23
433.1843, 43142.97
433.6664, 43138.85
434.1485, 43142.15
434.6306, 43166.22
435.1128, 43205.25
435.5949, 43247.39
436.0770, 43294.82
436.5591, 43330.63
437.0412, 43326.99
437.5233, 43294.98
438.0055, 43262.49
438.4876, 43259.16
438.9697, 43250.96
439.4518, 43189.19
439.9339, 43075.39
440.4160, 42985.18
440.8982, 42966.57
441.3803, 42992.29
441.8624, 43036.72
442.3445, 43118.86
442.8266, 43186.96
443.3087, 43211.70
443.7909, 43206.19
444.2730, 43211.83
444.7551, 43268.86
445.2372, 43313.86
445.7193, 43314.51
446.2014, 43241.62
446.6836, 43192.65
447.1657, 43178.11
447.6478, 43183.83
448.1299, 43193.16
448.6120, 43204.44
449.0941, 43222.32
449.5763, 43249.57
450.0584, 43285.46
450.5405, 43315.11
451.0226, 43332.65
451.5047, 43357.75
451.9868, 43418.63
452.4690, 43522.74
452.9511, 43571.18
453.4332, 43541.59
453.9153, 43473.74
454.3974, 43432.85
454.8795, 43418.73
455.3617, 43434.10
455.8438, 43511.57
456.3259, 43616.47
456.8080, 43651.14
457.2901, 43610.69
457.7722, 43556.73
458.2544, 43534.56
458.7365, 43539.86
459.2186, 43566.87
459.7007, 43627.52
460.1828, 43693.01
460.6649, 43732.73
461.1471, 43755.30
461.6292, 43791.15
462.1113, 43883.89
462.5934, 43975.88
463.0755, 44019.12
463.5576, 43986.74
464.0398, 43978.32
464.5219, 44037.95
465.0040, 44133.54
465.4861, 44223.80
465.9682, 44347.56
466.4503, 44416.84
466.9325, 44376.62
467.4146, 44234.38
467.8967, 44179.19
468.3788, 44256.67
468.8609, 44369.84
469.3430, 44467.75
469.8252, 44558.88
470.3073, 44602.10
470.7894, 44570.71
471.2715, 44514.80
471.7536, 44548.45
472.2357, 44688.13
472.7179, 44801.61
473.2000, 44817.34
473.6821, 44758.75
474.1642, 44758.95
474.6463, 44822.33
475.1284, 44898.14
475.6106, 44941.61
476.0927, 44959.55
476.5748, 44966.72
477.0569, 44953.18
477.5390, 44954.44
478.0211, 45034.96
478.5033, 45169.91
478.9854, 45280.22
479.4675, 45320.59
479.9496, 45318.18
480.4317, 45271.86
480.9138, 45172.70
481.3960, 45122.95
481.8781, 45224.14
482.3602, 45375.35
482.8423, 45472.34
483.3244, 45430.77
483.8065, 45399.77
484.2887, 45426.18
484.7708, 45496.21
485.2529, 45533.19
485.7350, 45514.42
486.2171, 45483.82
486.6992, 45454.69
487.1814, 45420.48
487.6635, 45413.25
488.1456, 45446.11
488.6277, 45491.93
489.1098, 45514.97
489.5919, 45511.85
490.0741, 45502.28
490.5562, 45483.04
491.0383, 45463.78
491.5204, 45491.73
492.0026, 45570.11
492.4847, 45639.87
492.9668, 45648.68
493.4489, 45615.77
493.9310, 45593.27
494.4131, 45585.15
494.8953, 45596.59
495.3774, 45652.54
495.8595, 45732.61
496.3416, 45789.98
496.8237, 45785.50
497.3058, 45767.54
497.7880, 45773.86
498.2701, 45801.34
498.7522, 45823.83
499.2343, 45806.72
499.7164, 45794.79
500.1985, 45825.33
500.6807, 45947.72
501.1628, 46027.64
501.6449, 46010.91
502.1270, 45945.49
502.6091, 45912.56
503.0912, 45948.50
503.5734, 45970.56
504.0555, 45948.50
504.5376, 45886.62
505.0197, 45879.31
505.5018, 45950.73
505.9839, 46030.56
506.4661, 46066.84
506.9482, 46055.40
507.4303, 46049.49
507.9124, 46056.02
508.3945, 46064.06
508.8766, 46054.45
509.3588, 46028.69
509.8409, 45999.21
510.3230, 45956.02
510.8051, 45919.09
511.2872, 45946.77
511.7693, 46033.65
512.2515, 46096.38
512.7336, 46061.86
513.2157, 45975.12
513.6978, 45879.50
514.1799, 45763.63
514.6620, 45690.96
515.1442, 45739.43
515.6263, 45847.84
516.1084, 45911.64
516.5905, 45875.79
517.0726, 45814.60
517.5547, 45730.21
518.0369, 45621.47
518.5190, 45581.38
519.0011, 45684.89
519.4832, 45792.13
519.9653, 45817.06
520.4474, 45699.77
520.9296, 45646.72
521.4117, 45684.30
521.8938, 45764.76
522.3759, 45802.91
522.8580, 45792.16
523.3401, 45782.26
523.8223, 45790.06
524.3044, 45811.09
524.7865, 45834.14
525.2686, 45859.19
525.7507, 45872.51
526.2328, 45858.21
526.7150, 45825.11
527.1971, 45782.51
527.6792, 45721.93
528.1613, 45689.73
528.6434, 45759.54
529.1255, 45880.50
529.6077, 45964.87
530.0898, 45923.41
530.5719, 45884.66
531.0540, 45934.75
531.5361, 46060.53
532.0182, 46146.45
532.5004, 46109.25
532.9825, 46064.05
533.4646, 46076.12
533.9467, 46192.37
534.4288, 46271.82
534.9109, 46297.40
535.3931, 46298.10
535.8752, 46309.07
536.3573, 46328.54
536.8394, 46363.76
537.3215, 46419.18
537.8036, 46490.98
538.2858, 46569.02
538.7679, 46655.59
539.2500, 46733.03
539.7321, 46785.63
540.2142, 46819.64
540.6964, 46858.17
541.1785, 46903.26
541.6606, 46945.74
542.1427, 46967.72
542.6248, 46981.17
543.1069, 47009.14
543.5891, 47070.91
544.0712, 47135.21
544.5533, 47166.82
545.0354, 47181.41
545.5175, 47226.46
545.9996, 47369.46
546.4818, 47505.73
546.9639, 47571.32
547.4460, 47540.21
547.9281, 47550.39
548.4102, 47661.83
548.8923, 47784.05
549.3745, 47841.77
549.8566, 47786.60
550.3387, 47777.15
550.8208, 47842.38
551.3029, 47950.12
551.7850, 48024.75
552.2672, 48063.60
552.7493, 48092.10
553.2314, 48111.90
553.7135, 48129.90
554.1956, 48182.75
554.6777, 48271.15
555.1599, 48353.10
555.6420, 48382.58
556.1241, 48383.32
556.6062, 48400.65
557.0883, 48450.82
557.5704, 48492.01
558.0526, 48465.25
558.5347, 48412.70
559.0168, 48403.94
559.4989, 48540.84
559.9810, 48652.17
560.4631, 48649.68
560.9453, 48545.97
561.4274, 48477.52
561.9095, 48476.52
562.3916, 48504.21
562.8737, 48551.22
563.3558, 48628.82
563.8380, 48682.73
564.3201, 48706.37
564.8022, 48714.96
565.2843, 48729.00
565.7664, 48750.86
566.2485, 48753.37
566.7307, 48723.17
567.2128, 48680.15
567.6949, 48673.35
568.1770, 48698.21
568.6591, 48716.95
569.1412, 48695.27
569.6234, 48660.68
570.1055, 48657.86
570.5876, 48688.05
571.0697, 48716.23
571.5518, 48716.23
572.0339, 48704.40
572.5161, 48695.13
572.9982, 48686.06
573.4803, 48690.14
573.9624, 48739.35
574.4445, 48799.57
574.9266, 48807.17
575.4088, 48693.90
575.8909, 48608.98
576.3730, 48594.39
576.8551, 48639.45
577.3372, 48646.38
577.8193, 48598.14
578.3015, 48553.18
578.7836, 48558.95
579.2657, 48614.17
579.7478, 48615.57
580.2299, 48553.78
580.7120, 48471.33
581.1942, 48410.95
581.6763, 48370.04
582.1584, 48342.15
582.6405, 48331.61
583.1226, 48324.15
583.6047, 48300.16
584.0869, 48267.54
584.5690, 48247.17
585.0511, 48265.73
585.5332, 48284.75
586.0153, 48282.72
586.4974, 48257.96
586.9796, 48229.05
587.4617, 48167.24
587.9438, 48127.04
588.4259, 48145.56
588.9080, 48285.39
589.3901, 48349.80
589.8723, 48310.55
590.3544, 48224.34
590.8365, 48168.36
591.3186, 48143.31
591.8007, 48140.97
592.2828, 48166.38
592.7650, 48206.62
593.2471, 48228.26
593.7292, 48233.43
594.2113, 48242.48
594.6934, 48291.89
595.1755, 48341.10
595.6577, 48322.04
596.1398, 48230.86
596.6219, 48147.93
597.1040, 48135.26
597.5862, 48148.40
598.0683, 48144.57
598.5504, 48097.26
599.0325, 48062.42
599.5146, 48045.80
599.9968, 48051.09
600.4789, 48088.55
600.9610, 48214.00
601.4431, 48277.00
601.9252, 48213.40
602.4073, 48062.17
602.8895, 48035.85
603.3716, 48167.18
603.8537, 48279.35
604.3358, 48234.48
604.8179, 48072.91
605.3000, 48034.29
605.7822, 48133.08
606.2643, 48248.25
606.7464, 48269.72
607.2285, 48231.34
607.7106, 48186.55
608.1927, 48138.77
608.6749, 48109.18
609.1570, 48118.44
609.6391, 48154.77
610.1212, 48197.54
610.6033, 48269.59
611.0854, 48317.28
611.5676, 48298.93
612.0497, 48227.36
612.5318, 48221.63
613.0139, 48347.32
613.4960, 48443.87
613.9781, 48419.26
614.4603, 48258.68
614.9424, 48180.61
615.4245, 48198.87
615.9066, 48255.49
616.3887, 48303.14
616.8708, 48341.81
617.3530, 48373.21
617.8351, 48397.97
618.3172, 48413.67
618.7993, 48415.07
619.2814, 48405.36
619.7635, 48391.50
620.2457, 48352.48
620.7278, 48332.04
621.2099, 48379.14
621.6920, 48474.85
622.1741, 48528.65
622.6563, 48480.41
623.1384, 48418.46
623.6205, 48375.43
624.1026, 48351.80
624.5847, 48344.93
625.0668, 48352.13
625.5490, 48380.31
626.0311, 48451.13
626.5132, 48571.88
626.9953, 48630.06
627.4774, 48603.89
627.9595, 48544.47
628.4417, 48517.33
628.9238, 48518.19
629.4059, 48530.58
629.8880, 48548.84
630.3701, 48575.86
630.8522, 48633.13
631.3344, 48704.56
631.8165, 48741.55
632.2986, 48672.82
632.7807, 48605.66
633.2628, 48603.93
633.7449, 48676.13
634.2271, 48735.38
634.7092, 48791.44
635.1913, 48815.83
635.6734, 48780.46
636.1555, 48643.93
636.6376, 48587.64
637.1198, 48638.37
637.6019, 48720.66
638.0840, 48737.93
638.5661, 48695.02
639.0482, 48660.53
639.5303, 48646.45
640.0125, 48654.77
640.4946, 48708.14
640.9767, 48788.95
641.4588, 48847.05
641.9409, 48842.04
642.4230, 48817.88
642.9052, 48801.32
643.3873, 48792.18
643.8694, 48784.29
644.3515, 48774.59
644.8336, 48766.49
645.3157, 48758.63
645.7979, 48746.29
646.2800, 48758.88
646.7621, 48811.38
647.2442, 48868.21
647.7263, 48893.14
648.2084, 48881.98
648.6906, 48892.72
649.1727, 48939.26
649.6548, 48986.33
650.1369, 48970.24
650.6190, 48908.64
651.1011, 48861.75
651.5833, 48848.84
652.0654, 48862.71
652.5475, 48914.11
653.0296, 48988.73
653.5117, 49045.65
653.9938, 49048.61
654.4760, 49047.49
654.9581, 49079.47
655.4402, 49147.81
655.9223, 49154.80
656.4044, 49038.52
656.8865, 48929.71
657.3687, 48901.34
657.8508, 48971.64
658.3329, 49017.73
658.8150, 49036.02
659.2971, 49040.84
659.7792, 49051.33
660.2614, 49063.25
660.7435, 49048.71
661.2256, 48993.29
661.7077, 48937.81
662.1898, 48935.80
662.6719, 48965.70
663.1541, 48985.98
663.6362, 48961.95
664.1183, 48942.35
664.6004, 48949.79
665.0825, 48979.98
665.5646, 49017.55
666.0468, 49087.01
666.5289, 49133.84
667.0110, 49134.03
667.4931, 49089.15
667.9752, 49073.33
668.4573, 49093.37
668.9395, 49121.71
669.4216, 49144.96
669.9037, 49161.84
670.3858, 49160.75
670.8679, 49139.38
671.3500, 49118.30
671.8322, 49125.50
672.3143, 49143.94
672.7964, 49144.09
673.2785, 49107.96
673.7606, 49080.63
674.2427, 49099.09
674.7249, 49137.52
675.2070, 49159.93
675.6891, 49140.42
676.1712, 49126.27
676.6533, 49122.63
677.1354, 49128.93
677.6176, 49150.18
678.0997, 49198.61
678.5818, 49217.35
679.0639, 49166.08
679.5460, 49072.62
680.0281, 49059.16
680.5103, 49122.30
680.9924, 49192.16
681.4745, 49221.86
681.9566, 49229.04
682.4387, 49238.13
682.9208, 49251.15
683.4030, 49253.46
683.8851, 49229.40
684.3672, 49196.11
684.8493, 49165.47
685.3314, 49131.96
685.8135, 49116.35
686.2957, 49122.77
686.7778, 49144.28
687.2599, 49177.20
687.7420, 49227.39
688.2241, 49264.51
688.7062, 49283.10
689.1884, 49289.23
689.6705, 49281.14
690.1526, 49264.90
690.6347, 49280.27
691.1168, 49375.88
