##NAMES=Hopeite
##RRUFFID=R050254
##IDEAL CHEMISTRY=Zn^2+^_3_(P^5+^O_4_)_2_&#183;4H_2_O
##LOCALITY=Broken Hill mine, Kabwe, Zambia
##OWNER=RRUFF
##SOURCE=Marcus Origlieri
##DESCRIPTION=Reddish-orange tabular single crystal
##STATUS=The identification of this mineral has been confirmed by X-ray diffraction and chemical analysis
##URL=rruff.info/R050254
##MEASURED CHEMISTRY=(Zn_2.93_Mg_0.07_)_Σ=3_(P_1.00_O_4_)_2_·4H_2_O
93.12335, 0.0000000E+00
93.60547, 80.39926
94.08759, 77.27524
94.56970, 79.22951
95.05182, 85.24801
95.53394, 91.92565
96.01605, 97.71704
96.49817, 103.4335
96.98029, 111.6134
97.46240, 122.4586
97.94452, 134.8916
98.42664, 147.3253
98.90875, 159.7989
99.39087, 173.5119
99.87299, 188.6397
100.3551, 205.1084
100.8372, 223.7924
101.3193, 244.5319
101.8015, 267.4992
102.2836, 292.9187
102.7657, 321.5829
103.2478, 350.8532
103.7299, 379.0873
104.2120, 406.2108
104.6942, 433.6575
105.1763, 462.1944
105.6584, 491.1891
106.1405, 519.5684
106.6226, 547.6312
107.1047, 574.4250
107.5869, 598.9836
108.0690, 620.7944
108.5511, 641.5163
109.0332, 660.1907
109.5153, 677.1404
109.9974, 696.9959
110.4795, 720.3395
110.9617, 746.4924
111.4438, 774.9387
111.9259, 805.4695
112.4080, 838.8746
112.8901, 875.5163
113.3722, 915.8194
113.8544, 958.3707
114.3365, 1004.605
114.8186, 1052.239
115.3007, 1099.510
115.7828, 1144.093
116.2649, 1189.591
116.7471, 1237.676
117.2292, 1290.391
117.7113, 1340.484
118.1934, 1385.137
118.6755, 1425.595
119.1576, 1463.711
119.6398, 1500.863
120.1219, 1536.099
120.6040, 1568.371
121.0861, 1597.402
121.5682, 1624.427
122.0503, 1650.397
122.5325, 1674.996
123.0146, 1697.372
123.4967, 1716.707
123.9788, 1733.620
124.4609, 1748.849
124.9430, 1761.534
125.4252, 1773.590
125.9073, 1785.444
126.3894, 1797.567
126.8715, 1812.747
127.3536, 1834.727
127.8357, 1861.082
128.3179, 1887.399
128.8000, 1911.385
129.2821, 1935.152
129.7642, 1962.146
130.2463, 1992.372
130.7284, 2023.952
131.2106, 2055.459
131.6927, 2086.921
132.1748, 2118.618
132.6569, 2150.588
133.1390, 2181.200
133.6211, 2201.651
134.1033, 2210.724
134.5854, 2219.388
135.0675, 2228.298
135.5496, 2237.542
136.0317, 2245.704
136.5138, 2252.012
136.9960, 2256.579
137.4781, 2261.377
137.9602, 2266.489
138.4423, 2271.761
138.9244, 2277.371
139.4065, 2283.659
139.8887, 2288.805
140.3708, 2291.469
140.8529, 2290.813
141.3350, 2292.216
141.8171, 2295.820
142.2992, 2301.219
142.7814, 2307.618
143.2635, 2315.342
143.7456, 2323.416
144.2277, 2331.681
144.7098, 2340.625
145.1919, 2348.380
145.6741, 2354.542
146.1562, 2359.492
146.6383, 2364.043
147.1204, 2367.311
147.6025, 2371.244
148.0846, 2377.248
148.5668, 2389.540
149.0489, 2397.281
149.5310, 2398.107
150.0131, 2393.066
150.4952, 2389.367
150.9773, 2390.258
151.4595, 2390.225
151.9416, 2385.940
152.4237, 2374.717
152.9058, 2362.344
153.3879, 2348.120
153.8700, 2332.324
154.3522, 2319.090
154.8343, 2312.435
155.3164, 2306.262
155.7985, 2296.169
156.2806, 2278.024
156.7627, 2259.517
157.2449, 2242.570
157.7270, 2227.465
158.2091, 2211.183
158.6912, 2191.555
159.1733, 2171.000
159.6554, 2151.713
160.1376, 2133.695
160.6197, 2117.444
161.1018, 2103.356
161.5839, 2091.524
162.0660, 2080.678
162.5481, 2070.299
163.0303, 2060.653
163.5124, 2052.070
163.9945, 2045.130
164.4766, 2038.918
164.9587, 2032.856
165.4408, 2026.777
165.9230, 2021.576
166.4051, 2017.825
166.8872, 2015.169
167.3693, 2013.058
167.8514, 2012.390
168.3335, 2011.469
168.8157, 2008.379
169.2978, 2002.163
169.7799, 1997.180
170.2620, 1997.037
170.7441, 2000.189
171.2262, 2003.593
171.7084, 2006.230
172.1905, 2008.143
172.6726, 2009.029
173.1547, 2008.425
173.6368, 2008.226
174.1189, 2010.563
174.6011, 2014.701
175.0832, 2018.638
175.5653, 2020.230
176.0474, 2021.253
176.5295, 2024.215
177.0116, 2029.973
177.4938, 2036.561
177.9759, 2042.246
178.4580, 2047.111
178.9401, 2051.249
179.4222, 2054.987
179.9043, 2058.051
180.3865, 2059.719
180.8686, 2059.523
181.3507, 2058.630
181.8328, 2058.361
182.3149, 2058.714
182.7970, 2059.665
183.2792, 2061.504
183.7613, 2063.967
184.2434, 2066.404
184.7255, 2068.948
185.2076, 2071.097
185.6897, 2071.692
186.1718, 2070.798
186.6540, 2069.886
187.1361, 2070.263
187.6182, 2071.583
188.1003, 2072.583
188.5824, 2073.308
189.0645, 2073.240
189.5467, 2070.608
190.0288, 2065.306
190.5109, 2060.202
190.9930, 2058.467
191.4751, 2059.489
191.9572, 2058.581
192.4394, 2054.210
192.9215, 2047.785
193.4036, 2042.943
193.8857, 2039.732
194.3678, 2037.519
194.8499, 2036.448
195.3321, 2036.439
195.8142, 2035.140
196.2963, 2031.710
196.7784, 2026.848
197.2605, 2022.939
197.7426, 2020.124
198.2248, 2017.550
198.7069, 2014.063
199.1890, 2009.551
199.6711, 2006.635
200.1532, 2005.998
200.6353, 2007.304
201.1175, 2009.690
201.5996, 2013.639
202.0817, 2016.852
202.5638, 2016.448
203.0459, 2011.859
203.5280, 2008.733
204.0102, 2008.594
204.4923, 2010.922
204.9744, 2012.687
205.4565, 2013.950
205.9386, 2014.545
206.4207, 2013.679
206.9029, 2010.757
207.3850, 2009.991
207.8671, 2013.043
208.3492, 2019.311
208.8313, 2023.157
209.3134, 2023.897
209.7956, 2023.701
210.2777, 2024.783
210.7598, 2027.664
211.2419, 2029.641
211.7240, 2029.553
212.2061, 2027.742
212.6883, 2028.791
213.1704, 2033.574
213.6525, 2039.699
214.1346, 2044.853
214.6167, 2048.736
215.0988, 2052.798
215.5810, 2057.709
216.0631, 2063.281
216.5452, 2066.973
217.0273, 2067.888
217.5094, 2068.278
217.9915, 2070.380
218.4737, 2075.030
218.9558, 2079.092
219.4379, 2081.643
219.9200, 2082.819
220.4021, 2084.927
220.8842, 2088.312
221.3664, 2092.085
221.8485, 2095.291
222.3306, 2097.416
222.8127, 2100.317
223.2948, 2104.746
223.7769, 2110.603
224.2591, 2114.526
224.7412, 2115.860
225.2233, 2116.167
225.7054, 2117.123
226.1875, 2120.169
226.6696, 2120.595
227.1518, 2116.866
227.6339, 2109.226
228.1160, 2103.184
228.5981, 2099.499
229.0802, 2096.506
229.5623, 2092.780
230.0445, 2087.444
230.5266, 2083.192
231.0087, 2080.698
231.4908, 2079.832
231.9729, 2078.669
232.4550, 2077.156
232.9372, 2075.371
233.4193, 2073.240
233.9014, 2070.108
234.3835, 2067.914
234.8656, 2066.884
235.3477, 2067.001
235.8299, 2068.301
236.3120, 2071.745
236.7941, 2075.227
237.2762, 2077.134
237.7583, 2076.650
238.2404, 2076.253
238.7226, 2076.202
239.2047, 2076.468
239.6868, 2076.741
240.1689, 2076.569
240.6510, 2076.969
241.1331, 2078.831
241.6153, 2083.313
242.0974, 2086.791
242.5795, 2088.581
243.0616, 2088.976
243.5437, 2089.784
244.0258, 2091.168
244.5080, 2092.756
244.9901, 2094.546
245.4722, 2097.545
245.9543, 2098.489
246.4364, 2096.058
246.9185, 2091.315
247.4007, 2089.250
247.8828, 2091.573
248.3649, 2094.238
248.8470, 2094.809
249.3291, 2091.931
249.8112, 2090.231
250.2934, 2090.448
250.7755, 2091.958
251.2576, 2092.432
251.7397, 2090.953
252.2218, 2089.842
252.7039, 2090.392
253.1861, 2093.405
253.6682, 2096.040
254.1503, 2098.179
254.6324, 2099.888
255.1145, 2101.304
255.5966, 2102.251
256.0788, 2103.167
256.5609, 2104.183
257.0430, 2105.188
257.5251, 2106.641
258.0072, 2108.876
258.4893, 2111.366
258.9715, 2112.934
259.4536, 2113.207
259.9357, 2113.236
260.4178, 2113.252
260.8999, 2112.963
261.3820, 2113.900
261.8642, 2116.696
262.3463, 2120.217
262.8284, 2122.267
263.3105, 2122.035
263.7926, 2122.217
264.2747, 2124.136
264.7569, 2128.361
265.2390, 2130.635
265.7211, 2130.035
266.2032, 2128.587
266.6853, 2129.542
267.1674, 2133.822
267.6496, 2137.906
268.1317, 2140.650
268.6138, 2142.060
269.0959, 2142.832
269.5780, 2142.408
270.0602, 2142.249
270.5423, 2144.746
271.0244, 2150.885
271.5065, 2155.715
271.9886, 2156.977
272.4707, 2154.983
272.9529, 2156.288
273.4350, 2161.622
273.9171, 2168.671
274.3992, 2175.192
274.8813, 2181.018
275.3634, 2187.022
275.8456, 2193.688
276.3277, 2200.747
276.8098, 2205.952
277.2919, 2208.639
277.7740, 2211.458
278.2561, 2217.009
278.7382, 2225.492
279.2203, 2234.147
279.7025, 2242.461
280.1846, 2250.501
280.6667, 2258.678
281.1488, 2266.923
281.6309, 2275.667
282.1130, 2285.228
282.5952, 2295.606
283.0773, 2306.804
283.5594, 2319.259
284.0415, 2332.113
284.5236, 2342.337
285.0057, 2349.682
285.4879, 2357.679
285.9700, 2369.402
286.4521, 2384.447
286.9342, 2397.781
287.4163, 2408.419
287.8984, 2418.072
288.3806, 2429.520
288.8627, 2442.797
289.3448, 2457.392
289.8269, 2474.047
290.3090, 2492.228
290.7911, 2508.134
291.2733, 2521.271
291.7554, 2533.581
292.2375, 2547.848
292.7196, 2563.985
293.2017, 2579.897
293.6838, 2593.262
294.1660, 2605.699
294.6481, 2623.488
295.1302, 2647.325
295.6123, 2671.413
296.0944, 2687.744
296.5765, 2698.033
297.0587, 2709.747
297.5408, 2726.901
298.0229, 2747.190
298.5050, 2765.853
298.9871, 2782.946
299.4692, 2799.420
299.9514, 2815.673
300.4335, 2831.807
300.9156, 2847.470
301.3977, 2862.801
301.8798, 2877.659
302.3619, 2891.658
302.8441, 2904.946
303.3262, 2917.502
303.8083, 2930.097
304.2904, 2941.897
304.7725, 2951.912
305.2546, 2959.403
305.7368, 2965.589
306.2189, 2971.477
306.7010, 2976.988
307.1831, 2981.934
307.6652, 2986.859
308.1473, 2990.808
308.6295, 2992.539
309.1116, 2991.506
309.5937, 2989.064
310.0758, 2986.063
310.5579, 2982.403
311.0400, 2977.956
311.5222, 2972.415
312.0043, 2966.122
312.4864, 2959.892
312.9685, 2954.116
313.4506, 2946.478
313.9327, 2934.708
314.4149, 2920.292
314.8970, 2905.482
315.3791, 2890.946
315.8612, 2876.383
316.3433, 2861.627
316.8254, 2846.562
317.3076, 2832.474
317.7897, 2821.790
318.2718, 2811.699
318.7539, 2799.199
319.2360, 2780.058
319.7181, 2761.578
320.2003, 2747.859
320.6824, 2738.262
321.1645, 2726.612
321.6466, 2709.407
322.1287, 2690.551
322.6108, 2672.703
323.0930, 2655.111
323.5751, 2640.012
324.0572, 2629.431
324.5393, 2622.144
325.0214, 2613.245
325.5035, 2599.008
325.9857, 2585.328
326.4678, 2575.155
326.9499, 2571.794
327.4320, 2566.591
327.9141, 2557.367
328.3962, 2546.112
328.8784, 2536.684
329.3605, 2531.715
329.8426, 2526.043
330.3247, 2517.777
330.8068, 2505.517
331.2889, 2495.406
331.7711, 2488.362
332.2532, 2482.942
332.7353, 2477.458
333.2174, 2471.790
333.6995, 2466.192
334.1816, 2460.690
334.6638, 2455.262
335.1459, 2450.386
335.6280, 2446.201
336.1101, 2442.463
336.5922, 2439.073
337.0743, 2436.094
337.5565, 2433.153
338.0386, 2430.102
338.5207, 2427.012
339.0028, 2424.087
339.4849, 2421.166
339.9670, 2418.670
340.4492, 2416.934
340.9313, 2416.075
341.4134, 2415.191
341.8955, 2414.513
342.3776, 2413.397
342.8597, 2409.850
343.3419, 2403.514
343.8240, 2398.197
344.3061, 2396.087
344.7882, 2397.006
345.2703, 2398.424
345.7524, 2400.546
346.2346, 2402.558
346.7167, 2403.120
347.1988, 2402.402
347.6809, 2401.928
348.1630, 2402.145
348.6451, 2403.012
349.1273, 2404.885
349.6094, 2407.759
350.0915, 2410.024
350.5736, 2408.711
351.0557, 2405.457
351.5378, 2405.126
352.0200, 2410.156
352.5021, 2416.828
352.9842, 2420.446
353.4663, 2421.341
353.9484, 2421.093
354.4305, 2420.179
354.9127, 2418.984
355.3948, 2417.843
355.8769, 2416.646
356.3590, 2416.274
356.8411, 2418.349
357.3232, 2421.851
357.8054, 2424.602
358.2875, 2424.659
358.7696, 2424.232
359.2517, 2425.105
359.7338, 2427.446
360.2159, 2430.047
360.6981, 2432.369
361.1802, 2434.473
361.6623, 2436.415
362.1444, 2437.609
362.6265, 2439.133
363.1086, 2441.936
363.5908, 2445.701
364.0729, 2448.438
364.5550, 2447.962
365.0371, 2447.153
365.5192, 2447.982
366.0013, 2453.040
366.4835, 2456.475
366.9656, 2455.729
367.4477, 2452.625
367.9298, 2451.423
368.4119, 2454.302
368.8940, 2457.739
369.3762, 2460.718
369.8583, 2463.371
370.3404, 2465.187
370.8225, 2466.412
371.3046, 2466.689
371.7867, 2465.437
372.2689, 2460.960
372.7510, 2457.521
373.2331, 2456.188
373.7152, 2456.882
374.1973, 2457.029
374.6794, 2456.509
375.1616, 2455.573
375.6437, 2454.364
376.1258, 2452.787
376.6079, 2451.181
377.0900, 2449.517
377.5721, 2447.902
378.0543, 2446.776
378.5364, 2446.330
379.0185, 2445.677
379.5006, 2444.224
379.9827, 2441.967
380.4648, 2440.104
380.9470, 2438.714
381.4291, 2437.573
381.9112, 2436.329
382.3933, 2435.018
382.8754, 2433.928
383.3575, 2433.310
383.8397, 2432.952
384.3218, 2432.226
384.8039, 2431.124
385.2860, 2430.058
385.7681, 2429.836
386.2502, 2429.900
386.7324, 2428.679
387.2145, 2425.224
387.6966, 2421.395
388.1787, 2419.843
388.6608, 2419.948
389.1429, 2419.497
389.6251, 2416.236
390.1072, 2412.237
390.5893, 2410.041
391.0714, 2410.242
391.5535, 2410.281
392.0356, 2408.013
392.5178, 2404.626
392.9999, 2401.801
393.4820, 2400.585
393.9641, 2399.809
394.4462, 2399.122
394.9283, 2398.501
395.4105, 2397.611
395.8926, 2396.529
396.3747, 2395.023
396.8568, 2392.854
397.3389, 2388.612
397.8210, 2385.460
398.3032, 2384.075
398.7853, 2384.102
399.2674, 2384.695
399.7495, 2386.599
400.2316, 2388.140
400.7137, 2388.624
401.1959, 2387.665
401.6780, 2386.861
402.1601, 2386.953
402.6422, 2386.653
403.1243, 2384.324
403.6064, 2378.350
404.0885, 2373.676
404.5706, 2371.875
405.0528, 2372.436
405.5349, 2371.015
406.0170, 2366.872
406.4991, 2362.738
406.9812, 2360.993
407.4633, 2362.168
407.9455, 2361.036
408.4276, 2356.397
408.9097, 2350.603
409.3918, 2348.406
409.8739, 2349.858
410.3560, 2350.197
410.8382, 2346.718
411.3203, 2340.343
411.8024, 2334.474
412.2845, 2329.055
412.7666, 2323.938
413.2487, 2318.983
413.7309, 2314.080
414.2130, 2309.004
414.6951, 2303.469
415.1772, 2297.976
415.6593, 2293.662
416.1414, 2290.147
416.6236, 2285.974
417.1057, 2278.700
417.5878, 2271.147
418.0699, 2266.985
418.5520, 2267.424
419.0341, 2267.255
419.5163, 2262.684
419.9984, 2255.649
420.4805, 2249.061
420.9626, 2243.475
421.4447, 2238.823
421.9268, 2235.141
422.4090, 2232.371
422.8911, 2230.321
423.3732, 2229.833
423.8553, 2229.397
424.3374, 2228.019
424.8195, 2224.559
425.3017, 2221.603
425.7838, 2219.915
426.2659, 2218.701
426.7480, 2216.320
427.2301, 2211.186
427.7122, 2206.809
428.1944, 2204.640
428.6765, 2205.091
429.1586, 2203.404
429.6407, 2198.569
430.1228, 2193.020
430.6049, 2188.935
431.0871, 2186.612
431.5692, 2184.667
432.0513, 2183.043
432.5334, 2181.593
433.0155, 2179.998
433.4977, 2178.318
433.9798, 2176.122
434.4619, 2172.610
434.9440, 2168.183
435.4261, 2165.553
435.9082, 2165.111
436.3904, 2164.741
436.8725, 2161.108
437.3546, 2155.310
437.8367, 2151.147
438.3188, 2151.163
438.8009, 2152.326
439.2831, 2149.872
439.7652, 2144.491
440.2473, 2140.274
440.7294, 2141.103
441.2115, 2143.756
441.6936, 2144.648
442.1758, 2142.589
442.6579, 2140.796
443.1400, 2141.679
443.6221, 2143.885
444.1042, 2145.392
444.5863, 2145.112
445.0685, 2144.345
445.5506, 2143.678
446.0327, 2143.086
446.5148, 2141.750
446.9969, 2138.664
447.4790, 2135.366
447.9612, 2132.769
448.4433, 2131.394
448.9254, 2130.129
449.4075, 2129.223
449.8896, 2128.401
450.3717, 2126.983
450.8539, 2124.237
451.3360, 2122.344
451.8181, 2122.170
452.3002, 2123.774
452.7823, 2125.080
453.2644, 2126.081
453.7466, 2126.908
454.2287, 2127.839
454.7108, 2128.915
455.1929, 2129.257
455.6750, 2128.699
456.1571, 2127.412
456.6393, 2125.047
457.1214, 2121.757
457.6035, 2119.792
458.0856, 2121.144
458.5677, 2124.463
459.0498, 2126.937
459.5320, 2128.467
460.0141, 2129.572
460.4962, 2130.651
460.9783, 2131.599
461.4604, 2132.163
461.9425, 2131.859
462.4247, 2131.744
462.9068, 2132.716
463.3889, 2134.493
463.8710, 2136.325
464.3531, 2138.232
464.8352, 2139.788
465.3174, 2140.741
465.7995, 2141.047
466.2816, 2140.822
466.7637, 2139.564
467.2458, 2138.041
467.7279, 2136.935
468.2101, 2136.542
468.6922, 2136.322
469.1743, 2136.051
469.6564, 2135.925
470.1385, 2136.767
470.6206, 2139.764
471.1028, 2141.905
471.5849, 2141.467
472.0670, 2137.833
472.5491, 2136.853
473.0312, 2139.372
473.5133, 2142.852
473.9955, 2144.492
474.4776, 2144.243
474.9597, 2143.548
475.4418, 2142.462
475.9239, 2141.385
476.4060, 2141.178
476.8882, 2141.810
477.3703, 2143.071
477.8524, 2145.116
478.3345, 2147.624
478.8166, 2150.238
479.2987, 2152.986
479.7809, 2155.010
480.2630, 2154.327
480.7451, 2152.723
481.2272, 2153.023
481.7093, 2158.720
482.1914, 2163.376
482.6736, 2161.091
483.1557, 2154.308
483.6378, 2150.196
484.1199, 2153.685
484.6020, 2158.702
485.0841, 2162.527
485.5663, 2164.760
486.0484, 2166.284
486.5305, 2166.701
487.0126, 2166.714
487.4947, 2167.003
487.9768, 2168.450
488.4590, 2168.705
488.9411, 2166.869
489.4232, 2163.827
489.9053, 2162.354
490.3874, 2162.789
490.8695, 2164.003
491.3517, 2165.782
491.8338, 2168.157
492.3159, 2169.935
492.7980, 2171.102
493.2801, 2171.905
493.7622, 2172.307
494.2444, 2172.458
494.7265, 2173.317
495.2086, 2175.334
495.6907, 2177.718
496.1728, 2179.542
496.6549, 2180.788
497.1371, 2181.396
497.6192, 2180.907
498.1013, 2179.998
498.5834, 2178.817
499.0655, 2177.393
499.5476, 2177.574
500.0298, 2182.656
500.5119, 2188.704
500.9940, 2191.847
501.4761, 2188.477
501.9582, 2186.348
502.4403, 2189.024
502.9225, 2194.249
503.4046, 2197.484
503.8867, 2195.352
504.3688, 2193.977
504.8509, 2195.234
505.3330, 2199.200
505.8152, 2201.986
506.2973, 2203.566
506.7794, 2203.979
507.2615, 2202.987
507.7436, 2200.163
508.2257, 2197.936
508.7079, 2196.507
509.1900, 2195.645
509.6721, 2195.070
510.1542, 2194.789
510.6363, 2194.527
511.1184, 2193.901
511.6006, 2193.390
512.0826, 2194.365
512.5648, 2196.710
513.0469, 2199.211
513.5290, 2201.161
514.0111, 2202.678
514.4932, 2204.012
514.9753, 2205.280
515.4575, 2205.941
515.9396, 2205.215
516.4217, 2203.810
516.9038, 2202.659
517.3859, 2202.636
517.8680, 2202.372
518.3502, 2200.724
518.8323, 2198.257
519.3144, 2197.336
519.7965, 2200.128
520.2786, 2202.973
520.7607, 2204.370
521.2429, 2203.911
521.7250, 2203.862
522.2071, 2204.345
522.6892, 2205.050
523.1713, 2205.725
523.6534, 2206.370
524.1356, 2206.699
524.6177, 2206.472
525.0998, 2206.069
525.5819, 2206.657
526.0640, 2208.211
526.5461, 2209.186
527.0283, 2207.866
527.5104, 2205.584
527.9925, 2206.804
528.4746, 2211.425
528.9567, 2214.773
529.4388, 2211.242
529.9210, 2204.911
530.4031, 2201.875
530.8852, 2204.435
531.3673, 2207.132
531.8494, 2205.793
532.3315, 2202.602
532.8137, 2200.945
533.2958, 2203.219
533.7779, 2205.820
534.2600, 2207.329
534.7421, 2207.883
535.2242, 2209.346
535.7064, 2212.548
536.1885, 2215.920
536.6706, 2218.844
537.1527, 2221.287
537.6348, 2223.253
538.1169, 2224.816
538.5991, 2225.734
539.0812, 2225.350
539.5633, 2223.467
540.0454, 2222.616
540.5275, 2223.574
541.0096, 2225.467
541.4918, 2226.327
541.9739, 2226.312
542.4560, 2226.782
542.9381, 2228.697
543.4202, 2231.473
543.9023, 2234.020
544.3845, 2236.350
544.8666, 2239.239
545.3487, 2244.023
545.8308, 2249.185
546.3129, 2253.149
546.7950, 2255.406
547.2772, 2256.821
547.7593, 2256.841
548.2414, 2256.447
548.7235, 2257.012
549.2056, 2259.210
549.6877, 2261.950
550.1699, 2265.606
550.6520, 2269.858
551.1341, 2272.653
551.6162, 2272.840
552.0983, 2273.690
552.5804, 2277.334
553.0626, 2284.295
553.5447, 2287.633
554.0268, 2286.345
554.5089, 2284.575
554.9910, 2287.480
555.4731, 2294.230
555.9553, 2298.797
556.4374, 2299.578
556.9195, 2298.971
557.4016, 2299.784
557.8837, 2301.846
558.3658, 2304.724
558.8480, 2309.309
559.3301, 2313.757
559.8122, 2316.001
560.2943, 2316.401
560.7764, 2317.263
561.2585, 2320.102
561.7407, 2323.454
562.2228, 2326.780
562.7049, 2330.828
563.1870, 2332.463
563.6691, 2328.365
564.1512, 2323.408
564.6334, 2321.967
565.1155, 2325.818
565.5976, 2329.693
566.0797, 2333.329
566.5618, 2336.503
567.0439, 2338.257
567.5261, 2338.313
568.0082, 2338.832
568.4903, 2340.848
568.9724, 2343.959
569.4545, 2346.359
569.9366, 2348.093
570.4188, 2350.647
570.9009, 2356.469
571.3830, 2363.569
571.8651, 2368.163
572.3472, 2369.429
572.8293, 2370.920
573.3115, 2375.482
573.7936, 2381.732
574.2757, 2387.905
574.7578, 2393.324
575.2399, 2398.762
575.7220, 2404.198
576.2042, 2409.814
576.6863, 2416.166
577.1684, 2423.442
577.6505, 2431.311
578.1326, 2440.169
578.6147, 2449.853
579.0969, 2457.939
579.5790, 2463.789
580.0611, 2469.394
580.5432, 2476.058
581.0253, 2483.732
581.5074, 2491.426
581.9896, 2498.930
582.4717, 2507.042
582.9538, 2517.377
583.4359, 2529.087
583.9180, 2539.652
584.4001, 2547.855
584.8823, 2555.334
585.3644, 2563.282
585.8465, 2571.822
586.3286, 2581.083
586.8107, 2591.363
587.2928, 2602.276
587.7750, 2613.677
588.2571, 2625.530
588.7392, 2637.405
589.2213, 2650.786
