##NAMES=Hornesite
##RRUFFID=R060724
##IDEAL CHEMISTRY=Mg_3_(As^5+^O_4_)_2_&#183;8H_2_O
##LOCALITY=Huercal Overa, Almeria Province, Spain
##OWNER=RRUFF
##SOURCE=Bob Jenkins
##DESCRIPTION=Stellate aggregate of pearly white bladed crystals associated with green conichalcite
##STATUS=The identification of this mineral is confirmed by single-crystal X-ray diffraction and chemical analysis.
##URL=rruff.info/R060724
##MEASURED CHEMISTRY=(Mg_2.88_Fe_0.10_Mn_0.02_)_Σ=3_(As_1.00_O_4_)_2_·7.82H_2_ ; H_2_O estimated by difference
145.634, 5792.482
146.116, 6038.260
146.598, 6290.037
147.080, 6530.235
147.562, 6759.064
148.044, 6971.796
148.527, 7162.479
149.009, 7334.241
149.491, 7486.650
149.973, 7629.767
150.455, 7752.298
150.937, 7832.324
151.419, 7862.748
151.901, 7866.828
152.383, 7847.153
152.866, 7813.001
153.348, 7801.052
153.830, 7835.456
154.312, 7901.109
154.794, 7961.408
155.276, 8003.245
155.758, 8060.257
156.240, 8163.820
156.723, 8304.198
157.205, 8451.782
157.687, 8594.453
158.169, 8732.615
158.651, 8877.504
159.133, 9060.932
159.615, 9197.632
160.097, 9235.521
160.579, 9185.637
161.062, 9083.830
161.544, 8937.077
162.026, 8751.427
162.508, 8553.517
162.990, 8325.856
163.472, 8111.891
163.954, 7934.285
164.436, 7791.110
164.919, 7669.642
165.401, 7565.491
165.883, 7477.784
166.365, 7399.743
166.847, 7331.806
167.329, 7274.774
167.811, 7225.877
168.293, 7186.550
168.775, 7161.576
169.258, 7162.710
169.740, 7189.178
170.222, 7202.986
170.704, 7199.364
171.186, 7184.861
171.668, 7154.061
172.150, 7112.835
172.632, 7080.432
173.115, 7072.820
173.597, 7090.565
174.079, 7120.420
174.561, 7179.238
175.043, 7235.493
175.525, 7271.427
176.007, 7290.865
176.489, 7310.169
176.971, 7345.646
177.454, 7398.984
177.936, 7446.353
178.418, 7485.561
178.900, 7519.605
179.382, 7552.331
179.864, 7581.783
180.346, 7601.474
180.828, 7605.612
181.311, 7593.737
181.793, 7571.078
182.275, 7528.288
182.757, 7481.358
183.239, 7439.413
183.721, 7399.428
184.203, 7350.632
184.685, 7280.859
185.167, 7188.100
185.650, 7097.524
186.132, 6996.036
186.614, 6909.179
187.096, 6845.991
187.578, 6805.661
188.060, 6783.344
188.542, 6777.193
189.024, 6788.580
189.507, 6800.012
189.989, 6805.366
190.471, 6816.446
190.953, 6837.036
191.435, 6867.020
191.917, 6903.657
192.399, 6941.327
192.881, 6978.300
193.363, 7046.906
193.846, 7161.979
194.328, 7298.648
194.810, 7449.408
195.292, 7616.058
195.774, 7805.307
196.256, 8024.306
196.738, 8274.571
197.220, 8530.549
197.702, 8764.191
198.185, 9032.578
198.667, 9357.089
199.149, 9732.560
199.631, 10137.920
200.113, 10558.680
200.595, 10996.220
201.077, 11469.740
201.559, 11971.130
202.042, 12526.620
202.524, 13155.780
203.006, 13845.400
203.488, 14574.840
203.970, 15343.900
204.452, 16143.860
204.934, 16837.490
205.416, 17501.900
205.898, 17950.410
206.380, 18095.189
206.863, 17998.580
207.345, 17750.881
207.827, 17396.359
208.309, 16948.590
208.791, 16505.631
209.273, 16061.980
209.755, 15630.240
210.238, 15230.500
210.720, 14843.430
211.202, 14442.260
211.684, 14013.390
212.166, 13561.390
212.648, 13102.990
213.130, 12630.920
213.612, 12166.760
214.094, 11704.340
214.577, 11257.930
215.059, 10838.450
215.541, 10455.040
216.023, 10105.670
216.505, 9779.625
216.987, 9469.751
217.469, 9202.361
217.951, 8990.003
218.434, 8812.647
218.916, 8650.404
219.398, 8494.920
219.880, 8348.403
220.362, 8215.734
220.844, 8094.922
221.326, 7993.207
221.808, 7913.411
222.290, 7848.461
222.773, 7796.330
223.255, 7755.440
223.737, 7718.121
224.219, 7667.386
224.701, 7587.442
225.183, 7528.901
225.665, 7519.311
226.147, 7515.225
226.629, 7480.507
227.112, 7407.205
227.594, 7320.566
228.076, 7254.185
228.558, 7209.712
229.040, 7182.698
229.522, 7190.304
230.004, 7201.317
230.486, 7193.354
230.969, 7165.034
231.451, 7135.596
231.933, 7127.125
232.415, 7142.882
232.897, 7165.588
233.379, 7199.709
233.861, 7236.644
234.343, 7268.316
234.825, 7297.174
235.307, 7335.662
235.790, 7398.667
236.272, 7488.539
236.754, 7576.985
237.236, 7659.308
237.718, 7745.716
238.200, 7842.203
238.682, 7946.736
239.165, 8054.325
239.647, 8162.994
240.129, 8272.448
240.611, 8372.886
241.093, 8461.562
241.575, 8544.284
242.057, 8631.088
242.539, 8714.522
243.021, 8779.905
243.503, 8821.705
243.986, 8838.330
244.468, 8821.640
244.950, 8763.062
245.432, 8684.280
245.914, 8594.388
246.396, 8493.466
246.878, 8378.156
247.361, 8240.950
247.843, 8096.020
248.325, 7971.712
248.807, 7870.369
249.289, 7783.344
249.771, 7712.789
250.253, 7651.784
250.735, 7589.579
251.217, 7518.078
251.699, 7458.444
252.182, 7445.199
252.664, 7485.001
253.146, 7523.336
253.628, 7526.240
254.110, 7528.632
254.592, 7568.213
255.074, 7655.812
255.556, 7749.970
256.039, 7807.729
256.521, 7831.129
257.003, 7865.418
257.485, 7924.634
257.967, 7997.626
258.449, 8074.996
258.931, 8157.105
259.413, 8234.243
259.896, 8297.813
260.378, 8351.368
260.860, 8408.899
261.342, 8477.866
261.824, 8543.594
262.306, 8587.139
262.788, 8611.521
263.270, 8643.422
263.752, 8702.950
264.234, 8774.691
264.717, 8825.973
265.199, 8847.842
265.681, 8874.039
266.163, 8944.657
266.645, 9048.794
267.127, 9137.108
267.609, 9193.940
268.091, 9234.405
268.574, 9270.606
269.056, 9303.214
269.538, 9336.735
270.020, 9372.604
270.502, 9412.157
270.984, 9457.994
271.466, 9531.226
271.948, 9592.132
272.431, 9614.058
272.913, 9601.882
273.395, 9575.684
273.877, 9544.276
274.359, 9506.866
274.841, 9460.922
275.323, 9417.463
275.805, 9352.800
276.287, 9251.960
276.770, 9125.731
277.252, 8988.999
277.734, 8844.297
278.216, 8703.000
278.698, 8588.917
279.180, 8514.984
279.662, 8442.719
280.144, 8373.681
280.626, 8302.108
281.109, 8218.061
281.591, 8120.360
282.073, 8022.182
282.555, 7941.358
283.037, 7883.984
283.519, 7824.862
284.001, 7753.657
284.483, 7689.124
284.966, 7647.608
285.448, 7626.049
285.930, 7606.335
286.412, 7573.100
286.894, 7525.647
287.376, 7474.336
287.858, 7410.795
288.340, 7352.398
288.823, 7299.245
289.305, 7256.213
289.787, 7233.784
290.269, 7240.496
290.751, 7268.327
291.233, 7279.192
291.715, 7254.650
292.197, 7237.226
292.679, 7231.438
293.161, 7236.324
293.644, 7253.366
294.126, 7283.164
294.608, 7318.110
295.090, 7342.405
295.572, 7349.177
296.054, 7363.481
296.536, 7389.410
297.018, 7422.547
297.501, 7459.246
297.983, 7499.350
298.465, 7546.695
298.947, 7611.651
299.429, 7696.509
299.911, 7761.087
300.393, 7789.173
300.875, 7809.027
301.358, 7834.464
301.840, 7864.748
302.322, 7895.163
302.804, 7921.638
303.286, 7945.820
303.768, 7976.178
304.250, 8020.034
304.732, 8053.332
305.214, 8053.200
305.697, 8035.220
306.179, 8025.560
306.661, 8043.910
307.143, 8061.674
307.625, 8041.356
308.107, 7982.348
308.589, 7913.795
309.071, 7845.068
309.553, 7776.117
310.036, 7709.426
310.518, 7648.165
311.000, 7580.848
311.482, 7497.973
311.964, 7403.663
312.446, 7308.514
312.928, 7214.642
313.410, 7124.034
313.892, 7038.540
314.375, 6955.789
314.857, 6886.518
315.339, 6841.453
315.821, 6806.949
316.303, 6767.760
316.785, 6722.074
317.267, 6676.629
317.750, 6635.801
318.232, 6599.805
318.714, 6578.289
319.196, 6588.617
319.678, 6596.057
320.160, 6580.735
320.642, 6547.593
321.124, 6510.652
321.606, 6477.284
322.089, 6449.051
322.571, 6434.998
323.053, 6449.948
323.535, 6461.561
324.017, 6465.313
324.499, 6464.074
324.981, 6458.922
325.463, 6450.734
325.945, 6444.398
326.428, 6451.480
326.910, 6488.029
327.392, 6500.781
327.874, 6467.211
328.356, 6429.998
328.838, 6413.541
329.320, 6418.843
329.802, 6433.766
330.284, 6452.717
330.767, 6475.446
331.249, 6475.070
331.731, 6425.975
332.213, 6386.092
332.695, 6382.356
333.177, 6401.539
333.659, 6420.927
334.141, 6431.270
334.624, 6433.594
335.106, 6426.917
335.588, 6408.174
336.070, 6394.531
336.552, 6400.952
337.034, 6411.567
337.516, 6408.191
337.998, 6385.404
338.480, 6362.495
338.963, 6354.208
339.445, 6358.426
339.927, 6365.631
340.409, 6374.314
340.891, 6384.292
341.373, 6396.584
341.855, 6411.039
342.337, 6422.682
342.819, 6425.831
343.302, 6427.730
343.784, 6437.815
344.266, 6456.665
344.748, 6475.498
345.230, 6484.896
345.712, 6487.308
346.194, 6509.241
346.677, 6578.237
347.159, 6635.908
347.641, 6650.840
348.123, 6637.809
348.605, 6625.593
349.087, 6626.682
349.569, 6638.399
350.051, 6654.569
350.533, 6677.123
351.016, 6701.988
351.498, 6731.242
351.980, 6761.376
352.462, 6791.406
352.944, 6820.126
353.426, 6843.705
353.908, 6855.551
354.390, 6852.867
354.872, 6862.997
355.355, 6902.823
355.837, 6939.727
356.319, 6964.541
356.801, 6979.286
357.283, 6988.091
357.765, 6991.990
358.247, 6993.559
358.729, 6999.136
359.211, 7008.966
359.694, 7022.208
360.176, 7040.357
360.658, 7060.990
361.140, 7083.439
361.622, 7107.819
362.104, 7130.494
362.586, 7149.723
363.069, 7165.127
363.551, 7171.974
364.033, 7164.212
364.515, 7157.450
364.997, 7173.096
365.479, 7205.927
365.961, 7226.295
366.443, 7221.430
366.925, 7202.882
367.408, 7180.674
367.890, 7155.518
368.372, 7128.174
368.854, 7098.351
369.336, 7067.202
369.818, 7039.561
370.300, 7024.611
370.782, 7001.817
371.264, 6958.448
371.747, 6906.049
372.229, 6860.523
372.711, 6826.895
373.193, 6800.740
373.675, 6774.653
374.157, 6743.504
374.639, 6728.122
375.121, 6744.041
375.603, 6759.544
376.086, 6754.137
376.568, 6732.355
377.050, 6712.701
377.532, 6709.623
378.014, 6719.680
378.496, 6721.674
378.978, 6706.432
379.460, 6697.923
379.943, 6709.240
380.425, 6725.716
380.907, 6730.917
381.389, 6719.709
381.871, 6703.235
382.353, 6692.496
382.835, 6687.470
383.317, 6690.870
383.799, 6709.790
384.282, 6729.131
384.764, 6730.660
385.246, 6718.791
385.728, 6720.058
386.210, 6754.170
386.692, 6803.162
387.174, 6841.490
387.656, 6868.204
388.138, 6896.829
388.621, 6936.489
389.103, 6983.830
389.585, 7025.633
390.067, 7047.952
390.549, 7084.167
391.031, 7159.705
391.513, 7252.178
391.996, 7325.683
392.478, 7369.566
392.960, 7402.501
393.442, 7449.182
393.924, 7512.907
394.406, 7579.427
394.888, 7641.140
395.370, 7711.655
395.852, 7804.208
396.335, 7911.231
396.817, 8015.865
397.299, 8107.876
397.781, 8188.258
398.263, 8259.275
398.745, 8312.683
399.227, 8372.796
399.709, 8452.804
400.191, 8535.945
400.674, 8607.356
401.156, 8663.950
401.638, 8716.386
402.120, 8780.366
402.602, 8852.126
403.084, 8898.492
403.566, 8904.929
404.048, 8906.516
404.530, 8937.748
405.013, 8985.710
405.495, 9014.979
405.977, 9014.412
406.459, 8993.009
406.941, 8947.580
407.423, 8884.214
407.905, 8834.074
408.387, 8812.677
408.870, 8809.263
409.352, 8802.002
409.834, 8792.377
410.316, 8776.367
410.798, 8744.632
411.280, 8712.071
411.762, 8692.835
412.244, 8687.569
412.727, 8686.351
413.209, 8678.643
413.691, 8664.863
414.173, 8673.146
414.655, 8717.759
415.137, 8770.051
415.619, 8824.176
416.101, 8883.632
416.583, 8954.754
417.065, 9039.617
417.548, 9132.036
418.030, 9216.332
418.512, 9288.673
418.994, 9396.848
419.476, 9564.835
419.958, 9751.958
420.440, 9920.279
420.922, 10080.620
421.405, 10273.360
421.887, 10543.340
422.369, 10842.270
422.851, 11101.150
423.333, 11319.360
423.815, 11534.580
424.297, 11760.510
424.779, 11996.780
425.262, 12246.520
425.744, 12516.080
426.226, 12782.210
426.708, 13056.050
427.190, 13314.360
427.672, 13532.360
428.154, 13705.870
428.636, 13848.790
429.118, 13978.120
429.601, 14095.790
430.083, 14148.050
430.565, 14124.560
431.047, 14047.960
431.529, 13904.740
432.011, 13717.100
432.493, 13514.860
432.975, 13309.330
433.457, 13083.520
433.940, 12801.380
434.422, 12453.550
434.904, 12116.870
435.386, 11806.330
435.868, 11504.560
436.350, 11193.830
436.832, 10881.400
437.314, 10585.990
437.797, 10317.440
438.279, 10070.990
438.761, 9844.439
439.243, 9635.948
439.725, 9443.455
440.207, 9268.492
440.689, 9106.223
441.171, 8948.032
441.654, 8790.961
442.136, 8642.770
442.618, 8495.718
443.100, 8363.895
443.582, 8267.250
444.064, 8204.139
444.546, 8152.007
445.028, 8093.714
445.510, 8029.297
445.992, 7960.102
446.475, 7870.745
446.957, 7795.276
447.439, 7750.308
447.921, 7715.749
448.403, 7671.294
448.885, 7611.051
449.367, 7542.546
449.849, 7466.481
450.332, 7383.519
450.814, 7325.576
451.296, 7305.754
451.778, 7294.631
452.260, 7275.338
452.742, 7250.847
453.224, 7226.427
453.706, 7195.782
454.189, 7175.296
454.671, 7188.069
455.153, 7225.068
455.635, 7249.269
456.117, 7245.752
456.599, 7234.450
457.081, 7245.268
457.563, 7287.727
458.045, 7320.146
458.528, 7325.472
459.010, 7334.681
459.492, 7368.682
459.974, 7422.583
460.456, 7482.288
460.938, 7540.241
461.420, 7593.921
461.902, 7633.107
462.384, 7645.788
462.867, 7670.739
463.349, 7722.649
463.831, 7779.792
464.313, 7828.858
464.795, 7869.275
465.277, 7907.729
465.759, 7947.619
466.241, 7988.939
466.724, 8039.878
467.206, 8105.723
467.688, 8141.630
468.170, 8119.021
468.652, 8054.269
469.134, 7985.655
469.616, 7911.929
470.098, 7838.744
470.580, 7765.839
471.063, 7695.338
471.545, 7632.378
472.027, 7576.354
472.509, 7515.697
472.991, 7440.452
473.473, 7350.823
473.955, 7263.278
474.437, 7167.710
474.919, 7086.140
475.402, 7031.900
475.884, 6987.755
476.366, 6936.631
476.848, 6874.135
477.330, 6808.014
477.812, 6743.878
478.294, 6681.943
478.776, 6630.575
479.259, 6594.624
479.741, 6560.802
480.223, 6516.674
480.705, 6470.127
481.187, 6436.621
481.669, 6426.229
482.151, 6416.974
482.633, 6391.322
483.116, 6356.987
483.598, 6330.525
484.080, 6316.388
484.562, 6307.417
485.044, 6295.840
485.526, 6280.968
486.008, 6270.372
486.490, 6270.203
486.972, 6266.882
487.454, 6252.315
487.937, 6232.744
488.419, 6218.173
488.901, 6212.310
489.383, 6208.679
489.865, 6195.145
490.347, 6169.396
490.829, 6156.802
491.311, 6171.097
491.794, 6182.709
492.276, 6171.638
492.758, 6145.583
493.240, 6121.883
493.722, 6103.415
494.204, 6091.889
494.686, 6092.968
495.168, 6102.881
495.651, 6108.975
496.133, 6107.622
496.615, 6101.582
497.097, 6094.584
497.579, 6087.357
498.061, 6074.056
498.543, 6049.804
499.025, 6025.004
499.507, 6000.925
499.990, 5980.407
500.472, 5968.087
500.954, 5965.943
501.436, 5970.206
501.918, 5977.960
502.400, 5992.121
502.882, 5991.470
503.364, 5965.319
503.846, 5934.282
504.329, 5904.880
504.811, 5879.783
505.293, 5865.725
505.775, 5867.854
506.257, 5878.039
506.739, 5884.516
507.221, 5891.790
507.703, 5925.240
508.185, 5998.671
508.668, 6067.801
509.150, 6071.036
509.632, 5989.696
510.114, 5940.444
510.596, 5945.001
511.078, 5956.584
511.560, 5960.720
512.042, 5956.638
512.525, 5941.784
513.007, 5915.303
513.489, 5890.477
513.971, 5892.254
514.453, 5925.052
514.935, 5945.169
515.417, 5944.887
515.899, 5937.139
516.381, 5930.131
516.864, 5921.954
517.346, 5907.113
517.828, 5877.600
518.310, 5850.711
518.792, 5839.212
519.274, 5841.180
519.756, 5855.371
520.239, 5882.430
520.721, 5909.702
521.203, 5924.874
521.685, 5928.887
522.167, 5910.507
522.649, 5828.557
523.131, 5774.500
523.613, 5799.954
524.095, 5860.135
524.578, 5897.234
525.060, 5892.835
525.542, 5869.387
526.024, 5846.721
526.506, 5825.468
526.988, 5828.530
527.470, 5873.541
527.952, 5909.121
528.434, 5891.380
528.917, 5846.216
529.399, 5818.635
529.881, 5821.917
530.363, 5828.080
530.845, 5820.434
531.327, 5807.391
531.809, 5804.741
532.291, 5814.048
532.773, 5819.225
533.256, 5803.408
533.738, 5769.483
534.220, 5758.363
534.702, 5797.381
535.184, 5823.436
535.666, 5816.670
536.148, 5800.604
536.630, 5796.361
537.112, 5806.859
537.595, 5821.267
538.077, 5830.525
538.559, 5836.892
539.041, 5849.504
539.523, 5869.990
540.005, 5882.924
540.487, 5877.978
540.969, 5863.253
541.452, 5855.083
541.934, 5853.892
542.416, 5856.634
542.898, 5875.730
543.380, 5888.672
543.862, 5864.907
544.344, 5815.808
544.826, 5784.753
545.308, 5799.709
545.791, 5840.624
546.273, 5852.257
546.755, 5823.540
547.237, 5798.722
547.719, 5778.230
548.201, 5768.083
548.683, 5778.615
549.166, 5803.780
549.648, 5822.624
550.130, 5824.205
550.612, 5818.284
551.094, 5812.749
551.576, 5807.903
552.058, 5804.810
552.540, 5803.786
553.022, 5804.602
553.505, 5806.962
553.987, 5810.756
554.469, 5816.796
554.951, 5833.485
555.433, 5842.591
555.915, 5829.939
556.397, 5809.626
556.879, 5800.095
557.362, 5806.948
557.844, 5822.491
558.326, 5844.475
558.808, 5870.331
559.290, 5874.994
559.772, 5849.973
560.254, 5828.710
560.736, 5835.737
561.218, 5858.078
561.701, 5861.709
562.183, 5830.713
562.665, 5815.635
563.147, 5850.674
563.629, 5897.508
564.111, 5917.546
564.593, 5908.923
565.075, 5886.367
565.557, 5857.933
566.040, 5828.356
566.522, 5816.361
567.004, 5830.689
567.486, 5840.349
567.968, 5835.281
568.450, 5828.543
568.932, 5830.692
569.414, 5839.004
569.896, 5840.140
570.379, 5822.333
570.861, 5800.671
571.343, 5787.243
571.825, 5782.627
572.307, 5791.653
572.789, 5817.080
573.271, 5845.267
573.753, 5859.904
574.235, 5859.455
574.718, 5856.962
575.200, 5849.196
575.682, 5843.391
576.164, 5841.545
576.646, 5842.625
577.128, 5845.297
577.610, 5849.213
578.093, 5854.794
578.575, 5861.480
579.057, 5870.135
579.539, 5887.915
580.021, 5917.485
580.503, 5933.564
580.985, 5914.875
581.467, 5879.996
581.949, 5876.864
582.432, 5919.204
582.914, 5950.950
583.396, 5963.061
583.878, 5963.541
584.360, 5947.418
584.842, 5924.656
585.324, 5920.453
585.806, 5949.810
586.289, 5991.794
586.771, 6005.154
587.253, 5986.413
587.735, 5971.475
588.217, 5957.988
588.699, 5958.908
589.181, 6003.851
589.663, 6070.270
590.145, 6098.325
590.628, 6051.665
591.110, 6005.230
591.592, 5994.255
592.074, 6005.358
592.556, 6025.360
593.038, 6049.422
593.520, 6068.999
594.002, 6077.593
594.484, 6075.349
594.967, 6060.998
595.449, 6024.341
595.931, 5997.504
596.413, 5997.284
596.895, 6001.193
597.377, 5989.576
597.859, 5965.463
598.341, 5953.216
598.823, 5968.912
599.306, 5996.383
599.788, 6028.676
600.270, 6060.017
600.752, 6067.103
601.234, 6041.752
601.716, 6015.692
602.198, 6032.093
602.680, 6097.658
603.162, 6126.216
603.645, 6074.389
604.127, 6038.042
604.609, 6052.644
605.091, 6083.726
605.573, 6092.933
606.055, 6074.241
606.537, 6054.406
607.019, 6050.270
607.502, 6057.932
607.984, 6071.727
608.466, 6091.249
608.948, 6117.794
609.430, 6156.599
609.912, 6189.692
610.394, 6181.125
610.876, 6106.052
611.359, 6066.564
611.841, 6077.044
612.323, 6103.411
612.805, 6147.729
613.287, 6193.310
613.769, 6214.812
614.251, 6203.830
614.733, 6183.230
615.216, 6176.180
615.698, 6178.327
616.180, 6174.245
616.662, 6162.410
617.144, 6150.734
617.626, 6140.513
618.108, 6136.513
618.590, 6153.867
619.072, 6222.587
619.555, 6250.750
620.037, 6195.828
620.519, 6136.000
621.001, 6117.544
621.483, 6131.270
621.965, 6151.898
622.447, 6168.867
622.929, 6182.235
623.411, 6189.581
623.894, 6192.286
624.376, 6202.327
624.858, 6223.313
625.340, 6241.629
625.822, 6248.613
626.304, 6246.105
626.786, 6239.883
627.268, 6217.508
627.750, 6213.237
628.233, 6251.275
628.715, 6292.880
629.197, 6304.786
629.679, 6294.409
630.161, 6290.273
630.643, 6308.557
631.125, 6336.836
631.607, 6356.551
632.089, 6367.871
632.572, 6374.155
633.054, 6373.968
633.536, 6374.247
634.018, 6379.068
634.500, 6388.616
634.982, 6403.229
635.464, 6430.123
635.946, 6451.154
636.429, 6462.086
636.911, 6466.327
637.393, 6460.704
637.875, 6450.442
638.357, 6451.068
638.839, 6473.991
639.321, 6505.747
639.803, 6519.562
640.286, 6515.684
640.768, 6516.886
641.250, 6525.530
641.732, 6543.633
642.214, 6579.242
642.696, 6627.080
643.178, 6656.442
643.660, 6648.652
644.143, 6647.974
644.625, 6674.161
645.107, 6703.098
645.589, 6708.684
646.071, 6695.416
646.553, 6689.018
647.035, 6706.842
647.517, 6735.389
647.999, 6750.546
648.482, 6752.589
648.964, 6749.953
649.446, 6741.405
649.928, 6736.311
650.410, 6742.795
650.892, 6759.708
651.374, 6777.914
651.856, 6809.399
652.338, 6826.091
652.821, 6806.199
653.303, 6782.134
653.785, 6785.476
654.267, 6811.198
654.749, 6832.529
655.231, 6833.591
655.713, 6822.363
656.195, 6808.072
656.677, 6791.611
657.160, 6784.164
657.642, 6788.855
658.124, 6797.822
658.606, 6807.168
659.088, 6815.724
659.570, 6816.232
660.052, 6802.829
660.534, 6790.392
661.016, 6788.173
661.499, 6781.066
661.981, 6752.686
662.463, 6709.362
662.945, 6670.280
663.427, 6643.495
663.909, 6629.940
664.391, 6641.739
664.873, 6670.109
