##NAMES=Hornesite
##RRUFFID=R060724
##IDEAL CHEMISTRY=Mg_3_(As^5+^O_4_)_2_&#183;8H_2_O
##LOCALITY=Huercal Overa, Almeria Province, Spain
##OWNER=RRUFF
##SOURCE=Bob Jenkins
##DESCRIPTION=Stellate aggregate of pearly white bladed crystals associated with green conichalcite
##STATUS=The identification of this mineral is confirmed by single-crystal X-ray diffraction and chemical analysis.
##URL=rruff.info/R060724
##MEASURED CHEMISTRY=(Mg_2.88_Fe_0.10_Mn_0.02_)_Σ=3_(As_1.00_O_4_)_2_·7.82H_2_ ; H_2_O estimated by difference
145.147, 12891.000
145.629, 13057.530
146.111, 13210.770
146.593, 13339.100
147.075, 13447.130
147.557, 13570.980
148.039, 13717.860
148.521, 13873.420
149.004, 14029.320
149.486, 14173.060
149.968, 14328.970
150.450, 14515.500
150.932, 14740.160
151.414, 14922.720
151.896, 15011.300
152.378, 15079.200
152.861, 15198.490
153.343, 15425.900
153.825, 15659.460
154.307, 15870.990
154.789, 16051.360
155.271, 16246.550
155.753, 16453.529
156.235, 16680.939
156.717, 16944.570
157.200, 17281.211
157.682, 17632.580
158.164, 17986.920
158.646, 18396.510
159.128, 18706.500
159.610, 18884.971
160.092, 18932.100
160.574, 18850.439
161.057, 18573.221
161.539, 18202.869
162.021, 17803.920
162.503, 17351.760
162.985, 16917.160
163.467, 16519.600
163.949, 16163.400
164.431, 15851.220
164.913, 15588.510
165.396, 15370.150
165.878, 15191.220
166.360, 15062.740
166.842, 14964.570
167.324, 14888.190
167.806, 14833.640
168.288, 14796.710
168.770, 14783.840
169.253, 14785.580
169.735, 14787.840
170.217, 14776.370
170.699, 14768.160
171.181, 14774.490
171.663, 14795.220
172.145, 14838.630
172.627, 14921.350
173.109, 15032.410
173.592, 15148.690
174.074, 15253.850
174.556, 15359.360
175.038, 15482.980
175.520, 15633.760
176.002, 15783.070
176.484, 15902.420
176.966, 15993.700
177.449, 16066.530
177.931, 16118.410
178.413, 16156.420
178.895, 16196.610
179.377, 16247.590
179.859, 16292.580
180.341, 16308.890
180.823, 16297.760
181.305, 16269.430
181.788, 16225.200
182.270, 16169.060
182.752, 16112.800
183.234, 16068.780
183.716, 16019.230
184.198, 15922.160
184.680, 15776.770
185.162, 15624.140
185.645, 15496.980
186.127, 15393.390
186.609, 15298.180
187.091, 15206.210
187.573, 15119.510
188.055, 15042.000
188.537, 14970.320
189.019, 14923.100
189.501, 14928.050
189.984, 14982.050
190.466, 15045.540
190.948, 15097.170
191.430, 15143.660
191.912, 15223.020
192.394, 15339.420
192.876, 15475.920
193.358, 15600.860
193.840, 15713.010
194.323, 15856.790
194.805, 16051.590
195.287, 16296.630
195.769, 16575.420
196.251, 16891.180
196.733, 17241.930
197.215, 17618.711
197.697, 18022.230
198.180, 18461.330
198.662, 18942.740
199.144, 19471.789
199.626, 20021.010
200.108, 20585.240
200.590, 21175.350
201.072, 21802.350
201.554, 22466.561
202.036, 23179.619
202.519, 23938.590
203.001, 24737.750
203.483, 25649.881
203.965, 26741.590
204.447, 27931.930
204.929, 28949.930
205.411, 29835.070
205.893, 30449.090
206.376, 30656.949
206.858, 30409.381
207.340, 29987.580
207.822, 29386.410
208.304, 28638.250
208.786, 27935.119
209.268, 27292.250
209.750, 26681.230
210.232, 26077.891
210.714, 25485.160
211.197, 24917.590
211.679, 24390.961
212.161, 23901.811
212.643, 23368.439
213.125, 22773.289
213.607, 22169.910
214.089, 21601.961
214.572, 21067.260
215.054, 20570.830
215.536, 20118.471
216.018, 19707.689
216.500, 19330.869
216.982, 18987.289
217.464, 18681.711
217.946, 18417.920
218.428, 18203.600
218.911, 18017.420
219.393, 17854.971
219.875, 17718.279
220.357, 17601.000
220.839, 17510.461
221.321, 17433.471
221.803, 17345.641
222.285, 17235.900
222.767, 17140.930
223.250, 17079.061
223.732, 17062.061
224.214, 17022.180
224.696, 16947.939
225.178, 16859.270
225.660, 16787.410
226.142, 16743.131
226.624, 16697.660
227.107, 16639.051
227.589, 16557.330
228.071, 16492.199
228.553, 16445.789
229.035, 16413.760
229.517, 16388.279
229.999, 16370.990
230.481, 16355.960
230.963, 16338.410
231.445, 16307.820
231.928, 16300.810
232.410, 16321.800
232.892, 16365.360
233.374, 16415.859
233.856, 16468.180
234.338, 16535.439
234.820, 16625.039
235.303, 16743.461
235.785, 16869.789
236.267, 17003.180
236.749, 17145.250
237.231, 17302.320
237.713, 17501.199
238.195, 17675.359
238.677, 17784.689
239.159, 17777.350
239.641, 17817.211
240.124, 17921.150
240.606, 18075.760
241.088, 18237.830
241.570, 18425.961
242.052, 18594.211
242.534, 18711.801
243.016, 18739.971
243.498, 18801.260
243.981, 18926.480
244.463, 19091.000
244.945, 19190.900
245.427, 19218.689
245.909, 19189.369
246.391, 19104.580
246.873, 18933.980
247.355, 18767.881
247.837, 18599.990
248.320, 18438.670
248.802, 18330.900
249.284, 18298.641
249.766, 18292.061
250.248, 18282.850
250.730, 18269.471
251.212, 18257.039
251.694, 18236.590
252.176, 18216.500
252.659, 18241.080
253.141, 18321.461
253.623, 18433.180
254.105, 18566.840
254.587, 18736.070
255.069, 18892.381
255.551, 19023.910
256.033, 19136.689
256.516, 19273.461
256.998, 19439.740
257.480, 19623.150
257.962, 19818.971
258.444, 20040.500
258.926, 20243.850
259.408, 20427.660
259.890, 20590.801
260.372, 20723.699
260.855, 20827.010
261.337, 20899.420
261.819, 20936.420
262.301, 20928.051
262.783, 20910.971
263.265, 20884.570
263.747, 20851.740
264.229, 20831.980
264.711, 20832.529
265.194, 20833.160
265.676, 20819.699
266.158, 20791.551
266.640, 20751.400
267.122, 20693.830
267.604, 20624.250
268.086, 20573.029
268.569, 20537.240
269.051, 20525.949
269.533, 20558.061
270.015, 20651.711
270.497, 20709.529
270.979, 20708.859
271.461, 20663.180
271.943, 20640.250
272.425, 20650.061
272.908, 20657.650
273.390, 20636.520
273.872, 20584.600
274.354, 20518.750
274.836, 20438.920
275.318, 20346.811
275.800, 20248.730
276.282, 20145.010
276.764, 20033.510
277.247, 19908.699
277.729, 19768.711
278.211, 19629.449
278.693, 19490.910
279.175, 19354.150
279.657, 19223.010
280.139, 19097.230
280.621, 18976.820
281.103, 18862.340
281.586, 18753.689
282.068, 18646.641
282.550, 18537.000
283.032, 18431.221
283.514, 18349.600
283.996, 18293.900
284.478, 18249.561
284.960, 18210.301
285.443, 18175.680
285.925, 18134.020
286.407, 18078.859
286.889, 18021.891
287.371, 17992.100
287.853, 17990.340
288.335, 17998.350
288.817, 18004.820
289.299, 18010.311
289.782, 18018.000
290.264, 18027.199
290.746, 18039.939
291.228, 18059.199
291.710, 18084.869
292.192, 18117.971
292.674, 18157.439
293.156, 18204.289
293.638, 18261.699
294.121, 18329.029
294.603, 18408.590
295.085, 18518.270
295.567, 18653.170
296.049, 18772.279
296.531, 18821.990
297.013, 18836.910
297.496, 18909.641
297.978, 19064.391
298.460, 19243.770
298.942, 19373.250
299.424, 19461.039
299.906, 19539.520
300.388, 19623.551
300.870, 19711.160
301.352, 19800.391
301.835, 19893.551
302.317, 19975.740
302.799, 20024.350
303.281, 20047.000
303.763, 20069.600
304.245, 20106.150
304.727, 20149.260
305.209, 20191.211
305.691, 20232.590
306.174, 20265.740
306.656, 20295.180
307.138, 20312.641
307.620, 20300.711
308.102, 20253.279
308.584, 20172.000
309.066, 20052.600
309.548, 19890.449
310.030, 19717.221
310.513, 19557.350
310.995, 19398.650
311.477, 19224.070
311.959, 18999.750
312.441, 18775.590
312.923, 18591.609
313.405, 18451.561
313.887, 18319.221
314.370, 18161.490
314.852, 18002.051
315.334, 17869.650
315.816, 17796.090
316.298, 17734.000
316.780, 17656.939
317.262, 17564.020
317.744, 17483.619
318.226, 17429.180
318.709, 17392.670
319.191, 17366.850
319.673, 17368.189
320.155, 17362.580
320.637, 17330.600
321.119, 17274.141
321.601, 17233.461
322.083, 17238.680
322.565, 17252.090
323.048, 17246.461
323.530, 17183.939
324.012, 17137.211
324.494, 17118.080
324.976, 17125.490
325.458, 17150.500
325.940, 17227.230
326.422, 17297.359
326.905, 17328.990
327.387, 17288.930
327.869, 17247.150
328.351, 17193.711
328.833, 17137.400
329.315, 17113.100
329.797, 17146.680
330.279, 17188.770
330.762, 17217.820
331.244, 17221.320
331.726, 17233.570
332.208, 17259.609
332.690, 17293.859
333.172, 17322.580
333.654, 17347.961
334.136, 17364.600
334.618, 17368.730
335.100, 17355.141
335.583, 17346.000
336.065, 17338.760
336.547, 17338.020
337.029, 17354.090
337.511, 17393.061
337.993, 17432.170
338.475, 17459.330
338.957, 17471.930
339.440, 17509.010
339.922, 17585.100
340.404, 17659.850
340.886, 17667.961
341.368, 17597.830
341.850, 17544.939
342.332, 17548.490
342.814, 17599.631
343.297, 17628.260
343.779, 17629.551
344.261, 17631.850
344.743, 17674.939
345.225, 17755.990
345.707, 17820.199
346.189, 17848.939
346.671, 17853.920
347.153, 17859.080
347.635, 17863.801
348.118, 17887.420
348.600, 17961.801
349.082, 18071.211
349.564, 18161.609
350.046, 18218.039
350.528, 18253.449
351.010, 18276.240
351.492, 18290.109
351.975, 18322.779
352.457, 18417.391
352.939, 18537.551
353.421, 18618.801
353.903, 18639.000
354.385, 18645.650
354.867, 18684.750
355.349, 18748.350
355.832, 18813.221
356.314, 18876.551
356.796, 18931.199
357.278, 18963.891
357.760, 18967.641
358.242, 18978.109
358.724, 19019.320
359.206, 19082.330
359.688, 19152.350
360.171, 19223.301
360.653, 19299.391
361.135, 19385.150
361.617, 19481.930
362.099, 19576.240
362.581, 19666.840
363.063, 19751.119
363.545, 19826.350
364.027, 19893.320
364.510, 19949.150
364.992, 20004.381
365.474, 20057.471
365.956, 20063.410
366.438, 19986.311
366.920, 19876.619
367.402, 19767.250
367.884, 19631.090
368.366, 19530.770
368.849, 19494.721
369.331, 19506.830
369.813, 19489.520
370.295, 19422.359
370.777, 19346.580
371.259, 19278.051
371.741, 19205.740
372.224, 19164.590
372.706, 19167.850
373.188, 19196.801
373.670, 19209.520
374.152, 19197.301
374.634, 19185.289
375.116, 19182.420
375.598, 19189.051
376.080, 19198.760
376.562, 19210.170
377.045, 19226.270
377.527, 19255.711
378.009, 19302.689
378.491, 19336.770
378.973, 19339.990
379.455, 19320.980
379.937, 19335.230
380.419, 19386.439
380.902, 19454.270
381.384, 19528.471
381.866, 19606.939
382.348, 19668.859
382.830, 19698.891
383.312, 19721.180
383.794, 19783.561
384.276, 19883.920
384.759, 20001.830
385.241, 20133.971
385.723, 20271.461
386.205, 20385.211
386.687, 20461.240
387.169, 20537.711
387.651, 20652.990
388.133, 20799.840
388.615, 20961.141
389.098, 21130.449
389.580, 21306.430
390.062, 21488.400
390.544, 21680.381
391.026, 21865.939
391.508, 22018.131
391.990, 22161.699
392.472, 22333.131
392.954, 22567.900
393.437, 22814.930
393.919, 23055.131
394.401, 23285.170
394.883, 23508.221
395.365, 23711.189
395.847, 23913.510
396.329, 24130.301
396.811, 24370.510
397.293, 24618.609
397.776, 24874.590
398.258, 25135.369
398.740, 25398.420
399.222, 25670.029
399.704, 25937.420
400.186, 26195.900
400.668, 26451.070
401.151, 26685.850
401.633, 26900.150
402.115, 27093.641
402.597, 27270.311
403.079, 27433.650
403.561, 27574.801
404.043, 27693.811
404.525, 27792.221
405.007, 27853.080
405.490, 27874.721
405.972, 27861.830
406.454, 27815.980
406.936, 27734.961
407.418, 27639.660
407.900, 27538.150
408.382, 27424.811
408.864, 27270.859
409.346, 27073.801
409.828, 26859.939
410.311, 26639.100
410.793, 26417.990
411.275, 26223.289
411.757, 26061.650
412.239, 25921.711
412.721, 25777.850
413.203, 25635.410
413.685, 25522.320
414.168, 25472.250
414.650, 25452.900
415.132, 25413.971
415.614, 25347.789
416.096, 25298.539
416.578, 25293.590
417.060, 25329.020
417.542, 25398.660
418.025, 25527.211
418.507, 25665.580
418.989, 25768.580
419.471, 25842.760
419.953, 25963.980
420.435, 26208.529
420.917, 26487.400
421.399, 26731.090
421.881, 26890.039
422.364, 27062.439
422.846, 27263.490
423.328, 27494.221
423.810, 27750.631
424.292, 28060.609
424.774, 28374.920
425.256, 28677.350
425.738, 28971.240
426.220, 29254.660
426.703, 29527.730
427.185, 29792.721
427.667, 30052.340
428.149, 30323.699
428.631, 30552.520
429.113, 30730.471
429.595, 30856.789
430.077, 30938.039
430.560, 30982.359
431.042, 30960.850
431.524, 30849.381
432.006, 30646.900
432.488, 30367.369
432.970, 29997.650
433.452, 29575.801
433.934, 29167.811
434.417, 28778.039
434.899, 28378.020
435.381, 27934.811
435.863, 27471.410
436.345, 27053.740
436.827, 26688.350
437.309, 26337.600
437.791, 25949.561
438.273, 25550.920
438.755, 25201.080
439.238, 24944.820
439.720, 24729.400
440.202, 24496.570
440.684, 24254.490
441.166, 24058.039
441.648, 23996.590
442.130, 23964.199
442.612, 23869.381
443.095, 23664.570
443.577, 23448.680
444.059, 23231.330
444.541, 23028.039
445.023, 22869.449
445.505, 22796.910
445.987, 22739.520
446.469, 22671.859
446.952, 22587.859
447.434, 22517.461
447.916, 22464.141
448.398, 22423.160
448.880, 22391.971
449.362, 22378.480
449.844, 22360.420
450.326, 22335.211
450.808, 22303.230
451.290, 22261.750
451.773, 22200.689
452.255, 22155.641
452.737, 22151.689
453.219, 22191.471
453.701, 22232.359
454.183, 22273.461
454.665, 22312.039
455.147, 22344.000
455.630, 22369.381
456.112, 22391.721
456.594, 22392.340
457.076, 22397.449
457.558, 22488.391
458.040, 22663.160
458.522, 22831.760
459.004, 22905.631
459.487, 22929.561
459.969, 22980.961
460.451, 23088.150
460.933, 23208.240
461.415, 23299.010
461.897, 23373.090
462.379, 23461.320
462.861, 23595.570
463.343, 23734.369
463.826, 23852.010
464.308, 23944.189
464.790, 24026.051
465.272, 24104.270
465.754, 24172.211
466.236, 24224.170
466.718, 24254.900
467.200, 24274.949
467.682, 24289.471
468.165, 24296.000
468.647, 24280.410
469.129, 24246.279
469.611, 24184.500
470.093, 24087.279
470.575, 23946.020
471.057, 23795.490
471.539, 23630.420
472.022, 23463.119
472.504, 23315.439
472.986, 23190.301
473.468, 23060.689
473.950, 22920.080
474.432, 22769.430
474.914, 22607.881
475.396, 22434.859
475.878, 22272.689
476.361, 22146.039
476.843, 22044.830
477.325, 21945.100
477.807, 21845.160
478.289, 21739.490
478.771, 21600.010
479.253, 21448.650
479.735, 21339.381
480.217, 21339.000
480.700, 21362.961
481.182, 21337.779
481.664, 21259.449
482.146, 21194.760
482.628, 21194.859
483.110, 21210.910
483.592, 21201.939
484.074, 21127.551
484.556, 21061.609
485.039, 21019.869
485.521, 20996.160
486.003, 20972.770
486.485, 20951.039
486.967, 20926.580
487.449, 20898.270
487.931, 20865.939
488.414, 20829.859
488.896, 20781.520
489.378, 20742.740
489.860, 20744.699
490.342, 20799.211
490.824, 20830.920
491.306, 20822.330
491.788, 20786.430
492.270, 20752.641
492.753, 20721.260
493.235, 20699.500
493.717, 20701.789
494.199, 20716.961
494.681, 20711.260
495.163, 20680.350
495.645, 20644.340
496.127, 20616.980
496.609, 20599.301
497.092, 20595.109
497.574, 20618.070
498.056, 20642.301
498.538, 20648.789
499.020, 20640.381
499.502, 20628.070
499.984, 20613.740
500.466, 20599.570
500.948, 20585.680
501.431, 20568.520
501.913, 20562.350
502.395, 20584.721
502.877, 20614.240
503.359, 20622.971
503.841, 20580.320
504.323, 20558.070
504.805, 20576.580
505.288, 20627.971
505.770, 20656.461
506.252, 20652.090
506.734, 20644.590
507.216, 20653.811
507.698, 20681.770
508.180, 20695.230
508.662, 20686.439
509.145, 20680.320
509.627, 20731.391
510.109, 20828.910
510.591, 20884.561
511.073, 20847.311
511.555, 20765.510
512.037, 20716.240
512.519, 20697.619
513.001, 20694.270
513.484, 20699.240
513.966, 20712.221
514.448, 20736.150
514.930, 20775.869
515.412, 20808.619
515.894, 20815.699
516.376, 20809.381
516.858, 20806.910
517.341, 20807.859
517.823, 20818.010
518.305, 20848.779
518.787, 20896.891
519.269, 20921.699
519.751, 20902.029
520.233, 20877.150
520.715, 20863.689
521.197, 20858.730
521.680, 20877.170
522.162, 20935.119
522.644, 20998.211
523.126, 21010.340
523.608, 20964.131
524.090, 20925.359
524.572, 20908.971
525.054, 20913.900
525.536, 20944.430
526.019, 20999.859
526.501, 21050.961
526.983, 21075.779
527.465, 21081.711
527.947, 21082.520
528.429, 21079.520
528.911, 21071.061
529.393, 21045.211
529.875, 21015.359
530.358, 21001.650
530.840, 21031.750
531.322, 21060.859
531.804, 21067.480
532.286, 21054.930
532.768, 21037.609
533.250, 21020.340
533.732, 20998.840
534.214, 20967.279
534.697, 20914.520
535.179, 20887.119
535.661, 20896.750
536.143, 20923.471
536.625, 20947.789
537.107, 20971.631
537.589, 20988.930
538.071, 20997.740
538.554, 21000.141
539.036, 21000.160
539.518, 20997.221
540.000, 20997.789
540.482, 21002.660
540.964, 21013.270
541.446, 21039.711
541.928, 21082.980
542.411, 21124.320
542.893, 21139.240
543.375, 21141.449
543.857, 21156.811
544.339, 21205.359
544.821, 21246.311
545.303, 21245.000
545.785, 21214.930
546.268, 21188.689
546.750, 21170.010
547.232, 21165.490
547.714, 21187.051
548.196, 21239.330
548.678, 21270.350
549.160, 21251.039
549.642, 21228.449
550.124, 21235.221
550.606, 21295.760
551.089, 21329.600
551.571, 21325.000
552.053, 21299.650
552.535, 21286.131
553.017, 21285.500
553.499, 21287.660
553.981, 21291.830
554.463, 21295.311
554.945, 21286.260
555.428, 21264.820
555.910, 21244.750
556.392, 21238.949
556.874, 21240.811
557.356, 21234.619
557.838, 21213.619
558.320, 21208.949
558.802, 21263.160
559.284, 21343.699
559.767, 21405.250
560.249, 21411.820
560.731, 21416.801
561.213, 21445.150
561.695, 21489.721
562.177, 21517.320
562.659, 21503.250
563.141, 21489.689
563.624, 21493.859
564.106, 21521.221
564.588, 21534.051
565.070, 21524.859
565.552, 21511.221
566.034, 21512.301
566.516, 21529.869
566.998, 21541.971
567.481, 21543.439
567.963, 21540.650
568.445, 21542.420
568.927, 21549.449
569.409, 21566.061
569.891, 21605.330
570.373, 21650.391
570.855, 21676.631
571.338, 21684.820
571.820, 21684.590
572.302, 21668.980
572.784, 21655.400
573.266, 21662.340
573.748, 21705.150
574.230, 21738.211
574.712, 21748.010
575.194, 21739.820
575.677, 21720.250
576.159, 21666.270
576.641, 21632.311
577.123, 21629.461
577.605, 21653.670
578.087, 21688.580
578.569, 21745.891
579.051, 21785.561
579.533, 21777.289
580.016, 21723.439
580.498, 21697.689
580.980, 21702.311
581.462, 21721.020
581.944, 21745.439
582.426, 21771.100
582.908, 21782.500
583.390, 21770.010
583.872, 21755.240
584.355, 21762.939
584.837, 21783.359
585.319, 21796.529
585.801, 21773.910
586.283, 21758.881
586.765, 21779.061
587.247, 21832.680
587.729, 21881.609
588.211, 21920.461
588.694, 21951.039
589.176, 21974.840
589.658, 21992.869
590.140, 22001.311
590.622, 21998.711
591.104, 21988.439
591.586, 21970.689
592.068, 21943.369
592.551, 21928.900
593.033, 21933.779
593.515, 21951.539
593.997, 21968.990
594.479, 21986.770
594.961, 22009.359
595.443, 22045.660
595.925, 22085.090
596.407, 22113.801
596.890, 22131.961
597.372, 22145.279
597.854, 22156.449
598.336, 22165.070
598.818, 22169.740
599.300, 22166.221
599.782, 22168.311
600.265, 22183.160
600.747, 22203.600
601.229, 22220.131
601.711, 22230.160
602.193, 22239.211
602.675, 22242.750
603.157, 22246.920
603.639, 22276.711
604.121, 22336.660
604.604, 22397.900
605.086, 22450.359
605.568, 22492.740
606.050, 22518.340
606.532, 22526.461
607.014, 22530.650
607.496, 22546.891
607.978, 22565.410
608.460, 22565.010
608.943, 22532.721
609.425, 22512.650
609.907, 22547.080
610.389, 22607.551
610.871, 22654.000
611.353, 22661.000
611.835, 22667.730
612.317, 22687.260
612.799, 22715.529
613.282, 22734.000
613.764, 22736.641
614.246, 22739.029
614.728, 22744.670
615.210, 22753.820
615.692, 22780.961
616.174, 22831.779
616.656, 22880.189
617.138, 22901.779
617.621, 22901.400
618.103, 22897.230
618.585, 22888.000
619.067, 22890.730
619.549, 22944.471
620.031, 23019.760
620.513, 23062.980
620.995, 23013.789
621.477, 22969.340
621.960, 22993.850
622.442, 23066.410
622.924, 23125.410
623.406, 23145.539
623.888, 23158.539
624.370, 23175.859
624.852, 23198.131
625.334, 23208.699
625.817, 23196.920
626.299, 23190.789
626.781, 23216.020
627.263, 23276.650
627.745, 23305.141
628.227, 23290.820
628.709, 23273.221
629.191, 23311.420
629.674, 23389.990
630.156, 23451.461
630.638, 23479.779
631.120, 23489.480
631.602, 23482.090
632.084, 23467.160
632.566, 23466.971
633.048, 23495.910
633.531, 23538.131
634.013, 23592.391
634.495, 23657.480
634.977, 23710.551
635.459, 23751.160
635.941, 23776.900
636.423, 23783.080
636.905, 23763.439
637.387, 23750.600
637.870, 23737.051
638.352, 23745.930
638.834, 23822.430
