##NAMES=Howieite
##RRUFFID=R060031
##IDEAL CHEMISTRY=Na(Fe^2+^,Fe^3+^,Al,Mg)_12_(Si_6_O_17_)_2_(O,OH)_10_
##LOCALITY=Laytonville quarry, near Longvale, California, USA
##OWNER=RRUFF
##SOURCE=University of Arizona Mineral Museum
##DESCRIPTION=Black bladed crystals associated with quartz and siderite
##STATUS=The identification of this mineral is confirmed by single-crystal X-ray diffraction and chemical analysis.
##URL=rruff.info/R060031
##MEASURED CHEMISTRY=Na_1.00_(Fe^3+^_4.41_Mn_2.68_Fe^2+^_3.89_Al_0.59_Mg_0.43_)_Î£=12_(Si_6.00_O_17_)_2_(OH)_10_
89.78320, 340.7678
90.26532, 341.8150
90.74744, 342.0024
91.22955, 340.3319
91.71167, 339.7843
92.19379, 345.9151
92.67590, 357.6801
93.15802, 366.6135
93.64014, 365.2196
94.12225, 356.0723
94.60437, 345.7243
95.08649, 334.5793
95.56860, 323.9156
96.05072, 318.0238
96.53284, 317.6324
97.01495, 317.3721
97.49707, 310.6892
97.97919, 297.7822
98.46130, 286.5517
98.94342, 279.0579
99.42554, 275.0808
99.90765, 274.0234
100.3898, 276.8161
100.8719, 280.4843
101.3540, 280.6137
101.8361, 276.6392
102.3182, 271.7094
102.8004, 266.7281
103.2825, 261.5311
103.7646, 257.1123
104.2467, 253.3748
104.7288, 250.4302
105.2109, 248.4805
105.6931, 246.9261
106.1752, 247.0338
106.6573, 249.2864
107.1394, 253.3537
107.6215, 259.9779
108.1036, 272.3553
108.5858, 288.4724
109.0679, 296.9883
109.5500, 294.4376
110.0321, 287.2864
110.5142, 279.0414
110.9963, 266.4310
111.4785, 256.3900
111.9606, 250.0039
112.4427, 247.1443
112.9248, 245.7054
113.4069, 246.0419
113.8890, 247.3000
114.3712, 248.8018
114.8533, 249.4758
115.3354, 251.1966
115.8175, 255.1938
116.2996, 261.8074
116.7817, 267.5172
117.2639, 270.7991
117.7460, 272.6119
118.2281, 274.1651
118.7102, 277.1001
119.1923, 279.0989
119.6744, 278.3035
120.1566, 274.0018
120.6387, 269.3370
121.1208, 265.6609
121.6029, 263.0148
122.0850, 261.5466
122.5671, 260.6192
123.0493, 261.1984
123.5314, 264.8808
124.0135, 273.0153
124.4956, 281.5551
124.9777, 287.6390
125.4598, 291.1465
125.9420, 291.4538
126.4241, 285.8576
126.9062, 277.0323
127.3883, 269.8414
127.8704, 265.3946
128.3525, 262.8738
128.8347, 261.0053
129.3168, 259.8247
129.7989, 259.9923
130.2810, 263.0788
130.7631, 268.2682
131.2452, 272.3112
131.7274, 274.1992
132.2095, 274.5035
132.6916, 274.8425
133.1737, 275.3070
133.6558, 275.1587
134.1379, 273.1011
134.6201, 269.1768
135.1022, 266.0873
135.5843, 264.8137
136.0664, 265.1372
136.5485, 265.5192
137.0306, 265.9637
137.5128, 266.4640
137.9949, 266.8620
138.4770, 267.0071
138.9591, 267.8168
139.4412, 269.6758
139.9233, 272.6187
140.4055, 276.2191
140.8876, 281.4689
141.3697, 286.3441
141.8518, 287.2505
142.3339, 282.8828
142.8160, 277.4881
143.2982, 272.2513
143.7803, 266.7809
144.2624, 262.9191
144.7445, 261.0580
145.2266, 260.7012
145.7087, 260.7747
146.1909, 261.2429
146.6730, 262.1878
147.1551, 263.7206
147.6372, 266.4678
148.1193, 268.7531
148.6014, 270.9516
149.0836, 272.7491
149.5657, 273.0832
150.0478, 270.7201
150.5299, 267.8875
151.0120, 265.5318
151.4941, 263.3739
151.9763, 262.0340
152.4584, 262.1671
152.9405, 263.3790
153.4226, 263.6888
153.9047, 261.9578
154.3868, 259.9265
154.8690, 258.5425
155.3511, 257.5985
155.8332, 257.6381
156.3153, 260.1271
156.7974, 264.4987
157.2795, 266.2024
157.7617, 262.1229
158.2438, 256.1576
158.7259, 251.1222
159.2080, 247.6448
159.6901, 245.1886
160.1722, 243.9979
160.6544, 244.0002
161.1365, 243.8849
161.6186, 242.7565
162.1007, 241.4805
162.5828, 240.8294
163.0649, 241.2126
163.5471, 242.1483
164.0292, 243.8904
164.5113, 246.4411
164.9934, 248.1367
165.4755, 247.6639
165.9576, 245.9770
166.4398, 244.2697
166.9219, 242.8138
167.4040, 241.5957
167.8861, 240.5921
168.3682, 239.7895
168.8503, 239.3043
169.3325, 239.5436
169.8146, 240.1169
170.2967, 240.3900
170.7788, 239.4086
171.2609, 238.3887
171.7430, 238.8630
172.2252, 241.1389
172.7073, 242.9872
173.1894, 242.0866
173.6715, 239.3656
174.1536, 236.9518
174.6357, 235.9831
175.1179, 235.7984
175.6000, 235.7177
176.0821, 235.7334
176.5642, 235.5951
177.0463, 234.7305
177.5284, 233.4278
178.0106, 232.5842
178.4927, 232.9281
178.9748, 233.9834
179.4569, 235.0435
179.9390, 236.1196
180.4211, 236.9457
180.9033, 237.0176
181.3854, 236.4843
181.8675, 236.0471
182.3496, 236.1465
182.8317, 236.6353
183.3138, 237.1975
183.7960, 237.8199
184.2781, 238.4406
184.7602, 238.9020
185.2423, 239.2330
185.7244, 239.6458
186.2065, 240.2359
186.6887, 241.0071
187.1708, 242.0858
187.6529, 243.6223
188.1350, 245.1702
188.6171, 245.8941
189.0992, 245.8123
189.5814, 245.4318
190.0635, 244.8946
190.5456, 244.2570
191.0277, 243.9756
191.5098, 244.1575
191.9919, 244.6255
192.4741, 245.1852
192.9562, 245.8577
193.4383, 246.1607
193.9204, 245.6413
194.4025, 244.3414
194.8846, 242.9603
195.3668, 241.5250
195.8489, 240.1106
196.3310, 238.9733
196.8131, 238.1573
197.2952, 237.2816
197.7773, 236.1023
198.2595, 234.6210
198.7416, 232.8619
199.2237, 230.7461
199.7058, 228.4429
200.1879, 226.4417
200.6700, 224.7483
201.1522, 223.2547
201.6343, 221.8134
202.1164, 220.3861
202.5985, 219.4695
203.0806, 219.2935
203.5627, 219.5829
204.0449, 219.4936
204.5270, 219.0050
205.0091, 218.1999
205.4912, 216.9148
205.9733, 214.9535
206.4554, 213.7630
206.9376, 213.7750
207.4197, 214.6015
207.9018, 214.6905
208.3839, 213.8038
208.8660, 212.7870
209.3481, 212.2549
209.8303, 212.3180
210.3124, 212.3575
210.7945, 212.2836
211.2766, 212.1440
211.7587, 212.1631
212.2408, 212.4406
212.7230, 212.6691
213.2051, 212.5895
213.6872, 212.0547
214.1693, 211.7183
214.6514, 211.6914
215.1335, 211.9112
215.6157, 212.1059
216.0978, 212.2796
216.5799, 212.4111
217.0620, 212.4841
217.5441, 212.4865
218.0262, 212.4609
218.5084, 212.4312
218.9905, 212.3756
219.4726, 212.1706
219.9547, 211.7167
220.4368, 211.2815
220.9189, 211.0762
221.4011, 211.2504
221.8832, 211.2811
222.3653, 211.1859
222.8474, 210.9236
223.3295, 210.1772
223.8116, 208.5364
224.2938, 207.0857
224.7759, 206.5416
225.2580, 207.2908
225.7401, 208.0405
226.2222, 208.8012
226.7043, 209.4939
227.1865, 209.7623
227.6686, 209.3241
228.1507, 208.8703
228.6328, 208.8708
229.1149, 209.7236
229.5970, 210.0792
230.0792, 209.7139
230.5613, 208.7930
231.0434, 207.9311
231.5255, 207.0248
232.0076, 206.3489
232.4897, 206.0970
232.9719, 206.4739
233.4540, 206.8291
233.9361, 207.1734
234.4182, 207.4809
234.9003, 207.6589
235.3824, 207.6747
235.8646, 207.6083
236.3467, 207.4612
236.8288, 207.0710
237.3109, 206.9776
237.7930, 207.3516
238.2751, 208.0024
238.7573, 208.3369
239.2394, 208.2201
239.7215, 207.9714
240.2036, 207.6797
240.6857, 207.1447
241.1678, 207.0470
241.6500, 207.6298
242.1321, 208.5781
242.6142, 209.0848
243.0963, 208.9428
243.5784, 208.6556
244.0605, 208.4289
244.5427, 208.2929
245.0248, 208.1304
245.5069, 207.8837
245.9890, 207.6365
246.4711, 207.6163
246.9532, 208.0604
247.4354, 208.3448
247.9175, 208.1890
248.3996, 207.4181
248.8817, 206.7750
249.3638, 206.2376
249.8459, 205.8448
250.3281, 205.7256
250.8102, 206.1575
251.2923, 206.3782
251.7744, 206.0111
252.2565, 204.7911
252.7386, 204.1609
253.2208, 204.3860
253.7029, 205.0062
254.1850, 205.3105
254.6671, 205.2103
255.1492, 204.9570
255.6313, 204.5918
256.1135, 204.0882
256.5956, 203.6382
257.0777, 203.2506
257.5598, 202.9058
258.0419, 202.5729
258.5240, 202.2281
259.0062, 201.9532
259.4883, 201.8072
259.9704, 201.8099
260.4525, 201.6498
260.9346, 201.2517
261.4167, 200.7880
261.8989, 200.4549
262.3810, 200.2833
262.8631, 200.1777
263.3452, 200.1260
263.8273, 200.1308
264.3094, 200.2051
264.7916, 200.4320
265.2737, 200.6085
265.7558, 200.4945
266.2379, 199.9768
266.7200, 199.5567
267.2021, 199.3698
267.6843, 199.3832
268.1664, 199.2258
268.6485, 198.7950
269.1306, 198.4023
269.6127, 198.3772
270.0948, 198.8344
270.5770, 199.1254
271.0591, 199.1124
271.5412, 198.8478
272.0233, 198.5630
272.5054, 198.2368
272.9875, 197.9520
273.4697, 197.7851
273.9518, 197.7529
274.4339, 197.7185
274.9160, 197.6797
275.3981, 197.6217
275.8802, 197.4398
276.3624, 197.0757
276.8445, 196.8370
277.3266, 197.0895
277.8087, 197.9024
278.2908, 198.1154
278.7729, 197.4604
279.2551, 196.3645
279.7372, 195.8539
280.2193, 196.0095
280.7014, 196.2214
281.1835, 196.1763
281.6656, 195.8770
282.1478, 195.4459
282.6299, 194.7992
283.1120, 194.2011
283.5941, 194.1948
284.0762, 194.8108
284.5583, 195.4181
285.0405, 195.7507
285.5226, 195.8247
286.0047, 195.7454
286.4868, 195.4750
286.9689, 195.1786
287.4510, 195.1111
287.9332, 195.2601
288.4153, 195.3812
288.8974, 195.2825
289.3795, 195.0718
289.8616, 195.2545
290.3438, 195.8847
290.8259, 196.5310
291.3080, 196.6264
291.7901, 196.2652
292.2722, 196.0327
292.7543, 196.2253
293.2365, 196.6227
293.7186, 196.6557
294.2007, 196.3186
294.6828, 195.9460
295.1649, 195.7974
295.6470, 195.8509
296.1292, 196.0383
296.6113, 196.3694
297.0934, 196.7938
297.5755, 197.3313
298.0576, 197.9598
298.5397, 198.4174
299.0219, 198.4645
299.5040, 198.2102
299.9861, 197.8566
300.4682, 197.3847
300.9503, 196.9514
301.4324, 196.7360
301.9146, 196.7227
302.3967, 196.8312
302.8788, 197.1949
303.3609, 197.5959
303.8430, 197.6582
304.3251, 197.2584
304.8073, 196.7948
305.2894, 196.6118
305.7715, 196.6473
306.2536, 196.7468
306.7357, 196.8665
307.2178, 196.9882
307.7000, 197.1856
308.1821, 197.4978
308.6642, 197.5178
309.1463, 196.6126
309.6284, 195.2710
310.1105, 194.2436
310.5927, 194.0755
311.0748, 194.1833
311.5569, 194.2675
312.0390, 194.3113
312.5211, 194.1220
313.0032, 193.4013
313.4854, 192.4639
313.9675, 191.6538
314.4496, 191.1073
314.9317, 190.7009
315.4138, 190.3955
315.8959, 190.1897
316.3781, 190.0529
316.8602, 190.0818
317.3423, 190.1165
317.8244, 190.0417
318.3065, 189.8191
318.7886, 189.5048
319.2708, 189.1012
319.7529, 188.6181
320.2350, 188.0810
320.7171, 187.2695
321.1992, 186.5803
321.6813, 186.2283
322.1635, 186.3475
322.6456, 186.5524
323.1277, 186.9403
323.6098, 187.3399
324.0919, 187.4659
324.5740, 187.1190
325.0562, 186.6294
325.5383, 186.0018
326.0204, 185.1134
326.5025, 184.6038
326.9846, 184.7602
327.4667, 185.2180
327.9489, 185.5911
328.4310, 185.7337
328.9131, 185.9598
329.3952, 186.4602
329.8773, 187.2546
330.3594, 187.5455
330.8416, 186.9399
331.3237, 186.1637
331.8058, 185.7150
332.2879, 185.6316
332.7700, 185.8349
333.2521, 186.4942
333.7343, 187.4609
334.2164, 187.9792
334.6985, 187.7946
335.1806, 187.5461
335.6627, 187.5904
336.1448, 188.0515
336.6270, 188.4007
337.1091, 188.5427
337.5912, 188.6241
338.0733, 188.9883
338.5554, 189.7231
339.0375, 190.4513
339.5197, 191.0740
340.0018, 191.5963
340.4839, 191.7904
340.9660, 191.5726
341.4481, 191.2018
341.9302, 190.9255
342.4124, 190.7239
342.8945, 190.8775
343.3766, 191.6614
343.8587, 192.8582
344.3408, 193.4383
344.8229, 193.3356
345.3051, 193.0364
345.7872, 193.1118
346.2693, 193.4557
346.7514, 193.2680
347.2335, 192.1691
347.7156, 190.7399
348.1978, 190.2363
348.6799, 190.5937
349.1620, 190.9805
349.6441, 190.9012
350.1262, 190.4378
350.6083, 189.6731
351.0905, 188.5052
351.5726, 187.4325
352.0547, 187.2066
352.5368, 187.5861
353.0189, 187.8399
353.5010, 187.4300
353.9832, 186.7710
354.4653, 186.3997
354.9474, 186.3451
355.4295, 186.2924
355.9116, 185.9873
356.3937, 185.5230
356.8759, 185.0440
357.3580, 184.4688
357.8401, 184.0021
358.3222, 183.8047
358.8043, 183.8521
359.2864, 184.0106
359.7686, 184.4057
360.2507, 184.7790
360.7328, 184.8742
361.2149, 184.4119
361.6970, 184.0429
362.1791, 184.2077
362.6613, 184.6596
363.1434, 184.8327
363.6255, 184.1036
364.1076, 183.4064
364.5897, 183.2222
365.0718, 183.7639
365.5540, 184.2697
366.0361, 184.7588
366.5182, 185.0912
367.0003, 185.0990
367.4824, 184.3087
367.9645, 183.6640
368.4467, 183.4095
368.9288, 183.5718
369.4109, 183.7251
369.8930, 184.0497
370.3751, 184.2328
370.8572, 184.0236
371.3394, 182.9503
371.8215, 182.3076
372.3036, 182.4031
372.7857, 182.9897
373.2678, 183.1204
373.7499, 182.4309
374.2321, 181.9296
374.7142, 182.2577
375.1963, 183.8073
375.6784, 184.4482
376.1605, 183.9195
376.6426, 182.7995
377.1248, 181.9473
377.6069, 181.3685
378.0890, 180.9617
378.5711, 180.7542
379.0532, 180.7089
379.5353, 180.5567
380.0175, 180.2811
380.4996, 179.9787
380.9817, 179.7649
381.4638, 179.6239
381.9459, 179.3964
382.4280, 179.0187
382.9102, 178.5818
383.3923, 178.2973
383.8744, 178.1452
384.3565, 177.9579
384.8386, 177.6674
385.3207, 177.2584
385.8029, 176.6513
386.2850, 175.7908
386.7671, 174.9556
387.2492, 174.3652
387.7313, 174.0115
388.2134, 173.8910
388.6956, 174.2353
389.1777, 174.6609
389.6598, 174.8489
390.1419, 174.7973
390.6240, 174.5827
391.1061, 174.1136
391.5883, 173.5661
392.0704, 173.1271
392.5525, 172.9158
393.0346, 172.7331
393.5167, 172.3621
393.9988, 171.9310
394.4810, 171.7916
394.9631, 172.5380
395.4452, 173.2405
395.9273, 173.3465
396.4094, 172.5358
396.8915, 171.9518
397.3737, 171.9253
397.8558, 172.1943
398.3379, 172.4357
398.8200, 172.5350
399.3021, 172.6873
399.7842, 172.9045
400.2664, 173.1853
400.7485, 173.6237
401.2306, 174.5091
401.7127, 175.2603
402.1948, 175.4318
402.6769, 174.5196
403.1591, 174.1366
403.6412, 174.5283
404.1233, 175.4306
404.6054, 176.2606
405.0875, 177.0711
405.5696, 177.6296
406.0518, 177.7654
406.5339, 177.4651
407.0160, 177.2799
407.4981, 177.2242
407.9802, 177.2566
408.4623, 177.3886
408.9445, 177.6181
409.4266, 177.7169
409.9087, 177.5949
410.3908, 177.3362
410.8729, 177.0374
411.3550, 176.7085
411.8372, 176.6208
412.3193, 177.3357
412.8014, 178.4074
413.2835, 178.6376
413.7656, 177.6860
414.2477, 176.6249
414.7299, 176.6697
415.2120, 177.5106
415.6941, 178.4031
416.1762, 179.1453
416.6583, 179.6894
417.1404, 179.9727
417.6226, 179.9977
418.1047, 179.8578
418.5868, 179.2116
419.0689, 178.6090
419.5510, 178.6043
420.0331, 179.8812
420.5153, 181.0576
420.9974, 181.4231
421.4795, 181.2751
421.9616, 181.3498
422.4437, 182.0905
422.9258, 182.8831
423.4080, 183.5422
423.8901, 184.1452
424.3722, 184.3179
424.8543, 183.5155
425.3364, 182.5242
425.8185, 182.1274
426.3007, 182.7979
426.7828, 183.3682
427.2649, 183.5984
427.7470, 183.5649
428.2291, 183.8276
428.7112, 184.6023
429.1934, 185.2889
429.6755, 185.5241
430.1576, 185.2038
430.6397, 184.9038
431.1218, 184.5749
431.6039, 184.3704
432.0861, 184.7182
432.5682, 185.6784
433.0503, 186.2231
433.5324, 185.8029
434.0145, 184.7370
434.4966, 184.1805
434.9788, 184.1488
435.4609, 184.2047
435.9430, 183.8475
436.4251, 183.2841
436.9072, 183.1370
437.3893, 183.6213
437.8715, 184.2826
438.3536, 184.6961
438.8357, 184.8777
439.3178, 184.8716
439.7999, 184.4091
440.2820, 183.9480
440.7642, 183.9783
441.2463, 184.5254
441.7284, 185.0880
442.2105, 185.5281
442.6926, 185.7868
443.1747, 185.7988
443.6569, 185.2766
444.1390, 184.8245
444.6211, 184.5515
445.1032, 184.4807
445.5853, 184.6892
446.0674, 185.7019
446.5496, 186.5499
447.0317, 186.7839
447.5138, 186.1091
447.9959, 185.7867
448.4780, 186.2492
448.9601, 186.7705
449.4423, 186.5888
449.9244, 185.2757
450.4065, 184.1740
450.8886, 183.5347
451.3707, 183.2579
451.8528, 182.8698
452.3350, 182.3006
452.8171, 181.8201
453.2992, 181.6805
453.7813, 181.8870
454.2634, 181.6729
454.7455, 180.9626
455.2277, 180.0021
455.7098, 178.9466
456.1919, 177.8511
456.6740, 177.0658
457.1561, 176.9195
457.6382, 176.9858
458.1204, 176.5135
458.6025, 175.5502
459.0846, 174.4694
459.5667, 173.3249
460.0488, 172.2835
460.5309, 171.6575
461.0131, 171.6034
461.4952, 171.4448
461.9773, 170.6015
462.4594, 169.3824
462.9415, 168.2251
463.4236, 167.1663
463.9058, 166.3384
464.3879, 165.9034
464.8700, 165.8192
465.3521, 165.6432
465.8342, 165.2521
466.3163, 164.7464
466.7985, 164.1711
467.2806, 163.4697
467.7627, 162.8078
468.2448, 162.1344
468.7269, 161.5300
469.2090, 161.1207
469.6912, 161.0523
470.1733, 160.8950
470.6554, 160.4845
471.1375, 159.8686
471.6196, 159.5632
472.1017, 159.6751
472.5839, 159.7964
473.0660, 159.5901
473.5481, 159.0528
474.0302, 158.6933
474.5123, 158.5686
474.9944, 158.5872
475.4766, 158.6934
475.9587, 158.8601
476.4408, 158.8968
476.9229, 158.6260
477.4050, 158.2449
477.8871, 158.1325
478.3693, 158.2581
478.8514, 158.3330
479.3335, 157.9487
479.8156, 157.4859
480.2977, 157.4609
480.7798, 158.0860
481.2620, 158.7231
481.7441, 158.9470
482.2262, 158.9563
482.7083, 159.0447
483.1904, 159.5043
483.6725, 159.8660
484.1547, 159.8077
484.6368, 159.3763
485.1189, 159.2687
485.6010, 160.1930
486.0831, 160.9782
486.5652, 160.9565
487.0474, 159.3884
487.5295, 158.6362
488.0116, 159.1252
488.4937, 160.1230
488.9758, 160.6088
489.4579, 160.4582
489.9401, 160.1519
490.4222, 159.7119
490.9043, 159.2174
491.3864, 159.0855
491.8685, 159.3671
492.3506, 159.6599
492.8328, 159.6257
493.3149, 159.3526
493.7970, 159.2841
494.2791, 159.4909
494.7612, 159.7157
495.2433, 159.6811
495.7255, 159.4361
496.2076, 159.0949
496.6897, 158.5630
497.1718, 158.0884
497.6539, 158.0754
498.1360, 158.3805
498.6182, 158.4429
499.1003, 157.6375
499.5824, 156.7104
500.0645, 156.2366
500.5466, 156.3773
501.0287, 156.4919
501.5109, 156.5047
501.9930, 156.3503
502.4751, 155.9618
502.9572, 154.7502
503.4393, 154.0099
503.9214, 154.2417
504.4036, 155.0716
504.8857, 155.1430
505.3678, 154.0090
505.8499, 152.8885
506.3320, 152.3041
506.8141, 152.2996
507.2963, 152.1761
507.7784, 151.8931
508.2605, 151.5963
508.7426, 151.4744
509.2247, 151.5096
509.7068, 151.4337
510.1890, 151.1994
510.6711, 150.8275
511.1532, 150.2241
511.6353, 149.4628
512.1174, 148.9133
512.5995, 149.0071
513.0817, 149.2813
513.5638, 149.1843
514.0459, 148.7113
514.5280, 148.0798
515.0101, 147.1679
515.4922, 146.2946
515.9744, 145.8017
516.4565, 145.9664
516.9386, 146.0984
517.4207, 145.9225
517.9028, 145.5829
518.3849, 145.3157
518.8671, 145.0912
519.3492, 145.0232
519.8313, 145.2980
520.3134, 145.8610
520.7955, 145.8641
521.2776, 144.8736
521.7598, 143.9592
522.2419, 143.8609
522.7240, 144.8405
523.2061, 145.1503
523.6882, 144.5769
524.1703, 143.7315
524.6525, 143.4336
525.1346, 143.6505
525.6167, 143.8935
526.0988, 144.0298
526.5809, 144.1184
527.0630, 144.3380
527.5452, 144.6422
528.0273, 144.7686
528.5094, 144.3801
528.9915, 143.8266
529.4736, 143.5312
529.9557, 143.5317
530.4379, 143.5242
530.9200, 143.3062
531.4021, 142.9963
531.8842, 142.6996
532.3663, 142.3115
532.8484, 142.1222
533.3306, 142.3802
533.8127, 142.8732
534.2948, 143.1477
534.7769, 143.0394
535.2590, 142.8568
535.7411, 142.6193
536.2233, 142.3343
536.7054, 142.2367
537.1875, 142.4319
537.6696, 142.6177
538.1517, 142.5787
538.6339, 142.2978
539.1160, 142.0240
539.5981, 141.7429
540.0802, 141.5564
540.5623, 141.7073
541.0444, 142.1172
541.5266, 142.3229
542.0087, 142.0489
542.4908, 141.6489
542.9729, 141.6973
543.4550, 142.0878
543.9371, 142.3987
544.4193, 142.2438
544.9014, 142.0074
545.3835, 142.0672
545.8656, 142.4733
546.3477, 142.7670
546.8298, 142.5247
547.3120, 142.2241
547.7941, 142.2658
548.2762, 143.1196
548.7583, 143.7574
549.2404, 144.0153
549.7225, 144.0389
550.2047, 144.0652
550.6868, 144.0951
551.1689, 144.1211
551.6510, 144.1154
552.1331, 144.1000
552.6152, 144.3069
553.0974, 144.8238
553.5795, 145.1378
554.0616, 144.6032
554.5437, 143.4644
555.0258, 143.2760
555.5079, 144.2231
555.9901, 145.4083
556.4722, 145.9262
556.9543, 145.9914
557.4364, 146.0318
557.9185, 146.1194
558.4006, 146.3042
558.8828, 146.7657
559.3649, 147.3528
559.8470, 147.7278
560.3291, 147.5380
560.8112, 147.2953
561.2933, 147.2586
561.7755, 147.4385
562.2576, 147.5008
562.7397, 147.2370
563.2218, 146.9735
563.7039, 146.9189
564.1860, 147.3413
564.6682, 147.2393
565.1503, 146.4404
565.6324, 145.3359
566.1145, 144.4114
566.5966, 143.6718
567.0787, 142.9990
567.5609, 142.3219
568.0430, 141.7595
568.5251, 141.7502
569.0072, 142.2114
569.4893, 142.4750
569.9714, 142.0124
570.4536, 141.2107
570.9357, 140.6120
571.4178, 140.2197
571.8999, 139.8543
572.3820, 139.3244
572.8641, 138.8153
573.3463, 138.5265
573.8284, 138.5876
574.3105, 138.5966
574.7926, 138.4986
575.2747, 138.2568
575.7568, 137.8186
576.2390, 136.8115
576.7211, 136.0981
577.2032, 135.8849
577.6853, 136.0235
578.1674, 136.0042
578.6495, 135.7712
579.1317, 135.5506
579.6138, 135.4933
580.0959, 135.5542
580.5780, 135.2651
581.0601, 134.5861
581.5422, 133.9802
582.0244, 133.9971
582.5065, 134.3737
