##NAMES=Howieite
##RRUFFID=R061009
##IDEAL CHEMISTRY=Na(Fe^2+^,Fe^3+^,Al,Mg)_12_(Si_6_O_17_)_2_(O,OH)_10_
##LOCALITY=Quarry on north side of U.S. 101, 5 miles south of Laytonville, Mendocino County, California, USA
##OWNER=RRUFF
##SOURCE=Michael Scott
##DESCRIPTION=Dark brown bladed crystals in plumose aggregates
##STATUS=The identification of this mineral has been made only by X-ray diffraction.
##URL=rruff.info/R061009
142.7361, 1589.856
143.2183, 1604.296
143.7004, 1622.909
144.1825, 1647.672
144.6646, 1674.629
145.1467, 1699.042
145.6288, 1718.049
146.1110, 1739.489
146.5931, 1768.964
147.0752, 1813.231
147.5573, 1835.000
148.0394, 1818.824
148.5215, 1785.671
149.0037, 1766.069
149.4858, 1769.262
149.9679, 1777.183
150.4500, 1786.707
150.9321, 1805.438
151.4142, 1810.886
151.8964, 1796.178
152.3785, 1768.237
152.8606, 1742.423
153.3427, 1715.989
153.8248, 1694.490
154.3069, 1680.626
154.7890, 1682.547
155.2712, 1681.479
155.7533, 1674.724
156.2354, 1663.027
156.7175, 1649.070
157.1996, 1633.350
157.6817, 1615.369
158.1639, 1594.760
158.6460, 1559.772
159.1281, 1533.455
159.6102, 1527.310
160.0923, 1539.105
160.5744, 1546.513
161.0566, 1533.757
161.5387, 1516.330
162.0208, 1508.188
162.5029, 1519.368
162.9850, 1535.943
163.4671, 1555.901
163.9493, 1579.221
164.4314, 1593.466
164.9135, 1587.985
165.3956, 1570.964
165.8777, 1553.043
166.3598, 1536.773
166.8420, 1522.266
167.3241, 1509.512
167.8062, 1498.451
168.2883, 1489.676
168.7704, 1483.464
169.2525, 1479.765
169.7346, 1478.440
170.2168, 1481.810
170.6989, 1486.409
171.1810, 1489.607
171.6631, 1491.694
172.1452, 1490.431
172.6273, 1481.946
173.1095, 1468.170
173.5916, 1454.557
174.0737, 1438.948
174.5558, 1426.876
175.0379, 1428.269
175.5201, 1450.460
176.0022, 1475.960
176.4843, 1483.842
176.9664, 1476.629
177.4485, 1467.483
177.9306, 1463.043
178.4128, 1463.286
178.8949, 1468.446
179.3770, 1480.151
179.8591, 1495.205
180.3412, 1509.310
180.8233, 1522.625
181.3055, 1535.695
181.7876, 1550.289
182.2697, 1565.251
182.7518, 1577.617
183.2339, 1586.171
183.7160, 1591.637
184.1982, 1592.391
184.6803, 1587.980
185.1624, 1587.760
185.6445, 1606.824
186.1266, 1640.620
186.6087, 1666.713
187.0908, 1673.972
187.5730, 1667.695
188.0551, 1664.170
188.5372, 1663.713
189.0193, 1664.037
189.5014, 1661.614
189.9835, 1656.768
190.4657, 1653.957
190.9478, 1658.801
191.4299, 1668.746
191.9120, 1665.972
192.3941, 1648.062
192.8762, 1624.982
193.3584, 1610.689
193.8405, 1605.325
194.3226, 1601.878
194.8047, 1600.155
195.2868, 1599.638
195.7689, 1588.783
196.2511, 1564.702
196.7332, 1534.769
197.2153, 1513.271
197.6974, 1501.096
198.1795, 1488.471
198.6616, 1469.345
199.1438, 1443.234
199.6259, 1419.787
200.1080, 1399.096
200.5901, 1381.625
201.0722, 1370.285
201.5543, 1366.482
202.0364, 1361.773
202.5186, 1350.076
203.0007, 1330.291
203.4828, 1312.436
203.9649, 1295.309
204.4470, 1281.698
204.9291, 1283.680
205.4113, 1306.773
205.8934, 1327.605
206.3755, 1327.931
206.8576, 1302.394
207.3397, 1285.932
207.8218, 1285.478
208.3040, 1296.117
208.7861, 1296.514
209.2682, 1282.521
209.7503, 1267.998
210.2324, 1264.499
210.7145, 1276.086
211.1967, 1282.447
211.6788, 1278.235
212.1609, 1266.235
212.6430, 1265.491
213.1251, 1282.283
213.6072, 1299.152
214.0894, 1301.068
214.5715, 1282.546
215.0536, 1265.477
215.5357, 1253.226
216.0178, 1245.448
216.4999, 1238.215
216.9820, 1228.189
217.4642, 1223.580
217.9463, 1235.326
218.4284, 1275.012
218.9105, 1300.311
219.3926, 1300.708
219.8747, 1276.849
220.3569, 1253.098
220.8390, 1226.630
221.3211, 1203.700
221.8032, 1190.730
222.2853, 1192.719
222.7674, 1193.677
223.2496, 1189.626
223.7317, 1180.280
224.2138, 1175.394
224.6959, 1178.516
225.1780, 1182.399
225.6601, 1178.807
226.1423, 1163.566
226.6244, 1149.192
227.1065, 1137.355
227.5886, 1127.516
228.0707, 1126.016
228.5528, 1138.227
229.0350, 1154.043
229.5171, 1160.875
229.9992, 1149.009
230.4813, 1154.780
230.9634, 1158.234
231.4455, 1159.495
231.9276, 1151.996
232.4098, 1155.809
232.8919, 1155.088
233.3740, 1154.182
233.8561, 1159.587
234.3382, 1153.361
234.8203, 1158.666
235.3025, 1174.563
235.7846, 1188.203
236.2667, 1200.534
236.7488, 1209.586
237.2309, 1211.468
237.7130, 1200.154
238.1952, 1192.134
238.6773, 1193.620
239.1594, 1207.790
239.6415, 1214.073
240.1236, 1207.005
240.6057, 1195.726
241.0879, 1194.257
241.5700, 1209.339
242.0521, 1222.845
242.5342, 1228.911
243.0163, 1225.403
243.4984, 1224.473
243.9806, 1226.863
244.4627, 1231.303
244.9448, 1235.701
245.4269, 1238.706
245.9090, 1243.991
246.3911, 1254.600
246.8732, 1274.044
247.3554, 1282.093
247.8375, 1272.906
248.3196, 1256.097
248.8017, 1246.121
249.2838, 1244.405
249.7659, 1247.418
250.2481, 1256.664
250.7302, 1276.119
251.2123, 1282.725
251.6944, 1270.692
252.1765, 1250.083
252.6586, 1236.136
253.1408, 1232.270
253.6229, 1228.901
254.1050, 1222.934
254.5871, 1213.749
255.0692, 1205.641
255.5513, 1199.196
256.0334, 1193.412
256.5156, 1186.172
256.9977, 1175.446
257.4798, 1167.214
257.9619, 1163.960
258.4440, 1166.785
258.9261, 1168.267
259.4083, 1167.945
259.8904, 1166.614
260.3725, 1165.296
260.8546, 1163.496
261.3367, 1162.683
261.8188, 1163.290
262.3010, 1165.361
262.7831, 1169.690
263.2652, 1180.479
263.7473, 1189.204
264.2294, 1180.766
264.7115, 1146.835
265.1937, 1117.362
265.6758, 1102.299
266.1579, 1102.693
266.6400, 1108.380
267.1221, 1122.031
267.6042, 1137.604
268.0864, 1146.630
268.5685, 1148.552
269.0506, 1145.853
269.5327, 1137.911
270.0148, 1124.315
270.4969, 1113.523
270.9791, 1105.290
271.4612, 1100.287
271.9433, 1100.604
272.4254, 1107.681
272.9075, 1113.939
273.3896, 1116.063
273.8718, 1114.105
274.3539, 1117.164
274.8360, 1127.390
275.3181, 1138.451
275.8002, 1141.334
276.2823, 1134.464
276.7645, 1128.980
277.2466, 1128.415
277.7287, 1132.481
278.2108, 1137.473
278.6929, 1144.678
279.1750, 1149.328
279.6572, 1143.034
280.1393, 1124.427
280.6214, 1111.342
281.1035, 1110.075
281.5856, 1118.911
282.0677, 1128.689
282.5499, 1140.642
283.0320, 1148.756
283.5141, 1141.674
283.9962, 1119.218
284.4783, 1107.733
284.9604, 1119.620
285.4425, 1147.531
285.9247, 1158.285
286.4068, 1149.938
286.8889, 1137.872
287.3710, 1135.791
287.8531, 1143.233
288.3352, 1155.089
288.8174, 1171.338
289.2995, 1190.511
289.7816, 1208.850
290.2637, 1226.034
290.7458, 1242.377
291.2279, 1258.004
291.7101, 1272.891
292.1922, 1287.345
292.6743, 1302.423
293.1564, 1316.039
293.6385, 1321.632
294.1206, 1319.343
294.6028, 1317.819
295.0849, 1324.557
295.5670, 1337.641
296.0491, 1350.642
296.5312, 1360.844
297.0133, 1372.069
297.4955, 1396.420
297.9776, 1431.271
298.4597, 1456.856
298.9418, 1447.333
299.4239, 1418.985
299.9060, 1407.421
300.3882, 1424.503
300.8703, 1450.971
301.3524, 1464.237
301.8345, 1465.779
302.3166, 1462.682
302.7987, 1456.222
303.2809, 1448.715
303.7630, 1443.561
304.2451, 1441.538
304.7272, 1441.280
305.2093, 1442.351
305.6914, 1444.278
306.1736, 1445.617
306.6557, 1446.788
307.1378, 1446.430
307.6199, 1442.348
308.1020, 1433.354
308.5841, 1424.275
309.0663, 1421.607
309.5484, 1421.684
310.0305, 1416.860
310.5126, 1397.313
310.9947, 1375.269
311.4768, 1362.072
311.9590, 1360.321
312.4411, 1357.414
312.9232, 1342.025
313.4053, 1321.216
313.8874, 1306.187
314.3695, 1310.677
314.8517, 1314.660
315.3337, 1304.047
315.8159, 1276.704
316.2980, 1251.813
316.7801, 1235.664
317.2622, 1226.968
317.7443, 1224.088
318.2264, 1237.045
318.7086, 1246.225
319.1907, 1241.307
319.6728, 1222.074
320.1549, 1205.424
320.6370, 1195.360
321.1191, 1190.484
321.6013, 1189.610
322.0834, 1197.502
322.5655, 1204.166
323.0476, 1206.283
323.5297, 1204.302
324.0118, 1203.886
324.4940, 1208.949
324.9761, 1213.931
325.4582, 1215.371
325.9403, 1205.727
326.4224, 1200.744
326.9045, 1204.481
327.3867, 1215.071
327.8688, 1222.615
328.3509, 1222.526
328.8330, 1222.801
329.3151, 1226.998
329.7972, 1237.874
330.2794, 1248.640
330.7615, 1259.146
331.2436, 1269.663
331.7257, 1280.929
332.2078, 1295.260
332.6899, 1307.481
333.1721, 1314.456
333.6542, 1311.702
334.1363, 1316.580
334.6184, 1331.645
335.1005, 1352.751
335.5826, 1373.475
336.0648, 1394.794
336.5469, 1413.704
337.0290, 1428.936
337.5111, 1440.116
337.9932, 1451.919
338.4753, 1466.135
338.9575, 1478.127
339.4396, 1478.627
339.9217, 1463.194
340.4038, 1457.941
340.8859, 1473.759
341.3680, 1507.661
341.8502, 1534.387
342.3323, 1553.411
342.8144, 1565.533
343.2965, 1569.037
343.7786, 1564.022
344.2607, 1559.175
344.7429, 1555.092
345.2250, 1553.364
345.7071, 1562.747
346.1892, 1584.386
346.6713, 1600.380
347.1534, 1589.704
347.6355, 1559.299
348.1176, 1541.034
348.5998, 1542.014
349.0819, 1554.640
349.5640, 1570.929
350.0461, 1589.992
350.5282, 1603.677
351.0103, 1603.130
351.4925, 1594.424
351.9746, 1590.520
352.4567, 1595.057
352.9388, 1597.183
353.4209, 1579.193
353.9030, 1548.645
354.3852, 1526.098
354.8673, 1528.267
355.3494, 1540.598
355.8315, 1547.995
356.3136, 1549.088
356.7957, 1549.576
357.2779, 1553.290
357.7600, 1559.149
358.2421, 1565.420
358.7242, 1575.505
359.2063, 1582.642
359.6884, 1579.648
360.1706, 1566.988
360.6527, 1558.145
361.1348, 1565.761
361.6169, 1577.220
362.0990, 1580.890
362.5811, 1562.327
363.0633, 1547.026
363.5454, 1543.608
364.0275, 1550.454
364.5096, 1559.573
364.9917, 1578.205
365.4738, 1592.108
365.9560, 1592.334
366.4381, 1561.755
366.9202, 1541.392
367.4023, 1536.629
367.8844, 1545.019
368.3665, 1560.453
368.8487, 1597.393
369.3308, 1628.094
369.8129, 1641.730
370.2950, 1630.022
370.7771, 1625.227
371.2592, 1632.223
371.7414, 1643.522
372.2235, 1649.194
372.7056, 1648.768
373.1877, 1642.969
373.6698, 1628.455
374.1519, 1604.756
374.6341, 1596.665
375.1162, 1612.654
375.5983, 1630.757
376.0804, 1625.647
376.5625, 1589.224
377.0446, 1569.132
377.5267, 1580.972
378.0089, 1613.778
378.4910, 1619.796
378.9731, 1594.909
379.4552, 1565.990
379.9373, 1554.225
380.4194, 1558.287
380.9016, 1556.682
381.3837, 1545.047
381.8658, 1530.736
382.3479, 1528.509
382.8300, 1537.269
383.3121, 1544.932
383.7943, 1541.500
384.2764, 1532.199
384.7585, 1531.073
385.2406, 1539.750
385.7227, 1550.243
386.2048, 1552.093
386.6870, 1548.769
387.1691, 1548.624
387.6512, 1559.762
388.1333, 1573.165
388.6154, 1577.469
389.0975, 1573.119
389.5797, 1569.794
390.0618, 1576.714
390.5439, 1587.406
391.0260, 1594.297
391.5081, 1593.107
391.9902, 1590.378
392.4724, 1587.101
392.9545, 1584.696
393.4366, 1587.849
393.9187, 1603.224
394.4008, 1621.496
394.8829, 1638.052
395.3651, 1653.429
395.8472, 1663.809
396.3293, 1664.421
396.8114, 1660.111
397.2935, 1658.708
397.7756, 1660.257
398.2578, 1666.019
398.7399, 1678.970
399.2220, 1702.235
399.7041, 1716.429
400.1862, 1717.252
400.6683, 1711.547
401.1505, 1704.198
401.6326, 1685.720
402.1147, 1682.029
402.5968, 1704.452
403.0789, 1747.350
403.5610, 1767.852
404.0432, 1755.325
404.5253, 1739.578
405.0074, 1742.109
405.4895, 1769.963
405.9716, 1780.483
406.4537, 1765.783
406.9359, 1739.153
407.4180, 1728.273
407.9001, 1734.775
408.3822, 1742.210
408.8643, 1740.760
409.3464, 1732.428
409.8285, 1734.396
410.3106, 1748.312
410.7928, 1763.755
411.2749, 1769.718
411.7570, 1767.418
412.2391, 1761.730
412.7212, 1751.510
413.2033, 1740.913
413.6855, 1737.735
414.1676, 1741.287
414.6497, 1745.746
415.1318, 1747.223
415.6139, 1746.906
416.0960, 1746.534
416.5782, 1746.910
417.0603, 1746.176
417.5424, 1741.856
418.0245, 1735.289
418.5066, 1729.549
418.9887, 1724.276
419.4709, 1721.493
419.9530, 1723.535
420.4351, 1731.443
420.9172, 1738.075
421.3993, 1740.513
421.8814, 1740.583
422.3636, 1740.189
422.8457, 1735.642
423.3278, 1735.042
423.8099, 1744.746
424.2920, 1763.493
424.7741, 1771.547
425.2563, 1754.630
425.7384, 1737.837
426.2205, 1734.834
426.7026, 1758.438
427.1847, 1772.265
427.6668, 1772.500
428.1490, 1764.155
428.6311, 1757.339
429.1132, 1751.878
429.5953, 1748.132
430.0774, 1746.584
430.5595, 1747.243
431.0417, 1748.027
431.5238, 1749.268
432.0059, 1749.715
432.4880, 1745.621
432.9701, 1737.093
433.4522, 1736.821
433.9344, 1753.128
434.4165, 1775.150
434.8986, 1773.196
435.3807, 1748.369
435.8628, 1724.556
436.3449, 1721.507
436.8271, 1731.372
437.3092, 1736.744
437.7913, 1734.514
438.2734, 1731.050
438.7555, 1734.206
439.2376, 1740.965
439.7197, 1744.650
440.2018, 1739.636
440.6840, 1732.043
441.1661, 1724.906
441.6482, 1718.530
442.1303, 1716.789
442.6124, 1729.156
443.0945, 1743.402
443.5767, 1748.142
444.0588, 1729.054
444.5409, 1714.254
445.0230, 1714.948
445.5051, 1726.240
445.9872, 1732.562
446.4694, 1726.548
446.9515, 1719.488
447.4336, 1716.182
447.9157, 1719.206
448.3978, 1718.237
448.8799, 1711.486
449.3621, 1701.941
449.8442, 1692.759
450.3263, 1682.796
450.8084, 1675.884
451.2905, 1673.189
451.7726, 1674.270
452.2548, 1677.749
452.7369, 1685.806
453.2190, 1689.346
453.7011, 1679.813
454.1832, 1657.365
454.6653, 1635.670
455.1475, 1614.212
455.6296, 1597.577
456.1117, 1597.623
456.5938, 1611.703
457.0759, 1620.756
457.5580, 1612.303
458.0402, 1593.869
458.5223, 1578.320
459.0044, 1565.601
459.4865, 1555.139
459.9686, 1544.743
460.4507, 1536.692
460.9329, 1535.002
461.4150, 1546.665
461.8971, 1556.133
462.3792, 1553.531
462.8613, 1540.907
463.3434, 1523.717
463.8256, 1496.305
464.3077, 1471.328
464.7898, 1455.929
465.2719, 1452.528
465.7540, 1451.632
466.2361, 1453.696
466.7183, 1456.250
467.2004, 1456.741
467.6825, 1454.663
468.1646, 1450.823
468.6467, 1443.786
469.1288, 1434.463
469.6110, 1429.063
470.0930, 1430.073
470.5752, 1430.874
471.0573, 1428.886
471.5394, 1424.900
472.0215, 1412.159
472.5036, 1385.872
472.9857, 1358.650
473.4679, 1353.998
473.9500, 1372.643
474.4321, 1383.730
474.9142, 1373.573
475.3963, 1350.033
475.8784, 1333.873
476.3606, 1325.069
476.8427, 1321.036
477.3248, 1322.063
477.8069, 1326.092
478.2890, 1329.686
478.7711, 1332.836
479.2533, 1333.780
479.7354, 1331.077
480.2175, 1324.983
480.6996, 1315.970
481.1817, 1298.021
481.6638, 1282.268
482.1460, 1277.998
482.6281, 1285.436
483.1102, 1289.755
483.5923, 1285.293
484.0744, 1275.939
484.5565, 1264.351
485.0387, 1243.239
485.5208, 1229.696
486.0029, 1230.223
486.4850, 1238.749
486.9671, 1241.489
487.4492, 1228.975
487.9314, 1224.578
488.4135, 1239.831
488.8956, 1277.227
489.3777, 1297.473
489.8598, 1296.684
490.3419, 1287.058
490.8241, 1278.696
491.3062, 1271.610
491.7883, 1265.579
492.2704, 1260.239
492.7525, 1256.335
493.2346, 1256.941
493.7168, 1261.493
494.1989, 1263.808
494.6810, 1257.969
495.1631, 1248.157
495.6452, 1243.031
496.1273, 1243.167
496.6095, 1242.899
497.0916, 1238.274
497.5737, 1230.140
498.0558, 1218.871
498.5379, 1197.308
499.0201, 1182.097
499.5022, 1190.481
499.9843, 1213.713
500.4664, 1226.848
500.9485, 1203.938
501.4306, 1183.538
501.9127, 1188.938
502.3948, 1233.064
502.8770, 1255.064
503.3591, 1232.623
503.8412, 1196.492
504.3233, 1172.466
504.8054, 1166.693
505.2875, 1161.942
505.7697, 1155.163
506.2518, 1148.203
506.7339, 1149.596
507.2160, 1162.503
507.6981, 1172.412
508.1802, 1169.830
508.6624, 1155.653
509.1445, 1147.579
509.6266, 1146.408
510.1087, 1147.173
510.5908, 1143.652
511.0729, 1137.414
511.5551, 1134.631
512.0372, 1139.839
512.5193, 1145.102
513.0014, 1138.960
513.4835, 1124.174
513.9656, 1109.986
514.4478, 1094.784
514.9299, 1086.715
515.4120, 1097.090
515.8941, 1129.437
516.3762, 1154.498
516.8583, 1157.709
517.3405, 1149.067
517.8226, 1137.617
518.3047, 1116.245
518.7868, 1102.329
519.2689, 1103.792
519.7510, 1114.930
520.2332, 1118.197
520.7153, 1106.737
521.1974, 1097.688
521.6795, 1099.282
522.1616, 1113.353
522.6437, 1116.186
523.1259, 1104.580
523.6080, 1089.216
524.0901, 1080.979
524.5722, 1079.786
525.0543, 1076.625
525.5364, 1068.378
526.0186, 1060.123
526.5007, 1063.012
526.9828, 1075.035
527.4649, 1085.421
527.9470, 1088.077
528.4291, 1085.880
528.9113, 1080.222
529.3934, 1071.386
529.8755, 1066.758
530.3576, 1073.734
530.8397, 1086.045
531.3218, 1098.768
531.8040, 1118.129
532.2861, 1125.445
532.7682, 1107.554
533.2503, 1074.076
533.7324, 1043.912
534.2145, 1008.676
534.6967, 988.8111
535.1788, 995.3697
535.6609, 1028.907
536.1430, 1047.304
536.6251, 1042.380
537.1072, 1034.365
537.5894, 1036.400
538.0715, 1049.150
538.5536, 1069.841
539.0357, 1102.959
539.5178, 1134.526
539.9999, 1137.815
540.4821, 1115.226
540.9642, 1095.354
541.4463, 1088.700
541.9284, 1091.069
542.4105, 1097.544
542.8926, 1107.325
543.3748, 1114.971
543.8569, 1110.059
544.3390, 1104.408
544.8211, 1114.371
545.3032, 1147.602
545.7853, 1171.920
546.2675, 1161.297
546.7495, 1136.372
547.2316, 1121.658
547.7137, 1133.096
548.1959, 1144.083
548.6780, 1149.628
549.1601, 1150.352
549.6422, 1149.324
550.1243, 1141.678
550.6064, 1139.020
551.0886, 1147.884
551.5707, 1170.542
552.0528, 1185.269
552.5349, 1188.967
553.0170, 1191.799
553.4991, 1209.824
553.9813, 1241.572
554.4634, 1253.921
554.9455, 1234.776
555.4276, 1204.893
555.9097, 1197.393
556.3918, 1208.821
556.8740, 1225.642
557.3561, 1249.845
557.8382, 1270.529
558.3203, 1274.769
558.8024, 1262.864
559.2845, 1246.438
559.7667, 1222.886
560.2488, 1202.714
560.7309, 1194.234
561.2130, 1202.752
561.6951, 1215.525
562.1772, 1239.546
562.6594, 1263.656
563.1415, 1271.141
563.6236, 1253.034
564.1057, 1231.275
564.5878, 1206.990
565.0699, 1181.854
565.5521, 1163.996
566.0342, 1153.366
566.5163, 1150.169
566.9984, 1161.605
567.4805, 1184.915
567.9626, 1184.280
568.4448, 1156.145
568.9269, 1121.992
569.4090, 1104.480
569.8911, 1098.547
570.3732, 1090.673
570.8553, 1074.575
571.3375, 1059.994
571.8196, 1057.149
572.3017, 1062.939
572.7838, 1070.277
573.2659, 1081.222
573.7480, 1088.501
574.2302, 1087.437
574.7123, 1077.637
575.1944, 1067.301
575.6765, 1057.673
576.1586, 1048.018
576.6407, 1037.656
577.1229, 1024.130
577.6050, 1015.488
578.0871, 1013.865
578.5692, 1014.888
579.0513, 1011.593
579.5334, 1003.187
580.0156, 997.1854
580.4977, 996.8508
580.9798, 998.9231
581.4619, 991.4647
581.9440, 976.0969
582.4261, 968.8854
582.9083, 990.0715
583.3904, 1021.229
583.8725, 1036.164
584.3546, 1033.205
584.8367, 1022.510
585.3188, 1000.494
585.8010, 978.8392
586.2831, 969.9805
586.7652, 987.4005
587.2473, 1000.642
587.7294, 997.5765
588.2115, 986.1658
588.6937, 981.1063
589.1758, 987.8225
589.6579, 994.1662
590.1400, 998.1309
590.6221, 999.7680
591.1042, 998.8691
591.5864, 994.5389
592.0685, 990.5786
592.5506, 989.5267
593.0327, 991.1343
593.5148, 991.5812
593.9969, 990.2377
594.4791, 991.4606
594.9612, 1003.463
595.4433, 1021.094
595.9254, 1032.869
596.4075, 1034.552
596.8896, 1032.106
597.3718, 1027.195
597.8539, 1021.964
598.3360, 1020.833
598.8181, 1034.746
599.3002, 1044.350
599.7823, 1035.543
600.2645, 1009.412
600.7466, 999.1207
601.2287, 1018.521
601.7108, 1042.470
602.1929, 1059.944
602.6750, 1069.460
603.1572, 1078.412
603.6393, 1087.810
604.1214, 1094.847
604.6035, 1091.717
605.0856, 1079.052
605.5677, 1083.097
606.0499, 1115.070
606.5320, 1154.163
607.0141, 1167.255
607.4962, 1159.382
607.9783, 1147.588
608.4604, 1136.474
608.9425, 1127.916
609.4246, 1122.413
609.9067, 1120.400
610.3889, 1125.215
610.8710, 1145.801
611.3531, 1167.977
611.8352, 1183.680
612.3173, 1191.527
612.7994, 1194.492
613.2816, 1186.490
613.7637, 1178.788
614.2458, 1185.063
614.7279, 1215.874
615.2100, 1224.081
615.6921, 1196.105
616.1743, 1153.090
616.6564, 1142.315
617.1385, 1162.692
617.6206, 1181.380
618.1027, 1182.577
618.5848, 1175.318
619.0670, 1177.583
619.5491, 1187.760
620.0312, 1195.439
620.5133, 1188.474
620.9954, 1179.587
621.4775, 1183.216
621.9597, 1203.885
622.4418, 1215.635
622.9239, 1200.362
623.4060, 1177.630
623.8881, 1163.573
624.3702, 1162.942
624.8524, 1167.149
625.3345, 1181.202
625.8166, 1196.924
626.2987, 1198.108
626.7808, 1180.898
627.2629, 1167.160
627.7451, 1164.143
628.2272, 1167.904
628.7093, 1168.569
629.1914, 1166.017
629.6735, 1158.051
630.1556, 1139.388
630.6378, 1116.472
631.1199, 1097.432
631.6020, 1082.704
632.0841, 1072.906
632.5662, 1070.844
633.0483, 1072.487
633.5305, 1074.667
634.0126, 1077.523
634.4947, 1079.228
634.9768, 1080.176
635.4589, 1079.417
635.9410, 1075.642
636.4232, 1066.958
636.9053, 1059.048
637.3874, 1052.813
637.8695, 1047.741
638.3516, 1040.961
638.8337, 1031.887
