##NAMES=Howlite
##RRUFFID=R050588
##IDEAL CHEMISTRY=Ca_2_B_5_SiO_9_(OH)_5_
##LOCALITY=Lake Bras d'Or, Iona, Cape Breton Island, Victoria County, Nova Scotia, Canada
##OWNER=RRUFF
##SOURCE=Rock Currier
##DESCRIPTION=Group of tan colored tabular to prismatic single crystals
##STATUS=The identification of this mineral has been confirmed by X-ray diffraction and chemical analysis
##URL=rruff.info/R050588
##MEASURED CHEMISTRY=Ca_2.01_B_5.00_Si_0.99_O_9_(OH)_5_ ; B and OH not measured but estimated by difference and charge balance.
89.78156, 0.0000000E+00
90.26367, 83.43857
90.74579, 87.21563
91.22791, 85.93279
91.71002, 80.08754
92.19214, 73.99992
92.67426, 71.87512
93.15638, 72.34135
93.63850, 71.72690
94.12061, 67.05726
94.60273, 60.94119
95.08485, 60.72983
95.56696, 67.17776
96.04908, 74.44167
96.53120, 74.52805
97.01331, 67.81308
97.49543, 61.91050
97.97755, 60.83750
98.45966, 64.28163
98.94178, 65.89855
99.42390, 64.99087
99.90602, 63.20052
100.3881, 64.30506
100.8703, 69.40221
101.3524, 73.49831
101.8345, 73.31311
102.3166, 67.34246
102.7987, 63.78284
103.2808, 64.28654
103.7630, 67.57449
104.2451, 67.56187
104.7272, 61.61166
105.2093, 55.84677
105.6914, 54.66422
106.1735, 62.16376
106.6557, 67.15543
107.1378, 66.99763
107.6199, 61.44764
108.1020, 59.03860
108.5841, 61.35077
109.0662, 65.97173
109.5484, 70.76231
110.0305, 76.90527
110.5126, 82.10096
110.9947, 85.74660
111.4768, 87.56483
111.9590, 89.26945
112.4411, 89.74010
112.9232, 90.50074
113.4053, 93.49429
113.8874, 99.01236
114.3695, 106.8571
114.8517, 117.3609
115.3338, 131.6325
115.8159, 145.7440
116.2980, 158.0848
116.7801, 169.5576
117.2622, 182.0157
117.7444, 191.6466
118.2265, 205.2648
118.7086, 228.0458
119.1907, 266.0289
119.6728, 306.2407
120.1549, 341.0678
120.6371, 371.8592
121.1192, 404.2253
121.6013, 443.5874
122.0834, 485.2248
122.5655, 523.6248
123.0476, 555.4904
123.5298, 584.8834
124.0119, 615.2101
124.4940, 646.4049
124.9761, 677.6754
125.4582, 707.6589
125.9404, 737.0621
126.4225, 767.0148
126.9046, 797.2864
127.3867, 828.5800
127.8688, 863.3913
128.3509, 902.1910
128.8331, 939.9184
129.3152, 970.3992
129.7973, 994.7361
130.2794, 1017.746
130.7615, 1038.103
131.2436, 1058.391
131.7258, 1087.362
132.2079, 1125.720
132.6900, 1171.654
133.1721, 1220.979
133.6542, 1273.445
134.1364, 1336.019
134.6185, 1416.526
135.1006, 1514.648
135.5827, 1612.915
136.0648, 1714.057
136.5469, 1811.287
137.0291, 1893.439
137.5112, 1963.486
137.9933, 2003.424
138.4754, 1997.553
138.9575, 1940.883
139.4396, 1867.563
139.9218, 1774.971
140.4039, 1669.108
140.8860, 1580.354
141.3681, 1510.585
141.8502, 1455.829
142.3323, 1415.322
142.8145, 1390.528
143.2966, 1374.766
143.7787, 1368.370
144.2608, 1371.208
144.7429, 1377.560
145.2250, 1387.960
145.7072, 1401.492
146.1893, 1417.720
146.6714, 1439.616
147.1535, 1459.701
147.6356, 1475.792
148.1178, 1487.033
148.5999, 1499.744
149.0820, 1514.587
149.5641, 1530.580
150.0462, 1546.432
150.5283, 1561.694
151.0105, 1568.772
151.4926, 1578.439
151.9747, 1578.250
152.4568, 1578.309
152.9389, 1578.445
153.4210, 1578.924
153.9032, 1580.139
154.3853, 1582.665
154.8674, 1585.425
155.3495, 1587.899
155.8316, 1589.433
156.3137, 1592.145
156.7959, 1597.057
157.2780, 1603.266
157.7601, 1609.060
158.2422, 1612.290
158.7243, 1616.328
159.2065, 1623.152
159.6886, 1635.297
160.1707, 1646.187
160.6528, 1654.394
161.1349, 1659.999
161.6170, 1663.179
162.0992, 1659.216
162.5813, 1655.709
163.0634, 1657.931
163.5455, 1670.438
164.0276, 1684.099
164.5097, 1694.445
164.9919, 1702.386
165.4740, 1711.450
165.9561, 1723.908
166.4382, 1737.994
166.9203, 1752.306
167.4024, 1766.973
167.8846, 1781.237
168.3667, 1794.046
168.8488, 1805.758
169.3309, 1818.669
169.8130, 1836.328
170.2952, 1855.437
170.7773, 1871.641
171.2594, 1881.584
171.7415, 1889.672
172.2236, 1899.826
172.7057, 1911.890
173.1879, 1923.844
173.6700, 1935.543
174.1521, 1945.953
174.6342, 1953.411
175.1163, 1954.870
175.5984, 1954.295
176.0806, 1956.172
176.5627, 1960.491
177.0448, 1966.007
177.5269, 1972.134
178.0090, 1978.633
178.4911, 1985.117
178.9733, 1992.580
179.4554, 1999.524
179.9375, 2003.535
180.4196, 2004.486
180.9017, 2003.443
181.3838, 2001.661
181.8660, 1998.902
182.3481, 1994.161
182.8302, 1987.388
183.3123, 1978.368
183.7944, 1966.140
184.2766, 1950.318
184.7587, 1932.931
185.2408, 1914.533
185.7229, 1895.828
186.2050, 1880.071
186.6871, 1867.861
187.1693, 1859.689
187.6514, 1858.208
188.1335, 1863.708
188.6156, 1874.812
189.0977, 1891.248
189.5798, 1912.710
190.0620, 1934.888
190.5441, 1958.231
191.0262, 1981.601
191.5083, 1997.221
191.9904, 2004.246
192.4725, 2005.099
192.9547, 2004.297
193.4368, 2001.936
193.9189, 1995.010
194.4010, 1980.442
194.8831, 1958.714
195.3652, 1937.163
195.8474, 1916.478
196.3295, 1895.879
196.8116, 1875.052
197.2937, 1854.571
197.7758, 1829.620
198.2579, 1795.865
198.7401, 1753.082
199.2222, 1711.385
199.7043, 1671.282
200.1864, 1633.546
200.6685, 1599.149
201.1507, 1567.840
201.6328, 1541.873
202.1149, 1523.405
202.5970, 1512.929
203.0791, 1504.606
203.5612, 1497.827
204.0434, 1493.088
204.5255, 1492.101
205.0076, 1495.281
205.4897, 1500.775
205.9718, 1507.721
206.4539, 1516.260
206.9361, 1525.499
207.4182, 1535.506
207.9003, 1546.093
208.3824, 1557.411
208.8645, 1570.291
209.3466, 1581.845
209.8288, 1589.612
210.3109, 1592.188
210.7930, 1597.426
211.2751, 1607.276
211.7572, 1619.933
212.2393, 1628.704
212.7215, 1632.058
213.2036, 1634.687
213.6857, 1639.221
214.1678, 1645.580
214.6499, 1654.408
215.1320, 1666.871
215.6142, 1681.833
216.0963, 1694.189
216.5784, 1703.594
217.0605, 1710.990
217.5426, 1717.383
218.0247, 1723.893
218.5069, 1725.836
218.9890, 1722.070
219.4711, 1713.377
219.9532, 1703.009
220.4353, 1689.610
220.9175, 1676.640
221.3996, 1665.652
221.8817, 1655.794
222.3638, 1650.549
222.8459, 1651.171
223.3280, 1656.808
223.8102, 1662.878
224.2923, 1668.772
224.7744, 1676.144
225.2565, 1686.029
225.7386, 1698.794
226.2207, 1713.130
226.7029, 1729.311
227.1850, 1747.040
227.6671, 1764.600
228.1492, 1784.359
228.6313, 1800.599
229.1134, 1809.764
229.5956, 1810.693
230.0777, 1807.371
230.5598, 1800.021
231.0419, 1788.657
231.5240, 1772.840
232.0062, 1750.785
232.4883, 1726.766
232.9704, 1703.544
233.4525, 1682.872
233.9346, 1658.951
234.4167, 1628.839
234.8989, 1594.922
235.3810, 1568.489
235.8631, 1550.351
236.3452, 1538.200
236.8273, 1530.885
237.3094, 1529.880
237.7916, 1530.420
238.2737, 1532.030
238.7558, 1534.951
239.2379, 1540.332
239.7200, 1548.780
240.2021, 1558.842
240.6843, 1569.234
241.1664, 1577.012
241.6485, 1591.917
242.1306, 1617.128
242.6127, 1649.854
243.0948, 1678.184
243.5770, 1698.601
244.0591, 1719.679
244.5412, 1745.929
245.0233, 1780.584
245.5054, 1813.682
245.9876, 1845.098
246.4697, 1874.651
246.9518, 1903.031
247.4339, 1932.014
247.9160, 1957.308
248.3981, 1976.437
248.8803, 1988.090
249.3624, 1997.239
249.8445, 2005.293
250.3266, 2010.524
250.8087, 2008.084
251.2908, 1996.837
251.7730, 1979.694
252.2551, 1957.825
252.7372, 1930.302
253.2193, 1899.759
253.7014, 1865.507
254.1835, 1828.783
254.6657, 1792.638
255.1478, 1756.971
255.6299, 1721.958
256.1120, 1686.768
256.5941, 1650.280
257.0763, 1618.030
257.5584, 1590.080
258.0405, 1565.994
258.5226, 1545.520
259.0047, 1529.256
259.4868, 1514.993
259.9690, 1501.494
260.4511, 1487.803
260.9332, 1479.766
261.4153, 1479.400
261.8974, 1482.821
262.3795, 1483.120
262.8617, 1478.446
263.3438, 1475.134
263.8259, 1475.937
264.3080, 1481.727
264.7901, 1485.132
265.2722, 1485.258
265.7544, 1484.049
266.2365, 1484.620
266.7186, 1487.945
267.2007, 1489.986
267.6828, 1488.800
268.1649, 1484.056
268.6471, 1481.941
269.1292, 1482.903
269.6113, 1485.725
270.0934, 1489.074
270.5755, 1493.094
271.0576, 1497.232
271.5398, 1501.362
272.0219, 1505.519
272.5040, 1509.849
272.9861, 1514.739
273.4682, 1518.872
273.9503, 1520.744
274.4325, 1520.082
274.9146, 1518.383
275.3967, 1515.193
275.8788, 1511.000
276.3610, 1510.498
276.8431, 1514.511
277.3252, 1519.692
277.8073, 1522.297
278.2894, 1521.900
278.7715, 1524.071
279.2537, 1530.566
279.7358, 1540.375
280.2179, 1549.347
280.7000, 1557.369
281.1821, 1565.259
281.6642, 1573.505
282.1464, 1582.107
282.6285, 1591.948
283.1106, 1603.606
283.5927, 1616.228
284.0748, 1627.426
284.5569, 1637.122
285.0391, 1646.315
285.5212, 1656.323
286.0033, 1666.908
286.4854, 1675.305
286.9675, 1680.814
287.4496, 1684.464
287.9318, 1688.334
288.4139, 1692.454
288.8960, 1695.897
289.3781, 1697.276
289.8602, 1697.265
290.3423, 1699.321
290.8245, 1703.917
291.3066, 1710.279
291.7887, 1717.664
292.2708, 1725.990
292.7529, 1734.113
293.2350, 1739.311
293.7172, 1743.678
294.1993, 1753.843
294.6814, 1770.604
295.1635, 1791.092
295.6456, 1811.023
296.1277, 1831.191
296.6099, 1854.957
297.0920, 1883.021
297.5741, 1915.489
298.0562, 1952.824
298.5383, 1994.815
299.0204, 2040.049
299.5026, 2088.601
299.9847, 2139.135
300.4668, 2189.819
300.9489, 2238.866
301.4311, 2287.320
301.9132, 2338.144
302.3953, 2391.419
302.8774, 2437.440
303.3595, 2472.174
303.8416, 2494.231
304.3238, 2501.697
304.8059, 2492.121
305.2880, 2469.206
305.7701, 2434.704
306.2522, 2389.046
306.7343, 2336.948
307.2165, 2277.022
307.6986, 2213.375
308.1807, 2151.167
308.6628, 2091.461
309.1449, 2032.378
309.6270, 1970.799
310.1092, 1907.344
310.5913, 1845.988
311.0734, 1789.658
311.5555, 1735.707
312.0376, 1681.987
312.5197, 1626.627
313.0019, 1575.245
313.4840, 1530.645
313.9661, 1491.588
314.4482, 1455.097
314.9303, 1418.937
315.4124, 1385.603
315.8946, 1357.489
316.3767, 1335.408
316.8588, 1315.350
317.3409, 1294.885
317.8230, 1275.485
318.3051, 1259.154
318.7873, 1249.336
319.2694, 1240.021
319.7515, 1228.088
320.2336, 1213.077
320.7157, 1199.791
321.1978, 1190.005
321.6800, 1182.450
322.1621, 1176.025
322.6442, 1171.528
323.1263, 1167.079
323.6084, 1161.985
324.0905, 1156.324
324.5727, 1151.410
325.0548, 1147.452
325.5369, 1144.344
326.0190, 1142.044
326.5012, 1141.824
326.9833, 1140.935
327.4654, 1137.805
327.9475, 1133.490
328.4296, 1132.298
328.9117, 1137.922
329.3939, 1143.413
329.8760, 1145.918
330.3581, 1143.628
330.8402, 1141.536
331.3223, 1138.659
331.8044, 1136.199
332.2866, 1136.822
332.7687, 1142.486
333.2508, 1148.271
333.7329, 1152.291
334.2150, 1153.712
334.6971, 1157.648
335.1793, 1165.557
335.6614, 1174.623
336.1435, 1180.653
336.6256, 1181.942
337.1077, 1185.075
337.5898, 1192.667
338.0720, 1204.434
338.5541, 1211.475
339.0362, 1212.050
339.5183, 1212.020
340.0004, 1217.010
340.4825, 1227.754
340.9647, 1238.770
341.4468, 1248.986
341.9289, 1258.890
342.4110, 1270.485
342.8931, 1283.831
343.3752, 1297.751
343.8574, 1311.487
344.3395, 1325.107
344.8216, 1337.873
345.3037, 1349.328
345.7858, 1360.603
346.2679, 1373.671
346.7501, 1388.558
347.2322, 1404.039
347.7143, 1420.207
348.1964, 1436.596
348.6785, 1451.982
349.1607, 1466.529
349.6428, 1479.930
350.1249, 1491.834
350.6070, 1502.450
351.0891, 1512.685
351.5713, 1523.685
352.0534, 1534.014
352.5355, 1541.058
353.0176, 1544.844
353.4997, 1548.260
353.9818, 1553.773
354.4640, 1560.319
354.9461, 1566.405
355.4282, 1571.807
355.9103, 1576.268
356.3924, 1578.429
356.8745, 1579.090
357.3567, 1581.322
357.8388, 1588.203
358.3209, 1596.664
358.8030, 1604.278
359.2851, 1610.625
359.7672, 1615.876
360.2494, 1618.044
360.7315, 1619.359
361.2136, 1623.875
361.6957, 1635.197
362.1778, 1648.418
362.6599, 1661.794
363.1421, 1675.396
363.6242, 1687.122
364.1063, 1696.356
364.5884, 1703.411
365.0705, 1708.532
365.5526, 1712.888
366.0348, 1714.134
366.5169, 1711.396
366.9990, 1704.761
367.4811, 1695.990
367.9632, 1686.088
368.4453, 1673.449
368.9275, 1657.130
369.4096, 1634.448
369.8917, 1611.999
370.3738, 1590.420
370.8559, 1569.036
371.3380, 1546.364
371.8202, 1521.602
372.3023, 1496.308
372.7844, 1470.774
373.2665, 1444.328
373.7487, 1420.698
374.2308, 1399.700
374.7129, 1381.717
375.1950, 1366.862
375.6771, 1354.961
376.1592, 1346.897
376.6414, 1344.038
377.1235, 1345.701
377.6056, 1344.249
378.0877, 1338.709
378.5698, 1333.232
379.0519, 1332.203
379.5341, 1335.670
380.0162, 1337.165
380.4983, 1334.671
380.9804, 1330.715
381.4625, 1331.734
381.9446, 1337.631
382.4268, 1343.715
382.9089, 1346.521
383.3910, 1347.174
383.8731, 1349.471
384.3552, 1353.790
384.8373, 1359.276
385.3195, 1366.719
385.8016, 1374.795
386.2837, 1379.683
386.7658, 1376.635
387.2479, 1370.902
387.7300, 1369.645
388.2122, 1372.709
388.6943, 1375.782
389.1764, 1375.937
389.6585, 1374.139
390.1406, 1371.404
390.6227, 1367.046
391.1049, 1363.232
391.5870, 1362.145
392.0691, 1362.924
392.5512, 1362.972
393.0333, 1360.893
393.5154, 1357.845
393.9976, 1353.967
394.4797, 1348.351
394.9618, 1345.185
395.4439, 1346.943
395.9260, 1351.602
396.4081, 1356.454
396.8903, 1361.130
397.3724, 1365.813
397.8545, 1370.873
398.3366, 1376.360
398.8188, 1380.885
399.3009, 1382.619
399.7830, 1384.513
400.2651, 1388.489
400.7472, 1396.574
401.2293, 1403.636
401.7115, 1408.551
402.1936, 1412.375
402.6757, 1418.735
403.1578, 1429.945
403.6399, 1439.688
404.1220, 1444.240
404.6042, 1441.984
405.0863, 1444.790
405.5684, 1454.653
406.0505, 1466.313
406.5326, 1472.803
407.0147, 1473.651
407.4969, 1473.011
407.9790, 1472.068
408.4611, 1470.506
408.9432, 1466.653
409.4253, 1460.373
409.9074, 1453.480
410.3896, 1447.820
410.8717, 1442.862
411.3538, 1436.067
411.8359, 1426.902
412.3180, 1416.388
412.8001, 1404.986
413.2823, 1393.311
413.7644, 1382.975
414.2465, 1374.328
414.7286, 1367.793
415.2107, 1364.102
415.6928, 1363.353
416.1750, 1364.110
416.6571, 1365.391
417.1392, 1367.487
417.6213, 1370.929
418.1034, 1377.737
418.5855, 1383.919
419.0677, 1385.271
419.5498, 1383.504
420.0319, 1384.962
420.5140, 1394.631
420.9961, 1406.642
421.4782, 1417.506
421.9604, 1426.256
422.4425, 1435.075
422.9246, 1443.555
423.4067, 1452.510
423.8889, 1463.192
424.3710, 1477.594
424.8531, 1491.773
425.3352, 1505.109
425.8173, 1517.624
426.2994, 1528.218
426.7816, 1535.713
427.2637, 1542.385
427.7458, 1549.925
428.2279, 1559.785
428.7100, 1567.006
429.1921, 1570.396
429.6743, 1571.499
430.1564, 1573.873
430.6385, 1577.900
431.1206, 1581.715
431.6027, 1584.368
432.0848, 1585.948
432.5670, 1588.410
433.0491, 1592.134
433.5312, 1595.209
434.0133, 1595.715
434.4954, 1593.795
434.9775, 1590.241
435.4597, 1584.876
435.9418, 1578.478
436.4239, 1572.816
436.9060, 1567.686
437.3881, 1561.426
437.8702, 1552.185
438.3524, 1541.451
438.8345, 1530.959
439.3166, 1520.708
439.7987, 1511.878
440.2808, 1506.260
440.7629, 1502.484
441.2451, 1498.473
441.7272, 1493.571
442.2093, 1488.079
442.6914, 1481.501
443.1735, 1474.148
443.6556, 1468.012
444.1378, 1462.879
444.6199, 1459.837
445.1020, 1459.934
445.5841, 1465.366
446.0662, 1469.965
446.5483, 1472.020
447.0305, 1472.970
447.5126, 1475.218
447.9947, 1479.482
448.4768, 1484.158
448.9590, 1488.476
449.4411, 1492.359
449.9232, 1498.984
450.4053, 1509.824
450.8874, 1521.340
451.3695, 1530.202
451.8517, 1535.126
452.3338, 1543.232
452.8159, 1555.310
453.2980, 1570.529
453.7801, 1587.740
454.2622, 1606.828
454.7444, 1627.376
455.2265, 1649.774
455.7086, 1673.532
456.1907, 1695.023
456.6728, 1714.324
457.1549, 1733.875
457.6371, 1756.759
458.1192, 1781.953
458.6013, 1807.477
459.0834, 1832.129
459.5655, 1857.799
460.0476, 1885.586
460.5298, 1915.932
461.0119, 1948.588
461.4940, 1984.417
461.9761, 2022.626
462.4582, 2061.969
462.9403, 2102.503
463.4225, 2147.034
463.9046, 2198.166
464.3867, 2253.680
464.8688, 2310.228
465.3509, 2369.065
465.8330, 2427.230
466.3152, 2485.181
466.7973, 2541.995
467.2794, 2594.096
467.7615, 2645.384
468.2436, 2688.702
468.7257, 2722.804
469.2079, 2748.592
469.6900, 2760.308
470.1721, 2760.261
470.6542, 2743.355
471.1363, 2702.365
471.6184, 2633.480
472.1006, 2554.609
472.5827, 2465.917
473.0648, 2371.082
473.5469, 2279.741
474.0291, 2191.630
474.5112, 2110.102
474.9933, 2036.385
475.4754, 1970.720
475.9575, 1914.382
476.4396, 1867.541
476.9218, 1828.877
477.4039, 1799.779
477.8860, 1778.033
478.3681, 1758.935
478.8502, 1741.300
479.3323, 1725.294
479.8145, 1712.091
480.2966, 1700.815
480.7787, 1688.899
481.2608, 1674.415
481.7429, 1658.928
482.2250, 1643.354
482.7072, 1627.728
483.1893, 1612.419
483.6714, 1597.207
484.1535, 1582.516
484.6356, 1568.765
485.1177, 1555.530
485.5999, 1543.696
486.0820, 1532.846
486.5641, 1523.449
487.0462, 1517.199
487.5283, 1515.430
488.0104, 1515.085
488.4926, 1515.170
488.9747, 1515.762
489.4568, 1516.310
489.9389, 1516.727
490.4210, 1517.258
490.9031, 1517.791
491.3853, 1518.217
491.8674, 1520.517
492.3495, 1525.542
492.8316, 1532.092
493.3137, 1537.125
493.7958, 1540.864
494.2780, 1545.763
494.7601, 1553.706
495.2422, 1563.642
495.7243, 1573.623
496.2064, 1583.693
496.6885, 1593.449
497.1707, 1603.287
497.6528, 1612.624
498.1349, 1620.537
498.6170, 1625.554
499.0992, 1630.984
499.5813, 1640.222
500.0634, 1651.352
500.5455, 1659.770
501.0276, 1660.340
501.5097, 1661.133
501.9919, 1666.244
502.4740, 1676.851
502.9561, 1685.038
503.4382, 1689.202
503.9203, 1691.571
504.4024, 1693.530
504.8846, 1694.557
505.3667, 1696.308
505.8488, 1699.423
506.3309, 1702.976
506.8130, 1704.930
507.2951, 1705.122
507.7773, 1704.442
508.2594, 1702.858
508.7415, 1700.638
509.2236, 1699.624
509.7057, 1699.962
510.1878, 1699.723
510.6700, 1696.913
511.1521, 1692.229
511.6342, 1687.846
512.1163, 1684.361
512.5984, 1680.455
513.0806, 1674.021
513.5627, 1666.166
514.0448, 1659.204
514.5269, 1654.351
515.0090, 1650.549
515.4911, 1647.773
515.9733, 1645.711
516.4554, 1642.595
516.9375, 1635.205
517.4196, 1628.348
517.9017, 1625.245
518.3839, 1628.256
518.8660, 1630.083
519.3481, 1626.969
519.8302, 1623.697
520.3123, 1625.563
520.7944, 1635.097
521.2766, 1645.242
521.7587, 1655.231
522.2408, 1665.014
522.7229, 1674.087
523.2050, 1681.622
523.6871, 1691.616
524.1693, 1706.175
524.6514, 1724.972
525.1335, 1747.048
525.6156, 1772.551
526.0977, 1801.067
526.5798, 1833.445
527.0620, 1868.992
527.5441, 1904.904
528.0262, 1939.837
528.5083, 1976.195
528.9904, 2015.884
529.4725, 2058.582
529.9547, 2103.349
530.4368, 2150.738
530.9189, 2198.798
531.4010, 2245.279
531.8831, 2290.719
532.3652, 2336.715
532.8474, 2383.051
533.3295, 2431.396
533.8116, 2483.741
534.2937, 2543.543
534.7758, 2601.028
535.2579, 2654.495
535.7401, 2706.243
536.2222, 2757.252
536.7043, 2806.571
537.1864, 2859.403
537.6685, 2916.854
538.1506, 2978.976
538.6328, 3044.155
539.1149, 3113.592
539.5970, 3182.775
540.0791, 3248.813
540.5612, 3312.458
541.0433, 3373.901
541.5255, 3433.498
542.0076, 3487.289
542.4897, 3534.607
542.9718, 3573.257
543.4539, 3599.804
543.9360, 3614.117
544.4182, 3613.991
544.9003, 3596.000
545.3824, 3561.957
545.8645, 3515.942
546.3466, 3456.207
546.8287, 3387.886
547.3109, 3311.794
547.7930, 3228.596
548.2751, 3143.594
548.7572, 3054.642
549.2393, 2966.462
549.7214, 2881.423
550.2036, 2798.867
550.6857, 2721.088
551.1678, 2648.435
551.6499, 2579.992
552.1320, 2514.681
552.6141, 2451.511
553.0963, 2395.856
553.5784, 2349.281
554.0605, 2310.757
554.5426, 2278.281
555.0247, 2251.773
555.5068, 2229.682
555.9890, 2210.937
556.4711, 2196.217
556.9532, 2187.500
557.4353, 2184.826
557.9174, 2185.481
558.3995, 2190.971
558.8817, 2197.079
559.3638, 2199.255
559.8459, 2196.210
560.3281, 2189.477
560.8102, 2179.195
561.2923, 2165.766
561.7744, 2149.856
562.2565, 2132.782
562.7386, 2111.850
563.2208, 2086.540
563.7029, 2057.106
564.1850, 2022.512
564.6671, 1979.783
565.1492, 1937.850
565.6313, 1901.146
566.1135, 1870.303
566.5956, 1839.637
567.0777, 1808.618
567.5598, 1780.348
568.0419, 1758.276
568.5240, 1741.871
569.0062, 1727.196
569.4883, 1713.222
569.9704, 1701.699
570.4525, 1695.870
570.9346, 1694.458
571.4167, 1694.388
571.8989, 1693.415
572.3810, 1693.913
572.8631, 1698.552
573.3452, 1706.669
573.8273, 1714.029
574.3094, 1719.337
574.7916, 1723.174
575.2737, 1725.674
575.7558, 1726.431
576.2379, 1727.108
576.7200, 1727.421
577.2021, 1727.917
577.6843, 1728.915
578.1664, 1729.997
578.6485, 1732.855
579.1306, 1737.983
579.6127, 1744.636
580.0948, 1751.553
580.5770, 1758.696
581.0591, 1766.246
581.5412, 1773.732
582.0233, 1781.898
582.5054, 1792.929
582.9875, 1806.398
