##NAMES=Howlite
##RRUFFID=R110150
##IDEAL CHEMISTRY=Ca_2_B_5_SiO_9_(OH)_5_
##LOCALITY=Potash Corporation of Saskatchewan mine, Penobsquis, Kings County, New Brunswick, Canada
##OWNER=RRUFF
##SOURCE=Donald M Doell and Brian Roulston
##DESCRIPTION=Colorless bladed crystals, extracted by dissolving the matrix of sylvite/halite, associated with strontioginorite R110149, volkovskite R110151, ruitenbergite R110152, congolite R110153, and hilgardite
##STATUS=The identification of this mineral has been confirmed by single-crystal X-ray diffraction.
##URL=rruff.info/R110150
132.5834, 521.0964
133.0656, 523.8702
133.5477, 528.6312
134.0298, 534.7411
134.5119, 542.2546
134.9940, 551.0508
135.4761, 560.2584
135.9583, 567.7984
136.4404, 573.1323
136.9225, 577.2674
137.4046, 581.7197
137.8867, 584.7274
138.3688, 583.6860
138.8510, 577.3084
139.3331, 566.2249
139.8152, 552.2467
140.2973, 533.1401
140.7794, 514.9276
141.2615, 499.2473
141.7437, 486.2868
142.2258, 476.8497
142.7079, 472.7618
143.1900, 472.1599
143.6721, 470.4173
144.1542, 466.4982
144.6364, 462.4181
145.1185, 460.4938
145.6006, 461.1225
146.0827, 461.4887
146.5648, 459.7065
147.0469, 457.0145
147.5291, 454.5695
148.0112, 452.7527
148.4933, 451.4436
148.9754, 450.4866
149.4575, 450.3372
149.9396, 449.7074
150.4218, 447.8909
150.9039, 445.4977
151.3860, 443.2990
151.8681, 441.7094
152.3502, 440.7032
152.8323, 440.1320
153.3145, 440.3121
153.7966, 440.6735
154.2787, 441.5641
154.7608, 442.5620
155.2429, 442.7756
155.7250, 441.3006
156.2072, 437.8844
156.6893, 436.7433
157.1714, 439.7439
157.6535, 442.8111
158.1356, 444.6059
158.6177, 444.9520
159.0999, 444.0299
159.5820, 441.8128
160.0641, 438.0016
160.5462, 434.9090
161.0283, 432.0434
161.5104, 430.1710
161.9926, 430.3655
162.4747, 432.7269
162.9568, 435.5535
163.4389, 437.1895
163.9210, 437.6763
164.4031, 437.4483
164.8853, 435.5268
165.3674, 433.2292
165.8495, 432.6372
166.3316, 434.3300
166.8137, 436.9805
167.2958, 439.8362
167.7780, 442.7556
168.2601, 444.9158
168.7422, 445.2969
169.2243, 444.4366
169.7064, 444.5970
170.1885, 446.7691
170.6707, 449.0593
171.1528, 450.1484
171.6349, 450.2315
172.1170, 450.2086
172.5991, 451.0938
173.0812, 452.9826
173.5634, 453.7306
174.0455, 452.3010
174.5276, 450.3405
175.0097, 448.2609
175.4918, 446.1996
175.9739, 444.3006
176.4561, 442.5565
176.9382, 440.5936
177.4203, 440.1201
177.9024, 442.9230
178.3845, 445.6555
178.8666, 446.0624
179.3488, 444.1306
179.8309, 441.7682
180.3130, 441.7202
180.7951, 445.7264
181.2772, 448.1388
181.7593, 448.2874
182.2415, 447.5138
182.7236, 446.4550
183.2057, 445.3702
183.6878, 444.6219
184.1699, 444.7870
184.6520, 446.3669
185.1342, 448.0186
185.6163, 450.3297
186.0984, 452.4510
186.5805, 453.0031
187.0626, 451.4691
187.5447, 449.5795
188.0269, 450.6513
188.5090, 455.4395
188.9911, 459.4972
189.4732, 460.5855
189.9553, 460.4976
190.4374, 462.5918
190.9196, 468.3378
191.4017, 475.5122
191.8838, 481.0146
192.3659, 484.8297
192.8480, 488.1939
193.3301, 491.7905
193.8123, 495.4132
194.2944, 498.3685
194.7765, 500.5582
195.2586, 501.7910
195.7407, 502.2861
196.2228, 502.0494
196.7050, 500.6707
197.1871, 497.6909
197.6692, 493.1504
198.1513, 487.9180
198.6334, 482.0770
199.1155, 475.5575
199.5977, 467.9485
200.0798, 459.3182
200.5619, 450.8804
201.0440, 443.8099
201.5261, 438.2130
202.0082, 433.0399
202.4904, 428.0143
202.9725, 423.5028
203.4546, 419.6693
203.9367, 416.5505
204.4188, 414.1220
204.9009, 412.3648
205.3831, 411.2732
205.8652, 410.9450
206.3473, 412.4505
206.8294, 413.8548
207.3115, 413.5555
207.7936, 411.5435
208.2758, 409.4093
208.7579, 409.5624
209.2400, 413.6451
209.7221, 416.4479
210.2042, 417.1650
210.6863, 417.3976
211.1685, 418.3922
211.6506, 420.3210
212.1327, 422.2924
212.6148, 422.9315
213.0969, 421.0104
213.5790, 420.3532
214.0612, 421.6375
214.5433, 423.6537
215.0254, 425.5797
215.5075, 427.1807
215.9896, 428.6123
216.4717, 430.1642
216.9539, 432.3495
217.4360, 433.1844
217.9181, 431.5374
218.4002, 429.0750
218.8823, 427.5359
219.3644, 427.3503
219.8466, 427.5061
220.3287, 426.6363
220.8108, 424.6091
221.2929, 422.3215
221.7750, 419.4013
222.2571, 416.4674
222.7393, 414.2254
223.2214, 412.8111
223.7035, 412.1680
224.1856, 412.7700
224.6677, 414.5185
225.1498, 415.5641
225.6320, 414.9900
226.1141, 413.5295
226.5962, 412.3098
227.0783, 411.4763
227.5604, 410.9909
228.0425, 411.2484
228.5247, 412.0025
229.0068, 412.0117
229.4889, 410.1937
229.9710, 407.3503
230.4531, 405.3508
230.9352, 404.7060
231.4174, 404.2348
231.8995, 402.8248
232.3816, 400.8221
232.8637, 399.1947
233.3458, 398.8868
233.8279, 399.3618
234.3101, 398.6629
234.7922, 395.8633
235.2743, 393.4110
235.7564, 393.0255
236.2385, 393.9482
236.7206, 394.6596
237.2028, 394.2440
237.6849, 392.9301
238.1670, 391.6140
238.6491, 389.9776
239.1312, 388.8791
239.6133, 388.5168
240.0955, 388.8434
240.5776, 389.7978
241.0597, 391.4297
241.5418, 393.6407
242.0239, 395.9286
242.5060, 398.3409
242.9882, 400.7861
243.4703, 403.4496
243.9524, 406.0917
244.4345, 408.3442
244.9166, 409.9436
245.3987, 411.0508
245.8809, 412.4070
246.3630, 414.3487
246.8451, 416.1039
247.3272, 417.6972
247.8093, 418.9805
248.2914, 419.7788
248.7736, 420.0013
249.2557, 419.6640
249.7378, 418.8140
250.2199, 416.8169
250.7020, 415.0666
251.1841, 414.0497
251.6663, 413.2807
252.1484, 412.1319
252.6305, 410.2859
253.1126, 408.0205
253.5947, 406.1662
254.0768, 405.1705
254.5590, 404.1072
255.0411, 402.8883
255.5232, 401.5858
256.0053, 400.2441
256.4874, 398.8879
256.9695, 397.5622
257.4517, 396.3799
257.9338, 396.0415
258.4159, 394.9506
258.8980, 392.0834
259.3801, 388.8917
259.8622, 387.0063
260.3444, 386.9750
260.8265, 387.9440
261.3086, 388.3204
261.7907, 387.6723
262.2728, 387.0463
262.7549, 386.4038
263.2371, 385.8089
263.7192, 385.1960
264.2013, 384.5650
264.6834, 384.2655
265.1655, 384.9350
265.6476, 387.3603
266.1298, 388.7847
266.6119, 388.9861
267.0940, 388.2680
267.5761, 386.5748
268.0582, 383.9507
268.5403, 381.2243
269.0225, 379.2793
269.5046, 378.2218
269.9867, 377.9443
270.4688, 379.5016
270.9509, 381.1891
271.4330, 381.1783
271.9152, 379.3463
272.3973, 377.5333
272.8794, 377.6687
273.3615, 379.9325
273.8436, 381.2542
274.3257, 381.1844
274.8079, 380.4452
275.2900, 379.2243
275.7721, 377.6261
276.2542, 376.5978
276.7363, 377.2980
277.2184, 379.3349
277.7006, 379.5771
278.1827, 375.6466
278.6648, 371.8027
279.1469, 371.3345
279.6290, 373.9538
280.1111, 377.1240
280.5933, 379.7268
281.0754, 381.5757
281.5575, 382.4476
282.0396, 381.3741
282.5217, 380.5062
283.0038, 381.5276
283.4860, 384.0779
283.9681, 386.1759
284.4502, 386.5934
284.9323, 386.3172
285.4144, 387.5191
285.8965, 390.8527
286.3787, 394.0083
286.8608, 395.4406
287.3429, 395.5819
287.8250, 396.0493
288.3071, 397.4628
288.7892, 399.3001
289.2714, 400.4890
289.7535, 400.7890
290.2356, 402.1468
290.7177, 407.1437
291.1998, 413.9511
291.6819, 417.3634
292.1641, 415.2666
292.6462, 411.3891
293.1283, 409.8657
293.6104, 410.4041
294.0925, 410.9334
294.5746, 410.2801
295.0568, 409.1274
295.5389, 408.9600
296.0210, 410.1850
296.5031, 411.6902
296.9852, 412.0445
297.4673, 411.8072
297.9495, 412.7229
298.4316, 416.4889
298.9137, 421.2895
299.3958, 424.0495
299.8779, 424.2348
300.3600, 424.6807
300.8422, 428.0780
301.3243, 432.9083
301.8064, 436.5194
302.2885, 438.0283
302.7706, 438.4254
303.2527, 438.9246
303.7349, 439.5864
304.2170, 439.4910
304.6991, 437.8641
305.1812, 435.3368
305.6633, 432.9259
306.1454, 431.0780
306.6276, 428.5453
307.1097, 423.7960
307.5918, 416.9767
308.0739, 410.4311
308.5560, 404.9810
309.0381, 400.1844
309.5203, 395.5028
310.0024, 390.8974
310.4845, 386.4561
310.9666, 382.4683
311.4487, 378.7780
311.9308, 374.4476
312.4130, 368.5822
312.8951, 363.1559
313.3772, 360.1253
313.8593, 359.1940
314.3414, 358.6990
314.8235, 358.0164
315.3057, 357.1490
315.7878, 356.1549
316.2699, 355.1603
316.7520, 353.7394
317.2341, 351.1693
317.7162, 347.9508
318.1984, 345.1596
318.6805, 343.1650
319.1626, 341.8377
319.6447, 341.0436
320.1268, 340.8297
320.6089, 340.9275
321.0911, 341.6428
321.5732, 342.4524
322.0553, 342.5360
322.5374, 341.4516
323.0195, 340.0581
323.5016, 339.3657
323.9838, 339.3781
324.4659, 339.0231
324.9480, 337.4203
325.4301, 335.5933
325.9122, 334.9772
326.3943, 335.8947
326.8765, 336.6753
327.3586, 335.8886
327.8407, 333.8169
328.3228, 331.9710
328.8049, 330.4812
329.2870, 329.6646
329.7692, 330.1308
330.2513, 331.7451
330.7334, 332.9533
331.2155, 332.5445
331.6976, 331.2318
332.1797, 330.8163
332.6619, 331.7801
333.1440, 332.8071
333.6261, 332.5566
334.1082, 331.5144
334.5903, 330.8130
335.0724, 331.2416
335.5546, 331.9701
336.0367, 331.8594
336.5188, 330.8422
337.0009, 329.6492
337.4830, 328.4398
337.9651, 327.4232
338.4473, 326.9935
338.9294, 327.3725
339.4115, 328.0666
339.8936, 328.7203
340.3757, 329.3521
340.8578, 330.1026
341.3400, 331.1255
341.8221, 332.1903
342.3042, 332.8875
342.7863, 333.1260
343.2684, 333.5268
343.7505, 334.5554
344.2327, 335.9649
344.7148, 337.1706
345.1969, 338.0433
345.6790, 338.7061
346.1611, 339.3473
346.6432, 339.9550
347.1254, 340.1981
347.6075, 339.3657
348.0896, 338.4244
348.5717, 338.8287
349.0538, 340.7499
349.5359, 342.6771
350.0181, 343.5424
350.5002, 343.4548
350.9823, 343.1749
351.4644, 342.4254
351.9465, 341.7653
352.4286, 341.4577
352.9108, 341.5253
353.3929, 342.1954
353.8750, 343.8651
354.3571, 345.9138
354.8392, 346.6469
355.3214, 345.2133
355.8035, 344.5389
356.2856, 346.3073
356.7677, 349.4222
357.2498, 351.9073
357.7319, 353.1695
358.2141, 353.8951
358.6962, 355.0952
359.1783, 356.9296
359.6604, 358.2241
360.1425, 357.8029
360.6246, 357.4361
361.1068, 359.3270
361.5889, 363.4990
362.0710, 367.3887
362.5531, 368.7070
363.0352, 367.4767
363.5173, 367.1778
363.9995, 368.8058
364.4816, 370.2872
364.9637, 370.7065
365.4458, 370.1921
365.9279, 368.9695
366.4100, 366.9965
366.8922, 364.7652
367.3743, 363.9898
367.8564, 366.4582
368.3385, 367.7530
368.8206, 366.5168
369.3027, 364.1532
369.7849, 362.3555
370.2670, 361.5818
370.7491, 360.9846
371.2312, 359.3976
371.7133, 356.5481
372.1954, 353.4134
372.6776, 349.4713
373.1597, 345.7128
373.6418, 342.6656
374.1239, 340.3609
374.6060, 338.6346
375.0881, 337.3975
375.5703, 336.6371
376.0524, 335.7139
376.5345, 334.2626
377.0166, 333.0648
377.4987, 332.3591
377.9808, 331.9992
378.4630, 331.8014
378.9451, 331.6830
379.4272, 331.5913
379.9093, 331.3790
380.3914, 330.7942
380.8735, 330.5282
381.3557, 331.2565
381.8378, 331.8256
382.3199, 330.8546
382.8020, 328.4611
383.2841, 326.4147
383.7662, 326.9099
384.2484, 330.4248
384.7305, 333.1318
385.2126, 334.2262
385.6947, 335.2588
386.1768, 336.9370
386.6589, 338.9084
387.1411, 340.4395
387.6232, 341.0964
388.1053, 340.9940
388.5874, 340.4933
389.0695, 339.3842
389.5516, 338.2607
390.0338, 337.2930
390.5159, 336.3541
390.9980, 335.2525
391.4801, 333.9400
391.9622, 332.7352
392.4443, 332.0967
392.9265, 332.0923
393.4086, 331.9923
393.8907, 331.2176
394.3728, 330.8349
394.8549, 331.8656
395.3370, 333.9362
395.8192, 335.5963
396.3013, 335.8476
396.7834, 334.9825
397.2655, 333.6821
397.7476, 331.4131
398.2297, 330.1128
398.7119, 331.4501
399.1940, 334.1597
399.6761, 336.8437
400.1582, 339.3616
400.6403, 341.2945
401.1224, 341.8489
401.6046, 341.1275
402.0867, 340.8571
402.5688, 341.7467
403.0509, 343.0985
403.5330, 344.1600
404.0151, 344.9410
404.4973, 345.3773
404.9794, 345.0352
405.4615, 344.4434
405.9436, 344.5684
406.4257, 345.5628
406.9078, 346.9270
407.3900, 348.4156
407.8721, 349.9612
408.3542, 351.2612
408.8363, 352.4870
409.3184, 353.2870
409.8005, 353.2126
410.2827, 352.4675
410.7648, 351.8497
411.2469, 351.8421
411.7290, 351.9040
412.2111, 350.6778
412.6932, 347.7578
413.1754, 344.8165
413.6575, 342.1848
414.1396, 339.6455
414.6217, 336.8260
415.1038, 333.7169
415.5859, 330.8193
416.0681, 328.6842
416.5502, 327.4078
417.0323, 325.8653
417.5144, 323.4239
417.9965, 321.4114
418.4786, 320.4433
418.9608, 320.2923
419.4429, 320.7362
419.9250, 321.7300
420.4071, 322.6458
420.8892, 321.5828
421.3713, 315.4615
421.8535, 312.1250
422.3356, 313.9071
422.8177, 316.8676
423.2998, 317.7768
423.7819, 316.3758
424.2640, 314.7912
424.7462, 315.4793
425.2283, 318.7087
425.7104, 320.2159
426.1925, 318.1587
426.6746, 316.2851
427.1567, 315.9762
427.6389, 316.4778
428.1210, 316.4201
428.6031, 315.0317
429.0852, 313.2374
429.5673, 313.1534
430.0494, 315.4283
430.5316, 317.0671
431.0137, 317.1962
431.4958, 316.5402
431.9779, 315.2043
432.4600, 313.3095
432.9421, 311.5504
433.4243, 310.2926
433.9064, 309.5756
434.3885, 309.7196
434.8706, 311.1384
435.3527, 312.4884
435.8348, 312.8394
436.3170, 312.5541
436.7991, 312.1978
437.2812, 312.0240
437.7633, 311.6539
438.2454, 310.3808
438.7275, 308.4030
439.2097, 307.2492
439.6918, 307.7379
440.1739, 308.8465
440.6560, 308.9750
441.1381, 308.0710
441.6202, 307.2903
442.1024, 307.0504
442.5845, 307.0461
443.0666, 306.6819
443.5487, 305.9809
444.0308, 306.0290
444.5129, 307.9422
444.9951, 311.3996
445.4772, 313.3866
445.9593, 313.3369
446.4414, 312.7163
446.9235, 311.5806
447.4056, 310.2607
447.8878, 309.3076
448.3699, 308.8995
448.8520, 308.5951
449.3341, 307.5535
449.8162, 304.8047
450.2983, 304.2419
450.7805, 308.0713
451.2626, 311.7130
451.7447, 312.5606
452.2268, 311.1590
452.7089, 309.5210
453.1910, 309.0111
453.6732, 309.2731
454.1553, 308.7670
454.6374, 306.8701
455.1195, 305.2500
455.6016, 304.3301
456.0837, 303.6598
456.5659, 302.6137
457.0480, 301.1740
457.5301, 300.2938
458.0122, 301.2443
458.4943, 303.9879
458.9764, 306.4059
459.4586, 308.7544
459.9407, 310.2248
460.4228, 309.9099
460.9049, 308.6201
461.3870, 307.7993
461.8691, 308.0308
462.3513, 308.7985
462.8334, 309.5044
463.3155, 310.1577
463.7976, 310.9821
464.2797, 312.0068
464.7618, 313.2948
465.2440, 315.0499
465.7261, 317.2900
466.2082, 319.2589
466.6903, 320.2618
467.1724, 321.1010
467.6545, 323.0361
468.1367, 326.0692
468.6188, 328.8259
469.1009, 330.4346
469.5830, 330.9824
470.0651, 330.9728
470.5472, 330.2971
471.0294, 329.2955
471.5115, 327.8814
471.9936, 326.2617
472.4757, 324.7753
472.9578, 323.4850
473.4399, 321.9999
473.9221, 319.7603
474.4042, 316.5128
474.8863, 314.0035
475.3684, 312.9283
475.8505, 311.7398
476.3326, 309.8167
476.8148, 307.4033
477.2969, 304.7039
477.7790, 301.7877
478.2611, 299.3472
478.7432, 299.2945
479.2253, 302.9970
479.7075, 305.1937
480.1896, 304.4020
480.6717, 302.6988
481.1538, 300.6993
481.6359, 298.6897
482.1180, 297.2107
482.6002, 296.7475
483.0823, 297.0421
483.5644, 297.5690
484.0465, 298.5774
484.5286, 298.8598
485.0107, 297.1374
485.4929, 294.7720
485.9750, 293.3987
486.4571, 293.3158
486.9392, 293.5610
487.4213, 293.7437
487.9034, 293.8092
488.3856, 293.5828
488.8677, 293.0054
489.3498, 292.3436
489.8319, 291.6789
490.3140, 291.0960
490.7961, 291.1772
491.2783, 292.5450
491.7604, 293.9128
492.2425, 294.7040
492.7246, 295.0869
493.2067, 295.4392
493.6888, 295.8944
494.1710, 296.1968
494.6531, 295.8694
495.1352, 294.4763
495.6173, 293.8638
496.0994, 295.0457
496.5815, 295.9122
497.0637, 295.0707
497.5458, 293.1328
498.0279, 291.5316
498.5100, 291.0852
498.9921, 291.3990
499.4742, 291.4747
499.9564, 291.1931
500.4385, 290.9701
500.9206, 290.7951
501.4027, 290.7464
501.8848, 290.7989
502.3669, 291.0018
502.8491, 291.5458
503.3312, 292.6547
503.8133, 294.1772
504.2954, 295.9684
504.7775, 298.2852
505.2596, 299.5677
505.7418, 298.2025
506.2239, 295.8499
506.7060, 295.0230
507.1881, 296.2235
507.6702, 297.3641
508.1523, 297.0288
508.6345, 296.0783
509.1166, 296.1609
509.5987, 297.5245
510.0808, 298.7677
510.5629, 298.6183
511.0450, 297.2422
511.5272, 296.6535
512.0093, 297.8067
512.4914, 298.5000
512.9735, 297.8114
513.4556, 296.4107
513.9377, 294.9976
514.4199, 293.8342
514.9020, 293.1426
515.3841, 293.4184
515.8662, 295.0132
516.3483, 295.1571
516.8304, 291.5117
517.3126, 288.8907
517.7947, 289.2055
518.2768, 291.2328
518.7589, 293.3008
519.2410, 294.7794
519.7231, 295.6322
520.2053, 295.6061
520.6874, 294.6235
521.1695, 293.8766
521.6516, 293.4761
522.1337, 293.4193
522.6158, 293.5325
523.0980, 293.9267
523.5801, 294.9958
524.0622, 297.6816
524.5443, 300.3047
525.0264, 300.5161
525.5085, 298.8063
525.9907, 298.0665
526.4728, 299.3545
526.9549, 301.9352
527.4370, 305.0015
527.9191, 308.7668
528.4012, 311.8221
528.8834, 313.8428
529.3655, 315.2738
529.8476, 315.9373
530.3297, 316.2440
530.8118, 317.1775
531.2939, 319.2718
531.7761, 322.2728
532.2582, 325.5715
532.7403, 329.3394
533.2224, 333.0855
533.7045, 336.7821
534.1866, 340.4517
534.6688, 344.1042
535.1509, 347.7516
535.6330, 351.4566
536.1151, 355.3472
536.5972, 359.2103
537.0793, 362.4397
537.5615, 364.8502
538.0436, 367.3442
538.5257, 370.5071
539.0078, 373.5663
539.4899, 375.3728
539.9720, 376.0367
540.4542, 377.7829
540.9363, 383.2606
541.4184, 389.6761
541.9005, 392.8462
542.3826, 392.7361
542.8647, 391.7356
543.3469, 390.9503
543.8290, 390.2069
544.3111, 389.1226
544.7932, 388.1136
545.2753, 385.9135
545.7574, 381.9080
546.2396, 376.9273
546.7217, 371.3115
547.2038, 365.3236
547.6859, 359.6466
548.1680, 354.7766
548.6501, 350.4956
549.1323, 345.7964
549.6144, 340.2321
550.0965, 335.0669
550.5786, 330.4105
551.0607, 326.1408
551.5428, 321.8791
552.0250, 317.8141
552.5071, 314.9158
552.9892, 314.6434
553.4713, 315.8008
553.9534, 314.4098
554.4355, 309.7719
554.9177, 306.1878
555.3998, 306.1412
555.8819, 307.4831
556.3640, 307.1317
556.8461, 304.8157
557.3282, 302.7310
557.8104, 301.7061
558.2925, 301.3646
558.7746, 301.4784
559.2567, 301.9384
559.7388, 302.3658
560.2209, 302.6551
560.7031, 302.5603
561.1852, 301.2909
561.6673, 296.9355
562.1494, 294.0931
562.6315, 294.3292
563.1136, 294.9182
563.5958, 293.5765
564.0779, 290.6157
564.5600, 287.9505
565.0421, 286.9411
565.5242, 287.1934
566.0063, 287.4626
566.4885, 287.7995
566.9706, 287.9979
567.4527, 287.8671
567.9348, 287.6819
568.4169, 287.6646
568.8990, 287.7948
569.3812, 287.8483
569.8633, 287.5876
570.3454, 287.2462
570.8275, 286.9832
571.3096, 286.8427
571.7917, 287.4639
572.2739, 289.3477
572.7560, 291.7820
573.2381, 293.4679
573.7202, 294.2162
574.2023, 295.0588
574.6844, 296.3311
575.1666, 297.5251
575.6487, 298.3032
576.1308, 298.7096
576.6129, 298.9488
577.0950, 299.1324
577.5771, 299.1591
578.0593, 298.6827
578.5414, 297.2332
579.0235, 296.5671
579.5056, 297.5859
579.9877, 298.6495
580.4698, 298.7523
580.9520, 298.3369
581.4341, 298.6006
581.9162, 300.3686
582.3983, 302.4308
582.8804, 302.9088
583.3625, 301.9853
583.8447, 301.6979
584.3268, 302.7488
584.8089, 304.0188
585.2910, 304.0482
585.7731, 303.0372
586.2552, 303.1149
586.7374, 305.1577
587.2195, 307.6084
587.7016, 310.2984
588.1837, 312.6778
588.6658, 313.5628
589.1479, 312.6723
589.6301, 311.2679
590.1122, 310.8361
590.5943, 311.4172
591.0764, 312.6434
591.5585, 315.6643
592.0406, 317.9776
592.5228, 318.7758
593.0049, 318.6573
593.4870, 317.9081
593.9691, 316.6667
594.4512, 316.2563
594.9333, 318.5438
595.4155, 322.8360
595.8976, 326.0603
596.3797, 327.9227
596.8618, 329.2853
597.3439, 330.6833
597.8260, 331.8626
598.3082, 332.2771
598.7903, 331.7247
599.2724, 330.9295
599.7545, 330.0340
600.2366, 329.0673
600.7188, 327.9339
601.2009, 326.7145
601.6830, 325.8847
602.1651, 325.8569
602.6472, 326.2281
603.1293, 325.4574
603.6115, 322.8405
604.0936, 320.3453
604.5757, 317.9047
605.0578, 315.7899
605.5399, 314.2574
606.0220, 313.2151
606.5042, 312.4058
606.9863, 311.9438
607.4684, 311.2591
607.9505, 308.9416
608.4326, 305.0541
608.9147, 302.4342
609.3969, 302.3276
609.8790, 302.7746
610.3611, 301.3450
610.8432, 298.2437
611.3253, 296.1967
611.8074, 297.0000
612.2896, 297.3453
612.7717, 295.5009
613.2538, 292.0167
613.7359, 287.0959
614.2180, 281.0379
614.7001, 276.1899
615.1823, 275.6856
615.6644, 279.8149
616.1465, 282.2194
616.6286, 281.8136
617.1107, 281.0889
617.5928, 280.6813
618.0750, 280.2960
618.5571, 279.7585
619.0392, 279.0066
619.5213, 277.6611
620.0034, 274.6981
620.4855, 271.1191
620.9677, 269.0934
621.4498, 268.7292
621.9319, 269.7589
622.4140, 272.6767
622.8961, 276.2474
623.3782, 277.6978
623.8604, 276.4504
624.3425, 275.2324
624.8246, 274.0556
