##NAMES=Howlite
##RRUFFID=R050588
##IDEAL CHEMISTRY=Ca_2_B_5_SiO_9_(OH)_5_
##LOCALITY=Lake Bras d'Or, Iona, Cape Breton Island, Victoria County, Nova Scotia, Canada
##OWNER=RRUFF
##SOURCE=Rock Currier
##DESCRIPTION=Group of tan colored tabular to prismatic single crystals
##STATUS=The identification of this mineral has been confirmed by X-ray diffraction and chemical analysis
##URL=rruff.info/R050588
##MEASURED CHEMISTRY=Ca_2.01_B_5.00_Si_0.99_O_9_(OH)_5_ ; B and OH not measured but estimated by difference and charge balance.
92.02539, 3555.378
92.50751, 3620.129
92.98962, 3676.508
93.47174, 3680.814
93.95386, 3650.810
94.43597, 3566.497
94.91809, 3414.421
95.40021, 3219.980
95.88232, 3052.444
96.36444, 2911.150
96.84656, 2798.140
97.32867, 2719.427
97.81078, 2666.300
98.29290, 2625.931
98.77502, 2586.993
99.25713, 2544.815
99.73925, 2509.281
100.2214, 2479.120
100.7035, 2455.098
101.1856, 2438.489
101.6677, 2428.461
102.1498, 2422.382
102.6320, 2417.236
103.1141, 2412.608
103.5962, 2410.078
104.0783, 2409.732
104.5604, 2411.060
105.0425, 2413.544
105.5247, 2416.964
106.0068, 2421.384
106.4889, 2426.640
106.9710, 2432.703
107.4531, 2438.520
107.9352, 2447.336
108.4173, 2457.199
108.8995, 2456.967
109.3816, 2437.078
109.8637, 2408.481
110.3458, 2382.350
110.8279, 2359.413
111.3100, 2339.794
111.7922, 2323.839
112.2743, 2312.068
112.7564, 2302.672
113.2385, 2294.987
113.7206, 2289.136
114.2027, 2285.258
114.6849, 2283.375
115.1670, 2283.643
115.6491, 2286.667
116.1312, 2293.415
116.6133, 2302.342
117.0954, 2314.274
117.5776, 2327.997
118.0597, 2341.600
118.5418, 2353.609
119.0239, 2363.973
119.5060, 2377.782
119.9881, 2392.413
120.4703, 2411.887
120.9524, 2442.804
121.4345, 2482.296
121.9166, 2519.418
122.3987, 2545.401
122.8808, 2558.090
123.3630, 2555.514
123.8451, 2525.841
124.3272, 2486.908
124.8093, 2453.776
125.2914, 2428.017
125.7735, 2411.722
126.2557, 2412.871
126.7378, 2427.789
127.2199, 2443.211
127.7020, 2456.893
128.1841, 2467.652
128.6662, 2471.417
129.1483, 2466.668
129.6305, 2454.700
130.1126, 2436.550
130.5947, 2412.653
131.0768, 2386.736
131.5589, 2360.438
132.0410, 2333.148
132.5232, 2310.666
133.0053, 2290.284
133.4874, 2277.427
133.9695, 2277.001
134.4516, 2289.464
134.9337, 2310.020
135.4159, 2332.177
135.8980, 2358.205
136.3801, 2381.572
136.8622, 2411.035
137.3443, 2433.803
137.8264, 2439.446
138.3086, 2424.054
138.7907, 2390.233
139.2728, 2345.209
139.7549, 2276.263
140.2370, 2209.869
140.7191, 2143.491
141.2013, 2081.350
141.6834, 2029.737
142.1655, 1992.517
142.6476, 1968.057
143.1297, 1949.546
143.6118, 1937.730
144.0939, 1929.495
144.5761, 1924.938
145.0582, 1923.493
145.5403, 1922.724
146.0224, 1922.149
146.5045, 1920.746
146.9866, 1916.278
147.4688, 1906.324
147.9509, 1895.207
148.4330, 1887.769
148.9151, 1884.740
149.3972, 1880.727
149.8793, 1871.637
150.3615, 1859.641
150.8436, 1846.636
151.3257, 1831.661
151.8078, 1816.912
152.2899, 1808.134
152.7720, 1808.255
153.2542, 1809.424
153.7363, 1808.503
154.2184, 1806.277
154.7005, 1803.887
155.1826, 1801.990
155.6647, 1800.549
156.1469, 1799.207
156.6290, 1796.946
157.1111, 1795.916
157.5932, 1796.636
158.0753, 1799.033
158.5574, 1803.096
159.0396, 1809.264
159.5217, 1818.156
160.0038, 1823.235
160.4859, 1820.916
160.9680, 1818.568
161.4501, 1818.762
161.9323, 1821.793
162.4144, 1827.041
162.8965, 1834.110
163.3786, 1843.807
163.8607, 1851.900
164.3428, 1855.091
164.8250, 1859.015
165.3071, 1868.761
165.7892, 1884.904
166.2713, 1902.566
166.7534, 1915.639
167.2355, 1923.256
167.7177, 1932.543
168.1998, 1945.319
168.6819, 1959.851
169.1640, 1973.540
169.6461, 1985.491
170.1282, 1997.912
170.6104, 2014.793
171.0925, 2035.533
171.5746, 2054.291
172.0567, 2070.129
172.5388, 2082.343
173.0209, 2088.193
173.5031, 2084.657
173.9852, 2077.696
174.4673, 2073.490
174.9494, 2071.652
175.4315, 2068.240
175.9136, 2059.011
176.3958, 2044.219
176.8779, 2032.069
177.3600, 2023.649
177.8421, 2018.642
178.3242, 2017.785
178.8063, 2020.716
179.2885, 2025.086
179.7706, 2028.752
180.2527, 2031.721
180.7348, 2033.936
181.2169, 2035.688
181.6990, 2036.507
182.1812, 2035.498
182.6633, 2032.793
183.1454, 2029.804
183.6275, 2028.858
184.1096, 2032.179
184.5917, 2032.681
185.0738, 2027.839
185.5560, 2022.358
186.0381, 2018.659
186.5202, 2017.672
187.0023, 2019.837
187.4844, 2025.875
187.9665, 2036.590
188.4487, 2050.862
188.9308, 2069.634
189.4129, 2091.179
189.8950, 2115.265
190.3771, 2141.606
190.8592, 2167.681
191.3414, 2188.636
191.8235, 2205.771
192.3056, 2215.025
192.7877, 2212.863
193.2698, 2203.338
193.7519, 2191.201
194.2341, 2177.795
194.7162, 2163.472
195.1983, 2149.611
195.6804, 2138.224
196.1625, 2121.829
196.6446, 2097.887
197.1268, 2067.248
197.6089, 2031.468
198.0910, 1990.519
198.5731, 1945.095
199.0552, 1895.538
199.5373, 1840.473
200.0195, 1787.508
200.5016, 1739.689
200.9837, 1696.854
201.4658, 1658.652
201.9479, 1624.523
202.4300, 1596.067
202.9122, 1574.392
203.3943, 1559.693
203.8764, 1549.122
204.3585, 1541.042
204.8406, 1535.427
205.3227, 1531.330
205.8048, 1528.551
206.2870, 1527.468
206.7691, 1529.181
207.2512, 1533.737
207.7333, 1538.349
208.2154, 1539.609
208.6975, 1536.794
209.1797, 1534.920
209.6618, 1535.934
210.1439, 1537.388
210.6260, 1538.107
211.1081, 1537.848
211.5902, 1536.900
212.0724, 1535.082
212.5545, 1531.196
213.0366, 1530.261
213.5187, 1535.594
214.0008, 1541.593
214.4829, 1544.615
214.9651, 1544.061
215.4472, 1542.146
215.9293, 1542.163
216.4114, 1545.382
216.8935, 1547.977
217.3756, 1552.221
217.8578, 1554.493
218.3399, 1551.935
218.8220, 1544.114
219.3041, 1532.963
219.7862, 1521.295
220.2683, 1508.352
220.7505, 1496.483
221.2326, 1485.511
221.7147, 1475.532
222.1968, 1466.824
222.6789, 1459.376
223.1610, 1452.582
223.6432, 1445.391
224.1253, 1436.263
224.6074, 1430.459
225.0895, 1429.731
225.5716, 1431.276
226.0537, 1432.509
226.5358, 1432.835
227.0180, 1433.558
227.5001, 1436.798
227.9822, 1443.788
228.4643, 1449.324
228.9464, 1451.653
229.4285, 1453.041
229.9107, 1456.802
230.3928, 1463.803
230.8749, 1470.080
231.3570, 1469.968
231.8391, 1463.056
232.3212, 1455.263
232.8034, 1446.001
233.2855, 1436.919
233.7676, 1430.582
234.2497, 1427.763
234.7318, 1425.841
235.2139, 1421.982
235.6961, 1416.428
236.1782, 1410.198
236.6603, 1401.918
237.1424, 1393.599
237.6245, 1388.338
238.1066, 1386.736
238.5888, 1387.392
239.0709, 1390.175
239.5530, 1394.401
240.0351, 1397.962
240.5172, 1399.594
240.9993, 1400.201
241.4815, 1401.258
241.9636, 1402.601
242.4457, 1405.112
242.9278, 1408.625
243.4099, 1413.592
243.8920, 1421.602
244.3742, 1435.866
244.8563, 1453.223
245.3384, 1465.957
245.8205, 1472.193
246.3026, 1477.908
246.7847, 1486.382
247.2668, 1496.585
247.7490, 1507.050
248.2311, 1517.521
248.7132, 1527.610
249.1953, 1536.984
249.6774, 1546.838
250.1595, 1553.164
250.6417, 1552.877
251.1238, 1548.978
251.6059, 1545.308
252.0880, 1543.955
252.5701, 1543.451
253.0522, 1539.968
253.5344, 1532.484
254.0165, 1523.865
254.4986, 1516.068
254.9807, 1507.461
255.4628, 1495.586
255.9449, 1479.019
256.4271, 1460.155
256.9092, 1444.604
257.3913, 1434.219
257.8734, 1423.903
258.3555, 1411.111
258.8376, 1398.570
259.3198, 1389.035
259.8019, 1383.644
260.2840, 1380.812
260.7661, 1377.272
261.2482, 1372.485
261.7303, 1367.994
262.2125, 1363.566
262.6946, 1359.622
263.1767, 1356.895
263.6588, 1355.505
264.1409, 1354.408
264.6230, 1351.403
265.1052, 1344.039
265.5873, 1339.702
266.0694, 1341.362
266.5515, 1343.907
267.0336, 1343.109
267.5157, 1338.248
267.9979, 1332.161
268.4800, 1329.276
268.9621, 1332.002
269.4442, 1332.748
269.9263, 1330.926
270.4084, 1327.996
270.8906, 1324.265
271.3727, 1320.121
271.8548, 1316.583
272.3369, 1315.133
272.8190, 1317.032
273.3011, 1316.797
273.7833, 1312.435
274.2654, 1308.041
274.7475, 1306.725
275.2296, 1308.048
275.7117, 1308.793
276.1938, 1305.443
276.6760, 1296.833
277.1581, 1291.377
277.6402, 1289.978
278.1223, 1290.062
278.6044, 1290.810
279.0865, 1292.026
279.5686, 1293.474
280.0508, 1294.769
280.5329, 1295.839
281.0150, 1299.835
281.4971, 1307.516
281.9792, 1316.672
282.4613, 1327.770
282.9435, 1339.769
283.4256, 1350.327
283.9077, 1357.676
284.3898, 1362.402
284.8719, 1369.414
285.3540, 1381.357
285.8362, 1392.271
286.3183, 1400.029
286.8004, 1405.728
287.2825, 1411.447
287.7646, 1418.289
288.2467, 1425.789
288.7289, 1432.408
289.2110, 1436.855
289.6931, 1442.062
290.1752, 1449.649
290.6573, 1457.942
291.1394, 1464.019
291.6216, 1466.625
292.1037, 1467.907
292.5858, 1472.469
293.0679, 1482.063
293.5500, 1491.535
294.0321, 1499.940
294.5143, 1508.189
294.9964, 1516.760
295.4785, 1525.838
295.9606, 1536.620
296.4427, 1551.273
296.9248, 1571.849
297.4070, 1590.181
297.8891, 1602.373
298.3712, 1614.371
298.8533, 1631.580
299.3354, 1654.676
299.8175, 1681.181
300.2997, 1709.451
300.7818, 1740.060
301.2639, 1766.489
301.7460, 1788.446
302.2281, 1806.397
302.7102, 1820.896
303.1924, 1831.838
303.6745, 1839.323
304.1566, 1844.547
304.6387, 1846.414
305.1208, 1836.084
305.6029, 1809.286
306.0851, 1775.856
306.5672, 1737.925
307.0493, 1696.898
307.5314, 1656.328
308.0135, 1618.307
308.4956, 1582.208
308.9778, 1545.843
309.4599, 1506.739
309.9420, 1470.301
310.4241, 1438.611
310.9062, 1410.789
311.3883, 1385.828
311.8705, 1363.609
312.3526, 1343.428
312.8347, 1324.292
313.3168, 1306.543
313.7989, 1288.671
314.2810, 1267.968
314.7632, 1247.833
315.2453, 1233.553
315.7274, 1226.811
316.2095, 1222.939
316.6916, 1215.369
317.1737, 1202.769
317.6559, 1192.378
318.1380, 1186.168
318.6201, 1181.575
319.1022, 1176.029
319.5843, 1169.241
320.0664, 1163.044
320.5485, 1159.360
321.0306, 1158.473
321.5128, 1156.611
321.9949, 1153.320
322.4770, 1149.465
322.9591, 1144.553
323.4412, 1139.193
323.9233, 1136.058
324.4055, 1137.597
324.8876, 1142.830
325.3697, 1144.580
325.8518, 1140.513
326.3339, 1136.103
326.8160, 1132.911
327.2982, 1130.886
327.7803, 1129.885
328.2624, 1129.920
328.7445, 1130.772
329.2266, 1131.930
329.7087, 1133.531
330.1909, 1135.142
330.6730, 1137.502
331.1551, 1139.543
331.6372, 1139.657
332.1193, 1137.359
332.6014, 1133.748
333.0836, 1129.910
333.5657, 1124.660
334.0478, 1123.479
334.5299, 1130.088
335.0120, 1138.516
335.4941, 1143.962
335.9763, 1145.848
336.4584, 1146.342
336.9405, 1147.247
337.4226, 1148.584
337.9047, 1150.571
338.3868, 1152.365
338.8690, 1155.499
339.3511, 1162.148
339.8332, 1171.070
340.3153, 1178.242
340.7974, 1180.750
341.2795, 1179.677
341.7617, 1182.056
342.2438, 1191.138
342.7259, 1199.287
343.2080, 1203.326
343.6901, 1205.740
344.1722, 1210.819
344.6544, 1220.392
345.1365, 1231.823
345.6186, 1239.570
346.1007, 1240.198
346.5828, 1242.137
347.0649, 1245.931
347.5471, 1250.743
348.0292, 1255.769
348.5113, 1260.861
348.9934, 1266.687
349.4755, 1274.214
349.9576, 1284.402
350.4398, 1292.234
350.9219, 1296.272
351.4040, 1299.652
351.8861, 1304.075
352.3682, 1309.284
352.8503, 1313.944
353.3325, 1316.897
353.8146, 1318.304
354.2967, 1320.903
354.7788, 1325.869
355.2609, 1330.652
355.7430, 1334.456
356.2252, 1337.813
356.7073, 1341.730
357.1894, 1346.696
357.6715, 1351.983
358.1536, 1355.773
358.6357, 1357.039
359.1179, 1358.260
359.5999, 1360.148
360.0821, 1361.667
360.5642, 1361.873
361.0463, 1360.640
361.5284, 1358.575
362.0105, 1356.112
362.4926, 1352.554
362.9748, 1351.441
363.4569, 1354.237
363.9390, 1357.933
364.4211, 1362.122
364.9032, 1366.213
365.3853, 1369.198
365.8675, 1370.353
366.3496, 1369.724
366.8317, 1367.740
367.3138, 1364.220
367.7959, 1359.359
368.2780, 1353.179
368.7602, 1345.791
369.2423, 1337.104
369.7244, 1327.079
370.2065, 1316.302
370.6886, 1306.141
371.1707, 1297.571
371.6529, 1287.083
372.1350, 1272.228
372.6171, 1256.808
373.0992, 1242.888
373.5813, 1230.946
374.0634, 1220.337
374.5456, 1210.288
375.0277, 1200.746
375.5098, 1193.275
375.9919, 1189.081
376.4740, 1185.845
376.9561, 1182.236
377.4383, 1178.673
377.9204, 1176.360
378.4025, 1176.608
378.8846, 1178.207
379.3667, 1177.287
379.8488, 1172.355
380.3310, 1168.807
380.8131, 1170.205
381.2952, 1173.451
381.7773, 1175.427
382.2594, 1175.198
382.7415, 1174.276
383.2237, 1174.466
383.7058, 1175.756
384.1879, 1176.370
384.6700, 1175.654
385.1521, 1174.307
385.6342, 1172.850
386.1164, 1171.324
386.5985, 1170.016
387.0806, 1170.213
387.5627, 1170.649
388.0448, 1167.386
388.5269, 1158.818
389.0091, 1150.963
389.4912, 1149.484
389.9733, 1152.043
390.4554, 1153.748
390.9375, 1154.343
391.4196, 1153.071
391.9018, 1147.828
392.3839, 1139.163
392.8660, 1132.475
393.3481, 1130.693
393.8302, 1131.768
394.3123, 1131.688
394.7945, 1130.434
395.2766, 1128.318
395.7587, 1124.311
396.2408, 1119.802
396.7229, 1117.295
397.2050, 1117.393
397.6872, 1118.846
398.1693, 1120.440
398.6514, 1122.178
399.1335, 1124.149
399.6156, 1126.636
400.0977, 1129.148
400.5798, 1131.382
401.0620, 1133.334
401.5441, 1135.043
402.0262, 1136.456
402.5083, 1137.702
402.9904, 1139.424
403.4725, 1142.243
403.9547, 1144.698
404.4368, 1146.395
404.9189, 1147.625
405.4010, 1148.432
405.8831, 1148.886
406.3652, 1149.844
406.8474, 1152.918
407.3295, 1160.124
407.8116, 1163.256
408.2937, 1159.097
408.7758, 1154.227
409.2579, 1152.825
409.7401, 1154.178
410.2222, 1154.721
410.7043, 1151.560
411.1864, 1145.360
411.6685, 1141.967
412.1506, 1145.707
412.6328, 1146.952
413.1149, 1141.959
413.5970, 1134.845
414.0791, 1130.344
414.5612, 1130.027
415.0433, 1131.572
415.5255, 1131.177
416.0076, 1127.882
416.4897, 1125.979
416.9718, 1126.225
417.4539, 1127.529
417.9360, 1129.708
418.4182, 1132.591
418.9003, 1135.883
419.3824, 1139.849
419.8645, 1144.009
420.3466, 1145.596
420.8287, 1142.010
421.3109, 1141.344
421.7930, 1150.060
422.2751, 1161.895
422.7572, 1169.477
423.2393, 1170.262
423.7214, 1169.024
424.2036, 1170.881
424.6857, 1175.708
425.1678, 1180.245
425.6499, 1183.607
426.1320, 1186.684
426.6141, 1190.983
427.0963, 1196.187
427.5784, 1199.654
428.0605, 1198.936
428.5426, 1196.359
429.0247, 1195.725
429.5068, 1197.345
429.9890, 1198.871
430.4711, 1198.976
430.9532, 1197.778
431.4353, 1195.973
431.9174, 1192.579
432.3995, 1190.037
432.8817, 1190.035
433.3638, 1191.720
433.8459, 1193.833
434.3280, 1196.216
434.8101, 1197.321
435.2922, 1194.448
435.7744, 1186.105
436.2565, 1179.822
436.7386, 1177.185
437.2207, 1175.595
437.7028, 1173.786
438.1849, 1171.459
438.6671, 1168.207
439.1492, 1163.645
439.6313, 1158.052
440.1134, 1153.167
440.5955, 1146.982
441.0776, 1144.075
441.5598, 1147.091
442.0418, 1152.565
442.5240, 1157.790
443.0061, 1161.715
443.4882, 1163.562
443.9703, 1161.621
444.4524, 1154.364
444.9345, 1150.528
445.4167, 1152.942
445.8988, 1156.053
446.3809, 1158.546
446.8630, 1160.216
447.3451, 1160.938
447.8272, 1160.455
448.3094, 1159.386
448.7915, 1159.767
449.2736, 1162.926
449.7557, 1163.685
450.2378, 1158.101
450.7199, 1151.412
451.2021, 1147.574
451.6842, 1146.920
452.1663, 1146.529
452.6484, 1143.796
453.1305, 1139.319
453.6126, 1135.850
454.0948, 1133.820
454.5769, 1132.228
455.0590, 1130.456
455.5411, 1128.661
456.0232, 1127.092
456.5053, 1125.599
456.9875, 1124.656
457.4696, 1124.451
457.9517, 1125.074
458.4338, 1127.134
458.9159, 1131.200
459.3980, 1136.073
459.8802, 1139.664
460.3623, 1141.710
460.8444, 1145.056
461.3265, 1150.904
461.8086, 1157.771
462.2907, 1164.733
462.7729, 1171.554
463.2550, 1177.468
463.7371, 1181.594
464.2192, 1184.626
464.7013, 1190.831
465.1834, 1202.607
465.6656, 1214.256
466.1477, 1224.657
466.6298, 1234.803
467.1119, 1246.354
467.5940, 1259.469
468.0761, 1272.040
468.5583, 1281.767
469.0404, 1288.820
469.5225, 1292.319
470.0046, 1291.424
470.4867, 1287.718
470.9688, 1281.434
471.4510, 1272.628
471.9331, 1261.053
472.4152, 1246.446
472.8973, 1229.938
473.3794, 1213.143
473.8615, 1195.528
474.3437, 1179.994
474.8258, 1168.630
475.3079, 1158.413
475.7900, 1146.976
476.2721, 1134.755
476.7542, 1124.237
477.2364, 1117.659
477.7185, 1113.781
478.2006, 1109.752
478.6827, 1105.491
479.1648, 1101.609
479.6469, 1098.416
480.1291, 1095.849
480.6112, 1093.813
481.0933, 1092.513
481.5754, 1091.192
482.0575, 1089.064
482.5396, 1086.751
483.0217, 1085.858
483.5038, 1086.792
483.9860, 1087.235
484.4681, 1084.471
484.9502, 1078.365
485.4323, 1074.928
485.9144, 1076.345
486.3965, 1077.926
486.8787, 1077.220
487.3608, 1075.361
487.8429, 1074.609
488.3250, 1075.863
488.8071, 1078.203
489.2892, 1080.068
489.7714, 1081.645
490.2535, 1082.230
490.7356, 1080.381
491.2177, 1079.039
491.6998, 1079.681
492.1819, 1082.088
492.6641, 1085.554
493.1462, 1089.828
493.6283, 1094.422
494.1104, 1097.794
494.5925, 1099.467
495.0746, 1101.202
495.5568, 1102.936
496.0389, 1105.201
496.5210, 1108.674
497.0031, 1113.282
497.4852, 1117.944
497.9673, 1122.524
498.4495, 1126.514
498.9316, 1127.993
499.4137, 1126.346
499.8958, 1124.811
500.3779, 1125.691
500.8600, 1127.767
501.3422, 1128.313
501.8243, 1126.154
502.3064, 1124.733
502.7885, 1126.723
503.2706, 1130.367
503.7527, 1132.609
504.2349, 1132.784
504.7170, 1131.573
505.1991, 1129.168
505.6812, 1125.421
506.1633, 1124.316
506.6454, 1129.502
507.1276, 1132.992
507.6097, 1130.344
508.0918, 1124.540
508.5739, 1120.240
509.0560, 1119.176
509.5381, 1119.873
510.0203, 1120.190
510.5024, 1120.359
510.9845, 1119.344
511.4666, 1115.662
511.9487, 1112.266
512.4308, 1110.754
512.9130, 1110.320
513.3951, 1109.121
513.8772, 1106.010
514.3593, 1102.311
514.8414, 1100.696
515.3235, 1101.489
515.8057, 1101.797
516.2878, 1100.614
516.7699, 1099.070
517.2520, 1097.937
517.7341, 1097.242
518.2162, 1097.089
518.6984, 1097.783
519.1805, 1098.889
519.6626, 1099.615
520.1447, 1100.034
520.6268, 1101.247
521.1089, 1103.740
521.5911, 1107.392
522.0732, 1112.086
522.5553, 1118.150
523.0374, 1124.124
523.5195, 1129.343
524.0016, 1134.648
524.4838, 1139.935
524.9659, 1145.732
525.4480, 1154.128
525.9301, 1166.885
526.4122, 1183.011
526.8943, 1197.757
527.3765, 1210.375
527.8586, 1222.401
528.3407, 1233.000
528.8228, 1243.821
529.3049, 1256.190
529.7870, 1270.209
530.2692, 1285.078
530.7513, 1300.215
531.2334, 1315.582
531.7155, 1331.550
532.1976, 1349.204
532.6797, 1364.806
533.1619, 1372.531
533.6440, 1379.466
534.1261, 1394.214
534.6082, 1418.963
535.0903, 1443.904
535.5724, 1461.702
536.0546, 1475.398
536.5367, 1491.190
537.0188, 1509.773
537.5009, 1531.237
537.9830, 1556.225
538.4651, 1584.208
538.9473, 1611.344
539.4294, 1637.789
539.9115, 1663.368
540.3936, 1688.142
540.8757, 1712.084
541.3578, 1736.319
541.8400, 1760.507
542.3221, 1781.627
542.8042, 1796.669
543.2863, 1805.634
543.7684, 1808.612
544.2505, 1805.199
544.7326, 1795.609
545.2147, 1779.356
545.6968, 1757.270
546.1790, 1729.289
546.6611, 1695.721
547.1432, 1659.561
547.6253, 1624.422
548.1074, 1589.964
548.5895, 1553.320
549.0717, 1512.961
549.5538, 1473.631
550.0359, 1437.257
550.5180, 1404.047
551.0001, 1374.804
551.4822, 1350.790
551.9644, 1328.269
552.4465, 1303.466
552.9286, 1278.673
553.4107, 1258.740
553.8928, 1244.641
554.3749, 1233.953
554.8571, 1225.072
555.3392, 1217.900
555.8213, 1209.881
556.3034, 1198.361
556.7855, 1189.324
557.2676, 1184.904
557.7498, 1183.460
558.2319, 1183.877
558.7140, 1185.490
559.1961, 1186.806
559.6782, 1186.246
560.1603, 1183.816
560.6425, 1180.153
561.1246, 1174.631
561.6067, 1168.786
562.0888, 1163.529
562.5709, 1158.043
563.0530, 1151.283
563.5352, 1142.998
564.0173, 1133.969
564.4994, 1124.011
564.9815, 1113.807
565.4636, 1106.195
565.9457, 1101.981
566.4279, 1097.147
566.9100, 1087.413
567.3921, 1075.274
567.8742, 1069.323
568.3563, 1073.351
568.8384, 1077.177
569.3206, 1076.105
569.8027, 1073.577
570.2848, 1074.346
570.7669, 1078.760
571.2490, 1083.067
571.7311, 1083.609
572.2133, 1081.029
572.6954, 1082.442
573.1775, 1091.933
573.6596, 1099.920
574.1417, 1105.152
574.6238, 1108.506
575.1060, 1110.673
575.5881, 1111.805
576.0702, 1111.738
576.5523, 1109.493
577.0344, 1106.010
577.5165, 1105.494
577.9987, 1109.033
578.4808, 1110.608
578.9629, 1105.432
579.4450, 1098.430
579.9271, 1096.696
580.4092, 1100.983
580.8914, 1105.916
581.3735, 1109.449
581.8556, 1112.620
582.3377, 1116.912
582.8198, 1122.136
583.3019, 1126.505
583.7841, 1128.681
584.2662, 1130.087
584.7483, 1134.746
585.2304, 1145.841
