##NAMES=Hsianghualite
##RRUFFID=R060722
##IDEAL CHEMISTRY=Li_2_Ca_3_(BeSiO_4_)_3_F_2_
##LOCALITY=Xianghualing mine near Zenzhou, Hunan Province, China
##OWNER=RRUFF
##SOURCE=Bob Jenkins and George Guanghua Liu
##DESCRIPTION=Colorless rounded crystals and fragments
##STATUS=The identification of this mineral has been confirmed only by single crystal X-ray diffraction.
##URL=rruff.info/R060722
112.362, 371.401
112.844, 394.791
113.326, 415.414
113.808, 431.512
114.290, 444.311
114.772, 455.950
115.254, 462.414
115.736, 470.872
116.218, 485.698
116.701, 512.975
117.183, 540.088
117.665, 560.832
118.147, 576.642
118.629, 595.076
119.111, 621.052
119.593, 650.851
120.075, 680.419
120.558, 712.032
121.040, 740.640
121.522, 759.870
122.004, 769.580
122.486, 781.921
122.968, 809.607
123.450, 845.495
123.932, 877.620
124.414, 900.221
124.897, 915.495
125.379, 923.123
125.861, 920.961
126.343, 920.461
126.825, 938.931
127.307, 971.465
127.789, 998.617
128.271, 999.897
128.753, 987.156
129.236, 989.747
129.718, 1016.533
130.200, 1052.847
130.682, 1074.041
131.164, 1080.127
131.646, 1081.511
132.128, 1084.492
132.610, 1089.094
133.093, 1095.587
133.575, 1103.449
134.057, 1113.369
134.539, 1128.219
135.021, 1148.260
135.503, 1172.092
135.985, 1199.186
136.467, 1230.174
136.949, 1259.659
137.432, 1283.799
137.914, 1302.966
138.396, 1333.639
138.878, 1381.415
139.360, 1431.797
139.842, 1464.741
140.324, 1481.167
140.806, 1476.602
141.288, 1445.663
141.771, 1380.927
142.253, 1316.847
142.735, 1248.808
143.217, 1183.447
143.699, 1141.227
144.181, 1131.463
144.663, 1130.689
145.145, 1127.218
145.628, 1116.903
146.110, 1111.986
146.592, 1116.273
147.074, 1127.755
147.556, 1132.556
148.038, 1127.271
148.520, 1117.880
149.002, 1108.121
149.484, 1093.268
149.967, 1083.476
150.449, 1080.796
150.931, 1085.556
151.413, 1091.364
151.895, 1098.597
152.377, 1106.755
152.859, 1115.397
153.342, 1129.863
153.824, 1139.641
154.306, 1139.006
154.788, 1124.088
155.270, 1119.137
155.752, 1135.916
156.234, 1161.997
156.716, 1181.813
157.198, 1189.238
157.680, 1192.327
158.163, 1190.838
158.645, 1178.436
159.127, 1179.049
159.609, 1209.415
160.091, 1256.839
160.573, 1296.940
161.055, 1317.149
161.538, 1330.255
162.020, 1341.878
162.502, 1348.883
162.984, 1361.645
163.466, 1387.917
163.948, 1424.167
164.430, 1459.347
164.912, 1492.123
165.394, 1519.746
165.876, 1540.582
166.359, 1556.443
166.841, 1562.872
167.323, 1557.761
167.805, 1541.211
168.287, 1513.422
168.769, 1466.982
169.251, 1412.199
169.733, 1360.248
170.216, 1307.821
170.698, 1264.717
171.180, 1244.371
171.662, 1246.125
172.144, 1247.543
172.626, 1225.158
173.108, 1191.886
173.590, 1170.188
174.072, 1182.210
174.555, 1203.998
175.037, 1206.385
175.519, 1187.014
176.001, 1166.226
176.483, 1164.744
176.965, 1176.896
177.447, 1188.303
177.929, 1189.336
178.412, 1186.023
178.894, 1188.541
179.376, 1198.528
179.858, 1209.958
180.340, 1215.845
180.822, 1217.069
181.304, 1217.721
181.786, 1218.834
182.268, 1221.096
182.751, 1226.461
183.233, 1235.618
183.715, 1246.667
184.197, 1255.200
184.679, 1261.866
185.161, 1272.272
185.643, 1296.441
186.125, 1328.635
186.607, 1348.562
187.090, 1350.273
187.572, 1341.848
188.054, 1336.002
188.536, 1332.770
189.018, 1333.834
189.500, 1339.953
189.982, 1351.173
190.464, 1370.628
190.947, 1404.460
191.429, 1443.137
191.911, 1454.153
192.393, 1434.475
192.875, 1414.442
193.357, 1427.497
193.839, 1472.337
194.321, 1503.888
194.803, 1509.971
195.286, 1495.296
195.768, 1478.219
196.250, 1458.069
196.732, 1438.583
197.214, 1423.764
197.696, 1413.887
198.178, 1404.731
198.661, 1394.152
199.143, 1382.896
199.625, 1376.922
200.107, 1376.557
200.589, 1380.522
201.071, 1387.843
201.553, 1398.804
202.035, 1411.189
202.517, 1423.755
202.999, 1436.595
203.482, 1453.281
203.964, 1474.976
204.446, 1498.352
204.928, 1519.847
205.410, 1540.218
205.892, 1555.135
206.374, 1562.116
206.857, 1560.703
207.339, 1555.089
207.821, 1540.453
208.303, 1527.456
208.785, 1537.115
209.267, 1576.530
209.749, 1617.081
210.231, 1646.501
210.713, 1661.269
211.195, 1683.096
211.678, 1713.916
212.160, 1750.449
212.642, 1785.757
213.124, 1820.060
213.606, 1853.389
214.088, 1884.758
214.570, 1911.817
215.052, 1944.768
215.535, 1983.366
216.017, 2028.525
216.499, 2084.858
216.981, 2161.904
217.463, 2231.314
217.945, 2282.654
218.427, 2320.750
218.909, 2321.693
219.391, 2272.328
219.874, 2188.706
220.356, 2118.803
220.838, 2062.225
221.320, 2021.159
221.802, 1996.487
222.284, 1985.746
222.766, 1998.496
223.248, 2040.269
223.731, 2105.803
224.213, 2172.808
224.695, 2240.894
225.177, 2312.052
225.659, 2387.976
226.141, 2467.064
226.623, 2554.292
227.105, 2652.621
227.587, 2759.292
228.070, 2865.271
228.552, 2975.323
229.034, 3076.810
229.516, 3157.520
229.998, 3200.950
230.480, 3260.722
230.962, 3349.428
231.444, 3459.815
231.926, 3550.445
232.409, 3626.074
232.891, 3674.626
233.373, 3684.679
233.855, 3636.240
234.337, 3588.390
234.819, 3541.176
235.301, 3496.866
235.783, 3485.197
236.266, 3536.816
236.748, 3584.361
237.230, 3583.900
237.712, 3542.523
238.194, 3435.968
238.676, 3238.743
239.158, 2962.521
239.640, 2712.607
240.122, 2482.541
240.605, 2286.247
241.087, 2135.612
241.569, 2037.378
242.051, 1969.813
242.533, 1936.658
243.015, 1935.984
243.497, 1936.413
243.980, 1932.551
244.462, 1935.893
244.944, 1958.035
245.426, 2013.943
245.908, 2058.734
246.390, 2083.967
246.872, 2090.471
247.354, 2096.647
247.836, 2106.485
248.318, 2111.098
248.801, 2101.979
249.283, 2071.724
249.765, 2042.456
250.247, 2013.649
250.729, 1986.132
251.211, 1977.597
251.693, 1993.303
252.176, 2021.241
252.658, 2055.879
253.140, 2111.670
253.622, 2142.038
254.104, 2134.885
254.586, 2092.470
255.068, 2052.207
255.550, 2013.307
256.032, 1977.873
256.514, 1948.087
256.997, 1925.275
257.479, 1904.852
257.961, 1886.054
258.443, 1868.811
258.925, 1854.284
259.407, 1845.153
259.889, 1834.767
260.371, 1815.861
260.854, 1782.715
261.336, 1755.853
261.818, 1738.420
262.300, 1730.118
262.782, 1727.290
263.264, 1731.332
263.746, 1738.539
264.228, 1743.832
264.711, 1742.692
265.193, 1754.835
265.675, 1787.163
266.157, 1836.463
266.639, 1880.183
267.121, 1915.659
267.603, 1950.029
268.085, 1990.815
268.567, 2039.946
269.050, 2086.743
269.532, 2130.375
270.014, 2170.090
270.496, 2199.861
270.978, 2214.447
271.460, 2231.063
271.942, 2264.835
272.424, 2318.542
272.906, 2372.722
273.389, 2421.095
273.871, 2468.526
274.353, 2540.965
274.835, 2643.976
275.317, 2754.962
275.799, 2858.834
276.281, 2955.559
276.763, 3046.969
277.246, 3137.546
277.728, 3220.809
278.210, 3276.812
278.692, 3304.753
279.174, 3306.335
279.656, 3272.797
280.138, 3202.407
280.620, 3141.751
281.103, 3093.318
281.585, 3061.514
282.067, 3066.362
282.549, 3112.496
283.031, 3161.796
283.513, 3191.906
283.995, 3203.013
284.477, 3195.741
284.959, 3172.744
285.441, 3128.262
285.924, 3043.369
286.406, 2916.729
286.888, 2777.115
287.370, 2636.741
287.852, 2498.014
288.334, 2368.371
288.816, 2246.836
289.298, 2137.782
289.781, 2047.656
290.263, 1976.245
290.745, 1917.731
291.227, 1872.088
291.709, 1837.288
292.191, 1804.337
292.673, 1772.154
293.155, 1741.443
293.638, 1712.754
294.120, 1686.413
294.602, 1662.980
295.084, 1641.906
295.566, 1623.908
296.048, 1611.588
296.530, 1605.075
297.012, 1603.764
297.494, 1610.920
297.977, 1624.207
298.459, 1633.339
298.941, 1627.718
299.423, 1615.662
299.905, 1613.443
300.387, 1623.273
300.869, 1635.627
301.351, 1641.514
301.833, 1642.198
302.316, 1641.199
302.798, 1642.351
303.280, 1641.787
303.762, 1632.682
304.244, 1614.117
304.726, 1594.613
305.208, 1585.018
305.690, 1579.739
306.172, 1568.088
306.655, 1536.151
307.137, 1500.990
307.619, 1481.022
308.101, 1476.543
308.583, 1475.435
309.065, 1473.515
309.547, 1468.930
310.030, 1459.098
310.512, 1430.717
310.994, 1405.936
311.476, 1403.758
311.958, 1422.905
312.440, 1444.525
312.922, 1459.621
313.404, 1471.510
313.886, 1483.740
314.369, 1502.173
314.851, 1516.950
315.333, 1519.635
315.815, 1512.343
316.297, 1508.951
316.779, 1519.470
317.261, 1533.869
317.743, 1544.533
318.225, 1545.879
318.708, 1547.626
319.190, 1550.560
319.672, 1555.816
320.154, 1567.706
320.636, 1591.748
321.118, 1619.908
321.600, 1648.191
322.082, 1680.055
322.565, 1705.762
323.047, 1723.120
323.529, 1732.998
324.011, 1737.436
324.493, 1734.696
324.975, 1728.286
325.457, 1719.208
325.939, 1705.747
326.422, 1693.044
326.904, 1681.952
327.386, 1671.644
327.868, 1660.886
328.350, 1647.122
328.832, 1635.210
329.314, 1626.109
329.796, 1619.255
330.278, 1617.405
330.760, 1626.042
331.243, 1636.993
331.725, 1638.925
332.207, 1625.424
332.689, 1612.614
333.171, 1604.746
333.653, 1602.328
334.135, 1599.067
334.617, 1595.852
335.100, 1590.937
335.582, 1581.603
336.064, 1565.441
336.546, 1551.753
337.028, 1542.121
337.510, 1536.553
337.992, 1535.636
338.474, 1542.137
338.957, 1547.399
339.439, 1542.386
339.921, 1524.983
340.403, 1512.520
340.885, 1510.513
341.367, 1513.828
341.849, 1501.969
342.331, 1471.403
342.813, 1444.823
343.296, 1442.008
343.778, 1461.798
344.260, 1471.771
344.742, 1465.438
345.224, 1453.230
345.706, 1457.533
346.188, 1477.965
346.670, 1496.308
347.152, 1501.815
347.635, 1496.712
348.117, 1488.021
348.599, 1475.484
349.081, 1462.336
349.563, 1452.657
350.045, 1446.038
350.527, 1440.724
351.009, 1435.395
351.491, 1430.937
351.974, 1429.704
352.456, 1431.865
352.938, 1434.156
353.420, 1435.450
353.902, 1434.630
354.384, 1429.511
354.866, 1408.461
355.349, 1389.596
355.831, 1397.154
356.313, 1428.423
356.795, 1454.487
357.277, 1449.165
357.759, 1431.506
358.241, 1423.264
358.723, 1438.229
359.205, 1455.305
359.688, 1463.406
360.170, 1463.654
360.652, 1460.756
361.134, 1451.172
361.616, 1442.650
362.098, 1441.254
362.580, 1452.650
363.062, 1462.378
363.544, 1462.733
364.027, 1458.269
364.509, 1458.695
364.991, 1469.210
365.473, 1482.653
365.955, 1497.251
366.437, 1515.027
366.919, 1527.283
367.401, 1528.434
367.884, 1525.041
368.366, 1525.516
368.848, 1528.096
369.330, 1536.995
369.812, 1557.235
370.294, 1591.185
370.776, 1611.373
371.258, 1607.830
371.741, 1598.744
372.223, 1600.821
372.705, 1624.514
373.187, 1637.580
373.669, 1629.293
374.151, 1605.229
374.633, 1604.107
375.115, 1636.208
375.597, 1670.365
376.079, 1684.888
376.562, 1676.469
377.044, 1669.013
377.526, 1664.570
378.008, 1661.726
378.490, 1656.713
378.972, 1648.941
379.454, 1643.417
379.936, 1641.376
380.419, 1643.187
380.901, 1654.864
381.383, 1678.934
381.865, 1703.621
382.347, 1708.099
382.829, 1696.201
383.311, 1693.111
383.793, 1712.336
384.276, 1745.731
384.758, 1777.198
385.240, 1806.599
385.722, 1837.604
386.204, 1871.533
386.686, 1909.721
387.168, 1955.979
387.650, 2018.145
388.132, 2080.996
388.615, 2123.591
389.097, 2151.768
389.579, 2189.332
390.061, 2266.658
390.543, 2351.817
391.025, 2412.620
391.507, 2433.053
391.989, 2453.152
392.471, 2502.673
392.954, 2567.076
393.436, 2618.314
393.918, 2629.094
394.400, 2638.044
394.882, 2666.387
395.364, 2719.873
395.846, 2768.842
396.328, 2800.682
396.810, 2827.545
397.293, 2862.051
397.775, 2925.660
398.257, 2976.280
398.739, 3010.825
399.221, 3028.453
399.703, 3015.821
400.185, 2965.036
400.668, 2890.969
401.150, 2800.546
401.632, 2683.061
402.114, 2567.177
402.596, 2445.784
403.078, 2328.788
403.560, 2246.426
404.042, 2212.341
404.524, 2184.902
405.007, 2142.926
405.489, 2081.756
405.971, 2045.111
406.453, 2037.853
406.935, 2046.158
407.417, 2054.639
407.899, 2063.681
408.381, 2065.421
408.863, 2054.619
409.346, 2035.046
409.828, 2022.430
410.310, 2017.190
410.792, 2011.155
411.274, 1994.550
411.756, 1970.739
412.238, 1951.552
412.720, 1940.163
413.203, 1932.749
413.685, 1927.838
414.167, 1923.604
414.649, 1912.311
415.131, 1883.524
415.613, 1847.254
416.095, 1814.556
416.577, 1785.184
417.060, 1764.908
417.542, 1766.694
418.024, 1778.350
418.506, 1780.962
418.988, 1754.497
419.470, 1727.424
419.952, 1716.643
420.434, 1721.661
420.916, 1726.926
421.398, 1729.351
421.881, 1728.796
422.363, 1725.188
422.845, 1712.400
423.327, 1703.744
423.809, 1699.246
424.291, 1700.056
424.773, 1709.984
425.255, 1737.829
425.738, 1766.106
426.220, 1788.948
426.702, 1804.554
427.184, 1819.764
427.666, 1834.715
428.148, 1849.310
428.630, 1863.353
429.112, 1875.862
429.595, 1890.439
430.077, 1908.291
430.559, 1929.012
431.041, 1949.310
431.523, 1969.364
432.005, 1989.137
432.487, 2006.315
432.969, 2021.368
433.451, 2047.171
433.934, 2088.970
434.416, 2136.050
434.898, 2170.855
435.380, 2194.098
435.862, 2209.339
436.344, 2214.348
436.826, 2213.686
437.308, 2220.272
437.790, 2236.144
438.273, 2241.577
438.755, 2210.688
439.237, 2158.057
439.719, 2109.689
440.201, 2078.805
440.683, 2051.656
441.165, 2017.704
441.647, 1978.366
442.129, 1940.821
442.612, 1912.851
443.094, 1885.627
443.576, 1851.125
444.058, 1799.408
444.540, 1758.776
445.022, 1738.489
445.504, 1733.667
445.987, 1736.036
446.469, 1760.881
446.951, 1776.528
447.433, 1769.210
447.915, 1735.765
448.397, 1714.432
448.879, 1712.374
449.361, 1715.983
449.843, 1713.858
450.326, 1702.165
450.808, 1694.614
451.290, 1694.893
451.772, 1699.553
452.254, 1696.840
452.736, 1685.148
453.218, 1672.872
453.700, 1665.828
454.182, 1663.657
454.665, 1653.668
455.147, 1633.265
455.629, 1614.211
456.111, 1614.704
456.593, 1631.162
457.075, 1645.731
457.557, 1651.177
458.039, 1652.007
458.522, 1653.527
459.004, 1656.121
459.486, 1662.597
459.968, 1682.142
460.450, 1703.799
460.932, 1711.789
461.414, 1698.121
461.896, 1685.839
462.379, 1693.867
462.861, 1712.938
463.343, 1726.695
463.825, 1718.194
464.307, 1712.617
464.789, 1723.643
465.271, 1752.725
465.753, 1778.923
466.235, 1795.454
466.717, 1808.973
467.200, 1824.499
467.682, 1843.924
468.164, 1862.909
468.646, 1881.355
469.128, 1899.299
469.610, 1916.652
470.092, 1934.714
470.574, 1949.635
471.057, 1958.147
471.539, 1959.059
472.021, 1967.882
472.503, 1986.914
472.985, 2008.660
473.467, 2028.216
473.949, 2045.529
474.431, 2049.110
474.914, 2033.259
475.396, 2005.228
475.878, 1978.016
476.360, 1951.913
476.842, 1931.020
477.324, 1922.883
477.806, 1920.495
478.288, 1910.884
478.770, 1892.032
479.253, 1871.785
479.735, 1851.594
480.217, 1835.590
480.699, 1830.403
481.181, 1856.882
481.663, 1878.626
482.145, 1867.048
482.627, 1828.852
483.109, 1804.888
483.592, 1824.618
484.074, 1852.087
484.556, 1865.450
485.038, 1851.713
485.520, 1844.358
486.002, 1851.140
486.484, 1864.071
486.966, 1872.227
487.448, 1871.410
487.931, 1872.595
488.413, 1880.512
488.895, 1894.145
489.377, 1895.998
489.859, 1881.593
490.341, 1866.441
490.823, 1861.680
491.306, 1867.683
491.788, 1876.993
492.270, 1889.113
492.752, 1903.955
493.234, 1921.501
493.716, 1941.585
494.198, 1964.014
494.680, 1984.389
495.162, 2008.628
495.645, 2055.568
496.127, 2123.417
496.609, 2178.499
497.091, 2186.216
497.573, 2171.782
498.055, 2164.981
498.537, 2173.696
499.019, 2188.704
499.501, 2214.977
499.984, 2242.904
500.466, 2255.252
500.948, 2233.258
501.430, 2207.022
501.912, 2185.881
502.394, 2170.608
502.876, 2159.389
503.358, 2153.501
503.841, 2150.522
504.323, 2149.234
504.805, 2151.029
505.287, 2150.929
505.769, 2144.995
506.251, 2139.299
506.733, 2151.321
507.215, 2188.420
507.698, 2213.088
508.180, 2207.283
508.662, 2176.082
509.144, 2154.330
509.626, 2143.249
510.108, 2130.299
510.590, 2102.497
511.072, 2063.496
511.554, 2025.396
512.036, 1990.695
512.519, 1956.288
513.001, 1914.253
513.483, 1869.466
513.965, 1834.068
514.447, 1815.847
514.929, 1807.822
515.411, 1810.074
515.893, 1821.941
516.375, 1825.725
516.858, 1802.974
517.340, 1776.352
517.822, 1762.825
518.304, 1780.051
518.786, 1789.062
519.268, 1776.442
519.750, 1755.075
520.232, 1748.129
520.715, 1767.630
521.197, 1782.201
521.679, 1783.016
522.161, 1770.355
522.643, 1753.319
523.125, 1728.086
523.607, 1709.771
524.089, 1714.667
524.571, 1741.556
525.054, 1762.700
525.536, 1774.441
526.018, 1781.702
526.500, 1789.937
526.982, 1799.387
527.464, 1811.295
527.946, 1829.458
528.429, 1848.324
528.911, 1855.862
529.393, 1854.515
529.875, 1864.127
530.357, 1905.786
530.839, 1958.392
531.321, 2002.610
531.803, 2029.742
532.286, 2063.857
532.768, 2120.868
533.250, 2186.968
533.732, 2242.086
534.214, 2270.164
534.696, 2302.778
535.178, 2344.595
535.660, 2395.346
536.142, 2453.061
536.625, 2520.720
537.107, 2591.129
537.589, 2659.209
538.071, 2722.455
538.553, 2801.885
539.035, 2901.012
539.517, 3007.540
539.999, 3108.095
540.481, 3203.383
540.964, 3291.820
541.446, 3372.246
541.928, 3446.813
542.410, 3518.650
542.892, 3586.473
543.374, 3643.056
543.856, 3700.461
544.338, 3735.344
544.820, 3723.589
545.303, 3661.594
545.785, 3571.093
546.267, 3439.636
546.749, 3295.179
547.231, 3162.096
547.713, 3044.893
548.195, 2940.469
548.677, 2846.539
549.159, 2765.392
549.642, 2703.129
550.124, 2664.865
550.606, 2637.982
551.088, 2618.607
551.570, 2606.857
552.052, 2604.906
552.534, 2614.122
553.016, 2629.253
553.499, 2645.817
553.981, 2663.931
554.463, 2687.826
554.945, 2718.491
555.427, 2752.804
555.909, 2786.469
556.391, 2820.124
556.873, 2855.803
557.356, 2895.859
557.838, 2937.556
558.320, 2981.885
558.802, 3026.785
559.284, 3061.731
559.766, 3083.589
560.248, 3092.101
560.730, 3085.218
561.213, 3058.693
561.695, 3029.794
562.177, 3010.108
562.659, 2985.417
563.141, 2939.648
563.623, 2854.475
564.105, 2776.962
564.587, 2710.370
565.069, 2656.094
565.552, 2624.307
566.034, 2621.618
566.516, 2616.420
566.998, 2592.358
567.480, 2552.334
567.962, 2515.428
568.444, 2482.207
568.926, 2449.159
569.408, 2414.799
569.891, 2378.392
570.373, 2337.396
570.855, 2288.806
571.337, 2241.520
571.819, 2206.969
572.301, 2178.305
572.783, 2142.142
573.265, 2081.266
573.747, 2023.104
574.230, 1979.313
574.712, 1949.242
575.194, 1929.732
575.676, 1934.378
576.158, 1937.182
576.640, 1924.668
577.122, 1888.450
577.604, 1866.842
578.086, 1866.166
578.569, 1872.234
579.051, 1870.050
579.533, 1859.140
580.015, 1843.750
580.497, 1822.498
580.979, 1800.291
581.461, 1788.541
581.943, 1786.177
582.426, 1785.479
582.908, 1783.840
583.390, 1780.747
583.872, 1774.316
584.354, 1764.794
584.836, 1756.629
585.318, 1751.417
585.800, 1749.435
586.282, 1752.467
586.765, 1766.459
587.247, 1771.724
587.729, 1754.494
588.211, 1728.588
588.693, 1713.043
589.175, 1716.369
589.657, 1718.326
590.140, 1714.849
590.622, 1708.006
591.104, 1706.440
591.586, 1711.383
592.068, 1717.233
592.550, 1721.010
593.032, 1723.151
593.514, 1728.525
593.996, 1737.542
594.479, 1744.095
594.961, 1740.103
595.443, 1730.030
595.925, 1723.006
596.407, 1721.553
596.889, 1721.271
597.371, 1717.029
597.853, 1711.933
598.335, 1710.998
598.818, 1722.625
599.300, 1731.975
599.782, 1730.161
600.264, 1719.726
600.746, 1718.110
601.228, 1732.500
601.710, 1749.127
602.192, 1764.572
602.674, 1779.858
603.157, 1784.169
603.639, 1773.131
604.121, 1761.007
604.603, 1763.730
605.085, 1780.310
605.567, 1787.945
606.049, 1779.805
606.531, 1772.627
607.013, 1797.911
607.496, 1843.936
607.978, 1877.697
608.460, 1876.709
608.942, 1864.028
609.424, 1859.053
609.906, 1858.963
610.388, 1851.883
610.870, 1825.329
611.353, 1796.808
611.835, 1774.298
612.317, 1757.878
612.799, 1750.210
613.281, 1758.155
613.763, 1768.249
614.245, 1769.575
614.727, 1758.325
615.209, 1752.070
615.692, 1753.009
616.174, 1757.927
616.656, 1764.132
617.138, 1771.232
617.620, 1770.990
618.102, 1756.486
618.584, 1737.542
619.067, 1730.235
619.549, 1733.168
620.031, 1740.030
620.513, 1754.867
620.995, 1766.679
621.477, 1762.312
621.959, 1739.958
622.441, 1725.407
622.923, 1732.942
623.406, 1747.994
623.888, 1761.058
624.370, 1777.633
624.852, 1779.442
625.334, 1754.544
625.816, 1724.807
626.298, 1724.256
626.780, 1761.298
627.263, 1783.253
627.745, 1774.351
628.227, 1748.574
628.709, 1738.631
629.191, 1743.227
629.673, 1749.753
630.155, 1752.153
630.637, 1752.274
631.119, 1751.978
631.602, 1751.437
632.084, 1751.882
632.566, 1760.630
633.048, 1766.310
633.530, 1757.189
634.012, 1722.935
634.494, 1701.387
634.976, 1711.243
635.458, 1730.661
635.941, 1738.778
636.423, 1729.591
636.905, 1721.811
637.387, 1718.203
637.869, 1715.973
