##NAMES=Hubeite
##RRUFFID=R060964
##IDEAL CHEMISTRY=Ca_2_Mn^2+^Fe^3+^Si_4_O_12_(OH)&#183;2H_2_O
##LOCALITY=Fengjiashan mine, Daye, Hubei Province, China
##OWNER=RRUFF
##SOURCE=Michael Scott
##DESCRIPTION=Dark brown thin bladed crystals coated with fluorapophyllite, on quartz
##STATUS=The identification of this mineral is confirmed by single-crystal X-ray diffraction and chemical analysis.
##URL=rruff.info/R060964
##MEASURED CHEMISTRY=Ca_2.00_Mn^2+^_1.00_(Fe^3+^_0.85_Al_0.15_)_Σ=1_Si_4.00_O_12_(OH)·1.90H_2_O; OH estimated by charge balance; H_2_O by difference
137.9200, 1526.890
138.4021, 1530.566
138.8842, 1542.815
139.3664, 1559.985
139.8485, 1583.025
140.3306, 1612.653
140.8127, 1646.465
141.2948, 1693.734
141.7769, 1761.235
142.2591, 1834.952
142.7412, 1904.737
143.2233, 1968.111
143.7054, 2029.962
144.1875, 2097.380
144.6696, 2168.921
145.1517, 2249.801
145.6339, 2353.793
146.1160, 2458.312
146.5981, 2544.234
147.0802, 2605.878
147.5623, 2651.302
148.0444, 2695.894
148.5266, 2743.785
149.0087, 2783.902
149.4908, 2818.147
149.9729, 2844.236
150.4550, 2856.937
150.9371, 2854.657
151.4193, 2844.690
151.9014, 2842.483
152.3835, 2852.039
152.8656, 2864.401
153.3477, 2887.594
153.8298, 2910.746
154.3120, 2918.699
154.7941, 2905.175
155.2762, 2878.324
155.7583, 2857.149
156.2404, 2840.262
156.7225, 2830.260
157.2047, 2833.231
157.6868, 2842.179
158.1689, 2846.594
158.6510, 2842.062
159.1331, 2831.541
159.6152, 2821.783
160.0974, 2808.450
160.5795, 2802.402
161.0616, 2810.941
161.5437, 2828.140
162.0258, 2842.368
162.5079, 2847.927
162.9901, 2849.790
163.4722, 2861.202
163.9543, 2885.616
164.4364, 2910.137
164.9185, 2929.144
165.4007, 2944.975
165.8828, 2963.767
166.3649, 2989.742
166.8470, 3017.476
167.3291, 3034.432
167.8112, 3035.999
168.2933, 3038.472
168.7755, 3055.083
169.2576, 3078.942
169.7397, 3088.900
170.2218, 3073.458
170.7039, 3043.172
171.1860, 3019.510
171.6682, 3002.888
172.1503, 2990.663
172.6324, 2985.411
173.1145, 2984.568
173.5966, 2978.145
174.0787, 2961.058
174.5609, 2937.575
175.0430, 2914.668
175.5251, 2890.152
176.0072, 2871.483
176.4893, 2869.500
176.9714, 2879.324
177.4536, 2877.609
177.9357, 2850.856
178.4178, 2812.999
178.8999, 2787.431
179.3820, 2777.303
179.8641, 2768.755
180.3463, 2753.505
180.8284, 2732.404
181.3105, 2710.399
181.7926, 2689.387
182.2747, 2667.696
182.7568, 2641.208
183.2390, 2607.058
183.7211, 2579.092
184.2032, 2568.212
184.6853, 2572.598
185.1674, 2579.816
185.6495, 2584.136
186.1317, 2592.534
186.6138, 2610.371
187.0959, 2637.433
187.5780, 2675.689
188.0601, 2731.844
188.5422, 2803.014
189.0244, 2871.389
189.5065, 2929.556
189.9886, 2984.978
190.4707, 3043.848
190.9528, 3106.146
191.4349, 3174.357
191.9170, 3259.623
192.3992, 3357.202
192.8813, 3432.175
193.3634, 3466.611
193.8455, 3483.825
194.3276, 3513.329
194.8097, 3556.311
195.2919, 3584.869
195.7740, 3576.898
196.2561, 3536.013
196.7382, 3486.673
197.2203, 3434.147
197.7024, 3372.346
198.1846, 3297.849
198.6667, 3210.573
199.1488, 3115.114
199.6309, 3010.592
200.1130, 2898.085
200.5951, 2787.212
201.0773, 2673.022
201.5594, 2569.399
202.0415, 2487.889
202.5236, 2426.598
203.0057, 2368.532
203.4878, 2302.261
203.9700, 2229.830
204.4521, 2159.902
204.9342, 2090.921
205.4163, 2029.162
205.8984, 1979.256
206.3805, 1940.132
206.8627, 1906.704
207.3448, 1876.204
207.8269, 1849.119
208.3090, 1827.890
208.7911, 1815.820
209.2732, 1804.951
209.7554, 1788.146
210.2375, 1767.300
210.7196, 1748.985
211.2017, 1738.005
211.6838, 1732.269
212.1659, 1724.592
212.6480, 1711.622
213.1302, 1703.086
213.6123, 1707.855
214.0944, 1721.740
214.5765, 1735.155
215.0586, 1741.620
215.5407, 1744.827
216.0229, 1755.934
216.5050, 1780.522
216.9871, 1799.319
217.4692, 1794.415
217.9513, 1776.159
218.4334, 1762.487
218.9156, 1759.583
219.3977, 1765.757
219.8798, 1780.312
220.3619, 1806.223
220.8440, 1830.575
221.3261, 1846.885
221.8083, 1856.927
222.2904, 1861.594
222.7725, 1857.709
223.2546, 1851.668
223.7367, 1852.151
224.2188, 1859.589
224.7010, 1871.233
225.1831, 1891.912
225.6652, 1914.053
226.1473, 1926.691
226.6294, 1923.784
227.1115, 1916.311
227.5937, 1916.897
228.0758, 1926.036
228.5579, 1934.631
229.0400, 1936.183
229.5221, 1936.512
230.0042, 1943.118
230.4864, 1957.938
230.9685, 1976.627
231.4506, 1998.090
231.9327, 2021.879
232.4148, 2039.783
232.8969, 2043.228
233.3791, 2043.750
233.8612, 2057.403
234.3433, 2087.802
234.8254, 2118.405
235.3075, 2137.926
235.7896, 2147.835
236.2717, 2155.037
236.7539, 2158.597
237.2360, 2163.775
237.7181, 2177.547
238.2002, 2200.430
238.6823, 2224.029
239.1644, 2244.893
239.6466, 2263.247
240.1287, 2278.734
240.6108, 2290.070
241.0929, 2301.112
241.5750, 2315.805
242.0571, 2333.755
242.5393, 2355.053
243.0214, 2382.889
243.5035, 2413.336
243.9856, 2437.432
244.4677, 2451.831
244.9498, 2468.430
245.4320, 2502.677
245.9141, 2551.552
246.3962, 2596.729
246.8783, 2633.821
247.3604, 2665.580
247.8425, 2694.266
248.3247, 2720.233
248.8068, 2744.456
249.2889, 2767.479
249.7710, 2789.298
250.2531, 2810.900
250.7352, 2838.998
251.2174, 2861.980
251.6995, 2869.058
252.1816, 2860.944
252.6637, 2847.143
253.1458, 2834.222
253.6279, 2819.916
254.1101, 2795.937
254.5922, 2763.293
255.0743, 2720.707
255.5564, 2662.732
256.0385, 2593.461
256.5206, 2525.007
257.0027, 2464.107
257.4849, 2407.904
257.9670, 2346.476
258.4491, 2274.790
258.9312, 2206.302
259.4133, 2145.127
259.8954, 2089.614
260.3776, 2036.917
260.8597, 1985.496
261.3418, 1937.600
261.8239, 1897.930
262.3060, 1873.425
262.7881, 1843.395
263.2703, 1795.677
263.7524, 1746.086
264.2345, 1714.029
264.7166, 1703.933
265.1987, 1701.735
265.6808, 1688.163
266.1630, 1655.595
266.6451, 1632.308
267.1272, 1622.337
267.6093, 1618.149
268.0914, 1615.495
268.5735, 1613.442
269.0557, 1611.845
269.5378, 1610.238
270.0199, 1608.043
270.5020, 1610.365
270.9841, 1618.618
271.4662, 1628.974
271.9484, 1640.529
272.4305, 1652.906
272.9126, 1665.049
273.3947, 1675.849
273.8768, 1685.772
274.3589, 1701.647
274.8411, 1732.712
275.3232, 1759.625
275.8053, 1775.474
276.2874, 1785.558
276.7695, 1797.512
277.2516, 1815.190
277.7338, 1837.438
278.2159, 1861.180
278.6980, 1892.162
279.1801, 1915.207
279.6622, 1924.543
280.1443, 1928.353
280.6265, 1934.396
281.1086, 1944.960
281.5907, 1955.907
282.0728, 1959.967
282.5549, 1954.016
283.0370, 1950.165
283.5192, 1950.937
284.0013, 1952.645
284.4834, 1955.093
284.9655, 1957.247
285.4476, 1955.586
285.9297, 1944.738
286.4119, 1923.808
286.8940, 1906.719
287.3761, 1897.498
287.8582, 1888.146
288.3403, 1873.888
288.8224, 1856.477
289.3046, 1840.731
289.7867, 1831.057
290.2688, 1825.431
290.7509, 1815.834
291.2330, 1800.359
291.7151, 1784.619
292.1972, 1773.644
292.6794, 1763.508
293.1615, 1748.276
293.6436, 1724.793
294.1257, 1696.617
294.6078, 1665.925
295.0899, 1631.481
295.5721, 1604.501
296.0542, 1592.020
296.5363, 1588.595
297.0184, 1589.269
297.5005, 1595.301
297.9826, 1599.229
298.4648, 1592.873
298.9469, 1578.608
299.4290, 1568.665
299.9111, 1567.679
300.3932, 1570.233
300.8753, 1568.449
301.3575, 1561.964
301.8396, 1558.822
302.3217, 1563.525
302.8038, 1572.940
303.2859, 1582.280
303.7680, 1590.777
304.2502, 1599.677
304.7323, 1610.431
305.2144, 1623.063
305.6965, 1635.418
306.1786, 1650.049
306.6607, 1662.331
307.1429, 1665.875
307.6250, 1662.426
308.1071, 1662.687
308.5892, 1674.493
309.0713, 1695.828
309.5534, 1712.051
310.0356, 1720.559
310.5177, 1728.010
310.9998, 1735.225
311.4819, 1742.963
311.9640, 1753.468
312.4461, 1768.032
312.9283, 1783.171
313.4104, 1791.156
313.8925, 1783.308
314.3746, 1780.574
314.8567, 1788.353
315.3388, 1797.791
315.8210, 1798.598
316.3031, 1790.461
316.7852, 1784.420
317.2673, 1794.658
317.7494, 1826.272
318.2315, 1852.093
318.7137, 1869.483
319.1958, 1883.941
319.6779, 1899.279
320.1600, 1913.609
320.6421, 1920.849
321.1242, 1914.277
321.6064, 1897.732
322.0885, 1896.133
322.5706, 1917.777
323.0527, 1943.052
323.5348, 1972.839
324.0169, 2000.604
324.4991, 2017.046
324.9812, 2017.598
325.4633, 2011.402
325.9454, 2013.456
326.4275, 2025.844
326.9096, 2036.007
327.3918, 2042.956
327.8739, 2044.905
328.3560, 2038.484
328.8381, 2023.641
329.3202, 2008.332
329.8023, 2003.763
330.2845, 2005.213
330.7666, 1989.192
331.2487, 1946.456
331.7308, 1898.112
332.2129, 1861.739
332.6950, 1834.026
333.1772, 1804.622
333.6593, 1766.394
334.1414, 1726.821
334.6235, 1696.798
335.1056, 1676.323
335.5877, 1653.232
336.0698, 1619.068
336.5519, 1577.220
337.0341, 1540.201
337.5162, 1507.234
337.9983, 1479.990
338.4804, 1462.658
338.9625, 1451.242
339.4446, 1437.474
339.9268, 1418.184
340.4089, 1396.473
340.8910, 1377.207
341.3731, 1359.010
341.8552, 1347.291
342.3373, 1346.194
342.8195, 1349.087
343.3016, 1351.729
343.7837, 1353.121
344.2658, 1352.790
344.7479, 1349.731
345.2300, 1343.492
345.7122, 1341.679
346.1943, 1350.215
346.6764, 1356.609
347.1585, 1355.404
347.6406, 1349.761
348.1227, 1344.743
348.6049, 1342.818
349.0870, 1344.044
349.5691, 1348.717
350.0512, 1357.632
350.5333, 1368.645
351.0154, 1380.201
351.4976, 1394.188
351.9797, 1413.771
352.4618, 1438.963
352.9439, 1464.179
353.4260, 1481.574
353.9081, 1491.279
354.3903, 1507.345
354.8724, 1534.339
355.3545, 1563.516
355.8366, 1591.401
356.3187, 1617.159
356.8008, 1638.654
357.2830, 1650.733
357.7651, 1659.990
358.2472, 1678.005
358.7293, 1705.448
359.2114, 1734.667
359.6935, 1762.285
360.1757, 1789.253
360.6578, 1818.185
361.1399, 1853.073
361.6220, 1882.312
362.1041, 1895.155
362.5862, 1898.143
363.0684, 1907.020
363.5505, 1927.183
364.0326, 1949.865
364.5147, 1963.469
364.9968, 1966.521
365.4789, 1965.130
365.9611, 1951.215
366.4432, 1939.218
366.9253, 1940.790
367.4074, 1955.052
367.8895, 1973.826
368.3716, 1991.392
368.8538, 2007.938
369.3359, 2025.241
369.8180, 2042.916
370.3001, 2061.791
370.7822, 2082.426
371.2643, 2104.140
371.7465, 2126.971
372.2286, 2150.748
372.7107, 2173.798
373.1928, 2194.310
373.6749, 2214.111
374.1570, 2225.567
374.6392, 2219.881
375.1213, 2212.595
375.6034, 2209.311
376.0855, 2210.961
376.5676, 2217.615
377.0497, 2229.997
377.5319, 2247.358
378.0140, 2268.206
378.4961, 2295.147
378.9782, 2318.760
379.4603, 2328.185
379.9424, 2333.258
380.4246, 2346.231
380.9066, 2369.188
381.3888, 2401.326
381.8709, 2444.544
382.3530, 2497.211
382.8351, 2552.970
383.3172, 2611.248
383.7993, 2669.948
384.2815, 2722.519
384.7636, 2767.004
385.2457, 2825.451
385.7278, 2904.972
386.2099, 2997.972
386.6920, 3101.508
387.1742, 3213.304
387.6563, 3325.393
388.1384, 3432.781
388.6205, 3534.902
389.1026, 3632.031
389.5847, 3721.670
390.0669, 3809.456
390.5490, 3900.661
391.0311, 3989.132
391.5132, 4066.999
391.9953, 4131.942
392.4774, 4188.202
392.9596, 4242.360
393.4417, 4295.766
393.9238, 4343.199
394.4059, 4398.408
394.8880, 4434.981
395.3701, 4433.677
395.8523, 4402.474
396.3344, 4365.211
396.8165, 4339.824
397.2986, 4316.565
397.7807, 4265.637
398.2628, 4179.042
398.7450, 4092.527
399.2271, 4015.796
399.7092, 3949.188
400.1913, 3897.465
400.6734, 3865.293
401.1555, 3830.587
401.6377, 3769.183
402.1198, 3694.565
402.6019, 3643.766
403.0840, 3627.604
403.5661, 3621.413
404.0482, 3601.100
404.5304, 3566.170
405.0125, 3534.822
405.4946, 3512.303
405.9767, 3489.841
406.4588, 3461.042
406.9409, 3427.927
407.4231, 3398.276
407.9052, 3376.901
408.3873, 3357.285
408.8694, 3321.045
409.3515, 3250.539
409.8336, 3188.602
410.3158, 3144.590
410.7979, 3102.887
411.2800, 3052.043
411.7621, 2990.832
412.2442, 2925.101
412.7263, 2858.728
413.2085, 2791.745
413.6906, 2725.667
414.1727, 2660.027
414.6548, 2595.736
415.1369, 2535.222
415.6190, 2475.144
416.1012, 2409.633
416.5833, 2334.831
417.0654, 2261.888
417.5475, 2204.849
418.0296, 2162.234
418.5117, 2121.089
418.9939, 2077.922
419.4760, 2036.370
419.9581, 2003.010
420.4402, 1976.845
420.9223, 1946.834
421.4044, 1908.018
421.8866, 1865.863
422.3687, 1823.709
422.8508, 1782.464
423.3329, 1744.824
423.8150, 1712.692
424.2971, 1685.191
424.7793, 1658.805
425.2614, 1634.515
425.7435, 1610.026
426.2256, 1580.795
426.7077, 1554.020
427.1898, 1536.884
427.6719, 1529.981
428.1541, 1528.052
428.6362, 1526.982
429.1183, 1526.888
429.6004, 1521.131
430.0825, 1501.850
430.5646, 1487.167
431.0468, 1484.056
431.5289, 1488.107
432.0110, 1493.680
432.4931, 1499.161
432.9752, 1504.079
433.4573, 1506.329
433.9395, 1506.292
434.4216, 1511.589
434.9037, 1526.416
435.3858, 1543.102
435.8679, 1554.603
436.3500, 1561.380
436.8322, 1564.800
437.3143, 1562.498
437.7964, 1558.988
438.2785, 1559.953
438.7606, 1564.041
439.2427, 1564.661
439.7249, 1558.548
440.2070, 1546.237
440.6891, 1529.125
441.1712, 1500.907
441.6533, 1476.517
442.1354, 1454.789
442.6176, 1438.133
443.0997, 1430.285
443.5818, 1430.229
444.0639, 1432.654
444.5460, 1433.588
445.0281, 1432.848
445.5103, 1427.602
445.9924, 1410.895
446.4745, 1401.279
446.9566, 1406.611
447.4387, 1419.618
447.9208, 1433.056
448.4030, 1445.229
448.8851, 1456.977
449.3672, 1467.325
449.8493, 1477.401
450.3314, 1493.178
450.8135, 1517.022
451.2957, 1542.025
451.7778, 1558.271
452.2599, 1569.141
452.7420, 1594.381
453.2241, 1650.889
453.7062, 1707.560
454.1884, 1744.155
454.6705, 1767.840
455.1526, 1793.104
455.6347, 1825.124
456.1168, 1865.999
456.5989, 1919.815
457.0811, 1991.975
457.5632, 2064.378
458.0453, 2142.956
458.5274, 2215.742
459.0095, 2273.369
459.4916, 2320.284
459.9738, 2367.224
460.4559, 2420.024
460.9380, 2477.139
461.4201, 2535.844
461.9022, 2598.206
462.3843, 2654.091
462.8665, 2701.652
463.3486, 2740.729
463.8307, 2769.090
464.3128, 2787.184
464.7949, 2804.862
465.2770, 2833.275
465.7592, 2860.950
466.2413, 2870.387
466.7234, 2861.146
467.2055, 2843.289
467.6876, 2821.885
468.1697, 2796.324
468.6519, 2764.113
469.1340, 2722.449
469.6161, 2679.415
470.0982, 2641.210
470.5803, 2598.751
471.0624, 2540.049
471.5445, 2465.714
472.0266, 2388.721
472.5088, 2320.012
472.9909, 2258.968
473.4730, 2198.451
473.9551, 2134.135
474.4372, 2077.206
474.9193, 2034.543
475.4015, 1997.161
475.8836, 1955.484
476.3657, 1907.244
476.8478, 1859.145
477.3299, 1815.926
477.8120, 1777.393
478.2942, 1744.825
478.7763, 1719.802
479.2584, 1694.372
479.7405, 1659.753
480.2226, 1619.613
480.7047, 1591.132
481.1869, 1583.249
481.6690, 1577.526
482.1511, 1565.220
482.6332, 1551.084
483.1153, 1542.943
483.5974, 1542.647
484.0796, 1545.050
484.5617, 1543.756
485.0438, 1537.809
485.5259, 1535.953
486.0080, 1543.996
486.4901, 1549.978
486.9723, 1546.995
487.4544, 1541.399
487.9365, 1543.038
488.4186, 1555.850
488.9007, 1571.334
489.3828, 1577.552
489.8650, 1575.537
490.3471, 1580.048
490.8292, 1596.351
491.3113, 1613.118
491.7934, 1618.271
492.2755, 1615.641
492.7577, 1618.538
493.2398, 1634.880
493.7219, 1651.429
494.2040, 1660.204
494.6861, 1663.446
495.1682, 1664.587
495.6504, 1664.737
496.1325, 1666.310
496.6146, 1672.512
497.0967, 1683.547
497.5788, 1698.516
498.0609, 1723.576
498.5431, 1745.791
499.0252, 1757.230
499.5073, 1763.521
499.9894, 1775.665
500.4715, 1799.033
500.9536, 1822.176
501.4358, 1824.867
501.9179, 1807.319
502.4000, 1803.213
502.8821, 1825.800
503.3642, 1848.974
503.8463, 1847.566
504.3285, 1828.348
504.8106, 1813.578
505.2927, 1812.566
505.7748, 1812.476
506.2569, 1806.674
506.7390, 1795.474
507.2212, 1778.721
507.7033, 1756.223
508.1854, 1731.574
508.6675, 1709.678
509.1496, 1691.788
509.6317, 1671.116
510.1139, 1649.055
510.5960, 1622.959
511.0781, 1588.050
511.5602, 1549.489
512.0423, 1514.561
512.5244, 1486.053
513.0065, 1462.420
513.4886, 1442.801
513.9708, 1426.932
514.4529, 1411.101
514.9350, 1395.104
515.4171, 1378.605
515.8992, 1359.459
516.3813, 1339.300
516.8635, 1324.136
517.3456, 1319.392
517.8277, 1314.970
518.3098, 1304.568
518.7919, 1291.057
519.2740, 1278.468
519.7562, 1268.071
520.2383, 1262.144
520.7204, 1264.740
521.2025, 1277.564
521.6846, 1281.788
522.1667, 1264.655
522.6489, 1252.843
523.1310, 1257.076
523.6131, 1268.265
524.0952, 1274.248
524.5773, 1271.296
525.0594, 1267.602
525.5416, 1272.953
526.0237, 1284.990
526.5058, 1291.953
526.9879, 1291.281
527.4700, 1291.610
527.9521, 1300.341
528.4343, 1314.916
528.9164, 1324.350
529.3985, 1323.535
529.8806, 1324.736
530.3627, 1331.848
530.8448, 1342.971
531.3270, 1355.930
531.8091, 1370.346
532.2912, 1387.575
532.7733, 1409.944
533.2554, 1436.316
533.7375, 1453.962
534.2197, 1453.590
534.7018, 1460.938
535.1839, 1484.001
535.6660, 1515.610
536.1481, 1554.224
536.6302, 1598.418
537.1124, 1634.145
537.5945, 1647.163
538.0766, 1647.621
538.5587, 1653.716
539.0408, 1665.986
539.5229, 1675.952
540.0051, 1678.200
540.4872, 1676.315
540.9693, 1679.598
541.4514, 1694.156
541.9335, 1702.130
542.4156, 1697.221
542.8978, 1690.051
543.3799, 1689.518
543.8620, 1693.305
544.3441, 1693.135
544.8262, 1683.992
545.3083, 1668.080
545.7905, 1648.429
546.2726, 1623.605
546.7547, 1604.382
547.2368, 1594.020
547.7189, 1588.598
548.2010, 1588.213
548.6832, 1590.896
549.1653, 1585.895
549.6474, 1561.189
550.1295, 1536.220
550.6116, 1528.161
551.0938, 1530.524
551.5759, 1526.951
552.0580, 1512.147
552.5401, 1494.250
553.0222, 1484.275
553.5043, 1483.454
553.9865, 1482.149
554.4686, 1482.925
554.9507, 1480.229
555.4328, 1470.890
555.9149, 1457.989
556.3970, 1444.115
556.8792, 1429.879
557.3613, 1419.542
557.8434, 1420.046
558.3255, 1427.721
558.8076, 1429.971
559.2897, 1425.043
559.7719, 1420.445
560.2540, 1420.921
560.7361, 1425.340
561.2182, 1429.356
561.7003, 1428.941
562.1824, 1434.593
562.6646, 1452.877
563.1467, 1474.237
563.6288, 1490.553
564.1109, 1501.891
564.5930, 1512.914
565.0751, 1526.720
565.5573, 1542.740
566.0394, 1559.774
566.5215, 1578.415
567.0036, 1595.073
567.4857, 1606.655
567.9678, 1618.439
568.4500, 1634.826
568.9321, 1655.423
569.4142, 1677.583
569.8963, 1708.228
570.3784, 1733.187
570.8605, 1736.523
571.3427, 1726.537
571.8248, 1723.268
572.3069, 1733.147
572.7890, 1746.331
573.2711, 1750.391
573.7532, 1744.649
574.2354, 1736.114
574.7175, 1726.956
575.1996, 1711.955
575.6817, 1687.766
576.1638, 1658.311
576.6459, 1626.600
577.1281, 1593.364
577.6102, 1562.497
578.0923, 1539.908
578.5744, 1521.101
579.0565, 1496.177
579.5386, 1464.556
580.0208, 1431.483
580.5029, 1398.586
580.9850, 1367.564
581.4671, 1343.100
581.9492, 1333.688
582.4313, 1316.471
582.9134, 1280.767
583.3955, 1246.644
583.8776, 1229.876
584.3597, 1224.928
584.8419, 1216.524
585.3240, 1196.415
585.8061, 1170.925
586.2882, 1148.494
586.7703, 1129.202
587.2524, 1113.893
587.7346, 1103.053
588.2167, 1095.572
588.6988, 1093.057
589.1809, 1093.927
589.6630, 1088.682
590.1451, 1071.748
590.6273, 1055.205
591.1094, 1041.951
591.5915, 1031.704
592.0736, 1024.050
592.5557, 1018.967
593.0378, 1017.247
593.5200, 1020.565
594.0021, 1026.957
594.4842, 1027.302
594.9663, 1019.989
595.4484, 1012.094
595.9305, 1004.696
596.4127, 998.0873
596.8948, 991.8532
597.3769, 986.1751
597.8590, 983.4755
598.3411, 988.1438
598.8232, 992.6349
599.3054, 990.1572
599.7875, 983.4136
600.2696, 979.3909
600.7517, 980.1966
601.2338, 980.7195
601.7159, 974.2588
602.1981, 960.4203
602.6802, 946.5673
603.1623, 932.0499
603.6444, 918.4366
604.1265, 906.5015
604.6086, 895.5139
605.0908, 883.8564
605.5729, 871.1724
606.0550, 862.1224
606.5371, 863.7090
607.0192, 867.7112
607.5013, 863.1215
607.9835, 850.5712
608.4656, 835.8111
608.9477, 821.2391
609.4298, 807.3647
609.9119, 794.7934
610.3940, 782.4945
610.8762, 774.8457
611.3583, 776.9423
611.8404, 778.3926
612.3225, 774.7953
612.8046, 768.4954
613.2867, 762.8599
613.7689, 758.7346
614.2510, 756.5063
614.7331, 758.0856
615.2152, 761.3982
615.6973, 761.8866
616.1794, 759.1860
616.6616, 755.7422
617.1437, 753.2202
617.6258, 750.6316
618.1079, 744.8841
618.5900, 730.9572
619.0721, 722.7856
619.5543, 721.5224
620.0364, 724.4570
620.5185, 734.3938
621.0006, 746.8065
621.4827, 752.3632
621.9648, 746.2542
622.4470, 736.1440
622.9291, 726.8681
623.4112, 720.2753
623.8933, 726.0886
624.3754, 746.8052
624.8575, 764.0905
625.3397, 762.9368
625.8218, 748.6852
626.3039, 745.1984
626.7860, 768.7305
627.2681, 780.6678
627.7502, 767.3770
628.2324, 753.0599
628.7145, 756.7543
629.1966, 773.7601
629.6787, 786.4583
630.1608, 784.5201
