##NAMES=Hubeite
##RRUFFID=R060964
##IDEAL CHEMISTRY=Ca_2_Mn^2+^Fe^3+^Si_4_O_12_(OH)&#183;2H_2_O
##LOCALITY=Fengjiashan mine, Daye, Hubei Province, China
##OWNER=RRUFF
##SOURCE=Michael Scott
##DESCRIPTION=Dark brown thin bladed crystals coated with fluorapophyllite, on quartz
##STATUS=The identification of this mineral is confirmed by single-crystal X-ray diffraction and chemical analysis.
##URL=rruff.info/R060964
##MEASURED CHEMISTRY=Ca_2.00_Mn^2+^_1.00_(Fe^3+^_0.85_Al_0.15_)_Σ=1_Si_4.00_O_12_(OH)·1.90H_2_O; OH estimated by charge balance; H_2_O by difference
124.4157, 1187.133
124.8979, 1236.386
125.3800, 1276.758
125.8621, 1305.534
126.3442, 1329.023
126.8263, 1356.626
127.3084, 1387.130
127.7905, 1412.800
128.2727, 1426.701
128.7548, 1430.873
129.2369, 1430.500
129.7190, 1426.531
130.2011, 1419.087
130.6832, 1406.209
131.1654, 1387.167
131.6475, 1369.571
132.1296, 1365.262
132.6117, 1372.531
133.0938, 1373.277
133.5759, 1358.322
134.0581, 1329.822
134.5402, 1303.857
135.0223, 1279.792
135.5044, 1259.234
135.9865, 1243.211
136.4686, 1231.023
136.9508, 1228.799
137.4329, 1244.252
137.9150, 1280.013
138.3971, 1304.932
138.8792, 1315.480
139.3613, 1316.926
139.8434, 1323.500
140.3256, 1338.586
140.8077, 1350.889
141.2898, 1352.384
141.7719, 1337.889
142.2540, 1328.749
142.7361, 1327.890
143.2183, 1334.157
143.7004, 1340.785
144.1825, 1350.257
144.6646, 1357.068
145.1467, 1356.219
145.6288, 1340.527
146.1110, 1329.064
146.5931, 1326.402
147.0752, 1333.266
147.5573, 1334.771
148.0394, 1325.824
148.5215, 1314.394
149.0037, 1308.369
149.4858, 1311.706
149.9679, 1316.264
150.4500, 1320.577
150.9321, 1324.305
151.4142, 1328.956
151.8964, 1334.439
152.3785, 1340.974
152.8606, 1348.821
153.3427, 1357.044
153.8248, 1367.647
154.3069, 1381.865
154.7890, 1402.576
155.2712, 1421.437
155.7533, 1436.699
156.2354, 1449.334
156.7175, 1461.762
157.1996, 1473.757
157.6817, 1486.284
158.1639, 1500.098
158.6460, 1518.164
159.1281, 1533.454
159.6102, 1541.954
160.0923, 1545.365
160.5744, 1550.385
161.0566, 1559.316
161.5387, 1570.563
162.0208, 1582.978
162.5029, 1598.674
162.9850, 1613.079
163.4671, 1620.741
163.9493, 1622.909
164.4314, 1632.023
164.9135, 1666.573
165.3956, 1706.611
165.8777, 1731.651
166.3598, 1715.991
166.8420, 1697.037
167.3241, 1699.826
167.8062, 1725.291
168.2883, 1752.849
168.7704, 1775.896
169.2525, 1792.252
169.7346, 1798.610
170.2168, 1787.277
170.6989, 1768.955
171.1810, 1751.938
171.6631, 1736.629
172.1452, 1723.378
172.6273, 1712.860
173.1095, 1704.548
173.5916, 1697.015
174.0737, 1694.344
174.5558, 1690.254
175.0379, 1675.327
175.5201, 1646.346
176.0022, 1613.930
176.4843, 1587.343
176.9664, 1566.342
177.4485, 1549.703
177.9306, 1540.194
178.4128, 1534.107
178.8949, 1524.301
179.3770, 1508.604
179.8591, 1490.780
180.3412, 1474.205
180.8233, 1459.031
181.3055, 1447.518
181.7876, 1444.049
182.2697, 1445.599
182.7518, 1443.317
183.2339, 1433.211
183.7160, 1420.869
184.1982, 1415.499
184.6803, 1417.064
185.1624, 1424.171
185.6445, 1438.559
186.1266, 1458.439
186.6087, 1475.937
187.0908, 1485.326
187.5730, 1492.774
188.0551, 1516.340
188.5372, 1557.657
189.0193, 1601.511
189.5014, 1631.753
189.9835, 1650.249
190.4657, 1672.465
190.9478, 1705.763
191.4299, 1746.522
191.9120, 1778.549
192.3941, 1801.054
192.8762, 1818.694
193.3584, 1838.286
193.8405, 1859.698
194.3226, 1874.180
194.8047, 1877.338
195.2868, 1870.139
195.7689, 1861.178
196.2511, 1851.152
196.7332, 1837.282
197.2153, 1815.686
197.6974, 1786.107
198.1795, 1751.510
198.6616, 1710.990
199.1438, 1664.173
199.6259, 1621.998
200.1080, 1585.188
200.5901, 1551.624
201.0722, 1517.410
201.5543, 1481.453
202.0364, 1449.829
202.5186, 1426.524
203.0007, 1412.364
203.4828, 1397.085
203.9649, 1379.722
204.4470, 1361.945
204.9291, 1348.174
205.4113, 1339.452
205.8934, 1330.379
206.3755, 1316.829
206.8576, 1297.026
207.3397, 1283.949
207.8218, 1280.310
208.3040, 1282.207
208.7861, 1279.916
209.2682, 1273.063
209.7503, 1263.250
210.2324, 1248.162
210.7145, 1223.380
211.1967, 1214.516
211.6788, 1229.167
212.1609, 1258.919
212.6430, 1274.785
213.1251, 1271.674
213.6072, 1265.108
214.0894, 1265.710
214.5715, 1278.029
215.0536, 1282.021
215.5357, 1272.744
216.0178, 1253.795
216.4999, 1241.775
216.9820, 1238.664
217.4642, 1239.180
217.9463, 1240.641
218.4284, 1244.458
218.9105, 1244.789
219.3926, 1239.206
219.8747, 1229.143
220.3569, 1223.254
220.8390, 1221.006
221.3211, 1223.761
221.8032, 1234.340
222.2853, 1258.827
222.7674, 1276.032
223.2496, 1281.009
223.7317, 1275.129
224.2138, 1271.789
224.6959, 1270.272
225.1780, 1272.232
225.6601, 1279.966
226.1423, 1297.535
226.6244, 1311.898
227.1065, 1320.580
227.5886, 1323.819
228.0707, 1325.645
228.5528, 1323.536
229.0350, 1322.757
229.5171, 1328.410
229.9992, 1344.460
230.4813, 1359.151
230.9634, 1370.403
231.4455, 1378.303
231.9276, 1385.444
232.4098, 1391.855
232.8919, 1397.506
233.3740, 1401.798
233.8561, 1402.639
234.3382, 1406.380
234.8203, 1415.937
235.3025, 1431.653
235.7846, 1441.443
236.2667, 1442.771
236.7488, 1440.641
237.2309, 1439.541
237.7130, 1438.129
238.1952, 1440.323
238.6773, 1447.549
239.1594, 1460.096
239.6415, 1473.074
240.1236, 1488.217
240.6057, 1502.424
241.0879, 1512.198
241.5700, 1514.835
242.0521, 1517.720
242.5342, 1521.812
243.0163, 1526.967
243.4984, 1535.353
243.9806, 1548.845
244.4627, 1563.833
244.9448, 1576.283
245.4269, 1584.635
245.9090, 1593.257
246.3911, 1604.339
246.8732, 1618.551
247.3554, 1625.697
247.8375, 1622.056
248.3196, 1614.605
248.8017, 1610.891
249.2838, 1611.909
249.7659, 1615.095
250.2481, 1621.849
250.7302, 1633.229
251.2123, 1635.645
251.6944, 1625.177
252.1765, 1609.641
252.6586, 1597.796
253.1408, 1592.040
253.6229, 1585.450
254.1050, 1576.951
254.5871, 1566.786
255.0692, 1553.041
255.5513, 1536.077
256.0334, 1515.191
256.5156, 1488.304
256.9977, 1451.307
257.4798, 1416.603
257.9619, 1386.341
258.4440, 1360.143
258.9261, 1341.305
259.4083, 1333.982
259.8904, 1328.882
260.3725, 1314.520
260.8546, 1285.611
261.3367, 1259.660
261.8188, 1240.919
262.3010, 1229.383
262.7831, 1220.109
263.2652, 1214.562
263.7473, 1209.208
264.2294, 1198.735
264.7115, 1179.606
265.1937, 1165.662
265.6758, 1161.080
266.1579, 1165.741
266.6400, 1171.521
267.1221, 1179.291
267.6042, 1186.754
268.0864, 1190.810
268.5685, 1190.149
269.0506, 1190.866
269.5327, 1194.853
270.0148, 1201.886
270.4969, 1206.612
270.9791, 1206.654
271.4612, 1209.095
271.9433, 1224.030
272.4254, 1255.469
272.9075, 1279.684
273.3896, 1287.633
273.8718, 1282.110
274.3539, 1288.991
274.8360, 1310.900
275.3181, 1338.941
275.8002, 1367.266
276.2823, 1397.089
276.7645, 1417.862
277.2466, 1424.690
277.7287, 1420.244
278.2108, 1421.639
278.6929, 1429.761
279.1750, 1440.529
279.6572, 1449.930
280.1393, 1457.720
280.6214, 1468.022
281.1035, 1482.787
281.5856, 1500.385
282.0677, 1514.712
282.5499, 1525.721
283.0320, 1533.620
283.5141, 1537.475
283.9962, 1537.347
284.4783, 1538.537
284.9604, 1544.035
285.4425, 1550.391
285.9247, 1544.752
286.4068, 1526.137
286.8889, 1507.035
287.3710, 1499.308
287.8531, 1501.506
288.3352, 1500.612
288.8174, 1495.482
289.2995, 1484.718
289.7816, 1459.995
290.2637, 1421.554
290.7458, 1387.610
291.2279, 1378.747
291.7101, 1388.273
292.1922, 1383.116
292.6743, 1353.713
293.1564, 1314.406
293.6385, 1289.639
294.1206, 1278.886
294.6028, 1272.878
295.0849, 1267.980
295.5670, 1263.188
296.0491, 1254.840
296.5312, 1241.392
297.0133, 1226.928
297.4955, 1217.893
297.9776, 1213.627
298.4597, 1209.274
298.9418, 1198.645
299.4239, 1186.438
299.9060, 1182.829
300.3882, 1190.507
300.8703, 1202.113
301.3524, 1210.194
301.8345, 1215.232
302.3166, 1218.949
302.7987, 1219.142
303.2809, 1219.627
303.7630, 1226.663
304.2451, 1241.626
304.7272, 1258.586
305.2093, 1274.086
305.6914, 1287.468
306.1736, 1296.583
306.6557, 1294.527
307.1378, 1291.028
307.6199, 1297.702
308.1020, 1316.442
308.5841, 1335.666
309.0663, 1347.229
309.5484, 1353.553
310.0305, 1358.329
310.5126, 1364.504
310.9947, 1368.951
311.4768, 1367.864
311.9590, 1360.962
312.4411, 1355.178
312.9232, 1353.783
313.4053, 1356.120
313.8874, 1361.329
314.3695, 1373.590
314.8517, 1384.962
315.3337, 1388.658
315.8159, 1385.121
316.2980, 1386.534
316.7801, 1405.177
317.2622, 1428.165
317.7443, 1443.663
318.2264, 1437.500
318.7086, 1433.628
319.1907, 1441.875
319.6728, 1460.734
320.1549, 1478.746
320.6370, 1496.073
321.1191, 1509.267
321.6013, 1516.005
322.0834, 1508.423
322.5655, 1502.421
323.0476, 1502.764
323.5297, 1507.539
324.0118, 1509.023
324.4940, 1499.014
324.9761, 1490.446
325.4582, 1490.348
325.9403, 1513.058
326.4224, 1524.517
326.9045, 1516.368
327.3867, 1494.957
327.8688, 1477.568
328.3509, 1466.512
328.8330, 1457.822
329.3151, 1449.839
329.7972, 1440.669
330.2794, 1436.703
330.7615, 1446.142
331.2436, 1458.190
331.7257, 1452.840
332.2078, 1417.106
332.6899, 1382.159
333.1721, 1358.042
333.6542, 1348.102
334.1363, 1333.961
334.6184, 1314.099
335.1005, 1291.328
335.5826, 1268.695
336.0648, 1245.898
336.5469, 1223.710
337.0290, 1201.362
337.5111, 1178.747
337.9932, 1161.577
338.4753, 1151.351
338.9575, 1143.730
339.4396, 1133.466
339.9217, 1119.163
340.4038, 1110.090
340.8859, 1110.679
341.3680, 1117.702
341.8502, 1114.391
342.3323, 1099.093
342.8144, 1081.399
343.2965, 1069.842
343.7786, 1064.170
344.2607, 1056.305
344.7429, 1044.067
345.2250, 1029.909
345.7071, 1018.224
346.1892, 1008.879
346.6713, 1004.002
347.1534, 1006.681
347.6355, 1015.300
348.1176, 1024.174
348.5998, 1033.830
349.0819, 1040.595
349.5640, 1034.996
350.0461, 1019.675
350.5282, 1009.517
351.0103, 1016.252
351.4925, 1032.373
351.9746, 1044.653
352.4567, 1051.685
352.9388, 1057.914
353.4209, 1068.226
353.9030, 1081.048
354.3852, 1092.893
354.8673, 1102.818
355.3494, 1110.723
355.8315, 1114.333
356.3136, 1113.771
356.7957, 1116.906
357.2779, 1131.820
357.7600, 1152.961
358.2421, 1173.017
358.7242, 1193.037
359.2063, 1208.357
359.6884, 1214.824
360.1706, 1213.427
360.6527, 1210.248
361.1348, 1200.961
361.6169, 1194.925
362.0990, 1200.392
362.5811, 1230.353
363.0633, 1255.740
363.5454, 1265.872
364.0275, 1264.324
364.5096, 1261.289
364.9917, 1257.759
365.4738, 1254.534
365.9560, 1251.734
366.4381, 1248.471
366.9202, 1247.741
367.4023, 1253.975
367.8844, 1262.196
368.3665, 1264.311
368.8487, 1251.055
369.3308, 1240.424
369.8129, 1236.836
370.2950, 1241.101
370.7771, 1248.003
371.2592, 1258.908
371.7414, 1271.458
372.2235, 1283.583
372.7056, 1295.762
373.1877, 1306.521
373.6698, 1314.861
374.1519, 1321.042
374.6341, 1328.828
375.1162, 1338.168
375.5983, 1348.952
376.0804, 1361.679
376.5625, 1376.877
377.0446, 1390.156
377.5267, 1399.241
378.0089, 1407.245
378.4910, 1423.731
378.9731, 1449.676
379.4552, 1477.000
379.9373, 1500.235
380.4194, 1520.036
380.9016, 1540.989
381.3837, 1562.647
381.8658, 1588.275
382.3479, 1627.024
382.8300, 1676.706
383.3121, 1721.782
383.7943, 1748.405
384.2764, 1765.784
384.7585, 1796.560
385.2406, 1840.996
385.7227, 1891.714
386.2048, 1942.817
386.6870, 1993.847
387.1691, 2044.221
387.6512, 2092.471
388.1333, 2140.175
388.6154, 2190.846
389.0975, 2243.507
389.5797, 2293.757
390.0618, 2336.132
390.5439, 2375.390
391.0260, 2416.548
391.5081, 2464.725
391.9902, 2507.312
392.4724, 2535.958
392.9545, 2554.003
393.4366, 2569.638
393.9187, 2583.765
394.4008, 2598.258
394.8829, 2616.114
395.3651, 2640.103
395.8472, 2657.124
396.3293, 2662.938
396.8114, 2660.281
397.2935, 2652.426
397.7756, 2635.069
398.2578, 2617.368
398.7399, 2600.214
399.2220, 2583.461
399.7041, 2570.632
400.1862, 2570.884
400.6683, 2568.122
401.1505, 2549.834
401.6326, 2497.626
402.1147, 2462.310
402.5968, 2454.986
403.0789, 2466.668
403.5610, 2464.173
404.0432, 2440.964
404.5253, 2416.642
405.0074, 2402.405
405.4895, 2401.776
405.9716, 2392.147
406.4537, 2371.567
406.9359, 2345.008
407.4180, 2321.024
407.9001, 2300.061
408.3822, 2274.954
408.8643, 2241.398
409.3464, 2201.189
409.8285, 2162.997
410.3106, 2127.205
410.7928, 2091.832
411.2749, 2053.504
411.7570, 2013.298
412.2391, 1976.492
412.7212, 1945.206
413.2033, 1916.187
413.6855, 1886.167
414.1676, 1855.024
414.6497, 1821.189
415.1318, 1778.783
415.6139, 1735.227
416.0960, 1702.234
416.5782, 1683.620
417.0603, 1666.042
417.5424, 1639.408
418.0245, 1607.052
418.5066, 1574.987
418.9887, 1542.322
419.4709, 1513.111
419.9530, 1488.961
420.4351, 1470.209
420.9172, 1456.392
421.3993, 1456.259
421.8814, 1456.627
422.3636, 1446.587
422.8457, 1408.541
423.3278, 1377.409
423.8099, 1362.397
424.2920, 1360.269
424.7741, 1356.366
425.2563, 1347.907
425.7384, 1339.425
426.2205, 1333.237
426.7026, 1331.591
427.1847, 1326.073
427.6668, 1312.921
428.1490, 1298.407
428.6311, 1293.065
429.1132, 1300.912
429.5953, 1307.546
430.0774, 1308.160
430.5595, 1303.361
431.0417, 1301.320
431.5238, 1302.237
432.0059, 1305.337
432.4880, 1308.441
432.9701, 1311.734
433.4522, 1323.300
433.9344, 1347.436
434.4165, 1376.750
434.8986, 1397.467
435.3807, 1410.075
435.8628, 1419.878
436.3449, 1428.531
436.8271, 1436.921
437.3092, 1447.672
437.7913, 1461.315
438.2734, 1473.990
438.7555, 1479.918
439.2376, 1482.467
439.7197, 1487.878
440.2018, 1506.335
440.6840, 1522.739
441.1661, 1521.687
441.6482, 1505.660
442.1303, 1493.853
442.6124, 1498.325
443.0945, 1509.246
443.5767, 1519.026
444.0588, 1525.423
444.5409, 1531.985
445.0230, 1538.208
445.5051, 1545.363
445.9872, 1555.984
446.4694, 1571.769
446.9515, 1589.801
447.4336, 1608.576
447.9157, 1627.130
448.3978, 1651.729
448.8799, 1684.963
449.3621, 1721.991
449.8442, 1757.697
450.3263, 1789.595
450.8084, 1826.149
451.2905, 1870.684
451.7726, 1920.143
452.2548, 1961.885
452.7369, 1992.283
453.2190, 2028.312
453.7011, 2083.626
454.1832, 2157.434
454.6653, 2225.862
455.1475, 2288.487
455.6296, 2345.777
456.1117, 2396.951
456.5938, 2442.861
457.0759, 2491.434
457.5580, 2547.051
458.0402, 2605.884
458.5223, 2662.769
459.0044, 2717.988
459.4865, 2768.593
459.9686, 2807.457
460.4507, 2842.771
460.9329, 2887.951
461.4150, 2951.024
461.8971, 3010.148
462.3792, 3054.184
462.8613, 3084.244
463.3434, 3103.587
463.8256, 3104.049
464.3077, 3101.716
464.7898, 3107.802
465.2719, 3125.106
465.7540, 3128.224
466.2361, 3104.150
466.7183, 3068.215
467.2004, 3032.898
467.6825, 3010.391
468.1646, 2973.669
468.6467, 2912.352
469.1288, 2834.824
469.6110, 2771.250
470.0930, 2727.239
470.5752, 2686.757
471.0573, 2646.122
471.5394, 2607.929
472.0215, 2546.770
472.5036, 2453.888
472.9857, 2356.144
473.4679, 2289.764
473.9500, 2255.455
474.4321, 2217.818
474.9142, 2165.888
475.3963, 2106.815
475.8784, 2056.510
476.3606, 2014.757
476.8427, 1977.768
477.3248, 1945.023
477.8069, 1915.165
478.2890, 1885.948
478.7711, 1857.001
479.2533, 1829.437
479.7354, 1803.260
480.2175, 1779.252
480.6996, 1758.655
481.1817, 1743.772
481.6638, 1731.116
482.1460, 1717.811
482.6281, 1704.368
483.1102, 1694.916
483.5923, 1690.190
484.0744, 1690.282
484.5565, 1695.802
485.0387, 1711.611
485.5208, 1724.427
486.0029, 1732.352
486.4850, 1736.832
486.9671, 1739.728
487.4492, 1738.556
487.9314, 1739.392
488.4135, 1742.267
488.8956, 1747.417
489.3777, 1763.893
489.8598, 1796.279
490.3419, 1830.088
490.8241, 1855.058
491.3062, 1871.083
491.7883, 1881.818
492.2704, 1886.215
492.7525, 1888.641
493.2346, 1895.076
493.7168, 1905.632
494.1989, 1922.236
494.6810, 1952.262
495.1631, 1986.760
495.6452, 2008.348
496.1273, 2017.118
496.6095, 2024.834
497.0916, 2039.800
497.5737, 2058.961
498.0558, 2079.104
498.5379, 2100.259
499.0201, 2120.399
499.5022, 2138.647
499.9843, 2155.012
500.4664, 2169.135
500.9485, 2178.242
501.4306, 2187.416
501.9127, 2199.542
502.3948, 2215.427
502.8770, 2227.748
503.3591, 2233.386
503.8412, 2236.922
504.3233, 2241.986
504.8054, 2253.495
505.2875, 2256.409
505.7697, 2247.296
506.2518, 2230.347
506.7339, 2217.379
507.2160, 2211.016
507.6981, 2197.866
508.1802, 2170.129
508.6624, 2129.841
509.1445, 2093.852
509.6266, 2062.712
510.1087, 2031.905
510.5908, 1996.146
511.0729, 1957.135
511.5551, 1921.037
512.0372, 1891.054
512.5193, 1860.110
513.0014, 1816.865
513.4835, 1765.986
513.9656, 1720.122
514.4478, 1689.208
514.9299, 1663.001
515.4120, 1633.117
515.8941, 1599.096
516.3762, 1569.105
516.8583, 1549.993
517.3405, 1534.455
517.8226, 1517.050
518.3047, 1495.015
518.7868, 1473.478
519.2689, 1451.719
519.7510, 1430.937
520.2332, 1413.671
520.7153, 1401.757
521.1974, 1390.891
521.6795, 1378.898
522.1616, 1365.819
522.6437, 1361.382
523.1259, 1369.534
523.6080, 1375.930
524.0901, 1364.219
524.5722, 1334.889
525.0543, 1317.902
525.5364, 1317.714
526.0186, 1327.633
526.5007, 1340.939
526.9828, 1356.440
527.4649, 1369.480
527.9470, 1378.767
528.4291, 1383.828
528.9113, 1381.508
529.3934, 1372.795
529.8755, 1367.144
530.3576, 1374.594
530.8397, 1385.382
531.3218, 1390.277
531.8040, 1384.083
532.2861, 1379.927
532.7682, 1380.839
533.2503, 1386.788
533.7324, 1397.758
534.2145, 1420.536
534.6967, 1440.964
535.1788, 1457.030
535.6609, 1468.707
536.1430, 1475.984
536.6251, 1474.976
537.1072, 1475.892
537.5894, 1485.711
538.0715, 1506.043
538.5536, 1523.570
539.0357, 1538.253
539.5178, 1549.218
539.9999, 1554.713
540.4821, 1554.994
540.9642, 1553.235
541.4463, 1550.082
541.9284, 1545.599
542.4105, 1537.844
542.8926, 1527.988
543.3748, 1521.757
543.8569, 1527.024
544.3390, 1535.288
544.8211, 1539.262
545.3032, 1538.397
545.7853, 1531.592
546.2675, 1512.109
546.7495, 1489.272
547.2316, 1472.273
547.7137, 1466.788
548.1959, 1463.161
548.6780, 1460.552
549.1601, 1458.710
549.6422, 1456.737
550.1243, 1453.561
550.6064, 1451.860
551.0886, 1452.644
551.5707, 1455.970
552.0528, 1459.783
552.5349, 1463.801
553.0170, 1468.981
553.4991, 1476.913
553.9813, 1487.349
554.4634, 1495.546
554.9455, 1499.623
555.4276, 1504.622
555.9097, 1519.692
556.3918, 1542.155
556.8740, 1563.557
557.3561, 1575.135
557.8382, 1587.191
558.3203, 1613.435
558.8024, 1651.628
559.2845, 1685.503
559.7667, 1699.653
560.2488, 1711.589
560.7309, 1733.741
561.2130, 1770.174
561.6951, 1810.349
562.1772, 1858.411
562.6594, 1906.777
563.1415, 1946.571
563.6236, 1969.682
564.1057, 1996.442
564.5878, 2030.392
565.0699, 2069.633
565.5521, 2108.362
566.0342, 2146.049
566.5163, 2185.602
566.9984, 2231.726
567.4805, 2282.557
567.9626, 2324.065
568.4448, 2356.465
568.9269, 2380.839
569.4090, 2392.499
569.8911, 2397.655
570.3732, 2413.814
570.8553, 2451.938
571.3375, 2483.316
571.8196, 2472.344
572.3017, 2436.672
572.7838, 2409.953
573.2659, 2423.087
573.7480, 2431.630
574.2302, 2412.863
574.7123, 2368.029
575.1944, 2322.668
575.6765, 2284.297
576.1586, 2243.628
576.6407, 2195.536
577.1229, 2134.667
577.6050, 2082.074
578.0871, 2041.536
578.5692, 2004.558
579.0513, 1962.223
579.5334, 1914.315
580.0156, 1862.427
580.4977, 1805.076
580.9798, 1746.259
581.4619, 1691.569
581.9440, 1641.865
582.4261, 1601.839
582.9083, 1586.083
583.3904, 1576.311
583.8725, 1543.361
584.3546, 1487.853
584.8367, 1433.562
585.3188, 1392.061
585.8010, 1359.667
586.2831, 1333.881
586.7652, 1317.384
587.2473, 1300.174
587.7294, 1279.632
588.2115, 1256.793
588.6937, 1232.982
589.1758, 1207.516
589.6579, 1182.233
590.1400, 1157.067
590.6221, 1132.303
591.1042, 1108.552
591.5864, 1085.312
592.0685, 1065.667
592.5506, 1053.415
593.0327, 1047.275
593.5148, 1034.768
593.9969, 1015.281
594.4791, 995.2452
594.9612, 981.1837
595.4433, 970.7583
595.9254, 959.3115
596.4075, 945.4863
596.8896, 931.6356
597.3718, 917.5060
597.8539, 905.1194
598.3360, 897.9523
598.8181, 907.3791
599.3002, 912.0745
599.7823, 899.4900
600.2645, 872.8555
600.7466, 855.2834
601.2287, 856.8129
601.7108, 858.5477
602.1929, 852.6226
602.6750, 837.4262
603.1572, 826.5419
603.6393, 820.9719
604.1214, 817.3009
604.6035, 812.1980
605.0856, 805.7302
605.5677, 800.1580
606.0499, 795.7450
606.5320, 792.3236
607.0141, 790.2801
607.4962, 789.0915
607.9783, 787.2147
608.4604, 782.8758
608.9425, 778.4511
609.4246, 776.3612
609.9067, 776.0652
610.3889, 775.3448
610.8710, 773.5496
611.3531, 770.8454
611.8352, 766.8848
612.3173, 761.0080
612.7994, 756.8545
613.2816, 755.7231
613.7637, 755.2867
614.2458, 753.4854
614.7279, 749.2656
615.2100, 748.0679
615.6921, 752.1954
616.1743, 756.4828
616.6564, 750.0084
