##NAMES=Hubnerite
##RRUFFID=R050069
##IDEAL CHEMISTRY=Mn^2+^W^6+^O_4_
##LOCALITY=Yaogangxian, Yizhang County, Hunan Province, China
##OWNER=RRUFF
##SOURCE=Rock Currier
##DESCRIPTION=Black colored prismatic single crystal
##STATUS=The identification of this mineral has been confirmed by X-ray diffraction and chemical analysis
##URL=rruff.info/R050069
##MEASURED CHEMISTRY=(Mn_0.68_Fe_0.32_)W_1.00_O_4_
79.55737, 10.49510
80.03949, 9.636467
80.52161, 8.786949
81.00372, 7.700228
81.48584, 6.976304
81.96796, 7.437963
82.45007, 9.101529
82.93219, 10.25018
83.41431, 9.271616
83.89642, 7.501788
84.37854, 6.718287
84.86066, 7.597967
85.34277, 9.342405
85.82489, 10.95262
86.30701, 12.63564
86.78912, 13.56804
87.27124, 12.86220
87.75336, 11.37086
88.23547, 10.12570
88.71759, 9.651656
89.19971, 9.797462
89.68182, 10.01266
90.16394, 10.36985
90.64606, 10.70418
91.12817, 11.09187
91.61029, 11.41826
92.09241, 11.45939
92.57452, 10.94994
93.05664, 9.879640
93.53876, 9.247640
94.02087, 9.193268
94.50299, 9.486362
94.98511, 10.41499
95.46722, 11.72604
95.94934, 12.80220
96.43146, 12.99500
96.91357, 12.06898
97.39569, 11.28734
97.87781, 10.59068
98.35992, 10.04392
98.84204, 9.703740
99.32416, 9.565701
99.80627, 9.572917
100.2884, 9.679932
100.7705, 10.01582
101.2526, 10.09212
101.7347, 9.411690
102.2169, 8.769506
102.6990, 9.012805
103.1811, 10.31905
103.6632, 11.94744
104.1453, 12.64351
104.6274, 11.89410
105.1096, 11.51472
105.5917, 12.00519
106.0738, 12.88191
106.5559, 13.43987
107.0380, 13.40334
107.5201, 13.13605
108.0023, 13.30170
108.4844, 13.83469
108.9665, 14.73615
109.4486, 16.16560
109.9307, 17.98493
110.4128, 19.81952
110.8950, 21.54202
111.3771, 23.22636
111.8592, 24.93737
112.3413, 26.59069
112.8234, 28.47751
113.3055, 30.54547
113.7877, 32.86175
114.2698, 36.12375
114.7519, 41.40135
115.2340, 47.25226
115.7161, 51.80268
116.1982, 54.46233
116.6804, 56.93262
117.1625, 60.79977
117.6446, 66.17004
118.1267, 72.23353
118.6088, 80.62248
119.0909, 88.67332
119.5731, 93.71062
120.0552, 94.46951
120.5373, 93.49186
121.0194, 94.33821
121.5015, 97.07125
121.9836, 101.6102
122.4658, 108.2548
122.9479, 116.3848
123.4300, 125.4031
123.9121, 135.0179
124.3942, 145.6541
124.8763, 157.8312
125.3585, 169.9637
125.8406, 187.2437
126.3227, 208.9598
126.8048, 236.0166
127.2869, 270.9974
127.7690, 315.8644
128.2512, 367.6216
128.7333, 412.9492
129.2154, 454.5613
129.6975, 484.5347
130.1796, 503.9072
130.6617, 510.9383
131.1439, 501.3158
131.6260, 471.1345
132.1081, 423.4296
132.5902, 381.9786
133.0723, 347.0975
133.5544, 318.8199
134.0366, 299.4221
134.5187, 286.7636
135.0008, 277.6688
135.4829, 270.2809
135.9650, 264.5161
136.4471, 258.6720
136.9293, 252.0689
137.4114, 246.0893
137.8935, 241.9743
138.3756, 238.9077
138.8577, 234.9313
139.3398, 228.5306
139.8220, 219.6563
140.3041, 211.0674
140.7862, 201.4943
141.2683, 193.2838
141.7504, 187.6174
142.2325, 184.3291
142.7147, 182.6574
143.1968, 182.1770
143.6789, 182.9523
144.1610, 183.9354
144.6431, 183.0811
145.1252, 184.0700
145.6074, 190.4073
146.0895, 201.4156
146.5716, 212.1688
147.0537, 218.3344
147.5358, 219.8620
148.0179, 224.3504
148.5001, 232.5352
148.9822, 243.0295
149.4643, 255.8128
149.9464, 270.7672
150.4285, 285.6642
150.9106, 300.0042
151.3928, 312.9692
151.8749, 320.2603
152.3570, 320.0886
152.8391, 315.0372
153.3212, 305.9125
153.8033, 292.6338
154.2855, 279.5325
154.7676, 270.5015
155.2497, 264.6382
155.7318, 258.1459
156.2139, 248.8880
156.6960, 239.4833
157.1782, 233.1943
157.6603, 230.4604
158.1424, 228.9148
158.6245, 226.8639
159.1066, 224.6363
159.5887, 223.1361
160.0709, 222.5261
160.5530, 222.7992
161.0351, 224.3982
161.5172, 227.7886
161.9993, 230.7575
162.4814, 231.2502
162.9636, 230.2020
163.4457, 229.1676
163.9278, 228.8063
164.4099, 228.7495
164.8920, 228.0872
165.3741, 226.3498
165.8563, 225.3564
166.3384, 227.1000
166.8205, 230.2602
167.3026, 232.6214
167.7847, 233.1158
168.2668, 232.3067
168.7490, 231.2272
169.2311, 229.5316
169.7132, 228.3772
170.1953, 227.8049
170.6774, 228.1618
171.1595, 230.3065
171.6417, 235.6291
172.1238, 242.5785
172.6059, 247.0497
173.0880, 247.8894
173.5701, 248.4925
174.0522, 250.9462
174.5344, 254.0815
175.0165, 256.1167
175.4986, 255.9474
175.9807, 254.2809
176.4628, 252.8794
176.9449, 251.2870
177.4271, 250.9321
177.9092, 253.5894
178.3913, 257.3289
178.8734, 259.1616
179.3555, 256.7621
179.8376, 252.3386
180.3197, 252.8565
180.8019, 261.5659
181.2840, 269.6107
181.7661, 273.6038
182.2482, 275.5970
182.7303, 277.9506
183.2124, 281.7065
183.6946, 286.7145
184.1767, 292.5282
184.6588, 298.8836
185.1409, 306.6184
185.6230, 316.1069
186.1051, 326.7175
186.5873, 337.6210
187.0694, 348.3112
187.5515, 359.4161
188.0336, 373.0351
188.5157, 390.3114
188.9978, 408.1652
189.4800, 425.3853
189.9621, 442.7917
190.4442, 461.5116
190.9263, 481.9466
191.4084, 503.6392
191.8905, 525.8205
192.3727, 550.4946
192.8548, 571.9490
193.3369, 584.4347
193.8190, 596.0681
194.3011, 615.9152
194.7832, 647.6920
195.2654, 685.4653
195.7475, 715.6254
196.2296, 732.3810
196.7117, 752.7192
197.1938, 780.1159
197.6759, 810.7144
198.1581, 840.8577
198.6402, 869.4296
199.1223, 898.1211
199.6044, 929.6805
200.0865, 962.9637
200.5686, 1002.267
201.0508, 1048.333
201.5329, 1099.081
202.0150, 1153.501
202.4971, 1211.272
202.9792, 1270.397
203.4613, 1327.860
203.9435, 1382.893
204.4256, 1437.621
204.9077, 1500.031
205.3898, 1557.154
205.8719, 1602.873
206.3540, 1634.848
206.8362, 1651.100
207.3183, 1649.792
207.8004, 1633.186
208.2825, 1590.602
208.7646, 1509.874
209.2467, 1416.266
209.7289, 1319.715
210.2110, 1224.101
210.6931, 1131.435
211.1752, 1044.045
211.6573, 962.7042
212.1395, 885.9120
212.6216, 811.5009
213.1037, 743.3795
213.5858, 684.2902
214.0679, 634.0851
214.5500, 590.6039
215.0322, 551.9329
215.5143, 518.1500
215.9964, 489.7010
216.4785, 469.4463
216.9606, 451.6427
217.4427, 434.4666
217.9249, 417.8918
218.4070, 402.5014
218.8891, 388.7212
219.3712, 376.5469
219.8533, 366.1817
220.3354, 358.9075
220.8176, 352.3123
221.2997, 345.8542
221.7818, 339.5938
222.2639, 333.8002
222.7460, 328.7364
223.2281, 324.3085
223.7103, 319.9448
224.1924, 315.2790
224.6745, 311.1035
225.1566, 307.8660
225.6387, 305.1534
226.1208, 302.0873
226.6030, 297.9900
227.0851, 293.5895
227.5672, 292.1944
228.0493, 297.9511
228.5314, 301.0945
229.0135, 298.2992
229.4957, 292.8023
229.9778, 288.1248
230.4599, 285.8346
230.9420, 285.3843
231.4241, 285.5732
231.9062, 287.1665
232.3884, 288.0525
232.8705, 287.1105
233.3526, 285.9115
233.8347, 285.5811
234.3168, 286.5326
234.7989, 288.8651
235.2811, 293.2846
235.7632, 301.8792
236.2453, 307.5089
236.7274, 306.9217
237.2095, 305.4413
237.6916, 306.9290
238.1738, 311.9640
238.6559, 318.0289
239.1380, 321.6808
239.6201, 321.7869
240.1022, 323.7396
240.5843, 327.9142
241.0665, 333.8107
241.5486, 342.3383
242.0307, 352.8997
242.5128, 363.1054
242.9949, 369.7255
243.4770, 372.1397
243.9592, 378.6950
244.4413, 394.1732
244.9234, 409.5789
245.4055, 421.0416
245.8876, 429.6136
246.3697, 438.3730
246.8519, 449.2842
247.3340, 462.3667
247.8161, 477.3820
248.2982, 497.0278
248.7803, 515.0161
249.2624, 528.0255
249.7446, 538.3615
250.2267, 549.7468
250.7088, 564.4921
251.1909, 581.3509
251.6730, 596.1079
252.1551, 605.8474
252.6373, 619.7750
253.1194, 641.8993
253.6015, 668.6813
254.0836, 696.2248
254.5657, 722.8388
255.0478, 750.7740
255.5300, 785.3804
256.0121, 829.2894
256.4942, 869.4937
256.9763, 899.6211
257.4584, 926.0065
257.9406, 954.9619
258.4227, 987.9901
258.9048, 1016.820
259.3869, 1034.583
259.8690, 1041.334
260.3511, 1035.177
260.8333, 1011.396
261.3154, 976.9318
261.7975, 936.6081
262.2796, 890.7503
262.7617, 839.1575
263.2438, 775.9401
263.7260, 704.3535
264.2081, 644.8817
264.6902, 603.5471
265.1723, 569.1232
265.6544, 532.2336
266.1365, 494.3783
266.6187, 461.4779
267.1008, 437.7533
267.5829, 420.5822
268.0650, 404.5720
268.5471, 389.4568
269.0292, 376.0190
269.5114, 365.2759
269.9935, 356.6318
270.4756, 349.4544
270.9577, 344.6040
271.4398, 340.3247
271.9219, 333.7573
272.4041, 324.7633
272.8862, 318.0875
273.3683, 316.9862
273.8504, 319.4523
274.3325, 321.4675
274.8146, 323.3199
275.2968, 323.8618
275.7789, 321.2394
276.2610, 316.3365
276.7431, 312.7664
277.2252, 311.8619
277.7073, 312.8370
278.1895, 314.7801
278.6716, 318.1389
279.1537, 320.3299
279.6358, 317.8560
280.1179, 314.1792
280.6000, 316.8084
281.0822, 328.3165
281.5643, 340.4687
282.0464, 341.9698
282.5285, 331.6153
283.0106, 325.9950
283.4927, 328.8665
283.9749, 336.0484
284.4570, 345.9504
284.9391, 357.7594
285.4212, 366.5663
285.9033, 367.4363
286.3854, 360.4946
286.8676, 357.4007
287.3497, 360.8320
287.8318, 365.1218
288.3139, 366.8977
288.7960, 367.2368
289.2781, 369.5974
289.7603, 376.2353
290.2424, 385.7778
290.7245, 392.2823
291.2066, 392.0939
291.6887, 393.6044
292.1708, 399.7805
292.6530, 407.7274
293.1351, 413.5820
293.6172, 416.0185
294.0993, 416.9011
294.5814, 419.3745
295.0635, 423.1740
295.5457, 429.4823
296.0278, 439.9765
296.5099, 451.5210
296.9920, 462.0948
297.4741, 471.3993
297.9562, 479.8691
298.4384, 487.7370
298.9205, 494.6422
299.4026, 503.6661
299.8847, 516.1399
300.3668, 529.3175
300.8489, 542.5389
301.3311, 555.7889
301.8131, 569.0372
302.2953, 582.1176
302.7774, 595.3668
303.2595, 610.5911
303.7416, 628.9433
304.2237, 647.7209
304.7058, 663.6699
305.1880, 680.8145
305.6701, 703.8994
306.1522, 734.7674
306.6343, 770.3235
307.1164, 805.1114
307.5985, 837.5738
308.0807, 874.6108
308.5628, 916.4257
309.0449, 964.1259
309.5270, 1020.330
310.0091, 1084.737
310.4912, 1150.974
310.9734, 1213.824
311.4555, 1273.668
311.9376, 1332.873
312.4197, 1388.720
312.9018, 1448.082
313.3839, 1514.487
313.8661, 1587.307
314.3482, 1664.368
314.8303, 1742.396
315.3124, 1825.129
315.7945, 1922.845
316.2766, 2038.510
316.7588, 2150.801
317.2409, 2241.873
317.7230, 2323.484
318.2051, 2413.878
318.6872, 2512.934
319.1693, 2624.057
319.6515, 2752.391
320.1336, 2895.206
320.6157, 3044.932
321.0978, 3202.535
321.5799, 3358.760
322.0620, 3496.945
322.5442, 3612.522
323.0263, 3737.427
323.5084, 3899.814
323.9905, 4068.975
324.4726, 4208.570
324.9547, 4312.960
325.4369, 4386.685
325.9190, 4433.899
326.4011, 4451.862
326.8832, 4442.089
327.3653, 4406.654
327.8474, 4343.116
328.3296, 4243.989
328.8117, 4114.477
329.2938, 3967.847
329.7759, 3810.013
330.2580, 3642.834
330.7401, 3479.806
331.2223, 3327.897
331.7044, 3170.488
332.1865, 2997.059
332.6686, 2820.794
333.1507, 2654.382
333.6328, 2502.400
334.1150, 2362.701
334.5971, 2231.593
335.0792, 2110.558
335.5613, 1996.220
336.0434, 1887.330
336.5255, 1785.479
337.0077, 1694.725
337.4898, 1612.931
337.9719, 1532.295
338.4540, 1444.764
338.9361, 1352.913
339.4182, 1281.481
339.9004, 1247.570
340.3825, 1209.995
340.8646, 1149.725
341.3467, 1081.493
341.8288, 1024.694
342.3109, 987.1926
342.7931, 959.5290
343.2752, 928.3585
343.7573, 893.1230
344.2394, 857.8425
344.7215, 821.5928
345.2036, 787.1376
345.6858, 755.9310
346.1679, 728.0659
346.6500, 704.1359
347.1321, 686.1041
347.6142, 672.2776
348.0963, 657.9950
348.5785, 642.7845
349.0606, 627.0701
349.5427, 609.6873
350.0248, 591.8538
350.5069, 577.6915
350.9890, 570.4784
351.4712, 565.1138
351.9533, 557.3405
352.4354, 547.5966
352.9175, 538.5377
353.3996, 531.8939
353.8817, 526.1542
354.3639, 516.6811
354.8460, 500.5446
355.3281, 487.6180
355.8102, 482.3713
356.2923, 480.4729
356.7744, 477.3158
357.2566, 471.8094
357.7387, 464.6357
358.2208, 456.0769
358.7029, 445.1945
359.1850, 438.4693
359.6671, 437.8461
360.1493, 438.7744
360.6314, 440.7498
361.1135, 442.6222
361.5956, 442.5282
362.0777, 439.3231
362.5598, 433.4830
363.0420, 426.6117
363.5241, 417.7120
364.0062, 409.3745
364.4883, 401.1107
364.9704, 393.9429
365.4525, 388.5382
365.9347, 385.1254
366.4168, 383.7773
366.8989, 385.6485
367.3810, 391.0992
367.8631, 393.9500
368.3452, 393.3422
368.8274, 390.6209
369.3095, 385.3073
369.7916, 378.5815
370.2737, 373.2054
370.7558, 370.6911
371.2379, 370.0712
371.7201, 369.5911
372.2022, 369.1099
372.6843, 370.2607
373.1664, 375.2440
373.6485, 381.3381
374.1306, 384.4403
374.6128, 383.9218
375.0949, 382.2379
375.5770, 377.3800
376.0591, 372.7974
376.5412, 377.2108
377.0233, 393.3034
377.5055, 411.3132
377.9876, 420.9296
378.4697, 421.0144
378.9518, 423.6304
379.4339, 427.9149
379.9160, 435.6444
380.3982, 447.8761
380.8803, 464.4376
381.3624, 485.4798
381.8445, 511.6251
382.3266, 540.3683
382.8087, 564.5124
383.2909, 578.6547
383.7730, 594.8338
384.2551, 612.7745
384.7372, 633.1077
385.2193, 656.4764
385.7014, 682.9092
386.1836, 712.2290
386.6657, 745.2767
387.1478, 782.3248
387.6299, 815.1757
388.1120, 839.0421
388.5941, 864.4181
389.0763, 892.8631
389.5584, 925.3648
390.0405, 962.7479
390.5226, 1005.680
391.0047, 1053.876
391.4868, 1108.924
391.9690, 1171.404
392.4511, 1233.107
392.9332, 1289.981
393.4153, 1346.798
393.8974, 1407.572
394.3795, 1472.563
394.8617, 1538.787
395.3438, 1610.156
395.8259, 1679.956
396.3080, 1742.234
396.7901, 1797.215
397.2722, 1828.621
397.7544, 1824.627
398.2365, 1785.305
398.7186, 1725.092
399.2007, 1633.633
399.6828, 1534.254
400.1649, 1433.574
400.6471, 1331.605
401.1292, 1224.747
401.6113, 1111.156
402.0934, 1001.107
402.5755, 908.6497
403.0576, 838.1337
403.5398, 774.9280
404.0219, 716.6744
404.5040, 666.1463
404.9861, 626.9275
405.4682, 596.4913
405.9503, 569.4066
406.4325, 542.2143
406.9146, 515.7952
407.3967, 494.1765
407.8788, 480.2226
408.3609, 465.2773
408.8430, 444.2752
409.3252, 423.8228
409.8073, 409.9995
410.2894, 403.4275
410.7715, 398.4058
411.2536, 388.9875
411.7357, 376.5638
412.2179, 369.2442
412.7000, 369.3274
413.1821, 370.3075
413.6642, 368.7073
414.1463, 364.7283
414.6284, 358.1151
415.1106, 346.3563
415.5927, 334.9201
416.0748, 328.3694
416.5569, 325.4626
417.0390, 322.1623
417.5211, 316.8776
418.0033, 311.6268
418.4854, 309.8382
418.9675, 313.2641
419.4496, 314.1165
419.9317, 309.7246
420.4138, 304.6600
420.8960, 301.7214
421.3781, 300.8585
421.8602, 301.4264
422.3423, 303.4039
422.8244, 305.6029
423.3065, 302.5387
423.7887, 287.7578
424.2708, 277.8401
424.7529, 277.3926
425.2350, 280.0524
425.7171, 281.3577
426.1992, 280.3438
426.6814, 277.7607
427.1635, 273.4991
427.6456, 267.8002
428.1277, 263.9739
428.6098, 262.3264
429.0919, 262.0175
429.5741, 264.2766
430.0562, 267.1213
430.5383, 267.1090
431.0204, 262.0731
431.5025, 256.9751
431.9846, 256.3309
432.4668, 259.1085
432.9489, 261.7184
433.4310, 263.3030
433.9131, 264.2860
434.3952, 265.0250
434.8773, 265.4716
435.3595, 266.1995
435.8416, 268.9160
436.3237, 270.4053
436.8058, 267.0315
437.2879, 260.7772
437.7701, 257.0345
438.2522, 258.7297
438.7343, 263.5226
439.2164, 265.4339
439.6985, 262.6370
440.1806, 260.0945
440.6628, 256.9896
441.1449, 254.8675
441.6270, 255.0463
442.1091, 257.2377
442.5912, 260.1475
443.0733, 263.2700
443.5555, 266.1635
444.0376, 266.9088
444.5197, 264.8869
445.0018, 262.4430
445.4839, 260.1256
445.9660, 257.9783
446.4482, 255.8385
446.9303, 253.5737
447.4124, 252.2958
447.8945, 252.7659
448.3766, 254.6962
448.8587, 258.3106
449.3409, 263.8812
449.8230, 267.9258
450.3051, 267.4247
450.7872, 262.7119
451.2693, 258.3116
451.7514, 252.2951
452.2336, 248.7772
452.7157, 251.5116
453.1978, 256.7060
453.6799, 258.5850
454.1620, 255.6534
454.6441, 251.5438
455.1263, 251.2853
455.6084, 256.0253
456.0905, 258.1064
456.5726, 254.8512
457.0547, 251.5506
457.5368, 249.6544
458.0190, 248.7952
458.5011, 248.0776
458.9832, 247.0097
459.4653, 246.5206
459.9474, 248.3277
460.4295, 252.4633
460.9117, 256.4852
461.3938, 261.1427
461.8759, 263.8194
462.3580, 261.6881
462.8401, 255.4640
463.3222, 248.4896
463.8044, 238.6162
464.2865, 230.7294
464.7686, 230.6651
465.2507, 236.7989
465.7328, 242.7946
466.2149, 246.0526
466.6971, 247.2124
467.1792, 247.4254
467.6613, 246.4363
468.1434, 244.9043
468.6255, 241.5347
469.1076, 238.7453
469.5898, 238.3978
470.0719, 240.0061
470.5540, 241.8703
471.0361, 242.9043
471.5182, 243.5200
472.0003, 245.3992
472.4825, 249.9283
472.9646, 251.8866
473.4467, 247.2169
473.9288, 241.6880
474.4109, 238.5067
474.8930, 237.9604
475.3752, 239.4361
475.8573, 245.4005
476.3394, 252.0505
476.8215, 251.5421
477.3036, 243.6429
477.7857, 236.6750
478.2679, 235.0352
478.7500, 236.7535
479.2321, 236.9825
479.7142, 234.7995
480.1963, 233.6456
480.6784, 235.0593
481.1606, 237.1860
481.6427, 238.5073
482.1248, 238.8513
482.6069, 238.5439
483.0890, 237.7276
483.5711, 236.5783
484.0533, 236.1854
484.5354, 237.9638
485.0175, 238.0957
485.4996, 234.1553
485.9817, 229.8854
486.4638, 228.6941
486.9460, 230.6833
487.4281, 232.9145
487.9102, 232.9021
488.3923, 231.3761
488.8744, 230.3082
489.3565, 229.5890
489.8387, 230.2202
490.3208, 234.0113
490.8029, 238.7865
491.2850, 239.8439
491.7671, 235.6631
492.2492, 232.2399
492.7314, 231.9220
493.2135, 233.2448
493.6956, 234.4200
494.1777, 235.3777
494.6598, 237.6929
495.1419, 243.0763
495.6241, 250.4967
496.1062, 253.2354
496.5883, 246.2162
497.0704, 241.5252
497.5525, 241.9981
498.0346, 244.0081
498.5168, 244.8480
498.9989, 244.0741
499.4810, 242.4194
499.9631, 239.4147
500.4452, 236.0473
500.9273, 236.8376
501.4095, 242.9451
501.8916, 248.3482
502.3737, 250.5060
502.8558, 250.3329
503.3379, 248.7510
503.8200, 244.8000
504.3022, 243.6312
504.7843, 250.2557
505.2664, 258.9166
505.7485, 262.1137
506.2306, 259.9484
506.7127, 258.1389
507.1949, 260.7224
507.6770, 266.4090
508.1591, 269.4618
508.6412, 266.5248
509.1233, 265.8833
509.6054, 269.4320
510.0876, 274.1884
510.5697, 278.4547
511.0518, 281.8628
511.5339, 284.3157
512.0161, 285.2420
512.4982, 285.4792
512.9803, 287.7511
513.4624, 292.5252
513.9445, 296.2677
514.4266, 296.5579
514.9088, 296.2721
515.3909, 299.4747
515.8730, 306.4655
516.3551, 312.9145
516.8372, 316.8398
517.3193, 320.1604
517.8015, 324.4715
518.2836, 329.8205
518.7657, 336.1867
519.2478, 343.6866
519.7299, 351.5057
520.2120, 357.4966
520.6942, 359.4123
521.1763, 363.8900
521.6584, 371.0040
522.1405, 380.2400
522.6226, 392.4568
523.1047, 406.6003
523.5869, 420.2686
524.0690, 432.4805
524.5511, 443.1563
525.0332, 450.8588
525.5153, 455.6278
525.9974, 464.1142
526.4796, 479.1344
526.9617, 496.3361
527.4438, 509.4310
527.9259, 519.3163
528.4080, 535.5513
528.8901, 566.0278
529.3723, 596.7744
529.8544, 618.6882
530.3365, 635.1192
530.8186, 652.4728
531.3007, 673.0595
531.7828, 695.2029
532.2650, 716.2717
532.7471, 735.5916
533.2292, 758.6984
533.7113, 793.1452
534.1934, 822.7095
534.6755, 833.9178
535.1577, 840.6644
535.6398, 864.7097
536.1219, 914.0159
536.6040, 965.2599
537.0861, 993.9937
537.5682, 1007.055
538.0504, 1026.909
538.5325, 1056.714
539.0146, 1088.448
539.4967, 1118.113
539.9788, 1144.693
540.4609, 1163.024
540.9431, 1166.952
541.4252, 1172.281
541.9073, 1185.536
542.3894, 1199.447
542.8715, 1207.215
543.3536, 1208.256
543.8358, 1206.113
544.3179, 1204.149
544.8000, 1200.776
545.2821, 1188.413
545.7642, 1164.696
546.2463, 1138.443
546.7285, 1107.684
547.2106, 1078.453
547.6927, 1058.888
548.1748, 1047.704
548.6569, 1028.840
549.1390, 989.5011
549.6211, 943.2543
550.1032, 903.8834
550.5853, 870.7734
551.0674, 841.0832
551.5496, 813.7599
552.0317, 787.2443
552.5138, 758.7020
552.9959, 726.7473
553.4780, 697.1796
553.9601, 670.4323
554.4423, 645.0931
554.9244, 620.8866
555.4065, 597.6035
555.8886, 575.0872
556.3707, 553.1855
556.8528, 531.8923
557.3350, 509.4879
557.8171, 486.8273
558.2992, 472.3885
558.7813, 469.6681
559.2634, 466.4724
559.7455, 453.5812
560.2277, 434.1362
560.7098, 418.8229
561.1919, 409.4741
561.6740, 401.1042
562.1561, 393.0157
562.6382, 384.6261
563.1204, 374.1934
563.6025, 362.3603
564.0846, 352.6764
564.5667, 347.9457
565.0488, 346.8069
565.5309, 343.7566
566.0131, 338.0203
566.4952, 332.3428
566.9773, 328.0945
567.4594, 323.2501
567.9415, 314.8943
568.4236, 304.2856
568.9058, 297.2303
569.3879, 299.7935
569.8700, 303.6875
570.3521, 298.9521
570.8342, 288.2522
571.3163, 280.6483
571.7985, 278.9837
572.2806, 280.4735
572.7627, 282.2219
573.2448, 284.4786
573.7269, 284.6138
574.2090, 281.9312
574.6912, 278.0718
575.1733, 272.0806
575.6554, 265.8374
576.1375, 261.4415
