##NAMES=Hubnerite
##RRUFFID=R050556
##IDEAL CHEMISTRY=Mn^2+^W^6+^O_4_
##LOCALITY=Pasto Bueno, Ancash Department, Peru
##OWNER=RRUFF
##SOURCE=Dave Bunk Minerals
##DESCRIPTION=Blackish brown bladed crystal associated with quartz
##STATUS=The identification of this mineral has been confirmed by X-ray diffraction and chemical analysis
##URL=rruff.info/R050556
##MEASURED CHEMISTRY=Mn^2+^_0.98_W_1.00_O_4_
92.06543, 605.1796
92.54755, 595.5157
93.02966, 596.0795
93.51178, 612.5290
93.99390, 622.5209
94.47601, 621.2201
94.95813, 612.2817
95.44025, 602.6121
95.92236, 597.6447
96.40448, 597.5527
96.88660, 597.0098
97.36871, 595.7670
97.85082, 594.8309
98.33294, 595.9722
98.81506, 599.0868
99.29717, 599.6580
99.77929, 593.2564
100.2614, 580.7855
100.7435, 571.9981
101.2256, 569.4638
101.7078, 571.9702
102.1899, 576.8728
102.6720, 582.5309
103.1541, 592.4452
103.6362, 607.5250
104.1183, 627.6389
104.6005, 653.6873
105.0826, 685.2446
105.5647, 721.7345
106.0468, 768.2818
106.5289, 829.5333
107.0110, 898.6725
107.4931, 977.4688
107.9753, 1066.275
108.4574, 1154.105
108.9395, 1219.527
109.4216, 1254.342
109.9037, 1275.871
110.3858, 1280.461
110.8680, 1276.638
111.3501, 1271.773
111.8322, 1269.636
112.3143, 1270.617
112.7964, 1277.890
113.2785, 1288.100
113.7607, 1307.135
114.2428, 1339.661
114.7249, 1382.854
115.2070, 1430.163
115.6891, 1476.823
116.1712, 1523.358
116.6534, 1571.460
117.1355, 1620.305
117.6176, 1671.306
118.0997, 1725.227
118.5818, 1782.213
119.0639, 1842.678
119.5461, 1905.803
120.0282, 1972.203
120.5103, 2046.023
120.9924, 2125.449
121.4745, 2213.076
121.9566, 2313.607
122.4388, 2420.055
122.9209, 2554.548
123.4030, 2706.842
123.8851, 2885.562
124.3672, 3125.420
124.8493, 3417.477
125.3315, 3752.630
125.8136, 4278.078
126.2957, 5038.803
126.7778, 5982.848
127.2599, 7290.160
127.7420, 8882.498
128.2242, 10398.43
128.7063, 11388.94
129.1884, 11915.26
129.6705, 11661.49
130.1526, 10269.73
130.6347, 8477.648
131.1169, 6728.395
131.5990, 5193.691
132.0811, 3896.792
132.5632, 2900.073
133.0453, 2381.053
133.5274, 1965.663
134.0096, 1669.404
134.4917, 1462.095
134.9738, 1309.689
135.4559, 1200.172
135.9380, 1126.268
136.4201, 1064.958
136.9023, 1016.882
137.3844, 976.7001
137.8665, 944.0062
138.3486, 918.1232
138.8307, 896.0485
139.3128, 876.7438
139.7950, 860.6810
140.2771, 848.0565
140.7592, 839.9694
141.2413, 834.1556
141.7234, 828.2671
142.2055, 822.0759
142.6877, 817.1237
143.1698, 814.9976
143.6519, 814.4163
144.1340, 814.1047
144.6161, 813.5931
145.0982, 813.0277
145.5803, 812.4575
146.0625, 810.3123
146.5446, 811.0236
147.0267, 817.0830
147.5088, 826.4036
147.9909, 835.9415
148.4730, 843.8580
148.9552, 850.2012
149.4373, 855.6884
149.9194, 858.6317
150.4015, 862.2991
150.8836, 867.5916
151.3657, 874.3260
151.8479, 882.0225
152.3300, 890.3571
152.8121, 899.7220
153.2942, 907.5699
153.7763, 912.4949
154.2584, 917.4811
154.7406, 924.1827
155.2227, 932.6055
155.7048, 941.6743
156.1869, 950.2692
156.6690, 958.2287
157.1511, 966.0137
157.6333, 971.6540
158.1154, 978.1823
158.5975, 989.4959
159.0796, 1006.568
159.5617, 1024.511
160.0438, 1036.340
160.5260, 1041.900
161.0081, 1047.462
161.4902, 1054.029
161.9723, 1061.528
162.4544, 1069.697
162.9365, 1078.149
163.4187, 1087.935
163.9008, 1100.817
164.3829, 1116.587
164.8650, 1131.853
165.3471, 1144.662
165.8292, 1155.252
166.3113, 1164.851
166.7935, 1172.700
167.2756, 1180.571
167.7577, 1189.753
168.2398, 1200.306
168.7219, 1211.571
169.2040, 1222.904
169.6862, 1234.233
170.1683, 1245.954
170.6504, 1260.499
171.1325, 1273.767
171.6146, 1282.201
172.0967, 1285.472
172.5789, 1287.726
173.0610, 1295.519
173.5431, 1312.531
174.0252, 1326.735
174.5073, 1336.620
174.9894, 1344.498
175.4716, 1351.260
175.9537, 1357.385
176.4358, 1363.977
176.9179, 1373.321
177.4000, 1387.659
177.8821, 1402.024
178.3643, 1417.268
178.8464, 1432.054
179.3285, 1444.691
179.8106, 1454.542
180.2927, 1462.571
180.7748, 1471.274
181.2570, 1479.333
181.7391, 1489.701
182.2212, 1501.899
182.7033, 1516.744
183.1854, 1535.770
183.6675, 1559.996
184.1497, 1588.171
184.6318, 1616.728
185.1139, 1646.390
185.5960, 1675.257
186.0781, 1704.080
186.5602, 1731.775
187.0423, 1754.761
187.5245, 1769.946
188.0066, 1780.186
188.4887, 1793.339
188.9708, 1811.770
189.4529, 1828.802
189.9350, 1837.757
190.4172, 1839.571
190.8993, 1844.944
191.3814, 1859.341
191.8635, 1880.172
192.3456, 1903.455
192.8277, 1929.317
193.3099, 1956.450
193.7920, 1983.299
194.2741, 2009.623
194.7562, 2037.875
195.2383, 2065.509
195.7204, 2097.440
196.2026, 2138.874
196.6847, 2191.960
197.1668, 2253.208
197.6489, 2316.311
198.1310, 2378.123
198.6131, 2451.659
199.0953, 2536.728
199.5774, 2635.821
200.0595, 2749.804
200.5416, 2878.861
201.0237, 3026.534
201.5058, 3198.068
201.9880, 3388.907
202.4701, 3618.433
202.9522, 3904.616
203.4343, 4216.470
203.9164, 4534.891
204.3985, 4852.479
204.8807, 5149.642
205.3628, 5368.317
205.8449, 5527.246
206.3270, 5560.302
206.8091, 5435.149
207.2912, 5197.634
207.7733, 4881.052
208.2555, 4500.905
208.7376, 4078.147
209.2197, 3690.823
209.7018, 3339.650
210.1839, 3026.986
210.6660, 2757.647
211.1482, 2527.471
211.6303, 2333.162
212.1124, 2173.616
212.5945, 2045.958
213.0766, 1936.806
213.5587, 1852.505
214.0409, 1777.168
214.5230, 1707.547
215.0051, 1644.746
215.4872, 1590.415
215.9693, 1545.641
216.4514, 1509.696
216.9336, 1481.100
217.4157, 1463.633
217.8978, 1446.543
218.3799, 1424.923
218.8620, 1400.860
219.3441, 1379.106
219.8263, 1361.751
220.3084, 1348.744
220.7905, 1339.574
221.2726, 1336.181
221.7547, 1332.695
222.2368, 1325.266
222.7190, 1314.978
223.2011, 1306.357
223.6832, 1301.802
224.1653, 1299.763
224.6474, 1296.643
225.1295, 1291.591
225.6117, 1287.458
226.0938, 1286.711
226.5759, 1288.978
227.0580, 1291.086
227.5401, 1291.294
228.0222, 1291.286
228.5043, 1293.377
228.9865, 1298.136
229.4686, 1303.104
229.9507, 1305.109
230.4328, 1304.189
230.9149, 1306.343
231.3970, 1315.855
231.8792, 1327.556
232.3613, 1336.828
232.8434, 1342.974
233.3255, 1348.848
233.8076, 1356.464
234.2897, 1365.682
234.7719, 1378.296
235.2540, 1397.259
235.7361, 1418.386
236.2182, 1439.080
236.7003, 1459.052
237.1824, 1479.713
237.6646, 1503.270
238.1467, 1530.618
238.6288, 1556.576
239.1109, 1582.751
239.5930, 1605.651
240.0751, 1621.997
240.5573, 1631.951
241.0394, 1639.776
241.5215, 1649.969
242.0036, 1662.801
242.4857, 1677.140
242.9678, 1694.004
243.4500, 1711.462
243.9321, 1727.901
244.4142, 1743.548
244.8963, 1760.488
245.3784, 1781.419
245.8605, 1807.438
246.3427, 1833.416
246.8248, 1856.666
247.3069, 1882.020
247.7890, 1912.000
248.2711, 1946.705
248.7532, 1984.364
249.2354, 2023.555
249.7175, 2063.994
250.1996, 2107.193
250.6817, 2147.854
251.1638, 2195.130
251.6459, 2251.789
252.1281, 2318.991
252.6102, 2396.867
253.0923, 2485.426
253.5744, 2582.896
254.0565, 2701.782
254.5386, 2842.163
255.0208, 2999.134
255.5029, 3187.429
255.9850, 3395.113
256.4671, 3593.426
256.9492, 3763.473
257.4313, 3908.676
257.9135, 3969.997
258.3956, 3955.105
258.8777, 3872.040
259.3598, 3695.975
259.8419, 3448.798
260.3240, 3182.563
260.8062, 2931.429
261.2883, 2695.441
261.7704, 2504.310
262.2525, 2360.791
262.7346, 2245.160
263.2167, 2155.468
263.6989, 2087.956
264.1810, 2037.029
264.6631, 1999.786
265.1452, 1975.640
265.6273, 1959.144
266.1094, 1953.334
266.5916, 1950.121
267.0737, 1946.232
267.5558, 1942.733
268.0379, 1942.494
268.5200, 1947.344
269.0021, 1956.391
269.4843, 1966.013
269.9664, 1974.085
270.4485, 1984.996
270.9306, 2002.333
271.4127, 2023.455
271.8948, 2042.472
272.3770, 2056.410
272.8591, 2067.408
273.3412, 2081.356
273.8233, 2098.383
274.3054, 2116.960
274.7875, 2138.410
275.2697, 2160.848
275.7518, 2180.180
276.2339, 2194.458
276.7160, 2206.448
277.1981, 2221.008
277.6802, 2237.865
278.1623, 2256.780
278.6444, 2279.891
279.1266, 2304.672
279.6087, 2326.019
280.0908, 2341.966
280.5729, 2356.803
281.0550, 2376.652
281.5371, 2401.274
282.0193, 2427.528
282.5014, 2456.401
282.9835, 2485.887
283.4656, 2512.155
283.9477, 2533.880
284.4298, 2556.122
284.9120, 2585.653
285.3941, 2621.346
285.8762, 2654.004
286.3583, 2678.371
286.8404, 2700.264
287.3225, 2726.816
287.8047, 2758.939
288.2868, 2793.485
288.7689, 2829.442
289.2510, 2866.002
289.7331, 2901.126
290.2152, 2932.229
290.6974, 2962.874
291.1795, 2997.291
291.6616, 3035.685
292.1437, 3073.005
292.6258, 3103.907
293.1079, 3132.407
293.5901, 3168.209
294.0722, 3216.425
294.5543, 3267.584
295.0364, 3313.438
295.5185, 3354.464
296.0006, 3395.694
296.4828, 3438.025
296.9649, 3483.190
297.4470, 3532.954
297.9291, 3587.445
298.4112, 3646.364
298.8933, 3710.822
299.3755, 3779.963
299.8576, 3849.650
300.3397, 3916.044
300.8218, 3985.473
301.3039, 4064.439
301.7860, 4152.550
302.2682, 4249.721
302.7503, 4358.670
303.2324, 4477.527
303.7145, 4601.122
304.1966, 4729.450
304.6787, 4861.853
305.1609, 4996.818
305.6430, 5134.764
306.1251, 5277.995
306.6072, 5428.068
307.0893, 5584.161
307.5714, 5746.071
308.0536, 5915.701
308.5357, 6085.161
309.0178, 6244.465
309.4999, 6397.209
309.9820, 6553.540
310.4641, 6714.052
310.9463, 6880.607
311.4284, 7055.306
311.9105, 7238.060
312.3926, 7425.618
312.8747, 7607.710
313.3568, 7794.213
313.8390, 8003.675
314.3211, 8245.744
314.8032, 8505.880
315.2853, 8765.006
315.7674, 9022.096
316.2495, 9307.986
316.7317, 9637.518
317.2138, 10009.57
317.6959, 10411.76
318.1780, 10839.23
318.6601, 11308.00
319.1422, 11832.68
319.6243, 12412.33
320.1064, 13026.40
320.5886, 13673.10
321.0707, 14350.71
321.5528, 15067.31
322.0349, 15829.34
322.5170, 16574.95
322.9991, 17307.24
323.4813, 17999.08
323.9634, 18592.61
324.4455, 19089.00
324.9276, 19448.54
325.4097, 19629.70
325.8918, 19650.71
326.3740, 19513.85
326.8561, 19194.86
327.3382, 18727.84
327.8203, 18147.22
328.3024, 17443.23
328.7845, 16679.91
329.2667, 15866.98
329.7488, 15030.51
330.2309, 14232.10
330.7130, 13487.64
331.1951, 12786.20
331.6772, 12116.57
332.1594, 11478.79
332.6415, 10880.84
333.1236, 10325.70
333.6057, 9816.049
334.0878, 9340.625
334.5699, 8897.935
335.0521, 8496.850
335.5342, 8146.815
336.0163, 7845.156
336.4984, 7571.663
336.9805, 7324.300
337.4626, 7099.187
337.9448, 6891.917
338.4269, 6700.060
338.9090, 6522.054
339.3911, 6355.220
339.8732, 6201.622
340.3553, 6068.710
340.8375, 5959.876
341.3196, 5864.409
341.8017, 5771.718
342.2838, 5681.921
342.7659, 5601.374
343.2480, 5533.459
343.7302, 5474.083
344.2123, 5419.442
344.6944, 5369.437
345.1765, 5325.338
345.6586, 5289.507
346.1407, 5261.315
346.6229, 5232.618
347.1050, 5199.011
347.5871, 5169.054
348.0692, 5148.813
348.5513, 5136.988
349.0334, 5127.909
349.5156, 5118.695
349.9977, 5110.894
350.4798, 5109.477
350.9619, 5118.138
351.4440, 5124.567
351.9261, 5122.024
352.4083, 5115.365
352.8904, 5112.170
353.3725, 5114.655
353.8546, 5121.639
354.3367, 5131.873
354.8188, 5145.605
355.3010, 5161.708
355.7831, 5181.108
356.2652, 5202.179
356.7473, 5223.911
357.2294, 5246.075
357.7115, 5268.613
358.1937, 5292.376
358.6758, 5317.372
359.1579, 5336.087
359.6400, 5337.959
360.1221, 5344.376
360.6042, 5368.436
361.0863, 5405.855
361.5685, 5444.394
362.0506, 5477.567
362.5327, 5506.332
363.0148, 5534.500
363.4969, 5560.557
363.9790, 5587.904
364.4612, 5615.838
364.9433, 5645.857
365.4254, 5680.739
365.9075, 5721.241
366.3896, 5763.217
366.8717, 5800.187
367.3539, 5831.146
367.8360, 5858.309
368.3181, 5870.659
368.8002, 5887.735
369.2823, 5926.001
369.7644, 5983.856
370.2466, 6046.781
370.7287, 6102.415
371.2108, 6150.520
371.6929, 6193.987
372.1750, 6228.185
372.6571, 6263.123
373.1393, 6301.928
373.6214, 6343.636
374.1035, 6386.638
374.5856, 6429.858
375.0677, 6473.689
375.5498, 6519.892
376.0320, 6570.116
376.5141, 6620.554
376.9962, 6669.521
377.4783, 6719.306
377.9604, 6772.846
378.4425, 6830.573
378.9247, 6888.190
379.4068, 6939.417
379.8889, 6981.964
380.3710, 7026.098
380.8531, 7077.846
381.3352, 7125.822
381.8174, 7163.375
382.2995, 7192.395
382.7816, 7219.176
383.2637, 7247.426
383.7458, 7277.413
384.2279, 7311.805
384.7101, 7359.282
385.1922, 7397.286
385.6743, 7409.323
386.1564, 7413.085
386.6385, 7431.848
387.1206, 7475.938
387.6028, 7530.612
388.0849, 7571.538
388.5670, 7594.834
389.0491, 7622.341
389.5312, 7657.524
390.0133, 7700.251
390.4955, 7749.688
390.9776, 7806.151
391.4597, 7872.909
391.9418, 7948.742
392.4239, 8035.829
392.9060, 8146.250
393.3882, 8285.165
393.8703, 8440.974
394.3524, 8612.152
394.8345, 8793.126
395.3166, 8974.420
395.7987, 9169.218
396.2809, 9348.632
396.7630, 9484.347
397.2451, 9579.736
397.7272, 9593.122
398.2093, 9490.454
398.6914, 9295.854
399.1736, 9053.266
399.6557, 8749.841
400.1378, 8438.722
400.6199, 8139.527
401.1020, 7856.009
401.5841, 7598.942
402.0662, 7372.150
402.5483, 7168.937
403.0305, 6986.795
403.5126, 6824.086
403.9947, 6676.909
404.4768, 6548.061
404.9589, 6432.070
405.4410, 6327.559
405.9232, 6233.691
406.4053, 6142.933
406.8874, 6050.760
407.3695, 5958.119
407.8516, 5866.423
408.3337, 5773.946
408.8159, 5684.617
409.2980, 5599.884
409.7801, 5518.701
410.2622, 5439.146
410.7443, 5359.817
411.2264, 5282.579
411.7086, 5210.279
412.1907, 5146.256
412.6728, 5079.433
413.1549, 5006.111
413.6370, 4932.945
414.1191, 4863.628
414.6013, 4798.586
415.0834, 4737.413
415.5655, 4680.439
416.0476, 4627.054
416.5297, 4570.443
417.0118, 4503.890
417.4940, 4442.093
417.9761, 4392.191
418.4582, 4346.544
418.9403, 4295.156
419.4224, 4234.097
419.9045, 4170.224
420.3867, 4115.299
420.8688, 4072.992
421.3509, 4030.800
421.8330, 3988.805
422.3151, 3946.580
422.7972, 3904.716
423.2794, 3862.805
423.7615, 3819.194
424.2436, 3771.917
424.7257, 3721.777
425.2078, 3672.820
425.6899, 3621.637
426.1721, 3578.231
426.6542, 3549.797
427.1363, 3528.402
427.6184, 3504.852
428.1005, 3476.202
428.5826, 3445.086
429.0648, 3414.402
429.5469, 3383.962
430.0290, 3354.327
430.5111, 3326.407
430.9932, 3298.646
431.4753, 3268.568
431.9575, 3236.755
432.4396, 3207.916
432.9217, 3187.670
433.4038, 3170.826
433.8859, 3146.981
434.3680, 3114.902
434.8502, 3084.168
435.3323, 3061.360
435.8144, 3044.393
436.2965, 3026.342
436.7786, 3005.028
437.2607, 2985.583
437.7429, 2972.627
438.2250, 2963.560
438.7071, 2952.880
439.1892, 2939.159
439.6713, 2921.997
440.1534, 2899.035
440.6356, 2866.976
441.1177, 2845.233
441.5998, 2844.863
442.0819, 2847.294
442.5640, 2838.569
443.0461, 2819.842
443.5282, 2800.323
444.0103, 2786.312
444.4925, 2776.647
444.9746, 2764.922
445.4567, 2748.346
445.9388, 2733.208
446.4209, 2719.519
446.9030, 2708.003
447.3852, 2700.779
447.8673, 2697.765
448.3494, 2694.322
448.8315, 2683.505
449.3136, 2662.619
449.7957, 2647.925
450.2779, 2647.014
450.7600, 2644.791
451.2421, 2634.739
451.7242, 2619.704
452.2063, 2605.773
452.6884, 2596.553
453.1706, 2589.779
453.6527, 2579.914
454.1348, 2565.683
454.6169, 2552.567
455.0990, 2542.796
455.5811, 2534.102
456.0633, 2524.602
456.5454, 2514.279
457.0275, 2505.283
457.5096, 2501.092
457.9917, 2499.706
458.4738, 2493.760
458.9560, 2482.283
459.4381, 2467.650
459.9202, 2448.296
460.4023, 2427.316
460.8844, 2410.689
461.3665, 2400.703
461.8487, 2393.563
462.3308, 2387.978
462.8129, 2383.151
463.2950, 2376.485
463.7771, 2367.237
464.2592, 2355.350
464.7414, 2339.090
465.2235, 2317.051
465.7056, 2300.444
466.1877, 2295.288
466.6698, 2292.241
467.1519, 2284.705
467.6341, 2272.403
468.1162, 2256.736
468.5983, 2238.040
469.0804, 2217.507
469.5625, 2201.340
470.0446, 2194.153
470.5268, 2185.593
471.0089, 2175.496
471.4910, 2163.390
471.9731, 2147.779
472.4552, 2129.008
472.9373, 2110.284
473.4195, 2095.165
473.9016, 2083.895
474.3837, 2073.172
474.8658, 2065.923
475.3479, 2055.815
475.8300, 2038.590
476.3122, 2018.233
476.7943, 2000.270
477.2764, 1987.139
477.7585, 1976.440
478.2406, 1964.226
478.7227, 1950.238
479.2049, 1937.582
479.6870, 1927.880
480.1691, 1918.599
480.6512, 1908.368
481.1333, 1897.128
481.6154, 1884.684
482.0976, 1868.600
482.5797, 1852.299
483.0618, 1842.934
483.5439, 1840.814
484.0260, 1835.636
484.5081, 1821.129
484.9902, 1801.148
485.4724, 1783.649
485.9545, 1768.163
486.4366, 1756.134
486.9187, 1750.857
487.4008, 1748.021
487.8829, 1740.968
488.3651, 1728.932
488.8472, 1717.586
489.3293, 1712.469
489.8114, 1713.475
490.2935, 1710.788
490.7756, 1701.866
491.2578, 1692.955
491.7399, 1686.184
492.2220, 1680.333
492.7041, 1673.294
493.1862, 1664.494
493.6683, 1655.745
494.1505, 1649.578
494.6326, 1646.142
495.1147, 1644.772
495.5968, 1649.719
496.0789, 1652.572
496.5610, 1648.749
497.0432, 1640.725
497.5253, 1633.249
498.0074, 1628.684
498.4895, 1626.219
498.9716, 1624.744
499.4537, 1624.474
499.9359, 1623.746
500.4180, 1621.244
500.9001, 1619.012
501.3822, 1619.240
501.8643, 1621.651
502.3464, 1623.361
502.8286, 1622.578
503.3107, 1620.483
503.7928, 1618.099
504.2749, 1615.489
504.7570, 1615.166
505.2391, 1618.996
505.7213, 1625.675
506.2034, 1631.694
506.6855, 1637.045
507.1676, 1641.887
507.6497, 1645.722
508.1318, 1649.360
508.6140, 1653.630
509.0961, 1658.660
509.5782, 1664.076
510.0603, 1669.285
510.5424, 1674.418
511.0245, 1682.544
511.5067, 1697.802
511.9888, 1711.026
512.4709, 1719.664
512.9530, 1726.074
513.4351, 1731.862
513.9172, 1737.880
514.3994, 1745.930
514.8815, 1759.126
515.3636, 1778.102
515.8457, 1794.238
516.3278, 1804.644
516.8099, 1816.177
517.2921, 1832.782
517.7742, 1851.827
518.2563, 1868.421
518.7384, 1879.815
519.2205, 1892.495
519.7026, 1915.633
520.1848, 1947.677
520.6669, 1976.029
521.1490, 1996.567
521.6311, 2015.803
522.1132, 2038.907
522.5953, 2065.740
523.0775, 2097.398
523.5596, 2137.330
524.0417, 2179.049
524.5238, 2216.974
525.0059, 2252.641
525.4880, 2291.266
525.9702, 2334.923
526.4523, 2381.689
526.9344, 2428.951
527.4165, 2476.092
527.8986, 2524.844
528.3807, 2575.749
528.8629, 2627.875
529.3450, 2679.495
529.8271, 2731.844
530.3092, 2788.239
530.7913, 2850.854
531.2734, 2916.788
531.7556, 2978.247
532.2377, 3030.853
532.7198, 3091.027
533.2019, 3165.333
533.6840, 3244.506
534.1661, 3324.794
534.6483, 3406.186
535.1304, 3490.100
535.6125, 3579.439
536.0946, 3670.869
536.5767, 3756.627
537.0588, 3836.063
537.5410, 3924.187
538.0231, 4030.067
538.5052, 4144.248
538.9873, 4251.248
539.4694, 4350.987
539.9515, 4448.827
540.4337, 4551.090
540.9158, 4649.476
541.3979, 4737.063
541.8800, 4813.105
542.3621, 4879.673
542.8442, 4938.581
543.3264, 4987.000
543.8085, 5015.245
544.2906, 5017.426
544.7726, 5005.253
545.2548, 4984.795
545.7369, 4945.817
546.2190, 4876.998
546.7011, 4781.650
547.1832, 4672.872
547.6653, 4560.614
548.1475, 4443.893
548.6296, 4320.373
549.1117, 4189.196
549.5938, 4054.162
550.0759, 3906.479
550.5580, 3761.885
551.0402, 3633.152
551.5223, 3521.000
552.0044, 3413.248
552.4865, 3301.689
552.9686, 3189.882
553.4507, 3083.307
553.9329, 2982.193
554.4150, 2885.949
554.8971, 2793.765
555.3792, 2706.700
555.8613, 2629.504
556.3434, 2565.264
556.8256, 2500.798
557.3077, 2430.580
557.7898, 2360.710
558.2719, 2297.603
558.7540, 2240.991
559.2361, 2187.272
559.7183, 2133.325
560.2004, 2080.771
560.6825, 2035.546
561.1646, 2004.939
561.6467, 1969.772
562.1288, 1922.326
562.6110, 1874.790
563.0931, 1835.808
563.5752, 1805.297
564.0573, 1777.427
564.5394, 1749.027
565.0215, 1719.913
565.5037, 1688.638
565.9858, 1654.243
566.4679, 1623.238
566.9500, 1598.736
567.4321, 1578.400
567.9142, 1559.305
568.3964, 1541.595
568.8785, 1523.171
569.3606, 1503.547
569.8427, 1482.736
570.3248, 1459.800
570.8069, 1435.391
571.2891, 1411.586
571.7712, 1389.645
572.2533, 1369.362
572.7354, 1350.478
573.2175, 1332.614
573.6996, 1316.937
574.1818, 1304.582
574.6639, 1293.193
575.1460, 1281.619
575.6281, 1269.739
576.1102, 1258.084
576.5923, 1247.166
577.0745, 1235.930
577.5566, 1221.499
578.0387, 1203.102
578.5208, 1185.718
579.0029, 1169.555
579.4850, 1155.806
579.9672, 1146.013
580.4493, 1139.420
580.9314, 1132.801
581.4135, 1125.004
581.8956, 1116.663
582.3777, 1108.494
582.8599, 1100.328
583.3420, 1091.345
583.8241, 1081.223
584.3062, 1070.268
584.7883, 1058.508
585.2704, 1045.238
585.7526, 1034.907
586.2347, 1028.146
586.7168, 1023.368
587.1989, 1021.511
587.6810, 1020.692
588.1631, 1018.402
588.6453, 1013.683
