##NAMES=Hubnerite
##RRUFFID=R050556
##IDEAL CHEMISTRY=Mn^2+^W^6+^O_4_
##LOCALITY=Pasto Bueno, Ancash Department, Peru
##OWNER=RRUFF
##SOURCE=Dave Bunk Minerals
##DESCRIPTION=Blackish brown bladed crystal associated with quartz
##STATUS=The identification of this mineral has been confirmed by X-ray diffraction and chemical analysis
##URL=rruff.info/R050556
##MEASURED CHEMISTRY=Mn^2+^_0.98_W_1.00_O_4_
91.11523, 5.121680
91.59735, 6.231688
92.07947, 5.024675
92.56158, 2.309619
93.04370, 0.6403908
93.52582, 2.193513
94.00793, 5.756127
94.49006, 8.647281
94.97218, 10.45340
95.45429, 11.86236
95.93641, 14.47201
96.41853, 18.23194
96.90064, 21.08382
97.38276, 21.44571
97.86488, 19.45886
98.34699, 16.27188
98.82911, 11.24541
99.31123, 5.577235
99.79334, 3.952079
100.2755, 7.263409
100.7576, 11.57098
101.2397, 13.16524
101.7218, 11.43168
102.2039, 9.969338
102.6861, 9.495234
103.1682, 10.00067
103.6503, 11.07827
104.1324, 13.49637
104.6145, 15.65148
105.0966, 15.13146
105.5788, 9.120103
106.0609, 5.379306
106.5430, 6.697087
107.0251, 15.35850
107.5072, 20.80969
107.9893, 20.18137
108.4715, 17.08191
108.9536, 17.99710
109.4357, 26.43280
109.9178, 35.77503
110.3999, 44.09319
110.8820, 50.64242
111.3642, 57.27830
111.8463, 63.93458
112.3284, 70.72742
112.8105, 78.01817
113.2926, 86.69788
113.7747, 95.42751
114.2569, 103.4196
114.7390, 108.8853
115.2211, 115.5968
115.7032, 124.4800
116.1853, 135.3453
116.6674, 147.1771
117.1496, 159.7482
117.6317, 173.2651
118.1138, 187.7737
118.5959, 204.0856
119.0780, 220.8582
119.5602, 237.1713
120.0423, 253.2183
120.5244, 270.0364
121.0065, 288.7345
121.4886, 308.4719
121.9707, 328.2239
122.4529, 345.4094
122.9350, 363.5011
123.4171, 385.0101
123.8992, 410.0338
124.3813, 438.6135
124.8634, 466.4906
125.3456, 497.5595
125.8277, 540.8719
126.3098, 601.7430
126.7919, 676.9513
127.2740, 766.8412
127.7561, 875.5959
128.2383, 982.0981
128.7204, 1080.425
129.2025, 1163.425
129.6846, 1193.583
130.1667, 1126.247
130.6488, 985.9951
131.1310, 838.8644
131.6131, 686.0551
132.0952, 541.3269
132.5773, 430.1235
133.0594, 352.3697
133.5415, 295.1750
134.0237, 252.4329
134.5058, 223.5254
134.9879, 201.5338
135.4700, 186.5541
135.9521, 176.8860
136.4343, 166.6066
136.9164, 155.2398
137.3985, 145.1070
137.8806, 138.5866
138.3627, 136.2022
138.8448, 133.5596
139.3270, 129.6772
139.8091, 124.7094
140.2912, 120.4246
140.7733, 117.1305
141.2554, 113.9080
141.7375, 109.3104
142.2197, 101.8120
142.7018, 97.08616
143.1839, 97.68605
143.6660, 104.2470
144.1481, 105.9758
144.6302, 99.86112
145.1124, 91.43808
145.5945, 87.93929
146.0766, 92.77164
146.5587, 97.29039
147.0408, 99.17096
147.5230, 97.68327
148.0051, 96.27708
148.4872, 93.96375
148.9693, 91.41308
149.4514, 90.50797
149.9335, 93.24407
150.4157, 95.48663
150.8978, 95.93449
151.3799, 93.39454
151.8620, 91.69234
152.3441, 91.09043
152.8262, 91.25939
153.3084, 91.60987
153.7905, 91.83411
154.2726, 92.44312
154.7547, 93.79173
155.2368, 97.21006
155.7189, 99.13258
156.2011, 97.95105
156.6832, 94.91861
157.1653, 93.15089
157.6474, 94.17540
158.1295, 95.92155
158.6116, 97.37316
159.0938, 98.40350
159.5759, 99.07781
160.0580, 99.24033
160.5401, 99.01928
161.0222, 98.85179
161.5044, 98.26896
161.9865, 98.13128
162.4686, 99.07533
162.9507, 102.5586
163.4328, 105.6693
163.9149, 107.2404
164.3971, 107.4686
164.8792, 107.2046
165.3613, 106.1370
165.8434, 105.0706
166.3255, 104.7390
166.8076, 105.5463
167.2898, 106.9878
167.7719, 109.1524
168.2540, 111.9317
168.7361, 114.3567
169.2182, 115.8871
169.7003, 116.7441
170.1825, 117.1903
170.6646, 116.6472
171.1467, 116.1832
171.6288, 116.7108
172.1109, 118.2003
172.5931, 120.0376
173.0752, 122.1703
173.5573, 124.3086
174.0394, 125.9885
174.5215, 125.7827
175.0036, 125.6387
175.4858, 127.9328
175.9679, 132.7389
176.4500, 138.3637
176.9321, 144.5208
177.4142, 150.5395
177.8963, 154.7928
178.3785, 154.4754
178.8606, 152.7119
179.3427, 154.8838
179.8248, 161.3556
180.3069, 168.6422
180.7890, 171.3786
181.2712, 171.4688
181.7533, 175.0352
182.2354, 187.2414
182.7175, 204.6211
183.1996, 218.5434
183.6818, 228.2057
184.1639, 238.4506
184.6460, 255.4181
185.1281, 278.2976
185.6102, 303.8428
186.0923, 330.9960
186.5745, 359.5924
187.0566, 388.3805
187.5387, 417.8696
188.0208, 446.7915
188.5029, 475.0702
188.9850, 502.4752
189.4672, 527.5264
189.9493, 549.5403
190.4314, 568.5844
190.9135, 585.7767
191.3956, 600.8449
191.8777, 614.6805
192.3599, 627.8226
192.8420, 640.2020
193.3241, 655.8432
193.8062, 678.2658
194.2883, 706.9801
194.7704, 733.6718
195.2526, 757.0365
195.7347, 779.8691
196.2168, 807.6508
196.6989, 840.6650
197.1810, 874.9204
197.6632, 906.1652
198.1453, 934.6793
198.6274, 971.4857
199.1095, 1017.826
199.5916, 1071.932
200.0737, 1128.380
200.5559, 1186.577
201.0380, 1252.259
201.5201, 1329.633
202.0022, 1420.064
202.4843, 1513.918
202.9664, 1613.288
203.4486, 1713.214
203.9307, 1806.809
204.4128, 1897.097
204.8949, 1965.988
205.3770, 2007.493
205.8591, 2023.862
206.3413, 1995.482
206.8234, 1915.576
207.3055, 1794.749
207.7876, 1653.944
208.2697, 1487.366
208.7519, 1321.041
209.2340, 1165.394
209.7161, 1019.393
210.1982, 888.8846
210.6803, 773.7713
211.1624, 674.5094
211.6446, 593.7830
212.1267, 535.5604
212.6088, 487.6581
213.0909, 443.9742
213.5730, 404.5045
214.0551, 369.1306
214.5373, 337.3292
215.0194, 309.9030
215.5015, 289.0861
215.9836, 277.0480
216.4657, 267.0425
216.9478, 255.0130
217.4300, 239.3722
217.9121, 226.9107
218.3942, 218.8492
218.8763, 213.8820
219.3584, 208.2927
219.8405, 201.6293
220.3227, 195.2314
220.8048, 189.9125
221.2869, 186.1537
221.7690, 181.9444
222.2511, 177.0600
222.7333, 171.7419
223.2154, 166.7686
223.6975, 161.8728
224.1796, 157.6904
224.6617, 154.5799
225.1438, 152.8314
225.6260, 151.4057
226.1081, 150.2704
226.5902, 149.4561
227.0723, 149.1595
227.5544, 149.7634
228.0365, 150.2789
228.5187, 149.9069
229.0008, 147.1744
229.4829, 147.4323
229.9650, 152.6342
230.4471, 160.3293
230.9292, 163.8723
231.4114, 161.3090
231.8935, 157.6094
232.3756, 154.7733
232.8577, 152.4763
233.3398, 151.7078
233.8220, 152.6463
234.3041, 155.0496
234.7862, 158.2486
235.2683, 161.9108
235.7504, 166.8446
236.2325, 173.3597
236.7147, 181.0463
237.1968, 191.0121
237.6789, 202.7710
238.1610, 216.9949
238.6431, 235.8211
239.1252, 263.6422
239.6074, 289.6332
240.0895, 309.1377
240.5716, 318.8721
241.0537, 331.3311
241.5358, 348.5245
242.0179, 367.4838
242.5001, 382.2242
242.9822, 390.9350
243.4643, 398.3302
243.9464, 405.6657
244.4285, 412.3617
244.9106, 421.0823
245.3928, 432.6386
245.8749, 445.7650
246.3570, 457.9766
246.8391, 467.5094
247.3212, 479.1622
247.8034, 495.0056
248.2855, 516.3942
248.7676, 536.2776
249.2497, 553.2445
249.7318, 569.8798
250.2139, 589.9364
250.6961, 613.5262
251.1782, 640.3431
251.6603, 669.4913
252.1424, 699.9689
252.6245, 739.8891
253.1066, 791.3551
253.5888, 850.6317
254.0709, 914.2596
254.5530, 983.8057
255.0351, 1055.060
255.5172, 1128.109
255.9993, 1204.350
256.4815, 1273.535
256.9636, 1342.656
257.4457, 1396.389
257.9278, 1419.072
258.4099, 1412.049
258.8921, 1369.533
259.3742, 1282.056
259.8563, 1149.673
260.3384, 1019.910
260.8205, 889.9930
261.3026, 768.1992
261.7848, 660.9366
262.2669, 569.4290
262.7490, 491.8296
263.2311, 430.0580
263.7132, 383.2559
264.1953, 343.0316
264.6775, 310.0213
265.1596, 283.0653
265.6417, 261.7868
266.1238, 247.2784
266.6059, 234.8928
267.0880, 224.3366
267.5702, 215.3650
268.0523, 206.8435
268.5344, 198.2888
269.0165, 190.9781
269.4986, 186.4068
269.9807, 185.5114
270.4629, 182.7960
270.9450, 176.7894
271.4271, 168.6089
271.9092, 162.9300
272.3913, 160.0452
272.8734, 158.8272
273.3556, 159.1685
273.8377, 161.5224
274.3198, 162.0778
274.8019, 159.7881
275.2840, 155.9832
275.7661, 154.6222
276.2483, 156.2718
276.7304, 158.0058
277.2125, 157.9453
277.6946, 155.9523
278.1768, 154.1618
278.6589, 152.5240
279.1410, 151.3846
279.6231, 151.5536
280.1052, 153.1402
280.5873, 155.3274
281.0695, 158.1598
281.5516, 161.6281
282.0337, 163.3725
282.5158, 162.7596
282.9979, 161.6456
283.4800, 163.5071
283.9622, 168.5066
284.4443, 172.9818
284.9264, 175.0426
285.4085, 174.9566
285.8906, 175.1661
286.3727, 175.6281
286.8549, 176.5301
287.3370, 178.1835
287.8191, 180.5679
288.3012, 183.2940
288.7833, 186.1170
289.2654, 189.1438
289.7476, 193.0204
290.2297, 197.8372
290.7118, 202.8033
291.1939, 207.0901
291.6760, 210.7536
292.1581, 214.2997
292.6403, 217.5616
293.1224, 220.9736
293.6045, 226.0026
294.0866, 232.6187
294.5687, 239.2876
295.0508, 244.0310
295.5330, 247.6144
296.0151, 252.6079
296.4972, 259.8892
296.9793, 268.6620
297.4614, 277.5603
297.9435, 286.6466
298.4257, 295.8645
298.9078, 304.4971
299.3899, 313.2505
299.8720, 323.2709
300.3541, 334.6677
300.8362, 347.8730
301.3184, 363.2150
301.8005, 380.8667
302.2826, 400.8613
302.7647, 423.5800
303.2469, 448.6569
303.7290, 475.9504
304.2111, 505.0902
304.6932, 537.0133
305.1753, 571.3013
305.6574, 608.6249
306.1396, 649.2857
306.6217, 696.3630
307.1038, 745.8394
307.5859, 792.6405
308.0680, 836.4207
308.5501, 882.2930
309.0323, 935.9442
309.5144, 994.0760
309.9965, 1051.206
310.4786, 1103.852
310.9607, 1156.222
311.4428, 1212.829
311.9250, 1273.288
312.4071, 1332.296
312.8892, 1380.984
313.3713, 1427.362
313.8534, 1480.316
314.3355, 1546.356
314.8177, 1615.888
315.2998, 1683.340
315.7819, 1749.375
316.2640, 1819.709
316.7461, 1896.111
317.2282, 1977.424
317.7104, 2063.369
318.1925, 2152.231
318.6746, 2248.027
319.1567, 2353.730
319.6388, 2468.038
320.1209, 2584.712
320.6031, 2702.704
321.0852, 2821.894
321.5673, 2945.413
322.0494, 3081.179
322.5315, 3203.478
323.0136, 3312.197
323.4958, 3403.412
323.9779, 3470.720
324.4600, 3513.108
324.9421, 3531.608
325.4242, 3527.729
325.9064, 3503.664
326.3885, 3448.980
326.8706, 3353.596
327.3527, 3231.128
327.8348, 3094.853
328.3170, 2935.935
328.7991, 2772.201
329.2812, 2604.451
329.7633, 2431.577
330.2454, 2267.092
330.7275, 2113.701
331.2097, 1968.169
331.6918, 1828.366
332.1739, 1690.267
332.6560, 1563.606
333.1381, 1453.140
333.6202, 1356.167
334.1024, 1264.412
334.5845, 1178.380
335.0666, 1098.350
335.5487, 1024.754
336.0308, 959.3783
336.5129, 897.2179
336.9951, 836.8661
337.4772, 780.8030
337.9593, 732.2065
338.4414, 692.4362
338.9235, 655.9423
339.4056, 620.0934
339.8878, 585.0656
340.3699, 552.3188
340.8520, 521.2312
341.3341, 493.3980
341.8162, 470.6645
342.2983, 453.6112
342.7805, 437.3919
343.2626, 420.7879
343.7447, 403.8381
344.2268, 387.2832
344.7089, 370.7815
345.1910, 355.7044
345.6732, 344.4299
346.1553, 336.2919
346.6374, 326.9901
347.1195, 314.9847
347.6016, 301.9715
348.0837, 291.2102
348.5659, 282.5592
349.0480, 275.1319
349.5301, 269.2936
350.0122, 264.2130
350.4944, 257.6459
350.9765, 248.9398
351.4586, 240.0747
351.9407, 233.6670
352.4228, 229.2677
352.9049, 225.3860
353.3871, 221.4232
353.8692, 217.4696
354.3513, 213.6536
354.8334, 209.9828
355.3155, 206.3844
355.7976, 202.3632
356.2798, 198.4130
356.7619, 195.2920
357.2440, 194.3561
357.7261, 193.5499
358.2082, 191.1266
358.6903, 187.3128
359.1725, 183.6909
359.6546, 181.2122
360.1367, 179.2597
360.6188, 177.3532
361.1009, 175.5683
361.5830, 173.5425
362.0652, 170.7191
362.5473, 167.5139
363.0294, 164.9512
363.5115, 163.5406
363.9936, 162.7306
364.4757, 162.3273
364.9579, 162.4005
365.4400, 162.5582
365.9221, 163.1228
366.4042, 163.6082
366.8863, 163.3978
367.3684, 161.0690
367.8506, 159.3933
368.3327, 159.4407
368.8148, 161.4402
369.2969, 162.3993
369.7790, 160.2572
370.2611, 158.5071
370.7433, 159.6780
371.2254, 165.8993
371.7075, 171.6732
372.1896, 176.5797
372.6717, 180.7409
373.1538, 184.3642
373.6360, 186.4986
374.1181, 189.6185
374.6002, 194.8149
375.0823, 202.2629
375.5645, 211.0760
376.0466, 220.6234
376.5287, 232.0979
377.0108, 247.6789
377.4929, 267.3649
377.9750, 289.7819
378.4572, 314.0375
378.9393, 340.3631
379.4214, 371.1636
379.9035, 407.0176
380.3856, 443.8623
380.8677, 477.0470
381.3499, 506.8298
381.8320, 536.6638
382.3141, 568.2604
382.7962, 599.5648
383.2783, 626.4526
383.7604, 649.0050
384.2426, 670.5980
384.7247, 692.4812
385.2068, 715.1091
385.6889, 740.8917
386.1710, 770.1964
386.6531, 801.4301
387.1353, 832.1929
387.6174, 863.6543
388.0995, 898.9946
388.5816, 938.2821
389.0637, 983.3657
389.5458, 1036.753
390.0280, 1098.887
390.5101, 1167.672
390.9922, 1240.354
391.4743, 1319.244
391.9564, 1408.386
392.4385, 1514.246
392.9207, 1623.558
393.4028, 1728.782
393.8849, 1830.998
394.3670, 1934.304
394.8491, 2052.754
395.3312, 2162.440
395.8134, 2253.322
396.2955, 2330.107
396.7776, 2370.896
397.2597, 2376.271
397.7418, 2341.402
398.2239, 2259.088
398.7061, 2096.835
399.1882, 1919.416
399.6703, 1733.639
400.1524, 1538.526
400.6346, 1358.362
401.1167, 1192.042
401.5988, 1043.515
402.0809, 916.3400
402.5630, 814.2713
403.0451, 726.1908
403.5273, 653.7735
404.0094, 594.6920
404.4915, 544.2996
404.9736, 504.2201
405.4557, 468.6502
405.9378, 434.5627
406.4200, 401.6673
406.9021, 373.9709
407.3842, 352.4885
407.8663, 334.4730
408.3484, 316.5833
408.8305, 298.7227
409.3127, 282.9831
409.7948, 270.2975
410.2769, 259.9172
410.7590, 250.2039
411.2411, 241.1237
411.7232, 232.4542
412.2054, 223.3208
412.6875, 214.2990
413.1696, 207.6174
413.6517, 203.9425
414.1338, 201.1251
414.6159, 196.6951
415.0981, 191.1234
415.5802, 185.7219
416.0623, 180.9060
416.5444, 176.7425
417.0265, 173.7639
417.5086, 171.9281
417.9908, 169.8948
418.4729, 166.7183
418.9550, 162.9473
419.4371, 159.2003
419.9192, 155.3935
420.4013, 151.9016
420.8835, 148.8852
421.3656, 146.3167
421.8477, 144.0549
422.3298, 142.4855
422.8119, 140.9057
423.2940, 138.9066
423.7762, 136.2490
424.2583, 133.8544
424.7404, 131.7570
425.2225, 130.0361
425.7047, 128.7210
426.1868, 128.0354
426.6689, 127.4925
427.1510, 127.1562
427.6331, 126.9755
428.1152, 126.3556
428.5974, 125.2339
429.0795, 123.7497
429.5616, 121.8410
430.0437, 119.3008
430.5258, 117.2198
431.0079, 115.6422
431.4901, 114.5668
431.9722, 114.1708
432.4543, 114.5348
432.9364, 114.7658
433.4185, 114.5430
433.9006, 113.9075
434.3828, 112.8913
434.8649, 111.4524
435.3470, 110.1483
435.8291, 109.5689
436.3112, 109.5490
436.7933, 109.6119
437.2755, 109.7529
437.7576, 109.7537
438.2397, 109.4031
438.7218, 108.6943
439.2039, 107.6010
439.6860, 105.3255
440.1682, 103.0845
440.6503, 102.2663
441.1324, 102.9719
441.6145, 104.2088
442.0966, 106.4784
442.5787, 108.5293
443.0609, 108.9965
443.5430, 105.3650
444.0251, 102.3088
444.5072, 102.0536
444.9893, 103.8377
445.4714, 104.8919
445.9536, 103.3969
446.4357, 102.0470
446.9178, 102.3420
447.3999, 105.6901
447.8820, 107.0161
448.3641, 104.4709
448.8463, 100.8742
449.3284, 99.32083
449.8105, 101.2319
450.2926, 102.6303
450.7747, 102.8147
451.2569, 101.9289
451.7390, 100.7640
452.2211, 99.11872
452.7032, 97.66948
453.1853, 96.89052
453.6674, 96.81483
454.1496, 96.75816
454.6317, 96.78420
455.1138, 96.58208
455.5959, 95.13796
456.0780, 92.64735
456.5602, 91.53407
457.0423, 93.41466
457.5244, 96.70918
458.0065, 98.42195
458.4886, 98.60276
458.9707, 97.94930
459.4529, 96.54214
459.9350, 94.74881
460.4171, 93.07733
460.8992, 91.49110
461.3813, 90.37164
461.8634, 90.26682
462.3456, 90.78554
462.8277, 91.26935
463.3098, 91.85737
463.7919, 91.99240
464.2740, 90.67539
464.7561, 88.10628
465.2383, 87.11215
465.7204, 90.43838
466.2025, 94.30887
466.6846, 96.30482
467.1667, 94.66600
467.6488, 93.54587
468.1310, 93.67254
468.6131, 94.30855
469.0952, 94.24426
469.5773, 92.97102
470.0594, 91.82771
470.5415, 91.27483
471.0237, 91.27388
471.5058, 90.47434
471.9879, 88.43236
472.4700, 86.58136
472.9521, 86.17632
473.4342, 87.29305
473.9164, 88.24218
474.3985, 88.87987
474.8806, 89.29073
475.3627, 89.64418
475.8448, 89.92614
476.3270, 89.97867
476.8091, 89.51527
477.2912, 88.86595
477.7733, 88.95773
478.2554, 89.71669
478.7375, 90.01710
479.2197, 88.17857
479.7018, 85.63910
480.1839, 84.49196
480.6660, 85.47919
481.1481, 86.96532
481.6302, 88.02464
482.1124, 88.84001
482.5945, 89.72083
483.0766, 91.51192
483.5587, 92.72498
484.0408, 92.47684
484.5229, 90.79568
485.0051, 89.12758
485.4872, 87.29244
485.9693, 85.85720
486.4514, 85.20493
486.9335, 85.81174
487.4156, 86.35326
487.8978, 86.84543
488.3799, 87.26285
488.8620, 87.47078
489.3441, 87.12399
489.8262, 87.52621
490.3083, 89.52281
490.7905, 92.68840
491.2726, 93.51432
491.7547, 91.62224
492.2368, 89.28645
492.7189, 87.99782
493.2010, 87.69936
493.6832, 88.22337
494.1653, 89.62951
494.6474, 91.56870
495.1295, 94.21607
495.6116, 97.13953
496.0938, 99.03571
496.5759, 99.12402
497.0580, 98.16615
497.5401, 96.34610
498.0222, 93.93315
498.5044, 92.39205
498.9865, 92.88263
499.4686, 94.36179
499.9507, 96.14868
500.4328, 98.29206
500.9149, 100.1402
501.3971, 101.9123
501.8792, 103.1206
502.3613, 103.2159
502.8434, 100.2459
503.3255, 98.27303
503.8076, 98.34632
504.2898, 100.0484
504.7719, 101.4729
505.2540, 102.3208
505.7361, 103.3263
506.2182, 104.9144
506.7003, 107.2365
507.1825, 109.0657
507.6646, 110.2954
508.1467, 111.2616
508.6288, 112.2810
509.1109, 113.3543
509.5930, 114.5745
510.0752, 116.0899
510.5573, 117.5735
511.0394, 117.9682
511.5215, 117.5302
512.0037, 117.8739
512.4858, 120.9217
512.9679, 124.8422
513.4500, 126.3095
513.9321, 125.2732
514.4142, 125.4429
514.8964, 130.9218
515.3785, 138.3097
515.8606, 143.7997
516.3427, 145.4268
516.8248, 147.0165
517.3069, 150.2109
517.7891, 154.3574
518.2712, 158.2625
518.7533, 160.4825
519.2354, 163.5977
519.7175, 168.7696
520.1996, 175.9554
520.6818, 182.2928
521.1639, 187.1314
521.6460, 191.9471
522.1281, 197.2746
522.6102, 202.7292
523.0923, 210.4978
523.5745, 221.2651
524.0566, 233.3714
524.5387, 244.1776
525.0208, 253.7281
525.5029, 264.4540
525.9850, 277.6099
526.4672, 291.8884
526.9493, 304.3871
527.4314, 315.4527
527.9135, 327.0301
528.3956, 340.1094
528.8777, 354.8414
529.3599, 371.8938
529.8420, 391.6478
530.3241, 410.8939
530.8062, 427.2055
531.2883, 442.3026
531.7704, 457.6322
532.2526, 472.9177
532.7347, 489.7760
533.2168, 509.9648
533.6989, 532.0870
534.1810, 553.4196
534.6631, 572.2075
535.1453, 591.4473
535.6274, 611.5287
536.1095, 632.7234
536.5916, 654.2163
537.0737, 676.5587
537.5558, 698.7220
538.0380, 720.1305
538.5201, 741.0334
539.0022, 760.9351
539.4843, 779.7198
539.9664, 797.1495
540.4485, 812.3670
540.9307, 825.3912
541.4128, 837.2484
541.8949, 849.6810
542.3770, 859.5062
542.8591, 861.0415
543.3412, 854.9803
543.8234, 845.3093
544.3055, 833.7274
544.7876, 820.1100
545.2697, 804.9193
545.7518, 788.3353
546.2339, 768.2015
546.7161, 740.5334
547.1982, 710.5527
547.6803, 682.2834
548.1624, 659.8904
548.6445, 635.4211
549.1266, 606.4581
549.6088, 574.9318
550.0909, 544.6473
550.5730, 515.2142
551.0551, 487.5789
551.5372, 462.3708
552.0193, 439.3698
552.5015, 417.6175
552.9836, 397.2072
553.4657, 377.6864
553.9478, 358.3554
554.4299, 339.3876
554.9120, 322.9605
555.3942, 309.5919
555.8763, 297.3622
556.3584, 283.4171
556.8405, 268.9307
557.3226, 257.1404
557.8047, 250.2781
558.2869, 244.5164
558.7690, 236.4191
559.2511, 226.5897
559.7332, 216.6252
560.2154, 205.2317
560.6975, 195.6366
561.1796, 190.5265
561.6617, 190.1072
562.1439, 188.0381
562.6260, 180.9729
563.1081, 173.4866
563.5902, 168.2663
564.0723, 167.1641
564.5544, 164.2547
565.0366, 158.5713
565.5187, 151.9851
566.0008, 147.2220
566.4829, 144.5823
566.9650, 141.8272
567.4471, 138.3797
567.9293, 134.6017
568.4114, 131.1404
568.8935, 128.0390
569.3756, 126.1893
569.8577, 127.5150
570.3398, 129.9571
570.8220, 129.5078
571.3041, 126.2002
571.7862, 122.6360
572.2683, 120.6165
572.7504, 119.2400
573.2325, 117.5134
573.7147, 115.0059
574.1968, 112.8135
574.6789, 111.5831
575.1610, 110.8238
575.6431, 109.8858
576.1252, 107.9202
576.6074, 106.7132
577.0895, 106.9281
577.5716, 108.0962
578.0537, 108.4192
578.5358, 107.7067
579.0179, 106.5781
579.5001, 105.1339
579.9822, 103.4028
580.4643, 102.0515
580.9464, 101.0886
581.4285, 100.4422
581.9106, 99.97112
582.3928, 99.75676
582.8749, 100.2246
583.3570, 101.5828
583.8391, 102.8753
584.3212, 103.2337
584.8033, 102.8725
585.2855, 102.1615
585.7676, 101.1118
586.2497, 99.87819
586.7318, 98.03631
587.2139, 96.01322
587.6960, 95.03075
