##NAMES=Hubnerite
##RRUFFID=R050139
##IDEAL CHEMISTRY=Mn^2+^W^6+^O_4_
##LOCALITY=Pasto Bueno District, Pallasca Province, Ancash Department, Peru
##OWNER=RRUFF
##SOURCE=Dave Bunk Minerals
##DESCRIPTION=Black tabular crystals associated with quartz
##STATUS=The identification of this mineral has been confirmed by X-ray diffraction and chemical analysis
##URL=rruff.info/R050139
##MEASURED CHEMISTRY=(Mn^2+^_0.79_Fe^2+^_0.20_)W_1.00_O4
93.08527, 0.0000000E+00
93.56738, 314.8896
94.04950, 324.1943
94.53162, 331.1133
95.01373, 330.9769
95.49585, 325.9260
95.97797, 319.1641
96.46008, 313.3811
96.94220, 309.6147
97.42432, 305.1826
97.90643, 299.0694
98.38855, 292.8369
98.87067, 287.1979
99.35278, 282.4384
99.83490, 278.6723
100.3170, 276.1031
100.7991, 274.5002
101.2813, 273.7229
101.7634, 273.4844
102.2455, 274.0488
102.7276, 275.4528
103.2097, 277.5805
103.6918, 280.7124
104.1740, 287.6130
104.6561, 297.3058
105.1382, 310.1989
105.6203, 326.0728
106.1024, 345.0688
106.5845, 367.7564
107.0667, 394.1674
107.5488, 425.5073
108.0309, 463.9301
108.5130, 513.9019
108.9951, 569.0338
109.4772, 622.3607
109.9594, 673.8323
110.4415, 723.7767
110.9236, 775.8610
111.4057, 827.2149
111.8878, 871.0248
112.3699, 903.6009
112.8521, 925.5892
113.3342, 939.7906
113.8163, 939.5001
114.2984, 937.7424
114.7805, 938.8947
115.2626, 943.3106
115.7448, 950.4506
116.2269, 959.8483
116.7090, 971.7909
117.1911, 985.7207
117.6732, 1002.959
118.1553, 1022.262
118.6375, 1043.793
119.1196, 1067.232
119.6017, 1091.484
120.0838, 1114.576
120.5659, 1135.502
121.0480, 1156.617
121.5302, 1179.247
122.0123, 1201.515
122.4944, 1221.209
122.9765, 1237.337
123.4586, 1250.970
123.9407, 1264.495
124.4228, 1278.203
124.9050, 1291.387
125.3871, 1302.670
125.8692, 1312.882
126.3513, 1324.594
126.8334, 1337.315
127.3155, 1354.118
127.7977, 1380.258
128.2798, 1422.118
128.7619, 1463.614
129.2440, 1496.051
129.7261, 1521.976
130.2083, 1521.278
130.6904, 1476.270
131.1725, 1402.323
131.6546, 1306.172
132.1367, 1185.695
132.6188, 1050.514
133.1010, 921.9899
133.5831, 795.5438
134.0652, 686.2145
134.5473, 595.5583
135.0294, 521.3986
135.5115, 460.6460
135.9937, 412.3774
136.4758, 376.0635
136.9579, 345.7260
137.4400, 324.4374
137.9221, 306.3274
138.4042, 290.7192
138.8864, 277.2878
139.3685, 265.6799
139.8506, 255.6867
140.3327, 247.4597
140.8148, 240.2539
141.2969, 234.1057
141.7791, 228.7310
142.2612, 224.0770
142.7433, 220.0986
143.2254, 216.7217
143.7075, 213.9382
144.1896, 211.8559
144.6718, 209.9631
145.1539, 208.4561
145.6360, 207.0318
146.1181, 205.2278
146.6002, 202.8426
147.0823, 200.5501
147.5645, 199.3687
148.0466, 199.1364
148.5287, 198.8570
149.0108, 198.0503
149.4929, 196.8736
149.9750, 195.7821
150.4572, 194.6473
150.9393, 193.9561
151.4214, 194.2278
151.9035, 195.3913
152.3856, 196.5386
152.8677, 196.9169
153.3499, 196.4807
153.8320, 195.9574
154.3141, 195.1396
154.7962, 194.4842
155.2783, 194.3154
155.7604, 194.6483
156.2425, 195.1760
156.7247, 195.4933
157.2068, 195.5078
157.6889, 195.5365
158.1710, 195.2664
158.6531, 195.2134
159.1352, 195.9333
159.6174, 197.5293
160.0995, 199.4707
160.5816, 200.6646
161.0637, 200.4173
161.5458, 200.2731
162.0279, 199.9913
162.5101, 199.9229
162.9922, 200.6045
163.4743, 202.2893
163.9564, 204.4986
164.4385, 205.8239
164.9206, 205.0802
165.4028, 205.0357
165.8849, 206.8526
166.3670, 209.6393
166.8491, 211.7788
167.3312, 212.4404
167.8133, 211.9772
168.2955, 211.5033
168.7776, 210.7458
169.2597, 210.3433
169.7418, 210.8501
170.2239, 212.0999
170.7060, 213.1894
171.1882, 213.5092
171.6703, 213.4910
172.1524, 214.0024
172.6345, 215.2844
173.1166, 216.8058
173.5987, 218.1001
174.0809, 219.1528
174.5630, 220.1626
175.0451, 220.9122
175.5272, 221.7903
176.0093, 223.3047
176.4914, 225.7787
176.9736, 228.6215
177.4557, 230.7458
177.9378, 231.6568
178.4199, 233.1010
178.9020, 235.4544
179.3841, 238.6322
179.8663, 242.4284
180.3484, 246.5640
180.8305, 251.6164
181.3126, 259.6312
181.7947, 274.2117
182.2768, 286.6220
182.7590, 293.4680
183.2411, 297.7804
183.7232, 303.2321
184.2053, 311.8798
184.6874, 323.4276
185.1695, 335.8276
185.6517, 349.6620
186.1338, 363.8579
186.6159, 378.5763
187.0980, 393.5467
187.5801, 408.2563
188.0622, 422.4049
188.5444, 435.9777
189.0265, 449.5365
189.5086, 463.9713
189.9907, 477.5164
190.4728, 489.4565
190.9549, 500.0485
191.4371, 509.8492
191.9192, 519.1979
192.4013, 528.0973
192.8834, 537.2471
193.3655, 547.0048
193.8476, 556.6660
194.3298, 565.8380
194.8119, 574.5932
195.2940, 583.1757
195.7761, 591.8251
196.2582, 600.4659
196.7403, 608.8708
197.2225, 616.4231
197.7046, 624.1744
198.1867, 633.2548
198.6688, 643.7357
199.1509, 654.0088
199.6330, 662.7582
200.1152, 670.5358
200.5973, 678.5798
201.0794, 687.4657
201.5615, 696.4672
202.0436, 704.5782
202.5257, 711.5711
203.0079, 718.5067
203.4900, 726.2756
203.9721, 734.3096
204.4542, 742.0817
204.9363, 750.2087
205.4184, 757.3171
205.9006, 761.3146
206.3827, 763.0641
206.8648, 759.1192
207.3469, 747.9832
207.8290, 731.1850
208.3111, 709.9526
208.7933, 684.3770
209.2754, 655.2918
209.7575, 624.5071
210.2396, 590.4402
210.7217, 557.3983
211.2038, 525.9229
211.6860, 496.2610
212.1681, 468.4329
212.6502, 442.5209
213.1323, 418.5972
213.6144, 397.3160
214.0965, 379.7137
214.5787, 363.7767
215.0608, 349.2307
215.5429, 335.9604
216.0250, 323.9936
216.5071, 313.2929
216.9892, 303.8194
217.4714, 295.1112
217.9535, 286.8064
218.4356, 279.7650
218.9177, 274.4288
219.3998, 270.4278
219.8819, 267.3549
220.3641, 265.0173
220.8462, 263.2710
221.3283, 261.2051
221.8104, 258.3312
222.2925, 255.6975
222.7746, 253.4695
223.2568, 251.6314
223.7389, 250.1505
224.2210, 249.0061
224.7031, 248.2006
225.1852, 247.8079
225.6673, 248.4187
226.1495, 248.7030
226.6316, 247.8317
227.1137, 246.3408
227.5958, 245.4835
228.0779, 246.0453
228.5600, 247.5882
229.0422, 248.3489
229.5243, 247.7310
230.0064, 247.2395
230.4885, 247.4675
230.9706, 248.2778
231.4527, 249.2552
231.9349, 250.1452
232.4170, 251.1657
232.8991, 252.8565
233.3812, 255.5395
233.8633, 258.2179
234.3454, 260.1874
234.8276, 261.6459
235.3097, 263.3847
235.7918, 265.5982
236.2739, 268.4414
236.7560, 272.0749
237.2381, 276.6563
237.7203, 281.4953
238.2024, 286.1708
238.6845, 290.7145
239.1666, 295.2913
239.6487, 300.0185
240.1308, 304.7463
240.6130, 309.3029
241.0951, 313.7050
241.5772, 317.9134
242.0593, 321.6843
242.5414, 325.0756
243.0235, 328.9556
243.5057, 333.2956
243.9878, 338.5126
244.4699, 345.2652
244.9520, 353.6075
245.4341, 361.7982
245.9162, 368.2160
246.3984, 372.8722
246.8805, 377.6513
247.3626, 382.6040
247.8447, 388.0291
248.3268, 394.1844
248.8089, 401.0206
249.2911, 408.1277
249.7732, 415.3456
250.2553, 422.7108
250.7374, 429.3531
251.2195, 434.6941
251.7016, 439.6613
252.1838, 444.4688
252.6659, 449.2246
253.1480, 454.2739
253.6301, 459.8073
254.1122, 465.8426
254.5943, 472.4348
255.0765, 480.8282
255.5586, 488.6611
256.0407, 494.5459
256.5228, 499.0552
257.0049, 503.8817
257.4870, 510.8116
257.9691, 519.9340
258.4513, 526.9167
258.9334, 531.8891
259.4155, 534.2648
259.8976, 533.2335
260.3797, 529.3805
260.8618, 523.8740
261.3440, 517.5917
261.8261, 509.6369
262.3082, 501.6752
262.7903, 489.9951
263.2724, 477.6880
263.7545, 464.5199
264.2367, 451.1166
264.7188, 438.3623
265.2009, 426.9039
265.6830, 416.6113
266.1651, 406.8368
266.6472, 397.6120
267.1294, 388.8820
267.6115, 380.8812
268.0936, 373.3310
268.5757, 365.6675
269.0578, 357.5469
269.5399, 349.3058
270.0221, 342.5064
270.5042, 338.7664
270.9863, 334.7547
271.4684, 329.6726
271.9505, 324.2733
272.4326, 319.5615
272.9148, 315.9786
273.3969, 313.2166
273.8790, 310.4263
274.3611, 306.8734
274.8432, 304.2121
275.3253, 302.9360
275.8075, 302.3931
276.2896, 301.7964
276.7717, 300.8684
277.2538, 299.9980
277.7359, 299.9267
278.2180, 301.2439
278.7002, 302.5532
279.1823, 303.6837
279.6644, 304.8827
280.1465, 306.3432
280.6286, 308.1173
281.1107, 310.2544
281.5929, 312.8549
282.0750, 316.2691
282.5571, 319.3106
283.0392, 321.5109
283.5213, 323.6500
284.0034, 326.4645
284.4856, 330.0324
284.9677, 333.7901
285.4498, 337.0941
285.9319, 339.7809
286.4140, 342.9170
286.8961, 346.4352
287.3783, 350.4308
287.8604, 355.0673
288.3425, 360.2915
288.8246, 365.7647
289.3067, 371.0711
289.7888, 376.2558
290.2710, 382.2771
290.7531, 389.9687
291.2352, 397.6898
291.7173, 404.0139
292.1994, 409.3433
292.6815, 415.5780
293.1637, 424.0130
293.6458, 434.4255
294.1279, 444.9684
294.6100, 455.6060
295.0921, 466.3420
295.5742, 476.6450
296.0564, 486.9824
296.5385, 498.5550
297.0206, 512.0218
297.5027, 527.1542
297.9848, 543.3279
298.4669, 559.7971
298.9491, 578.1339
299.4312, 599.3797
299.9133, 622.9285
300.3954, 647.3920
300.8775, 672.2488
301.3596, 698.2518
301.8418, 726.5761
302.3239, 756.9371
302.8060, 790.3176
303.2881, 826.7239
303.7702, 866.4314
304.2523, 909.8611
304.7345, 957.0403
305.2166, 1007.249
305.6987, 1059.466
306.1808, 1113.822
306.6629, 1168.699
307.1451, 1224.499
307.6272, 1280.443
308.1093, 1335.148
308.5914, 1388.462
309.0735, 1441.732
309.5556, 1496.585
310.0378, 1552.738
310.5199, 1606.815
311.0020, 1657.461
311.4841, 1706.664
311.9662, 1756.730
312.4483, 1807.543
312.9305, 1856.165
313.4126, 1900.736
313.8947, 1941.728
314.3768, 1983.748
314.8589, 2027.271
315.3410, 2071.004
315.8232, 2115.148
316.3053, 2159.220
316.7874, 2200.808
317.2695, 2238.156
317.7516, 2273.067
318.2337, 2310.712
318.7159, 2353.263
319.1980, 2393.363
319.6801, 2426.945
320.1622, 2456.328
320.6443, 2486.522
321.1264, 2519.424
321.6086, 2552.291
322.0907, 2580.627
322.5728, 2605.114
323.0549, 2624.598
323.5370, 2640.431
324.0191, 2650.496
324.5013, 2652.316
324.9834, 2645.520
325.4655, 2629.949
325.9476, 2605.190
326.4297, 2570.869
326.9118, 2526.379
327.3940, 2470.449
327.8761, 2405.336
328.3582, 2331.214
328.8403, 2248.902
329.3224, 2162.929
329.8045, 2075.543
330.2867, 1987.168
330.7688, 1899.379
331.2509, 1810.336
331.7330, 1723.798
332.2151, 1640.571
332.6972, 1561.034
333.1794, 1485.889
333.6615, 1415.612
334.1436, 1349.953
334.6257, 1287.631
335.1078, 1227.594
335.5899, 1172.009
336.0721, 1122.348
336.5542, 1077.074
337.0363, 1034.128
337.5184, 992.4806
338.0005, 952.9131
338.4826, 916.4425
338.9648, 883.6154
339.4469, 851.9045
339.9290, 820.4778
340.4111, 790.4096
340.8932, 762.6497
341.3753, 737.3727
341.8575, 713.7432
342.3396, 691.0129
342.8217, 669.1227
343.3038, 649.2532
343.7859, 632.1229
344.2680, 616.2912
344.7502, 601.0917
345.2323, 586.4743
345.7144, 572.5301
346.1965, 559.3775
346.6786, 546.9211
347.1607, 534.5951
347.6429, 522.0960
348.1250, 510.0441
348.6071, 498.3119
349.0892, 487.1711
349.5713, 477.3260
350.0534, 469.0605
350.5356, 461.7338
351.0177, 453.8782
351.4998, 444.7775
351.9819, 436.6341
352.4640, 430.0118
352.9461, 424.1222
353.4283, 418.2642
353.9104, 412.2753
354.3925, 406.3151
354.8746, 400.5442
355.3567, 394.9833
355.8388, 389.5711
356.3210, 383.9645
356.8031, 378.7563
357.2852, 374.4155
357.7673, 370.7796
358.2494, 367.3447
358.7315, 363.8207
359.2137, 360.1651
359.6958, 356.1504
360.1779, 351.1849
360.6600, 346.5616
361.1421, 342.6499
361.6242, 339.1916
362.1064, 335.7303
362.5885, 332.0877
363.0706, 328.5633
363.5527, 325.8906
364.0348, 324.9843
364.5169, 323.5623
364.9991, 321.3494
365.4812, 318.8601
365.9633, 316.3876
366.4454, 314.0290
366.9275, 311.7952
367.4096, 309.6557
367.8918, 307.5545
368.3739, 305.9097
368.8560, 304.8144
369.3381, 304.0398
369.8202, 303.3149
370.3023, 302.8413
370.7845, 303.1412
371.2666, 304.6533
371.7487, 307.1112
372.2308, 308.9578
372.7129, 309.3358
373.1950, 310.2506
373.6772, 311.7192
374.1593, 313.9787
374.6414, 317.2762
375.1235, 321.7011
375.6056, 327.0913
376.0877, 333.1024
376.5699, 339.6237
377.0520, 347.2154
377.5341, 355.9376
378.0162, 365.6609
378.4983, 376.7588
378.9804, 388.9829
379.4626, 401.4438
379.9447, 413.6554
380.4268, 425.5699
380.9089, 436.0123
381.3910, 443.9369
381.8731, 451.5919
382.3553, 459.9844
382.8374, 468.6476
383.3195, 476.8384
383.8016, 484.1705
384.2837, 490.8106
384.7658, 496.9227
385.2480, 502.0482
385.7301, 508.0751
386.2122, 515.4756
386.6943, 524.1016
387.1764, 534.7474
387.6585, 547.6215
388.1407, 559.5438
388.6228, 566.3767
389.1049, 568.6279
389.5870, 573.1014
390.0691, 581.5933
390.5512, 591.4814
391.0334, 600.7774
391.5155, 609.6809
391.9976, 619.0291
392.4797, 629.3636
392.9618, 640.3447
393.4439, 651.6641
393.9261, 663.5986
394.4082, 674.6097
394.8903, 683.8868
395.3724, 691.5538
395.8545, 698.1827
396.3366, 704.8871
396.8188, 708.6368
397.3009, 708.1850
397.7830, 703.1777
398.2651, 691.6686
398.7472, 672.4324
399.2293, 647.4879
399.7115, 618.9932
400.1936, 587.0593
400.6757, 554.5519
401.1578, 520.7990
401.6399, 487.7099
402.1220, 457.8290
402.6042, 431.4554
403.0863, 407.7838
403.5684, 386.2481
404.0505, 367.1356
404.5326, 350.3118
405.0147, 336.5605
405.4969, 324.2926
405.9790, 312.6353
406.4611, 301.8424
406.9432, 292.8918
407.4253, 286.2926
407.9074, 281.1205
408.3896, 275.2740
408.8717, 267.7904
409.3538, 261.4444
409.8359, 256.8900
410.3180, 253.2587
410.8001, 249.8318
411.2823, 246.4941
411.7644, 243.5098
412.2465, 241.2376
412.7286, 239.7725
413.2107, 237.8576
413.6928, 235.1837
414.1750, 232.4449
414.6571, 229.6387
415.1392, 226.9640
415.6213, 224.7926
416.1034, 223.3253
416.5855, 222.3138
417.0677, 221.0924
417.5498, 219.4674
418.0319, 217.9662
418.5140, 216.5400
418.9961, 215.2875
419.4782, 214.3404
419.9604, 213.6808
420.4425, 213.1093
420.9246, 212.3883
421.4067, 211.4982
421.8888, 210.9028
422.3709, 210.9517
422.8531, 210.8878
423.3352, 210.3522
423.8173, 209.5611
424.2994, 208.8866
424.7815, 208.5290
425.2636, 208.2963
425.7458, 207.7723
426.2279, 206.8391
426.7100, 206.1246
427.1921, 205.9779
427.6742, 205.9954
428.1563, 205.8785
428.6385, 205.6074
429.1206, 205.3701
429.6027, 205.5234
430.0848, 205.8472
430.5669, 205.3948
431.0490, 203.7630
431.5312, 202.1994
432.0133, 201.6983
432.4954, 201.9057
432.9775, 202.2462
433.4596, 202.6795
433.9417, 203.1064
434.4239, 203.4882
434.9060, 203.8069
435.3881, 203.9437
435.8702, 203.8587
436.3523, 203.5623
436.8344, 202.8692
437.3166, 201.5798
437.7987, 201.0254
438.2808, 202.3280
438.7629, 204.1332
439.2450, 204.7622
439.7271, 204.0668
440.2093, 203.1548
440.6914, 202.9165
441.1735, 203.3219
441.6556, 203.6159
442.1377, 203.7361
442.6198, 203.8318
443.1020, 203.8362
443.5841, 203.8784
444.0662, 204.3135
444.5483, 205.2769
445.0304, 206.2251
445.5125, 206.1290
445.9947, 204.1168
446.4768, 203.0667
446.9589, 203.7379
447.4410, 204.5628
447.9231, 204.5134
448.4052, 203.7637
448.8874, 203.1706
449.3695, 203.4170
449.8516, 204.3064
450.3337, 204.6303
450.8158, 204.0028
451.2979, 203.3838
451.7801, 202.8591
452.2622, 202.4792
452.7443, 202.3399
453.2264, 202.4527
453.7085, 202.6407
454.1906, 202.6613
454.6728, 202.5038
455.1549, 202.5487
455.6370, 202.9778
456.1191, 203.4159
456.6012, 203.6339
457.0833, 203.7048
457.5655, 203.8070
458.0476, 204.1012
458.5297, 204.3688
459.0118, 204.2121
459.4939, 203.6178
459.9760, 203.1283
460.4582, 203.0520
460.9403, 203.0781
461.4224, 202.6142
461.9045, 201.5439
462.3866, 201.0110
462.8687, 202.1210
463.3508, 203.8090
463.8329, 204.3111
464.3151, 203.4080
464.7972, 202.3680
465.2793, 202.1701
465.7614, 202.7130
466.2435, 203.0292
466.7256, 202.1279
467.2078, 202.1211
467.6899, 205.0468
468.1720, 209.0459
468.6541, 210.9118
469.1362, 209.5764
469.6183, 206.7202
470.1005, 204.6749
470.5826, 203.5412
471.0647, 203.0335
471.5468, 203.7313
472.0289, 204.4120
472.5110, 204.3286
472.9932, 203.7394
473.4753, 203.3294
473.9574, 203.5108
474.4395, 204.1167
474.9216, 204.6827
475.4037, 205.4514
475.8859, 205.6598
476.3680, 204.4991
476.8501, 203.3333
477.3322, 203.2206
477.8143, 204.1788
478.2964, 205.4254
478.7786, 206.4852
479.2607, 207.3140
479.7428, 207.4594
480.2249, 206.5287
480.7070, 205.7666
481.1891, 205.9870
481.6713, 206.6452
482.1534, 207.0329
482.6355, 206.8987
483.1176, 206.8258
483.5997, 207.4755
484.0818, 208.6324
484.5640, 209.3465
485.0461, 209.2373
485.5282, 209.1542
486.0103, 210.2244
486.4924, 212.2744
486.9745, 213.7314
487.4567, 214.0013
487.9388, 213.9543
488.4209, 213.9725
488.9030, 214.1559
489.3851, 214.8036
489.8672, 216.1037
490.3494, 217.7378
490.8315, 219.0878
491.3136, 220.1615
491.7957, 220.8651
492.2778, 220.7964
492.7599, 220.6771
493.2421, 220.9623
493.7242, 221.6705
494.2063, 222.6395
494.6884, 223.7757
495.1705, 225.0547
495.6526, 226.3374
496.1348, 227.4493
496.6169, 228.8755
497.0990, 231.1334
497.5811, 233.4100
498.0632, 234.8694
498.5453, 235.4675
499.0275, 236.0252
499.5096, 237.3691
499.9917, 239.4265
500.4738, 241.4264
500.9559, 243.4502
501.4380, 245.2239
501.9202, 246.3379
502.4023, 247.2104
502.8844, 248.3960
503.3665, 250.0147
503.8486, 251.9538
504.3307, 254.3350
504.8129, 256.9856
505.2950, 259.1484
505.7771, 260.4825
506.2592, 261.9115
506.7413, 264.4864
507.2234, 268.1481
507.7056, 271.7061
508.1877, 275.2865
508.6698, 278.5304
509.1519, 280.9501
509.6340, 282.8885
510.1161, 285.1297
510.5983, 288.0162
511.0804, 291.2560
511.5625, 294.3961
512.0446, 297.4778
512.5267, 300.3271
513.0089, 302.2993
513.4910, 304.6641
513.9731, 308.4460
514.4552, 313.1571
514.9373, 317.5576
515.4194, 320.8375
515.9016, 323.5844
516.3837, 327.4182
516.8658, 332.7730
517.3479, 337.9925
517.8300, 342.1719
518.3121, 346.6717
518.7943, 352.5195
519.2764, 359.5685
519.7585, 366.7399
520.2406, 373.2728
520.7227, 379.4837
521.2048, 386.1539
521.6870, 393.3223
522.1691, 400.4933
522.6512, 407.2357
523.1333, 414.0104
523.6154, 421.6740
524.0975, 430.3659
524.5797, 439.2460
525.0618, 448.2973
525.5439, 457.2665
526.0260, 465.6092
526.5081, 473.4042
526.9902, 481.3302
527.4724, 489.9567
527.9545, 499.1298
528.4366, 507.6730
528.9187, 515.4583
529.4008, 522.8876
529.8829, 529.7703
530.3651, 536.4340
530.8472, 543.1522
531.3293, 550.0035
531.8114, 556.8961
532.2935, 563.7856
532.7756, 570.6601
533.2578, 577.2894
533.7399, 583.6703
534.2220, 589.7852
534.7041, 595.5647
535.1862, 601.0957
535.6683, 606.4999
536.1505, 611.7687
536.6326, 616.7705
537.1147, 621.6816
537.5968, 626.2684
538.0789, 629.0700
538.5610, 629.5075
539.0432, 629.6934
539.5253, 631.4762
540.0074, 633.9254
540.4895, 634.9260
540.9716, 634.0810
541.4537, 632.1708
541.9359, 629.3463
542.4180, 625.8002
542.9001, 622.0298
543.3822, 618.1256
543.8643, 613.3837
544.3464, 607.0510
544.8286, 599.0961
545.3107, 590.4393
545.7928, 581.2897
546.2749, 571.2745
546.7570, 559.8651
547.2391, 547.6960
547.7213, 535.3665
548.2034, 523.0455
548.6855, 510.6700
549.1676, 497.9873
549.6497, 484.9236
550.1318, 472.3962
550.6140, 460.6732
551.0961, 449.0350
551.5782, 436.8614
552.0603, 424.6990
552.5424, 413.5255
553.0245, 403.6826
553.5067, 394.2973
553.9888, 384.4931
554.4709, 374.4901
554.9530, 364.9748
555.4351, 356.0416
555.9172, 347.7664
556.3994, 340.4447
556.8815, 333.9186
557.3636, 327.1044
557.8457, 319.2411
558.3278, 312.0229
558.8099, 306.2601
559.2921, 301.5192
559.7742, 297.3172
560.2563, 293.4800
560.7384, 289.6451
561.2205, 285.4035
561.7026, 280.7065
562.1848, 276.4382
562.6669, 272.7720
563.1490, 269.3344
563.6311, 266.0979
564.1132, 263.0524
564.5953, 259.9815
565.0775, 256.8978
565.5596, 254.5134
566.0417, 254.3825
566.5238, 256.1139
567.0059, 255.2562
567.4880, 250.7357
567.9702, 245.9412
568.4523, 242.5267
568.9344, 240.0329
569.4165, 238.0070
569.8986, 236.4949
570.3807, 235.0740
570.8629, 233.4995
571.3450, 231.8709
571.8271, 230.2619
572.3092, 228.6938
572.7913, 227.5914
573.2734, 227.4469
573.7556, 228.0215
574.2377, 227.5973
574.7198, 224.8757
575.2019, 222.9373
575.6840, 222.7223
576.1661, 223.0933
576.6483, 223.0273
577.1304, 222.4162
577.6125, 221.7501
578.0946, 221.4595
578.5767, 221.4573
579.0588, 221.2597
579.5410, 220.8177
580.0231, 220.2925
580.5052, 219.5250
580.9873, 218.8291
581.4694, 218.5739
581.9515, 218.7512
582.4337, 218.7962
582.9158, 218.2922
583.3979, 217.5033
583.8800, 216.7153
584.3621, 215.9578
584.8442, 215.7028
585.3264, 216.3452
585.8085, 217.3679
586.2906, 217.6744
586.7727, 216.9741
587.2548, 216.4958
587.7369, 216.4509
588.2191, 216.5730
588.7012, 216.6615
