##NAMES=Humberstonite
##RRUFFID=R060718
##IDEAL CHEMISTRY=K_3_Na_7_Mg_2_(S^6+^O_4_)_6_(N^5+^O_3_)_2_&#183;6H_2_O
##LOCALITY=Officina Alemania, Antofagasta Province, Chile
##OWNER=RRUFF
##SOURCE=Bob Jenkins
##DESCRIPTION=Mass of colorless grains
##STATUS=The identification of this mineral has been confirmed by X-ray diffraction.
##URL=rruff.info/R060718
113.809, 1881.623
114.291, 1959.282
114.773, 2037.156
115.255, 2114.901
115.737, 2194.795
116.219, 2277.759
116.702, 2363.796
117.184, 2449.499
117.666, 2531.820
118.148, 2614.514
118.630, 2701.355
119.112, 2800.138
119.594, 2899.909
120.076, 2994.935
120.559, 3085.008
121.041, 3167.860
121.523, 3244.209
122.005, 3313.063
122.487, 3371.931
122.969, 3427.749
123.451, 3470.481
123.933, 3485.840
124.415, 3464.104
124.898, 3429.168
125.380, 3403.835
125.862, 3386.767
126.344, 3370.406
126.826, 3351.267
127.308, 3329.088
127.790, 3303.215
128.272, 3273.499
128.755, 3240.327
129.237, 3203.563
129.719, 3163.114
130.201, 3121.793
130.683, 3077.252
131.165, 3031.975
131.647, 2998.641
132.129, 2985.185
132.611, 2987.998
133.094, 2993.018
133.576, 3000.268
134.058, 3009.422
134.540, 3018.107
135.022, 3025.920
135.504, 3040.322
135.986, 3069.361
136.468, 3113.416
136.951, 3147.341
137.433, 3169.275
137.915, 3181.982
138.397, 3191.503
138.879, 3197.581
139.361, 3201.566
139.843, 3204.334
140.325, 3206.025
140.807, 3206.150
141.290, 3204.082
141.772, 3200.443
142.254, 3198.352
142.736, 3198.173
143.218, 3199.060
143.700, 3199.506
144.182, 3195.558
144.664, 3199.246
145.146, 3216.201
145.629, 3247.667
146.111, 3266.615
146.593, 3267.052
147.075, 3258.726
147.557, 3251.736
148.039, 3245.972
148.521, 3241.332
149.003, 3237.373
149.486, 3233.378
149.968, 3232.651
150.450, 3237.031
150.932, 3244.478
151.414, 3251.818
151.896, 3262.160
152.378, 3270.223
152.860, 3273.562
153.342, 3266.140
153.824, 3266.021
154.307, 3278.125
154.789, 3298.944
155.271, 3320.095
155.753, 3342.443
156.235, 3363.215
156.717, 3380.518
157.199, 3385.111
157.682, 3397.724
158.164, 3427.264
158.646, 3470.013
159.128, 3510.119
159.610, 3542.926
160.092, 3570.722
160.574, 3594.538
161.056, 3607.162
161.538, 3622.298
162.020, 3646.701
162.503, 3679.527
162.985, 3710.992
163.467, 3734.086
163.949, 3754.305
164.431, 3777.121
164.913, 3806.829
165.395, 3837.875
165.877, 3867.808
166.360, 3896.630
166.842, 3924.002
167.324, 3946.306
167.806, 3967.653
168.288, 3994.509
168.770, 4035.523
169.252, 4079.879
169.734, 4117.762
170.217, 4146.635
170.699, 4176.876
171.181, 4218.177
171.663, 4266.654
172.145, 4314.409
172.627, 4353.685
173.109, 4391.297
173.591, 4435.835
174.073, 4489.353
174.555, 4547.657
175.038, 4606.417
175.520, 4666.382
176.002, 4728.048
176.484, 4797.341
176.966, 4867.766
177.448, 4928.613
177.930, 4973.829
178.413, 5015.105
178.895, 5069.555
179.377, 5136.289
179.859, 5202.418
180.341, 5262.954
180.823, 5317.244
181.305, 5362.715
181.787, 5399.123
182.269, 5426.566
182.751, 5444.344
183.234, 5452.328
183.716, 5455.433
184.198, 5455.897
184.680, 5454.413
185.162, 5454.290
185.644, 5460.358
186.126, 5467.027
186.608, 5462.621
187.091, 5447.463
187.573, 5417.942
188.055, 5360.687
188.537, 5279.860
189.019, 5208.998
189.501, 5164.648
189.983, 5140.156
190.465, 5112.544
190.947, 5083.287
191.430, 5045.583
191.912, 4982.606
192.394, 4896.157
192.876, 4819.919
193.358, 4776.589
193.840, 4761.991
194.322, 4730.744
194.804, 4679.521
195.286, 4619.883
195.769, 4568.930
196.251, 4526.466
196.733, 4488.396
197.215, 4452.981
197.697, 4420.251
198.179, 4389.042
198.661, 4359.335
199.143, 4331.248
199.626, 4305.645
200.108, 4282.506
200.590, 4261.523
201.072, 4241.790
201.554, 4223.041
202.036, 4208.011
202.518, 4196.321
203.000, 4188.667
203.482, 4188.553
203.965, 4197.984
204.447, 4207.286
204.929, 4208.171
205.411, 4198.066
205.893, 4197.199
206.375, 4210.957
206.857, 4233.661
207.339, 4243.928
207.822, 4236.511
208.304, 4230.173
208.786, 4239.835
209.268, 4270.272
209.750, 4296.282
210.232, 4314.686
210.714, 4326.583
211.196, 4336.635
211.678, 4342.938
212.161, 4351.667
212.643, 4369.617
213.125, 4402.238
213.607, 4426.831
214.089, 4439.787
214.571, 4441.799
215.053, 4437.864
215.535, 4424.753
216.018, 4410.530
216.500, 4402.255
216.982, 4401.973
217.464, 4402.268
217.946, 4404.474
218.428, 4407.846
218.910, 4397.180
219.392, 4367.446
219.874, 4329.916
220.357, 4294.077
220.839, 4260.241
221.321, 4228.574
221.803, 4200.901
222.285, 4177.823
222.767, 4146.114
223.249, 4103.875
223.731, 4055.633
224.214, 4004.711
224.696, 3942.646
225.178, 3894.585
225.660, 3868.181
226.142, 3865.518
226.624, 3860.516
227.106, 3854.190
227.588, 3844.483
228.070, 3828.258
228.553, 3800.451
229.035, 3774.846
229.517, 3755.484
229.999, 3743.319
230.481, 3727.868
230.963, 3707.483
231.445, 3685.114
231.927, 3664.478
232.410, 3644.613
232.892, 3628.347
233.374, 3617.737
233.856, 3614.517
234.338, 3606.706
234.820, 3591.296
235.302, 3573.450
235.784, 3559.995
236.266, 3551.504
236.749, 3546.642
237.231, 3546.418
237.713, 3552.753
238.195, 3554.101
238.677, 3546.540
239.159, 3536.662
239.641, 3534.590
240.123, 3544.817
240.605, 3555.713
241.088, 3563.778
241.570, 3568.413
242.052, 3572.546
242.534, 3573.598
243.016, 3575.644
243.498, 3586.356
243.980, 3613.115
244.462, 3636.089
244.945, 3647.187
245.427, 3641.299
245.909, 3643.623
246.391, 3658.095
246.873, 3678.218
247.355, 3693.627
247.837, 3704.197
248.319, 3709.882
248.801, 3707.949
249.284, 3693.236
249.766, 3693.598
250.248, 3719.216
250.730, 3753.684
251.212, 3767.353
251.694, 3745.950
252.176, 3729.218
252.658, 3732.671
253.141, 3763.628
253.623, 3786.281
254.105, 3799.986
254.587, 3806.054
255.069, 3805.595
255.551, 3794.021
256.033, 3784.641
256.515, 3783.445
256.997, 3794.334
257.480, 3795.953
257.962, 3781.299
258.444, 3762.408
258.926, 3762.780
259.408, 3793.169
259.890, 3819.913
260.372, 3828.221
260.854, 3811.824
261.336, 3808.057
261.819, 3823.176
262.301, 3845.233
262.783, 3851.845
263.265, 3834.500
263.747, 3821.835
264.229, 3827.672
264.711, 3858.138
265.193, 3868.972
265.676, 3850.575
266.158, 3822.443
266.640, 3818.094
267.122, 3847.651
267.604, 3872.441
268.086, 3877.173
268.568, 3859.075
269.050, 3842.845
269.532, 3828.118
270.015, 3816.124
270.497, 3811.696
270.979, 3818.910
271.461, 3818.948
271.943, 3801.507
272.425, 3765.002
272.907, 3739.916
273.389, 3728.782
273.871, 3725.842
274.354, 3725.614
274.836, 3730.011
275.318, 3727.596
275.800, 3712.686
276.282, 3685.263
276.764, 3657.954
277.246, 3629.111
277.728, 3602.901
278.211, 3587.255
278.693, 3584.172
279.175, 3574.812
279.657, 3547.137
280.139, 3503.689
280.621, 3482.687
281.103, 3489.362
281.585, 3503.499
282.068, 3499.790
282.550, 3477.300
283.032, 3454.709
283.514, 3436.157
283.996, 3422.198
284.478, 3417.800
284.960, 3424.398
285.442, 3434.892
285.924, 3444.933
286.406, 3454.211
286.889, 3451.884
287.371, 3428.622
287.853, 3391.832
288.335, 3369.822
288.817, 3363.649
289.299, 3364.590
289.781, 3365.842
290.263, 3367.140
290.746, 3366.838
291.228, 3364.841
291.710, 3360.709
292.192, 3351.018
292.674, 3335.460
293.156, 3322.293
293.638, 3321.986
294.120, 3331.511
294.603, 3338.128
295.085, 3337.733
295.567, 3333.338
296.049, 3331.164
296.531, 3331.179
297.013, 3329.605
297.495, 3317.284
297.977, 3300.772
298.459, 3297.434
298.942, 3316.360
299.424, 3344.814
299.906, 3367.422
300.388, 3383.907
300.870, 3394.087
301.352, 3391.302
301.834, 3382.658
302.316, 3381.930
302.798, 3395.661
303.281, 3412.030
303.763, 3417.130
304.245, 3412.770
304.727, 3407.808
305.209, 3409.451
305.691, 3413.315
306.173, 3412.750
306.655, 3404.037
307.138, 3396.345
307.620, 3399.972
308.102, 3411.724
308.584, 3421.946
309.066, 3425.645
309.548, 3425.226
310.030, 3421.830
310.512, 3414.064
310.994, 3408.551
311.477, 3412.767
311.959, 3422.514
312.441, 3429.237
312.923, 3422.343
313.405, 3415.167
313.887, 3421.055
314.369, 3446.353
314.851, 3462.418
315.333, 3445.416
315.816, 3411.679
316.298, 3386.463
316.780, 3381.841
317.262, 3385.606
317.744, 3394.265
318.226, 3408.821
318.708, 3418.602
319.190, 3416.621
319.672, 3409.021
320.155, 3402.939
320.637, 3394.113
321.119, 3392.736
321.601, 3406.446
322.083, 3436.744
322.565, 3460.543
323.047, 3471.649
323.530, 3474.885
324.012, 3474.432
324.494, 3468.020
324.976, 3460.871
325.458, 3451.574
325.940, 3440.352
326.422, 3436.129
326.904, 3447.469
327.386, 3461.089
327.868, 3468.361
328.351, 3465.521
328.833, 3460.469
329.315, 3449.922
329.797, 3436.046
330.279, 3432.067
330.761, 3447.254
331.243, 3463.629
331.725, 3471.624
332.208, 3467.894
332.690, 3461.785
333.172, 3451.989
333.654, 3440.199
334.136, 3431.086
334.618, 3423.082
335.100, 3420.265
335.582, 3425.756
336.065, 3443.770
336.547, 3457.261
337.029, 3465.599
337.511, 3469.956
337.993, 3472.635
338.475, 3473.956
338.957, 3472.294
339.439, 3464.459
339.921, 3449.243
340.404, 3445.381
340.886, 3456.113
341.368, 3471.875
341.850, 3479.507
342.332, 3478.515
342.814, 3475.796
343.296, 3472.422
343.778, 3469.096
344.260, 3472.841
344.743, 3485.889
345.225, 3495.456
345.707, 3480.156
346.189, 3444.125
346.671, 3424.688
347.153, 3438.957
347.635, 3471.855
348.117, 3487.136
348.599, 3484.894
349.082, 3478.812
349.564, 3479.691
350.046, 3485.472
350.528, 3490.587
351.010, 3493.455
351.492, 3495.470
351.974, 3498.752
352.457, 3502.988
352.939, 3506.752
353.421, 3505.863
353.903, 3505.007
354.385, 3512.879
354.867, 3534.326
355.349, 3554.418
355.831, 3557.485
356.313, 3549.110
356.796, 3542.253
357.278, 3547.504
357.760, 3554.832
358.242, 3555.692
358.724, 3548.610
359.206, 3539.502
359.688, 3525.839
360.170, 3513.494
360.652, 3510.606
361.135, 3528.457
361.617, 3549.258
362.099, 3568.089
362.581, 3584.667
363.063, 3590.530
363.545, 3571.008
364.027, 3545.185
364.509, 3529.661
364.991, 3536.481
365.474, 3545.037
365.956, 3551.422
366.438, 3555.828
366.920, 3559.616
367.402, 3563.441
367.884, 3566.518
368.366, 3568.455
368.848, 3562.149
369.331, 3563.942
369.813, 3582.345
370.295, 3608.918
370.777, 3618.900
371.259, 3596.828
371.741, 3576.897
372.223, 3572.883
372.705, 3591.234
373.188, 3605.885
373.670, 3616.910
374.152, 3623.815
374.634, 3624.758
375.116, 3616.792
375.598, 3610.724
376.080, 3610.842
376.562, 3617.081
377.044, 3618.364
377.526, 3611.937
378.009, 3607.193
378.491, 3617.823
378.973, 3645.169
379.455, 3663.723
379.937, 3664.478
380.419, 3653.761
380.901, 3654.076
381.384, 3666.459
381.866, 3676.161
382.348, 3664.198
382.830, 3637.834
383.312, 3629.919
383.794, 3650.058
384.276, 3681.519
384.758, 3701.981
385.240, 3712.360
385.723, 3718.502
386.205, 3720.753
386.687, 3721.655
387.169, 3725.425
387.651, 3732.598
388.133, 3740.754
388.615, 3748.665
389.097, 3755.961
389.579, 3761.980
390.062, 3764.997
390.544, 3767.765
391.026, 3772.375
391.508, 3778.923
391.990, 3786.328
392.472, 3796.674
392.954, 3806.711
393.436, 3813.347
393.918, 3812.842
394.401, 3811.937
394.883, 3812.368
395.365, 3814.181
395.847, 3817.388
396.329, 3822.730
396.811, 3828.892
397.293, 3835.149
397.775, 3840.815
398.258, 3847.313
398.740, 3852.474
399.222, 3858.717
399.704, 3871.005
400.186, 3901.732
400.668, 3924.423
401.150, 3928.911
401.632, 3910.211
402.114, 3901.690
402.597, 3906.440
403.079, 3918.327
403.561, 3931.302
404.043, 3945.269
404.525, 3961.286
405.007, 3982.229
405.489, 4005.976
405.971, 4016.267
406.453, 4010.306
406.936, 4000.998
407.418, 3996.701
407.900, 3997.441
408.382, 4001.731
408.864, 4010.144
409.346, 4020.773
409.828, 4031.743
410.310, 4042.895
410.793, 4049.266
411.275, 4043.309
411.757, 4030.740
412.239, 4029.288
412.721, 4040.487
413.203, 4054.270
413.685, 4062.070
414.167, 4064.302
414.650, 4061.431
415.132, 4048.679
415.614, 4034.500
416.096, 4026.584
416.578, 4024.748
417.060, 4028.510
417.542, 4043.191
418.024, 4060.579
418.506, 4072.493
418.988, 4076.230
419.471, 4075.991
419.953, 4070.474
420.435, 4062.517
420.917, 4058.318
421.399, 4063.185
421.881, 4069.850
422.363, 4075.553
422.845, 4080.348
423.328, 4083.169
423.810, 4082.152
424.292, 4079.842
424.774, 4078.970
425.256, 4079.364
425.738, 4081.616
426.220, 4086.063
426.702, 4092.571
427.185, 4099.930
427.667, 4108.072
428.149, 4116.952
428.631, 4126.774
429.113, 4138.378
429.595, 4148.008
430.077, 4154.213
430.559, 4159.392
431.041, 4170.339
431.524, 4188.573
432.006, 4203.637
432.488, 4206.144
432.970, 4198.637
433.452, 4210.035
433.934, 4243.229
434.416, 4280.597
434.898, 4298.994
435.380, 4303.262
435.863, 4316.367
436.345, 4348.897
436.827, 4390.425
437.309, 4422.547
437.791, 4447.077
438.273, 4474.860
438.755, 4519.383
439.237, 4569.057
439.720, 4605.207
440.202, 4617.329
440.684, 4638.746
441.166, 4698.155
441.648, 4782.483
442.130, 4869.255
442.612, 4949.521
443.094, 5029.993
443.576, 5109.265
444.059, 5187.176
444.541, 5279.702
445.023, 5406.712
445.505, 5541.530
445.987, 5665.123
446.469, 5743.073
446.951, 5845.182
447.433, 5947.436
447.915, 6073.614
448.398, 6185.980
448.880, 6329.522
449.362, 6465.494
449.844, 6594.337
450.326, 6694.542
450.808, 6831.688
451.290, 6957.451
451.772, 7068.273
452.254, 7156.570
452.737, 7216.984
453.219, 7285.184
453.701, 7371.112
454.183, 7472.105
454.665, 7579.372
455.147, 7695.352
455.629, 7799.403
456.112, 7882.245
456.594, 7941.689
457.076, 7972.831
457.558, 7974.981
458.040, 7947.014
458.522, 7878.655
459.004, 7776.912
459.486, 7665.306
459.968, 7558.829
460.451, 7445.462
460.933, 7301.697
461.415, 7128.814
461.897, 6966.773
462.379, 6842.377
462.861, 6738.563
463.343, 6636.222
463.825, 6527.121
464.307, 6424.091
464.790, 6331.837
465.272, 6249.122
465.754, 6168.032
466.236, 6100.488
466.718, 6022.597
467.200, 5918.769
467.682, 5770.190
468.164, 5655.076
468.647, 5592.667
469.129, 5549.810
469.611, 5489.390
470.093, 5395.892
470.575, 5318.334
471.057, 5265.163
471.539, 5234.324
472.021, 5218.423
472.503, 5223.328
472.986, 5222.075
473.468, 5189.434
473.950, 5127.866
474.432, 5092.714
474.914, 5093.337
475.396, 5102.073
475.878, 5075.316
476.360, 5020.726
476.842, 4974.952
477.325, 4963.272
477.807, 4963.532
478.289, 4938.858
478.771, 4892.105
479.253, 4849.902
479.735, 4834.388
480.217, 4831.801
480.699, 4827.867
481.181, 4821.171
481.664, 4808.866
482.146, 4782.904
482.628, 4750.864
483.110, 4726.033
483.592, 4725.510
484.074, 4720.588
484.556, 4697.364
485.039, 4653.528
485.521, 4614.407
486.003, 4579.690
486.485, 4552.133
486.967, 4534.460
487.449, 4535.145
487.931, 4530.940
488.413, 4519.805
488.895, 4503.675
489.378, 4486.079
489.860, 4465.601
490.342, 4448.422
490.824, 4437.579
491.306, 4432.792
491.788, 4428.430
492.270, 4424.510
492.752, 4421.010
493.234, 4418.714
493.717, 4417.000
494.199, 4413.803
494.681, 4410.212
495.163, 4402.000
495.645, 4373.348
496.127, 4331.879
496.609, 4306.451
497.091, 4327.643
497.573, 4363.714
498.056, 4385.579
498.538, 4390.321
499.020, 4390.932
499.502, 4391.635
499.984, 4392.956
500.466, 4395.422
500.948, 4406.716
501.430, 4410.922
501.913, 4397.945
502.395, 4373.854
502.877, 4359.112
503.359, 4357.986
503.841, 4364.111
504.323, 4377.822
504.805, 4401.853
505.287, 4417.929
505.770, 4424.049
506.252, 4424.538
506.734, 4422.335
507.216, 4416.179
507.698, 4414.434
508.180, 4419.896
508.662, 4429.507
509.144, 4433.881
509.626, 4433.083
510.108, 4435.728
510.591, 4451.496
511.073, 4474.072
511.555, 4487.274
512.037, 4490.199
512.519, 4487.819
513.001, 4478.774
513.483, 4468.740
513.966, 4466.970
514.448, 4479.672
514.930, 4497.040
515.412, 4515.321
515.894, 4533.614
516.376, 4549.074
516.858, 4555.671
517.340, 4563.390
517.822, 4581.639
518.305, 4617.479
518.787, 4632.597
519.269, 4593.392
519.751, 4549.116
520.233, 4542.174
520.715, 4600.861
521.197, 4643.472
521.679, 4659.724
522.161, 4655.827
522.644, 4646.060
523.126, 4626.738
523.608, 4616.584
524.090, 4627.314
524.572, 4656.785
525.054, 4685.547
525.536, 4714.594
526.018, 4736.501
526.500, 4740.230
526.983, 4730.492
527.465, 4720.555
527.947, 4711.943
528.429, 4707.203
528.911, 4712.335
529.393, 4723.644
529.875, 4731.591
530.357, 4726.967
530.839, 4720.828
531.322, 4720.488
531.804, 4726.541
532.286, 4734.285
532.768, 4746.782
533.250, 4757.696
533.732, 4762.312
534.214, 4756.384
534.696, 4749.137
535.179, 4739.040
535.661, 4728.419
536.143, 4721.807
536.625, 4720.504
537.107, 4720.587
537.589, 4721.107
538.071, 4722.081
538.553, 4723.405
539.036, 4724.797
539.518, 4727.646
540.000, 4732.874
540.482, 4740.382
540.964, 4751.759
541.446, 4768.885
541.928, 4783.584
542.410, 4785.355
542.892, 4776.711
543.375, 4763.924
543.857, 4742.785
544.339, 4724.018
544.821, 4719.626
545.303, 4726.912
545.785, 4731.575
546.267, 4728.348
546.749, 4719.382
547.231, 4702.516
547.714, 4668.403
548.196, 4653.079
548.678, 4681.003
549.160, 4721.082
549.642, 4739.559
550.124, 4726.778
550.606, 4708.127
551.088, 4681.912
551.570, 4653.031
552.053, 4642.087
552.535, 4652.303
553.017, 4666.770
553.499, 4678.808
553.981, 4688.252
554.463, 4694.204
554.945, 4696.902
555.427, 4694.084
555.909, 4677.250
556.392, 4653.646
556.874, 4640.127
557.356, 4641.858
557.838, 4652.579
558.320, 4674.638
558.802, 4701.579
559.284, 4718.314
559.766, 4711.412
560.249, 4698.774
560.731, 4688.343
561.213, 4680.476
561.695, 4672.561
562.177, 4655.418
562.659, 4644.441
563.141, 4650.217
563.623, 4689.154
564.106, 4709.395
564.588, 4702.396
565.070, 4683.933
565.552, 4676.619
566.034, 4682.393
566.516, 4690.026
566.998, 4697.538
567.480, 4704.523
567.963, 4709.237
568.445, 4711.813
568.927, 4714.881
569.409, 4718.313
569.891, 4723.900
570.373, 4738.906
570.855, 4764.725
571.337, 4783.742
571.819, 4774.019
572.302, 4753.016
572.784, 4741.668
573.266, 4749.053
573.748, 4761.895
574.230, 4780.996
574.712, 4801.845
575.194, 4814.637
575.676, 4811.389
576.158, 4806.539
576.641, 4801.715
577.123, 4797.010
577.605, 4801.442
578.087, 4819.899
578.569, 4838.776
579.051, 4847.168
579.533, 4843.950
580.015, 4848.316
580.497, 4862.849
580.980, 4880.135
581.462, 4889.942
581.944, 4893.725
582.426, 4897.748
582.908, 4902.629
583.390, 4910.101
583.872, 4923.427
584.354, 4941.307
584.836, 4959.467
585.319, 4978.912
585.801, 4995.538
586.283, 5004.728
586.765, 5005.412
587.247, 5009.308
587.729, 5021.318
588.211, 5036.583
588.693, 5051.638
589.176, 5064.240
589.658, 5080.407
590.140, 5102.729
590.622, 5126.986
591.104, 5146.332
591.586, 5160.985
592.068, 5169.108
592.550, 5164.635
593.032, 5156.297
593.515, 5177.640
593.997, 5228.006
594.479, 5275.365
594.961, 5294.279
595.443, 5298.230
595.925, 5309.685
596.407, 5330.452
596.890, 5352.177
597.372, 5365.353
597.854, 5377.602
598.336, 5397.330
598.818, 5429.953
599.300, 5464.836
599.782, 5496.848
600.264, 5529.097
600.746, 5567.609
601.229, 5618.068
601.711, 5667.047
602.193, 5710.429
602.675, 5748.951
603.157, 5794.404
603.639, 5847.715
604.121, 5905.655
604.603, 5967.470
605.085, 6033.264
605.568, 6100.870
606.050, 6170.889
606.532, 6242.239
607.014, 6319.480
607.496, 6396.541
607.978, 6460.366
608.460, 6502.594
608.942, 6540.359
609.424, 6588.815
609.907, 6642.166
610.389, 6687.485
610.871, 6735.245
611.353, 6760.503
611.835, 6744.193
612.317, 6689.752
612.799, 6645.721
613.281, 6618.324
613.763, 6596.534
614.246, 6574.505
614.728, 6550.514
615.210, 6536.897
615.692, 6531.564
616.174, 6542.007
616.656, 6582.148
617.138, 6649.004
617.620, 6713.198
618.103, 6770.539
618.585, 6823.522
619.067, 6873.693
619.549, 6922.914
620.031, 6975.771
620.513, 7036.448
620.995, 7100.142
621.477, 7163.140
621.959, 7225.676
622.442, 7292.011
622.924, 7363.677
623.406, 7438.812
623.888, 7513.728
624.370, 7583.364
624.852, 7677.833
625.334, 7805.182
625.816, 7948.591
626.299, 8091.076
626.781, 8229.455
627.263, 8393.334
627.745, 8590.688
628.227, 8801.533
628.709, 8997.604
629.191, 9180.636
629.673, 9364.420
630.156, 9566.745
630.638, 9750.364
631.120, 9893.320
631.602, 9982.817
632.084, 9977.061
632.566, 9827.967
633.048, 9599.604
633.530, 9316.338
634.012, 8984.123
634.495, 8628.553
634.977, 8211.595
635.459, 7805.584
635.941, 7451.284
636.423, 7147.925
636.905, 6894.004
637.387, 6695.550
637.869, 6537.013
638.351, 6396.908
638.834, 6274.729
639.316, 6174.095
