##NAMES=Humberstonite
##RRUFFID=R060718
##IDEAL CHEMISTRY=K_3_Na_7_Mg_2_(S^6+^O_4_)_6_(N^5+^O_3_)_2_&#183;6H_2_O
##LOCALITY=Officina Alemania, Antofagasta Province, Chile
##OWNER=RRUFF
##SOURCE=Bob Jenkins
##DESCRIPTION=Mass of colorless grains
##STATUS=The identification of this mineral has been confirmed by X-ray diffraction.
##URL=rruff.info/R060718
122.492, 247.062
122.974, 260.495
123.456, 274.818
123.938, 291.596
124.420, 311.252
124.902, 331.997
125.384, 352.434
125.867, 372.677
126.349, 391.450
126.831, 408.830
127.313, 424.339
127.795, 436.491
128.277, 444.485
128.759, 451.427
129.241, 463.315
129.723, 483.709
130.206, 499.796
130.688, 507.223
131.170, 509.941
131.652, 510.878
132.134, 511.077
132.616, 510.686
133.098, 509.982
133.580, 508.519
134.062, 507.513
134.545, 507.786
135.027, 508.414
135.509, 508.580
135.991, 508.011
136.473, 506.375
136.955, 502.100
137.437, 491.587
137.919, 482.763
138.402, 476.723
138.884, 473.336
139.366, 472.637
139.848, 474.964
140.330, 479.839
140.812, 483.059
141.294, 479.512
141.776, 479.386
142.258, 485.649
142.741, 496.855
143.223, 510.228
143.705, 524.013
144.187, 538.152
144.669, 552.541
145.151, 566.609
145.633, 581.391
146.115, 597.890
146.598, 615.508
147.080, 633.147
147.562, 650.109
148.044, 666.679
148.526, 679.136
149.008, 688.534
149.490, 693.979
149.972, 693.623
150.454, 688.519
150.936, 681.860
151.419, 676.547
151.901, 672.952
152.383, 667.595
152.865, 658.193
153.347, 649.237
153.829, 644.296
154.311, 642.815
154.794, 640.604
155.276, 633.012
155.758, 618.156
156.240, 608.962
156.722, 607.612
157.204, 609.701
157.686, 612.945
158.168, 616.897
158.650, 621.534
159.133, 626.759
159.615, 632.585
160.097, 639.686
160.579, 650.148
161.061, 660.472
161.543, 667.264
162.025, 670.182
162.507, 672.183
162.990, 676.189
163.472, 682.449
163.954, 690.811
164.436, 705.304
164.918, 719.718
165.400, 727.089
165.882, 726.186
166.364, 723.185
166.846, 725.055
167.329, 732.542
167.811, 740.286
168.293, 746.732
168.775, 753.685
169.257, 763.960
169.739, 778.261
170.221, 793.018
170.703, 804.057
171.185, 811.211
171.668, 817.302
172.150, 819.979
172.632, 822.902
173.114, 831.766
173.596, 848.344
174.078, 866.344
174.560, 876.557
175.042, 878.617
175.525, 885.532
176.007, 905.462
176.489, 930.003
176.971, 945.888
177.453, 949.425
177.935, 950.401
178.417, 961.011
178.899, 980.720
179.381, 1001.336
179.863, 1020.890
180.346, 1040.081
180.828, 1061.325
181.310, 1086.027
181.792, 1108.812
182.274, 1121.407
182.756, 1124.983
183.238, 1127.297
183.721, 1131.466
184.203, 1135.479
184.685, 1135.794
185.167, 1131.362
185.649, 1124.581
186.131, 1117.679
186.613, 1110.673
187.095, 1103.151
187.577, 1095.877
188.059, 1087.798
188.542, 1077.146
189.024, 1063.497
189.506, 1047.594
189.988, 1028.986
190.470, 1008.105
190.952, 987.840
191.434, 969.026
191.917, 951.360
192.399, 933.891
192.881, 915.947
193.363, 899.667
193.845, 889.302
194.327, 883.523
194.809, 875.177
195.291, 859.015
195.773, 839.521
196.255, 825.311
196.738, 818.688
197.220, 812.983
197.702, 800.468
198.184, 782.754
198.666, 766.881
199.148, 754.062
199.630, 744.577
200.112, 740.443
200.595, 743.348
201.077, 746.050
201.559, 739.378
202.041, 726.143
202.523, 716.021
203.005, 712.845
203.487, 714.044
203.969, 716.571
204.452, 720.582
204.934, 724.171
205.416, 725.491
205.898, 725.027
206.380, 723.950
206.862, 722.818
207.344, 721.104
207.826, 716.532
208.308, 707.991
208.790, 702.551
209.273, 706.981
209.755, 719.257
210.237, 734.147
210.719, 754.758
211.201, 775.318
211.683, 788.111
212.165, 792.257
212.648, 793.964
213.130, 797.080
213.612, 801.092
214.094, 804.413
214.576, 806.223
215.058, 807.589
215.540, 809.814
216.022, 812.966
216.504, 815.831
216.986, 818.403
217.469, 819.938
217.951, 818.634
218.433, 815.534
218.915, 808.621
219.397, 793.564
219.879, 770.690
220.361, 750.295
220.844, 739.979
221.326, 736.302
221.808, 728.106
222.290, 712.094
222.772, 694.341
223.254, 678.896
223.736, 665.525
224.218, 652.761
224.700, 639.870
225.182, 627.181
225.665, 615.828
226.147, 607.385
226.629, 598.038
227.111, 584.333
227.593, 567.446
228.075, 552.096
228.557, 540.367
229.040, 531.654
229.522, 524.296
230.004, 518.498
230.486, 513.467
230.968, 509.110
231.450, 505.294
231.932, 501.869
232.414, 499.055
232.896, 496.143
233.378, 491.211
233.861, 483.022
234.343, 476.375
234.825, 474.164
235.307, 474.280
235.789, 472.754
236.271, 468.136
236.753, 462.188
237.235, 457.815
237.718, 454.971
238.200, 453.271
238.682, 452.771
239.164, 453.319
239.646, 455.335
240.128, 459.055
240.610, 462.461
241.092, 462.604
241.574, 458.496
242.057, 454.853
242.539, 451.832
243.021, 449.541
243.503, 447.856
243.985, 446.810
244.467, 447.087
244.949, 449.730
245.431, 455.553
245.913, 459.996
246.396, 461.529
246.878, 462.874
247.360, 466.800
247.842, 472.983
248.324, 477.909
248.806, 478.065
249.288, 472.791
249.770, 471.032
250.253, 475.517
250.735, 480.426
251.217, 483.451
251.699, 484.510
252.181, 484.035
252.663, 482.200
253.145, 479.069
253.627, 475.916
254.109, 470.177
254.592, 467.120
255.074, 469.764
255.556, 476.090
256.038, 482.662
256.520, 487.650
257.002, 491.082
257.484, 493.086
257.966, 493.590
258.449, 492.567
258.931, 488.103
259.413, 482.740
259.895, 479.773
260.377, 480.627
260.859, 483.737
261.341, 485.406
261.823, 484.916
262.306, 483.919
262.788, 480.453
263.270, 477.706
263.752, 479.646
264.234, 486.906
264.716, 495.285
265.198, 497.627
265.680, 489.760
266.162, 485.876
266.645, 488.078
267.127, 492.384
267.609, 497.969
268.091, 503.946
268.573, 508.000
269.055, 506.471
269.537, 497.796
270.019, 493.164
270.501, 497.007
270.984, 501.346
271.466, 504.295
271.948, 505.357
272.430, 504.067
272.912, 499.449
273.394, 491.892
273.876, 485.030
274.358, 479.078
274.841, 473.693
275.323, 470.139
275.805, 466.872
276.287, 460.879
276.769, 449.437
277.251, 435.213
277.733, 425.549
278.215, 422.689
278.698, 418.750
279.180, 408.606
279.662, 396.354
280.144, 386.825
280.626, 382.172
281.108, 379.103
281.590, 373.005
282.072, 363.466
282.554, 355.092
283.036, 350.262
283.519, 346.924
284.001, 342.740
284.483, 337.289
284.965, 332.068
285.447, 328.337
285.929, 325.876
286.411, 323.534
286.893, 321.278
287.376, 318.677
287.858, 314.990
288.340, 310.196
288.822, 305.811
289.304, 302.163
289.786, 299.399
290.268, 298.053
290.750, 298.448
291.233, 299.147
291.715, 298.667
292.197, 297.088
292.679, 295.695
293.161, 294.467
293.643, 293.632
294.125, 294.100
294.607, 295.670
295.089, 295.806
295.572, 291.798
296.054, 284.386
296.536, 281.635
297.018, 287.870
297.500, 293.914
297.982, 294.740
298.464, 292.099
298.946, 290.705
299.428, 293.231
299.911, 298.051
300.393, 299.727
300.875, 294.888
301.357, 291.177
301.839, 290.629
302.321, 291.151
302.803, 289.881
303.285, 285.966
303.767, 281.562
304.250, 280.307
304.732, 284.276
305.214, 287.292
305.696, 288.758
306.178, 289.880
306.660, 292.138
307.142, 295.202
307.625, 296.849
308.107, 294.020
308.589, 285.702
309.071, 282.275
309.553, 290.552
310.035, 297.344
310.517, 297.991
310.999, 294.033
311.481, 288.935
311.964, 284.546
312.446, 281.014
312.928, 278.828
313.410, 277.651
313.892, 278.652
314.374, 285.692
314.856, 293.341
315.338, 294.561
315.820, 286.074
316.303, 274.698
316.785, 270.354
317.267, 274.077
317.749, 277.254
318.231, 277.252
318.713, 276.171
319.195, 275.749
319.677, 276.143
320.159, 276.556
320.642, 276.277
321.124, 275.529
321.606, 275.301
322.088, 276.076
322.570, 276.695
323.052, 275.511
323.534, 272.955
324.016, 271.371
324.499, 272.821
324.981, 274.826
325.463, 273.723
325.945, 269.364
326.427, 265.895
326.909, 266.863
327.391, 271.182
327.873, 272.242
328.355, 266.261
328.838, 260.988
329.320, 261.322
329.802, 265.096
330.284, 267.194
330.766, 265.223
331.248, 260.721
331.730, 257.160
332.212, 253.029
332.694, 252.307
333.177, 259.298
333.659, 267.586
334.141, 270.679
334.623, 267.462
335.105, 261.801
335.587, 258.200
336.069, 257.340
336.552, 255.860
337.034, 253.189
337.516, 250.539
337.998, 248.069
338.480, 246.031
338.962, 244.712
339.444, 244.176
339.926, 244.607
340.408, 247.428
340.891, 255.906
341.373, 261.736
341.855, 262.676
342.337, 260.387
342.819, 255.766
343.301, 248.763
343.783, 242.458
344.265, 242.496
344.747, 250.132
345.230, 254.809
345.712, 251.368
346.194, 246.606
346.676, 246.138
347.158, 250.044
347.640, 253.792
348.122, 254.070
348.604, 252.017
349.086, 251.087
349.569, 252.006
350.051, 252.786
350.533, 250.951
351.015, 247.504
351.497, 245.957
351.979, 248.690
352.461, 252.216
352.944, 254.115
353.426, 254.383
353.908, 252.792
354.390, 248.365
354.872, 242.795
355.354, 241.938
355.836, 249.757
356.318, 255.066
356.800, 253.273
357.283, 248.420
357.765, 245.309
358.247, 245.235
358.729, 247.097
359.211, 249.737
359.693, 253.992
360.175, 256.019
360.657, 255.179
361.139, 253.074
361.622, 249.341
362.104, 244.931
362.586, 241.861
363.068, 241.588
363.550, 243.865
364.032, 247.560
364.514, 256.749
364.996, 261.027
365.478, 254.115
365.961, 243.650
366.443, 237.948
366.925, 239.805
367.407, 244.858
367.889, 247.674
368.371, 248.119
368.853, 248.035
369.335, 247.128
369.818, 246.366
370.300, 246.885
370.782, 248.452
371.264, 249.245
371.746, 247.220
372.228, 244.105
372.710, 243.471
373.192, 245.844
373.674, 248.425
374.157, 249.566
374.639, 249.407
375.121, 248.756
375.603, 246.230
376.085, 244.735
376.567, 247.431
377.049, 252.302
377.531, 254.322
378.013, 251.393
378.496, 245.799
378.978, 241.462
379.460, 238.184
379.942, 236.943
380.424, 239.320
380.906, 242.612
381.388, 244.765
381.871, 245.706
382.353, 246.658
382.835, 248.850
383.317, 252.231
383.799, 253.834
384.281, 252.312
384.763, 250.397
385.245, 247.669
385.727, 245.208
386.210, 244.733
386.692, 247.046
387.174, 250.259
387.656, 250.866
388.138, 248.152
388.620, 246.925
389.102, 249.158
389.584, 252.243
390.066, 254.481
390.549, 255.869
391.031, 257.103
391.513, 258.710
391.995, 260.424
392.477, 261.384
392.959, 261.311
393.441, 261.960
393.923, 265.010
394.405, 269.679
394.888, 273.250
395.370, 276.019
395.852, 277.196
396.334, 274.793
396.816, 270.580
397.298, 268.479
397.780, 269.914
398.263, 273.410
398.745, 276.696
399.227, 279.507
399.709, 282.760
400.191, 288.369
400.673, 292.837
401.155, 292.993
401.637, 289.705
402.119, 286.363
402.602, 285.336
403.084, 286.550
403.566, 289.829
404.048, 298.625
404.530, 304.271
405.012, 303.363
405.494, 299.746
405.976, 297.067
406.458, 296.326
406.941, 296.627
407.423, 297.124
407.905, 297.815
408.387, 298.452
408.869, 298.614
409.351, 299.313
409.833, 301.885
410.315, 305.730
410.797, 308.629
411.280, 310.066
411.762, 310.038
412.244, 308.123
412.726, 304.470
413.208, 300.262
413.690, 295.626
414.172, 291.268
414.654, 289.425
415.137, 291.370
415.619, 292.793
416.101, 290.869
416.583, 289.149
417.065, 293.187
417.547, 302.940
418.029, 311.198
418.511, 310.141
418.993, 299.009
419.476, 291.846
419.958, 291.103
420.440, 291.794
420.922, 294.008
421.404, 296.557
421.886, 298.017
422.368, 297.810
422.850, 296.305
423.332, 293.414
423.815, 288.638
424.297, 286.215
424.779, 289.155
425.261, 292.405
425.743, 291.287
426.225, 286.632
426.707, 283.997
427.190, 288.067
427.672, 294.784
428.154, 297.403
428.636, 295.751
429.118, 295.038
429.600, 298.782
430.082, 305.091
430.564, 308.110
431.046, 305.670
431.529, 304.044
432.011, 305.841
432.493, 308.914
432.975, 310.402
433.457, 309.858
433.939, 309.151
434.421, 310.153
434.903, 312.893
435.385, 317.047
435.868, 325.111
436.350, 331.831
436.832, 333.063
437.314, 332.827
437.796, 337.876
438.278, 351.383
438.760, 367.705
439.242, 376.090
439.724, 374.859
440.207, 379.953
440.689, 398.053
441.171, 419.204
441.653, 435.163
442.135, 446.990
442.617, 460.759
443.099, 481.373
443.581, 504.099
444.064, 520.581
444.546, 531.457
445.028, 548.422
445.510, 578.648
445.992, 617.502
446.474, 651.518
446.956, 677.066
447.438, 705.547
447.921, 740.463
448.403, 778.303
448.885, 815.936
449.367, 852.830
449.849, 889.159
450.331, 925.783
450.813, 962.403
451.295, 993.782
451.777, 1011.893
452.259, 1035.283
452.742, 1073.188
453.224, 1115.552
453.706, 1151.265
454.188, 1176.713
454.670, 1198.437
455.152, 1223.576
455.634, 1251.740
456.116, 1279.571
456.599, 1310.270
457.081, 1334.096
457.563, 1341.111
458.045, 1334.977
458.527, 1324.393
459.009, 1312.391
459.491, 1295.274
459.973, 1269.817
460.456, 1237.128
460.938, 1198.659
461.420, 1154.641
461.902, 1108.630
462.384, 1067.002
462.866, 1030.073
463.348, 997.672
463.830, 973.472
464.312, 950.241
464.795, 924.886
465.277, 897.237
465.759, 867.605
466.241, 835.575
466.723, 802.861
467.205, 774.502
467.687, 752.284
468.169, 728.699
468.651, 697.834
469.134, 668.274
469.616, 646.715
470.098, 633.330
470.580, 622.040
471.062, 609.282
471.544, 596.696
472.026, 587.650
472.508, 582.255
472.991, 576.303
473.473, 567.507
473.955, 556.400
474.437, 544.512
474.919, 528.100
475.401, 517.011
475.883, 517.875
476.365, 521.841
476.848, 519.962
477.330, 511.429
477.812, 501.343
478.294, 494.302
478.776, 490.034
479.258, 484.220
479.740, 473.379
480.222, 466.363
480.704, 471.422
481.186, 477.717
481.669, 472.534
482.151, 452.830
482.633, 430.884
483.115, 416.825
483.597, 409.321
484.079, 403.959
484.561, 400.951
485.043, 397.293
485.526, 389.826
486.008, 379.731
486.490, 372.866
486.972, 375.167
487.454, 373.974
487.936, 360.085
488.418, 341.248
488.900, 329.314
489.383, 327.056
489.865, 328.094
490.347, 324.836
490.829, 316.534
491.311, 310.883
491.793, 310.910
492.275, 310.360
492.757, 306.559
493.239, 301.613
493.722, 299.002
494.204, 300.149
494.686, 301.276
495.168, 296.987
495.650, 288.185
496.132, 282.471
496.614, 281.884
497.096, 282.249
497.578, 279.271
498.061, 274.035
498.543, 271.912
499.025, 277.059
499.507, 281.630
499.989, 280.268
500.471, 275.849
500.953, 273.826
501.435, 275.873
501.918, 279.435
502.400, 281.320
502.882, 281.606
503.364, 279.841
503.846, 271.111
504.328, 265.538
504.810, 269.639
505.292, 277.895
505.775, 281.299
506.257, 275.938
506.739, 268.406
507.221, 267.315
507.703, 271.834
508.185, 273.640
508.667, 269.985
509.149, 266.764
509.631, 270.698
510.114, 280.229
510.596, 285.741
511.078, 283.554
511.560, 280.172
512.042, 278.206
512.524, 277.441
513.006, 277.878
513.488, 279.419
513.971, 280.592
514.453, 278.864
514.935, 273.085
515.417, 271.799
515.899, 280.391
516.381, 287.622
516.863, 289.840
517.345, 288.748
517.827, 286.427
518.310, 283.258
518.792, 281.038
519.274, 282.480
519.756, 286.749
520.238, 289.646
520.720, 290.149
521.202, 290.692
521.684, 293.543
522.166, 298.418
522.649, 302.165
523.131, 304.616
523.613, 306.161
524.095, 305.884
524.577, 305.227
525.059, 306.525
525.541, 310.128
526.023, 313.883
526.505, 315.422
526.988, 314.704
527.470, 313.548
527.952, 310.979
528.434, 309.533
528.916, 310.785
529.398, 313.124
529.880, 314.442
530.362, 314.151
530.844, 314.312
531.327, 318.728
531.809, 324.205
532.291, 322.040
532.773, 311.100
533.255, 301.164
533.737, 299.076
534.219, 303.560
534.701, 307.890
535.184, 313.024
535.666, 316.750
536.148, 319.192
536.630, 319.854
537.112, 317.147
537.594, 311.742
538.076, 306.985
538.558, 305.718
539.041, 307.124
539.523, 307.796
540.005, 307.275
540.487, 307.716
540.969, 311.791
541.451, 315.641
541.933, 314.346
542.415, 307.469
542.898, 302.009
543.380, 301.970
543.862, 303.561
544.344, 303.242
544.826, 301.047
545.308, 298.089
545.790, 294.866
546.272, 291.563
546.754, 288.511
547.237, 285.104
547.719, 283.244
548.201, 284.240
548.683, 285.376
549.165, 285.486
549.647, 284.656
550.129, 283.243
550.611, 281.181
551.093, 279.149
551.576, 278.619
552.058, 279.266
552.540, 277.851
553.022, 272.823
553.504, 267.992
553.986, 267.706
554.468, 272.107
554.950, 273.947
555.432, 270.413
555.915, 267.452
556.397, 267.844
556.879, 269.993
557.361, 272.069
557.843, 273.421
558.325, 273.707
558.807, 271.947
559.289, 268.257
559.771, 267.172
560.254, 270.127
560.736, 272.846
561.218, 273.146
561.700, 272.397
562.182, 272.574
562.664, 274.409
563.146, 274.163
563.628, 267.474
564.111, 259.013
564.593, 254.576
565.075, 254.475
565.557, 257.291
566.039, 262.680
566.521, 269.142
567.003, 272.138
567.485, 271.205
567.968, 267.441
568.450, 256.145
568.932, 246.627
569.414, 244.734
569.896, 249.221
570.378, 255.866
570.860, 263.686
571.342, 270.709
571.825, 273.977
572.307, 273.859
572.789, 272.631
573.271, 270.577
573.753, 268.461
574.235, 266.861
574.717, 265.792
575.199, 266.074
575.681, 268.637
576.164, 271.378
576.646, 273.840
577.128, 275.979
577.610, 277.942
578.092, 279.686
578.574, 280.802
579.056, 280.787
579.538, 279.746
580.020, 277.861
580.503, 274.181
580.985, 273.056
581.467, 278.143
581.949, 285.719
582.431, 289.862
582.913, 289.996
583.395, 289.763
583.877, 288.320
584.360, 288.409
584.842, 294.438
585.324, 304.217
585.806, 310.891
586.288, 310.880
586.770, 307.098
587.252, 305.018
587.734, 304.771
588.216, 305.745
588.699, 308.968
589.181, 312.203
589.663, 314.036
590.145, 315.143
590.627, 316.905
591.109, 319.849
591.591, 323.091
592.073, 326.529
592.555, 329.690
593.038, 330.978
593.520, 330.404
594.002, 331.194
594.484, 336.181
594.966, 344.494
595.448, 350.837
595.930, 353.280
596.412, 356.958
596.895, 363.649
597.377, 370.588
597.859, 376.114
598.341, 380.141
598.823, 382.743
599.305, 381.194
599.787, 381.122
600.269, 391.398
600.752, 410.233
601.234, 429.356
601.716, 446.718
602.198, 461.632
602.680, 472.609
603.162, 479.050
603.644, 489.005
604.126, 504.199
604.609, 520.483
605.091, 536.725
605.573, 553.531
606.055, 572.384
606.537, 593.102
607.019, 613.138
607.501, 628.716
607.983, 642.162
608.465, 660.889
608.948, 685.108
609.430, 707.492
609.912, 725.983
610.394, 739.549
610.876, 746.056
611.358, 743.904
611.840, 740.139
612.322, 736.700
612.804, 729.832
613.287, 715.161
613.769, 696.617
614.251, 680.252
614.733, 668.164
615.215, 658.359
615.697, 647.705
616.179, 636.914
616.661, 631.280
617.143, 631.582
617.626, 634.516
618.108, 637.925
618.590, 643.201
619.072, 654.175
619.554, 673.766
620.036, 689.937
620.518, 696.831
621.000, 703.099
621.482, 713.771
621.965, 728.908
622.447, 747.467
622.929, 769.017
623.411, 792.738
623.893, 816.321
624.375, 839.756
624.857, 870.271
625.339, 908.642
625.822, 953.697
626.304, 1006.266
626.786, 1065.000
627.268, 1125.643
627.750, 1188.629
628.232, 1251.876
628.714, 1312.245
629.196, 1374.868
629.679, 1451.388
630.161, 1535.489
630.643, 1609.671
631.125, 1665.348
631.607, 1699.627
632.089, 1707.705
632.571, 1689.834
633.053, 1639.322
633.536, 1543.740
634.018, 1436.240
634.500, 1338.830
634.982, 1247.662
635.464, 1151.183
635.946, 1040.522
636.428, 938.971
636.910, 852.859
637.392, 780.813
637.875, 724.193
638.357, 680.969
638.839, 644.195
639.321, 609.541
639.803, 578.490
640.285, 555.406
640.767, 540.888
641.249, 528.159
641.731, 516.112
642.214, 505.728
642.696, 498.983
643.178, 494.583
643.660, 488.214
644.142, 477.002
644.624, 467.479
645.106, 464.148
645.588, 462.107
646.070, 455.777
646.553, 445.355
647.035, 434.887
647.517, 427.152
647.999, 421.010
648.481, 414.299
648.963, 407.117
649.445, 397.569
649.927, 383.934
650.409, 370.278
650.892, 359.608
651.374, 351.590
651.856, 345.175
652.338, 341.462
652.820, 337.772
653.302, 333.659
653.784, 328.985
654.266, 322.824
654.749, 315.795
655.231, 310.423
655.713, 308.658
656.195, 308.613
656.677, 306.480
657.159, 302.219
657.641, 296.113
658.123, 285.992
658.606, 279.113
659.088, 271.985
659.570, 274.592
660.052, 274.837
660.534, 272.846
661.016, 261.919
661.498, 262.530
661.980, 258.518
662.463, 254.314
662.945, 254.004
663.427, 249.162
663.909, 247.183
664.391, 246.769
664.873, 245.893
665.355, 244.603
665.837, 243.687
666.319, 243.581
666.802, 242.508
667.284, 238.768
667.766, 232.991
668.248, 228.290
668.730, 222.421
669.212, 220.737
669.694, 228.146
670.176, 236.042
670.658, 238.053
671.141, 235.363
671.623, 232.160
672.105, 230.156
672.587, 229.353
673.069, 230.687
673.551, 233.315
674.033, 233.272
674.515, 229.860
674.997, 228.130
675.480, 232.360
675.962, 239.741
676.444, 241.143
676.926, 231.375
