##NAMES=Humite
##RRUFFID=R050665
##IDEAL CHEMISTRY=Mg_7_(SiO_4_)_3_(F,OH)_2_
##LOCALITY=Tilly Foster mine, Brewster, Putnam County, New York, USA
##OWNER=RRUFF
##SOURCE=University of Arizona Mineral Museum
##DESCRIPTION=Granular aggregate of reddish-orange crystals
##STATUS=The identification of this mineral has been confirmed by X-ray diffraction and chemical analysis
##URL=rruff.info/R050665
##MEASURED CHEMISTRY=(Mg_0.91_Fe^2+^_0.09_)_7_(Si_1.00_O_4_)_3_(F_0.56_(OH)_0.44_)_2_
92.02539, 216.2967
92.50751, 223.1837
92.98962, 228.0079
93.47174, 225.5778
93.95386, 220.1007
94.43597, 213.8243
94.91809, 208.0947
95.40021, 202.7090
95.88232, 195.9212
96.36444, 185.6629
96.84656, 176.9447
97.32867, 171.5812
97.81078, 168.5658
98.29290, 166.2901
98.77502, 163.5502
99.25713, 160.2280
99.73925, 155.6628
100.2214, 148.5764
100.7035, 141.7096
101.1856, 136.0647
101.6677, 131.7706
102.1498, 128.5752
102.6320, 126.2103
103.1141, 124.8173
103.5962, 124.1341
104.0783, 124.8951
104.5604, 126.0490
105.0425, 126.4301
105.5247, 125.6639
106.0068, 124.1378
106.4889, 122.4205
106.9710, 120.5327
107.4531, 118.4767
107.9352, 116.2137
108.4173, 113.7594
108.8995, 111.1458
109.3816, 108.0355
109.8637, 105.0447
110.3458, 102.8088
110.8279, 101.4482
111.3100, 100.5919
111.7922, 99.81742
112.2743, 99.09972
112.7564, 98.56622
113.2385, 98.25221
113.7206, 98.11211
114.2027, 98.09460
114.6849, 98.16280
115.1670, 98.37849
115.6491, 98.99415
116.1312, 100.8746
116.6133, 102.1311
117.0954, 102.3657
117.5776, 101.8051
118.0597, 100.7347
118.5418, 99.28523
119.0239, 97.43990
119.5060, 96.23258
119.9881, 95.73707
120.4703, 95.64546
120.9524, 96.12392
121.4345, 97.01418
121.9166, 97.76839
122.3987, 97.86333
122.8808, 97.16300
123.3630, 96.40974
123.8451, 95.35425
124.3272, 94.36855
124.8093, 93.96068
125.2914, 94.28822
125.7735, 94.70151
126.2557, 94.23245
126.7378, 93.08560
127.2199, 92.25153
127.7020, 92.43697
128.1841, 93.28381
128.6662, 93.61282
129.1483, 92.98101
129.6305, 92.07138
130.1126, 91.45893
130.5947, 91.11851
131.0768, 90.76054
131.5589, 90.07051
132.0410, 88.98696
132.5232, 88.07930
133.0053, 87.37154
133.4874, 86.89500
133.9695, 86.79375
134.4516, 87.05787
134.9337, 87.43420
135.4159, 87.49281
135.8980, 86.87124
136.3801, 86.63428
136.8622, 87.20145
137.3443, 87.91833
137.8264, 88.25471
138.3086, 88.00686
138.7907, 87.30946
139.2728, 86.53305
139.7549, 85.41038
140.2370, 84.51434
140.7191, 83.85700
141.2013, 83.45428
141.6834, 83.45154
142.1655, 84.02173
142.6476, 84.89491
143.1297, 84.85292
143.6118, 83.02893
144.0939, 81.39737
144.5761, 80.85270
145.0582, 81.23435
145.5403, 81.84544
146.0224, 82.49418
146.5045, 82.97664
146.9866, 82.85342
147.4688, 81.66380
147.9509, 80.22681
148.4330, 79.29588
148.9151, 78.91089
149.3972, 78.77995
149.8793, 78.83869
150.3615, 79.02328
150.8436, 79.29333
151.3257, 79.71590
151.8078, 80.17456
152.2899, 80.36604
152.7720, 80.11691
153.2542, 79.90107
153.7363, 80.05415
154.2184, 80.34516
154.7005, 80.40730
155.1826, 79.95646
155.6647, 79.05271
156.1469, 78.32605
156.6290, 77.95582
157.1111, 77.60827
157.5932, 77.11498
158.0753, 76.56693
158.5574, 76.16582
159.0396, 76.08839
159.5217, 76.36253
160.0038, 76.72297
160.4859, 77.45788
160.9680, 78.01606
161.4501, 77.93638
161.9323, 77.35551
162.4144, 76.90922
162.8965, 77.32769
163.3786, 78.98021
163.8607, 79.82888
164.3428, 79.65293
164.8250, 78.91579
165.3071, 77.64121
165.7892, 75.89674
166.2713, 74.34782
166.7534, 73.89546
167.2355, 74.70651
167.7177, 75.46845
168.1998, 76.09372
168.6819, 76.58408
169.1640, 76.96415
169.6461, 77.25983
170.1282, 77.36436
170.6104, 76.97131
171.0925, 76.14452
171.5746, 75.51468
172.0567, 75.45335
172.5388, 75.79350
173.0209, 76.05614
173.5031, 76.16274
173.9852, 76.15020
174.4673, 76.03565
174.9494, 75.83060
175.4315, 75.64323
175.9136, 75.60978
176.3958, 75.72035
176.8779, 75.66080
177.3600, 75.13810
177.8421, 74.64338
178.3242, 74.46578
178.8063, 74.60950
179.2885, 74.89879
179.7706, 75.23058
180.2527, 75.68246
180.7348, 75.82445
181.2169, 75.08952
181.6990, 74.43999
182.1812, 74.55363
182.6633, 75.45809
183.1454, 76.54517
183.6275, 76.90342
184.1096, 76.00127
184.5917, 75.48302
185.0738, 75.44832
185.5560, 75.65805
186.0381, 76.03918
186.5202, 76.53866
187.0023, 77.03076
187.4844, 77.29227
187.9665, 77.10659
188.4487, 77.01984
188.9308, 77.00025
189.4129, 77.08862
189.8950, 77.35012
190.3771, 77.80286
190.8592, 78.37437
191.3414, 78.95103
191.8235, 79.72501
192.3056, 80.13030
192.7877, 79.74793
193.2698, 79.05966
193.7519, 78.76327
194.2341, 79.15054
194.7162, 79.85109
195.1983, 80.05769
195.6804, 79.64027
196.1625, 79.33222
196.6446, 79.69022
197.1268, 80.32125
197.6089, 80.19216
198.0910, 78.64809
198.5731, 76.68791
199.0552, 75.96072
199.5373, 76.61708
200.0195, 77.38618
200.5016, 77.54919
200.9837, 77.22015
201.4658, 76.99741
201.9479, 77.15495
202.4300, 77.38615
202.9122, 77.37867
203.3943, 77.11877
203.8764, 76.68799
204.3585, 76.04605
204.8406, 75.19396
205.3227, 74.51289
205.8048, 73.99831
206.2870, 73.79845
206.7691, 74.18032
207.2512, 75.15847
207.7333, 76.16496
208.2154, 76.49007
208.6975, 75.97409
209.1797, 75.72713
209.6618, 76.25211
210.1439, 76.88915
210.6260, 77.38778
211.1081, 77.67014
211.5902, 77.64702
212.0724, 77.04571
212.5545, 75.48808
213.0366, 74.53379
213.5187, 74.54656
214.0008, 74.95023
214.4829, 75.62317
214.9651, 76.44590
215.4472, 77.10133
215.9293, 76.97743
216.4114, 75.19040
216.8935, 74.51320
217.3756, 75.79214
217.8578, 77.39084
218.3399, 78.08195
218.8220, 77.64645
219.3041, 76.84692
219.7862, 76.88515
220.2683, 78.48432
220.7505, 79.53723
221.2326, 79.88477
221.7147, 79.85927
222.1968, 79.63750
222.6789, 79.28808
223.1610, 78.88531
223.6432, 78.52639
224.1253, 78.14549
224.6074, 77.99219
225.0895, 78.26904
225.5716, 78.65755
226.0537, 78.89224
226.5358, 78.90847
227.0180, 78.76455
227.5001, 78.50236
227.9822, 78.02982
228.4643, 77.75638
228.9464, 77.81851
229.4285, 78.04049
229.9107, 78.28218
230.3928, 78.51684
230.8749, 78.67583
231.3570, 78.61826
231.8391, 78.31512
232.3212, 78.12263
232.8034, 78.25478
233.2855, 78.46715
233.7676, 78.41833
234.2497, 78.02135
234.7318, 77.51881
235.2139, 77.12238
235.6961, 76.82391
236.1782, 76.70452
236.6603, 76.82943
237.1424, 77.13305
237.6245, 77.60291
238.1066, 78.32912
238.5888, 78.91527
239.0709, 78.77728
239.5530, 78.14213
240.0351, 77.72190
240.5172, 78.01981
240.9993, 78.63647
241.4815, 78.73112
241.9636, 78.06013
242.4457, 77.37329
242.9278, 77.42887
243.4099, 77.88641
243.8920, 77.51531
244.3742, 77.95550
244.8563, 78.12325
245.3384, 78.03316
245.8205, 76.91302
246.3026, 78.88072
246.7847, 78.59432
247.2668, 77.19594
247.7490, 75.84714
248.2311, 75.02039
248.7132, 74.60903
249.1953, 74.44874
249.6774, 74.85622
250.1595, 74.83919
250.6417, 73.66528
251.1238, 71.96690
251.6059, 70.51449
252.0880, 69.62227
252.5701, 69.23032
253.0522, 69.28333
253.5344, 70.15991
254.0165, 70.72478
254.4986, 70.44527
254.9807, 69.79949
255.4628, 69.24866
255.9449, 68.96897
256.4271, 68.98022
256.9092, 69.46129
257.3913, 71.03513
257.8734, 71.83953
258.3555, 71.12002
258.8376, 69.79747
259.3198, 68.67870
259.8019, 68.08023
260.2840, 67.83952
260.7661, 67.63364
261.2482, 67.47204
261.7303, 67.33068
262.2125, 67.20110
262.6946, 67.08700
263.1767, 67.01033
263.6588, 66.97276
264.1409, 66.92785
264.6230, 66.78889
265.1052, 66.50944
265.5873, 66.21771
266.0694, 65.97840
266.5515, 65.69585
267.0336, 65.21200
267.5157, 64.53115
267.9979, 63.88905
268.4800, 63.66111
268.9621, 64.08131
269.4442, 64.43088
269.9263, 64.87072
270.4084, 65.14239
270.8906, 64.93571
271.3727, 64.28849
271.8548, 63.60532
272.3369, 63.37761
272.8190, 63.13604
273.3011, 63.75724
273.7833, 64.10596
274.2654, 64.19684
274.7475, 63.25766
275.2296, 63.64859
275.7117, 63.50647
276.1938, 63.34249
276.6760, 63.92064
277.1581, 63.13127
277.6402, 63.69764
278.1223, 63.72282
278.6044, 63.99569
279.0865, 64.01204
279.5686, 64.36569
280.0508, 64.19029
280.5329, 63.45960
281.0150, 62.87836
281.4971, 63.41632
281.9792, 63.68182
282.4613, 63.68947
282.9435, 62.66705
283.4256, 62.97476
283.9077, 62.74941
284.3898, 62.50221
284.8719, 62.99714
285.3540, 62.12454
285.8362, 62.52752
286.3183, 62.86882
286.8004, 63.46606
287.2825, 63.80121
287.7646, 63.58575
288.2467, 62.99378
288.7289, 62.63203
289.2110, 62.64101
289.6931, 62.68575
290.1752, 62.74395
290.6573, 62.80264
291.1394, 62.84050
291.6216, 62.84877
292.1037, 62.84131
292.5858, 62.85151
293.0679, 62.93437
293.5500, 62.92850
294.0321, 62.62709
294.5143, 62.31166
294.9964, 62.32345
295.4785, 62.75372
295.9606, 63.40961
296.4427, 64.06347
296.9248, 64.79472
297.4070, 65.22668
297.8891, 65.15711
298.3712, 64.89538
298.8533, 64.60572
299.3354, 64.34328
299.8175, 64.30882
300.2997, 64.78459
300.7818, 65.89239
301.2639, 66.61522
301.7460, 66.55162
302.2281, 66.42024
302.7102, 66.87725
303.1924, 67.84773
303.6745, 68.57411
304.1566, 68.39458
304.6387, 67.36226
305.1208, 66.78367
305.6029, 67.02934
306.0851, 67.31858
306.5672, 67.26173
307.0493, 66.91985
307.5314, 66.48673
308.0135, 66.00706
308.4956, 65.57397
308.9778, 65.60979
309.4599, 66.47270
309.9420, 67.26775
310.4241, 67.85870
310.9062, 68.17296
311.3883, 67.93143
311.8705, 66.92575
312.3526, 65.60474
312.8347, 65.03398
313.3168, 65.49174
313.7989, 65.88768
314.2810, 65.83546
314.7632, 65.66363
315.2453, 65.89848
315.7274, 66.70148
316.2095, 67.62254
316.6916, 68.04615
317.1737, 67.87302
317.6559, 67.60625
318.1380, 66.94633
318.6201, 66.40938
319.1022, 66.67205
319.5843, 67.76923
320.0664, 68.87040
320.5485, 69.17809
321.0306, 68.60461
321.5128, 68.16661
321.9949, 67.95615
322.4770, 67.79664
322.9591, 67.55155
323.4412, 67.24267
323.9233, 67.01092
324.4055, 66.98006
324.8876, 67.10330
325.3697, 67.04839
325.8518, 66.62050
326.3339, 66.25359
326.8160, 66.06809
327.2982, 66.06245
327.7803, 66.31913
328.2624, 66.95522
328.7445, 67.68202
329.2266, 67.64809
329.7087, 66.32584
330.1909, 65.30923
330.6730, 65.10355
331.1551, 65.29250
331.6372, 65.31818
332.1193, 65.01618
332.6014, 64.63438
333.0836, 64.53974
333.5657, 64.86385
334.0478, 65.10377
334.5299, 65.19603
335.0120, 65.22890
335.4941, 65.35694
335.9763, 65.56208
336.4584, 65.56294
336.9405, 65.04012
337.4226, 63.92566
337.9047, 63.12143
338.3868, 62.66396
338.8690, 62.43050
339.3511, 62.47910
339.8332, 62.71674
340.3153, 62.90138
340.7974, 62.87599
341.2795, 62.67355
341.7617, 62.49935
342.2438, 62.13451
342.7259, 62.04586
343.2080, 62.63150
343.6901, 63.48936
344.1722, 63.97245
344.6544, 63.80575
345.1365, 63.29382
345.6186, 63.06916
346.1007, 63.45574
346.5828, 63.64729
347.0649, 63.54587
347.5471, 63.30175
348.0292, 63.00243
348.5113, 62.68417
348.9934, 62.41797
349.4755, 62.35492
349.9576, 62.70311
350.4398, 62.29916
350.9219, 60.21188
351.4040, 58.33131
351.8861, 57.71104
352.3682, 58.21040
352.8503, 59.20058
353.3325, 60.30653
353.8146, 61.46992
354.2967, 61.73675
354.7788, 60.05722
355.2609, 58.68475
355.7430, 58.30033
356.2252, 58.45476
356.7073, 58.45271
357.1894, 57.96204
357.6715, 57.23284
358.1536, 56.89514
358.6357, 57.21700
359.1179, 57.55626
359.5999, 58.19035
360.0821, 58.64569
360.5642, 58.38820
361.0463, 57.38908
361.5284, 56.19938
362.0105, 55.46103
362.4926, 55.17912
362.9748, 55.36437
363.4569, 56.86737
363.9390, 58.01751
364.4211, 57.80708
364.9032, 56.57991
365.3853, 55.39530
365.8675, 55.09943
366.3496, 55.56590
366.8317, 55.55482
367.3138, 54.40387
367.7959, 53.61718
368.2780, 53.70962
368.7602, 54.26572
369.2423, 54.79450
369.7244, 55.08537
370.2065, 55.21756
370.6886, 55.33915
371.1707, 55.45149
371.6529, 55.54751
372.1350, 55.68746
372.6171, 55.76955
373.0992, 55.64940
373.5813, 55.34356
374.0634, 55.09185
374.5456, 55.24706
375.0277, 55.84296
375.5098, 56.08165
375.9919, 55.54700
376.4740, 55.08452
376.9561, 55.13390
377.4383, 55.55264
377.9204, 55.99042
378.4025, 56.24323
378.8846, 56.38185
379.3667, 56.60661
379.8488, 56.94032
380.3310, 57.30259
380.8131, 57.70997
381.2952, 58.10746
381.7773, 58.40396
382.2594, 58.54749
382.7415, 58.72284
383.2237, 59.24678
383.7058, 60.11661
384.1879, 60.68549
384.6700, 60.78531
385.1521, 60.50982
385.6342, 59.78862
386.1164, 58.68087
386.5985, 57.88311
387.0806, 58.04543
387.5627, 58.77546
388.0448, 59.14049
388.5269, 59.02794
389.0091, 58.67855
389.4912, 58.17573
389.9733, 57.56501
390.4554, 56.93137
390.9375, 56.23953
391.4196, 55.57893
391.9018, 55.00234
392.3839, 54.51367
392.8660, 54.19280
393.3481, 54.15025
393.8302, 54.22643
394.3123, 54.12141
394.7945, 53.83357
395.2766, 53.40746
395.7587, 52.51294
396.2408, 51.57698
396.7229, 51.54011
397.2050, 52.69498
397.6872, 53.96143
398.1693, 54.09859
398.6514, 52.98242
399.1335, 52.00942
399.6156, 51.20896
400.0977, 50.58413
400.5798, 50.18874
401.0620, 49.98605
401.5441, 49.83937
402.0262, 49.67103
402.5083, 49.48621
402.9904, 49.31516
403.4725, 49.16811
403.9547, 49.01977
404.4368, 48.79583
404.9189, 48.59404
405.4010, 48.53992
405.8831, 48.67157
406.3652, 48.95211
406.8474, 49.38021
407.3295, 50.19760
407.8116, 50.39666
408.2937, 49.45043
408.7758, 48.43030
409.2579, 47.84737
409.7401, 47.72663
410.2222, 47.91750
410.7043, 48.33777
411.1864, 48.95921
411.6685, 49.54837
412.1506, 50.22181
412.6328, 50.70192
413.1149, 50.91023
413.5970, 50.92640
414.0791, 50.73721
414.5612, 50.35906
415.0433, 50.05484
415.5255, 50.33387
416.0076, 51.47516
416.4897, 52.23684
416.9718, 52.27940
417.4539, 52.14325
417.9360, 51.85514
418.4182, 51.56485
418.9003, 51.65429
419.3824, 52.55643
419.8645, 54.04142
420.3466, 55.09422
420.8287, 55.60363
421.3109, 55.88562
421.7930, 56.09425
422.2751, 56.14990
422.7572, 55.83333
423.2393, 54.98424
423.7214, 54.23319
424.2036, 54.49951
424.6857, 55.72736
425.1678, 56.44623
425.6499, 56.19690
426.1320, 55.48642
426.6141, 54.70473
427.0963, 53.87495
427.5784, 53.17966
428.0605, 52.75317
428.5426, 52.48371
429.0247, 52.19197
429.5068, 51.86143
429.9890, 51.62343
430.4711, 51.67980
430.9532, 51.85701
431.4353, 51.62852
431.9174, 50.73293
432.3995, 49.81653
432.8817, 49.20135
433.3638, 48.80088
433.8459, 48.44296
434.3280, 48.08148
434.8101, 47.71461
435.2922, 47.31704
435.7744, 46.84439
436.2565, 46.55872
436.7386, 46.62846
437.2207, 46.75974
437.7028, 46.78180
438.1849, 46.68016
438.6671, 46.44989
439.1492, 46.05280
439.6313, 45.56119
440.1134, 45.41366
440.5955, 45.90182
441.0776, 46.38177
441.5598, 46.86705
442.0418, 47.26989
442.5240, 47.49391
443.0061, 47.51765
443.4882, 47.39485
443.9703, 47.15641
444.4524, 46.73183
444.9345, 46.52313
445.4167, 46.58728
445.8988, 46.37564
446.3809, 46.97762
446.8630, 47.30713
447.3451, 47.37880
447.8272, 46.42041
448.3094, 46.79213
448.7915, 46.63080
449.2736, 46.44762
449.7557, 47.00655
450.2378, 46.19799
450.7199, 46.74515
451.2021, 46.75113
451.6842, 46.54069
452.1663, 46.55423
452.6484, 46.51050
453.1305, 46.42776
453.6126, 46.39095
454.0948, 46.41573
454.5769, 46.46231
455.0590, 46.66740
455.5411, 46.85722
456.0232, 46.64965
456.5053, 45.69447
456.9875, 44.68926
457.4696, 44.17441
457.9517, 44.10540
458.4338, 44.34247
458.9159, 44.96635
459.3980, 45.63002
459.8802, 45.70107
460.3623, 45.11560
460.8444, 44.75331
461.3265, 44.97424
461.8086, 45.34430
462.2907, 45.53685
462.7729, 45.51342
463.2550, 45.25380
463.7371, 44.67964
464.2192, 43.89417
464.7013, 43.48618
465.1834, 43.71674
465.6656, 43.96272
466.1477, 44.25680
466.6298, 44.46461
467.1119, 44.41268
467.5940, 44.07627
468.0761, 43.59239
468.5583, 43.07041
469.0404, 42.43151
469.5225, 42.25044
470.0046, 43.10824
470.4867, 43.82687
470.9688, 44.00696
471.4510, 43.81471
471.9331, 43.50257
472.4152, 43.16876
472.8973, 42.91079
473.3794, 42.99291
473.8615, 43.55133
474.3437, 43.86384
474.8258, 43.50909
475.3079, 43.09909
475.7900, 43.08603
476.2721, 43.41047
476.7542, 43.63317
477.2364, 43.32326
477.7185, 42.75620
478.2006, 42.63562
478.6827, 43.05333
479.1648, 43.36365
479.6469, 43.00131
480.1291, 42.44104
480.6112, 42.65149
481.0933, 44.09798
481.5754, 45.12164
482.0575, 44.44163
482.5396, 42.86956
483.0217, 41.93892
483.5038, 41.96715
483.9860, 42.32111
484.4681, 42.44082
484.9502, 42.31191
485.4323, 42.15873
485.9144, 41.93079
486.3965, 41.73352
486.8787, 41.58623
487.3608, 41.50485
487.8429, 41.50716
488.3250, 41.59995
488.8071, 41.80016
489.2892, 42.20306
489.7714, 43.22902
490.2535, 43.38631
490.7356, 41.76593
491.2177, 40.27051
491.6998, 40.20417
492.1819, 41.08173
492.6641, 41.47655
493.1462, 39.73030
493.6283, 40.40541
494.1104, 40.80806
494.5925, 40.95286
495.0746, 40.06760
495.5568, 40.51247
496.0389, 40.42427
496.5210, 40.31421
497.0031, 40.94628
497.4852, 41.00020
497.9673, 41.00949
498.4495, 40.30271
498.9316, 40.72671
499.4137, 40.87825
499.8958, 40.77194
500.3779, 39.63558
500.8600, 39.82934
501.3422, 40.45137
501.8243, 40.01164
502.3064, 39.51250
502.7885, 39.54885
503.2706, 39.84872
503.7527, 39.91829
504.2349, 39.64978
504.7170, 39.21108
505.1991, 38.69041
505.6812, 38.06855
506.1633, 37.93847
506.6454, 38.68805
507.1276, 39.43969
507.6097, 40.00183
508.0918, 40.32113
508.5739, 40.27903
509.0560, 39.84392
509.5381, 39.22434
510.0203, 38.72135
510.5024, 38.28940
510.9845, 38.13089
511.4666, 38.21769
511.9487, 38.60911
512.4308, 39.62423
512.9130, 40.93188
513.3951, 41.92897
513.8772, 42.31123
514.3593, 42.23297
514.8414, 41.88039
515.3235, 41.19775
515.8057, 40.66539
516.2878, 40.51516
516.7699, 40.42542
517.2520, 40.08197
517.7341, 39.52493
518.2162, 39.05968
518.6984, 38.68992
519.1805, 38.55064
519.6626, 38.92725
520.1447, 39.78450
520.6268, 40.65381
521.1089, 41.36729
521.5911, 41.89617
522.0732, 42.09765
522.5553, 41.83315
523.0374, 41.71326
523.5195, 41.86288
524.0016, 42.18132
524.4838, 42.64827
524.9659, 43.21660
525.4480, 43.77082
525.9301, 44.23730
526.4122, 44.60209
526.8943, 44.79071
527.3765, 44.62416
527.8586, 44.53056
528.3407, 44.36448
528.8228, 44.40434
529.3049, 45.04396
529.7870, 46.21332
530.2692, 47.31877
530.7513, 47.76072
531.2334, 47.67910
531.7155, 47.94422
532.1976, 48.70887
532.6797, 49.46297
533.1619, 50.20552
533.6440, 50.72010
534.1261, 50.53429
534.6082, 49.43697
535.0903, 48.78998
535.5724, 50.01120
536.0546, 52.20560
536.5367, 53.32371
537.0188, 53.04725
537.5009, 52.66973
537.9830, 53.13934
538.4651, 54.31411
538.9473, 55.30846
539.4294, 56.14628
539.9115, 56.79705
540.3936, 57.11527
540.8757, 57.30879
541.3578, 57.58095
541.8400, 57.99443
542.3221, 58.61795
542.8042, 59.57515
543.2863, 60.87727
543.7684, 61.81348
544.2505, 62.05172
544.7326, 62.29932
545.2147, 63.00255
545.6968, 63.62429
546.1790, 63.49678
546.6611, 62.48015
547.1432, 61.11404
547.6253, 59.96362
548.1074, 58.99902
548.5895, 57.87370
549.0717, 56.41275
549.5538, 55.14303
550.0359, 54.61075
550.5180, 54.41571
551.0001, 53.94599
551.4822, 53.01588
551.9644, 52.02258
552.4465, 51.11523
552.9286, 50.33741
553.4107, 49.81712
553.8928, 49.58315
554.3749, 49.43431
554.8571, 49.18511
555.3392, 48.84065
555.8213, 48.61902
556.3034, 48.33046
556.7855, 48.37094
557.2676, 49.18309
557.7498, 50.21660
558.2319, 50.84721
558.7140, 50.92176
559.1961, 50.62878
559.6782, 50.10061
560.1603, 49.33453
560.6425, 48.83282
561.1246, 48.84638
561.6067, 48.76419
562.0888, 48.14217
562.5709, 47.45860
563.0530, 47.34018
563.5352, 47.95407
564.0173, 48.65010
564.4994, 48.80301
564.9815, 48.58942
565.4636, 48.63809
565.9457, 49.06721
566.4279, 49.42909
566.9100, 49.26626
567.3921, 48.83302
567.8742, 49.02470
568.3563, 50.33210
568.8384, 51.44136
569.3206, 51.76025
569.8027, 51.71209
570.2848, 51.80994
570.7669, 52.12583
571.2490, 52.42595
571.7311, 52.47469
572.2133, 52.31981
572.6954, 52.50153
573.1775, 53.63652
573.6596, 54.24620
574.1417, 53.52105
574.6238, 52.63440
575.1060, 52.68366
575.5881, 53.73799
576.0702, 55.00495
576.5523, 55.85553
577.0344, 56.39061
577.5165, 56.95551
577.9987, 57.53135
578.4808, 58.23617
578.9629, 59.32815
579.4450, 60.42289
579.9271, 60.92847
580.4092, 60.74374
580.8914, 60.63123
581.3735, 60.96429
581.8556, 61.46046
582.3377, 61.87290
582.8198, 62.16149
583.3019, 62.26229
583.7841, 62.11817
584.2662, 61.80930
584.7483, 61.55592
585.2304, 61.39528
585.7125, 61.22996
586.1946, 61.11863
586.6768, 60.95074
