##NAMES=Humite
##RRUFFID=R040071
##IDEAL CHEMISTRY=Mg_7_(SiO_4_)_3_(F,OH)_2_
##LOCALITY=Tilly Foster mine, Brewster, Putnam County, New York, USA
##OWNER=RRUFF
##SOURCE=University of Arizona Mineral Museum
##DESCRIPTION=Red crystals
##STATUS=The identification of this mineral has been confirmed by X-ray diffraction and chemical analysis
##URL=rruff.info/R040071
##MEASURED CHEMISTRY=(Mg_0.91_Fe_0.09_)_7_(Si_0.99_Ti_0.01_O_4_)_3_(F_0.76_(OH)_0.24_)_2_
129.8254, 1428.074
130.3075, 1517.689
130.7896, 1600.345
131.2717, 1670.009
131.7538, 1725.615
132.2359, 1769.409
132.7181, 1803.592
133.2002, 1827.765
133.6823, 1841.576
134.1644, 1852.807
134.6465, 1850.842
135.1286, 1822.021
135.6108, 1766.253
136.0929, 1700.739
136.5750, 1651.981
137.0571, 1625.940
137.5392, 1610.054
138.0213, 1612.648
138.5035, 1620.155
138.9856, 1617.915
139.4677, 1601.982
139.9498, 1583.449
140.4319, 1582.933
140.9140, 1605.165
141.3962, 1642.244
141.8783, 1701.956
142.3604, 1773.440
142.8425, 1844.810
143.3246, 1911.303
143.8067, 1976.968
144.2889, 2051.621
144.7710, 2128.601
145.2531, 2223.502
145.7352, 2346.357
146.2173, 2454.659
146.6994, 2523.526
147.1816, 2571.636
147.6637, 2600.173
148.1458, 2606.177
148.6279, 2587.871
149.1100, 2560.043
149.5921, 2511.942
150.0743, 2456.969
150.5564, 2426.156
151.0385, 2437.965
151.5206, 2472.627
152.0027, 2474.054
152.4848, 2430.070
152.9670, 2377.827
153.4491, 2327.388
153.9312, 2278.529
154.4133, 2230.533
154.8954, 2182.074
155.3775, 2134.870
155.8597, 2093.417
156.3418, 2049.539
156.8239, 2019.777
157.3060, 2019.464
157.7881, 2042.716
158.2702, 2065.404
158.7524, 2077.858
159.2345, 2079.562
159.7166, 2072.957
160.1987, 2054.287
160.6808, 2032.957
161.1629, 2012.966
161.6451, 1994.821
162.1272, 1982.018
162.6093, 1980.435
163.0914, 1983.796
163.5735, 1977.723
164.0556, 1957.451
164.5378, 1933.771
165.0199, 1915.568
165.5020, 1902.602
165.9841, 1888.048
166.4662, 1865.102
166.9483, 1840.135
167.4305, 1824.400
167.9126, 1820.766
168.3947, 1824.384
168.8768, 1835.345
169.3589, 1854.121
169.8410, 1865.429
170.3232, 1856.330
170.8053, 1836.106
171.2874, 1819.488
171.7695, 1807.475
172.2516, 1800.799
172.7337, 1802.802
173.2159, 1814.456
173.6980, 1824.026
174.1801, 1824.837
174.6622, 1819.737
175.1443, 1812.263
175.6264, 1801.721
176.1086, 1790.371
176.5907, 1780.473
177.0728, 1771.953
177.5549, 1764.960
178.0370, 1761.907
178.5191, 1759.726
179.0013, 1754.357
179.4834, 1743.727
179.9655, 1730.800
180.4476, 1718.729
180.9297, 1707.300
181.4118, 1697.876
181.8940, 1691.892
182.3761, 1688.124
182.8582, 1685.326
183.3403, 1682.321
183.8224, 1681.277
184.3046, 1685.502
184.7867, 1695.603
185.2688, 1708.029
185.7509, 1726.788
186.2330, 1745.100
186.7151, 1754.861
187.1973, 1751.910
187.6794, 1742.463
188.1615, 1733.417
188.6436, 1723.925
189.1257, 1718.797
189.6078, 1721.445
190.0900, 1729.166
190.5721, 1740.462
191.0542, 1755.744
191.5363, 1772.859
192.0184, 1790.263
192.5005, 1809.105
192.9827, 1823.119
193.4648, 1823.788
193.9469, 1820.703
194.4290, 1824.159
194.9111, 1839.683
195.3932, 1856.926
195.8754, 1860.937
196.3575, 1849.366
196.8396, 1835.567
197.3217, 1820.178
197.8038, 1806.949
198.2859, 1801.846
198.7681, 1809.544
199.2502, 1817.202
199.7323, 1803.802
200.2144, 1763.957
200.6965, 1731.615
201.1786, 1726.526
201.6608, 1731.453
202.1429, 1732.942
202.6250, 1726.934
203.1071, 1719.852
203.5892, 1721.009
204.0713, 1732.136
204.5535, 1740.141
205.0356, 1738.067
205.5177, 1732.097
205.9998, 1726.123
206.4819, 1720.463
206.9640, 1716.953
207.4462, 1720.124
207.9283, 1731.316
208.4104, 1736.386
208.8925, 1725.914
209.3746, 1710.520
209.8567, 1697.751
210.3388, 1688.622
210.8210, 1683.065
211.3031, 1682.075
211.7852, 1685.841
212.2673, 1689.718
212.7494, 1693.595
213.2315, 1696.258
213.7137, 1695.379
214.1958, 1690.449
214.6779, 1687.269
215.1600, 1692.377
215.6421, 1705.595
216.1242, 1717.530
216.6064, 1725.221
217.0885, 1731.763
217.5706, 1740.528
218.0527, 1751.704
218.5348, 1761.231
219.0169, 1765.506
219.4991, 1764.961
219.9812, 1763.268
220.4633, 1758.011
220.9454, 1755.441
221.4275, 1761.897
221.9096, 1776.967
222.3918, 1791.419
222.8739, 1799.768
223.3560, 1802.561
223.8381, 1803.007
224.3202, 1802.318
224.8023, 1797.797
225.2845, 1783.721
225.7666, 1762.100
226.2487, 1746.931
226.7308, 1748.763
227.2129, 1763.254
227.6950, 1777.775
228.1772, 1792.347
228.6593, 1804.085
229.1414, 1810.063
229.6235, 1811.340
230.1056, 1811.183
230.5877, 1812.989
231.0699, 1814.052
231.5520, 1806.391
232.0341, 1785.597
232.5162, 1766.870
232.9983, 1766.775
233.4804, 1778.397
233.9626, 1784.555
234.4447, 1774.435
234.9268, 1757.723
235.4089, 1749.076
235.8910, 1750.011
236.3731, 1753.236
236.8553, 1755.716
237.3374, 1756.723
237.8195, 1754.150
238.3016, 1744.188
238.7837, 1732.458
239.2658, 1724.685
239.7480, 1720.893
240.2301, 1719.360
240.7122, 1718.869
241.1943, 1720.178
241.6764, 1724.858
242.1585, 1736.510
242.6407, 1748.228
243.1228, 1753.772
243.6049, 1753.845
244.0870, 1755.215
244.5691, 1764.201
245.0512, 1774.798
245.5334, 1771.692
246.0155, 1743.697
246.4976, 1718.822
246.9797, 1717.540
247.4618, 1732.891
247.9439, 1741.511
248.4261, 1732.753
248.9082, 1712.931
249.3903, 1695.180
249.8724, 1677.695
250.3545, 1665.483
250.8366, 1662.305
251.3188, 1665.493
251.8009, 1671.290
252.2830, 1679.397
252.7651, 1686.503
253.2472, 1686.292
253.7293, 1677.903
254.2115, 1666.717
254.6936, 1650.251
255.1757, 1632.776
255.6578, 1619.245
256.1399, 1610.876
256.6220, 1607.026
257.1042, 1607.584
257.5863, 1614.375
258.0684, 1619.789
258.5505, 1623.146
259.0326, 1625.351
259.5147, 1629.266
259.9969, 1634.429
260.4790, 1634.077
260.9611, 1619.316
261.4432, 1585.958
261.9253, 1568.652
262.4074, 1578.825
262.8896, 1593.203
263.3717, 1601.704
263.8538, 1603.305
264.3359, 1599.213
264.8180, 1589.505
265.3001, 1574.218
265.7823, 1563.661
266.2644, 1559.853
266.7465, 1557.766
267.2286, 1555.909
267.7107, 1554.596
268.1928, 1555.525
268.6750, 1560.153
269.1571, 1566.681
269.6392, 1566.063
270.1213, 1545.381
270.6034, 1531.842
271.0855, 1532.383
271.5677, 1540.051
272.0498, 1547.169
272.5319, 1550.437
273.0140, 1550.682
273.4961, 1549.429
273.9782, 1544.440
274.4604, 1541.895
274.9425, 1542.493
275.4246, 1545.133
275.9067, 1550.719
276.3888, 1558.815
276.8709, 1565.208
277.3531, 1562.799
277.8352, 1547.437
278.3173, 1536.716
278.7994, 1536.100
279.2815, 1536.255
279.7636, 1530.210
280.2458, 1519.162
280.7279, 1511.338
281.2100, 1518.132
281.6921, 1540.427
282.1742, 1549.638
282.6563, 1532.945
283.1385, 1516.858
283.6206, 1514.467
284.1027, 1521.739
284.5848, 1528.290
285.0669, 1527.494
285.5490, 1521.163
286.0312, 1515.665
286.5133, 1511.336
286.9954, 1507.189
287.4775, 1502.376
287.9596, 1497.552
288.4417, 1493.470
288.9239, 1489.816
289.4060, 1487.847
289.8881, 1490.454
290.3702, 1498.358
290.8523, 1504.984
291.3344, 1505.206
291.8166, 1503.981
292.2987, 1508.116
292.7808, 1520.237
293.2629, 1531.917
293.7450, 1536.534
294.2271, 1534.802
294.7093, 1529.746
295.1914, 1518.379
295.6735, 1509.272
296.1556, 1516.314
296.6377, 1541.540
297.1198, 1561.984
297.6020, 1566.649
298.0841, 1561.203
298.5662, 1553.586
299.0483, 1544.302
299.5304, 1538.320
300.0125, 1542.693
300.4947, 1557.798
300.9768, 1570.049
301.4589, 1575.249
301.9410, 1578.996
302.4231, 1586.995
302.9052, 1598.988
303.3874, 1609.201
303.8695, 1612.167
304.3516, 1608.676
304.8337, 1613.742
305.3158, 1641.730
305.7979, 1662.060
306.2801, 1655.903
306.7622, 1633.607
307.2443, 1617.904
307.7264, 1621.018
308.2085, 1636.648
308.6906, 1644.404
309.1728, 1631.234
309.6549, 1626.085
310.1370, 1636.343
310.6191, 1652.556
311.1012, 1665.971
311.5833, 1673.836
312.0655, 1677.534
312.5476, 1678.614
313.0297, 1674.836
313.5118, 1673.826
313.9939, 1673.344
314.4760, 1676.903
314.9582, 1689.411
315.4403, 1709.006
315.9224, 1727.826
316.4045, 1738.899
316.8866, 1742.173
317.3687, 1743.872
317.8509, 1746.073
318.3330, 1743.787
318.8151, 1730.732
319.2972, 1712.853
319.7793, 1700.647
320.2614, 1700.724
320.7436, 1708.504
321.2257, 1713.182
321.7078, 1714.251
322.1899, 1713.653
322.6720, 1707.670
323.1541, 1702.460
323.6363, 1706.182
324.1184, 1722.676
324.6005, 1738.567
325.0826, 1738.149
325.5647, 1722.695
326.0468, 1711.872
326.5290, 1713.352
327.0111, 1717.856
327.4932, 1714.704
327.9753, 1703.885
328.4574, 1693.596
328.9395, 1687.201
329.4217, 1683.735
329.9038, 1682.492
330.3859, 1683.845
330.8680, 1684.125
331.3501, 1679.907
331.8322, 1671.305
332.3144, 1661.659
332.7965, 1645.613
333.2786, 1633.151
333.7607, 1634.361
334.2428, 1646.517
334.7249, 1658.105
335.2070, 1663.171
335.6891, 1662.068
336.1713, 1655.738
336.6534, 1634.616
337.1355, 1620.672
337.6176, 1624.130
338.0997, 1634.719
338.5818, 1639.118
339.0640, 1633.015
339.5461, 1622.345
340.0282, 1616.834
340.5103, 1619.950
340.9924, 1620.513
341.4745, 1615.889
341.9567, 1611.247
342.4388, 1609.154
342.9209, 1609.954
343.4030, 1613.196
343.8851, 1619.081
344.3672, 1627.491
344.8494, 1633.984
345.3315, 1641.395
345.8136, 1642.791
346.2957, 1631.659
346.7778, 1614.827
347.2599, 1602.383
347.7421, 1599.240
348.2242, 1601.446
348.7063, 1602.209
349.1884, 1601.547
349.6705, 1599.479
350.1526, 1596.063
350.6348, 1591.119
351.1169, 1582.867
351.5990, 1570.782
352.0811, 1561.758
352.5632, 1564.221
353.0453, 1574.598
353.5275, 1578.042
354.0096, 1570.073
354.4917, 1560.014
354.9738, 1557.945
355.4559, 1562.062
355.9380, 1564.587
356.4202, 1562.981
356.9023, 1559.535
357.3844, 1557.968
357.8665, 1557.663
358.3486, 1551.476
358.8307, 1532.313
359.3129, 1504.975
359.7950, 1491.596
360.2771, 1502.150
360.7592, 1512.265
361.2413, 1518.110
361.7234, 1518.918
362.2056, 1511.402
362.6877, 1494.638
363.1698, 1475.603
363.6519, 1465.455
364.1340, 1468.056
364.6161, 1470.497
365.0983, 1475.463
365.5804, 1478.099
366.0625, 1474.524
366.5446, 1465.722
367.0267, 1455.594
367.5089, 1446.714
367.9910, 1439.221
368.4731, 1434.523
368.9552, 1433.871
369.4373, 1434.508
369.9194, 1437.041
370.4016, 1439.794
370.8837, 1440.636
371.3658, 1438.671
371.8479, 1435.380
372.3300, 1432.144
372.8121, 1428.818
373.2943, 1427.723
373.7764, 1430.890
374.2585, 1435.099
374.7406, 1436.145
375.2227, 1434.348
375.7048, 1436.301
376.1870, 1448.369
376.6691, 1465.592
377.1512, 1479.049
377.6333, 1487.964
378.1154, 1493.919
378.5975, 1496.515
379.0797, 1496.777
379.5618, 1500.523
380.0439, 1512.143
380.5260, 1522.921
381.0081, 1527.177
381.4902, 1527.396
381.9724, 1529.301
382.4545, 1535.247
382.9366, 1543.805
383.4187, 1552.387
383.9008, 1562.750
384.3829, 1569.664
384.8651, 1572.938
385.3472, 1572.951
385.8293, 1568.608
386.3114, 1560.760
386.7935, 1552.693
387.2756, 1547.617
387.7578, 1545.392
388.2399, 1540.356
388.7220, 1529.579
389.2041, 1519.629
389.6862, 1514.758
390.1683, 1510.815
390.6505, 1500.492
391.1326, 1479.992
391.6147, 1459.197
392.0968, 1455.761
392.5789, 1472.183
393.0610, 1481.124
393.5432, 1472.935
394.0253, 1459.111
394.5074, 1448.859
394.9895, 1442.201
395.4716, 1436.602
395.9537, 1431.297
396.4359, 1426.106
396.9180, 1420.841
397.4001, 1415.495
397.8822, 1409.618
398.3643, 1401.643
398.8464, 1393.033
399.3286, 1389.827
399.8107, 1400.470
400.2928, 1406.990
400.7749, 1396.313
401.2570, 1378.228
401.7391, 1371.348
402.2213, 1381.873
402.7034, 1398.148
403.1855, 1401.723
403.6676, 1385.666
404.1497, 1375.244
404.6318, 1372.109
405.1140, 1372.257
405.5961, 1374.997
406.0782, 1379.241
406.5603, 1383.030
407.0424, 1384.903
407.5245, 1385.411
408.0067, 1386.383
408.4888, 1385.712
408.9709, 1389.858
409.4530, 1405.868
409.9351, 1423.934
410.4172, 1434.727
410.8994, 1436.245
411.3815, 1434.377
411.8636, 1431.990
412.3457, 1430.020
412.8278, 1434.603
413.3099, 1449.118
413.7921, 1464.721
414.2742, 1473.943
414.7563, 1478.139
415.2384, 1481.157
415.7205, 1479.712
416.2026, 1480.649
416.6848, 1493.079
417.1669, 1513.335
417.6490, 1525.886
418.1311, 1521.669
418.6132, 1511.519
419.0953, 1520.646
419.5775, 1567.823
420.0596, 1601.896
420.5417, 1612.693
421.0238, 1616.031
421.5059, 1622.286
421.9880, 1633.386
422.4702, 1648.873
422.9523, 1670.205
423.4344, 1696.256
423.9165, 1706.758
424.3986, 1686.965
424.8807, 1671.752
425.3629, 1670.995
425.8450, 1678.265
426.3271, 1688.626
426.8092, 1701.064
427.2913, 1708.475
427.7734, 1700.451
428.2556, 1677.935
428.7377, 1656.397
429.2198, 1638.366
429.7019, 1621.514
430.1840, 1603.786
430.6661, 1585.469
431.1483, 1567.604
431.6304, 1552.649
432.1125, 1536.700
432.5946, 1513.402
433.0767, 1484.906
433.5588, 1461.824
434.0410, 1449.640
434.5231, 1444.849
435.0052, 1439.162
435.4873, 1433.026
435.9694, 1425.134
436.4515, 1411.555
436.9337, 1398.866
437.4158, 1393.017
437.8979, 1393.882
438.3800, 1397.151
438.8621, 1399.236
439.3442, 1400.348
439.8264, 1403.117
440.3085, 1407.291
440.7906, 1413.740
441.2727, 1427.062
441.7548, 1440.407
442.2369, 1444.709
442.7191, 1437.141
443.2012, 1428.465
443.6833, 1432.081
444.1654, 1445.601
444.6475, 1450.925
445.1296, 1442.718
445.6118, 1432.233
446.0939, 1430.432
446.5760, 1434.747
447.0581, 1435.551
447.5402, 1426.701
448.0223, 1417.912
448.5045, 1416.686
448.9866, 1420.918
449.4687, 1425.094
449.9508, 1427.113
450.4329, 1427.047
450.9150, 1425.060
451.3972, 1421.438
451.8793, 1414.836
452.3614, 1400.268
452.8435, 1387.251
453.3256, 1382.633
453.8077, 1384.718
454.2899, 1387.270
454.7720, 1385.944
455.2541, 1382.333
455.7362, 1382.344
456.2183, 1388.110
456.7004, 1391.920
457.1826, 1391.440
457.6647, 1388.293
458.1468, 1382.199
458.6289, 1373.288
459.1110, 1366.389
459.5931, 1367.328
460.0753, 1371.789
460.5574, 1369.421
461.0395, 1358.839
461.5216, 1349.410
462.0037, 1348.675
462.4858, 1354.002
462.9680, 1352.654
463.4501, 1335.893
463.9322, 1323.947
464.4143, 1326.886
464.8964, 1335.837
465.3785, 1339.885
465.8607, 1336.560
466.3428, 1329.971
466.8249, 1324.223
467.3070, 1319.172
467.7891, 1316.657
468.2712, 1318.106
468.7534, 1320.739
469.2355, 1325.578
469.7176, 1330.561
470.1997, 1333.584
470.6818, 1334.090
471.1639, 1330.599
471.6461, 1318.127
472.1282, 1297.620
472.6103, 1284.127
473.0924, 1280.899
473.5745, 1283.635
474.0566, 1292.476
474.5388, 1305.306
475.0209, 1311.824
475.5030, 1307.247
475.9851, 1298.410
476.4672, 1287.214
476.9493, 1275.455
477.4315, 1268.123
477.9136, 1267.417
478.3957, 1269.949
478.8778, 1269.897
479.3599, 1266.530
479.8420, 1262.255
480.3242, 1255.073
480.8063, 1248.999
481.2884, 1246.252
481.7705, 1246.294
482.2526, 1247.779
482.7347, 1250.225
483.2169, 1252.964
483.6990, 1255.151
484.1811, 1257.224
484.6632, 1255.781
485.1453, 1246.484
485.6274, 1236.853
486.1096, 1234.749
486.5917, 1239.733
487.0738, 1243.955
487.5559, 1244.993
488.0380, 1243.590
488.5201, 1239.120
489.0023, 1232.352
489.4844, 1227.836
489.9665, 1228.592
490.4486, 1231.476
490.9307, 1228.568
491.4128, 1212.267
491.8950, 1202.195
492.3771, 1201.845
492.8592, 1204.807
493.3413, 1207.311
493.8234, 1209.065
494.3055, 1211.491
494.7877, 1216.044
495.2698, 1221.402
495.7519, 1222.977
496.2340, 1219.603
496.7161, 1216.332
497.1982, 1214.876
497.6804, 1213.895
498.1625, 1211.504
498.6446, 1207.611
499.1267, 1205.910
499.6088, 1210.510
500.0909, 1216.977
500.5730, 1219.651
501.0551, 1218.383
501.5373, 1214.893
502.0194, 1209.509
502.5015, 1203.450
502.9836, 1200.519
503.4657, 1205.442
503.9478, 1206.801
504.4300, 1202.404
504.9121, 1195.839
505.3942, 1186.580
505.8763, 1177.097
506.3584, 1174.912
506.8405, 1188.496
507.3227, 1211.097
507.8048, 1217.280
508.2869, 1202.828
508.7690, 1185.847
509.2511, 1165.480
509.7332, 1149.565
510.2154, 1147.864
510.6975, 1161.146
511.1796, 1173.292
511.6617, 1177.309
512.1439, 1176.306
512.6260, 1170.912
513.1081, 1162.657
513.5902, 1161.871
514.0723, 1176.289
514.5544, 1198.651
515.0366, 1207.359
515.5187, 1187.570
516.0008, 1175.161
516.4829, 1173.501
516.9650, 1176.367
517.4471, 1180.672
517.9293, 1185.693
518.4114, 1191.428
518.8935, 1198.459
519.3756, 1205.504
519.8577, 1208.674
520.3398, 1207.115
520.8220, 1206.224
521.3041, 1207.329
521.7862, 1210.020
522.2683, 1215.473
522.7504, 1223.736
523.2325, 1226.644
523.7147, 1214.337
524.1968, 1200.985
524.6789, 1199.092
525.1610, 1208.030
525.6431, 1224.990
526.1252, 1250.025
526.6074, 1275.138
527.0895, 1281.227
527.5716, 1251.169
528.0537, 1237.760
528.5358, 1253.538
529.0179, 1271.997
529.5001, 1281.118
529.9822, 1281.884
530.4643, 1278.728
530.9464, 1272.000
531.4285, 1266.746
531.9106, 1273.182
532.3928, 1290.911
532.8749, 1303.713
533.3570, 1305.236
533.8391, 1305.383
534.3212, 1316.301
534.8033, 1337.296
535.2855, 1354.291
535.7676, 1362.969
536.2497, 1370.182
536.7318, 1377.540
537.2139, 1386.570
537.6960, 1399.961
538.1782, 1418.635
538.6603, 1440.411
539.1424, 1463.101
539.6245, 1487.260
540.1066, 1508.133
540.5887, 1526.704
541.0709, 1540.140
541.5530, 1542.523
542.0351, 1540.974
542.5172, 1546.833
542.9993, 1564.774
543.4814, 1584.303
543.9636, 1596.054
544.4457, 1602.822
544.9278, 1612.440
545.4099, 1626.372
545.8920, 1639.610
546.3741, 1649.922
546.8563, 1656.384
547.3384, 1649.660
547.8205, 1620.553
548.3026, 1591.401
548.7847, 1565.608
549.2668, 1541.629
549.7490, 1516.736
550.2311, 1491.410
550.7132, 1470.193
551.1953, 1459.289
551.6774, 1455.138
552.1595, 1440.254
552.6417, 1409.759
553.1238, 1389.491
553.6059, 1395.392
554.0880, 1411.823
554.5701, 1417.458
555.0522, 1410.978
555.5344, 1405.673
556.0165, 1405.281
556.4986, 1408.088
556.9807, 1415.202
557.4628, 1424.474
557.9449, 1429.079
558.4271, 1425.317
558.9092, 1417.079
559.3913, 1412.769
559.8734, 1414.455
560.3555, 1414.610
560.8376, 1408.611
561.3198, 1405.380
561.8019, 1413.331
562.2840, 1426.465
562.7661, 1431.050
563.2482, 1418.950
563.7303, 1403.606
564.2125, 1401.817
564.6946, 1408.659
565.1767, 1405.014
565.6588, 1385.924
566.1409, 1364.443
566.6230, 1351.483
567.1052, 1347.058
567.5873, 1349.881
568.0694, 1364.417
568.5515, 1379.616
569.0336, 1393.761
569.5157, 1406.927
569.9979, 1419.215
570.4800, 1430.652
570.9621, 1441.403
571.4442, 1451.631
571.9263, 1461.185
572.4084, 1468.446
572.8906, 1472.304
573.3727, 1479.525
573.8548, 1493.675
574.3369, 1511.824
574.8190, 1528.878
575.3011, 1544.086
575.7833, 1562.937
576.2654, 1591.260
576.7475, 1619.653
577.2296, 1640.180
577.7117, 1654.795
578.1938, 1670.076
578.6760, 1689.226
579.1581, 1708.511
579.6402, 1720.542
580.1223, 1723.474
580.6044, 1728.547
581.0865, 1739.481
581.5686, 1748.240
582.0507, 1750.764
582.5328, 1748.649
583.0150, 1744.990
583.4971, 1741.018
583.9792, 1734.279
584.4613, 1720.015
584.9434, 1702.892
585.4255, 1691.498
585.9077, 1686.807
586.3898, 1684.161
586.8719, 1680.130
587.3540, 1675.004
587.8361, 1670.258
588.3182, 1662.311
588.8004, 1660.836
589.2825, 1670.849
589.7646, 1683.637
590.2467, 1692.353
590.7288, 1697.849
591.2109, 1705.933
591.6931, 1718.689
592.1752, 1736.796
592.6573, 1762.982
593.1394, 1796.051
593.6215, 1829.228
594.1036, 1860.583
594.5858, 1892.203
595.0679, 1927.421
595.5500, 1966.801
596.0321, 2002.214
596.5142, 2024.865
596.9963, 2054.505
597.4785, 2103.990
597.9606, 2159.630
598.4427, 2207.065
598.9248, 2242.820
599.4069, 2270.564
599.8890, 2289.828
600.3712, 2303.843
600.8533, 2326.819
601.3354, 2360.533
601.8175, 2386.689
602.2996, 2396.138
602.7817, 2395.072
603.2639, 2395.249
603.7460, 2400.118
604.2281, 2391.762
604.7102, 2363.930
605.1923, 2326.638
605.6744, 2282.244
606.1566, 2233.740
606.6387, 2186.329
607.1208, 2142.000
607.6029, 2096.337
608.0850, 2039.245
608.5671, 1971.366
609.0493, 1917.717
609.5314, 1884.889
610.0135, 1851.802
610.4956, 1805.203
610.9777, 1750.774
611.4598, 1700.742
611.9420, 1654.835
612.4241, 1613.998
612.9062, 1580.829
613.3883, 1551.093
613.8704, 1521.324
614.3525, 1491.288
614.8347, 1462.476
615.3168, 1435.609
615.7989, 1410.107
616.2810, 1385.070
616.7631, 1360.536
617.2452, 1335.985
617.7274, 1310.877
618.2095, 1286.745
618.6916, 1262.485
619.1737, 1240.148
619.6558, 1225.394
620.1379, 1223.443
620.6201, 1221.594
621.1022, 1212.670
621.5843, 1201.287
622.0664, 1193.704
622.5485, 1190.135
623.0306, 1186.777
623.5128, 1181.088
623.9949, 1173.227
624.4770, 1163.026
624.9591, 1149.217
