##NAMES=Humite
##RRUFFID=R040071
##IDEAL CHEMISTRY=Mg_7_(SiO_4_)_3_(F,OH)_2_
##LOCALITY=Tilly Foster mine, Brewster, Putnam County, New York, USA
##OWNER=RRUFF
##SOURCE=University of Arizona Mineral Museum
##DESCRIPTION=Red crystals
##STATUS=The identification of this mineral has been confirmed by X-ray diffraction and chemical analysis
##URL=rruff.info/R040071
##MEASURED CHEMISTRY=(Mg_0.91_Fe_0.09_)_7_(Si_0.99_Ti_0.01_O_4_)_3_(F_0.76_(OH)_0.24_)_2_
144.7061, 2906.849
145.1882, 2923.881
145.6703, 2937.966
146.1524, 2952.096
146.6346, 2961.605
147.1167, 2961.037
147.5988, 2936.509
148.0809, 2918.610
148.5630, 2915.475
149.0451, 2933.021
149.5273, 2946.137
150.0094, 2952.579
150.4915, 2954.685
150.9736, 2956.595
151.4557, 2953.407
151.9378, 2953.756
152.4200, 2961.474
152.9021, 2988.497
153.3842, 3004.128
153.8663, 3000.468
154.3484, 2982.499
154.8305, 2966.025
155.3127, 2954.875
155.7948, 2944.828
156.2769, 2933.716
156.7590, 2912.885
157.2411, 2899.463
157.7232, 2901.606
158.2054, 2917.488
158.6875, 2929.697
159.1696, 2928.772
159.6517, 2924.118
160.1338, 2924.039
160.6159, 2932.951
161.0980, 2945.176
161.5802, 2962.631
162.0623, 2986.443
162.5444, 3000.065
163.0265, 2977.554
163.5086, 2944.497
163.9907, 2936.049
164.4729, 3008.511
164.9550, 3081.354
165.4371, 3097.131
165.9192, 3033.843
166.4013, 2965.652
166.8834, 2932.551
167.3656, 2925.995
167.8477, 2926.765
168.3298, 2927.230
168.8119, 2929.338
169.2940, 2935.644
169.7761, 2949.044
170.2583, 2962.345
170.7404, 2969.274
171.2225, 2970.868
171.7046, 2971.294
172.1867, 2972.666
172.6688, 2974.589
173.1510, 2976.448
173.6331, 2977.503
174.1152, 2978.917
174.5973, 2983.234
175.0794, 2990.164
175.5615, 2995.327
176.0437, 2993.008
176.5258, 2986.365
177.0079, 2982.081
177.4900, 2985.648
177.9721, 2992.152
178.4542, 2992.246
178.9364, 2985.340
179.4185, 2980.396
179.9006, 2988.064
180.3827, 3005.917
180.8648, 3025.102
181.3469, 3043.223
181.8291, 3059.873
182.3112, 3073.307
182.7933, 3082.964
183.2754, 3091.053
183.7575, 3100.841
184.2396, 3111.862
184.7218, 3121.818
185.2039, 3126.817
185.6860, 3128.899
186.1681, 3135.414
186.6502, 3146.824
187.1323, 3163.218
187.6145, 3187.501
188.0966, 3219.706
188.5787, 3250.191
189.0608, 3272.823
189.5429, 3287.925
190.0250, 3298.776
190.5071, 3305.365
190.9893, 3308.671
191.4714, 3309.574
191.9535, 3307.697
192.4356, 3308.138
192.9177, 3317.651
193.3998, 3336.065
193.8820, 3351.329
194.3641, 3361.519
194.8462, 3366.416
195.3283, 3363.470
195.8104, 3351.208
196.2925, 3336.914
196.7747, 3328.941
197.2568, 3327.689
197.7389, 3325.814
198.2210, 3321.285
198.7031, 3314.131
199.1852, 3304.392
199.6674, 3291.291
200.1495, 3277.036
200.6316, 3262.264
201.1137, 3245.495
201.5958, 3237.328
202.0779, 3245.462
202.5601, 3271.581
203.0422, 3291.088
203.5243, 3304.912
204.0064, 3311.230
204.4885, 3303.770
204.9706, 3278.459
205.4528, 3254.461
205.9349, 3240.069
206.4170, 3235.994
206.8991, 3238.758
207.3812, 3251.527
207.8633, 3268.640
208.3455, 3275.887
208.8276, 3271.381
209.3097, 3262.176
209.7918, 3249.477
210.2739, 3229.600
210.7560, 3222.005
211.2382, 3231.788
211.7203, 3253.677
212.2024, 3269.747
212.6845, 3280.889
213.1666, 3284.425
213.6487, 3274.812
214.1309, 3243.573
214.6130, 3226.724
215.0951, 3233.006
215.5772, 3257.987
216.0593, 3274.372
216.5414, 3279.950
217.0236, 3280.373
217.5057, 3279.254
217.9878, 3274.916
218.4699, 3273.582
218.9520, 3277.083
219.4341, 3285.195
219.9163, 3292.308
220.3984, 3299.189
220.8805, 3304.352
221.3626, 3305.331
221.8447, 3297.763
222.3268, 3295.588
222.8089, 3302.197
223.2911, 3317.722
223.7732, 3336.140
224.2553, 3360.620
224.7374, 3384.506
225.2195, 3398.955
225.7016, 3398.614
226.1838, 3399.219
226.6659, 3406.656
227.1480, 3423.089
227.6301, 3427.048
228.1122, 3409.472
228.5943, 3386.581
229.0765, 3380.687
229.5586, 3399.532
230.0407, 3422.209
230.5228, 3445.927
231.0049, 3474.357
231.4870, 3486.263
231.9692, 3473.645
232.4513, 3449.924
232.9334, 3437.093
233.4155, 3440.595
233.8976, 3446.180
234.3797, 3449.067
234.8619, 3447.789
235.3440, 3448.426
235.8261, 3449.504
236.3082, 3453.183
236.7903, 3465.510
237.2724, 3496.750
237.7546, 3520.832
238.2367, 3525.482
238.7188, 3496.648
239.2009, 3482.687
239.6830, 3488.618
240.1651, 3507.707
240.6473, 3524.343
241.1294, 3540.524
241.6115, 3551.280
242.0936, 3553.241
242.5757, 3539.505
243.0578, 3532.412
243.5400, 3535.421
244.0221, 3544.617
244.5042, 3548.093
244.9863, 3540.831
245.4684, 3535.138
245.9505, 3538.222
246.4327, 3557.806
246.9148, 3568.928
247.3969, 3566.984
247.8790, 3556.252
248.3611, 3552.424
248.8432, 3560.191
249.3254, 3568.302
249.8075, 3569.853
250.2896, 3559.847
250.7717, 3554.667
251.2538, 3556.715
251.7359, 3564.303
252.2180, 3570.996
252.7002, 3578.249
253.1823, 3582.199
253.6644, 3579.740
254.1465, 3567.209
254.6286, 3556.214
255.1107, 3546.152
255.5929, 3538.027
256.0750, 3538.021
256.5571, 3551.271
257.0392, 3564.747
257.5213, 3568.278
258.0034, 3555.163
258.4856, 3550.594
258.9677, 3562.583
259.4498, 3586.068
259.9319, 3590.886
260.4140, 3567.163
260.8961, 3541.094
261.3783, 3533.888
261.8604, 3555.931
262.3425, 3565.716
262.8246, 3552.416
263.3067, 3521.851
263.7888, 3511.908
264.2710, 3531.981
264.7531, 3555.355
265.2352, 3559.488
265.7173, 3536.354
266.1994, 3521.828
266.6815, 3522.880
267.1637, 3536.761
267.6458, 3545.721
268.1279, 3547.547
268.6100, 3549.241
269.0921, 3558.321
269.5742, 3578.313
270.0564, 3589.740
270.5385, 3587.189
271.0206, 3573.461
271.5027, 3564.420
271.9848, 3560.279
272.4669, 3560.193
272.9491, 3564.942
273.4312, 3575.742
273.9133, 3583.934
274.3954, 3587.703
274.8775, 3587.799
275.3596, 3587.211
275.8418, 3585.550
276.3239, 3584.788
276.8060, 3587.229
277.2881, 3593.345
277.7702, 3598.297
278.2523, 3600.358
278.7345, 3600.844
279.2166, 3606.152
279.6987, 3617.450
280.1808, 3628.467
280.6629, 3634.065
281.1451, 3634.084
281.6272, 3631.299
282.1093, 3625.311
282.5914, 3617.100
283.0735, 3610.332
283.5556, 3605.147
284.0378, 3599.943
284.5199, 3592.888
285.0020, 3584.095
285.4841, 3576.108
285.9662, 3569.020
286.4483, 3563.403
286.9305, 3562.286
287.4126, 3566.217
287.8947, 3569.040
288.3768, 3565.348
288.8589, 3555.946
289.3410, 3545.536
289.8232, 3533.862
290.3053, 3522.940
290.7874, 3518.334
291.2695, 3520.040
291.7516, 3523.145
292.2337, 3522.559
292.7159, 3519.734
293.1980, 3520.960
293.6801, 3528.470
294.1622, 3539.292
294.6443, 3549.663
295.1264, 3559.356
295.6086, 3565.153
296.0907, 3562.272
296.5728, 3553.426
297.0549, 3544.879
297.5370, 3536.130
298.0191, 3530.927
298.5012, 3537.172
298.9833, 3553.447
299.4655, 3570.578
299.9476, 3582.549
300.4297, 3590.743
300.9118, 3597.056
301.3939, 3601.087
301.8760, 3604.850
302.3582, 3613.140
302.8403, 3624.284
303.3224, 3630.483
303.8045, 3618.140
304.2866, 3600.752
304.7687, 3597.954
305.2509, 3617.759
305.7330, 3642.631
306.2151, 3655.551
306.6972, 3660.160
307.1793, 3668.217
307.6614, 3689.986
308.1436, 3716.587
308.6257, 3740.306
309.1078, 3760.655
309.5899, 3775.175
310.0720, 3775.513
310.5541, 3768.182
311.0363, 3768.776
311.5184, 3796.721
312.0005, 3828.602
312.4826, 3843.466
312.9647, 3832.201
313.4468, 3825.372
313.9290, 3849.328
314.4111, 3888.529
314.8932, 3914.414
315.3753, 3899.218
315.8574, 3879.148
316.3395, 3876.177
316.8217, 3896.613
317.3038, 3917.977
317.7859, 3933.173
318.2680, 3943.766
318.7501, 3952.033
319.2322, 3954.489
319.7144, 3958.297
320.1965, 3970.852
320.6786, 3997.377
321.1607, 4007.755
321.6428, 3975.933
322.1249, 3929.975
322.6071, 3903.552
323.0892, 3925.433
323.5713, 3946.479
324.0534, 3950.796
324.5355, 3935.127
325.0176, 3921.831
325.4998, 3919.171
325.9819, 3917.266
326.4640, 3906.520
326.9461, 3864.759
327.4282, 3836.990
327.9103, 3839.693
328.3925, 3875.850
328.8746, 3888.998
329.3567, 3862.208
329.8388, 3824.276
330.3209, 3797.794
330.8030, 3787.521
331.2852, 3782.149
331.7673, 3782.739
332.2494, 3788.677
332.7315, 3790.080
333.2136, 3785.165
333.6957, 3777.981
334.1779, 3770.714
334.6600, 3761.727
335.1421, 3756.840
335.6242, 3758.405
336.1063, 3764.534
336.5884, 3765.392
337.0706, 3757.985
337.5527, 3751.443
338.0348, 3753.971
338.5169, 3769.250
338.9990, 3773.100
339.4811, 3758.253
339.9633, 3734.646
340.4454, 3730.660
340.9275, 3750.032
341.4096, 3770.597
341.8917, 3777.660
342.3738, 3771.117
342.8560, 3773.854
343.3381, 3790.359
343.8202, 3810.541
344.3023, 3814.137
344.7844, 3801.305
345.2665, 3790.588
345.7487, 3794.720
346.2308, 3809.879
346.7129, 3817.136
347.1950, 3814.786
347.6771, 3809.508
348.1592, 3811.803
348.6414, 3819.607
349.1235, 3823.184
349.6056, 3814.280
350.0877, 3799.224
350.5698, 3790.004
351.0519, 3787.067
351.5341, 3787.515
352.0162, 3792.260
352.4983, 3798.374
352.9804, 3799.223
353.4625, 3784.597
353.9446, 3768.198
354.4268, 3768.043
354.9089, 3782.864
355.3910, 3796.253
355.8731, 3792.509
356.3552, 3781.296
356.8373, 3775.116
357.3195, 3785.398
357.8016, 3793.448
358.2837, 3781.530
358.7658, 3754.406
359.2479, 3734.440
359.7300, 3740.774
360.2121, 3754.357
360.6942, 3760.512
361.1764, 3753.673
361.6585, 3742.872
362.1406, 3727.644
362.6227, 3710.882
363.1048, 3700.007
363.5869, 3702.607
364.0691, 3707.734
364.5512, 3710.964
365.0333, 3714.135
365.5154, 3710.044
365.9975, 3690.361
366.4796, 3663.644
366.9618, 3644.412
367.4439, 3633.823
367.9260, 3631.131
368.4081, 3638.733
368.8902, 3660.906
369.3723, 3675.687
369.8545, 3680.712
370.3366, 3679.337
370.8187, 3674.923
371.3008, 3665.392
371.7829, 3655.655
372.2650, 3644.279
372.7472, 3631.256
373.2293, 3631.910
373.7114, 3653.243
374.1935, 3678.610
374.6756, 3695.031
375.1577, 3702.536
375.6399, 3700.222
376.1220, 3683.865
376.6041, 3658.710
377.0862, 3646.083
377.5683, 3648.039
378.0504, 3654.973
378.5326, 3659.404
379.0147, 3661.336
379.4968, 3671.079
379.9789, 3692.970
380.4610, 3717.679
380.9431, 3725.710
381.4253, 3717.412
381.9074, 3706.858
382.3895, 3697.962
382.8716, 3692.569
383.3537, 3700.193
383.8358, 3723.888
384.3180, 3748.843
384.8001, 3759.460
385.2822, 3757.646
385.7643, 3750.074
386.2464, 3735.024
386.7285, 3717.996
387.2107, 3708.618
387.6928, 3707.028
388.1749, 3702.177
388.6570, 3678.257
389.1391, 3647.455
389.6212, 3627.649
390.1034, 3635.427
390.5855, 3646.293
391.0676, 3644.876
391.5497, 3632.365
392.0318, 3616.292
392.5139, 3596.072
392.9961, 3576.181
393.4782, 3559.654
393.9603, 3546.970
394.4424, 3538.297
394.9245, 3536.584
395.4066, 3539.076
395.8888, 3538.970
396.3709, 3534.312
396.8530, 3527.125
397.3351, 3516.748
397.8172, 3498.882
398.2993, 3489.153
398.7815, 3501.558
399.2636, 3518.630
399.7457, 3516.286
400.2278, 3471.089
400.7099, 3436.563
401.1920, 3426.995
401.6742, 3444.061
402.1563, 3456.747
402.6384, 3460.864
403.1205, 3465.610
403.6026, 3477.448
404.0847, 3484.663
404.5669, 3528.650
405.0490, 3560.529
405.5311, 3580.953
406.0132, 3555.616
406.4953, 3589.370
406.9774, 3599.443
407.4596, 3608.549
407.9417, 3624.896
408.4238, 3644.291
408.9059, 3664.477
409.3880, 3684.523
409.8701, 3702.916
410.3523, 3719.711
410.8344, 3734.977
411.3165, 3745.502
411.7986, 3755.022
412.2807, 3773.152
412.7628, 3800.665
413.2450, 3831.855
413.7271, 3863.950
414.2092, 3895.271
414.6913, 3922.008
415.1734, 3938.036
415.6555, 3952.258
416.1377, 3972.841
416.6198, 3999.430
417.1019, 4027.932
417.5840, 4057.188
418.0661, 4087.038
418.5482, 4117.178
419.0304, 4148.997
419.5125, 4179.381
419.9946, 4207.110
420.4767, 4232.470
420.9588, 4256.041
421.4409, 4273.920
421.9230, 4293.586
422.4052, 4319.965
422.8873, 4356.917
423.3694, 4389.044
423.8515, 4416.208
424.3336, 4436.411
424.8157, 4447.191
425.2979, 4439.354
425.7800, 4434.018
426.2621, 4440.439
426.7442, 4458.276
427.2263, 4451.429
427.7084, 4404.698
428.1906, 4353.135
428.6727, 4323.424
429.1548, 4322.666
429.6369, 4317.745
430.1190, 4305.428
430.6011, 4286.833
431.0833, 4263.159
431.5654, 4233.156
432.0475, 4205.021
432.5296, 4183.460
433.0117, 4167.777
433.4938, 4150.250
433.9760, 4129.797
434.4581, 4110.536
434.9402, 4100.625
435.4223, 4097.462
435.9044, 4089.146
436.3865, 4062.306
436.8687, 4032.548
437.3508, 4025.135
437.8329, 4039.064
438.3150, 4061.122
438.7971, 4091.261
439.2792, 4120.674
439.7614, 4136.210
440.2435, 4128.292
440.7256, 4117.822
441.2077, 4117.036
441.6898, 4123.932
442.1719, 4133.452
442.6541, 4144.117
443.1362, 4156.429
443.6183, 4171.112
444.1004, 4189.195
444.5825, 4206.273
445.0646, 4222.154
445.5468, 4236.413
446.0289, 4248.564
446.5110, 4260.891
446.9931, 4268.456
447.4752, 4268.514
447.9573, 4261.718
448.4395, 4257.891
448.9216, 4257.543
449.4037, 4259.479
449.8858, 4263.672
450.3679, 4271.878
450.8500, 4276.904
451.3322, 4278.747
451.8143, 4276.771
452.2964, 4266.140
452.7785, 4243.757
453.2606, 4230.525
453.7427, 4240.778
454.2249, 4270.549
454.7070, 4287.409
455.1891, 4290.145
455.6712, 4287.786
456.1533, 4290.876
456.6354, 4297.351
457.1176, 4298.922
457.5997, 4290.928
458.0818, 4279.577
458.5639, 4271.642
459.0460, 4267.326
459.5281, 4268.257
460.0103, 4279.777
460.4924, 4294.708
460.9745, 4305.457
461.4566, 4310.519
461.9387, 4312.564
462.4208, 4308.174
462.9030, 4302.552
463.3851, 4303.819
463.8672, 4325.486
464.3493, 4344.182
464.8314, 4346.964
465.3135, 4333.484
465.7957, 4328.739
466.2778, 4344.133
466.7599, 4365.036
467.2420, 4381.980
467.7241, 4393.672
468.2062, 4403.755
468.6884, 4415.925
469.1705, 4425.972
469.6526, 4420.560
470.1347, 4388.879
470.6168, 4364.456
471.0989, 4361.854
471.5811, 4382.025
472.0632, 4401.248
472.5453, 4419.541
473.0274, 4436.782
473.5095, 4455.346
473.9916, 4474.874
474.4738, 4482.721
474.9559, 4469.608
475.4380, 4449.571
475.9201, 4455.104
476.4022, 4483.509
476.8843, 4512.081
477.3665, 4523.922
477.8486, 4526.917
478.3307, 4533.661
478.8128, 4546.309
479.2949, 4559.491
479.7770, 4568.710
480.2592, 4575.956
480.7413, 4584.342
481.2234, 4592.659
481.7055, 4604.526
482.1876, 4627.464
482.6697, 4659.592
483.1518, 4678.929
483.6339, 4665.249
484.1161, 4646.796
484.5982, 4640.988
485.0803, 4662.917
485.5624, 4676.296
486.0445, 4673.316
486.5266, 4663.079
487.0088, 4661.681
487.4909, 4673.494
487.9730, 4686.947
488.4551, 4701.275
488.9372, 4716.285
489.4193, 4719.658
489.9015, 4708.751
490.3836, 4692.975
490.8657, 4676.061
491.3478, 4658.367
491.8299, 4655.783
492.3120, 4674.717
492.7942, 4702.480
493.2763, 4718.718
493.7584, 4723.984
494.2405, 4723.123
494.7226, 4713.786
495.2047, 4701.670
495.6869, 4696.542
496.1690, 4698.783
496.6511, 4702.453
497.1332, 4707.197
497.6153, 4709.426
498.0974, 4703.792
498.5796, 4677.266
499.0617, 4657.550
499.5438, 4664.291
500.0259, 4688.817
500.5080, 4707.389
500.9901, 4708.033
501.4723, 4705.451
501.9544, 4706.489
502.4365, 4714.063
502.9186, 4715.801
503.4007, 4710.690
503.8828, 4699.893
504.3650, 4683.460
504.8471, 4656.791
505.3292, 4634.073
505.8113, 4617.009
506.2934, 4605.353
506.7755, 4598.625
507.2577, 4597.105
507.7398, 4599.413
508.2219, 4610.030
508.7040, 4626.800
509.1861, 4625.602
509.6682, 4603.795
510.1504, 4576.955
510.6325, 4558.184
511.1146, 4548.223
511.5967, 4549.795
512.0789, 4568.968
512.5610, 4594.281
513.0431, 4611.801
513.5251, 4623.955
514.0073, 4640.355
514.4894, 4672.856
514.9715, 4707.252
515.4536, 4731.819
515.9357, 4742.668
516.4178, 4754.551
516.9000, 4772.756
517.3821, 4794.191
517.8642, 4815.706
518.3463, 4831.657
518.8284, 4853.503
519.3105, 4885.901
519.7927, 4926.254
520.2748, 4961.846
520.7569, 4991.207
521.2390, 5018.189
521.7211, 5042.876
522.2032, 5063.402
522.6854, 5096.805
523.1675, 5147.806
523.6496, 5200.673
524.1317, 5235.631
524.6138, 5253.545
525.0959, 5268.553
525.5781, 5282.788
526.0602, 5298.083
526.5423, 5315.714
527.0244, 5336.274
527.5065, 5365.428
527.9886, 5421.591
528.4708, 5481.116
528.9529, 5515.748
529.4350, 5521.160
529.9171, 5513.514
530.3992, 5488.792
530.8813, 5461.832
531.3635, 5449.168
531.8456, 5478.400
532.3277, 5498.421
532.8098, 5487.732
533.2919, 5454.411
533.7740, 5431.666
534.2562, 5437.246
534.7383, 5438.697
535.2204, 5422.889
535.7025, 5384.835
536.1846, 5356.369
536.6667, 5341.745
537.1489, 5330.073
537.6310, 5309.003
538.1131, 5277.107
538.5952, 5246.767
539.0773, 5218.382
539.5594, 5194.039
540.0416, 5180.649
540.5237, 5177.182
541.0058, 5172.873
541.4879, 5158.962
541.9700, 5141.381
542.4521, 5131.918
542.9343, 5131.038
543.4164, 5129.036
543.8985, 5118.764
544.3806, 5103.396
544.8627, 5086.569
545.3448, 5068.779
545.8270, 5050.421
546.3091, 5031.848
546.7912, 5013.036
547.2733, 4993.746
547.7554, 4976.264
548.2375, 4956.112
548.7197, 4929.963
549.2018, 4897.287
549.6839, 4869.921
550.1660, 4848.132
550.6481, 4831.473
551.1302, 4820.856
551.6124, 4817.756
552.0945, 4811.890
552.5766, 4800.915
553.0587, 4789.512
553.5408, 4783.912
554.0229, 4784.202
554.5051, 4793.247
554.9872, 4819.736
555.4693, 4850.935
555.9514, 4860.570
556.4335, 4850.566
556.9156, 4837.467
557.3978, 4827.188
557.8799, 4822.471
558.3620, 4828.378
558.8441, 4848.612
559.3262, 4866.628
559.8083, 4874.683
560.2905, 4875.973
560.7726, 4874.116
561.2547, 4873.464
561.7368, 4865.959
562.2189, 4841.080
562.7010, 4806.118
563.1832, 4792.066
563.6653, 4814.979
564.1474, 4834.419
564.6295, 4832.168
565.1116, 4805.867
565.5938, 4785.326
566.0759, 4770.708
566.5580, 4761.717
567.0401, 4759.584
567.5222, 4763.625
568.0043, 4767.645
568.4865, 4769.928
568.9686, 4772.788
569.4507, 4777.728
569.9328, 4785.660
570.4149, 4799.815
570.8970, 4822.752
571.3792, 4851.859
571.8613, 4888.235
572.3434, 4931.196
572.8255, 4968.276
573.3076, 4986.559
573.7897, 5001.685
574.2719, 5024.845
574.7540, 5064.676
575.2361, 5098.766
575.7182, 5121.452
576.2003, 5139.185
576.6824, 5160.335
577.1646, 5189.748
577.6467, 5211.188
578.1288, 5216.328
578.6109, 5212.621
579.0930, 5232.112
579.5751, 5277.729
580.0573, 5325.714
580.5394, 5368.686
581.0215, 5403.999
581.5036, 5415.194
581.9857, 5400.514
582.4678, 5380.117
582.9500, 5365.912
583.4321, 5359.642
583.9142, 5366.958
584.3963, 5399.702
584.8784, 5426.291
585.3605, 5420.964
585.8427, 5395.955
586.3248, 5374.876
586.8069, 5362.395
587.2890, 5357.514
587.7711, 5361.317
588.2532, 5374.023
588.7354, 5389.163
589.2175, 5403.213
589.6996, 5424.309
590.1817, 5459.404
590.6638, 5513.553
591.1459, 5556.506
591.6281, 5582.929
592.1102, 5609.813
592.5923, 5661.792
593.0744, 5736.704
593.5565, 5810.015
594.0386, 5878.803
594.5208, 5938.797
595.0029, 5971.529
595.4850, 5986.500
595.9671, 6019.367
596.4492, 6111.008
596.9313, 6212.787
597.4135, 6285.679
597.8956, 6327.613
598.3777, 6366.411
598.8598, 6410.852
599.3419, 6457.464
599.8240, 6504.377
600.3062, 6561.462
600.7883, 6602.109
601.2704, 6622.072
601.7525, 6627.719
602.2346, 6627.849
602.7167, 6625.399
603.1989, 6607.117
603.6810, 6567.891
604.1631, 6512.099
604.6452, 6450.562
605.1273, 6384.112
605.6094, 6311.456
606.0916, 6226.672
606.5737, 6136.848
607.0558, 6057.351
607.5379, 5989.033
608.0200, 5915.931
608.5021, 5824.115
608.9843, 5723.305
609.4664, 5623.040
609.9485, 5521.444
610.4306, 5427.598
610.9127, 5344.317
611.3948, 5270.731
611.8770, 5207.270
612.3591, 5165.805
612.8412, 5118.966
613.3233, 5059.065
613.8054, 4990.279
614.2875, 4933.436
614.7697, 4890.626
615.2518, 4853.253
615.7339, 4817.126
616.2160, 4782.555
616.6981, 4756.914
617.1802, 4740.421
617.6624, 4723.955
618.1445, 4697.933
618.6266, 4666.194
619.1087, 4636.396
619.5908, 4611.042
620.0729, 4584.574
620.5551, 4550.590
621.0372, 4513.673
621.5193, 4480.769
622.0014, 4452.531
622.4835, 4430.120
622.9656, 4417.141
623.4478, 4411.362
623.9299, 4402.189
624.4120, 4387.598
624.8941, 4372.131
625.3762, 4356.878
625.8583, 4341.792
626.3405, 4328.035
626.8226, 4315.201
627.3047, 4304.841
627.7868, 4300.322
628.2689, 4300.123
628.7510, 4294.240
629.2332, 4280.401
629.7153, 4266.688
630.1974, 4268.053
630.6795, 4275.252
631.1616, 4270.272
631.6437, 4239.775
632.1259, 4204.432
632.6080, 4168.534
633.0901, 4136.405
633.5722, 4118.906
634.0543, 4141.996
634.5364, 4157.608
635.0186, 4144.387
635.5007, 4102.670
635.9828, 4077.540
636.4649, 4077.387
636.9470, 4079.868
637.4291, 4068.999
637.9112, 4043.508
638.3933, 4029.831
638.8754, 4029.669
639.3575, 4036.189
639.8397, 4045.270
