##NAMES=Humite
##RRUFFID=R050665
##IDEAL CHEMISTRY=Mg_7_(SiO_4_)_3_(F,OH)_2_
##LOCALITY=Tilly Foster mine, Brewster, Putnam County, New York, USA
##OWNER=RRUFF
##SOURCE=University of Arizona Mineral Museum
##DESCRIPTION=Granular aggregate of reddish-orange crystals
##STATUS=The identification of this mineral has been confirmed by X-ray diffraction and chemical analysis
##URL=rruff.info/R050665
##MEASURED CHEMISTRY=(Mg_0.91_Fe^2+^_0.09_)_7_(Si_1.00_O_4_)_3_(F_0.56_(OH)_0.44_)_2_
90.26367, 6.464221
90.74579, 6.567075
91.22791, 6.499333
91.71002, 6.284488
92.19214, 6.131824
92.67426, 6.407308
93.15637, 6.904504
93.63850, 7.052176
94.12061, 6.380132
94.60273, 5.307359
95.08485, 4.861892
95.56696, 5.101400
96.04908, 5.605139
96.53120, 5.956860
97.01331, 6.152079
97.49543, 6.220977
97.97755, 6.038107
98.45966, 5.634809
98.94178, 5.666888
99.42390, 6.310619
99.90602, 7.139879
100.3881, 7.239762
100.8703, 6.395717
101.3524, 5.582810
101.8345, 5.388223
102.3166, 6.030444
102.7987, 6.340859
103.2808, 6.136268
103.7630, 5.545341
104.2451, 5.137510
104.7272, 4.945832
105.2093, 4.888695
105.6914, 4.933741
106.1735, 5.221370
106.6557, 5.363950
107.1378, 5.235605
107.6199, 4.821652
108.1020, 4.609075
108.5841, 4.796956
109.0662, 5.080614
109.5484, 5.189235
110.0305, 4.792427
110.5126, 4.549620
110.9947, 4.636132
111.4768, 5.149565
111.9590, 5.549083
112.4411, 5.759147
112.9232, 5.837851
113.4053, 5.853896
113.8874, 5.640853
114.3695, 5.512523
114.8517, 5.623636
115.3338, 6.102902
115.8159, 6.536413
116.2980, 6.789732
116.7801, 6.914181
117.2622, 7.021625
117.7444, 7.098541
118.2265, 7.206945
118.7086, 7.399110
119.1907, 7.757354
119.6728, 8.095967
120.1549, 8.232821
120.6371, 8.232382
121.1192, 8.356708
121.6013, 8.778197
122.0834, 9.396305
122.5655, 10.11126
123.0477, 11.03706
123.5298, 11.92159
124.0119, 12.43681
124.4940, 12.61138
124.9761, 12.85156
125.4582, 13.61690
125.9404, 14.67528
126.4225, 15.56437
126.9046, 15.89141
127.3867, 16.00431
127.8688, 16.52097
128.3509, 17.47541
128.8331, 18.50180
129.3152, 19.16683
129.7973, 19.53741
130.2794, 19.93308
130.7615, 20.46234
131.2436, 21.12793
131.7258, 21.97583
132.2079, 23.04819
132.6900, 24.18419
133.1721, 25.05869
133.6542, 25.66306
134.1364, 26.41086
134.6185, 27.61416
135.1006, 29.25869
135.5827, 30.80968
136.0648, 32.25159
136.5469, 33.57064
137.0291, 34.71078
137.5112, 35.63802
137.9933, 36.49601
138.4754, 37.40814
138.9575, 38.39561
139.4396, 39.26875
139.9218, 40.03551
140.4039, 40.66740
140.8860, 40.93294
141.3681, 40.63869
141.8502, 40.31860
142.3323, 40.42842
142.8145, 41.15973
143.2966, 41.82721
143.7787, 42.29906
144.2608, 42.58334
144.7429, 42.92148
145.2251, 43.28679
145.7072, 43.73462
146.1893, 44.34868
146.6714, 45.38966
147.1535, 46.19702
147.6356, 46.48419
148.1178, 46.09084
148.5999, 46.26414
149.0820, 47.40801
149.5641, 48.94993
150.0462, 50.20803
150.5283, 50.87386
151.0105, 51.54762
151.4926, 51.91751
151.9747, 52.47866
152.4568, 52.89581
152.9389, 53.10662
153.4210, 53.18634
153.9032, 53.24131
154.3853, 53.44591
154.8674, 53.48707
155.3495, 53.20012
155.8316, 52.31512
156.3138, 51.71076
156.7959, 51.68426
157.2780, 52.00844
157.7601, 52.25780
158.2422, 52.30062
158.7243, 52.27708
159.2065, 52.26221
159.6886, 52.31689
160.1707, 52.29306
160.6528, 52.02590
161.1349, 51.63086
161.6170, 51.41632
162.0992, 51.77750
162.5813, 52.18149
163.0634, 52.26174
163.5455, 51.72830
164.0276, 51.14830
164.5097, 50.69860
164.9919, 50.38728
165.4740, 50.25219
165.9561, 50.33479
166.4382, 50.58873
166.9203, 50.98857
167.4025, 51.77633
167.8846, 52.45310
168.3667, 52.56779
168.8488, 52.21309
169.3309, 51.98586
169.8130, 52.36799
170.2952, 53.05088
170.7773, 53.64977
171.2594, 54.09506
171.7415, 54.36841
172.2236, 54.33197
172.7057, 54.01206
173.1879, 53.81152
173.6700, 54.18244
174.1521, 54.85687
174.6342, 55.38265
175.1163, 55.43985
175.5984, 55.33856
176.0806, 55.44571
176.5627, 55.76160
177.0448, 56.13780
177.5269, 56.50266
178.0090, 56.83115
178.4911, 57.07320
178.9733, 57.09308
179.4554, 57.04590
179.9375, 57.21169
180.4196, 57.60857
180.9017, 58.05367
181.3839, 58.37651
181.8660, 58.59147
182.3481, 58.75904
182.8302, 58.81470
183.3123, 58.85026
183.7944, 59.12566
184.2766, 59.68715
184.7587, 60.29267
185.2408, 60.62296
185.7229, 60.71675
186.2050, 60.82652
186.6871, 61.09778
187.1693, 61.48953
187.6514, 61.82511
188.1335, 62.08899
188.6156, 62.33879
189.0977, 62.68089
189.5798, 63.10780
190.0620, 63.51590
190.5441, 63.86235
191.0262, 64.14788
191.5083, 64.38268
191.9904, 64.57069
192.4725, 64.70897
192.9547, 64.78913
193.4368, 64.81144
193.9189, 64.79805
194.4010, 64.83855
194.8831, 64.91329
195.3652, 64.63417
195.8474, 63.87101
196.3295, 62.91373
196.8116, 62.36840
197.2937, 62.27290
197.7758, 62.24001
198.2579, 62.04669
198.7401, 61.68909
199.2222, 61.36456
199.7043, 61.12864
200.1864, 60.89240
200.6685, 60.33271
201.1507, 59.33989
201.6328, 58.55148
202.1149, 58.55920
202.5970, 59.49657
203.0791, 59.77502
203.5612, 59.04149
204.0434, 57.74091
204.5255, 57.13631
205.0076, 57.37980
205.4897, 57.79354
205.9718, 57.93799
206.4539, 57.74359
206.9361, 57.72436
207.4182, 58.00951
207.9003, 58.46130
208.3824, 58.62914
208.8645, 58.45042
209.3466, 58.15320
209.8288, 57.82056
210.3109, 57.39412
210.7930, 57.21251
211.2751, 57.40853
211.7572, 57.84427
212.2393, 57.99139
212.7215, 57.74753
213.2036, 57.43734
213.6857, 57.23318
214.1678, 57.10565
214.6499, 57.20034
215.1321, 57.60620
215.6142, 58.23893
216.0963, 58.72585
216.5784, 59.03753
217.0605, 59.25767
217.5426, 59.42916
218.0248, 59.53640
218.5069, 59.64386
218.9890, 59.79324
219.4711, 59.94882
219.9532, 59.91008
220.4353, 59.54097
220.9175, 59.20121
221.3996, 59.15779
221.8817, 59.59736
222.3638, 59.83589
222.8459, 59.73486
223.3280, 59.37456
223.8102, 59.19625
224.2923, 59.33855
224.7744, 59.44540
225.2565, 59.22940
225.7386, 58.40754
226.2208, 57.97418
226.7029, 58.19925
227.1850, 58.90986
227.6671, 59.17015
228.1492, 58.73811
228.6313, 58.20007
229.1135, 57.90857
229.5956, 57.93941
230.0777, 58.05397
230.5598, 58.31578
231.0419, 58.66010
231.5240, 58.74776
232.0062, 58.42021
232.4883, 58.05363
232.9704, 57.87765
233.4525, 57.97546
233.9346, 58.08426
234.4167, 58.19735
234.8989, 58.30854
235.3810, 58.38947
235.8631, 58.44563
236.3452, 58.46431
236.8273, 58.43256
237.3095, 58.31942
237.7916, 58.21378
238.2737, 58.07488
238.7558, 57.94293
239.2379, 57.99885
239.7200, 58.34191
240.2022, 58.73759
240.6843, 59.09287
241.1664, 59.51197
241.6485, 59.63555
242.1306, 59.25679
242.6127, 58.57279
243.0949, 58.38745
243.5770, 59.04177
244.0591, 59.72509
244.5412, 59.99535
245.0233, 59.61321
245.5054, 59.36685
245.9876, 59.33498
246.4697, 59.44995
246.9518, 59.49049
247.4339, 59.40290
247.9160, 59.32119
248.3981, 59.31630
248.8803, 59.43385
249.3624, 59.51004
249.8445, 59.49442
250.3266, 59.44659
250.8087, 59.54063
251.2909, 59.83750
251.7730, 60.17407
252.2551, 60.47599
252.7372, 60.73253
253.2193, 60.99290
253.7014, 61.29293
254.1836, 61.57877
254.6657, 61.70853
255.1478, 61.60268
255.6299, 61.48067
256.1120, 61.42738
256.5941, 61.45209
257.0763, 61.52242
257.5584, 61.65222
258.0405, 61.82075
258.5226, 61.99282
259.0047, 62.19281
259.4868, 62.34880
259.9690, 62.40141
260.4511, 62.29458
260.9332, 62.37523
261.4153, 62.78185
261.8974, 63.25586
262.3795, 63.30974
262.8617, 62.75549
263.3438, 62.23365
263.8259, 61.95632
264.3080, 61.95153
264.7901, 62.03045
265.2722, 62.26765
265.7544, 62.49978
266.2365, 62.43578
266.7186, 61.94520
267.2007, 61.56652
267.6829, 61.54515
268.1650, 61.91790
268.6471, 61.93860
269.1292, 61.47908
269.6113, 60.87110
270.0934, 60.49824
270.5756, 60.36509
271.0577, 60.45060
271.5398, 60.83155
272.0219, 61.49690
272.5040, 61.92523
272.9861, 62.08202
273.4683, 62.06927
273.9504, 61.95111
274.4325, 61.69954
274.9146, 61.49536
275.3967, 61.35657
275.8788, 61.29354
276.3610, 61.48294
276.8431, 62.03033
277.3252, 62.50425
277.8073, 62.39241
278.2894, 61.62718
278.7715, 61.07980
279.2537, 60.99804
279.7358, 61.24739
280.2179, 61.21476
280.7000, 60.83742
281.1821, 60.46260
281.6642, 60.44432
282.1464, 60.78586
282.6285, 60.92474
283.1106, 60.70403
283.5927, 60.27827
284.0748, 60.08159
284.5569, 60.13335
285.0391, 60.22963
285.5212, 60.24306
286.0033, 60.17583
286.4854, 60.04319
286.9675, 59.81286
287.4496, 59.56859
287.9318, 59.51657
288.4139, 59.65950
288.8960, 59.78490
289.3781, 59.76751
289.8602, 59.62461
290.3424, 59.41577
290.8245, 59.11573
291.3066, 58.83064
291.7887, 58.78920
292.2708, 58.96296
292.7530, 59.08281
293.2351, 58.93536
293.7172, 58.61519
294.1993, 58.44349
294.6814, 58.46037
295.1635, 58.50193
295.6457, 58.30232
296.1278, 57.92525
296.6099, 57.64680
297.0920, 57.67067
297.5741, 57.86649
298.0562, 58.00289
298.5384, 58.07653
299.0205, 58.07604
299.5026, 58.00093
299.9847, 57.84404
300.4668, 57.57738
300.9489, 57.05026
301.4311, 56.48389
301.9132, 56.22602
302.3953, 56.26627
302.8774, 56.39932
303.3595, 56.46703
303.8416, 56.51266
304.3238, 56.62443
304.8059, 56.92419
305.2880, 57.20717
305.7701, 57.23832
306.2522, 57.04458
306.7343, 56.78876
307.2165, 56.52924
307.6986, 56.28416
308.1807, 56.07500
308.6628, 55.90359
309.1449, 55.76930
309.6270, 55.60847
310.1092, 55.46548
310.5913, 55.48990
311.0734, 56.01255
311.5555, 56.60434
312.0376, 56.83104
312.5197, 56.46738
313.0019, 56.13694
313.4840, 56.31521
313.9661, 56.77590
314.4482, 57.05783
314.9304, 56.81176
315.4125, 56.43587
315.8946, 56.13075
316.3767, 55.89766
316.8588, 55.84870
317.3409, 56.24552
317.8231, 56.79663
318.3052, 57.11648
318.7873, 56.91764
319.2694, 56.61729
319.7515, 56.36427
320.2336, 56.16911
320.7158, 56.01200
321.1979, 55.90873
321.6800, 55.83245
322.1621, 55.75942
322.6442, 55.69082
323.1263, 55.61818
323.6085, 55.52021
324.0906, 55.40171
324.5727, 55.33640
325.0548, 55.38177
325.5369, 55.45446
326.0190, 55.50420
326.5012, 55.55819
326.9833, 55.55393
327.4654, 55.43719
327.9475, 55.24546
328.4296, 55.13062
328.9117, 55.16616
329.3939, 55.21396
329.8760, 55.22052
330.3581, 55.18183
330.8402, 55.10454
331.3223, 54.95623
331.8044, 54.77629
332.2866, 54.64526
332.7687, 54.58157
333.2508, 54.54037
333.7329, 54.52387
334.2150, 54.55573
334.6971, 54.46574
335.1793, 54.12038
335.6614, 53.78088
336.1435, 53.84110
336.6256, 54.49500
337.1077, 55.04216
337.5899, 55.30319
338.0720, 55.29238
338.5541, 55.15697
339.0362, 54.83602
339.5183, 54.52822
340.0005, 54.41375
340.4826, 54.50462
340.9647, 54.72872
341.4468, 55.15308
341.9289, 55.66009
342.4110, 55.79760
342.8932, 55.50544
343.3753, 55.22739
343.8574, 55.34330
344.3395, 55.81963
344.8216, 56.12508
345.3037, 56.19062
345.7859, 56.09425
346.2680, 55.91205
346.7501, 55.65080
347.2322, 55.45596
347.7143, 55.44373
348.1964, 55.56007
348.6786, 55.61184
349.1607, 55.57833
349.6428, 55.56625
350.1249, 55.73049
350.6070, 56.02214
351.0891, 56.29413
351.5713, 56.59763
352.0534, 56.79058
352.5355, 56.57223
353.0176, 55.95958
353.4997, 55.32294
353.9818, 54.95336
354.4640, 54.75117
354.9461, 54.56183
355.4282, 54.35005
355.9103, 54.12807
356.3924, 53.87551
356.8745, 53.61089
357.3567, 53.41214
357.8388, 53.36089
358.3209, 53.37144
358.8030, 53.39471
359.2851, 53.46754
359.7672, 53.42374
360.2494, 53.03028
360.7315, 52.46780
361.2136, 52.07536
361.6957, 52.14483
362.1779, 52.27661
362.6600, 52.27577
363.1421, 52.11426
363.6242, 51.90910
364.1063, 51.67393
364.5884, 51.41909
365.0706, 51.15717
365.5527, 50.61951
366.0348, 50.35691
366.5169, 50.71262
366.9990, 51.63017
367.4811, 52.14652
367.9633, 51.75300
368.4454, 51.22047
368.9275, 50.98883
369.4096, 51.22908
369.8917, 51.54747
370.3738, 52.11470
370.8560, 52.75156
371.3381, 52.91727
371.8202, 52.20888
372.3023, 51.57809
372.7844, 51.41881
373.2665, 51.86158
373.7487, 52.24764
374.2308, 52.58260
374.7129, 52.85558
375.1950, 53.04949
375.6771, 53.14906
376.1592, 53.22042
376.6414, 53.28345
377.1235, 53.33545
377.6056, 53.32784
378.0877, 53.23160
378.5698, 53.17155
379.0519, 53.24977
379.5341, 53.46573
380.0162, 53.80626
380.4983, 54.31728
380.9804, 54.89286
381.4625, 55.27406
381.9446, 55.46832
382.4268, 55.56790
382.9089, 55.62068
383.3910, 55.62436
383.8731, 55.57592
384.3553, 55.47677
384.8374, 55.31562
385.3195, 55.05730
385.8016, 54.72353
386.2837, 54.37260
386.7658, 53.97333
387.2480, 53.60347
387.7301, 53.45142
388.2122, 53.50224
388.6943, 53.40268
389.1764, 52.73202
389.6585, 51.81125
390.1407, 51.04800
390.6228, 50.54002
391.1049, 50.24050
391.5870, 50.36000
392.0691, 50.71241
392.5512, 50.73706
393.0334, 49.88470
393.5155, 48.82573
393.9976, 47.96669
394.4797, 47.37920
394.9618, 46.94062
395.4439, 46.72630
395.9261, 46.60667
396.4082, 46.41031
396.8903, 46.10270
397.3724, 45.71036
397.8545, 45.13911
398.3366, 44.37380
398.8188, 43.88686
399.3009, 43.99396
399.7830, 44.20155
400.2651, 44.19582
400.7472, 43.79442
401.2293, 43.44756
401.7115, 43.14582
402.1936, 42.91367
402.6757, 42.84668
403.1578, 43.05093
403.6399, 43.23534
404.1220, 43.22069
404.6042, 42.91866
405.0863, 42.98393
405.5684, 43.56421
406.0505, 44.27252
406.5326, 44.57803
407.0147, 44.43319
407.4969, 44.24061
407.9790, 44.06953
408.4611, 43.94175
408.9432, 43.92055
409.4254, 44.00027
409.9075, 44.25689
410.3896, 44.92435
410.8717, 45.87040
411.3538, 46.48024
411.8359, 46.61034
412.3181, 46.49685
412.8002, 46.35274
413.2823, 46.21535
413.7644, 46.22363
414.2465, 46.61276
414.7286, 47.11929
415.2108, 47.35811
415.6929, 47.30232
416.1750, 47.23952
416.6571, 47.42219
417.1392, 47.71996
417.6213, 47.95687
418.1035, 47.93245
418.5856, 47.98132
419.0677, 48.41026
419.5498, 49.10870
420.0319, 49.64540
420.5140, 49.76336
420.9962, 49.73039
421.4783, 49.70592
421.9604, 49.72818
422.4425, 49.71711
422.9246, 49.66631
423.4067, 49.56971
423.8889, 49.41771
424.3710, 49.14658
424.8531, 48.88487
425.3352, 48.64031
425.8173, 48.41154
426.2994, 48.28651
426.7816, 48.31123
427.2637, 48.39447
427.7458, 48.49340
428.2279, 48.66432
428.7100, 48.71322
429.1921, 48.61330
429.6743, 48.39476
430.1564, 48.10608
430.6385, 47.71940
431.1206, 47.37043
431.6028, 47.12398
432.0849, 46.97419
432.5670, 46.75206
433.0491, 46.38517
433.5312, 45.86747
434.0133, 46.19761
434.4955, 46.36980
434.9776, 46.39256
435.4597, 45.81824
435.9418, 46.01491
436.4239, 45.90261
436.9060, 45.77763
437.3882, 46.08281
437.8703, 45.59534
438.3524, 45.89371
438.8345, 45.83318
439.3166, 46.01269
439.7987, 46.37482
440.2809, 47.00926
440.7630, 47.74225
441.2451, 48.29690
441.7272, 48.44193
442.2093, 48.49045
442.6914, 48.57374
443.1736, 48.69427
443.6557, 48.85233
444.1378, 49.07954
444.6199, 49.32438
445.1020, 49.55024
445.5841, 49.72572
446.0663, 49.93346
446.5484, 50.22392
447.0305, 50.54602
447.5126, 50.81702
447.9947, 51.04877
448.4768, 51.20763
448.9590, 51.23594
449.4411, 51.12764
449.9232, 51.19955
450.4053, 51.54337
450.8874, 51.93488
451.3695, 52.19725
451.8517, 52.29572
452.3338, 52.42480
452.8159, 52.60892
453.2980, 52.82045
453.7801, 53.02861
454.2622, 53.23646
454.7444, 53.36451
455.2265, 53.29531
455.7086, 53.10618
456.1907, 53.15371
456.6729, 53.45160
457.1550, 53.82623
457.6371, 54.14861
458.1192, 54.42720
458.6013, 54.69572
459.0834, 54.97357
459.5656, 55.21791
460.0477, 55.37329
460.5298, 55.45415
461.0119, 55.49632
461.4940, 55.43231
461.9761, 55.39754
462.4583, 55.53797
462.9404, 55.88148
463.4225, 56.17401
463.9046, 56.23606
464.3867, 56.22254
464.8688, 56.27851
465.3510, 56.57414
465.8331, 56.78992
466.3152, 56.81601
466.7973, 56.70218
467.2794, 56.62700
467.7615, 56.50230
468.2437, 56.51759
468.7258, 56.80157
469.2079, 57.46906
469.6900, 57.82446
470.1721, 57.63235
470.6542, 57.38200
471.1364, 57.67620
471.6185, 58.72747
472.1006, 59.46829
472.5827, 59.65880
473.0648, 59.45174
473.5469, 59.25309
474.0291, 59.05417
474.5112, 58.96718
474.9933, 59.13350
475.4754, 59.48226
475.9575, 59.66912
476.4396, 59.65968
476.9218, 59.66369
477.4039, 59.90119
477.8860, 60.32201
478.3681, 60.83046
478.8503, 61.52837
479.3324, 62.13700
479.8145, 62.24829
480.2966, 61.99801
480.7787, 61.88277
481.2608, 62.39273
481.7430, 62.96437
482.2251, 63.14816
482.7072, 62.81366
483.1893, 62.56271
483.6714, 62.67858
484.1535, 62.94748
484.6357, 63.15287
485.1178, 63.23040
485.5999, 63.27977
486.0820, 63.32554
486.5641, 63.35789
487.0462, 63.33022
487.5284, 63.18431
488.0105, 63.05901
488.4926, 63.02222
488.9747, 63.09864
489.4568, 63.10817
489.9389, 63.04105
490.4211, 62.92458
490.9032, 62.80671
491.3853, 62.69292
491.8674, 62.43725
492.3495, 61.90813
492.8316, 61.34377
493.3138, 61.39676
493.7959, 62.00825
494.2780, 62.52179
494.7601, 62.38041
495.2422, 61.92053
495.7243, 61.87176
496.2065, 62.28496
496.6886, 62.59859
497.1707, 62.17489
497.6528, 61.43402
498.1349, 60.96083
498.6170, 61.05791
499.0992, 61.25084
499.5813, 61.30748
500.0634, 61.26379
500.5455, 61.20967
501.0276, 61.25061
501.5097, 61.21946
501.9919, 61.01672
502.4740, 60.60621
502.9561, 60.24417
503.4382, 59.73505
503.9203, 59.43041
504.4025, 59.64051
504.8846, 60.88511
505.3667, 61.53536
505.8488, 61.26075
506.3309, 60.48429
506.8130, 60.18386
507.2952, 60.50241
507.7773, 60.64931
508.2594, 60.19709
508.7415, 59.30848
509.2236, 58.94984
509.7057, 59.15275
510.1879, 59.48371
510.6700, 59.52895
511.1521, 59.41447
511.6342, 59.54816
512.1163, 60.03899
512.5984, 60.61513
513.0806, 60.94546
513.5627, 61.14893
514.0448, 61.47416
514.5269, 62.20094
515.0090, 62.94513
515.4911, 63.40954
515.9733, 63.63488
516.4554, 63.90035
516.9375, 64.32841
517.4196, 64.82124
517.9017, 65.31342
518.3839, 65.75797
518.8660, 66.29978
519.3481, 66.98054
519.8302, 67.75275
520.3123, 68.57893
520.7944, 69.63026
521.2766, 70.41432
521.7587, 70.72033
522.2408, 70.72170
522.7229, 71.16968
523.2050, 72.19401
523.6871, 73.18963
524.1693, 73.79028
524.6514, 74.02767
525.1335, 74.44614
525.6156, 75.06651
526.0977, 75.74709
526.5798, 76.38569
527.0620, 76.97954
527.5441, 77.49876
528.0262, 77.90355
528.5083, 78.29671
528.9904, 78.83071
529.4725, 79.43670
529.9547, 79.94397
530.4368, 80.29353
530.9189, 80.48994
531.4010, 80.48852
531.8831, 80.29282
532.3652, 80.07909
532.8474, 80.04294
533.3295, 79.91060
533.8116, 79.48514
534.2937, 78.44955
534.7758, 77.63494
535.2579, 77.21687
535.7401, 76.95427
536.2222, 76.51425
536.7043, 75.82676
537.1865, 75.10650
537.6686, 74.37141
538.1507, 73.64050
538.6328, 73.07952
539.1149, 72.72289
539.5970, 72.29209
540.0792, 71.48499
540.5613, 70.42477
541.0434, 69.85142
541.5255, 69.84241
542.0076, 69.81162
542.4897, 69.00576
542.9719, 67.77353
543.4540, 66.82143
543.9361, 66.45755
544.4182, 66.24399
544.9003, 65.97123
545.3824, 65.59502
545.8646, 65.01790
546.3467, 64.05373
546.8288, 63.01066
547.3109, 62.01369
547.7930, 61.07878
548.2751, 60.17363
548.7573, 59.22044
549.2394, 58.35622
549.7215, 57.67686
550.2036, 57.34473
550.6857, 56.81686
551.1678, 55.99535
551.6500, 55.07671
552.1321, 54.32206
552.6142, 53.72817
553.0963, 53.27113
553.5784, 52.87851
554.0605, 52.67658
554.5427, 53.21180
555.0248, 54.43492
555.5069, 55.45282
555.9890, 55.68174
556.4711, 55.36323
556.9532, 54.81611
557.4354, 54.05569
557.9175, 53.32060
558.3996, 52.63250
558.8817, 52.14238
559.3638, 52.07285
559.8459, 52.71645
560.3281, 53.29219
560.8102, 53.52390
561.2923, 53.47895
561.7744, 53.25904
562.2565, 52.55456
562.7386, 52.04104
563.2208, 51.88787
563.7029, 52.05516
564.1850, 52.27846
564.6671, 52.61768
565.1492, 52.90299
565.6313, 53.03097
566.1135, 52.98595
566.5956, 52.95027
567.0777, 52.89087
567.5598, 52.95918
568.0419, 53.43939
568.5240, 54.22887
569.0062, 54.78815
569.4883, 54.93166
569.9704, 54.98789
570.4525, 55.48750
570.9346, 56.24161
571.4167, 56.74152
571.8989, 56.41887
572.3810, 56.05021
572.8631, 56.24650
573.3452, 56.92987
573.8273, 57.53771
574.3094, 57.76331
574.7916, 57.92804
575.2737, 58.19504
575.7558, 58.58645
576.2379, 59.06437
576.7200, 59.74726
577.2021, 60.41082
577.6843, 60.82299
578.1664, 60.83046
578.6485, 61.06377
579.1306, 61.68984
579.6127, 62.46270
580.0948, 62.89290
580.5770, 62.97906
581.0591, 62.97860
581.5412, 62.99657
582.0233, 62.99061
582.5054, 62.84056
582.9875, 62.56389
583.4697, 62.27613
583.9518, 62.10334
584.4340, 61.93840
584.9161, 61.68298
