##NAMES=Hummerite
##RRUFFID=R070450
##IDEAL CHEMISTRY=KMgV^5+^_5_O_14_&#183;8H_2_O
##LOCALITY=Hummer mine, Jo Dandy mine (Paradox D; Hummer; C; Blackburn; Yellow Bird No. 1; Oversight; Broker), Paradox Valley, Uravan District, Montrose County, Colorado, USA
##OWNER=RRUFF
##SOURCE=Michael Scott
##DESCRIPTION=Bright orange coarse grains, some showing tabular crystal forms
##STATUS=The identification of this mineral has been confirmed by single-crystal X-ray diffraction.
##URL=rruff.info/R070450
135.4593, 1831.907
135.9414, 1913.367
136.4235, 1991.419
136.9057, 2065.370
137.3878, 2146.739
137.8699, 2238.812
138.3520, 2340.145
138.8341, 2447.765
139.3162, 2564.309
139.7984, 2682.204
140.2805, 2795.034
140.7626, 2899.702
141.2447, 3002.818
141.7268, 3106.664
142.2089, 3210.664
142.6911, 3312.454
143.1732, 3408.987
143.6553, 3504.445
144.1374, 3609.174
144.6195, 3735.016
145.1016, 3849.051
145.5838, 3937.693
146.0659, 3996.478
146.5480, 4040.209
147.0301, 4066.087
147.5122, 4076.709
147.9943, 4083.553
148.4765, 4091.448
148.9586, 4090.987
149.4407, 4076.724
149.9228, 4039.734
150.4049, 4000.553
150.8870, 3955.251
151.3692, 3904.169
151.8513, 3869.638
152.3334, 3858.429
152.8155, 3860.434
153.2976, 3867.784
153.7797, 3885.988
154.2619, 3903.796
154.7440, 3916.303
155.2261, 3920.647
155.7082, 3936.866
156.1903, 3969.783
156.6724, 4015.229
157.1546, 4067.319
157.6367, 4129.103
158.1188, 4194.323
158.6009, 4260.607
159.0830, 4328.022
159.5651, 4397.600
160.0473, 4468.271
160.5294, 4541.676
161.0115, 4619.741
161.4936, 4708.420
161.9757, 4798.992
162.4578, 4886.364
162.9400, 4966.655
163.4221, 5048.373
163.9042, 5132.574
164.3863, 5219.840
164.8684, 5312.518
165.3505, 5406.719
165.8327, 5508.204
166.3148, 5621.384
166.7969, 5748.786
167.2790, 5886.881
167.7611, 6035.137
168.2433, 6193.877
168.7254, 6359.414
169.2075, 6529.950
169.6896, 6706.047
170.1717, 6887.556
170.6538, 7066.616
171.1360, 7256.156
171.6181, 7472.013
172.1002, 7716.155
172.5823, 7960.575
173.0644, 8176.107
173.5465, 8379.339
174.0287, 8604.233
174.5108, 8880.981
174.9929, 9179.458
175.4750, 9469.534
175.9571, 9747.372
176.4392, 10028.47
176.9214, 10335.41
177.4035, 10656.06
177.8856, 10961.59
178.3677, 11240.70
178.8498, 11492.17
179.3319, 11715.73
179.8141, 11907.44
180.2962, 12082.34
180.7783, 12273.20
181.2604, 12469.78
181.7425, 12636.84
182.2246, 12743.23
182.7068, 12801.68
183.1889, 12843.92
183.6710, 12873.93
184.1531, 12891.68
184.6352, 12903.62
185.1173, 12908.67
185.5995, 12885.37
186.0816, 12801.34
186.5637, 12671.38
187.0458, 12551.09
187.5279, 12471.14
188.0100, 12398.73
188.4922, 12258.62
188.9743, 12047.37
189.4564, 11800.13
189.9385, 11545.76
190.4206, 11283.37
190.9027, 11006.76
191.3849, 10707.39
191.8670, 10391.04
192.3491, 10070.07
192.8312, 9738.451
193.3133, 9417.177
193.7954, 9134.213
194.2776, 8888.900
194.7597, 8648.193
195.2418, 8398.578
195.7239, 8143.125
196.2060, 7892.057
196.6881, 7642.479
197.1703, 7408.757
197.6524, 7215.239
198.1345, 7066.001
198.6166, 6930.360
199.0987, 6798.719
199.5808, 6671.076
200.0630, 6545.356
200.5451, 6417.860
201.0272, 6298.496
201.5093, 6204.676
201.9914, 6138.826
202.4735, 6088.108
202.9557, 6052.541
203.4378, 6034.766
203.9199, 5997.701
204.4020, 5932.124
204.8841, 5852.592
205.3662, 5797.276
205.8484, 5771.328
206.3305, 5751.670
206.8126, 5725.018
207.2947, 5690.386
207.7768, 5653.999
208.2589, 5613.860
208.7411, 5573.224
209.2232, 5544.248
209.7053, 5529.068
210.1874, 5520.297
210.6695, 5512.343
211.1517, 5504.162
211.6338, 5501.549
212.1159, 5506.448
212.5980, 5517.674
213.0801, 5529.368
213.5622, 5543.504
214.0444, 5554.187
214.5265, 5554.311
215.0086, 5538.603
215.4907, 5529.403
215.9728, 5530.708
216.4549, 5542.021
216.9371, 5557.387
217.4192, 5578.162
217.9013, 5600.804
218.3834, 5622.640
218.8655, 5645.196
219.3476, 5662.330
219.8298, 5670.743
220.3119, 5670.245
220.7940, 5674.276
221.2761, 5680.401
221.7582, 5693.906
222.2403, 5723.289
222.7225, 5776.198
223.2046, 5825.685
223.6867, 5860.883
224.1688, 5879.186
224.6509, 5919.746
225.1330, 5997.743
225.6152, 6084.309
226.0973, 6137.537
226.5794, 6135.031
227.0615, 6144.013
227.5436, 6185.130
228.0257, 6265.109
228.5079, 6339.064
228.9900, 6405.333
229.4721, 6467.607
229.9542, 6532.224
230.4363, 6602.488
230.9184, 6668.719
231.4006, 6727.213
231.8827, 6774.601
232.3648, 6827.020
232.8469, 6886.750
233.3290, 6950.678
233.8111, 7015.909
234.2933, 7091.336
234.7754, 7153.033
235.2575, 7188.997
235.7396, 7186.854
236.2217, 7199.187
236.7038, 7230.998
237.1860, 7275.145
237.6681, 7319.283
238.1502, 7369.907
238.6323, 7410.074
239.1144, 7430.245
239.5965, 7415.045
240.0787, 7422.442
240.5608, 7463.526
241.0429, 7523.141
241.5250, 7567.182
242.0071, 7589.229
242.4892, 7605.487
242.9714, 7620.226
243.4535, 7626.186
243.9356, 7649.066
244.4177, 7695.556
244.8998, 7757.287
245.3819, 7812.126
245.8641, 7856.080
246.3462, 7899.207
246.8283, 7946.569
247.3104, 8002.589
247.7925, 8051.613
248.2746, 8091.283
248.7568, 8124.305
249.2389, 8159.852
249.7210, 8205.944
250.2031, 8242.409
250.6852, 8257.844
251.1674, 8242.343
251.6495, 8229.512
252.1316, 8223.430
252.6137, 8220.153
253.0958, 8207.468
253.5779, 8184.540
254.0601, 8153.327
254.5422, 8114.884
255.0243, 8069.262
255.5064, 8016.894
255.9885, 7957.444
256.4706, 7891.524
256.9528, 7817.500
257.4349, 7728.796
257.9170, 7642.646
258.3991, 7569.568
258.8812, 7518.831
259.3633, 7456.146
259.8455, 7375.251
260.3276, 7281.292
260.8097, 7193.255
261.2918, 7109.495
261.7739, 7033.276
262.2560, 6966.188
262.7382, 6909.322
263.2203, 6858.482
263.7024, 6816.914
264.1845, 6779.902
264.6666, 6728.129
265.1487, 6657.405
265.6309, 6581.475
266.1130, 6506.255
266.5951, 6426.454
267.0772, 6364.984
267.5593, 6329.300
268.0414, 6310.441
268.5236, 6277.703
269.0057, 6224.656
269.4878, 6172.569
269.9699, 6135.176
270.4520, 6116.504
270.9341, 6095.179
271.4163, 6069.367
271.8984, 6039.849
272.3805, 6007.333
272.8626, 5968.917
273.3447, 5935.161
273.8268, 5914.354
274.3090, 5908.718
274.7911, 5900.156
275.2732, 5884.903
275.7553, 5867.483
276.2374, 5863.349
276.7195, 5876.441
277.2017, 5887.357
277.6838, 5880.837
278.1659, 5854.849
278.6480, 5838.430
279.1301, 5838.484
279.6122, 5845.452
280.0944, 5831.699
280.5765, 5793.022
281.0586, 5757.790
281.5407, 5747.780
282.0228, 5763.253
282.5049, 5768.440
282.9871, 5756.940
283.4692, 5737.780
283.9513, 5729.515
284.4334, 5732.560
284.9155, 5741.642
285.3976, 5757.821
285.8798, 5780.004
286.3619, 5790.695
286.8440, 5783.556
287.3261, 5772.527
287.8082, 5789.514
288.2903, 5834.818
288.7725, 5875.279
289.2546, 5883.205
289.7367, 5865.776
290.2188, 5866.824
290.7009, 5893.414
291.1830, 5931.939
291.6652, 5960.312
292.1473, 5979.398
292.6294, 5997.768
293.1115, 6021.834
293.5936, 6049.476
294.0757, 6069.606
294.5579, 6077.287
295.0400, 6090.277
295.5221, 6140.262
296.0042, 6222.029
296.4863, 6301.679
296.9684, 6358.359
297.4506, 6400.770
297.9327, 6446.568
298.4148, 6496.346
298.8969, 6554.011
299.3790, 6621.295
299.8611, 6698.974
300.3433, 6788.650
300.8254, 6898.848
301.3075, 7019.164
301.7896, 7128.602
302.2717, 7225.571
302.7538, 7321.353
303.2360, 7422.305
303.7181, 7530.154
304.2002, 7651.221
304.6823, 7794.690
305.1644, 7949.384
305.6465, 8098.201
306.1287, 8240.956
306.6108, 8386.609
307.0929, 8553.317
307.5750, 8727.573
308.0571, 8891.791
308.5392, 9024.216
309.0214, 9149.313
309.5035, 9292.492
309.9856, 9454.449
310.4677, 9614.914
310.9498, 9761.570
311.4319, 9899.003
311.9141, 10036.25
312.3962, 10195.43
312.8783, 10342.69
313.3604, 10452.80
313.8426, 10525.97
314.3247, 10588.63
314.8068, 10667.29
315.2889, 10736.92
315.7710, 10772.21
316.2531, 10757.87
316.7353, 10714.21
317.2174, 10642.05
317.6995, 10543.73
318.1816, 10441.24
318.6637, 10354.52
319.1458, 10261.44
319.6280, 10144.25
320.1101, 9979.018
320.5922, 9808.863
321.0743, 9642.260
321.5564, 9479.664
322.0385, 9323.359
322.5207, 9182.335
323.0028, 9041.879
323.4849, 8894.392
323.9670, 8728.062
324.4491, 8565.760
324.9312, 8409.250
325.4134, 8258.937
325.8955, 8116.337
326.3776, 7974.734
326.8597, 7846.043
327.3418, 7736.710
327.8239, 7679.130
328.3061, 7597.207
328.7882, 7470.175
329.2703, 7316.625
329.7524, 7183.942
330.2345, 7080.486
330.7166, 6989.809
331.1988, 6907.946
331.6809, 6846.523
332.1630, 6770.088
332.6451, 6665.874
333.1272, 6550.852
333.6093, 6459.004
334.0915, 6401.417
334.5736, 6348.638
335.0557, 6290.998
335.5378, 6227.140
336.0199, 6166.435
336.5020, 6108.756
336.9842, 6053.844
337.4663, 5999.663
337.9484, 5944.087
338.4305, 5894.959
338.9126, 5856.031
339.3947, 5827.561
339.8769, 5794.481
340.3590, 5755.657
340.8411, 5713.963
341.3232, 5670.311
341.8053, 5624.256
342.2874, 5582.333
342.7696, 5546.038
343.2517, 5515.208
343.7338, 5494.772
344.2159, 5486.713
344.6980, 5477.075
345.1801, 5446.689
345.6623, 5398.002
346.1444, 5364.580
346.6265, 5358.320
347.1086, 5367.638
347.5907, 5367.468
348.0728, 5357.841
348.5550, 5341.684
349.0371, 5315.094
349.5192, 5283.028
350.0013, 5261.885
350.4834, 5256.588
350.9655, 5259.403
351.4477, 5261.152
351.9298, 5261.864
352.4119, 5261.527
352.8940, 5258.561
353.3761, 5254.949
353.8582, 5255.625
354.3404, 5263.057
354.8225, 5267.525
355.3046, 5255.216
355.7867, 5232.325
356.2688, 5213.722
356.7509, 5207.198
357.2331, 5208.155
357.7152, 5214.724
358.1973, 5227.533
358.6794, 5237.888
359.1615, 5239.445
359.6436, 5235.260
360.1258, 5229.601
360.6079, 5221.445
361.0900, 5214.451
361.5721, 5209.471
362.0542, 5206.622
362.5363, 5208.947
363.0185, 5222.448
363.5006, 5239.540
363.9827, 5253.260
364.4648, 5264.502
364.9469, 5269.635
365.4290, 5266.640
365.9112, 5256.104
366.3933, 5242.178
366.8754, 5216.074
367.3575, 5193.163
367.8396, 5182.425
368.3217, 5194.882
368.8039, 5206.696
369.2860, 5220.714
369.7681, 5233.610
370.2502, 5235.654
370.7323, 5219.464
371.2144, 5199.696
371.6966, 5181.270
372.1787, 5163.123
372.6608, 5149.379
373.1429, 5142.486
373.6250, 5138.687
374.1071, 5130.856
374.5893, 5115.101
375.0714, 5103.353
375.5535, 5101.944
376.0356, 5112.209
376.5177, 5111.466
376.9998, 5096.452
377.4820, 5076.009
377.9641, 5062.341
378.4462, 5057.545
378.9283, 5043.880
379.4104, 5010.817
379.8925, 4960.858
380.3747, 4956.580
380.8568, 4950.313
381.3389, 4942.211
381.8210, 4924.112
382.3031, 4920.958
382.7852, 4913.061
383.2674, 4905.819
383.7495, 4907.311
384.2316, 4895.240
384.7137, 4898.385
385.1958, 4896.699
385.6779, 4898.520
386.1601, 4895.562
386.6422, 4895.244
387.1243, 4901.484
387.6064, 4905.474
388.0885, 4905.418
388.5706, 4912.739
389.0528, 4909.360
389.5349, 4917.039
390.0170, 4929.995
390.4991, 4937.937
390.9812, 4946.603
391.4633, 4954.604
391.9455, 4964.938
392.4276, 4975.985
392.9097, 4985.685
393.3918, 4986.835
393.8739, 4992.243
394.3561, 5016.086
394.8382, 5054.958
395.3203, 5077.937
395.8024, 5053.629
396.2845, 5021.354
396.7667, 5008.447
397.2488, 5042.314
397.7309, 5067.701
398.2130, 5062.150
398.6951, 5038.826
399.1772, 5039.272
399.6594, 5104.546
400.1415, 5162.483
400.6236, 5183.577
401.1057, 5144.303
401.5878, 5124.085
402.0699, 5129.826
402.5521, 5151.265
403.0342, 5174.769
403.5163, 5205.443
403.9984, 5228.876
404.4805, 5239.280
404.9626, 5236.285
405.4448, 5238.695
405.9269, 5248.207
406.4090, 5260.008
406.8911, 5267.105
407.3732, 5267.283
407.8553, 5280.051
408.3375, 5314.720
408.8196, 5360.855
409.3017, 5382.137
409.7838, 5376.504
410.2659, 5369.210
410.7480, 5379.553
411.2302, 5404.076
411.7123, 5424.869
412.1944, 5438.853
412.6765, 5451.486
413.1586, 5471.364
413.6407, 5497.073
414.1229, 5521.841
414.6050, 5545.637
415.0871, 5565.543
415.5692, 5570.672
416.0513, 5559.691
416.5334, 5557.949
417.0156, 5598.135
417.4977, 5657.930
417.9798, 5703.368
418.4619, 5714.952
418.9440, 5715.065
419.4261, 5713.013
419.9083, 5709.941
420.3904, 5712.311
420.8725, 5724.868
421.3546, 5742.826
421.8367, 5762.617
422.3188, 5783.018
422.8010, 5806.475
423.2831, 5834.848
423.7652, 5866.680
424.2473, 5899.509
424.7294, 5951.694
425.2115, 5987.954
425.6937, 5989.427
426.1758, 5940.109
426.6579, 5918.568
427.1400, 5938.389
427.6221, 5976.854
428.1042, 6012.515
428.5864, 6047.497
429.0685, 6075.505
429.5506, 6096.187
430.0327, 6109.048
430.5148, 6105.891
430.9969, 6076.868
431.4791, 6055.570
431.9612, 6072.819
432.4433, 6131.896
432.9254, 6171.175
433.4075, 6179.317
433.8896, 6174.074
434.3718, 6189.242
434.8539, 6224.299
435.3360, 6261.073
435.8181, 6293.267
436.3002, 6319.910
436.7823, 6333.783
437.2645, 6333.235
437.7466, 6336.333
438.2287, 6369.194
438.7108, 6418.856
439.1929, 6456.229
439.6750, 6462.096
440.1572, 6460.233
440.6393, 6476.172
441.1214, 6506.007
441.6035, 6530.448
442.0856, 6536.434
442.5677, 6533.283
443.0499, 6528.560
443.5320, 6523.601
444.0141, 6517.393
444.4962, 6503.882
444.9783, 6489.729
445.4604, 6486.085
445.9426, 6513.065
446.4247, 6534.890
446.9068, 6538.076
447.3889, 6519.568
447.8710, 6500.696
448.3531, 6480.091
448.8353, 6461.197
449.3174, 6446.606
449.7995, 6439.450
450.2816, 6431.235
450.7637, 6420.437
451.2458, 6408.012
451.7280, 6399.922
452.2101, 6401.085
452.6922, 6395.020
453.1743, 6368.346
453.6564, 6317.828
454.1385, 6284.566
454.6207, 6273.495
455.1028, 6269.667
455.5849, 6250.265
456.0670, 6216.405
456.5491, 6186.051
457.0313, 6169.259
457.5134, 6158.721
457.9955, 6133.916
458.4776, 6095.297
458.9597, 6060.813
459.4418, 6049.231
459.9240, 6050.385
460.4061, 6047.508
460.8882, 6037.818
461.3703, 6021.832
461.8524, 5994.312
462.3345, 5960.530
462.8167, 5933.288
463.2988, 5922.132
463.7809, 5917.043
464.2630, 5914.425
464.7451, 5914.593
465.2272, 5909.640
465.7094, 5891.656
466.1915, 5869.920
466.6736, 5852.562
467.1557, 5842.671
467.6378, 5835.623
468.1199, 5835.377
468.6021, 5838.739
469.0842, 5830.750
469.5663, 5798.491
470.0484, 5770.060
470.5305, 5758.501
471.0126, 5770.472
471.4948, 5777.527
471.9769, 5779.442
472.4590, 5776.829
472.9411, 5766.066
473.4232, 5743.575
473.9053, 5737.165
474.3875, 5761.071
474.8696, 5805.835
475.3517, 5833.887
475.8338, 5845.063
476.3159, 5846.104
476.7981, 5837.299
477.2802, 5822.152
477.7623, 5812.013
478.2444, 5809.607
478.7265, 5809.116
479.2086, 5796.512
479.6908, 5779.862
480.1729, 5779.666
480.6550, 5826.135
481.1371, 5879.451
481.6192, 5902.192
482.1013, 5894.425
482.5835, 5887.758
483.0656, 5902.451
483.5477, 5922.880
484.0298, 5935.677
484.5119, 5929.078
484.9940, 5926.404
485.4762, 5935.299
485.9583, 5951.844
486.4404, 5965.944
486.9225, 5973.606
487.4046, 5981.584
487.8867, 5989.279
488.3689, 5994.070
488.8510, 6017.493
489.3331, 6073.755
489.8152, 6131.779
490.2973, 6159.022
490.7794, 6148.183
491.2616, 6135.579
491.7437, 6123.083
492.2258, 6115.277
492.7079, 6130.740
493.1900, 6170.681
493.6721, 6207.292
494.1543, 6218.606
494.6364, 6212.921
495.1185, 6220.233
495.6006, 6243.134
496.0827, 6266.933
496.5648, 6270.277
497.0470, 6263.794
497.5291, 6269.659
498.0112, 6303.223
498.4933, 6344.226
498.9754, 6380.694
499.4576, 6411.688
499.9397, 6431.384
500.4218, 6420.957
500.9039, 6410.099
501.3860, 6420.642
501.8681, 6464.130
502.3503, 6500.349
502.8324, 6514.342
503.3145, 6518.452
503.7966, 6527.311
504.2787, 6547.094
504.7608, 6565.357
505.2430, 6579.549
505.7251, 6590.406
506.2072, 6604.617
506.6893, 6626.802
507.1714, 6643.895
507.6535, 6644.939
508.1357, 6626.281
508.6178, 6623.537
509.0999, 6641.282
509.5820, 6666.590
510.0641, 6677.936
510.5462, 6677.251
511.0284, 6688.919
511.5105, 6730.217
511.9926, 6781.837
512.4747, 6804.155
512.9568, 6799.992
513.4389, 6792.993
513.9210, 6797.128
514.4031, 6808.853
514.8853, 6823.638
515.3674, 6840.586
515.8495, 6861.800
516.3316, 6896.873
516.8137, 6934.810
517.2958, 6960.404
517.7780, 6948.440
518.2601, 6943.830
518.7422, 6968.562
519.2244, 7019.093
519.7065, 7057.414
520.1886, 7074.979
520.6707, 7082.878
521.1528, 7084.030
521.6349, 7072.177
522.1171, 7070.000
522.5992, 7080.032
523.0813, 7097.252
523.5634, 7116.156
524.0455, 7137.264
524.5276, 7156.988
525.0098, 7173.258
525.4919, 7187.948
525.9740, 7210.945
526.4561, 7223.402
526.9382, 7261.822
527.4203, 7285.579
527.9025, 7295.459
528.3846, 7249.898
528.8667, 7275.927
529.3488, 7273.266
529.8309, 7269.428
530.3130, 7305.532
530.7952, 7268.037
531.2773, 7303.507
531.7594, 7309.851
532.2415, 7329.526
532.7236, 7320.333
533.2057, 7320.057
533.6879, 7348.658
534.1700, 7361.269
534.6521, 7348.753
535.1342, 7369.275
535.6163, 7330.770
536.0984, 7344.062
536.5806, 7379.703
537.0627, 7368.639
537.5448, 7351.473
538.0269, 7351.501
538.5090, 7351.409
538.9911, 7352.515
539.4733, 7359.593
539.9554, 7373.173
540.4375, 7389.356
540.9196, 7406.669
541.4017, 7425.024
541.8839, 7441.525
542.3660, 7455.546
542.8481, 7474.216
543.3302, 7515.647
543.8123, 7565.643
544.2944, 7594.512
544.7766, 7582.811
545.2587, 7565.698
545.7408, 7571.247
546.2229, 7592.932
546.7050, 7614.688
547.1871, 7622.085
547.6693, 7634.777
548.1514, 7667.306
548.6335, 7723.435
549.1156, 7767.285
549.5977, 7786.712
550.0798, 7796.620
550.5620, 7805.430
551.0441, 7803.503
551.5262, 7820.386
552.0083, 7862.953
552.4904, 7920.804
552.9725, 7978.236
553.4547, 8038.558
553.9368, 8079.835
554.4189, 8084.385
554.9010, 8065.231
555.3831, 8074.250
555.8652, 8111.771
556.3474, 8160.790
556.8295, 8214.784
557.3116, 8269.772
557.7937, 8315.323
558.2758, 8348.501
558.7579, 8380.331
559.2401, 8427.845
559.7222, 8478.300
560.2043, 8511.605
560.6864, 8496.237
561.1685, 8485.390
561.6506, 8502.189
562.1328, 8543.690
562.6149, 8592.992
563.0970, 8659.787
563.5791, 8722.312
564.0612, 8771.235
564.5433, 8802.303
565.0255, 8835.715
565.5076, 8870.875
565.9897, 8908.647
566.4718, 8951.064
566.9539, 8998.495
567.4360, 9046.169
567.9182, 9093.086
568.4003, 9139.323
568.8824, 9183.112
569.3645, 9224.579
569.8466, 9270.304
570.3287, 9326.078
570.8109, 9386.699
571.2930, 9441.042
571.7751, 9489.701
572.2572, 9538.864
572.7393, 9589.799
573.2214, 9645.654
573.7036, 9712.284
574.1857, 9799.246
574.6678, 9877.116
575.1499, 9927.649
575.6320, 9963.686
576.1141, 10004.71
576.5963, 10047.07
577.0784, 10102.36
577.5605, 10180.47
578.0426, 10275.03
578.5247, 10350.89
579.0068, 10401.79
579.4890, 10445.48
579.9711, 10489.00
580.4532, 10531.79
580.9353, 10584.49
581.4174, 10650.00
581.8995, 10713.27
582.3817, 10753.35
582.8638, 10776.21
583.3459, 10804.71
583.8280, 10847.17
584.3101, 10891.73
584.7922, 10925.73
585.2744, 10950.60
585.7565, 10971.00
586.2386, 10981.00
586.7207, 10993.87
587.2028, 11024.63
587.6849, 11072.37
588.1671, 11102.61
588.6492, 11095.52
589.1313, 11075.47
589.6134, 11056.73
590.0955, 11040.84
590.5776, 11024.04
591.0598, 11007.52
591.5419, 10989.02
592.0240, 10962.15
592.5061, 10922.44
592.9882, 10899.88
593.4703, 10911.46
593.9525, 10934.60
594.4346, 10905.71
594.9167, 10828.32
595.3988, 10752.29
595.8809, 10715.41
596.3630, 10694.75
596.8452, 10650.30
597.3273, 10581.68
597.8094, 10511.02
598.2915, 10458.79
598.7736, 10409.12
599.2557, 10344.33
599.7379, 10249.58
600.2200, 10163.78
600.7021, 10104.51
601.1842, 10059.46
601.6663, 10009.06
602.1484, 9952.897
602.6306, 9888.972
603.1127, 9811.550
603.5948, 9725.642
604.0769, 9662.196
604.5590, 9630.130
605.0411, 9592.521
605.5233, 9529.246
606.0054, 9442.516
606.4875, 9348.116
606.9696, 9244.536
607.4517, 9156.170
607.9338, 9119.493
608.4160, 9114.026
608.8981, 9100.456
609.3802, 9070.856
609.8623, 9029.983
610.3444, 8976.236
610.8265, 8914.470
611.3087, 8851.649
611.7908, 8786.689
612.2729, 8725.075
612.7550, 8671.955
613.2371, 8626.010
613.7192, 8576.177
614.2014, 8510.679
614.6835, 8456.116
615.1656, 8427.964
615.6477, 8430.710
616.1298, 8415.698
616.6119, 8377.456
617.0941, 8335.695
617.5762, 8310.658
618.0583, 8299.859
618.5404, 8285.659
619.0225, 8266.988
619.5046, 8239.404
619.9868, 8185.757
620.4689, 8118.521
620.9510, 8066.156
621.4331, 8054.578
621.9152, 8050.016
622.3973, 8029.866
622.8795, 7997.649
623.3616, 7967.881
623.8437, 7951.395
624.3258, 7933.077
624.8079, 7903.852
625.2900, 7860.391
625.7722, 7825.811
626.2543, 7802.868
626.7364, 7785.387
627.2185, 7769.326
627.7006, 7754.840
628.1827, 7741.255
628.6649, 7729.463
629.1470, 7716.644
629.6291, 7696.292
