##NAMES=Hummerite
##RRUFFID=R070450
##IDEAL CHEMISTRY=KMgV^5+^_5_O_14_&#183;8H_2_O
##LOCALITY=Hummer mine, Jo Dandy mine (Paradox D; Hummer; C; Blackburn; Yellow Bird No. 1; Oversight; Broker), Paradox Valley, Uravan District, Montrose County, Colorado, USA
##OWNER=RRUFF
##SOURCE=Michael Scott
##DESCRIPTION=Bright orange coarse grains, some showing tabular crystal forms
##STATUS=The identification of this mineral has been confirmed by single-crystal X-ray diffraction.
##URL=rruff.info/R070450
111.8690, 391.0585
112.3511, 397.7347
112.8332, 405.3120
113.3153, 414.4875
113.7974, 425.3127
114.2795, 438.2049
114.7617, 453.9174
115.2438, 471.6448
115.7259, 490.2046
116.2080, 509.2672
116.6901, 529.6189
117.1722, 551.2126
117.6544, 573.8362
118.1365, 600.1864
118.6186, 635.1035
119.1007, 672.6734
119.5828, 707.5410
120.0649, 737.0633
120.5471, 766.5829
121.0292, 804.9077
121.5113, 854.8487
121.9934, 905.7834
122.4755, 950.7065
122.9576, 996.7330
123.4398, 1050.298
123.9219, 1114.043
124.4040, 1187.212
124.8861, 1267.307
125.3682, 1355.450
125.8503, 1451.184
126.3325, 1554.113
126.8146, 1663.182
127.2967, 1778.228
127.7788, 1898.344
128.2609, 2024.290
128.7430, 2154.582
129.2252, 2285.720
129.7073, 2426.881
130.1894, 2584.490
130.6715, 2751.413
131.1536, 2915.930
131.6357, 3070.318
132.1179, 3217.153
132.6000, 3376.689
133.0821, 3567.062
133.5642, 3752.356
134.0463, 3924.336
134.5284, 4086.077
135.0106, 4244.830
135.4927, 4405.147
135.9748, 4566.479
136.4569, 4715.770
136.9390, 4832.792
137.4211, 4959.125
137.9033, 5109.412
138.3854, 5279.503
138.8675, 5457.435
139.3496, 5632.464
139.8317, 5804.730
140.3138, 6012.346
140.7960, 6246.623
141.2781, 6514.274
141.7602, 6819.376
142.2423, 7159.833
142.7244, 7527.388
143.2065, 7917.381
143.6887, 8330.294
144.1708, 8778.806
144.6529, 9286.084
145.1350, 9802.975
145.6171, 10308.46
146.0992, 10799.85
146.5814, 11277.06
147.0635, 11743.74
147.5456, 12195.67
148.0277, 12607.95
148.5098, 13001.15
148.9919, 13341.00
149.4741, 13602.56
149.9562, 13786.36
150.4383, 13908.53
150.9204, 13978.32
151.4025, 13990.87
151.8846, 13956.89
152.3668, 13840.09
152.8489, 13698.96
153.3310, 13583.56
153.8131, 13497.91
154.2952, 13425.42
154.7773, 13349.80
155.2595, 13275.94
155.7416, 13225.77
156.2237, 13196.86
156.7058, 13196.35
157.1879, 13234.45
157.6700, 13312.92
158.1522, 13420.01
158.6343, 13541.92
159.1164, 13685.21
159.5985, 13875.56
160.0806, 14127.46
160.5627, 14426.76
161.0449, 14751.03
161.5270, 15096.24
162.0091, 15474.52
162.4912, 15902.68
162.9733, 16367.49
163.4554, 16862.10
163.9376, 17373.98
164.4197, 17914.55
164.9018, 18503.42
165.3839, 19146.67
165.8660, 19818.89
166.3481, 20508.35
166.8303, 21213.73
167.3124, 21937.19
167.7945, 22680.08
168.2766, 23444.36
168.7587, 24237.11
169.2408, 25065.61
169.7230, 25916.45
170.2051, 26755.87
170.6872, 27614.07
171.1693, 28546.41
171.6514, 29590.52
172.1335, 30719.85
172.6157, 31872.08
173.0978, 33054.35
173.5799, 34248.93
174.0620, 35396.81
174.5441, 36567.01
175.0262, 37852.55
175.5084, 39327.89
175.9905, 40936.80
176.4726, 42552.14
176.9547, 44190.41
177.4368, 45804.72
177.9189, 47392.11
178.4010, 48942.75
178.8832, 50443.52
179.3653, 51915.84
179.8474, 53329.36
180.3295, 54626.09
180.8116, 55854.44
181.2937, 56851.24
181.7759, 57567.10
182.2580, 58071.50
182.7401, 58443.32
183.2222, 58723.36
183.7043, 58892.49
184.1864, 58886.82
184.6686, 58651.13
185.1507, 58319.39
185.6328, 57927.28
186.1149, 57480.96
186.5970, 56992.76
187.0791, 56473.44
187.5613, 55900.99
188.0434, 55204.94
188.5255, 54386.53
189.0076, 53428.97
189.4897, 52343.52
189.9718, 51147.79
190.4540, 49836.54
190.9361, 48412.63
191.4182, 46898.45
191.9003, 45340.09
192.3824, 43679.30
192.8645, 42069.69
193.3467, 40520.94
193.8288, 39027.58
194.3109, 37575.27
194.7930, 36157.83
195.2751, 34791.13
195.7572, 33518.61
196.2394, 32324.00
196.7215, 31252.77
197.2036, 30319.04
197.6857, 29478.89
198.1678, 28700.36
198.6499, 27969.64
199.1321, 27297.62
199.6142, 26707.00
200.0963, 26214.26
200.5784, 25778.40
201.0605, 25402.04
201.5426, 25063.15
202.0248, 24748.91
202.5069, 24454.13
202.9890, 24186.89
203.4711, 23964.84
203.9532, 23814.87
204.4353, 23651.56
204.9175, 23448.66
205.3996, 23247.86
205.8817, 23077.10
206.3638, 22941.81
206.8459, 22828.92
207.3280, 22725.48
207.8102, 22647.97
208.2923, 22537.85
208.7744, 22373.92
209.2565, 22197.76
209.7386, 22026.04
210.2207, 21865.26
210.7029, 21718.72
211.1850, 21591.57
211.6671, 21487.95
212.1492, 21391.94
212.6313, 21305.33
213.1134, 21224.59
213.5956, 21146.31
214.0777, 21072.09
214.5598, 21007.54
215.0419, 20959.29
215.5240, 20929.55
216.0061, 20902.93
216.4883, 20873.24
216.9704, 20852.14
217.4525, 20849.77
217.9346, 20861.05
218.4167, 20871.55
218.8988, 20868.09
219.3810, 20850.08
219.8631, 20840.24
220.3452, 20830.88
220.8273, 20838.27
221.3094, 20878.88
221.7915, 20939.95
222.2737, 20995.15
222.7558, 21022.83
223.2379, 21027.94
223.7200, 21060.99
224.2021, 21134.54
224.6842, 21226.37
225.1664, 21336.39
225.6485, 21460.85
226.1306, 21595.33
226.6127, 21736.88
227.0948, 21886.26
227.5770, 22047.73
228.0591, 22240.68
228.5412, 22420.25
229.0233, 22582.05
229.5054, 22725.79
229.9875, 22850.24
230.4697, 22954.59
230.9518, 23042.31
231.4339, 23120.62
231.9160, 23176.90
232.3981, 23245.69
232.8802, 23341.85
233.3624, 23444.47
233.8445, 23534.93
234.3266, 23607.00
234.8087, 23671.38
235.2908, 23751.16
235.7729, 23869.85
236.2551, 23946.41
236.7372, 23959.24
237.2193, 23944.68
237.7014, 23918.83
238.1835, 23887.95
238.6656, 23859.94
239.1478, 23851.07
239.6299, 23874.92
240.1120, 23866.44
240.5941, 23791.30
241.0762, 23709.68
241.5583, 23654.86
242.0405, 23624.34
242.5226, 23590.27
243.0047, 23523.45
243.4868, 23420.71
243.9689, 23321.63
244.4510, 23229.29
244.9332, 23136.92
245.4153, 23044.49
245.8974, 22950.06
246.3795, 22851.85
246.8616, 22754.46
247.3437, 22653.32
247.8259, 22509.35
248.3080, 22273.65
248.7901, 22059.56
249.2722, 21920.82
249.7543, 21824.41
250.2364, 21716.17
250.7186, 21562.67
251.2007, 21382.18
251.6828, 21229.14
252.1649, 21118.94
252.6470, 21004.20
253.1291, 20869.01
253.6113, 20722.62
254.0934, 20572.03
254.5755, 20417.95
255.0576, 20267.84
255.5397, 20135.16
256.0219, 20025.35
256.5040, 19913.72
256.9861, 19793.61
257.4682, 19668.92
257.9503, 19535.01
258.4324, 19390.34
258.9146, 19255.96
259.3967, 19160.92
259.8788, 19107.27
260.3609, 19042.03
260.8430, 18952.06
261.3251, 18848.33
261.8073, 18742.12
262.2894, 18632.91
262.7715, 18507.15
263.2536, 18340.11
263.7357, 18141.51
264.2178, 17972.98
264.7000, 17854.91
265.1821, 17746.72
265.6642, 17618.62
266.1463, 17474.90
266.6284, 17330.98
267.1105, 17193.77
267.5927, 17061.23
268.0748, 16934.21
268.5569, 16819.69
269.0390, 16688.57
269.5211, 16510.44
270.0032, 16303.33
270.4854, 16092.23
270.9675, 15875.93
271.4496, 15664.60
271.9317, 15468.57
272.4138, 15287.55
272.8959, 15120.98
273.3781, 14971.30
273.8602, 14836.04
274.3423, 14708.31
274.8244, 14587.18
275.3065, 14474.47
275.7886, 14370.77
276.2708, 14276.42
276.7529, 14192.32
277.2350, 14119.93
277.7171, 14056.83
278.1992, 13999.56
278.6813, 13949.12
279.1635, 13898.64
279.6456, 13839.94
280.1277, 13780.98
280.6098, 13739.90
281.0919, 13722.92
281.5740, 13709.06
282.0562, 13668.28
282.5383, 13597.26
283.0204, 13544.76
283.5025, 13529.82
283.9846, 13527.16
284.4667, 13512.59
284.9489, 13484.84
285.4310, 13458.73
285.9131, 13446.01
286.3952, 13447.09
286.8773, 13452.09
287.3594, 13450.22
287.8416, 13462.13
288.3237, 13505.51
288.8058, 13571.65
289.2879, 13636.64
289.7700, 13686.74
290.2521, 13726.50
290.7343, 13774.23
291.2164, 13828.76
291.6985, 13891.98
292.1806, 13967.05
292.6627, 14050.03
293.1448, 14132.04
293.6270, 14210.38
294.1091, 14297.66
294.5912, 14416.29
295.0733, 14583.76
295.5554, 14753.04
296.0375, 14905.79
296.5197, 15072.04
297.0018, 15270.00
297.4839, 15503.34
297.9660, 15764.52
298.4481, 16046.26
298.9302, 16347.18
299.4124, 16684.73
299.8945, 17102.62
300.3766, 17512.10
300.8587, 17861.88
301.3408, 18181.16
301.8229, 18530.36
302.3050, 18949.31
302.7871, 19430.85
303.2693, 19938.89
303.7514, 20474.79
304.2335, 21039.21
304.7156, 21625.24
305.1977, 22238.59
305.6798, 22885.53
306.1620, 23568.43
306.6441, 24284.39
307.1262, 25034.82
307.6083, 25824.13
308.0904, 26620.73
308.5725, 27407.95
309.0547, 28207.92
309.5368, 29025.33
310.0189, 29864.59
310.5010, 30722.02
310.9831, 31601.72
311.4652, 32502.64
311.9474, 33401.77
312.4295, 34319.38
312.9116, 35195.13
313.3937, 36018.93
313.8758, 36783.04
314.3579, 37453.56
314.8401, 38010.41
315.3222, 38467.26
315.8043, 38859.52
316.2864, 39196.67
316.7685, 39411.63
317.2506, 39446.31
317.7328, 39331.42
318.2149, 39118.38
318.6970, 38808.32
319.1791, 38410.25
319.6612, 37933.64
320.1433, 37377.65
320.6255, 36716.56
321.1076, 35919.13
321.5897, 35054.54
322.0718, 34213.63
322.5539, 33399.03
323.0360, 32603.23
323.5182, 31835.26
324.0003, 31077.00
324.4824, 30293.92
324.9645, 29477.31
325.4466, 28674.82
325.9287, 27929.43
326.4109, 27247.85
326.8930, 26594.31
327.3751, 25972.46
327.8572, 25370.84
328.3393, 24786.12
328.8214, 24215.05
329.3036, 23654.58
329.7857, 23100.76
330.2678, 22553.34
330.7499, 22029.12
331.2320, 21524.24
331.7141, 21044.68
332.1963, 20596.50
332.6784, 20170.02
333.1605, 19753.64
333.6426, 19345.10
334.1247, 18950.53
334.6068, 18578.07
335.0890, 18237.30
335.5711, 17897.51
336.0532, 17544.75
336.5353, 17205.53
337.0174, 16899.01
337.4995, 16621.28
337.9817, 16353.85
338.4638, 16084.63
338.9459, 15814.12
339.4280, 15544.31
339.9101, 15262.35
340.3922, 15004.79
340.8744, 14783.64
341.3565, 14588.03
341.8386, 14405.38
342.3207, 14230.37
342.8028, 14065.83
343.2849, 13919.01
343.7671, 13792.17
344.2492, 13664.95
344.7313, 13525.89
345.2134, 13389.98
345.6955, 13270.87
346.1776, 13168.54
346.6598, 13067.24
347.1419, 12952.99
347.6240, 12832.33
348.1061, 12721.44
348.5882, 12620.73
349.0703, 12533.00
349.5525, 12466.44
350.0346, 12415.42
350.5167, 12364.63
350.9988, 12304.28
351.4809, 12248.62
351.9630, 12214.40
352.4452, 12197.29
352.9273, 12173.65
353.4094, 12130.37
353.8915, 12076.00
354.3736, 12033.35
354.8557, 12006.71
355.3379, 11980.08
355.8200, 11953.19
356.3021, 11923.04
356.7842, 11880.62
357.2663, 11825.41
357.7484, 11777.11
358.2306, 11760.09
358.7127, 11782.72
359.1948, 11790.24
359.6769, 11784.56
360.1590, 11764.65
360.6411, 11721.57
361.1233, 11664.21
361.6054, 11608.61
362.0875, 11563.27
362.5696, 11529.07
363.0517, 11511.34
363.5338, 11535.60
364.0160, 11534.12
364.4981, 11485.57
364.9802, 11419.59
365.4623, 11359.34
365.9444, 11310.44
366.4265, 11265.27
366.9087, 11217.39
367.3908, 11166.61
367.8729, 11108.59
368.3550, 11027.74
368.8371, 10958.63
369.3192, 10926.14
369.8014, 10917.67
370.2835, 10903.36
370.7656, 10869.98
371.2477, 10822.23
371.7298, 10765.13
372.2119, 10697.65
372.6941, 10632.78
373.1762, 10585.00
373.6583, 10537.02
374.1404, 10463.20
374.6225, 10358.18
375.1046, 10244.13
375.5868, 10127.74
376.0689, 10011.92
376.5510, 9902.323
377.0331, 9799.901
377.5152, 9705.655
377.9973, 9624.181
378.4795, 9557.612
378.9616, 9476.918
379.4437, 9367.861
379.9258, 9257.353
380.4079, 9158.466
380.8900, 9071.695
381.3722, 8997.537
381.8543, 8936.851
382.3364, 8886.629
382.8185, 8836.741
383.3006, 8784.490
383.7827, 8736.963
384.2649, 8695.132
384.7470, 8657.551
385.2291, 8625.566
385.7112, 8597.894
386.1933, 8567.700
386.6754, 8525.487
387.1576, 8470.182
387.6397, 8426.688
388.1218, 8398.783
388.6039, 8379.285
389.0860, 8371.250
389.5681, 8368.477
390.0503, 8360.610
390.5324, 8341.427
391.0145, 8320.386
391.4966, 8317.096
391.9787, 8334.883
392.4608, 8337.699
392.9430, 8304.050
393.4251, 8262.356
393.9072, 8238.645
394.3893, 8233.186
394.8714, 8235.655
395.3535, 8243.446
395.8357, 8255.080
396.3178, 8270.098
396.7999, 8288.825
397.2820, 8303.369
397.7641, 8304.950
398.2462, 8297.593
398.7284, 8302.363
399.2105, 8333.986
399.6926, 8360.940
400.1747, 8368.980
400.6568, 8364.794
401.1389, 8358.227
401.6211, 8352.453
402.1032, 8348.043
402.5853, 8344.530
403.0674, 8336.529
403.5495, 8347.819
404.0316, 8401.438
404.5138, 8450.360
404.9959, 8465.180
405.4780, 8454.807
405.9601, 8444.346
406.4422, 8448.997
406.9243, 8466.829
407.4065, 8492.771
407.8886, 8534.573
408.3707, 8568.281
408.8528, 8577.380
409.3349, 8585.196
409.8170, 8614.753
410.2992, 8668.007
410.7813, 8719.949
411.2634, 8745.697
411.7455, 8750.576
412.2276, 8760.336
412.7097, 8776.005
413.1919, 8797.938
413.6740, 8829.718
414.1561, 8867.809
414.6382, 8904.959
415.1203, 8939.027
415.6024, 8973.070
416.0846, 9010.643
416.5667, 9050.226
417.0488, 9087.645
417.5309, 9121.947
418.0130, 9151.330
418.4951, 9172.037
418.9773, 9180.514
419.4594, 9191.995
419.9415, 9208.642
420.4236, 9226.973
420.9057, 9240.248
421.3878, 9252.468
421.8700, 9278.825
422.3521, 9331.872
422.8342, 9401.119
423.3163, 9440.339
423.7984, 9427.372
424.2805, 9417.842
424.7627, 9414.340
425.2448, 9418.353
425.7269, 9438.012
426.2090, 9470.849
426.6911, 9496.216
427.1732, 9483.984
427.6554, 9439.321
428.1375, 9428.510
428.6196, 9467.323
429.1017, 9509.959
429.5838, 9524.451
430.0659, 9529.834
430.5481, 9557.804
431.0302, 9626.472
431.5123, 9696.017
431.9944, 9728.416
432.4765, 9733.426
432.9586, 9745.618
433.4408, 9773.983
433.9229, 9811.266
434.4050, 9850.426
434.8871, 9891.513
435.3692, 9932.018
435.8513, 9981.020
436.3335, 10020.93
436.8156, 10028.34
437.2977, 10017.63
437.7798, 10027.80
438.2619, 10080.10
438.7440, 10156.88
439.2262, 10213.53
439.7083, 10243.39
440.1904, 10263.23
440.6725, 10262.75
441.1546, 10262.71
441.6367, 10282.37
442.1189, 10316.82
442.6010, 10342.82
443.0831, 10338.92
443.5652, 10314.39
444.0473, 10307.94
444.5294, 10328.90
445.0116, 10341.65
445.4937, 10318.76
445.9758, 10288.08
446.4579, 10284.19
446.9400, 10316.73
447.4221, 10332.53
447.9043, 10287.83
448.3864, 10205.40
448.8685, 10128.36
449.3506, 10061.36
449.8327, 10010.72
450.3148, 9989.225
450.7970, 9991.258
451.2791, 9962.739
451.7612, 9882.085
452.2433, 9798.647
452.7254, 9729.216
453.2076, 9666.603
453.6897, 9602.132
454.1718, 9532.902
454.6539, 9458.702
455.1360, 9377.304
455.6181, 9285.258
456.1003, 9206.166
456.5824, 9148.279
457.0645, 9096.355
457.5466, 9053.204
458.0287, 9011.372
458.5108, 8956.544
458.9930, 8879.781
459.4751, 8801.784
459.9572, 8756.478
460.4393, 8744.629
460.9214, 8723.953
461.4035, 8682.379
461.8857, 8635.204
462.3678, 8596.573
462.8499, 8564.718
463.3320, 8529.863
463.8141, 8484.451
464.2962, 8438.568
464.7784, 8405.372
465.2605, 8380.733
465.7426, 8345.019
466.2247, 8287.199
466.7068, 8222.942
467.1889, 8184.154
467.6711, 8186.600
468.1532, 8182.534
468.6353, 8160.479
469.1174, 8141.932
469.5995, 8149.526
470.0816, 8173.213
470.5638, 8182.289
471.0459, 8155.687
471.5280, 8106.112
472.0101, 8070.034
472.4922, 8051.795
472.9743, 8035.887
473.4565, 8014.803
473.9386, 7998.489
474.4207, 7992.092
474.9028, 7996.494
475.3849, 8013.047
475.8670, 8057.391
476.3492, 8108.476
476.8313, 8126.834
477.3134, 8111.305
477.7955, 8089.756
478.2776, 8071.328
478.7597, 8059.552
479.2419, 8065.297
479.7240, 8095.842
480.2061, 8122.450
480.6882, 8141.402
481.1703, 8152.937
481.6524, 8147.946
482.1346, 8132.387
482.6167, 8133.772
483.0988, 8176.101
483.5809, 8248.862
484.0630, 8292.982
484.5451, 8284.657
485.0273, 8286.406
485.5094, 8315.341
485.9915, 8350.851
486.4736, 8372.157
486.9557, 8379.553
487.4378, 8395.141
487.9200, 8447.170
488.4021, 8520.201
488.8842, 8561.333
489.3663, 8563.302
489.8484, 8573.188
490.3305, 8617.490
490.8127, 8683.647
491.2948, 8745.168
491.7769, 8804.609
492.2590, 8852.722
492.7411, 8878.233
493.2232, 8894.881
493.7054, 8917.284
494.1875, 8946.994
494.6696, 8979.425
495.1517, 9011.120
495.6338, 9042.442
496.1159, 9076.799
496.5981, 9118.641
497.0802, 9156.984
497.5623, 9185.682
498.0444, 9214.252
498.5265, 9252.973
499.0086, 9301.340
499.4908, 9347.896
499.9729, 9385.385
500.4550, 9413.501
500.9371, 9427.077
501.4192, 9421.606
501.9013, 9420.879
502.3835, 9437.747
502.8656, 9464.172
503.3477, 9489.723
503.8298, 9517.245
504.3119, 9530.508
504.7940, 9511.346
505.2762, 9481.575
505.7583, 9463.368
506.2404, 9459.408
506.7225, 9468.737
507.2046, 9492.288
507.6867, 9526.437
508.1689, 9555.239
508.6510, 9578.812
509.1331, 9596.401
509.6152, 9596.575
510.0973, 9599.783
510.5794, 9626.499
511.0616, 9672.888
511.5437, 9715.589
512.0258, 9738.459
512.5079, 9745.188
512.9901, 9737.892
513.4722, 9710.032
513.9543, 9709.908
514.4364, 9768.176
514.9185, 9851.243
515.4006, 9915.246
515.8828, 9959.142
516.3649, 10000.31
516.8470, 10042.13
517.3291, 10085.02
517.8112, 10132.72
518.2933, 10182.75
518.7755, 10225.24
519.2576, 10253.65
519.7397, 10276.26
520.2218, 10314.14
520.7039, 10385.53
521.1860, 10437.24
521.6682, 10452.93
522.1503, 10466.58
522.6324, 10497.23
523.1145, 10541.16
523.5966, 10583.98
524.0787, 10616.94
524.5609, 10648.14
525.0430, 10692.60
525.5251, 10750.25
526.0072, 10805.04
526.4893, 10852.25
526.9714, 10897.14
527.4536, 10946.74
527.9357, 11000.19
528.4178, 11046.70
528.8999, 11089.81
529.3820, 11120.63
529.8641, 11125.01
530.3463, 11115.06
530.8284, 11111.02
531.3105, 11120.18
531.7926, 11144.03
532.2747, 11189.10
532.7568, 11263.29
533.2390, 11310.17
533.7211, 11303.05
534.2032, 11298.59
534.6853, 11314.96
535.1674, 11343.71
535.6495, 11375.59
536.1317, 11409.14
536.6138, 11435.11
537.0959, 11446.08
537.5780, 11442.58
538.0601, 11418.99
538.5422, 11370.68
539.0244, 11334.36
539.5065, 11341.91
539.9886, 11382.93
540.4707, 11404.47
540.9528, 11382.29
541.4349, 11376.25
541.9171, 11412.55
542.3992, 11461.16
542.8813, 11492.74
543.3634, 11505.66
543.8455, 11517.01
544.3276, 11541.08
544.8098, 11573.97
545.2919, 11597.61
545.7740, 11607.44
546.2561, 11620.32
546.7382, 11634.62
547.2203, 11658.34
547.7025, 11703.66
548.1846, 11768.32
548.6666, 11827.19
549.1487, 11872.19
549.6309, 11903.49
550.1130, 11910.44
550.5951, 11900.85
551.0772, 11907.29
551.5593, 11943.49
552.0414, 11999.15
552.5236, 12060.35
553.0057, 12135.77
553.4878, 12187.11
553.9699, 12192.12
554.4520, 12200.69
554.9341, 12234.97
555.4163, 12285.39
555.8984, 12335.27
556.3805, 12378.71
556.8626, 12421.31
557.3447, 12470.28
557.8268, 12524.90
558.3090, 12579.73
558.7911, 12634.55
559.2732, 12689.32
559.7553, 12751.94
560.2374, 12812.82
560.7195, 12842.13
561.2017, 12811.69
561.6838, 12798.88
562.1659, 12837.17
562.6480, 12899.32
563.1301, 12960.34
563.6122, 13015.95
564.0944, 13071.18
564.5765, 13131.46
565.0586, 13192.27
565.5407, 13234.13
566.0228, 13245.88
566.5049, 13266.86
566.9871, 13308.79
567.4692, 13358.51
567.9513, 13408.50
568.4334, 13459.12
568.9155, 13513.92
569.3976, 13575.13
569.8798, 13640.84
570.3619, 13710.92
570.8440, 13784.41
571.3261, 13858.91
571.8082, 13933.98
572.2903, 14007.02
572.7725, 14074.13
573.2546, 14134.89
573.7367, 14195.92
574.2188, 14250.10
574.7009, 14313.84
575.1830, 14395.11
575.6652, 14486.01
576.1473, 14578.85
576.6294, 14671.77
577.1115, 14765.72
577.5936, 14862.11
578.0757, 14960.34
578.5579, 15061.34
579.0400, 15166.59
579.5221, 15260.54
580.0042, 15336.46
580.4863, 15396.22
580.9684, 15436.75
581.4506, 15449.26
581.9327, 15482.07
582.4148, 15568.30
582.8969, 15652.46
583.3790, 15693.58
583.8611, 15703.51
584.3433, 15715.35
584.8254, 15744.09
585.3075, 15774.89
585.7896, 15779.45
586.2717, 15754.12
586.7538, 15746.89
587.2360, 15769.64
587.7181, 15794.84
588.2002, 15816.65
588.6823, 15828.05
589.1644, 15813.62
589.6465, 15763.41
590.1287, 15708.19
590.6108, 15660.41
591.0929, 15617.12
591.5750, 15580.24
592.0571, 15546.45
592.5392, 15498.78
593.0214, 15424.11
593.5035, 15333.54
593.9856, 15260.89
594.4677, 15214.20
594.9498, 15167.20
595.4319, 15139.73
595.9141, 15091.18
596.3962, 14987.76
596.8783, 14847.04
597.3604, 14714.05
597.8425, 14606.65
598.3246, 14510.70
598.8068, 14417.36
599.2889, 14324.84
599.7710, 14226.92
600.2531, 14121.98
600.7352, 14017.94
601.2173, 13922.19
601.6995, 13833.12
602.1816, 13737.67
602.6637, 13631.22
603.1458, 13524.39
603.6279, 13419.96
604.1100, 13313.96
604.5922, 13202.94
605.0743, 13087.15
605.5564, 12969.59
606.0385, 12849.62
