##NAMES=Huntite
##RRUFFID=R040126
##IDEAL CHEMISTRY=CaMg_3_(CO_3_)_4_
##LOCALITY=Crestmore Quarry, Riverside County, California, USA
##OWNER=RRUFF
##SOURCE=University of Arizona Mineral Museum
##DESCRIPTION=White fine-grained massive
##STATUS=The identification of this mineral has been confirmed by X-ray diffraction and chemical analysis
##URL=rruff.info/R040126
##MEASURED CHEMISTRY=Ca_0.97_Mg_3.02_(CO_3_)_4_
165.3245, 23577.79
165.8066, 23580.08
166.2887, 23581.26
166.7709, 23573.37
167.2530, 23541.10
167.7351, 23485.48
168.2172, 23454.68
168.6993, 23480.34
169.1814, 23523.14
169.6636, 23532.48
170.1457, 23496.96
170.6278, 23445.23
171.1099, 23398.03
171.5920, 23355.39
172.0741, 23329.60
172.5563, 23337.49
173.0384, 23367.10
173.5205, 23383.82
174.0026, 23379.83
174.4847, 23364.07
174.9668, 23341.68
175.4490, 23313.50
175.9311, 23291.02
176.4132, 23284.38
176.8953, 23293.13
177.3774, 23302.04
177.8595, 23310.62
178.3417, 23316.78
178.8238, 23312.54
179.3059, 23298.34
179.7880, 23293.42
180.2701, 23335.55
180.7522, 23450.11
181.2344, 23503.66
181.7165, 23415.22
182.1986, 23300.27
182.6807, 23225.42
183.1628, 23209.44
183.6449, 23230.07
184.1271, 23255.54
184.6092, 23302.39
185.0913, 23318.30
185.5734, 23268.90
186.0555, 23206.81
186.5376, 23184.26
187.0198, 23222.13
187.5019, 23290.54
187.9840, 23310.31
188.4661, 23217.73
188.9482, 23154.21
189.4303, 23136.69
189.9125, 23151.29
190.3946, 23188.96
190.8767, 23247.24
191.3588, 23315.05
191.8409, 23340.55
192.3230, 23285.49
192.8052, 23230.60
193.2873, 23176.82
193.7694, 23133.48
194.2515, 23118.48
194.7336, 23146.10
195.2157, 23210.00
195.6979, 23247.95
196.1800, 23256.80
196.6621, 23250.22
197.1442, 23219.46
197.6263, 23174.14
198.1084, 23142.62
198.5906, 23147.79
199.0727, 23186.25
199.5548, 23205.13
200.0369, 23188.22
200.5190, 23167.59
201.0011, 23167.16
201.4833, 23184.81
201.9654, 23192.94
202.4475, 23162.43
202.9296, 23100.27
203.4117, 23071.06
203.8938, 23109.76
204.3760, 23161.77
204.8581, 23176.96
205.3402, 23151.48
205.8223, 23114.61
206.3044, 23082.53
206.7865, 23056.73
207.2687, 23044.06
207.7508, 23052.61
208.2329, 23072.50
208.7150, 23093.25
209.1971, 23116.09
209.6792, 23132.67
210.1614, 23125.47
210.6435, 23105.23
211.1256, 23098.69
211.6077, 23124.05
212.0898, 23168.67
212.5719, 23206.49
213.0541, 23237.35
213.5362, 23258.49
214.0183, 23271.04
214.5004, 23274.28
214.9825, 23264.11
215.4646, 23221.78
215.9468, 23160.02
216.4289, 23135.94
216.9110, 23171.95
217.3931, 23218.77
217.8752, 23255.16
218.3573, 23279.98
218.8395, 23290.19
219.3216, 23271.33
219.8037, 23227.58
220.2858, 23213.20
220.7679, 23258.79
221.2500, 23303.07
221.7322, 23312.74
222.2143, 23295.46
222.6964, 23278.48
223.1785, 23285.17
223.6606, 23316.64
224.1427, 23346.06
224.6249, 23367.30
225.1070, 23391.93
225.5891, 23426.89
226.0712, 23470.05
226.5533, 23513.11
227.0354, 23544.01
227.5176, 23557.49
227.9997, 23593.93
228.4818, 23693.95
228.9639, 23782.71
229.4460, 23820.34
229.9281, 23813.03
230.4103, 23797.26
230.8924, 23811.30
231.3745, 23863.42
231.8566, 23908.46
232.3387, 23944.03
232.8208, 23975.44
233.3030, 24010.37
233.7851, 24045.96
234.2672, 24068.51
234.7493, 24056.96
235.2314, 23989.82
235.7135, 23969.25
236.1957, 24028.72
236.6778, 24099.21
237.1599, 24142.23
237.6420, 24156.48
238.1241, 24164.98
238.6062, 24191.58
239.0884, 24232.70
239.5705, 24309.04
240.0526, 24435.59
240.5347, 24577.78
241.0168, 24721.35
241.4989, 24861.84
241.9811, 24994.43
242.4632, 25114.42
242.9453, 25220.20
243.4274, 25315.54
243.9095, 25417.12
244.3916, 25497.73
244.8738, 25532.96
245.3559, 25523.12
245.8380, 25496.00
246.3201, 25486.06
246.8022, 25509.54
247.2843, 25492.23
247.7665, 25394.66
248.2486, 25287.91
248.7307, 25214.55
249.2128, 25182.86
249.6949, 25189.91
250.1770, 25241.43
250.6592, 25367.42
251.1413, 25422.88
251.6234, 25340.01
252.1055, 25236.73
252.5876, 25209.52
253.0697, 25267.36
253.5519, 25344.64
254.0340, 25372.22
254.5161, 25339.24
254.9982, 25279.39
255.4803, 25173.42
255.9624, 25054.38
256.4445, 24948.66
256.9267, 24859.60
257.4088, 24772.52
257.8909, 24673.98
258.3730, 24562.73
258.8551, 24436.40
259.3372, 24263.30
259.8194, 24095.96
260.3015, 23976.92
260.7836, 23910.83
261.2657, 23876.56
261.7478, 23855.61
262.2299, 23849.90
262.7121, 23860.89
263.1942, 23913.90
263.6763, 23967.19
264.1584, 23974.11
264.6405, 23933.09
265.1227, 23899.47
265.6048, 23927.44
266.0869, 24023.38
266.5690, 24106.26
267.0511, 24146.82
267.5332, 24192.61
268.0154, 24286.86
268.4975, 24431.38
268.9796, 24591.64
269.4617, 24735.46
269.9438, 24866.42
270.4259, 25029.54
270.9081, 25287.81
271.3902, 25535.25
271.8723, 25699.29
272.3544, 25775.77
272.8365, 25771.21
273.3186, 25672.37
273.8008, 25482.10
274.2829, 25301.83
274.7650, 25144.17
275.2471, 24988.70
275.7292, 24802.79
276.2113, 24592.02
276.6935, 24418.78
277.1756, 24338.97
277.6577, 24340.39
278.1398, 24313.01
278.6219, 24231.32
279.1040, 24141.35
279.5862, 24078.44
280.0683, 24039.32
280.5504, 23995.54
281.0325, 23931.20
281.5146, 23846.91
281.9967, 23754.82
282.4789, 23645.61
282.9610, 23536.52
283.4431, 23443.39
283.9252, 23362.37
284.4073, 23271.14
284.8894, 23149.90
285.3716, 23014.10
285.8537, 22909.15
286.3358, 22852.28
286.8179, 22803.20
287.3000, 22730.57
287.7821, 22643.75
288.2643, 22586.37
288.7464, 22590.26
289.2285, 22625.66
289.7106, 22616.41
290.1927, 22541.53
290.6748, 22464.89
291.1570, 22423.17
291.6391, 22404.87
292.1212, 22369.23
292.6033, 22288.89
293.0854, 22199.29
293.5675, 22180.26
294.0497, 22261.44
294.5318, 22321.74
295.0139, 22290.49
295.4960, 22203.16
295.9781, 22141.71
296.4602, 22135.56
296.9424, 22159.37
297.4245, 22172.88
297.9066, 22177.13
298.3887, 22173.06
298.8708, 22145.32
299.3529, 22112.18
299.8351, 22113.08
300.3172, 22165.12
300.7993, 22228.28
301.2814, 22237.90
301.7635, 22188.42
302.2456, 22155.94
302.7278, 22160.18
303.2099, 22190.16
303.6920, 22239.93
304.1741, 22311.13
304.6562, 22376.35
305.1383, 22393.45
305.6205, 22357.95
306.1026, 22357.65
306.5847, 22429.87
307.0668, 22528.96
307.5489, 22614.81
308.0310, 22682.44
308.5132, 22729.03
308.9953, 22742.74
309.4774, 22722.57
309.9595, 22730.52
310.4416, 22786.93
310.9237, 22859.70
311.4059, 22927.38
311.8880, 22987.98
312.3701, 23043.51
312.8522, 23092.49
313.3343, 23136.35
313.8164, 23195.33
314.2986, 23295.87
314.7807, 23387.02
315.2628, 23439.89
315.7449, 23457.08
316.2270, 23454.53
316.7091, 23440.84
317.1913, 23414.98
317.6734, 23373.73
318.1555, 23327.38
318.6376, 23257.98
319.1197, 23143.13
319.6018, 22999.28
320.0840, 22861.62
320.5661, 22746.48
321.0482, 22651.81
321.5303, 22576.69
322.0124, 22555.22
322.4945, 22504.80
322.9767, 22373.02
323.4588, 22210.08
323.9409, 22097.65
324.4230, 22068.88
324.9051, 22082.12
325.3872, 22052.37
325.8694, 21942.34
326.3515, 21855.55
326.8336, 21805.64
327.3157, 21779.88
327.7978, 21772.04
328.2799, 21779.25
328.7621, 21788.06
329.2442, 21780.71
329.7263, 21755.68
330.2084, 21713.04
330.6905, 21629.60
331.1726, 21545.94
331.6548, 21487.91
332.1369, 21459.71
332.6190, 21455.16
333.1011, 21471.89
333.5832, 21517.82
334.0653, 21538.52
334.5475, 21516.72
335.0296, 21490.67
335.5117, 21477.96
335.9938, 21477.57
336.4759, 21481.15
336.9580, 21483.51
337.4402, 21484.52
337.9223, 21473.51
338.4044, 21433.06
338.8865, 21399.96
339.3686, 21385.76
339.8507, 21385.16
340.3329, 21388.66
340.8150, 21390.99
341.2971, 21392.82
341.7792, 21397.75
342.2613, 21429.04
342.7434, 21432.23
343.2256, 21374.26
343.7077, 21297.40
344.1898, 21251.90
344.6719, 21257.02
345.1540, 21284.93
345.6361, 21276.46
346.1183, 21201.18
346.6004, 21148.42
347.0825, 21125.36
347.5646, 21122.11
348.0467, 21141.67
348.5288, 21180.24
349.0110, 21216.04
349.4931, 21211.33
349.9752, 21144.59
350.4573, 21123.50
350.9394, 21181.09
351.4215, 21259.99
351.9037, 21346.43
352.3858, 21433.57
352.8679, 21511.50
353.3500, 21583.03
353.8321, 21646.51
354.3142, 21639.13
354.7964, 21499.08
355.2785, 21359.86
355.7606, 21264.38
356.2427, 21208.79
356.7248, 21184.44
357.2069, 21198.80
357.6891, 21233.50
358.1712, 21229.69
358.6533, 21162.52
359.1354, 21113.15
359.6175, 21129.36
360.0996, 21174.12
360.5818, 21206.23
361.0639, 21210.55
361.5460, 21203.08
362.0281, 21210.93
362.5102, 21238.35
362.9923, 21241.28
363.4745, 21178.58
363.9566, 21102.32
364.4387, 21065.42
364.9208, 21076.45
365.4029, 21101.06
365.8850, 21123.81
366.3672, 21141.78
366.8493, 21136.23
367.3314, 21093.26
367.8135, 21040.03
368.2956, 21002.18
368.7777, 20978.84
369.2599, 20964.96
369.7420, 20972.80
370.2241, 20985.10
370.7062, 20967.37
371.1883, 20911.49
371.6704, 20850.34
372.1526, 20805.59
372.6347, 20777.80
373.1168, 20770.00
373.5989, 20800.17
374.0810, 20837.40
374.5631, 20853.84
375.0453, 20851.35
375.5274, 20852.41
376.0095, 20873.58
376.4916, 20907.34
376.9737, 20921.88
377.4558, 20909.48
377.9380, 20889.38
378.4201, 20859.99
378.9022, 20828.51
379.3843, 20811.18
379.8664, 20815.54
380.3485, 20831.41
380.8307, 20837.53
381.3128, 20825.31
381.7949, 20819.38
382.2770, 20826.47
382.7591, 20837.68
383.2412, 20846.94
383.7234, 20852.25
384.2055, 20850.47
384.6876, 20836.13
385.1697, 20802.90
385.6518, 20785.02
386.1339, 20798.99
386.6161, 20810.34
387.0982, 20792.70
387.5803, 20756.35
388.0624, 20735.24
388.5445, 20758.07
389.0266, 20817.98
389.5088, 20839.49
389.9909, 20777.81
390.4730, 20726.87
390.9551, 20710.85
391.4372, 20711.71
391.9193, 20705.64
392.4015, 20682.18
392.8836, 20649.61
393.3657, 20628.42
393.8478, 20634.07
394.3299, 20611.99
394.8120, 20516.52
395.2942, 20419.07
395.7763, 20369.73
396.2584, 20375.01
396.7405, 20403.85
397.2226, 20428.52
397.7047, 20448.88
398.1869, 20475.11
398.6690, 20530.46
399.1511, 20562.73
399.6332, 20534.52
400.1153, 20460.79
400.5974, 20384.48
401.0796, 20317.49
401.5617, 20266.34
402.0438, 20250.62
402.5259, 20278.08
403.0080, 20311.31
403.4901, 20343.21
403.9723, 20364.21
404.4544, 20354.35
404.9365, 20293.51
405.4186, 20228.81
405.9007, 20207.91
406.3828, 20221.53
406.8650, 20213.79
407.3471, 20150.84
407.8292, 20076.40
408.3113, 20070.63
408.7934, 20147.19
409.2755, 20208.26
409.7577, 20217.88
410.2398, 20196.48
410.7219, 20168.54
411.2040, 20138.48
411.6861, 20105.40
412.1682, 20065.23
412.6504, 20015.95
413.1325, 19987.22
413.6146, 19998.88
414.0967, 20012.10
414.5788, 20006.04
415.0609, 19983.02
415.5431, 19951.52
416.0252, 19914.56
416.5073, 19877.02
416.9894, 19861.22
417.4715, 19905.55
417.9536, 19925.81
418.4358, 19891.83
418.9179, 19840.30
419.4000, 19810.87
419.8821, 19815.40
420.3642, 19836.94
420.8463, 19854.38
421.3285, 19877.89
421.8106, 19867.91
422.2927, 19779.57
422.7748, 19698.95
423.2569, 19673.45
423.7390, 19695.89
424.2212, 19727.54
424.7033, 19738.12
425.1854, 19732.29
425.6675, 19741.99
426.1496, 19781.68
426.6317, 19811.56
427.1139, 19810.71
427.5960, 19794.54
428.0781, 19783.67
428.5602, 19787.65
429.0423, 19792.01
429.5244, 19779.46
430.0066, 19749.88
430.4887, 19707.45
430.9708, 19633.04
431.4529, 19566.62
431.9350, 19556.24
432.4171, 19604.84
432.8993, 19653.67
433.3814, 19677.23
433.8635, 19681.87
434.3456, 19677.96
434.8277, 19666.46
435.3098, 19649.26
435.7920, 19625.74
436.2741, 19596.49
436.7562, 19570.92
437.2383, 19542.92
437.7204, 19524.56
438.2025, 19528.98
438.6847, 19549.55
439.1668, 19564.91
439.6489, 19562.75
440.1310, 19554.05
440.6131, 19569.58
441.0952, 19670.72
441.5774, 19708.72
442.0595, 19616.77
442.5416, 19494.06
443.0237, 19438.71
443.5058, 19462.84
443.9879, 19503.39
444.4701, 19484.98
444.9522, 19392.87
445.4343, 19347.62
445.9164, 19412.15
446.3985, 19460.52
446.8806, 19435.07
447.3628, 19366.47
447.8449, 19315.04
448.3270, 19314.94
448.8091, 19347.59
449.2912, 19370.81
449.7733, 19388.40
450.2555, 19385.14
450.7376, 19328.54
451.2197, 19267.36
451.7018, 19245.65
452.1839, 19270.15
452.6660, 19292.73
453.1482, 19263.25
453.6303, 19195.76
454.1124, 19160.73
454.5945, 19179.41
455.0766, 19201.74
455.5587, 19170.65
456.0409, 19106.50
456.5230, 19072.35
457.0051, 19105.74
457.4872, 19156.73
457.9693, 19190.02
458.4514, 19204.38
458.9336, 19190.18
459.4156, 19133.19
459.8978, 19056.96
460.3799, 19028.99
460.8620, 19077.73
461.3441, 19111.92
461.8262, 19111.60
462.3083, 19091.22
462.7905, 19056.44
463.2726, 19012.13
463.7547, 18979.81
464.2368, 18986.11
464.7189, 19038.82
465.2010, 19060.60
465.6832, 19022.93
466.1653, 18986.48
466.6474, 18967.70
467.1295, 18963.84
467.6116, 18971.96
468.0938, 18992.34
468.5759, 19012.20
469.0580, 18995.66
469.5401, 18919.61
470.0222, 18873.03
470.5043, 18905.64
470.9865, 18947.71
471.4686, 18952.97
471.9507, 18919.59
472.4328, 18880.74
472.9149, 18859.54
473.3970, 18852.67
473.8792, 18848.74
474.3613, 18847.72
474.8434, 18848.37
475.3255, 18852.99
475.8076, 18858.37
476.2897, 18857.66
476.7719, 18849.88
477.2540, 18835.86
477.7361, 18812.11
478.2182, 18782.21
478.7003, 18758.48
479.1824, 18746.76
479.6646, 18737.13
480.1467, 18710.49
480.6288, 18652.12
481.1109, 18625.82
481.5930, 18669.63
482.0751, 18719.48
482.5573, 18719.07
483.0394, 18677.58
483.5215, 18650.88
484.0036, 18683.92
484.4857, 18762.19
484.9678, 18788.05
485.4500, 18703.07
485.9321, 18641.48
486.4142, 18636.35
486.8963, 18652.95
487.3784, 18657.90
487.8605, 18642.72
488.3427, 18621.61
488.8248, 18614.08
489.3069, 18621.31
489.7890, 18610.98
490.2711, 18560.79
490.7532, 18521.28
491.2354, 18531.27
491.7175, 18571.57
492.1996, 18597.95
492.6817, 18596.90
493.1638, 18571.24
493.6459, 18507.61
494.1281, 18410.31
494.6102, 18342.15
495.0923, 18331.64
495.5744, 18356.79
496.0565, 18385.87
496.5386, 18425.04
497.0208, 18443.47
497.5029, 18411.60
497.9850, 18369.01
498.4671, 18358.12
498.9492, 18380.40
499.4313, 18411.19
499.9135, 18433.76
500.3956, 18447.05
500.8777, 18437.39
501.3598, 18365.36
501.8419, 18317.93
502.3240, 18331.85
502.8062, 18367.35
503.2883, 18376.56
503.7704, 18346.49
504.2525, 18305.85
504.7346, 18296.58
505.2167, 18326.29
505.6989, 18332.34
506.1810, 18290.41
506.6631, 18250.78
507.1452, 18240.74
507.6273, 18250.75
508.1094, 18258.57
508.5916, 18254.46
509.0737, 18244.15
509.5558, 18230.01
510.0379, 18212.66
510.5200, 18213.83
511.0021, 18253.84
511.4843, 18300.41
511.9664, 18296.60
512.4485, 18234.34
512.9306, 18190.82
513.4127, 18203.21
513.8948, 18231.99
514.3770, 18241.48
514.8591, 18228.85
515.3412, 18202.19
515.8233, 18164.32
516.3054, 18118.99
516.7875, 18091.33
517.2697, 18107.79
517.7518, 18109.28
518.2339, 18074.05
518.7160, 18030.43
519.1981, 18006.60
519.6802, 18007.64
520.1624, 18018.40
520.6445, 18023.84
521.1266, 18023.90
521.6087, 18020.24
522.0908, 18007.85
522.5729, 17999.32
523.0551, 18014.05
523.5372, 18032.36
524.0193, 18016.33
524.5014, 17937.16
524.9835, 17861.65
525.4656, 17876.72
525.9478, 17961.49
526.4299, 18001.55
526.9120, 17957.68
527.3941, 17886.73
527.8762, 17852.46
528.3583, 17855.77
528.8405, 17866.50
529.3226, 17903.07
529.8047, 17927.50
530.2868, 17904.38
530.7689, 17847.77
531.2510, 17796.43
531.7332, 17769.73
532.2153, 17761.94
532.6974, 17760.87
533.1795, 17780.79
533.6616, 17780.65
534.1437, 17739.18
534.6259, 17697.38
535.1080, 17680.14
535.5901, 17686.54
536.0722, 17704.73
536.5543, 17734.97
537.0364, 17765.92
537.5186, 17754.35
538.0007, 17686.53
538.4828, 17628.37
538.9649, 17604.71
539.4470, 17604.12
539.9291, 17619.80
540.4113, 17655.46
540.8934, 17677.84
541.3755, 17662.28
541.8576, 17626.18
542.3397, 17593.33
542.8218, 17566.83
543.3040, 17547.67
543.7861, 17537.25
544.2682, 17534.82
544.7503, 17534.71
545.2324, 17547.17
545.7145, 17548.88
546.1967, 17530.11
546.6788, 17501.11
547.1609, 17470.63
547.6430, 17441.82
548.1251, 17415.62
548.6072, 17388.68
549.0894, 17360.02
549.5715, 17368.52
550.0536, 17463.51
550.5357, 17524.10
551.0178, 17473.21
551.4999, 17377.60
551.9821, 17334.01
552.4642, 17380.21
552.9463, 17441.03
553.4284, 17437.72
553.9105, 17388.51
554.3926, 17371.67
554.8748, 17409.10
555.3569, 17452.88
555.8390, 17457.40
556.3211, 17422.36
556.8032, 17392.51
557.2853, 17362.54
557.7675, 17343.95
558.2496, 17352.07
558.7317, 17372.84
559.2138, 17383.51
559.6959, 17375.81
560.1780, 17354.78
560.6602, 17325.36
561.1423, 17282.19
561.6244, 17252.73
562.1065, 17247.19
562.5886, 17246.53
563.0707, 17247.44
563.5529, 17248.22
564.0350, 17246.06
564.5171, 17238.65
564.9992, 17231.26
565.4813, 17232.80
565.9634, 17242.53
566.4456, 17249.40
566.9277, 17253.64
567.4098, 17249.51
567.8919, 17222.13
568.3740, 17174.90
568.8561, 17145.12
569.3383, 17155.42
569.8204, 17168.71
570.3025, 17155.93
570.7846, 17126.97
571.2667, 17109.65
571.7488, 17115.85
572.2310, 17130.31
572.7131, 17124.28
573.1952, 17084.54
573.6773, 17059.98
574.1594, 17066.10
574.6415, 17071.19
575.1237, 17057.81
575.6058, 17033.29
576.0879, 17014.06
576.5700, 17007.79
577.0521, 17011.26
577.5342, 17022.34
578.0164, 17041.09
578.4985, 17057.14
578.9806, 17070.64
579.4627, 17076.88
579.9448, 17066.48
580.4269, 17041.67
580.9091, 17021.41
581.3912, 17017.96
581.8733, 17012.40
582.3554, 16984.83
582.8375, 16944.71
583.3196, 16917.27
583.8018, 16913.44
584.2839, 16921.34
584.7660, 16919.84
585.2481, 16902.79
585.7302, 16894.00
586.2123, 16902.11
586.6945, 16909.29
587.1766, 16905.77
587.6587, 16896.09
588.1408, 16890.57
588.6229, 16894.95
589.1050, 16902.17
589.5872, 16903.87
590.0693, 16899.95
590.5514, 16888.19
591.0335, 16867.40
591.5156, 16839.80
591.9977, 16796.34
592.4799, 16741.66
592.9620, 16718.97
593.4441, 16775.05
593.9262, 16824.30
594.4083, 16795.84
594.8904, 16727.43
595.3726, 16702.10
595.8547, 16748.43
596.3368, 16819.06
596.8189, 16844.21
597.3010, 16813.16
597.7831, 16787.79
598.2653, 16771.45
598.7474, 16757.68
599.2295, 16742.67
599.7116, 16729.61
600.1937, 16725.87
600.6758, 16736.33
601.1580, 16745.04
601.6401, 16728.18
602.1222, 16692.83
602.6043, 16675.91
603.0864, 16686.72
603.5685, 16704.00
604.0507, 16715.33
604.5328, 16718.60
605.0149, 16703.14
605.4970, 16642.92
605.9791, 16594.69
606.4612, 16584.69
606.9434, 16594.92
607.4255, 16605.86
607.9076, 16611.39
608.3897, 16610.60
608.8718, 16602.52
609.3539, 16587.13
609.8361, 16562.95
610.3182, 16517.13
610.8003, 16483.91
611.2824, 16472.83
611.7645, 16479.62
612.2466, 16507.37
612.7288, 16558.64
613.2109, 16599.39
613.6930, 16606.50
614.1751, 16588.13
614.6572, 16551.89
615.1393, 16499.36
615.6215, 16453.85
616.1036, 16429.27
616.5857, 16422.66
617.0678, 16422.92
617.5499, 16449.52
618.0320, 16455.73
618.5142, 16423.29
618.9963, 16382.28
619.4784, 16351.93
619.9605, 16334.55
620.4426, 16326.55
620.9247, 16326.68
621.4069, 16332.88
621.8890, 16338.18
622.3711, 16340.78
622.8532, 16354.03
623.3353, 16390.43
623.8174, 16429.77
624.2996, 16452.12
624.7817, 16458.36
625.2638, 16458.84
625.7459, 16451.31
626.2280, 16443.41
626.7101, 16443.05
627.1923, 16447.21
627.6744, 16450.78
628.1565, 16452.03
628.6386, 16442.10
629.1207, 16402.29
629.6028, 16318.16
630.0850, 16262.93
630.5671, 16259.89
631.0492, 16263.27
631.5313, 16263.59
632.0134, 16259.86
632.4955, 16251.47
632.9777, 16237.86
633.4598, 16221.68
633.9419, 16202.30
634.4240, 16182.22
634.9061, 16174.01
635.3882, 16181.62
635.8704, 16180.88
636.3525, 16146.73
636.8346, 16088.19
637.3167, 16063.90
637.7988, 16101.25
638.2809, 16131.73
638.7631, 16138.43
639.2452, 16137.21
639.7273, 16150.95
640.2094, 16175.33
640.6915, 16177.23
641.1736, 16122.41
641.6558, 16033.12
642.1379, 15991.36
642.6200, 16006.31
643.1021, 16029.78
643.5842, 16056.07
644.0663, 16078.28
644.5485, 16093.21
645.0306, 16100.62
645.5127, 16089.32
645.9948, 16026.92
646.4769, 15969.76
646.9590, 15975.53
647.4412, 16022.60
647.9233, 16055.61
648.4054, 16052.86
648.8875, 16026.23
649.3696, 15987.61
649.8517, 15927.99
650.3339, 15904.60
650.8160, 15956.48
651.2981, 15999.00
651.7802, 15999.64
652.2623, 15976.24
652.7444, 15952.54
653.2266, 15933.68
653.7087, 15921.05
654.1908, 15921.53
654.6729, 15927.69
655.1550, 15917.83
655.6371, 15890.13
656.1193, 15875.98
656.6014, 15902.29
657.0835, 15952.58
657.5656, 15964.14
658.0477, 15890.60
658.5298, 15841.12
659.0120, 15835.27
659.4941, 15837.64
659.9762, 15821.72
660.4583, 15791.75
660.9404, 15768.42
661.4225, 15764.06
