##NAMES=Huntite
##RRUFFID=R040126
##IDEAL CHEMISTRY=CaMg_3_(CO_3_)_4_
##LOCALITY=Crestmore Quarry, Riverside County, California, USA
##OWNER=RRUFF
##SOURCE=University of Arizona Mineral Museum
##DESCRIPTION=White fine-grained massive
##STATUS=The identification of this mineral has been confirmed by X-ray diffraction and chemical analysis
##URL=rruff.info/R040126
##MEASURED CHEMISTRY=Ca_0.97_Mg_3.02_(CO_3_)_4_
150.0185, 61309.58
150.5006, 61536.76
150.9828, 61738.86
151.4649, 61886.15
151.9470, 61985.84
152.4291, 62127.20
152.9112, 62358.37
153.3933, 62605.18
153.8755, 62817.65
154.3576, 62938.06
154.8397, 63071.27
155.3218, 63268.69
155.8039, 63557.46
156.2860, 63742.54
156.7682, 63714.48
157.2503, 63582.08
157.7324, 63480.30
158.2145, 63490.27
158.6966, 63498.54
159.1787, 63454.84
159.6609, 63332.63
160.1430, 63206.10
160.6251, 63079.86
161.1072, 62966.64
161.5893, 62894.91
162.0714, 62890.11
162.5536, 62925.38
163.0357, 62986.66
163.5178, 63127.11
163.9999, 63232.79
164.4820, 63221.09
164.9641, 63111.55
165.4463, 63025.06
165.9284, 63039.30
166.4105, 63101.54
166.8926, 63154.77
167.3747, 63169.25
167.8568, 63172.57
168.3390, 63175.37
168.8211, 63176.00
169.3032, 63193.30
169.7853, 63255.71
170.2674, 63341.18
170.7495, 63411.90
171.2317, 63429.89
171.7138, 63434.46
172.1959, 63465.63
172.6780, 63531.53
173.1601, 63613.63
173.6422, 63717.54
174.1244, 63832.07
174.6065, 63916.61
175.0886, 63924.96
175.5707, 63895.72
176.0528, 63881.46
176.5349, 63885.55
177.0171, 63918.30
177.4992, 64014.74
177.9813, 64165.09
178.4634, 64299.09
178.9455, 64336.14
179.4276, 64312.76
179.9098, 64316.51
180.3919, 64391.30
180.8740, 64497.11
181.3561, 64568.82
181.8382, 64604.05
182.3203, 64628.02
182.8025, 64669.20
183.2846, 64722.53
183.7667, 64767.46
184.2488, 64797.63
184.7309, 64815.71
185.2130, 64821.82
185.6951, 64815.50
186.1773, 64810.31
186.6594, 64828.09
187.1415, 64867.83
187.6236, 64907.50
188.1057, 64932.87
188.5878, 64947.15
189.0700, 64964.30
189.5521, 64980.20
190.0342, 65003.75
190.5163, 65058.15
190.9984, 65141.91
191.4805, 65226.93
191.9627, 65283.63
192.4448, 65313.78
192.9269, 65363.25
193.4090, 65449.65
193.8911, 65552.38
194.3732, 65607.97
194.8554, 65612.30
195.3375, 65598.84
195.8196, 65595.27
196.3017, 65603.11
196.7838, 65621.90
197.2659, 65663.87
197.7481, 65722.87
198.2302, 65742.45
198.7123, 65716.14
199.1944, 65676.26
199.6765, 65657.88
200.1586, 65662.24
200.6408, 65684.09
201.1229, 65722.05
201.6050, 65775.53
202.0871, 65848.48
202.5692, 65948.23
203.0513, 66053.51
203.5335, 66113.26
204.0156, 66106.14
204.4977, 66135.47
204.9798, 66272.21
205.4619, 66538.06
205.9440, 66731.84
206.4262, 66834.32
206.9083, 66868.03
207.3904, 66880.63
207.8725, 66858.33
208.3546, 66848.23
208.8367, 66882.59
209.3189, 66972.95
209.8010, 67061.64
210.2831, 67154.84
210.7652, 67242.89
211.2473, 67278.88
211.7294, 67252.86
212.2116, 67198.36
212.6937, 67133.02
213.1758, 67044.48
213.6579, 66993.30
214.1400, 66997.93
214.6221, 67056.55
215.1043, 67115.84
215.5864, 67179.14
216.0685, 67244.33
216.5506, 67308.97
217.0327, 67375.60
217.5148, 67438.93
217.9970, 67495.49
218.4791, 67542.98
218.9612, 67595.32
219.4433, 67637.35
219.9254, 67694.59
220.4075, 67813.00
220.8897, 68035.81
221.3718, 68220.80
221.8539, 68307.21
222.3360, 68264.87
222.8181, 68264.02
223.3002, 68305.09
223.7824, 68386.08
224.2645, 68506.21
224.7466, 68682.26
225.2287, 68872.59
225.7108, 69071.53
226.1929, 69304.47
226.6750, 69473.86
227.1572, 69549.46
227.6393, 69570.83
228.1214, 69644.38
228.6035, 69803.34
229.0856, 69965.10
229.5677, 70090.70
230.0499, 70173.71
230.5320, 70229.33
231.0141, 70244.84
231.4962, 70231.30
231.9783, 70235.88
232.4604, 70261.59
232.9426, 70299.84
233.4247, 70348.95
233.9068, 70419.99
234.3889, 70475.99
234.8710, 70503.13
235.3531, 70508.00
235.8353, 70546.27
236.3174, 70630.88
236.7995, 70736.27
237.2816, 70843.53
237.7637, 70948.61
238.2458, 71065.52
238.7280, 71196.56
239.2101, 71341.88
239.6922, 71500.67
240.1743, 71680.74
240.6564, 71866.03
241.1385, 72039.70
241.6207, 72193.70
242.1028, 72353.17
242.5849, 72530.68
243.0670, 72729.80
243.5491, 72896.98
244.0313, 73034.15
244.5134, 73137.84
244.9955, 73201.27
245.4776, 73208.48
245.9597, 73203.69
246.4418, 73197.87
246.9240, 73193.11
247.4061, 73174.37
247.8882, 73121.21
248.3703, 73069.94
248.8524, 73074.51
249.3345, 73152.69
249.8167, 73256.88
250.2988, 73377.59
250.7809, 73520.02
251.2630, 73656.85
251.7451, 73785.02
252.2272, 73906.63
252.7094, 74027.85
253.1915, 74162.12
253.6736, 74271.43
254.1557, 74346.13
254.6378, 74394.33
255.1199, 74377.92
255.6021, 74267.58
256.0842, 74107.20
256.5663, 73999.10
257.0484, 73979.52
257.5305, 73949.54
258.0126, 73853.45
258.4948, 73638.95
258.9769, 73513.61
259.4590, 73518.02
259.9411, 73600.41
260.4232, 73610.49
260.9053, 73507.98
261.3875, 73409.16
261.8696, 73371.03
262.3517, 73402.95
262.8338, 73471.41
263.3159, 73583.28
263.7980, 73728.22
264.2802, 73863.40
264.7623, 73974.94
265.2444, 74103.86
265.7265, 74289.63
266.2086, 74555.56
266.6907, 74766.38
267.1729, 74874.91
267.6550, 74921.82
268.1371, 75076.61
268.6192, 75362.48
269.1013, 75697.57
269.5834, 76041.38
270.0656, 76403.30
270.5477, 76708.55
271.0298, 76941.22
271.5119, 77109.20
271.9940, 77267.38
272.4761, 77447.66
272.9583, 77537.28
273.4404, 77421.51
273.9225, 77060.97
274.4046, 76716.63
274.8867, 76420.46
275.3688, 76171.61
275.8510, 75953.70
276.3331, 75762.61
276.8152, 75621.13
277.2973, 75573.46
277.7794, 75633.92
278.2615, 75646.34
278.7437, 75557.11
279.2258, 75400.25
279.7079, 75274.66
280.1900, 75283.39
280.6721, 75268.98
281.1542, 75232.66
281.6364, 75108.84
282.1185, 75098.02
282.6006, 75041.91
283.0827, 74983.95
283.5648, 74989.02
284.0469, 74877.94
284.5291, 74882.01
285.0112, 74840.11
285.4933, 74819.26
285.9754, 74752.84
286.4575, 74700.51
286.9396, 74693.73
287.4217, 74661.73
287.9038, 74603.05
288.3860, 74600.58
288.8681, 74656.02
289.3502, 74759.27
289.8323, 74833.10
290.3144, 74842.18
290.7965, 74808.55
291.2787, 74790.15
291.7608, 74786.84
292.2429, 74798.15
292.7250, 74840.23
293.2071, 74904.34
293.6892, 74943.09
294.1714, 74932.14
294.6535, 74893.05
295.1356, 74871.02
295.6177, 74868.29
296.0998, 74872.67
296.5819, 74859.20
297.0641, 74841.77
297.5462, 74864.98
298.0283, 74965.72
298.5104, 75105.13
298.9925, 75225.99
299.4746, 75328.58
299.9568, 75409.63
300.4389, 75454.87
300.9210, 75474.99
301.4031, 75495.84
301.8852, 75495.16
302.3673, 75514.95
302.8495, 75623.64
303.3316, 75817.63
303.8137, 76032.86
304.2958, 76234.31
304.7779, 76416.88
305.2600, 76568.40
305.7422, 76685.38
306.2243, 76768.20
306.7064, 76787.68
307.1885, 76748.91
307.6706, 76748.94
308.1527, 76908.70
308.6349, 77139.66
309.1170, 77315.95
309.5991, 77322.16
310.0812, 77311.57
310.5633, 77416.83
311.0454, 77632.48
311.5276, 77836.01
312.0097, 77953.80
312.4918, 78020.48
312.9739, 78075.80
313.4560, 78106.97
313.9381, 78152.65
314.4203, 78248.78
314.9024, 78391.25
315.3845, 78513.88
315.8666, 78589.45
316.3487, 78628.28
316.8308, 78639.96
317.3130, 78620.68
317.7951, 78579.34
318.2772, 78510.63
318.7593, 78416.63
319.2414, 78325.30
319.7235, 78257.42
320.2057, 78190.31
320.6878, 78106.24
321.1699, 77958.98
321.6520, 77838.32
322.1341, 77790.28
322.6162, 77806.00
323.0984, 77791.47
323.5805, 77681.87
324.0626, 77565.66
324.5447, 77502.72
325.0268, 77526.43
325.5089, 77576.63
325.9911, 77660.80
326.4732, 77773.21
326.9553, 77865.48
327.4374, 77905.27
327.9195, 77940.70
328.4016, 77999.52
328.8838, 78110.45
329.3659, 78203.10
329.8480, 78251.94
330.3301, 78267.95
330.8122, 78330.41
331.2943, 78480.63
331.7765, 78634.70
332.2586, 78747.56
332.7407, 78814.59
333.2228, 78847.13
333.7049, 78826.55
334.1870, 78772.86
334.6692, 78773.54
335.1513, 78873.95
335.6334, 78960.02
336.1155, 78961.06
336.5976, 78845.63
337.0797, 78743.53
337.5619, 78649.74
338.0440, 78579.24
338.5261, 78598.41
339.0082, 78743.13
339.4903, 78866.21
339.9724, 78860.45
340.4546, 78702.41
340.9367, 78622.17
341.4188, 78652.39
341.9009, 78740.11
342.3830, 78772.50
342.8651, 78745.41
343.3473, 78715.23
343.8294, 78713.17
344.3115, 78739.30
344.7936, 78770.07
345.2757, 78803.27
345.7578, 78851.12
346.2400, 78939.48
346.7221, 79066.24
347.2042, 79200.63
347.6863, 79353.66
348.1684, 79503.70
348.6505, 79562.17
349.1327, 79506.27
349.6148, 79437.30
350.0969, 79489.05
350.5790, 79634.38
351.0611, 79774.88
351.5432, 79827.78
352.0254, 79854.02
352.5075, 79978.88
352.9896, 80216.76
353.4717, 80431.95
353.9538, 80487.59
354.4359, 80431.35
354.9181, 80354.15
355.4002, 80265.29
355.8823, 80194.59
356.3644, 80179.16
356.8465, 80221.47
357.3286, 80276.79
357.8108, 80310.63
358.2929, 80344.30
358.7750, 80405.48
359.2571, 80577.27
359.7392, 80719.77
360.2213, 80731.41
360.7035, 80620.43
361.1856, 80519.49
361.6677, 80467.33
362.1498, 80458.89
362.6319, 80488.73
363.1140, 80603.49
363.5962, 80705.50
364.0783, 80766.84
364.5604, 80789.52
365.0425, 80792.15
365.5246, 80735.45
366.0067, 80687.64
366.4889, 80690.65
366.9710, 80777.96
367.4531, 80883.57
367.9352, 81045.78
368.4173, 81236.93
368.8994, 81330.53
369.3815, 81206.13
369.8636, 81088.20
370.3458, 81079.15
370.8279, 81281.99
371.3100, 81416.11
371.7921, 81455.20
372.2742, 81431.63
372.7563, 81424.51
373.2385, 81439.34
373.7206, 81459.60
374.2027, 81471.49
374.6848, 81460.34
375.1669, 81504.00
375.6490, 81624.73
376.1312, 81776.57
376.6133, 81885.34
377.0954, 81944.23
377.5775, 81988.96
378.0596, 82028.48
378.5417, 82063.19
379.0239, 82120.43
379.5060, 82210.63
379.9881, 82292.75
380.4702, 82288.51
380.9523, 82202.51
381.4344, 82165.30
381.9166, 82225.72
382.3987, 82364.47
382.8808, 82560.75
383.3629, 82818.27
383.8450, 83032.25
384.3271, 83070.77
384.8093, 82976.55
385.2914, 82877.55
385.7735, 82791.81
386.2556, 82737.77
386.7377, 82765.22
387.2198, 82863.94
387.7020, 82958.32
388.1841, 82999.79
388.6662, 83003.69
389.1483, 82988.02
389.6304, 82948.83
390.1125, 82910.06
390.5947, 82891.37
391.0768, 82890.17
391.5589, 82895.32
392.0410, 82898.11
392.5231, 82909.40
393.0052, 82940.91
393.4874, 83005.77
393.9695, 83062.96
394.4516, 83075.09
394.9337, 83069.41
395.4158, 83096.47
395.8979, 83210.06
396.3801, 83321.39
396.8622, 83390.46
397.3443, 83401.47
397.8264, 83408.00
398.3085, 83419.45
398.7906, 83426.91
399.2728, 83419.77
399.7549, 83379.06
400.2370, 83344.91
400.7191, 83321.78
401.2012, 83309.77
401.6833, 83325.13
402.1655, 83388.77
402.6476, 83462.42
403.1297, 83509.84
403.6118, 83513.10
404.0939, 83540.16
404.5760, 83611.99
405.0582, 83717.01
405.5403, 83788.19
406.0224, 83818.38
406.5045, 83832.37
406.9866, 83845.59
407.4688, 83857.59
407.9509, 83857.78
408.4330, 83836.77
408.9151, 83812.07
409.3972, 83819.81
409.8793, 83859.61
410.3615, 83920.73
410.8436, 84028.43
411.3257, 84156.78
411.8078, 84196.86
412.2899, 84125.21
412.7720, 84045.27
413.2542, 84113.66
413.7363, 84281.74
414.2184, 84404.78
414.7005, 84376.45
415.1826, 84286.41
415.6647, 84220.70
416.1469, 84181.54
416.6290, 84193.08
417.1111, 84323.66
417.5932, 84500.40
418.0753, 84624.29
418.5574, 84582.65
419.0396, 84549.95
419.5217, 84661.31
420.0038, 84885.34
420.4859, 85022.95
420.9680, 84912.02
421.4501, 84738.50
421.9323, 84634.17
422.4144, 84685.27
422.8965, 84722.21
423.3786, 84689.91
423.8607, 84623.55
424.3428, 84619.07
424.8250, 84789.89
425.3071, 84935.77
425.7892, 84976.80
426.2713, 84850.85
426.7534, 84792.70
427.2355, 84821.28
427.7177, 84904.38
428.1998, 85001.97
428.6819, 85131.13
429.1640, 85225.88
429.6461, 85252.57
430.1282, 85210.33
430.6104, 85194.92
431.0925, 85195.42
431.5746, 85240.06
432.0567, 85388.27
432.5388, 85643.08
433.0209, 85831.88
433.5031, 85900.22
433.9852, 85895.30
434.4673, 85955.52
434.9494, 86079.63
435.4315, 86158.50
435.9136, 86055.46
436.3958, 85849.88
436.8779, 85753.41
437.3600, 85822.34
437.8421, 85940.94
438.3242, 85988.30
438.8063, 85983.37
439.2885, 85977.24
439.7706, 85971.86
440.2527, 85991.55
440.7348, 86063.02
441.2169, 86190.72
441.6990, 86339.13
442.1812, 86542.82
442.6633, 86736.20
443.1454, 86844.35
443.6275, 86770.95
444.1096, 86675.57
444.5917, 86583.95
445.0739, 86501.59
445.5560, 86494.38
446.0381, 86687.03
446.5202, 86882.64
447.0023, 86964.88
447.4844, 86776.20
447.9666, 86669.95
448.4487, 86692.31
448.9308, 86797.00
449.4129, 86856.97
449.8950, 86850.47
450.3771, 86836.20
450.8593, 86838.81
451.3413, 86863.97
451.8235, 86876.82
452.3056, 86876.14
452.7877, 86866.16
453.2698, 86836.52
453.7519, 86781.16
454.2340, 86781.50
454.7162, 86891.94
455.1983, 87068.86
455.6804, 87141.79
456.1625, 87104.38
456.6446, 87069.18
457.1267, 87159.91
457.6089, 87328.77
458.0910, 87450.50
458.5731, 87498.03
459.0552, 87488.53
459.5373, 87392.16
460.0194, 87243.56
460.5016, 87155.91
460.9837, 87263.76
461.4658, 87422.30
461.9479, 87484.81
462.4300, 87411.88
462.9121, 87373.22
463.3943, 87500.75
463.8764, 87701.18
464.3585, 87852.04
464.8406, 87906.74
465.3227, 87916.97
465.8048, 87864.64
466.2870, 87751.27
466.7691, 87713.40
467.2512, 87834.48
467.7333, 87987.43
468.2154, 88093.51
468.6975, 88110.61
469.1797, 88150.23
469.6618, 88240.20
470.1439, 88347.67
470.6260, 88373.15
471.1081, 88272.66
471.5902, 88193.94
472.0724, 88215.28
472.5545, 88345.48
473.0366, 88407.59
473.5187, 88382.04
474.0008, 88341.33
474.4829, 88395.80
474.9651, 88535.14
475.4472, 88628.30
475.9293, 88621.20
476.4114, 88555.70
476.8935, 88495.41
477.3756, 88445.10
477.8578, 88440.77
478.3399, 88555.18
478.8220, 88721.12
479.3041, 88832.20
479.7862, 88850.09
480.2683, 88858.52
480.7505, 88931.29
481.2326, 89040.48
481.7147, 89127.36
482.1968, 89130.12
482.6789, 89132.55
483.1610, 89183.30
483.6432, 89290.58
484.1253, 89385.42
484.6074, 89428.50
485.0895, 89458.12
485.5716, 89507.76
486.0537, 89616.94
486.5359, 89697.99
487.0180, 89733.16
487.5001, 89731.97
487.9822, 89737.03
488.4643, 89739.44
488.9464, 89764.30
489.4286, 89850.41
489.9107, 90032.97
490.3928, 90077.47
490.8749, 89945.48
491.3570, 89746.88
491.8391, 89637.07
492.3213, 89618.08
492.8034, 89626.74
493.2855, 89651.95
493.7676, 89688.32
494.2497, 89718.58
494.7318, 89743.91
495.2140, 89777.46
495.6961, 89837.38
496.1782, 89911.54
496.6603, 89974.94
497.1424, 90018.01
497.6245, 90058.99
498.1067, 90120.05
498.5888, 90188.23
499.0709, 90235.77
499.5530, 90181.14
500.0351, 90153.01
500.5172, 90248.07
500.9994, 90493.46
501.4815, 90675.51
501.9636, 90695.54
502.4457, 90654.08
502.9278, 90642.35
503.4099, 90708.91
503.8921, 90753.52
504.3742, 90768.61
504.8563, 90759.10
505.3384, 90739.34
505.8205, 90713.73
506.3026, 90680.78
506.7848, 90634.17
507.2669, 90569.59
507.7490, 90550.19
508.2311, 90587.27
508.7132, 90650.80
509.1953, 90701.39
509.6775, 90740.00
510.1596, 90777.70
510.6417, 90779.46
511.1238, 90803.80
511.6059, 91011.87
512.0880, 91384.99
512.5701, 91729.58
513.0522, 91929.17
513.5344, 92011.18
514.0165, 91989.17
514.4986, 91825.94
514.9807, 91673.13
515.4628, 91665.35
515.9449, 91726.55
516.4271, 91727.80
516.9092, 91532.67
517.3913, 91362.48
517.8734, 91317.62
518.3555, 91408.46
518.8376, 91489.78
519.3198, 91571.52
519.8019, 91623.99
520.2840, 91622.09
520.7661, 91504.67
521.2482, 91461.48
521.7303, 91541.98
522.2125, 91676.88
522.6946, 91685.20
523.1767, 91522.20
523.6588, 91418.63
524.1409, 91502.13
524.6230, 91738.77
525.1052, 91884.85
525.5873, 91934.76
526.0694, 91939.70
526.5515, 91932.95
527.0336, 91920.49
527.5157, 91915.02
527.9979, 91908.63
528.4800, 91931.11
528.9621, 92024.89
529.4442, 92175.40
529.9263, 92342.34
530.4084, 92566.09
530.8906, 92752.36
531.3727, 92799.48
531.8548, 92676.45
532.3369, 92608.42
532.8190, 92723.07
533.3011, 92898.08
533.7833, 93020.38
534.2654, 93029.44
534.7475, 93038.02
535.2296, 93051.88
535.7117, 93072.16
536.1938, 93107.61
536.6760, 93177.59
537.1581, 93227.87
537.6402, 93230.99
538.1223, 93183.35
538.6044, 93140.57
539.0865, 93099.63
539.5687, 93075.63
540.0508, 93100.49
540.5329, 93167.20
541.0150, 93212.13
541.4971, 93207.09
541.9792, 93190.16
542.4614, 93227.56
542.9435, 93309.59
543.4256, 93389.23
543.9077, 93453.75
544.3898, 93493.48
544.8719, 93482.95
545.3541, 93409.30
545.8362, 93363.04
546.3183, 93416.53
546.8004, 93507.23
547.2825, 93567.30
547.7646, 93551.71
548.2468, 93534.28
548.7289, 93523.93
549.2110, 93520.70
549.6931, 93524.37
550.1752, 93519.01
550.6573, 93542.13
551.1395, 93625.84
551.6216, 93792.81
552.1037, 93879.43
552.5858, 93869.36
553.0679, 93818.30
553.5500, 93781.40
554.0322, 93759.71
554.5143, 93751.87
554.9964, 93742.85
555.4785, 93768.23
555.9606, 93957.38
556.4427, 94270.86
556.9249, 94486.52
557.4070, 94350.48
557.8891, 94104.75
558.3712, 94028.77
558.8533, 94160.89
559.3354, 94331.39
559.8176, 94470.77
560.2997, 94588.20
560.7818, 94693.57
561.2639, 94774.66
561.7460, 94855.36
562.2281, 94967.88
562.7103, 95086.91
563.1924, 95116.55
563.6745, 94960.70
564.1566, 94843.18
564.6387, 94858.77
565.1208, 95026.40
565.6030, 95160.76
566.0851, 95277.63
566.5672, 95328.26
567.0493, 95201.59
567.5314, 94914.09
568.0135, 94774.45
568.4957, 94881.77
568.9778, 95093.59
569.4599, 95183.86
569.9420, 95174.33
570.4241, 95151.95
570.9063, 95177.39
571.3884, 95203.94
571.8705, 95156.13
572.3526, 95032.12
572.8347, 94966.90
573.3168, 95080.80
573.7990, 95257.07
574.2811, 95397.00
574.7632, 95475.72
575.2453, 95525.70
575.7274, 95523.28
576.2095, 95499.81
576.6917, 95518.98
577.1738, 95608.29
577.6559, 95694.09
578.1380, 95753.13
578.6201, 95787.17
579.1022, 95829.13
579.5844, 95876.28
580.0665, 95938.73
580.5486, 96053.43
581.0307, 96204.20
581.5128, 96255.84
581.9949, 96173.98
582.4771, 96059.32
582.9592, 96035.55
583.4413, 96076.88
583.9234, 96119.32
584.4055, 96111.20
584.8876, 96114.73
585.3698, 96219.27
585.8519, 96396.80
586.3340, 96492.75
586.8161, 96318.42
587.2982, 96137.93
587.7803, 96111.49
588.2625, 96330.10
588.7446, 96510.34
589.2267, 96625.61
589.7088, 96706.38
590.1909, 96786.29
590.6730, 96872.95
591.1552, 96930.92
591.6373, 96938.40
592.1194, 96921.95
592.6015, 96965.35
593.0836, 97070.95
593.5657, 97189.56
594.0479, 97315.88
594.5300, 97432.69
595.0121, 97481.13
595.4942, 97457.59
595.9763, 97423.08
596.4584, 97424.40
596.9406, 97445.78
597.4227, 97465.77
597.9048, 97471.13
598.3869, 97486.31
598.8690, 97549.16
599.3511, 97626.74
599.8333, 97656.73
600.3154, 97559.54
600.7975, 97485.01
601.2796, 97496.59
601.7617, 97592.30
602.2438, 97612.05
602.7260, 97529.57
603.2081, 97424.09
603.6902, 97332.00
604.1723, 97249.86
604.6544, 97258.70
605.1365, 97389.00
605.6187, 97534.14
606.1008, 97531.12
606.5829, 97412.78
607.0650, 97311.37
607.5471, 97249.40
608.0292, 97244.84
608.5114, 97365.58
608.9935, 97572.03
609.4756, 97729.33
609.9577, 97682.17
610.4398, 97623.48
610.9219, 97691.52
611.4041, 97921.73
611.8862, 98095.98
612.3683, 98134.73
612.8504, 98123.87
613.3325, 98126.55
613.8146, 98130.76
614.2968, 98174.50
614.7789, 98277.14
615.2610, 98404.39
615.7431, 98482.28
616.2252, 98505.04
616.7073, 98535.73
617.1895, 98617.88
617.6716, 98714.91
618.1537, 98700.23
618.6358, 98583.68
619.1179, 98485.48
619.6000, 98502.50
620.0822, 98582.57
620.5643, 98663.44
621.0464, 98737.14
621.5285, 98820.98
622.0106, 98954.35
622.4927, 99090.40
622.9749, 99178.25
623.4570, 99159.18
623.9391, 99149.16
624.4212, 99172.95
624.9033, 99216.02
625.3854, 99244.47
625.8676, 99264.99
626.3497, 99251.95
626.8318, 99174.55
627.3139, 99045.33
627.7960, 99001.21
628.2781, 99048.55
628.7603, 99121.74
629.2424, 99174.25
629.7245, 99210.49
630.2066, 99243.44
630.6887, 99274.85
631.1708, 99302.90
631.6530, 99326.92
632.1351, 99346.57
632.6172, 99361.45
633.0993, 99367.56
633.5814, 99374.27
634.0635, 99378.84
634.5457, 99386.62
635.0278, 99416.20
635.5099, 99483.39
635.9920, 99557.69
636.4741, 99626.66
636.9562, 99689.29
637.4384, 99787.04
637.9205, 99940.70
638.4026, 100074.2
638.8847, 100087.4
639.3668, 100000.0
639.8489, 100029.6
640.3311, 100230.2
640.8132, 100430.5
641.2953, 100391.2
641.7774, 100199.4
642.2595, 100044.9
642.7416, 99997.49
643.2238, 100013.8
643.7059, 100094.7
644.1880, 100222.5
644.6701, 100340.0
645.1522, 100449.8
645.6343, 100526.0
646.1165, 100537.0
