##NAMES=Hureaulite
##RRUFFID=R070452
##IDEAL CHEMISTRY=Mn^2+^_5_(P^5+^O_4_)_2_(P^5+^O_3_OH)_2_&#183;4H_2_O
##LOCALITY=Tip Top mine, Fourmile, Custer District, Custer County, South Dakota, USA
##OWNER=RRUFF
##SOURCE=Michael Scott
##DESCRIPTION=Massive coarse pink granular
##STATUS=The identification of this mineral has been confirmed by X-ray diffraction and chemical analysis
##URL=rruff.info/R070452
##MEASURED CHEMISTRY=(Mn^2+^_3.83_Fe^2+^_0.62_Mg_0.33_Ca_0.22_)_Σ=5_(P_1.00_O_4_)_2_(P_1.00_O_3_OH)_2_·4H_2_O; H_2_O estimated by difference; OH by charge balance
132.0062, 1322.672
132.4883, 1356.538
132.9705, 1386.732
133.4526, 1419.373
133.9347, 1463.535
134.4168, 1503.748
134.8989, 1526.464
135.3810, 1530.297
135.8632, 1526.367
136.3453, 1531.456
136.8274, 1552.405
137.3095, 1570.314
137.7916, 1581.115
138.2737, 1591.358
138.7559, 1607.702
139.2380, 1631.677
139.7201, 1658.471
140.2022, 1679.683
140.6843, 1690.408
141.1664, 1703.513
141.6486, 1715.745
142.1307, 1731.855
142.6128, 1756.995
143.0949, 1792.877
143.5770, 1837.350
144.0591, 1887.722
144.5413, 1946.031
145.0234, 2005.523
145.5055, 2068.501
145.9876, 2131.331
146.4697, 2188.447
146.9518, 2237.867
147.4340, 2282.430
147.9161, 2328.145
148.3982, 2377.378
148.8803, 2421.978
149.3624, 2462.011
149.8445, 2496.130
150.3267, 2520.279
150.8088, 2531.331
151.2909, 2535.586
151.7730, 2545.964
152.2551, 2565.205
152.7372, 2580.556
153.2194, 2586.492
153.7015, 2584.746
154.1836, 2578.137
154.6657, 2564.339
155.1478, 2550.953
155.6299, 2550.737
156.1121, 2565.545
156.5942, 2583.462
157.0763, 2600.678
157.5584, 2616.597
158.0405, 2627.402
158.5226, 2625.997
159.0048, 2625.737
159.4869, 2645.930
159.9690, 2690.340
160.4511, 2736.291
160.9332, 2764.251
161.4153, 2772.042
161.8975, 2776.422
162.3796, 2801.215
162.8617, 2834.562
163.3438, 2866.794
163.8259, 2899.401
164.3080, 2919.820
164.7902, 2911.259
165.2723, 2876.729
165.7544, 2852.535
166.2365, 2855.349
166.7186, 2865.874
167.2007, 2865.907
167.6829, 2853.893
168.1650, 2841.178
168.6471, 2843.280
169.1292, 2860.111
169.6113, 2857.991
170.0934, 2813.494
170.5756, 2760.514
171.0577, 2723.969
171.5398, 2706.329
172.0219, 2695.052
172.5040, 2679.638
172.9861, 2659.889
173.4683, 2639.476
173.9504, 2616.224
174.4325, 2594.378
174.9146, 2575.052
175.3967, 2558.448
175.8788, 2548.105
176.3610, 2553.914
176.8431, 2579.126
177.3252, 2585.896
177.8073, 2547.732
178.2894, 2503.612
178.7715, 2472.746
179.2537, 2457.507
179.7358, 2452.470
180.2179, 2457.393
180.7000, 2475.455
181.1821, 2479.425
181.6642, 2450.161
182.1464, 2417.086
182.6285, 2392.513
183.1106, 2378.235
183.5927, 2371.431
184.0748, 2369.719
184.5569, 2373.152
185.0391, 2380.990
185.5212, 2394.279
186.0033, 2411.516
186.4854, 2436.488
186.9675, 2467.246
187.4496, 2494.083
187.9318, 2504.571
188.4139, 2494.778
188.8960, 2492.565
189.3781, 2505.219
189.8602, 2520.628
190.3423, 2534.242
190.8245, 2545.810
191.3066, 2557.503
191.7887, 2571.272
192.2708, 2587.237
192.7529, 2604.195
193.2350, 2630.905
193.7172, 2651.043
194.1993, 2652.607
194.6814, 2639.923
195.1635, 2628.785
195.6456, 2636.281
196.1277, 2665.419
196.6099, 2681.249
197.0920, 2667.369
197.5741, 2654.228
198.0562, 2654.356
198.5383, 2664.586
199.0204, 2672.751
199.5026, 2664.693
199.9847, 2638.994
200.4668, 2638.686
200.9489, 2690.447
201.4310, 2745.134
201.9131, 2793.719
202.3953, 2834.522
202.8774, 2865.682
203.3595, 2882.398
203.8416, 2885.779
204.3237, 2908.169
204.8058, 2968.792
205.2880, 3030.602
205.7701, 3082.565
206.2522, 3128.892
206.7343, 3179.878
207.2164, 3243.903
207.6985, 3318.301
208.1807, 3379.003
208.6628, 3407.842
209.1449, 3442.635
209.6270, 3494.734
210.1091, 3557.395
210.5912, 3619.410
211.0734, 3673.726
211.5555, 3722.840
212.0376, 3779.701
212.5197, 3840.615
213.0018, 3916.022
213.4839, 4006.812
213.9661, 4112.276
214.4482, 4240.279
214.9303, 4397.720
215.4124, 4563.032
215.8945, 4658.209
216.3766, 4621.209
216.8587, 4603.584
217.3409, 4637.624
217.8230, 4695.563
218.3051, 4751.726
218.7872, 4795.595
219.2693, 4827.582
219.7514, 4848.074
220.2336, 4854.192
220.7157, 4852.757
221.1978, 4845.797
221.6799, 4832.477
222.1620, 4813.757
222.6441, 4789.507
223.1263, 4756.041
223.6084, 4704.500
224.0905, 4621.777
224.5726, 4550.065
225.0547, 4498.050
225.5368, 4451.978
226.0190, 4400.160
226.5011, 4341.435
226.9832, 4285.613
227.4653, 4247.260
227.9474, 4231.614
228.4296, 4217.843
228.9117, 4209.469
229.3938, 4199.510
229.8759, 4182.296
230.3580, 4158.530
230.8401, 4134.775
231.3223, 4119.227
231.8044, 4114.547
232.2865, 4103.612
232.7686, 4078.945
233.2507, 4054.320
233.7328, 4035.867
234.2150, 4022.446
234.6971, 4008.742
235.1792, 3989.724
235.6613, 3965.234
236.1434, 3942.998
236.6255, 3929.644
237.1077, 3911.178
237.5898, 3883.173
238.0719, 3846.734
238.5540, 3803.075
239.0361, 3749.900
239.5182, 3690.723
240.0004, 3650.013
240.4825, 3648.930
240.9646, 3637.580
241.4467, 3596.319
241.9288, 3537.953
242.4109, 3479.976
242.8931, 3430.410
243.3752, 3388.446
243.8573, 3352.578
244.3394, 3325.670
244.8215, 3299.604
245.3036, 3270.343
245.7858, 3241.476
246.2679, 3216.184
246.7500, 3195.262
247.2321, 3179.726
247.7142, 3174.025
248.1963, 3183.639
248.6785, 3185.309
249.1606, 3162.245
249.6427, 3136.300
250.1248, 3124.436
250.6069, 3130.616
251.0890, 3142.515
251.5712, 3144.791
252.0533, 3135.668
252.5354, 3132.631
253.0175, 3149.392
253.4996, 3164.512
253.9817, 3158.530
254.4639, 3132.660
254.9460, 3112.673
255.4281, 3123.472
255.9102, 3163.010
256.3923, 3200.437
256.8745, 3237.550
257.3566, 3265.848
257.8387, 3278.778
258.3208, 3279.068
258.8029, 3276.427
259.2850, 3272.695
259.7672, 3270.115
260.2493, 3278.798
260.7314, 3306.208
261.2135, 3329.436
261.6956, 3328.829
262.1777, 3314.806
262.6599, 3307.096
263.1420, 3316.424
263.6241, 3334.189
264.1062, 3350.680
264.5883, 3368.241
265.0704, 3372.424
265.5526, 3345.852
266.0347, 3303.705
266.5168, 3267.000
266.9989, 3241.627
267.4810, 3219.477
267.9631, 3196.227
268.4453, 3171.509
268.9274, 3136.697
269.4095, 3082.948
269.8916, 3020.554
270.3737, 2967.674
270.8558, 2928.549
271.3380, 2885.238
271.8201, 2820.994
272.3022, 2742.879
272.7843, 2675.424
273.2664, 2627.621
273.7485, 2587.654
274.2307, 2536.917
274.7128, 2474.382
275.1949, 2419.429
275.6770, 2383.821
276.1591, 2357.479
276.6412, 2325.384
277.1234, 2284.445
277.6055, 2241.783
278.0876, 2202.136
278.5697, 2165.795
279.0518, 2140.438
279.5339, 2138.695
280.0161, 2139.739
280.4982, 2122.950
280.9803, 2089.337
281.4624, 2058.313
281.9445, 2044.984
282.4266, 2047.257
282.9088, 2041.171
283.3909, 2018.292
283.8730, 1996.645
284.3551, 1984.777
284.8372, 1980.179
285.3193, 1976.018
285.8015, 1968.650
286.2836, 1960.068
286.7657, 1956.969
287.2478, 1962.971
287.7299, 1969.254
288.2120, 1978.615
288.6942, 1986.140
289.1763, 1983.118
289.6584, 1967.234
290.1405, 1948.319
290.6226, 1941.505
291.1047, 1949.366
291.5869, 1966.237
292.0690, 2004.844
292.5511, 2042.252
293.0332, 2060.690
293.5153, 2060.145
293.9974, 2054.091
294.4796, 2055.379
294.9617, 2064.445
295.4438, 2077.369
295.9259, 2099.129
296.4080, 2119.520
296.8901, 2135.297
297.3723, 2146.876
297.8544, 2155.700
298.3365, 2162.768
298.8186, 2167.846
299.3007, 2169.539
299.7828, 2165.519
300.2650, 2161.077
300.7471, 2152.866
301.2292, 2146.542
301.7113, 2149.073
302.1934, 2163.158
302.6755, 2183.718
303.1577, 2205.024
303.6398, 2232.438
304.1219, 2243.386
304.6040, 2219.803
305.0861, 2189.622
305.5682, 2168.741
306.0504, 2159.289
306.5325, 2154.505
307.0146, 2152.730
307.4967, 2153.584
307.9788, 2139.274
308.4609, 2096.573
308.9431, 2053.947
309.4252, 2030.108
309.9073, 2019.610
310.3894, 2007.004
310.8715, 1980.885
311.3536, 1948.319
311.8358, 1925.757
312.3179, 1915.111
312.8000, 1907.112
313.2821, 1899.194
313.7642, 1890.054
314.2463, 1877.031
314.7285, 1857.134
315.2106, 1837.158
315.6927, 1824.423
316.1748, 1817.984
316.6569, 1809.822
317.1390, 1796.985
317.6212, 1781.095
318.1033, 1762.013
318.5854, 1736.211
319.0675, 1722.918
319.5496, 1742.567
320.0317, 1776.088
320.5139, 1789.993
320.9960, 1776.432
321.4781, 1753.159
321.9602, 1738.689
322.4423, 1734.205
322.9244, 1726.607
323.4066, 1710.113
323.8887, 1694.460
324.3708, 1688.218
324.8529, 1690.002
325.3350, 1691.702
325.8171, 1687.773
326.2993, 1679.006
326.7814, 1671.633
327.2635, 1667.803
327.7456, 1662.625
328.2277, 1653.822
328.7098, 1643.368
329.1920, 1633.731
329.6741, 1625.891
330.1562, 1619.813
330.6383, 1615.248
331.1204, 1610.480
331.6025, 1610.838
332.0847, 1621.931
332.5668, 1633.225
333.0489, 1638.046
333.5310, 1635.790
334.0131, 1629.664
334.4952, 1622.225
334.9774, 1613.394
335.4595, 1605.484
335.9416, 1596.203
336.4237, 1590.637
336.9058, 1592.724
337.3879, 1599.112
337.8701, 1603.536
338.3522, 1601.746
338.8343, 1598.304
339.3164, 1606.809
339.7985, 1634.918
340.2806, 1652.243
340.7627, 1639.351
341.2448, 1617.792
341.7270, 1604.154
342.2091, 1601.603
342.6912, 1602.928
343.1733, 1601.394
343.6554, 1597.706
344.1375, 1597.950
344.6197, 1605.227
345.1018, 1613.269
345.5839, 1616.478
346.0660, 1615.677
346.5481, 1614.478
347.0302, 1615.123
347.5124, 1615.573
347.9945, 1611.929
348.4766, 1604.020
348.9587, 1598.200
349.4408, 1600.107
349.9229, 1606.733
350.4051, 1606.505
350.8872, 1591.427
351.3693, 1579.905
351.8514, 1583.320
352.3335, 1595.470
352.8156, 1603.569
353.2978, 1602.899
353.7799, 1598.704
354.2620, 1599.731
354.7441, 1610.535
355.2262, 1616.171
355.7083, 1612.760
356.1905, 1606.974
356.6726, 1602.420
357.1547, 1599.993
357.6368, 1600.883
358.1189, 1607.205
358.6010, 1618.662
359.0832, 1620.811
359.5653, 1595.775
360.0474, 1581.117
360.5295, 1590.260
361.0116, 1612.474
361.4937, 1634.741
361.9759, 1651.636
362.4580, 1663.137
362.9401, 1667.344
363.4222, 1659.376
363.9043, 1658.652
364.3864, 1675.592
364.8686, 1694.142
365.3507, 1704.211
365.8328, 1706.053
366.3149, 1708.023
366.7970, 1717.246
367.2791, 1732.280
367.7613, 1745.784
368.2434, 1756.720
368.7255, 1768.228
369.2076, 1783.226
369.6897, 1799.810
370.1718, 1814.604
370.6540, 1824.217
371.1361, 1835.385
371.6182, 1861.597
372.1003, 1898.916
372.5824, 1915.934
373.0645, 1891.716
373.5467, 1855.885
374.0288, 1861.316
374.5109, 1913.734
374.9930, 1961.624
375.4751, 1993.026
375.9572, 2012.907
376.4394, 2023.948
376.9215, 2027.404
377.4036, 2030.212
377.8857, 2038.418
378.3678, 2052.043
378.8499, 2063.282
379.3321, 2072.280
379.8142, 2079.176
380.2963, 2082.818
380.7784, 2084.644
381.2605, 2087.354
381.7426, 2092.096
382.2248, 2096.562
382.7069, 2095.517
383.1890, 2084.687
383.6711, 2077.304
384.1532, 2081.649
384.6353, 2082.606
385.1175, 2064.272
385.5996, 2031.747
386.0817, 2007.522
386.5638, 2014.289
387.0459, 2045.937
387.5280, 2061.167
388.0102, 2050.631
388.4923, 2041.060
388.9744, 2042.454
389.4565, 2050.967
389.9386, 2063.157
390.4207, 2079.194
390.9029, 2094.997
391.3850, 2104.149
391.8671, 2108.058
392.3492, 2117.967
392.8313, 2137.791
393.3134, 2162.368
393.7956, 2185.258
394.2777, 2206.705
394.7598, 2232.051
395.2419, 2264.317
395.7240, 2299.956
396.2061, 2335.487
396.6883, 2370.869
397.1704, 2408.936
397.6525, 2452.046
398.1346, 2498.700
398.6167, 2542.452
399.0988, 2572.454
399.5810, 2613.652
400.0631, 2677.448
400.5452, 2750.971
401.0273, 2819.144
401.5094, 2878.920
401.9915, 2939.059
402.4737, 3011.487
402.9558, 3097.650
403.4379, 3186.247
403.9200, 3277.654
404.4021, 3370.560
404.8842, 3466.081
405.3664, 3563.130
405.8485, 3659.692
406.3306, 3753.663
406.8127, 3849.217
407.2948, 3954.929
407.7769, 4073.339
408.2591, 4192.665
408.7412, 4308.892
409.2233, 4425.857
409.7054, 4550.259
410.1875, 4682.451
410.6696, 4804.780
411.1518, 4905.471
411.6339, 4990.194
412.1160, 5073.078
412.5981, 5156.171
413.0802, 5226.178
413.5623, 5277.365
414.0445, 5305.247
414.5266, 5303.316
415.0087, 5267.823
415.4908, 5207.484
415.9729, 5120.343
416.4550, 5011.946
416.9372, 4890.078
417.4193, 4756.615
417.9014, 4614.514
418.3835, 4464.812
418.8656, 4301.319
419.3477, 4153.825
419.8299, 4028.798
420.3120, 3911.285
420.7941, 3793.306
421.2762, 3676.860
421.7583, 3565.252
422.2404, 3458.875
422.7226, 3363.571
423.2047, 3297.386
423.6868, 3275.147
424.1689, 3246.246
424.6510, 3183.659
425.1331, 3123.952
425.6153, 3096.477
426.0974, 3101.937
426.5795, 3113.099
427.0616, 3109.723
427.5437, 3096.821
428.0258, 3086.809
428.5080, 3077.692
428.9901, 3081.987
429.4722, 3114.086
429.9543, 3164.501
430.4364, 3208.919
430.9185, 3244.632
431.4007, 3276.398
431.8828, 3299.694
432.3649, 3322.043
432.8470, 3358.737
433.3291, 3413.887
433.8112, 3479.174
434.2934, 3545.062
434.7755, 3611.342
435.2576, 3677.704
435.7397, 3739.953
436.2218, 3806.417
436.7039, 3877.608
437.1861, 3956.070
437.6682, 4048.195
438.1503, 4157.075
438.6324, 4275.880
439.1145, 4388.962
439.5966, 4491.671
440.0788, 4600.950
440.5609, 4727.635
441.0430, 4853.730
441.5251, 4965.319
442.0072, 5065.946
442.4893, 5173.991
442.9715, 5302.326
443.4536, 5445.524
443.9357, 5597.168
444.4178, 5759.649
444.8999, 5915.836
445.3820, 6058.627
445.8642, 6189.471
446.3463, 6310.753
446.8284, 6419.298
447.3105, 6530.761
447.7926, 6651.693
448.2747, 6778.119
448.7569, 6907.697
449.2390, 7038.646
449.7211, 7165.494
450.2032, 7285.727
450.6853, 7398.543
451.1674, 7485.243
451.6496, 7549.611
452.1317, 7585.822
452.6138, 7581.641
453.0959, 7553.393
453.5780, 7519.969
454.0602, 7486.583
454.5423, 7444.382
455.0244, 7382.256
455.5065, 7299.762
455.9886, 7203.216
456.4707, 7096.446
456.9529, 6969.004
457.4350, 6809.465
457.9171, 6629.481
458.3992, 6448.209
458.8813, 6270.819
459.3634, 6096.443
459.8456, 5922.437
460.3277, 5749.343
460.8098, 5579.950
461.2919, 5415.360
461.7740, 5255.555
462.2561, 5102.229
462.7383, 4955.007
463.2204, 4812.704
463.7025, 4672.570
464.1846, 4540.362
464.6667, 4424.271
465.1488, 4318.989
465.6310, 4211.367
466.1131, 4094.397
466.5952, 3975.106
467.0773, 3870.349
467.5594, 3790.167
468.0415, 3704.589
468.5237, 3605.571
469.0058, 3508.423
469.4879, 3422.196
469.9700, 3345.298
470.4521, 3270.501
470.9342, 3193.349
471.4164, 3115.096
471.8985, 3038.631
472.3806, 2963.934
472.8627, 2892.665
473.3448, 2828.032
473.8269, 2765.751
474.3091, 2698.323
474.7912, 2624.590
475.2733, 2560.521
475.7554, 2521.656
476.2375, 2490.307
476.7196, 2443.409
477.2018, 2381.644
477.6839, 2323.485
478.1660, 2280.336
478.6481, 2249.156
479.1302, 2218.050
479.6123, 2184.789
480.0945, 2154.481
480.5766, 2130.649
481.0587, 2107.369
481.5408, 2078.796
482.0229, 2045.153
482.5050, 2011.201
482.9872, 1979.315
483.4693, 1950.613
483.9514, 1933.954
484.4335, 1938.563
484.9156, 1933.559
485.3977, 1891.826
485.8799, 1843.971
486.3620, 1821.608
486.8441, 1830.493
487.3262, 1839.909
487.8083, 1828.476
488.2904, 1806.500
488.7726, 1793.517
489.2547, 1791.440
489.7368, 1789.728
490.2189, 1782.185
490.7010, 1769.052
491.1831, 1750.649
491.6653, 1717.457
492.1474, 1692.224
492.6295, 1684.490
493.1116, 1682.756
493.5937, 1675.372
494.0758, 1661.291
494.5580, 1647.435
495.0401, 1639.736
495.5222, 1638.049
496.0043, 1642.576
496.4864, 1661.286
496.9685, 1671.504
497.4507, 1659.085
497.9328, 1639.578
498.4149, 1628.399
498.8970, 1628.337
499.3791, 1629.921
499.8612, 1626.094
500.3434, 1619.281
500.8255, 1614.561
501.3076, 1612.405
501.7897, 1611.940
502.2718, 1613.015
502.7539, 1615.242
503.2361, 1616.887
503.7182, 1616.903
504.2003, 1617.831
504.6824, 1620.545
505.1645, 1624.121
505.6466, 1628.390
506.1288, 1632.844
506.6109, 1635.738
507.0930, 1635.022
507.5751, 1631.454
508.0572, 1630.994
508.5393, 1634.042
509.0215, 1639.597
509.5036, 1649.505
509.9857, 1660.366
510.4678, 1668.755
510.9499, 1674.265
511.4320, 1680.604
511.9142, 1692.220
512.3963, 1705.768
512.8784, 1713.507
513.3605, 1714.991
513.8427, 1717.326
514.3248, 1724.389
514.8069, 1735.277
515.2890, 1746.838
515.7711, 1755.422
516.2532, 1771.102
516.7354, 1803.436
517.2175, 1837.376
517.6996, 1857.350
518.1817, 1865.605
518.6638, 1877.066
519.1459, 1902.604
519.6281, 1939.078
520.1102, 1976.208
520.5923, 2014.261
521.0744, 2051.778
521.5565, 2087.131
522.0386, 2122.812
522.5208, 2158.200
523.0029, 2194.204
523.4850, 2237.317
523.9671, 2296.497
524.4492, 2361.216
524.9313, 2413.756
525.4135, 2456.388
525.8956, 2508.509
526.3777, 2579.711
526.8598, 2662.740
527.3419, 2745.080
527.8240, 2829.596
528.3062, 2905.728
528.7883, 2967.665
529.2704, 3026.890
529.7525, 3092.417
530.2346, 3160.657
530.7167, 3223.745
531.1989, 3278.162
531.6810, 3324.261
532.1631, 3359.274
532.6452, 3380.776
533.1273, 3413.461
533.6094, 3470.837
534.0916, 3526.916
534.5737, 3560.895
535.0558, 3578.534
535.5379, 3596.787
536.0200, 3621.236
536.5021, 3646.408
536.9843, 3669.012
537.4664, 3689.178
537.9485, 3708.020
538.4306, 3725.723
538.9127, 3739.399
539.3948, 3745.150
539.8770, 3742.288
540.3591, 3739.384
540.8412, 3749.334
541.3233, 3744.049
541.8054, 3713.057
542.2875, 3665.324
542.7697, 3609.718
543.2518, 3549.032
543.7339, 3484.092
544.2160, 3417.453
544.6981, 3347.727
545.1802, 3265.322
545.6624, 3167.035
546.1445, 3068.771
546.6266, 2974.203
547.1087, 2888.293
547.5908, 2824.223
548.0729, 2797.494
548.5551, 2754.975
549.0372, 2671.134
549.5193, 2572.147
550.0014, 2477.991
550.4835, 2392.562
550.9656, 2319.287
551.4478, 2260.132
551.9299, 2213.856
552.4120, 2175.707
552.8941, 2146.009
553.3762, 2123.961
553.8583, 2117.920
554.3405, 2112.872
554.8226, 2096.489
555.3047, 2072.541
555.7868, 2057.139
556.2689, 2058.499
556.7510, 2070.801
557.2332, 2092.161
557.7153, 2119.919
558.1974, 2142.548
558.6795, 2156.120
559.1616, 2166.139
559.6437, 2179.201
560.1259, 2195.644
560.6080, 2213.309
561.0901, 2231.630
561.5722, 2251.862
562.0543, 2277.113
562.5364, 2303.260
563.0186, 2326.323
563.5007, 2344.874
563.9828, 2357.639
564.4649, 2361.630
564.9470, 2357.958
565.4291, 2354.008
565.9113, 2350.156
566.3934, 2344.927
566.8755, 2334.841
567.3576, 2324.250
567.8397, 2320.806
568.3218, 2323.657
568.8040, 2335.935
569.2861, 2366.684
569.7682, 2401.327
570.2503, 2423.625
570.7324, 2436.407
571.2145, 2454.735
571.6967, 2488.046
572.1788, 2530.501
572.6609, 2565.660
573.1430, 2588.083
573.6251, 2621.143
574.1072, 2676.626
574.5894, 2733.991
575.0715, 2781.895
575.5536, 2822.846
576.0357, 2863.852
576.5178, 2906.705
576.9999, 2950.955
577.4821, 3000.521
577.9642, 3050.861
578.4463, 3089.945
578.9284, 3115.290
579.4105, 3132.650
579.8926, 3148.394
580.3748, 3161.969
580.8569, 3159.376
581.3390, 3116.581
581.8211, 3087.168
582.3032, 3097.018
582.7853, 3109.531
583.2675, 3092.783
583.7496, 3044.278
584.2317, 2981.390
584.7138, 2910.181
585.1959, 2836.501
585.6780, 2774.455
586.1602, 2724.079
586.6422, 2675.443
587.1243, 2627.565
587.6064, 2575.798
588.0886, 2509.624
588.5707, 2423.116
589.0528, 2359.088
589.5349, 2331.633
590.0170, 2312.734
590.4991, 2298.762
590.9813, 2281.630
591.4634, 2246.143
591.9455, 2189.093
592.4276, 2131.109
592.9097, 2097.927
593.3918, 2087.974
593.8740, 2079.287
594.3561, 2075.225
594.8382, 2061.886
595.3203, 2026.408
595.8024, 1980.626
596.2845, 1944.675
596.7667, 1919.939
597.2488, 1898.576
597.7309, 1878.934
598.2130, 1861.037
598.6951, 1849.870
599.1772, 1840.632
599.6594, 1817.637
600.1415, 1772.462
600.6236, 1719.969
601.1057, 1689.728
601.5878, 1687.170
602.0699, 1678.411
602.5521, 1658.498
603.0342, 1637.322
603.5163, 1618.613
603.9984, 1602.451
604.4805, 1588.933
604.9626, 1578.560
605.4448, 1569.569
605.9269, 1562.736
606.4090, 1555.777
606.8911, 1543.758
607.3732, 1527.271
607.8553, 1514.361
608.3375, 1511.546
608.8196, 1512.821
609.3017, 1496.832
609.7838, 1444.747
610.2659, 1417.738
610.7480, 1444.911
611.2302, 1474.347
611.7123, 1481.102
612.1944, 1470.277
612.6765, 1456.192
613.1586, 1441.992
613.6407, 1430.201
614.1229, 1425.607
614.6050, 1424.669
615.0871, 1417.363
615.5692, 1402.234
616.0513, 1390.302
616.5334, 1392.074
617.0156, 1403.346
617.4977, 1399.979
617.9798, 1362.752
618.4619, 1340.956
618.9440, 1347.843
619.4261, 1361.503
619.9083, 1369.297
620.3904, 1371.005
620.8725, 1371.307
621.3546, 1373.944
621.8367, 1373.590
622.3188, 1359.056
622.8010, 1335.344
623.2831, 1323.072
623.7652, 1327.263
624.2473, 1336.111
