##NAMES=Hureaulite
##RRUFFID=R090070
##IDEAL CHEMISTRY=Mn^2+^_5_(P^5+^O_4_)_2_(P^5+^O_3_OH)_2_&#183;4H_2_O
##LOCALITY=Cigana Mine (ex-Jocão Mine), Galiléia, Minas Gerais  Brazil
##OWNER=RRUFF
##SOURCE=Royal Ontario Museum 
##DESCRIPTION=Cluster of pink prismatic crystals on reddingite, R090069, associated with colorless ludlamite, R090071
##STATUS=The identification of this mineral has been confirmed only by single crystal X-ray diffraction.
##URL=rruff.info/R090070
92.07813, 15.55636
92.56024, 15.24109
93.04236, 15.52947
93.52448, 16.24528
94.00659, 16.73701
94.48871, 16.53596
94.97083, 15.82872
95.45294, 15.04849
95.93506, 14.18302
96.41718, 13.39325
96.89929, 12.95517
97.38141, 12.87376
97.86353, 13.04753
98.34564, 13.46729
98.82776, 14.11791
99.30988, 14.87120
99.79199, 15.82991
100.2741, 16.83405
100.7562, 17.24967
101.2383, 16.96566
101.7205, 16.39976
102.2026, 15.83096
102.6847, 15.18460
103.1668, 14.87618
103.6489, 15.19933
104.1310, 16.18271
104.6132, 16.29453
105.0953, 15.06033
105.5774, 13.40030
106.0595, 12.48003
106.5416, 12.66708
107.0237, 13.01935
107.5059, 13.28547
107.9880, 13.36653
108.4701, 13.68453
108.9522, 14.73417
109.4343, 15.92853
109.9164, 16.21491
110.3986, 13.92156
110.8807, 12.12180
111.3628, 11.84952
111.8449, 14.66106
112.3270, 16.50319
112.8091, 16.23688
113.2913, 14.70270
113.7734, 14.26152
114.2555, 16.87602
114.7376, 19.63972
115.2197, 20.97438
115.7018, 19.43559
116.1840, 17.79352
116.6661, 16.57966
117.1482, 15.79483
117.6303, 15.44426
118.1124, 15.50082
118.5945, 16.00482
119.0767, 16.98234
119.5588, 18.52656
120.0409, 20.47935
120.5230, 22.83451
121.0051, 25.56971
121.4872, 28.51059
121.9694, 32.34579
122.4515, 36.15155
122.9336, 38.65658
123.4157, 36.88152
123.8978, 34.92196
124.3799, 36.98089
124.8621, 43.44426
125.3442, 50.99432
125.8263, 56.55857
126.3084, 60.96893
126.7905, 66.28548
127.2726, 74.86076
127.7548, 84.63314
128.2369, 91.90599
128.7190, 96.03919
129.2011, 99.10581
129.6832, 103.7583
130.1653, 109.7078
130.6474, 115.4815
131.1296, 120.0748
131.6117, 123.7288
132.0938, 127.3764
132.5759, 131.0189
133.0580, 134.8879
133.5401, 138.9955
134.0223, 143.3249
134.5044, 148.9527
134.9865, 157.0393
135.4686, 167.6061
135.9507, 178.1981
136.4328, 188.4807
136.9150, 198.7625
137.3971, 210.1304
137.8792, 222.9857
138.3613, 235.6224
138.8434, 246.5374
139.3255, 255.4110
139.8077, 264.1839
140.2898, 273.8641
140.7719, 283.9830
141.2540, 290.5526
141.7361, 292.2633
142.2182, 292.4718
142.7004, 294.4341
143.1825, 298.8179
143.6646, 303.2658
144.1467, 306.9741
144.6288, 309.8669
145.1109, 314.0312
145.5931, 319.7869
146.0752, 326.5815
146.5573, 333.9212
147.0394, 341.9204
147.5215, 350.2528
148.0036, 358.7439
148.4858, 367.6081
148.9679, 376.1766
149.4500, 382.2653
149.9321, 388.7898
150.4142, 399.9319
150.8963, 419.8369
151.3785, 440.7408
151.8606, 460.2271
152.3427, 477.6247
152.8248, 495.9771
153.3069, 517.7125
153.7890, 540.2673
154.2712, 557.2390
154.7533, 568.0920
155.2354, 572.7523
155.7175, 570.0225
156.1996, 557.6979
156.6817, 542.4867
157.1639, 524.1727
157.6460, 503.6048
158.1281, 482.9957
158.6102, 461.2384
159.0923, 440.6351
159.5744, 422.2027
160.0566, 406.4456
160.5387, 392.5550
161.0208, 379.9933
161.5029, 369.0959
161.9850, 360.9397
162.4671, 357.2477
162.9493, 355.5363
163.4314, 354.2021
163.9135, 353.2707
164.3956, 352.1414
164.8777, 350.2855
165.3598, 347.9080
165.8420, 345.8709
166.3241, 345.0703
166.8062, 344.5540
167.2883, 343.4183
167.7704, 340.3022
168.2525, 337.6088
168.7346, 336.9619
169.2168, 338.1315
169.6989, 339.7239
170.1810, 341.0464
170.6631, 342.2728
171.1452, 343.6085
171.6273, 344.8810
172.1095, 346.4565
172.5916, 348.9003
173.0737, 352.1344
173.5558, 355.2441
174.0379, 357.2285
174.5201, 358.6938
175.0022, 360.6550
175.4843, 363.9852
175.9664, 367.7426
176.4485, 370.8543
176.9306, 373.3593
177.4128, 375.3192
177.8949, 376.4560
178.3770, 377.0666
178.8591, 377.8428
179.3412, 380.3194
179.8233, 382.7100
180.3055, 381.8906
180.7876, 377.7569
181.2697, 372.2821
181.7518, 366.4799
182.2339, 360.7275
182.7160, 356.0497
183.1982, 353.6308
183.6803, 352.5322
184.1624, 350.2173
184.6445, 346.4091
185.1266, 343.3415
185.6087, 343.9250
186.0909, 347.6885
186.5730, 352.1095
187.0551, 356.1525
187.5372, 359.9951
188.0193, 364.2333
188.5014, 368.7818
188.9836, 374.0605
189.4657, 380.9006
189.9478, 389.1637
190.4299, 398.0925
190.9120, 407.8352
191.3941, 418.0440
191.8763, 426.9718
192.3584, 434.3859
192.8405, 440.9911
193.3226, 448.8172
193.8047, 457.8471
194.2868, 464.4821
194.7690, 467.0369
195.2511, 465.6259
195.7332, 461.6986
196.2153, 454.9926
196.6974, 446.4805
197.1795, 437.9199
197.6617, 429.3106
198.1438, 420.2553
198.6259, 410.0044
199.1080, 398.6034
199.5901, 388.8964
200.0722, 381.1340
200.5544, 374.8532
201.0365, 369.2626
201.5186, 364.2404
202.0007, 360.4040
202.4828, 358.0993
202.9649, 357.3595
203.4471, 357.6143
203.9292, 358.9136
204.4113, 361.1183
204.8934, 364.1880
205.3755, 368.3094
205.8576, 372.3991
206.3398, 375.4771
206.8219, 377.0747
207.3040, 381.0179
207.7861, 387.9283
208.2682, 396.5872
208.7503, 404.3059
209.2325, 410.5478
209.7146, 417.3153
210.1967, 425.5361
210.6788, 435.3815
211.1609, 445.8348
211.6430, 456.8035
212.1252, 468.4912
212.6073, 481.2722
213.0894, 495.2960
213.5715, 509.8684
214.0536, 524.5467
214.5357, 539.1258
215.0179, 554.9716
215.5000, 572.9099
215.9821, 591.6985
216.4642, 608.6962
216.9463, 623.7014
217.4284, 637.0501
217.9105, 648.9147
218.3927, 658.9855
218.8748, 668.5408
219.3569, 678.9412
219.8390, 688.0578
220.3211, 690.9821
220.8032, 685.5804
221.2854, 677.9583
221.7675, 670.6981
222.2496, 664.9289
222.7317, 656.0580
223.2138, 642.8342
223.6959, 627.1500
224.1781, 612.7675
224.6602, 600.3539
225.1423, 588.2247
225.6244, 575.8616
226.1065, 562.6115
226.5886, 550.5593
227.0708, 539.8303
227.5529, 530.1349
228.0350, 520.6853
228.5171, 510.7126
228.9992, 502.1064
229.4813, 495.7626
229.9635, 492.4380
230.4456, 489.0881
230.9277, 485.7559
231.4098, 482.4184
231.8919, 478.8381
232.3740, 474.3364
232.8562, 470.7501
233.3383, 469.0169
233.8204, 470.0614
234.3025, 469.8994
234.7846, 468.0037
235.2667, 465.1944
235.7489, 463.0086
236.2310, 461.8148
236.7131, 460.6664
237.1952, 459.3760
237.6773, 458.2159
238.1594, 455.8722
238.6416, 451.4907
239.1237, 446.4498
239.6058, 443.1461
240.0879, 442.9022
240.5700, 442.1975
241.0521, 439.8217
241.5343, 435.4012
242.0164, 431.0154
242.4985, 426.4830
242.9806, 422.0988
243.4627, 418.2498
243.9448, 414.7867
244.4270, 412.1214
244.9091, 410.6767
245.3912, 410.8822
245.8733, 409.8003
246.3554, 406.5647
246.8375, 402.7097
247.3197, 400.1553
247.8018, 398.8303
248.2839, 398.9706
248.7660, 401.0499
249.2481, 405.4434
249.7302, 408.8711
250.2124, 411.0063
250.6945, 412.5210
251.1766, 414.1651
251.6587, 415.8830
252.1408, 417.8450
252.6229, 420.0118
253.1051, 422.3812
253.5872, 425.4203
254.0693, 429.2062
254.5514, 433.6214
255.0335, 438.6860
255.5156, 444.7758
255.9978, 450.5874
256.4799, 455.9406
256.9620, 460.8492
257.4441, 464.9997
257.9262, 467.9141
258.4083, 470.6743
258.8904, 474.3271
259.3726, 479.4850
259.8547, 484.0737
260.3368, 487.6452
260.8189, 490.2932
261.3010, 492.7809
261.7831, 495.3034
262.2653, 497.3593
262.7474, 498.4835
263.2295, 498.4958
263.7116, 498.1628
264.1937, 497.7043
264.6758, 497.0106
265.1580, 495.4362
265.6401, 493.0552
266.1222, 489.6790
266.6043, 485.2740
267.0864, 479.9204
267.5685, 473.0728
268.0507, 464.3449
268.5328, 454.1165
269.0149, 443.7650
269.4970, 433.3249
269.9791, 422.4096
270.4612, 410.2726
270.9434, 396.5612
271.4255, 383.6496
271.9076, 371.6270
272.3897, 360.3968
272.8718, 349.7552
273.3539, 339.9342
273.8361, 329.9237
274.3182, 318.7977
274.8003, 306.2552
275.2824, 295.2460
275.7645, 286.0465
276.2466, 278.3259
276.7288, 271.6311
277.2109, 266.1181
277.6930, 260.9274
278.1751, 255.7575
278.6572, 250.5692
279.1393, 245.7606
279.6215, 241.3738
280.1036, 237.2940
280.5857, 233.1495
281.0678, 228.8593
281.5499, 225.4225
282.0320, 223.5706
282.5142, 223.1666
282.9963, 222.5351
283.4784, 221.6862
283.9605, 220.5850
284.4426, 218.9045
284.9247, 216.6203
285.4069, 214.9716
285.8890, 214.4704
286.3711, 214.9488
286.8532, 215.5380
287.3353, 216.1939
287.8174, 217.2009
288.2996, 219.1107
288.7817, 221.8298
289.2638, 224.1878
289.7459, 225.8247
290.2280, 226.9105
290.7101, 227.7470
291.1923, 228.3041
291.6744, 229.2041
292.1565, 231.1043
292.6386, 233.8646
293.1207, 236.9158
293.6028, 240.5289
294.0850, 243.9034
294.5671, 245.3075
295.0492, 244.8404
295.5313, 244.1992
296.0134, 244.6385
296.4955, 245.8674
296.9777, 247.1006
297.4598, 248.2570
297.9419, 249.2528
298.4240, 249.7171
298.9061, 249.7830
299.3882, 250.1621
299.8704, 252.0148
300.3525, 254.3531
300.8346, 255.1867
301.3167, 254.1437
301.7988, 252.2887
302.2809, 250.1012
302.7631, 247.9181
303.2452, 246.6698
303.7273, 248.0695
304.2094, 250.2110
304.6915, 250.4924
305.1736, 248.7197
305.6558, 245.8501
306.1379, 241.9851
306.6200, 237.6646
307.1021, 233.9206
307.5842, 231.6409
308.0663, 229.8138
308.5485, 227.3496
309.0306, 224.2714
309.5127, 221.3225
309.9948, 219.2241
310.4769, 217.4931
310.9590, 215.5105
311.4412, 212.6905
311.9233, 209.8970
312.4054, 207.6362
312.8875, 205.8754
313.3696, 204.5559
313.8517, 204.1391
314.3339, 203.9131
314.8160, 203.2053
315.2981, 201.4671
315.7802, 199.8494
316.2623, 199.0538
316.7444, 198.8478
317.2266, 198.5894
317.7087, 198.2300
318.1908, 197.5935
318.6729, 196.4077
319.1550, 194.2309
319.6371, 192.5961
320.1193, 192.6454
320.6014, 193.4765
321.0835, 193.6129
321.5656, 191.7704
322.0477, 189.8716
322.5298, 188.9153
323.0120, 189.2856
323.4941, 188.9238
323.9762, 187.1015
324.4583, 184.4499
324.9404, 181.6523
325.4225, 177.7458
325.9047, 174.7576
326.3868, 173.8508
326.8689, 175.1123
327.3510, 175.1675
327.8331, 172.3950
328.3152, 169.1738
328.7974, 167.1530
329.2795, 167.9619
329.7616, 168.0625
330.2437, 166.7097
330.7258, 164.2639
331.2079, 162.7063
331.6901, 162.6116
332.1722, 162.8311
332.6543, 162.7794
333.1364, 161.9889
333.6185, 161.8254
334.1006, 162.7268
334.5828, 164.1326
335.0649, 164.6837
335.5470, 164.0648
336.0291, 163.1410
336.5112, 162.1395
336.9933, 160.9546
337.4755, 160.2387
337.9576, 160.1369
338.4397, 160.3472
338.9218, 160.2891
339.4039, 159.6389
339.8860, 159.9785
340.3681, 162.2903
340.8503, 166.3266
341.3324, 168.1850
341.8145, 167.4045
342.2966, 165.8020
342.7787, 165.1113
343.2608, 165.3993
343.7430, 165.2862
344.2251, 164.3896
344.7072, 163.0007
345.1893, 161.9518
345.6714, 161.2425
346.1535, 160.7637
346.6357, 160.4824
347.1178, 160.3798
347.5999, 160.3740
348.0820, 160.4933
348.5641, 160.6128
349.0462, 160.6768
349.5284, 160.6387
350.0105, 160.1679
350.4926, 158.3053
350.9747, 155.9902
351.4568, 155.7936
351.9389, 158.0341
352.4211, 160.3056
352.9032, 159.4723
353.3853, 156.6998
353.8674, 154.8193
354.3495, 155.6682
354.8316, 157.5252
355.3138, 158.3823
355.7959, 158.3215
356.2780, 158.1946
356.7601, 158.6677
357.2422, 159.4016
357.7243, 159.9403
358.2065, 159.9902
358.6886, 160.0700
359.1707, 160.3116
359.6528, 160.8289
360.1349, 161.9651
360.6170, 164.5145
361.0992, 167.3379
361.5813, 169.5497
362.0634, 170.7634
362.5455, 172.1400
363.0276, 174.2088
363.5097, 176.7131
363.9919, 179.2711
364.4740, 181.7229
364.9561, 184.2475
365.4382, 187.0092
365.9203, 190.0623
366.4024, 192.8371
366.8846, 194.8056
367.3667, 196.6934
367.8488, 199.0877
368.3309, 202.2643
368.8130, 205.7203
369.2951, 209.4873
369.7773, 213.5512
370.2594, 217.6675
370.7415, 221.9431
371.2236, 226.2053
371.7057, 230.3742
372.1878, 234.1343
372.6700, 238.4336
373.1521, 243.3146
373.6342, 248.6810
374.1163, 254.3672
374.5984, 260.4452
375.0805, 266.6087
375.5627, 272.8083
376.0448, 279.0710
376.5269, 285.4525
377.0090, 292.3385
377.4911, 298.7613
377.9732, 303.4860
378.4554, 306.1686
378.9375, 309.2834
379.4196, 313.7413
379.9017, 318.8668
380.3838, 322.3863
380.8659, 324.2196
381.3481, 324.8712
381.8302, 324.5124
382.3123, 323.2035
382.7944, 321.3290
383.2765, 318.8637
383.7586, 315.9904
384.2408, 312.8196
384.7229, 309.4149
385.2050, 305.9668
385.6871, 302.1712
386.1692, 298.5520
386.6513, 296.2542
387.1335, 295.3759
387.6156, 294.6391
388.0977, 292.5720
388.5798, 289.8778
389.0619, 287.8218
389.5440, 286.9422
390.0262, 286.7924
390.5083, 287.0620
390.9904, 287.7305
391.4725, 288.7012
391.9546, 289.4439
392.4367, 290.7125
392.9189, 293.3722
393.4010, 298.1151
393.8831, 302.8718
394.3652, 306.6082
394.8473, 309.6553
395.3294, 312.5815
395.8116, 314.5269
396.2937, 317.2750
396.7758, 321.6105
397.2579, 327.6537
397.7400, 334.5863
398.2221, 342.3250
398.7043, 350.7811
399.1864, 359.8603
399.6685, 370.9523
400.1506, 381.0177
400.6327, 388.6003
401.1148, 394.5645
401.5970, 403.1558
402.0791, 415.6024
402.5612, 429.1180
403.0433, 442.4888
403.5254, 455.4547
404.0075, 468.9888
404.4897, 483.0425
404.9718, 497.7199
405.4539, 513.0526
405.9360, 528.8857
406.4181, 546.1104
406.9002, 565.5399
407.3824, 586.7709
407.8645, 607.6445
408.3466, 628.1987
408.8287, 648.2605
409.3108, 667.8063
409.7929, 686.7402
410.2751, 704.9329
410.7572, 722.5818
411.2393, 739.3904
411.7214, 755.6662
412.2035, 771.1341
412.6856, 782.4896
413.1678, 787.7707
413.6499, 787.5748
414.1320, 783.2719
414.6141, 774.9033
415.0962, 762.4579
415.5783, 745.0250
416.0605, 723.5892
416.5426, 699.5992
417.0247, 672.5555
417.5068, 644.0272
417.9889, 614.4789
418.4710, 584.3729
418.9532, 555.0543
419.4353, 526.6329
419.9174, 499.9365
420.3995, 476.1978
420.8816, 455.9015
421.3637, 437.0940
421.8459, 418.6859
422.3280, 401.3830
422.8101, 386.0139
423.2922, 373.1248
423.7743, 362.0496
424.2564, 352.9866
424.7386, 346.0459
425.2207, 339.7245
425.7028, 333.5208
426.1849, 328.2292
426.6670, 324.3985
427.1491, 322.7274
427.6313, 321.4304
428.1134, 320.4041
428.5955, 319.7191
429.0776, 319.4967
429.5597, 319.5293
430.0418, 320.4665
430.5240, 322.7316
431.0061, 326.4120
431.4882, 329.9559
431.9703, 333.0971
432.4524, 336.6440
432.9345, 341.5815
433.4167, 347.9035
433.8988, 354.8412
434.3809, 362.2252
434.8630, 369.9437
435.3451, 377.4467
435.8272, 384.7617
436.3094, 392.7435
436.7915, 402.0313
437.2736, 412.4496
437.7557, 423.3569
438.2378, 434.7180
438.7199, 446.7838
439.2020, 459.8824
439.6841, 473.8722
440.1663, 488.4616
440.6484, 503.9706
441.1305, 519.7743
441.6126, 534.6432
442.0947, 548.9466
442.5768, 564.5941
443.0590, 583.5338
443.5411, 603.6523
444.0232, 623.0982
444.5053, 640.5455
444.9874, 659.5433
445.4695, 682.1624
445.9517, 706.6748
446.4338, 730.5392
446.9159, 752.9318
447.3980, 775.0449
447.8801, 796.7914
448.3622, 818.2533
448.8444, 840.1852
449.3265, 863.7507
449.8086, 886.8464
450.2907, 908.0974
450.7728, 927.2842
451.2549, 945.6035
451.7371, 963.3398
452.2192, 979.9614
452.7013, 994.2151
453.1834, 1005.965
453.6655, 1015.475
454.1476, 1022.986
454.6298, 1028.377
455.1119, 1030.117
455.5940, 1027.937
456.0761, 1023.425
456.5582, 1018.298
457.0403, 1012.288
457.5225, 1003.831
458.0046, 992.4636
458.4867, 979.1007
458.9688, 965.3090
459.4509, 950.8400
459.9330, 935.2835
460.4152, 916.8662
460.8973, 897.7336
461.3794, 881.2313
461.8615, 867.3785
462.3436, 852.9876
462.8257, 834.7587
463.3079, 815.1332
463.7900, 796.8548
464.2721, 781.1685
464.7542, 766.1375
465.2363, 750.9999
465.7184, 735.9066
466.2006, 721.2791
466.6827, 708.4691
467.1648, 695.0545
467.6469, 679.8692
468.1290, 662.1629
468.6111, 645.5056
469.0933, 630.3885
469.5754, 615.9412
470.0575, 601.2391
470.5396, 586.4955
471.0217, 571.0421
471.5038, 554.1505
471.9860, 536.5478
472.4681, 520.6443
472.9502, 506.8674
473.4323, 493.2903
473.9144, 479.2101
474.3965, 464.5777
474.8787, 449.4418
475.3608, 433.6643
475.8429, 418.2340
476.3250, 404.5787
476.8071, 392.4771
477.2892, 380.8221
477.7714, 369.5648
478.2535, 358.4864
478.7356, 346.8423
479.2177, 334.9333
479.6998, 324.3337
480.1819, 317.0045
480.6641, 310.7020
481.1462, 302.8690
481.6283, 293.1392
482.1104, 284.0687
482.5925, 277.5486
483.0746, 272.2783
483.5568, 266.8956
484.0389, 261.2445
484.5210, 255.2597
485.0031, 248.2629
485.4852, 240.8562
485.9673, 234.6782
486.4495, 230.5835
486.9316, 227.2819
487.4137, 224.6342
487.8958, 222.9832
488.3779, 220.0295
488.8600, 214.3805
489.3422, 208.8441
489.8243, 206.3837
490.3064, 208.4724
490.7885, 208.3781
491.2706, 204.4470
491.7527, 198.4905
492.2349, 195.1743
492.7170, 194.7463
493.1991, 194.3956
493.6812, 192.5442
494.1633, 189.6316
494.6454, 187.3503
495.1276, 185.7291
495.6097, 184.5681
496.0918, 183.9795
496.5739, 183.7006
497.0560, 183.1711
497.5381, 182.1461
498.0203, 181.0792
498.5024, 180.3425
498.9845, 179.8674
499.4666, 179.4830
499.9487, 179.2124
500.4308, 178.9328
500.9130, 178.4002
501.3951, 177.6184
501.8772, 177.3617
502.3593, 178.3248
502.8414, 179.5944
503.3235, 180.5845
503.8057, 181.0730
504.2878, 181.4824
504.7699, 181.6136
505.2520, 181.7487
505.7341, 182.3808
506.2162, 183.6903
506.6984, 185.1156
507.1805, 186.4253
507.6626, 187.6796
508.1447, 189.5415
508.6268, 192.1266
509.1089, 194.8806
509.5911, 197.3529
510.0732, 199.5889
510.5553, 202.0598
511.0374, 204.7638
511.5195, 207.8606
512.0016, 211.6502
512.4838, 216.0397
512.9659, 220.5977
513.4480, 225.1269
513.9301, 229.9131
514.4122, 235.3175
514.8943, 241.2908
515.3765, 247.6218
515.8586, 253.6804
516.3407, 260.4187
516.8228, 268.6768
517.3049, 278.8189
517.7870, 289.2172
518.2692, 298.8647
518.7513, 308.6137
519.2334, 319.2466
519.7155, 331.1657
520.1976, 343.6705
520.6797, 355.9797
521.1619, 368.7686
521.6440, 384.0069
522.1261, 402.2144
522.6082, 421.6526
523.0903, 441.6994
523.5724, 462.3480
524.0546, 484.3059
524.5367, 507.5934
525.0188, 531.6974
525.5009, 556.2119
525.9830, 581.3170
526.4651, 607.6837
526.9473, 635.6653
527.4294, 664.8301
527.9115, 695.4510
528.3936, 726.5891
528.8757, 755.7636
529.3578, 782.7613
529.8400, 806.2391
530.3221, 825.8580
530.8042, 841.0037
531.2863, 849.0512
531.7684, 847.8949
532.2505, 839.2952
532.7327, 823.9785
533.2148, 801.2159
533.6969, 774.8760
534.1790, 743.7679
534.6611, 710.6057
535.1432, 678.9757
535.6254, 648.2502
536.1075, 619.6190
536.5896, 593.2674
537.0717, 569.1117
537.5538, 548.3606
538.0359, 531.4721
538.5181, 516.5313
539.0002, 502.5835
539.4823, 489.7050
539.9644, 478.8525
540.4465, 470.3154
540.9286, 462.3439
541.4108, 453.6381
541.8929, 444.1280
542.3750, 433.5687
542.8571, 421.4865
543.3392, 409.6404
543.8214, 400.5256
544.3035, 393.2723
544.7856, 385.4389
545.2677, 375.8175
545.7498, 365.3190
546.2319, 354.2023
546.7141, 342.6729
547.1962, 331.8632
547.6783, 322.0846
548.1604, 313.3202
548.6425, 305.5417
549.1246, 299.2023
549.6068, 292.6274
550.0889, 284.5384
550.5710, 276.8375
551.0531, 271.3011
551.5352, 268.5161
552.0173, 266.6611
552.4995, 265.6179
552.9816, 265.3419
553.4637, 265.7023
553.9458, 266.6661
554.4279, 268.5003
554.9100, 271.4041
555.3922, 275.2648
555.8743, 279.6971
556.3564, 284.6653
556.8385, 290.1363
557.3206, 296.1982
557.8027, 302.6842
558.2849, 309.4478
558.7670, 316.4857
559.2491, 323.7224
559.7312, 331.3388
560.2133, 338.9847
560.6954, 346.1670
561.1776, 352.9974
561.6597, 358.9384
562.1418, 364.0651
562.6239, 368.2185
563.1060, 370.7424
563.5881, 371.3305
564.0703, 370.4702
564.5524, 367.9243
565.0345, 363.5407
565.5166, 359.7469
565.9987, 356.6307
566.4808, 353.9493
566.9630, 351.3636
567.4451, 348.8308
567.9272, 346.9938
568.4093, 345.6594
568.8914, 345.6577
569.3735, 348.6334
569.8557, 354.1364
570.3378, 360.1076
570.8199, 365.3900
571.3020, 371.2007
571.7841, 379.0717
572.2662, 388.7720
572.7484, 399.4063
573.2305, 410.5083
573.7126, 422.4385
574.1947, 435.6068
574.6768, 449.9396
575.1589, 465.4231
575.6411, 481.9038
576.1232, 499.3547
576.6053, 517.6722
577.0874, 538.8107
577.5695, 557.5014
578.0516, 572.5600
578.5338, 585.7441
579.0159, 600.2491
579.4980, 616.9330
579.9801, 631.2217
580.4622, 642.2916
580.9443, 650.1658
581.4265, 654.2970
581.9086, 654.6926
582.3907, 652.6210
582.8728, 648.8674
583.3549, 642.3081
583.8370, 634.4134
584.3192, 622.7281
584.8013, 609.3570
585.2834, 593.9440
585.7655, 577.8293
586.2476, 562.2034
586.7297, 546.8028
