##NAMES=Hureaulite
##RRUFFID=R090070
##IDEAL CHEMISTRY=Mn^2+^_5_(P^5+^O_4_)_2_(P^5+^O_3_OH)_2_&#183;4H_2_O
##LOCALITY=Cigana Mine (ex-Jocão Mine), Galiléia, Minas Gerais  Brazil
##OWNER=RRUFF
##SOURCE=Royal Ontario Museum 
##DESCRIPTION=Cluster of pink prismatic crystals on reddingite, R090069, associated with colorless ludlamite, R090071
##STATUS=The identification of this mineral has been confirmed only by single crystal X-ray diffraction.
##URL=rruff.info/R090070
91.82715, 172.8665
92.30927, 168.6323
92.79138, 169.4543
93.27350, 174.0157
93.75562, 178.3920
94.23773, 180.7040
94.71985, 181.6747
95.20197, 183.9206
95.68408, 188.6147
96.16620, 194.8631
96.64832, 202.1411
97.13043, 210.5884
97.61255, 219.4407
98.09467, 227.6880
98.57678, 235.1994
99.05890, 242.0758
99.54102, 249.2272
100.0231, 256.5079
100.5052, 263.9500
100.9874, 271.7733
101.4695, 279.4591
101.9516, 284.1671
102.4337, 285.6149
102.9158, 284.0354
103.3979, 278.7518
103.8801, 270.4239
104.3622, 259.9153
104.8443, 247.6301
105.3264, 233.1048
105.8085, 221.1448
106.2906, 211.8119
106.7728, 204.2230
107.2549, 197.8837
107.7370, 192.7397
108.2191, 189.0318
108.7012, 187.3790
109.1833, 187.8967
109.6655, 188.8533
110.1476, 189.6351
110.6297, 190.8199
111.1118, 193.3863
111.5939, 197.7104
112.0760, 203.1058
112.5582, 208.3522
113.0403, 213.4534
113.5224, 220.0738
114.0045, 229.3472
114.4866, 241.2379
114.9688, 254.3000
115.4509, 269.6004
115.9330, 285.0782
116.4151, 300.4492
116.8972, 315.4589
117.3793, 328.5726
117.8615, 338.2540
118.3436, 345.2531
118.8257, 346.0781
119.3078, 337.7216
119.7899, 325.7417
120.2720, 313.4201
120.7542, 302.1622
121.2363, 292.5421
121.7184, 286.1558
122.2005, 287.3904
122.6826, 287.4348
123.1647, 286.2812
123.6468, 283.4924
124.1290, 278.5838
124.6111, 271.2129
125.0932, 261.4325
125.5753, 249.6496
126.0574, 233.3935
126.5395, 218.0274
127.0217, 205.6089
127.5038, 195.9906
127.9859, 188.1713
128.4680, 181.5141
128.9501, 176.2617
129.4323, 172.4391
129.9144, 170.5385
130.3965, 169.7821
130.8786, 169.3024
131.3607, 168.9740
131.8428, 169.4050
132.3250, 171.2260
132.8071, 174.1003
133.2892, 177.6473
133.7713, 182.2114
134.2534, 187.3948
134.7355, 192.0183
135.2177, 196.5680
135.6998, 199.6576
136.1819, 200.5547
136.6640, 199.6333
137.1461, 197.8298
137.6282, 195.9465
138.1104, 194.0782
138.5925, 191.0533
139.0746, 185.1535
139.5567, 179.4847
140.0388, 175.1863
140.5209, 172.3107
141.0031, 170.2110
141.4852, 168.1163
141.9673, 165.7324
142.4494, 164.2423
142.9315, 163.8066
143.4136, 163.9570
143.8958, 164.3997
144.3779, 165.0610
144.8600, 166.0440
145.3421, 167.5253
145.8242, 169.6393
146.3063, 172.1006
146.7885, 174.5763
147.2706, 177.5056
147.7527, 181.5203
148.2348, 186.9158
148.7169, 193.2292
149.1990, 199.6653
149.6812, 206.1614
150.1633, 212.9455
150.6454, 220.8468
151.1275, 229.2695
151.6096, 236.2906
152.0917, 241.4608
152.5739, 244.3500
153.0560, 245.2722
153.5381, 244.2659
154.0202, 241.1711
154.5023, 235.4893
154.9844, 227.1847
155.4665, 217.8016
155.9487, 206.6999
156.4308, 195.4110
156.9129, 185.0790
157.3950, 175.9570
157.8771, 167.9251
158.3592, 160.7457
158.8414, 154.3819
159.3235, 149.1600
159.8056, 145.4605
160.2877, 142.6052
160.7698, 139.9879
161.2519, 137.3477
161.7341, 134.8938
162.2162, 133.2931
162.6983, 133.2238
163.1804, 133.1775
163.6625, 133.3057
164.1446, 133.2324
164.6268, 132.3810
165.1089, 130.3657
165.5910, 127.4706
166.0731, 125.4996
166.5552, 125.4468
167.0373, 125.2279
167.5195, 124.0982
168.0016, 122.4945
168.4837, 121.3166
168.9658, 121.1861
169.4479, 122.0372
169.9300, 122.7471
170.4122, 123.1279
170.8943, 123.5752
171.3764, 124.1859
171.8585, 124.9886
172.3406, 126.1112
172.8227, 127.7788
173.3049, 129.8875
173.7870, 131.5513
174.2691, 132.4067
174.7512, 133.0829
175.2333, 134.1079
175.7154, 135.5117
176.1976, 136.9503
176.6797, 138.2325
177.1618, 139.3549
177.6439, 140.2564
178.1260, 141.1091
178.6081, 141.6677
179.0903, 141.5162
179.5724, 140.5285
180.0545, 139.1777
180.5366, 137.4629
181.0187, 135.6308
181.5008, 134.1165
181.9830, 133.1928
182.4651, 132.7204
182.9472, 132.2747
183.4293, 131.8672
183.9114, 131.4750
184.3935, 130.7292
184.8757, 130.0051
185.3578, 129.9861
185.8399, 131.3098
186.3220, 133.8233
186.8041, 135.8299
187.2862, 136.7051
187.7684, 137.7112
188.2505, 139.1296
188.7326, 140.9537
189.2147, 143.1763
189.6968, 145.9031
190.1789, 149.1938
190.6611, 151.5827
191.1432, 152.4312
191.6253, 153.0201
192.1074, 153.6323
192.5895, 154.3081
193.0716, 155.0620
193.5538, 155.9772
194.0359, 157.1900
194.5180, 157.3395
195.0001, 155.9510
195.4822, 154.2072
195.9643, 152.5201
196.4465, 150.9651
196.9286, 149.4871
197.4107, 147.9976
197.8928, 146.4637
198.3749, 145.5213
198.8570, 145.3060
199.3392, 145.5079
199.8213, 145.9660
200.3034, 146.6579
200.7855, 147.5746
201.2676, 148.6896
201.7497, 150.0395
202.2319, 151.7750
202.7140, 154.3021
203.1961, 156.9904
203.6782, 159.1602
204.1603, 160.7268
204.6424, 162.2807
205.1246, 164.3613
205.6067, 166.9020
206.0888, 169.6075
206.5709, 172.1021
207.0530, 174.8559
207.5351, 178.6726
208.0173, 183.8407
208.4994, 189.2586
208.9815, 193.7357
209.4636, 197.7854
209.9457, 202.5705
210.4278, 208.7539
210.9100, 215.9493
211.3921, 223.3466
211.8742, 230.8554
212.3563, 238.6938
212.8384, 246.8730
213.3205, 255.4212
213.8027, 264.4993
214.2848, 274.4415
214.7669, 284.9595
215.2490, 294.9517
215.7311, 304.8521
216.2132, 313.4212
216.6954, 320.3781
217.1775, 325.8741
217.6596, 330.2489
218.1417, 333.8453
218.6238, 336.4966
219.1059, 337.0850
219.5881, 334.7032
220.0702, 331.0771
220.5523, 326.4737
221.0344, 321.1323
221.5165, 315.3456
221.9986, 309.3505
222.4808, 303.1022
222.9629, 296.1459
223.4450, 287.9537
223.9271, 279.5900
224.4092, 270.8709
224.8913, 262.1396
225.3735, 253.9315
225.8556, 246.5584
226.3377, 240.0164
226.8198, 233.7690
227.3019, 227.6762
227.7840, 222.0887
228.2662, 217.1822
228.7483, 212.8425
229.2304, 208.9124
229.7125, 205.2670
230.1946, 201.9167
230.6767, 199.0895
231.1589, 196.7657
231.6410, 194.9262
232.1231, 193.8418
232.6052, 193.2323
233.0873, 192.5784
233.5694, 191.5593
234.0516, 190.2371
234.5337, 189.0617
235.0158, 187.9917
235.4979, 187.0701
235.9800, 186.3640
236.4621, 185.8201
236.9443, 185.3903
237.4264, 185.1262
237.9085, 184.8738
238.3906, 183.8978
238.8727, 181.7159
239.3548, 179.5210
239.8370, 177.7319
240.3191, 176.2391
240.8012, 174.7939
241.2833, 173.2853
241.7654, 171.7311
242.2475, 170.2104
242.7297, 168.9873
243.2118, 167.3971
243.6939, 164.8953
244.1760, 161.7607
244.6581, 158.7598
245.1402, 156.0639
245.6224, 153.8911
246.1045, 152.6279
246.5866, 152.4871
247.0687, 152.5335
247.5508, 152.2221
248.0329, 151.6951
248.5151, 151.5069
248.9972, 152.0002
249.4793, 152.7290
249.9614, 153.0332
250.4435, 152.8744
250.9256, 152.6156
251.4078, 152.3042
251.8899, 152.0141
252.3720, 152.0879
252.8541, 152.7281
253.3362, 153.6412
253.8183, 154.2661
254.3005, 154.5994
254.7826, 155.5496
255.2647, 158.2277
255.7468, 162.2039
256.2289, 165.2239
256.7110, 166.4839
257.1931, 167.2002
257.6753, 168.2141
258.1574, 169.5447
258.6395, 171.3219
259.1216, 173.8015
259.6037, 176.8610
260.0858, 179.8997
260.5680, 183.0502
261.0501, 185.8797
261.5322, 187.9956
262.0143, 189.5975
262.4964, 191.2892
262.9785, 193.6779
263.4607, 196.5670
263.9428, 198.8826
264.4249, 200.6495
264.9070, 201.6857
265.3891, 201.9180
265.8712, 201.4793
266.3534, 200.6517
266.8355, 199.7040
267.3176, 198.4942
267.7997, 196.3410
268.2818, 192.8317
268.7639, 188.9058
269.2461, 184.9648
269.7282, 180.8949
270.2103, 176.4743
270.6924, 171.5104
271.1745, 166.2042
271.6566, 161.2831
272.1388, 156.9253
272.6209, 152.7298
273.1030, 148.8841
273.5851, 144.9992
274.0672, 140.4971
274.5493, 135.0030
275.0315, 129.1873
275.5136, 124.8032
275.9957, 122.4845
276.4778, 120.4806
276.9599, 118.7285
277.4420, 116.9459
277.9242, 114.7808
278.4063, 112.1049
278.8884, 109.2805
279.3705, 106.9804
279.8526, 105.4665
280.3347, 103.9668
280.8169, 102.0230
281.2990, 100.2954
281.7811, 99.44698
282.2632, 99.57290
282.7453, 100.0502
283.2274, 99.93019
283.7096, 98.87911
284.1917, 98.05621
284.6738, 97.78780
285.1559, 97.49305
285.6380, 96.66623
286.1201, 95.35158
286.6023, 94.09554
287.0844, 93.53393
287.5665, 93.81180
288.0486, 94.25382
288.5307, 95.22132
289.0128, 96.01827
289.4950, 96.27195
289.9771, 96.03613
290.4592, 95.57973
290.9413, 95.07433
291.4234, 94.47373
291.9055, 94.45401
292.3877, 95.53139
292.8698, 96.66422
293.3519, 97.68527
293.8340, 98.50054
294.3161, 98.96525
294.7982, 98.93149
295.2804, 98.45748
295.7625, 98.29884
296.2446, 98.83121
296.7267, 99.29145
297.2088, 99.41982
297.6909, 99.40923
298.1731, 99.53921
298.6552, 99.96000
299.1373, 100.6388
299.6194, 101.4628
300.1015, 102.9192
300.5836, 103.8996
301.0658, 104.1943
301.5479, 104.0186
302.0300, 103.5292
302.5121, 102.7985
302.9942, 101.9478
303.4763, 101.2309
303.9585, 100.9270
304.4406, 100.3255
304.9227, 99.36527
305.4048, 98.16943
305.8869, 96.70272
306.3690, 95.01575
306.8512, 93.37785
307.3333, 92.19668
307.8154, 91.74906
308.2975, 91.03499
308.7796, 89.82109
309.2617, 88.57104
309.7439, 87.52457
310.2260, 86.71553
310.7081, 86.09588
311.1902, 85.64401
311.6723, 85.39014
312.1544, 85.05638
312.6366, 84.58557
313.1187, 84.10249
313.6008, 83.59184
314.0829, 83.10354
314.5650, 82.75425
315.0471, 82.65121
315.5293, 82.76429
316.0114, 82.69329
316.4935, 82.39661
316.9756, 81.96024
317.4577, 81.21849
317.9398, 80.38503
318.4220, 79.78642
318.9041, 79.59512
319.3862, 79.68810
319.8683, 79.67505
320.3504, 79.45423
320.8326, 79.24627
321.3147, 78.97069
321.7968, 78.75668
322.2789, 78.82971
322.7610, 79.23473
323.2431, 79.67366
323.7253, 79.62405
324.2074, 78.82387
324.6895, 78.00850
325.1716, 76.76536
325.6537, 75.79819
326.1358, 75.86872
326.6180, 76.88919
327.1001, 77.89597
327.5822, 77.74460
328.0643, 76.03932
328.5464, 75.22797
329.0285, 76.28355
329.5107, 77.17797
329.9928, 76.84567
330.4749, 75.60152
330.9570, 74.42477
331.4391, 74.06191
331.9212, 74.45114
332.4034, 74.67577
332.8855, 74.34290
333.3676, 74.27478
333.8497, 74.83275
334.3318, 75.70103
334.8139, 76.46375
335.2961, 76.91220
335.7782, 77.09068
336.2603, 77.10892
336.7424, 76.88708
337.2245, 76.60667
337.7066, 76.13696
338.1888, 75.69935
338.6709, 75.44766
339.1530, 75.43710
339.6351, 75.69011
340.1172, 76.33240
340.5993, 77.73167
341.0815, 78.55905
341.5636, 78.48679
342.0457, 78.19583
342.5278, 77.99460
343.0099, 77.92467
343.4920, 77.92026
343.9742, 77.97123
344.4563, 78.10002
344.9384, 77.86649
345.4205, 76.63907
345.9026, 75.65682
346.3847, 75.33852
346.8669, 75.49317
347.3490, 75.77219
347.8311, 75.98554
348.3132, 76.12621
348.7953, 76.19537
349.2774, 76.45605
349.7596, 76.17959
350.2417, 74.47668
350.7238, 72.60493
351.2059, 72.07398
351.6880, 73.37135
352.1701, 75.26205
352.6523, 75.51972
353.1344, 73.36685
353.6165, 71.96948
354.0986, 72.10039
354.5807, 72.70947
355.0628, 73.38187
355.5450, 74.00205
356.0271, 74.49170
356.5092, 74.70097
356.9913, 74.61267
357.4734, 74.71293
357.9555, 75.05920
358.4377, 75.55507
358.9198, 76.27110
359.4019, 77.09282
359.8840, 77.79647
360.3661, 78.23705
360.8482, 78.48046
361.3304, 78.72417
361.8125, 78.96333
362.2946, 79.21200
362.7767, 79.19109
363.2588, 79.30392
363.7409, 80.11390
364.2231, 81.87641
364.7052, 83.84869
365.1873, 85.09293
365.6694, 85.56135
366.1515, 85.76339
366.6336, 85.42472
367.1158, 85.17602
367.5979, 85.56084
368.0800, 86.56450
368.5621, 87.63200
369.0442, 88.22293
369.5263, 88.49448
370.0085, 89.20802
370.4906, 90.50613
370.9727, 92.11584
371.4548, 94.03712
371.9369, 96.10753
372.4190, 97.96640
372.9012, 99.28979
373.3833, 100.4385
373.8654, 102.0392
374.3475, 104.1584
374.8296, 106.1006
375.3117, 107.3633
375.7939, 108.3044
376.2760, 109.4729
376.7581, 110.9847
377.2402, 112.5544
377.7223, 113.9650
378.2044, 115.2558
378.6866, 116.6036
379.1687, 118.0858
379.6508, 119.6049
380.1329, 121.2429
380.6150, 123.0147
381.0971, 124.0994
381.5793, 123.6862
382.0614, 122.6591
382.5435, 122.2483
383.0256, 122.6035
383.5077, 123.2818
383.9898, 124.0628
384.4720, 124.8987
384.9541, 125.5302
385.4362, 125.5011
385.9183, 125.6693
386.4004, 126.6489
386.8825, 128.2819
387.3647, 130.0504
387.8468, 131.7294
388.3289, 133.3530
388.8110, 134.9893
389.2931, 136.5776
389.7752, 138.3156
390.2574, 140.2170
390.7395, 142.3025
391.2216, 144.5198
391.7037, 146.8662
392.1858, 149.5921
392.6679, 153.0368
393.1501, 157.4001
393.6322, 161.5359
394.1143, 165.2600
394.5964, 168.9647
395.0785, 172.7684
395.5606, 176.7150
396.0428, 180.7625
396.5249, 184.8737
397.0070, 189.1134
397.4891, 194.0182
397.9712, 200.3629
398.4533, 206.4048
398.9355, 211.7097
399.4176, 216.7450
399.8997, 221.9348
400.3818, 227.4344
400.8639, 233.3825
401.3460, 240.0047
401.8282, 247.4125
402.3103, 255.2150
402.7924, 263.1612
403.2745, 271.7048
403.7566, 281.1074
404.2387, 291.3288
404.7209, 302.2220
405.2030, 313.6364
405.6851, 325.6016
406.1672, 337.8589
406.6493, 350.3663
407.1314, 363.1718
407.6136, 376.9074
408.0957, 390.6308
408.5778, 403.4040
409.0599, 414.8623
409.5420, 425.1809
410.0241, 435.0385
410.5063, 444.8159
410.9884, 451.9051
411.4705, 455.6961
411.9526, 456.5726
412.4347, 454.6164
412.9168, 449.8784
413.3990, 442.4675
413.8811, 432.2770
414.3632, 419.4716
414.8453, 404.3000
415.3274, 385.9829
415.8095, 367.2159
416.2917, 349.2519
416.7738, 331.7681
417.2559, 314.2372
417.7380, 296.1406
418.2201, 278.7657
418.7022, 263.2806
419.1844, 249.6009
419.6665, 236.8750
420.1486, 224.7888
420.6307, 213.8018
421.1128, 204.7419
421.5949, 197.4885
422.0771, 190.5956
422.5592, 183.0798
423.0413, 175.8267
423.5234, 170.2253
424.0055, 166.4507
424.4876, 163.1336
424.9698, 159.1709
425.4519, 154.8267
425.9340, 151.5902
426.4161, 149.9534
426.8982, 148.8589
427.3803, 147.8852
427.8625, 147.1148
428.3446, 146.7012
428.8267, 146.6895
429.3088, 147.1354
429.7909, 148.2059
430.2730, 150.4312
430.7552, 152.0670
431.2373, 152.2118
431.7194, 152.4267
432.2015, 154.0314
432.6836, 156.9024
433.1657, 159.9527
433.6479, 162.2923
434.1300, 163.9903
434.6121, 166.0317
435.0942, 168.4353
435.5763, 171.1937
436.0584, 174.3817
436.5406, 177.8900
437.0227, 181.6585
437.5048, 185.6450
437.9869, 189.7735
438.4690, 193.8952
438.9511, 197.9151
439.4333, 202.2330
439.9154, 206.8807
440.3975, 211.8499
440.8796, 217.0480
441.3617, 222.5593
441.8438, 228.6060
442.3260, 235.3861
442.8081, 242.7514
443.2902, 249.9595
443.7723, 256.8645
444.2544, 264.0677
444.7365, 272.1260
445.2187, 280.4144
445.7008, 288.2859
446.1829, 295.5945
446.6650, 302.6894
447.1471, 309.7759
447.6292, 316.8434
448.1114, 323.9659
448.5935, 331.2087
449.0756, 338.3419
449.5577, 345.5688
450.0398, 352.6111
450.5219, 358.4662
451.0041, 362.4964
451.4862, 365.4691
451.9683, 368.1180
452.4504, 370.3904
452.9325, 371.9305
453.4146, 372.7225
453.8968, 372.5055
454.3789, 370.4606
454.8610, 366.3251
455.3431, 361.8123
455.8252, 357.5427
456.3073, 352.9666
456.7895, 347.5026
457.2716, 341.0691
457.7537, 333.7321
458.2358, 325.3656
458.7179, 315.9525
459.2000, 307.1983
459.6822, 299.5919
460.1643, 291.9549
460.6464, 283.7255
461.1285, 275.3329
461.6106, 267.4115
462.0927, 260.1977
462.5748, 253.5592
463.0569, 247.3138
463.5391, 241.6452
464.0212, 235.9738
464.5033, 230.0167
464.9854, 224.3302
465.4675, 219.3201
465.9496, 214.7910
466.4318, 210.1956
466.9139, 205.1035
467.3960, 199.7859
467.8781, 195.1722
468.3602, 191.6083
468.8423, 187.8010
469.3245, 182.9735
469.8066, 177.9776
470.2887, 173.5361
470.7708, 169.7456
471.2529, 166.1010
471.7350, 161.9439
472.2172, 157.5639
472.6993, 154.4086
473.1814, 153.1163
473.6635, 151.5343
474.1456, 147.7009
474.6277, 142.4591
475.1099, 137.6568
475.5920, 133.6659
476.0741, 130.1008
476.5562, 126.8392
477.0383, 123.8188
477.5204, 120.7395
478.0026, 117.4944
478.4847, 114.3017
478.9668, 111.4905
479.4489, 109.0913
479.9310, 106.9464
480.4131, 105.0945
480.8953, 103.4662
481.3774, 102.1622
481.8595, 101.0683
482.3416, 99.93285
482.8237, 98.63289
483.3058, 97.08139
483.7880, 94.93886
484.2701, 91.19697
484.7522, 88.33876
485.2343, 86.81445
485.7164, 85.88289
486.1985, 85.11881
486.6807, 84.38683
487.1628, 83.60992
487.6449, 82.67063
488.1270, 81.59483
488.6091, 80.79179
489.0912, 80.60352
489.5734, 80.12859
490.0555, 78.63243
490.5376, 76.95554
491.0197, 76.19009
491.5018, 76.67766
491.9839, 77.37659
492.4661, 77.15574
492.9482, 76.12128
493.4303, 75.17727
493.9124, 74.33397
494.3945, 73.81407
494.8766, 73.97463
495.3588, 74.60806
495.8409, 75.20181
496.3230, 75.78928
496.8051, 76.14879
497.2872, 75.94057
497.7693, 75.31295
498.2515, 74.84628
498.7336, 74.79807
499.2157, 74.87299
499.6978, 74.48862
500.1799, 73.31718
500.6620, 72.98958
501.1442, 74.35071
501.6263, 75.97019
502.1084, 76.96351
502.5905, 77.33019
503.0726, 77.32495
503.5547, 77.05543
504.0369, 76.68018
504.5190, 76.75461
505.0011, 77.56693
505.4832, 78.40105
505.9653, 79.09682
506.4474, 79.89074
506.9296, 80.99249
507.4117, 82.38425
507.8938, 83.86458
508.3759, 85.22557
508.8580, 86.53892
509.3401, 88.19069
509.8223, 90.28732
510.3044, 92.50014
510.7865, 94.79081
511.2686, 97.09505
511.7507, 99.32281
512.2328, 101.4526
512.7150, 103.6405
513.1971, 105.9414
513.6792, 108.3964
514.1613, 111.1600
514.6434, 114.2657
515.1255, 117.6505
515.6077, 121.3985
516.0898, 125.4097
516.5719, 129.1905
517.0540, 132.3811
517.5361, 135.7418
518.0182, 139.5384
518.5004, 143.7518
518.9825, 148.3025
519.4646, 153.1922
519.9467, 158.5373
520.4288, 164.4409
520.9109, 170.8539
521.3931, 178.3017
521.8752, 187.3875
522.3573, 196.7637
522.8394, 205.5664
523.3215, 214.4488
523.8036, 224.3664
524.2858, 235.6373
524.7679, 248.1020
525.2500, 261.4441
525.7321, 275.7510
526.2142, 290.4448
526.6964, 306.7230
527.1785, 321.9255
527.6606, 335.4048
528.1427, 346.8513
528.6248, 356.0501
529.1069, 363.6322
529.5891, 367.6817
530.0712, 364.8633
530.5533, 355.4411
531.0354, 343.8454
531.5175, 331.1071
531.9996, 316.9348
532.4818, 300.0436
532.9639, 280.7829
533.4460, 262.3659
533.9281, 245.2324
534.4102, 229.3887
534.8923, 214.4263
535.3745, 200.6294
535.8566, 188.6659
536.3387, 178.9686
536.8208, 171.0037
537.3029, 163.8050
537.7850, 157.2363
538.2672, 151.7343
538.7493, 148.0589
539.2314, 144.6956
539.7135, 140.5642
540.1956, 135.9799
540.6777, 131.9732
541.1599, 129.2266
541.6420, 127.1914
542.1241, 124.3751
542.6062, 120.3693
543.0883, 116.8603
543.5704, 114.8937
544.0526, 112.9225
544.5347, 109.6715
545.0168, 105.4060
545.4989, 101.6878
545.9810, 99.65568
546.4631, 98.44896
546.9453, 96.76072
547.4274, 94.60071
547.9095, 92.43076
548.3916, 90.45501
548.8737, 88.55605
549.3558, 86.34334
549.8380, 83.59521
550.3201, 81.83918
550.8022, 82.13674
551.2843, 82.95084
551.7664, 82.94097
552.2485, 82.26997
552.7307, 81.88322
553.2128, 82.33385
553.6949, 83.35450
554.1770, 84.19139
554.6591, 84.63637
555.1412, 85.27096
555.6234, 86.04354
556.1055, 87.03930
556.5876, 88.27135
557.0697, 89.77492
557.5518, 91.66194
558.0339, 94.11661
558.5161, 96.82571
558.9982, 99.01596
559.4803, 100.5825
559.9624, 102.2410
560.4445, 104.4314
560.9266, 106.5149
561.4088, 108.0026
561.8909, 108.8899
562.3730, 109.2223
562.8551, 108.7545
563.3372, 107.9242
563.8193, 106.9160
564.3015, 105.8742
564.7836, 105.5278
565.2657, 106.2986
565.7478, 107.6198
566.2299, 108.4342
566.7120, 108.3766
567.1942, 108.6996
567.6763, 109.6654
568.1584, 110.7602
568.6405, 111.5146
569.1226, 112.1721
569.6047, 113.3321
570.0869, 115.3074
570.5690, 117.8716
571.0511, 120.5060
571.5332, 123.1292
572.0153, 126.2256
572.4974, 129.9550
572.9796, 134.0841
573.4617, 138.5064
573.9438, 143.2347
574.4259, 148.3060
574.9080, 153.8486
575.3901, 159.5797
575.8723, 165.3617
576.3544, 171.1034
576.8365, 176.3928
577.3186, 181.1397
577.8007, 185.2820
578.2828, 188.6691
578.7650, 191.2542
579.2471, 193.4899
579.7292, 195.6424
580.2113, 197.1629
580.6934, 198.0235
581.1755, 198.0194
581.6577, 196.7559
582.1398, 194.1317
582.6219, 190.5419
583.1040, 186.5042
583.5861, 182.0268
584.0682, 177.0148
584.5504, 170.1722
585.0325, 164.3349
585.5146, 160.9774
585.9967, 158.8116
586.4788, 156.0412
