##NAMES=Hureaulite
##RRUFFID=R070452
##IDEAL CHEMISTRY=Mn^2+^_5_(P^5+^O_4_)_2_(P^5+^O_3_OH)_2_&#183;4H_2_O
##LOCALITY=Tip Top mine, Fourmile, Custer District, Custer County, South Dakota, USA
##OWNER=RRUFF
##SOURCE=Michael Scott
##DESCRIPTION=Massive coarse pink granular
##STATUS=The identification of this mineral has been confirmed by X-ray diffraction and chemical analysis
##URL=rruff.info/R070452
##MEASURED CHEMISTRY=(Mn^2+^_3.83_Fe^2+^_0.62_Mg_0.33_Ca_0.22_)_Σ=5_(P_1.00_O_4_)_2_(P_1.00_O_3_OH)_2_·4H_2_O; H_2_O estimated by difference; OH by charge balance
132.7991, 593.4177
133.2813, 594.4086
133.7634, 612.2875
134.2455, 638.9855
134.7276, 673.8658
135.2097, 706.3684
135.6918, 732.2452
136.1740, 752.4548
136.6561, 776.7176
137.1382, 806.7531
137.6203, 836.9286
138.1024, 858.8802
138.5845, 870.9614
139.0667, 883.6008
139.5488, 900.8860
140.0309, 923.3732
140.5130, 947.4219
140.9951, 973.8376
141.4772, 1001.484
141.9594, 1028.638
142.4415, 1058.633
142.9236, 1081.854
143.4057, 1092.309
143.8878, 1083.159
144.3699, 1079.344
144.8521, 1085.010
145.3342, 1097.300
145.8163, 1101.831
146.2984, 1093.855
146.7805, 1083.313
147.2626, 1076.223
147.7448, 1074.070
148.2269, 1073.189
148.7090, 1072.944
149.1911, 1073.315
149.6732, 1076.148
150.1553, 1082.035
150.6375, 1090.099
151.1196, 1099.383
151.6017, 1106.573
152.0838, 1118.531
152.5659, 1138.595
153.0480, 1169.535
153.5302, 1194.954
154.0123, 1207.635
154.4944, 1216.245
154.9765, 1231.223
155.4586, 1263.935
155.9408, 1294.242
156.4229, 1313.759
156.9050, 1310.110
157.3871, 1307.971
157.8692, 1321.492
158.3513, 1344.692
158.8335, 1366.114
159.3156, 1382.730
159.7977, 1397.455
160.2798, 1410.828
160.7619, 1418.535
161.2440, 1432.777
161.7262, 1465.580
162.2083, 1509.218
162.6904, 1541.658
163.1725, 1532.557
163.6546, 1521.796
164.1367, 1538.863
164.6189, 1628.100
165.1010, 1703.808
165.5831, 1716.030
166.0652, 1674.534
166.5473, 1633.099
167.0294, 1614.269
167.5116, 1611.629
167.9937, 1619.278
168.4758, 1649.843
168.9579, 1678.952
169.4400, 1687.036
169.9221, 1674.821
170.4043, 1663.480
170.8864, 1667.449
171.3685, 1680.892
171.8506, 1695.279
172.3327, 1713.897
172.8148, 1727.930
173.2970, 1727.023
173.7791, 1710.034
174.2612, 1688.993
174.7433, 1675.437
175.2254, 1665.596
175.7076, 1651.149
176.1897, 1623.934
176.6718, 1591.562
177.1539, 1563.427
177.6360, 1540.553
178.1181, 1520.312
178.6003, 1499.883
179.0824, 1479.401
179.5645, 1460.298
180.0466, 1442.405
180.5287, 1426.133
181.0108, 1413.318
181.4930, 1405.277
181.9751, 1397.769
182.4572, 1382.287
182.9393, 1360.245
183.4214, 1342.646
183.9035, 1338.160
184.3857, 1343.834
184.8678, 1352.523
185.3499, 1364.756
185.8320, 1376.916
186.3141, 1382.123
186.7962, 1380.516
187.2784, 1375.608
187.7605, 1366.026
188.2426, 1354.023
188.7247, 1351.113
189.2068, 1363.687
189.6889, 1384.305
190.1711, 1394.456
190.6532, 1393.468
191.1353, 1389.346
191.6174, 1388.271
192.0995, 1390.194
192.5816, 1395.398
193.0638, 1407.175
193.5459, 1421.886
194.0280, 1424.592
194.5101, 1414.133
194.9922, 1397.807
195.4743, 1380.748
195.9565, 1363.158
196.4386, 1351.255
196.9207, 1350.125
197.4028, 1357.692
197.8849, 1356.586
198.3671, 1344.477
198.8492, 1330.337
199.3313, 1325.815
199.8134, 1331.593
200.2955, 1340.452
200.7776, 1350.050
201.2598, 1360.392
201.7419, 1373.581
202.2240, 1391.325
202.7061, 1408.997
203.1882, 1416.731
203.6703, 1411.335
204.1525, 1411.899
204.6346, 1428.118
205.1167, 1461.700
205.5988, 1492.733
206.0809, 1520.646
206.5630, 1546.661
207.0452, 1572.591
207.5273, 1598.129
208.0094, 1624.904
208.4915, 1653.667
208.9736, 1683.945
209.4557, 1718.159
209.9379, 1758.438
210.4200, 1801.081
210.9021, 1835.860
211.3842, 1858.711
211.8663, 1884.511
212.3484, 1923.339
212.8306, 1980.298
213.3127, 2027.253
213.7948, 2060.064
214.2769, 2083.458
214.7590, 2110.920
215.2411, 2142.496
215.7233, 2177.543
216.2054, 2218.720
216.6875, 2272.728
217.1696, 2309.027
217.6517, 2321.357
218.1338, 2314.965
218.6160, 2310.385
219.0981, 2309.152
219.5802, 2306.916
220.0623, 2301.673
220.5444, 2294.857
221.0265, 2281.054
221.5087, 2259.372
221.9908, 2230.100
222.4729, 2194.388
222.9550, 2146.637
223.4371, 2100.403
223.9192, 2064.759
224.4014, 2044.239
224.8835, 2024.462
225.3656, 2002.053
225.8477, 1978.285
226.3298, 1966.118
226.8119, 1972.069
227.2941, 1980.858
227.7762, 1980.549
228.2583, 1966.047
228.7404, 1953.689
229.2225, 1946.309
229.7046, 1943.430
230.1868, 1939.011
230.6689, 1932.004
231.1510, 1924.672
231.6331, 1918.958
232.1152, 1916.242
232.5973, 1912.698
233.0795, 1909.373
233.5616, 1906.023
234.0437, 1893.715
234.5258, 1866.726
235.0079, 1837.028
235.4900, 1814.557
235.9722, 1800.343
236.4543, 1791.924
236.9364, 1792.483
237.4185, 1801.939
237.9006, 1799.466
238.3828, 1779.830
238.8649, 1753.827
239.3470, 1730.034
239.8291, 1705.850
240.3112, 1689.198
240.7933, 1684.637
241.2755, 1692.490
241.7576, 1691.476
242.2397, 1675.555
242.7218, 1656.691
243.2039, 1646.988
243.6860, 1652.090
244.1682, 1655.602
244.6503, 1654.135
245.1324, 1647.549
245.6145, 1640.335
246.0966, 1630.110
246.5787, 1621.686
247.0609, 1619.901
247.5430, 1626.017
248.0251, 1636.651
248.5072, 1653.540
248.9893, 1677.161
249.4714, 1692.987
249.9536, 1698.725
250.4357, 1698.981
250.9178, 1697.496
251.3999, 1690.996
251.8820, 1689.473
252.3641, 1695.875
252.8463, 1710.444
253.3284, 1725.815
253.8105, 1742.458
254.2926, 1759.216
254.7747, 1775.016
255.2568, 1790.422
255.7390, 1803.715
256.2211, 1814.170
256.7032, 1821.605
257.1853, 1829.731
257.6674, 1838.691
258.1495, 1848.076
258.6317, 1858.241
259.1138, 1871.437
259.5959, 1879.287
260.0780, 1876.062
260.5601, 1861.172
261.0422, 1864.353
261.5244, 1896.348
262.0065, 1932.195
262.4886, 1942.591
262.9707, 1916.991
263.4528, 1894.977
263.9349, 1887.567
264.4171, 1894.696
264.8992, 1891.531
265.3813, 1875.516
265.8634, 1853.042
266.3455, 1831.156
266.8276, 1811.323
267.3098, 1786.830
267.7919, 1756.052
268.2740, 1719.305
268.7561, 1675.569
269.2382, 1622.439
269.7203, 1568.216
270.2025, 1521.321
270.6846, 1483.794
271.1667, 1446.314
271.6488, 1405.061
272.1309, 1361.083
272.6130, 1325.743
273.0952, 1301.231
273.5773, 1280.431
274.0594, 1256.451
274.5415, 1228.758
275.0236, 1201.751
275.5057, 1176.961
275.9879, 1153.936
276.4700, 1129.147
276.9521, 1101.985
277.4342, 1074.900
277.9163, 1048.409
278.3984, 1021.804
278.8806, 1003.072
279.3627, 994.7773
279.8448, 995.5210
280.3269, 1002.297
280.8090, 1018.092
281.2911, 1028.157
281.7733, 1013.294
282.2554, 972.5628
282.7375, 945.0514
283.2196, 942.1331
283.7017, 956.2692
284.1838, 961.2654
284.6660, 955.8184
285.1481, 949.6147
285.6302, 951.6326
286.1123, 961.3126
286.5944, 969.0625
287.0765, 972.9251
287.5587, 973.9487
288.0408, 973.7430
288.5229, 972.1233
289.0050, 972.2762
289.4871, 978.5339
289.9692, 989.6256
290.4514, 996.9794
290.9335, 997.7051
291.4156, 995.7546
291.8977, 999.2198
292.3798, 1007.979
292.8619, 1018.623
293.3441, 1029.144
293.8262, 1039.625
294.3083, 1050.392
294.7904, 1062.316
295.2725, 1073.184
295.7546, 1077.257
296.2368, 1075.465
296.7189, 1076.012
297.2010, 1088.629
297.6831, 1107.352
298.1652, 1117.115
298.6474, 1113.670
299.1295, 1106.413
299.6116, 1107.838
300.0937, 1116.352
300.5758, 1124.885
301.0580, 1130.472
301.5401, 1132.969
302.0222, 1131.019
302.5043, 1123.324
302.9864, 1115.569
303.4685, 1115.130
303.9507, 1119.821
304.4328, 1123.330
304.9149, 1121.590
305.3970, 1117.153
305.8791, 1114.444
306.3612, 1114.926
306.8434, 1110.914
307.3255, 1091.302
307.8076, 1062.549
308.2897, 1037.236
308.7718, 1023.275
309.2539, 1014.553
309.7361, 1005.979
310.2182, 997.1964
310.7003, 989.1230
311.1824, 982.8502
311.6645, 977.6724
312.1466, 972.5578
312.6288, 966.5159
313.1109, 960.7570
313.5930, 956.4903
314.0751, 953.7535
314.5572, 950.2676
315.0393, 946.7892
315.5215, 941.2761
316.0036, 931.5002
316.4857, 904.4741
316.9678, 883.7552
317.4499, 886.1577
317.9320, 910.1523
318.4142, 925.6878
318.8963, 914.9527
319.3784, 894.3169
319.8605, 877.0721
320.3426, 868.5205
320.8247, 862.0264
321.3069, 854.3064
321.7890, 846.2321
322.2711, 843.8133
322.7532, 855.8367
323.2353, 869.2962
323.7174, 876.2235
324.1996, 869.8402
324.6817, 863.1622
325.1638, 858.2526
325.6459, 854.5212
326.1280, 849.8569
326.6101, 841.8184
327.0923, 834.4911
327.5744, 829.9727
328.0565, 832.1265
328.5386, 831.3817
329.0207, 824.8213
329.5028, 815.4354
329.9850, 810.1420
330.4671, 811.9551
330.9492, 814.7653
331.4313, 816.9256
331.9134, 819.3409
332.3955, 818.5189
332.8777, 810.7110
333.3598, 801.4453
333.8419, 800.3964
334.3240, 814.6491
334.8061, 825.0892
335.2882, 824.1143
335.7704, 808.7844
336.2525, 801.9769
336.7346, 807.2474
337.2167, 816.8739
337.6988, 821.1151
338.1809, 818.2631
338.6631, 815.5440
339.1452, 815.1520
339.6273, 816.8677
340.1094, 816.3074
340.5915, 812.7141
341.0736, 808.6846
341.5558, 807.5403
342.0379, 809.7254
342.5200, 809.8088
343.0021, 806.0357
343.4842, 799.6050
343.9663, 794.2433
344.4485, 789.8829
344.9306, 787.4338
345.4127, 789.2008
345.8948, 794.4858
346.3769, 797.0980
346.8590, 795.6325
347.3412, 791.5953
347.8233, 786.6110
348.3054, 780.8821
348.7875, 777.4826
349.2696, 780.8187
349.7517, 788.1223
350.2339, 792.2455
350.7160, 792.4426
351.1981, 788.8302
351.6802, 777.9526
352.1623, 762.2007
352.6444, 750.5707
353.1266, 748.6749
353.6087, 753.4886
354.0908, 762.3298
354.5729, 775.4651
355.0550, 788.2319
355.5371, 798.4022
356.0193, 805.3085
356.5014, 807.5129
356.9835, 803.1368
357.4656, 794.7368
357.9477, 780.3297
358.4298, 760.4022
358.9120, 748.3624
359.3941, 758.3939
359.8762, 778.0301
360.3583, 794.1815
360.8404, 800.4715
361.3225, 804.1027
361.8047, 808.4725
362.2868, 813.1663
362.7689, 815.9048
363.2510, 812.0236
363.7331, 808.2026
364.2152, 808.9752
364.6974, 816.9272
365.1795, 826.9852
365.6616, 840.9666
366.1437, 856.5171
366.6258, 867.3840
367.1079, 864.2438
367.5901, 863.1153
368.0722, 871.8581
368.5543, 899.5704
369.0364, 918.1752
369.5185, 918.8680
370.0006, 912.2859
370.4828, 914.0449
370.9649, 934.0654
371.4470, 950.1686
371.9291, 955.1097
372.4112, 946.4489
372.8933, 945.1824
373.3755, 952.5140
373.8576, 965.9299
374.3397, 984.7504
374.8218, 1013.577
375.3039, 1034.735
375.7860, 1041.244
376.2682, 1036.273
376.7503, 1045.907
377.2324, 1076.515
377.7145, 1105.033
378.1966, 1111.609
378.6787, 1093.951
379.1609, 1081.438
379.6430, 1077.958
380.1251, 1081.100
380.6072, 1087.545
381.0894, 1097.682
381.5715, 1104.255
382.0536, 1101.408
382.5357, 1090.912
383.0178, 1082.137
383.4999, 1075.984
383.9821, 1069.916
384.4642, 1058.217
384.9463, 1042.599
385.4284, 1031.796
385.9105, 1032.672
386.3926, 1039.609
386.8748, 1043.117
387.3569, 1043.094
387.8390, 1042.383
388.3211, 1044.342
388.8032, 1047.097
389.2853, 1046.916
389.7675, 1035.416
390.2496, 1027.809
390.7317, 1044.286
391.2138, 1079.147
391.6959, 1104.548
392.1780, 1095.523
392.6602, 1075.885
393.1423, 1065.923
393.6244, 1071.216
394.1065, 1083.238
394.5886, 1101.256
395.0707, 1123.490
395.5529, 1146.319
396.0350, 1167.606
396.5171, 1190.096
396.9992, 1214.492
397.4813, 1239.990
397.9634, 1269.874
398.4456, 1310.010
398.9277, 1352.937
399.4098, 1390.362
399.8919, 1413.859
400.3740, 1440.270
400.8561, 1471.080
401.3383, 1506.041
401.8204, 1549.317
402.3025, 1606.398
402.7846, 1666.172
403.2667, 1720.252
403.7488, 1762.174
404.2310, 1813.433
404.7131, 1879.567
405.1952, 1954.625
405.6773, 2021.797
406.1594, 2078.054
406.6415, 2135.800
407.1237, 2203.556
407.6058, 2281.630
408.0879, 2352.706
408.5700, 2415.052
409.0521, 2474.014
409.5342, 2539.046
410.0164, 2609.288
410.4985, 2671.945
410.9806, 2721.035
411.4627, 2759.375
411.9448, 2797.664
412.4269, 2836.409
412.9091, 2862.155
413.3912, 2861.281
413.8733, 2838.100
414.3554, 2800.472
414.8375, 2746.742
415.3196, 2685.707
415.8018, 2630.323
416.2839, 2577.561
416.7660, 2513.495
417.2481, 2424.549
417.7302, 2325.046
418.2123, 2225.560
418.6945, 2126.130
419.1766, 2036.986
419.6587, 1971.884
420.1408, 1919.766
420.6229, 1865.295
421.1050, 1792.465
421.5872, 1726.027
422.0693, 1675.947
422.5514, 1643.093
423.0335, 1617.651
423.5156, 1604.168
423.9977, 1593.119
424.4799, 1577.286
424.9620, 1540.837
425.4441, 1518.134
425.9262, 1517.874
426.4083, 1533.625
426.8904, 1542.792
427.3726, 1540.983
427.8547, 1538.063
428.3368, 1536.690
428.8189, 1534.443
429.3010, 1543.226
429.7831, 1567.217
430.2653, 1597.458
430.7474, 1621.150
431.2295, 1636.520
431.7116, 1652.803
432.1937, 1672.274
432.6758, 1694.884
433.1580, 1719.433
433.6401, 1745.459
434.1222, 1776.430
434.6043, 1818.828
435.0864, 1870.242
435.5685, 1915.766
436.0507, 1950.632
436.5328, 1982.989
437.0149, 2025.740
437.4970, 2076.935
437.9791, 2128.613
438.4612, 2173.587
438.9434, 2216.762
439.4255, 2264.557
439.9076, 2317.472
440.3897, 2375.096
440.8718, 2438.196
441.3539, 2504.549
441.8361, 2570.444
442.3182, 2634.228
442.8003, 2697.654
443.2824, 2758.663
443.7645, 2818.774
444.2466, 2887.131
444.7288, 2974.673
445.2109, 3065.989
445.6930, 3151.027
446.1751, 3229.995
446.6572, 3300.971
447.1393, 3357.335
447.6215, 3406.472
448.1036, 3461.630
448.5857, 3528.478
449.0678, 3595.589
449.5499, 3664.357
450.0320, 3735.896
450.5142, 3788.473
450.9963, 3817.031
451.4784, 3833.330
451.9605, 3848.086
452.4426, 3863.797
452.9247, 3868.608
453.4069, 3861.048
453.8890, 3841.593
454.3711, 3809.171
454.8532, 3762.491
455.3353, 3713.938
455.8174, 3676.431
456.2996, 3644.940
456.7817, 3593.705
457.2638, 3520.293
457.7459, 3434.383
458.2280, 3336.630
458.7101, 3233.819
459.1923, 3143.320
459.6744, 3080.228
460.1565, 3026.846
460.6386, 2964.090
461.1207, 2892.927
461.6028, 2823.624
462.0850, 2768.343
462.5671, 2714.840
463.0492, 2651.325
463.5313, 2570.183
464.0135, 2490.394
464.4956, 2421.870
464.9777, 2360.310
465.4598, 2300.520
465.9419, 2237.928
466.4240, 2179.678
466.9062, 2129.602
467.3883, 2088.367
467.8704, 2047.991
468.3525, 2014.517
468.8346, 1976.444
469.3167, 1924.217
469.7989, 1843.475
470.2810, 1775.727
470.7631, 1726.373
471.2452, 1690.219
471.7273, 1652.424
472.2094, 1610.879
472.6916, 1574.023
473.1737, 1548.872
473.6558, 1534.908
474.1379, 1505.701
474.6200, 1457.891
475.1021, 1407.338
475.5843, 1371.691
476.0664, 1349.235
476.5485, 1328.970
477.0306, 1309.177
477.5127, 1289.167
477.9948, 1268.190
478.4770, 1246.181
478.9591, 1222.887
479.4412, 1195.019
479.9233, 1167.017
480.4054, 1144.509
480.8875, 1128.382
481.3697, 1116.061
481.8518, 1107.887
482.3339, 1101.994
482.8160, 1095.987
483.2981, 1092.849
483.7802, 1085.661
484.2624, 1068.002
484.7445, 1042.083
485.2266, 1023.066
485.7087, 1019.668
486.1908, 1019.239
486.6729, 1015.599
487.1551, 1007.167
487.6372, 998.6316
488.1193, 989.3937
488.6014, 980.4755
489.0835, 972.3701
489.5656, 963.2319
490.0478, 960.1882
490.5299, 968.1741
491.0120, 984.4090
491.4941, 987.6987
491.9762, 976.0369
492.4583, 961.1403
492.9405, 951.5316
493.4226, 946.4515
493.9047, 941.1242
494.3868, 935.0826
494.8689, 928.3741
495.3510, 919.7577
495.8332, 910.1628
496.3153, 902.6558
496.7974, 897.0391
497.2795, 895.0809
497.7616, 902.0945
498.2437, 916.9318
498.7259, 927.7769
499.2080, 924.0704
499.6901, 915.0546
500.1722, 909.2242
500.6543, 910.0994
501.1364, 910.6213
501.6186, 906.9008
502.1007, 901.5947
502.5828, 899.2880
503.0649, 905.4084
503.5470, 909.8605
504.0291, 907.8984
504.5113, 899.2386
504.9934, 898.2689
505.4755, 909.4053
505.9576, 922.8898
506.4397, 932.4158
506.9218, 936.7896
507.4040, 941.0697
507.8861, 945.1943
508.3682, 949.8018
508.8503, 956.1897
509.3324, 964.3873
509.8145, 973.3588
510.2967, 982.9175
510.7788, 992.8693
511.2609, 1002.810
511.7430, 1012.724
512.2252, 1022.222
512.7073, 1027.406
513.1894, 1032.745
513.6715, 1047.361
514.1536, 1075.938
514.6357, 1105.767
515.1179, 1124.962
515.6000, 1138.411
516.0821, 1155.079
516.5642, 1181.978
517.0463, 1210.068
517.5284, 1234.944
518.0106, 1256.552
518.4927, 1278.730
518.9748, 1297.437
519.4569, 1320.264
519.9390, 1351.998
520.4211, 1399.149
520.9033, 1443.884
521.3854, 1483.651
521.8675, 1522.587
522.3496, 1567.862
522.8317, 1622.604
523.3138, 1675.075
523.7960, 1718.724
524.2781, 1756.924
524.7602, 1809.929
525.2423, 1879.559
525.7244, 1951.843
526.2065, 2014.767
526.6887, 2070.792
527.1708, 2133.465
527.6529, 2205.372
528.1350, 2278.024
528.6171, 2344.961
529.0992, 2406.168
529.5814, 2460.541
530.0635, 2511.011
530.5456, 2552.356
531.0277, 2577.696
531.5098, 2589.046
531.9919, 2599.274
532.4741, 2612.253
532.9562, 2627.036
533.4383, 2643.856
533.9204, 2664.482
534.4025, 2682.027
534.8846, 2690.637
535.3668, 2697.789
535.8489, 2712.313
536.3310, 2743.354
536.8131, 2766.298
537.2952, 2774.171
537.7773, 2771.295
538.2595, 2778.750
538.7416, 2800.312
539.2237, 2819.834
539.7058, 2829.719
540.1879, 2830.251
540.6700, 2822.757
541.1522, 2807.598
541.6343, 2782.887
542.1164, 2744.675
542.5985, 2695.158
543.0806, 2640.497
543.5627, 2581.583
544.0449, 2519.256
544.5270, 2456.239
545.0091, 2390.458
545.4912, 2317.803
545.9733, 2223.264
546.4554, 2131.161
546.9376, 2061.695
547.4197, 2019.153
547.9018, 1965.795
548.3839, 1879.180
548.8660, 1785.904
549.3481, 1705.758
549.8303, 1639.181
550.3124, 1587.280
550.7945, 1554.470
551.2766, 1534.575
551.7587, 1515.728
552.2408, 1498.475
552.7230, 1480.293
553.2051, 1457.637
553.6872, 1432.863
554.1693, 1423.554
554.6514, 1430.918
555.1335, 1442.580
555.6157, 1449.407
556.0978, 1452.788
556.5799, 1455.769
557.0620, 1457.835
557.5441, 1463.637
558.0262, 1481.900
558.5084, 1506.886
558.9905, 1527.959
559.4726, 1534.467
559.9547, 1542.042
560.4368, 1558.102
560.9189, 1582.311
561.4011, 1613.760
561.8832, 1663.618
562.3653, 1711.125
562.8474, 1750.643
563.3295, 1786.425
563.8116, 1790.984
564.2938, 1743.097
564.7759, 1682.232
565.2580, 1643.170
565.7401, 1632.216
566.2222, 1623.389
566.7043, 1613.640
567.1865, 1604.307
567.6686, 1596.737
568.1507, 1590.752
568.6328, 1591.958
569.1149, 1605.113
569.5970, 1626.758
570.0792, 1648.739
570.5613, 1671.017
571.0434, 1693.097
571.5255, 1714.547
572.0076, 1735.735
572.4897, 1757.042
572.9719, 1777.599
573.4540, 1800.784
573.9361, 1830.599
574.4182, 1863.271
574.9003, 1893.776
575.3824, 1915.896
575.8646, 1941.118
576.3467, 1975.975
576.8288, 2017.110
577.3109, 2049.312
577.7930, 2071.535
578.2751, 2085.923
578.7573, 2091.767
579.2394, 2088.312
579.7215, 2088.483
580.2036, 2095.173
580.6857, 2096.967
581.1678, 2079.465
581.6500, 2045.289
582.1321, 2012.718
582.6142, 1985.086
583.0963, 1960.238
583.5784, 1936.538
584.0605, 1913.216
584.5427, 1887.694
585.0248, 1855.331
585.5069, 1823.232
585.9890, 1796.562
586.4711, 1775.279
586.9532, 1756.887
587.4354, 1743.216
587.9175, 1730.027
588.3996, 1715.221
588.8817, 1699.005
589.3638, 1679.627
589.8459, 1651.060
590.3281, 1623.459
590.8102, 1607.200
591.2923, 1606.920
591.7744, 1605.284
592.2565, 1601.551
592.7386, 1593.842
593.2208, 1574.182
593.7029, 1542.189
594.1850, 1515.190
594.6671, 1504.568
595.1492, 1503.655
595.6313, 1499.157
596.1135, 1490.925
596.5956, 1477.140
597.0777, 1454.258
597.5598, 1426.054
598.0419, 1397.292
598.5240, 1369.044
599.0062, 1337.911
599.4883, 1295.346
599.9704, 1251.598
600.4525, 1218.068
600.9346, 1206.290
601.4167, 1194.407
601.8989, 1180.173
602.3810, 1163.879
602.8631, 1144.918
603.3452, 1120.849
603.8273, 1099.228
604.3094, 1082.868
604.7916, 1071.343
605.2737, 1061.210
605.7558, 1052.595
606.2379, 1043.567
606.7200, 1029.996
607.2021, 1014.556
607.6843, 1006.628
608.1664, 1008.313
608.6485, 1011.211
609.1306, 1009.366
609.6127, 1003.125
610.0948, 992.7421
610.5770, 970.9586
611.0591, 953.4525
611.5412, 952.3791
612.0233, 961.2089
612.5054, 962.4708
612.9875, 943.6501
613.4697, 926.1808
613.9518, 918.3553
614.4339, 920.2188
614.9160, 913.6447
615.3981, 894.7509
615.8802, 875.1597
616.3624, 862.2003
616.8445, 856.0471
617.3266, 852.5130
617.8087, 851.9514
618.2908, 851.6727
618.7729, 848.0559
619.2551, 842.0871
619.7372, 836.7947
620.2193, 833.6012
620.7014, 830.3129
621.1835, 823.4354
621.6656, 814.8517
622.1478, 808.8487
622.6299, 806.0159
623.1120, 807.2573
623.5941, 817.1400
624.0762, 835.0689
624.5583, 842.7343
625.0405, 831.9802
