##NAMES=Hurlbutite
##RRUFFID=R090048
##IDEAL CHEMISTRY=CaBe_2_P_2_O_8_
##LOCALITY=Smith mine, Chandler's Mill, Newport, New Hampshire
##OWNER=RRUFF
##SOURCE=University of Arizona Mineral Museum 1636
##DESCRIPTION=Colorless glassy grains in matrix, associated with, and hard to visually distinguish from quartz
##STATUS=The identification of this mineral has been confirmed by single-crystal X-ray diffraction.
##URL=rruff.info/R090048
89.78156, 0.0000000E+00
90.26367, 37.81039
90.74579, 36.92383
91.22791, 37.25556
91.71002, 38.68039
92.19214, 40.10692
92.67426, 40.69405
93.15638, 40.59656
93.63850, 40.17727
94.12061, 39.18773
94.60273, 38.04877
95.08485, 37.30984
95.56696, 36.81599
96.04908, 37.80781
96.53120, 43.76920
97.01331, 54.23064
97.49543, 61.77308
97.97755, 61.75834
98.45966, 54.65644
98.94178, 49.29547
99.42390, 45.97638
99.90602, 44.06508
100.3881, 42.39705
100.8703, 40.98039
101.3524, 39.75027
101.8345, 38.49657
102.3166, 37.01262
102.7987, 36.57244
103.2808, 37.80828
103.7630, 40.14082
104.2451, 40.78363
104.7272, 38.59581
105.2093, 36.23400
105.6914, 35.44392
106.1735, 36.93642
106.6557, 38.82930
107.1378, 41.21400
107.6199, 44.15221
108.1020, 46.10724
108.5841, 46.42769
109.0662, 46.11688
109.5484, 46.07881
110.0305, 45.23312
110.5126, 45.72750
110.9947, 48.14953
111.4768, 52.86235
111.9590, 57.92938
112.4411, 64.76707
112.9232, 71.52355
113.4053, 75.61752
113.8874, 73.58642
114.3695, 71.31752
114.8517, 70.95668
115.3338, 73.00699
115.8159, 76.34379
116.2980, 80.81396
116.7801, 86.38868
117.2622, 92.93107
117.7444, 100.8415
118.2265, 109.4845
118.7086, 118.2212
119.1907, 125.9983
119.6728, 135.4160
120.1549, 148.3520
120.6371, 164.3319
121.1192, 181.5065
121.6013, 198.8472
122.0834, 216.6452
122.5655, 235.1191
123.0476, 254.0401
123.5298, 273.9218
124.0119, 295.2147
124.4940, 317.9066
124.9761, 341.9269
125.4582, 367.6865
125.9404, 394.5670
126.4225, 421.1484
126.9046, 448.1996
127.3867, 474.2116
127.8688, 496.6082
128.3509, 515.2748
128.8331, 531.4396
129.3152, 545.6308
129.7973, 558.1926
130.2794, 570.5012
130.7615, 581.2719
131.2436, 592.0155
131.7258, 608.1407
132.2079, 630.3422
132.6900, 656.4834
133.1721, 683.8050
133.6542, 712.1949
134.1364, 741.7022
134.6185, 773.1439
135.1006, 806.5588
135.5827, 838.8419
136.0648, 869.4707
136.5469, 899.5092
137.0291, 932.1956
137.5112, 968.0824
137.9933, 1003.455
138.4754, 1035.964
138.9575, 1064.767
139.4396, 1093.953
139.9218, 1122.902
140.4039, 1152.441
140.8860, 1186.260
141.3681, 1224.456
141.8502, 1266.447
142.3323, 1309.955
142.8145, 1353.186
143.2966, 1404.848
143.7787, 1471.345
144.2608, 1552.684
144.7429, 1616.595
145.2250, 1673.062
145.7072, 1703.712
146.1893, 1687.203
146.6714, 1583.514
147.1535, 1492.368
147.6356, 1432.705
148.1178, 1407.138
148.5999, 1396.028
149.0820, 1405.224
149.5641, 1426.530
150.0462, 1450.410
150.5283, 1480.219
151.0105, 1508.953
151.4926, 1520.372
151.9747, 1523.756
152.4568, 1531.265
152.9389, 1545.598
153.4210, 1563.463
153.9032, 1580.540
154.3853, 1595.266
154.8674, 1609.911
155.3495, 1624.613
155.8316, 1637.984
156.3137, 1654.979
156.7959, 1677.596
157.2780, 1704.149
157.7601, 1731.390
158.2422, 1758.660
158.7243, 1786.630
159.2065, 1816.471
159.6886, 1851.612
160.1707, 1882.854
160.6528, 1915.154
161.1349, 1942.781
161.6170, 1950.216
162.0992, 1921.802
162.5813, 1877.904
163.0634, 1830.894
163.5455, 1777.177
164.0276, 1729.365
164.5097, 1691.119
164.9919, 1662.665
165.4740, 1645.303
165.9561, 1644.335
166.4382, 1652.493
166.9203, 1663.331
167.4024, 1676.472
167.8846, 1690.310
168.3667, 1704.720
168.8488, 1719.467
169.3309, 1732.940
169.8130, 1742.123
170.2952, 1750.081
170.7773, 1760.474
171.2594, 1775.591
171.7415, 1792.833
172.2236, 1809.416
172.7057, 1825.529
173.1879, 1844.412
173.6700, 1868.300
174.1521, 1896.570
174.6342, 1928.186
175.1163, 1963.245
175.5984, 2001.501
176.0806, 2043.957
176.5627, 2090.835
177.0448, 2136.250
177.5269, 2187.411
178.0090, 2234.081
178.4911, 2253.032
178.9733, 2215.427
179.4554, 2149.910
179.9375, 2097.125
180.4196, 2057.735
180.9017, 2034.023
181.3838, 2032.780
181.8660, 2050.631
182.3481, 2075.754
182.8302, 2103.073
183.3123, 2133.684
183.7944, 2172.448
184.2766, 2221.438
184.7587, 2270.159
185.2408, 2318.633
185.7229, 2362.097
186.2050, 2373.098
186.6871, 2320.847
187.1693, 2221.656
187.6514, 2134.754
188.1335, 2059.163
188.6156, 2002.195
189.0977, 1975.745
189.5798, 1979.226
190.0620, 1998.780
190.5441, 2029.825
191.0262, 2071.922
191.5083, 2123.180
191.9904, 2186.585
192.4725, 2253.823
192.9547, 2310.235
193.4368, 2356.032
193.9189, 2400.377
194.4010, 2447.184
194.8831, 2496.534
195.3652, 2549.516
195.8474, 2606.062
196.3295, 2666.510
196.8116, 2737.767
197.2937, 2822.202
197.7758, 2893.625
198.2579, 2942.361
198.7401, 2968.874
199.2222, 2949.172
199.7043, 2868.983
200.1864, 2756.586
200.6685, 2671.745
201.1507, 2615.526
201.6328, 2584.113
202.1149, 2577.348
202.5970, 2596.102
203.0791, 2630.019
203.5612, 2677.877
204.0434, 2740.111
204.5255, 2818.535
205.0076, 2914.297
205.4897, 3022.122
205.9718, 3139.351
206.4539, 3266.158
206.9361, 3401.951
207.4182, 3549.445
207.9003, 3704.333
208.3824, 3879.281
208.8645, 4112.757
209.3466, 4267.128
209.8288, 4251.978
210.3109, 4043.742
210.7930, 3760.157
211.2751, 3374.163
211.7572, 2930.356
212.2393, 2578.114
212.7215, 2332.256
213.2036, 2152.032
213.6857, 2019.627
214.1678, 1944.445
214.6499, 1885.012
215.1320, 1840.174
215.6142, 1807.632
216.0963, 1778.430
216.5784, 1752.254
217.0605, 1730.106
217.5426, 1713.221
218.0247, 1703.311
218.5069, 1694.007
218.9890, 1684.399
219.4711, 1674.965
219.9532, 1667.956
220.4353, 1664.151
220.9175, 1661.401
221.3996, 1658.310
221.8817, 1654.618
222.3638, 1651.308
222.8459, 1648.240
223.3280, 1645.596
223.8102, 1644.795
224.2923, 1647.197
224.7744, 1649.315
225.2565, 1648.439
225.7386, 1642.198
226.2207, 1638.764
226.7029, 1639.693
227.1850, 1644.106
227.6671, 1647.445
228.1492, 1649.168
228.6313, 1650.582
229.1134, 1652.454
229.5956, 1654.931
230.0777, 1657.587
230.5598, 1660.446
231.0419, 1663.493
231.5240, 1666.558
232.0062, 1669.113
232.4883, 1672.444
232.9704, 1677.375
233.4525, 1684.301
233.9346, 1691.913
234.4167, 1699.846
234.8989, 1708.333
235.3810, 1718.735
235.8631, 1733.085
236.3452, 1746.823
236.8273, 1757.213
237.3094, 1762.206
237.7916, 1768.157
238.2737, 1775.472
238.7558, 1784.006
239.2379, 1793.525
239.7200, 1805.182
240.2021, 1816.241
240.6843, 1825.194
241.1664, 1830.970
241.6485, 1836.863
242.1306, 1842.317
242.6127, 1848.048
243.0948, 1856.697
243.5770, 1869.597
244.0591, 1883.691
244.5412, 1897.114
245.0233, 1908.639
245.5054, 1922.545
245.9876, 1939.479
246.4697, 1958.794
246.9518, 1979.023
247.4339, 2000.381
247.9160, 2022.443
248.3981, 2044.368
248.8803, 2064.485
249.3624, 2089.094
249.8445, 2120.841
250.3266, 2156.452
250.8087, 2187.768
251.2908, 2216.140
251.7730, 2237.508
252.2551, 2250.304
252.7372, 2255.948
253.2193, 2249.351
253.7014, 2229.037
254.1835, 2197.243
254.6657, 2157.557
255.1478, 2104.114
255.6299, 2052.963
256.1120, 2009.861
256.5941, 1975.780
257.0763, 1948.004
257.5584, 1927.712
258.0405, 1912.708
258.5226, 1899.021
259.0047, 1886.485
259.4868, 1875.387
259.9690, 1865.946
260.4511, 1858.246
260.9332, 1851.786
261.4153, 1846.296
261.8974, 1842.197
262.3795, 1840.560
262.8617, 1842.292
263.3438, 1844.252
263.8259, 1845.392
264.3080, 1845.571
264.7901, 1845.601
265.2722, 1844.869
265.7544, 1844.686
266.2365, 1847.265
266.7186, 1853.421
267.2007, 1859.777
267.6828, 1865.201
268.1649, 1869.693
268.6471, 1874.860
269.1292, 1881.708
269.6113, 1887.827
270.0934, 1891.095
270.5755, 1892.400
271.0576, 1887.271
271.5398, 1872.680
272.0219, 1848.860
272.5040, 1828.602
272.9861, 1812.482
273.4682, 1799.148
273.9503, 1786.965
274.4325, 1775.745
274.9146, 1767.190
275.3967, 1762.177
275.8788, 1760.283
276.3610, 1758.573
276.8431, 1757.015
277.3252, 1755.788
277.8073, 1755.134
278.2894, 1755.096
278.7715, 1755.181
279.2537, 1755.118
279.7358, 1755.171
280.2179, 1756.935
280.7000, 1760.941
281.1821, 1764.357
281.6642, 1763.829
282.1464, 1759.323
282.6285, 1757.566
283.1106, 1760.139
283.5927, 1765.717
284.0748, 1770.826
284.5569, 1775.398
285.0391, 1780.123
285.5212, 1785.682
286.0033, 1791.969
286.4854, 1798.156
286.9675, 1804.427
287.4496, 1810.046
287.9318, 1813.521
288.4139, 1814.844
288.8960, 1814.741
289.3781, 1813.792
289.8602, 1811.874
290.3423, 1807.876
290.8245, 1801.147
291.3066, 1793.799
291.7887, 1790.240
292.2708, 1789.958
292.7529, 1788.123
293.2350, 1779.930
293.7172, 1767.986
294.1993, 1760.834
294.6814, 1759.242
295.1635, 1760.470
295.6456, 1762.247
296.1277, 1764.268
296.6099, 1765.214
297.0920, 1763.150
297.5741, 1759.841
298.0562, 1759.159
298.5383, 1761.313
299.0204, 1764.036
299.5026, 1764.899
299.9847, 1764.533
300.4668, 1764.654
300.9489, 1766.537
301.4311, 1768.995
301.9132, 1770.606
302.3953, 1771.386
302.8774, 1771.078
303.3595, 1767.693
303.8416, 1763.339
304.3238, 1761.862
304.8059, 1766.739
305.2880, 1772.847
305.7701, 1774.289
306.2522, 1771.771
306.7343, 1769.532
307.2165, 1770.909
307.6986, 1773.988
308.1807, 1776.270
308.6628, 1776.588
309.1449, 1776.879
309.6270, 1779.100
310.1092, 1782.651
310.5913, 1785.557
311.0734, 1785.663
311.5555, 1785.205
312.0376, 1786.423
312.5197, 1790.512
313.0019, 1794.103
313.4840, 1794.709
313.9661, 1793.498
314.4482, 1792.864
314.9303, 1793.957
315.4124, 1795.880
315.8946, 1798.229
316.3767, 1801.073
316.8588, 1803.881
317.3409, 1806.883
317.8230, 1809.655
318.3051, 1811.627
318.7873, 1812.216
319.2694, 1812.375
319.7515, 1812.018
320.2336, 1811.034
320.7157, 1811.427
321.1978, 1814.558
321.6800, 1818.938
322.1621, 1823.216
322.6442, 1828.327
323.1263, 1832.051
323.6084, 1832.796
324.0905, 1830.848
324.5727, 1830.703
325.0548, 1834.226
325.5369, 1838.974
326.0190, 1843.471
326.5012, 1847.850
326.9833, 1851.744
327.4654, 1854.269
327.9475, 1856.060
328.4296, 1859.625
328.9117, 1867.036
329.3939, 1874.385
329.8760, 1879.891
330.3581, 1880.823
330.8402, 1884.974
331.3223, 1893.880
331.8044, 1905.544
332.2866, 1915.876
332.7687, 1923.314
333.2508, 1931.461
333.7329, 1941.521
334.2150, 1953.800
334.6971, 1966.585
335.1793, 1979.849
335.6614, 1993.801
336.1435, 2009.156
336.6256, 2027.714
337.1077, 2043.255
337.5898, 2053.097
338.0720, 2057.772
338.5541, 2064.867
339.0362, 2075.468
339.5183, 2086.358
340.0004, 2093.797
340.4825, 2097.094
340.9647, 2102.661
341.4468, 2112.120
341.9289, 2124.275
342.4110, 2135.130
342.8931, 2144.248
343.3752, 2154.212
343.8574, 2166.048
344.3395, 2179.903
344.8216, 2197.457
345.3037, 2219.683
345.7858, 2243.932
346.2679, 2264.900
346.7501, 2283.001
347.2322, 2302.334
347.7143, 2326.690
348.1964, 2354.223
348.6785, 2379.678
349.1607, 2403.294
349.6428, 2424.015
350.1249, 2443.121
350.6070, 2459.122
351.0891, 2467.573
351.5713, 2467.925
352.0534, 2459.005
352.5355, 2437.465
353.0176, 2403.744
353.4997, 2362.813
353.9818, 2314.072
354.4640, 2261.927
354.9461, 2212.197
355.4282, 2165.990
355.9103, 2124.225
356.3924, 2087.374
356.8745, 2055.424
357.3567, 2029.099
357.8388, 2011.271
358.3209, 1997.576
358.8030, 1984.030
359.2851, 1969.654
359.7672, 1956.417
360.2494, 1944.960
360.7315, 1935.363
361.2136, 1927.927
361.6957, 1923.274
362.1778, 1920.265
362.6599, 1918.740
363.1421, 1918.871
363.6242, 1918.798
364.1063, 1918.180
364.5884, 1916.970
365.0705, 1915.125
365.5526, 1910.574
366.0348, 1907.512
366.5169, 1908.073
366.9990, 1911.933
367.4811, 1913.588
367.9632, 1910.241
368.4453, 1906.098
368.9275, 1903.541
369.4096, 1902.223
369.8917, 1903.044
370.3738, 1907.668
370.8559, 1914.405
371.3380, 1918.437
371.8202, 1918.682
372.3023, 1917.730
372.7844, 1916.237
373.2665, 1913.741
373.7487, 1912.773
374.2308, 1914.135
374.7129, 1916.234
375.1950, 1916.524
375.6771, 1913.952
376.1592, 1913.089
376.6414, 1915.848
377.1235, 1921.710
377.6056, 1925.422
378.0877, 1926.796
378.5698, 1926.800
379.0519, 1925.634
379.5341, 1923.299
380.0162, 1922.281
380.4983, 1922.915
380.9804, 1925.222
381.4625, 1930.186
381.9446, 1937.789
382.4268, 1944.314
382.9089, 1946.871
383.3910, 1946.500
383.8731, 1946.416
384.3552, 1946.740
384.8373, 1947.927
385.3195, 1951.045
385.8016, 1955.534
386.2837, 1959.822
386.7658, 1963.378
387.2479, 1966.214
387.7300, 1967.501
388.2122, 1967.371
388.6943, 1968.771
389.1764, 1975.869
389.6585, 1985.117
390.1406, 1991.700
390.6227, 1992.489
391.1049, 1992.851
391.5870, 1997.482
392.0691, 2004.744
392.5512, 2009.713
393.0333, 2009.766
393.5154, 2007.059
393.9976, 2002.477
394.4797, 1995.480
394.9618, 1988.959
395.4439, 1983.770
395.9260, 1979.607
396.4081, 1976.076
396.8903, 1973.271
397.3724, 1970.883
397.8545, 1968.895
398.3366, 1967.320
398.8188, 1965.814
399.3009, 1963.561
399.7830, 1961.903
400.2651, 1961.739
400.7472, 1964.399
401.2293, 1966.502
401.7115, 1967.282
402.1936, 1967.444
402.6757, 1969.324
403.1578, 1974.046
403.6399, 1978.546
404.1220, 1981.406
404.6042, 1982.338
405.0863, 1983.445
405.5684, 1984.944
406.0505, 1986.240
406.5326, 1986.024
407.0147, 1983.903
407.4969, 1983.370
407.9790, 1985.626
408.4611, 1990.137
408.9432, 1995.105
409.4253, 2000.598
409.9074, 2005.694
410.3896, 2009.086
410.8717, 2011.329
411.3538, 2014.922
411.8359, 2020.276
412.3180, 2026.882
412.8001, 2034.004
413.2823, 2041.651
413.7644, 2050.396
414.2465, 2061.308
414.7286, 2073.092
415.2107, 2084.465
415.6928, 2095.270
416.1750, 2105.245
416.6571, 2113.634
417.1392, 2121.129
417.6213, 2128.935
418.1034, 2136.934
418.5855, 2145.792
419.0677, 2155.892
419.5498, 2167.188
420.0319, 2179.095
420.5140, 2190.889
420.9961, 2203.730
421.4782, 2218.138
421.9604, 2233.665
422.4425, 2252.058
422.9246, 2274.170
423.4067, 2299.027
423.8889, 2325.625
424.3710, 2352.033
424.8531, 2382.005
425.3352, 2416.927
425.8173, 2456.773
426.2994, 2496.005
426.7816, 2534.154
427.2637, 2571.830
427.7458, 2609.580
428.2279, 2649.108
428.7100, 2686.208
429.1921, 2722.433
429.6743, 2754.696
430.1564, 2775.253
430.6385, 2784.445
431.1206, 2780.531
431.6027, 2759.892
432.0848, 2723.065
432.5670, 2684.925
433.0491, 2643.849
433.5312, 2607.749
434.0133, 2584.287
434.4954, 2572.895
434.9775, 2569.972
435.4597, 2575.214
435.9418, 2587.705
436.4239, 2607.101
436.9060, 2632.778
437.3881, 2661.816
437.8702, 2694.165
438.3524, 2728.022
438.8345, 2760.973
439.3166, 2792.777
439.7987, 2823.439
440.2808, 2861.007
440.7629, 2896.000
441.2451, 2913.322
441.7272, 2909.126
442.2093, 2884.150
442.6914, 2832.863
443.1735, 2758.114
443.6556, 2678.311
444.1378, 2589.806
444.6199, 2505.128
445.1020, 2432.677
445.5841, 2375.442
446.0662, 2327.339
446.5483, 2290.419
447.0305, 2261.691
447.5126, 2236.153
447.9947, 2215.485
448.4768, 2196.042
448.9590, 2176.535
449.4411, 2156.978
449.9232, 2140.805
450.4053, 2128.276
450.8874, 2118.458
451.3695, 2110.785
451.8517, 2105.138
452.3338, 2102.026
452.8159, 2102.108
453.2980, 2104.032
453.7801, 2105.346
454.2622, 2106.041
454.7444, 2105.942
455.2265, 2103.422
455.7086, 2099.854
456.1907, 2101.802
456.6728, 2109.591
457.1549, 2119.317
457.6371, 2127.950
458.1192, 2135.832
458.6013, 2144.053
459.0834, 2152.907
459.5655, 2161.983
460.0476, 2170.778
460.5298, 2179.416
461.0119, 2187.798
461.4940, 2196.373
461.9761, 2204.555
462.4582, 2211.465
462.9403, 2216.964
463.4225, 2223.263
463.9046, 2231.139
464.3867, 2240.477
464.8688, 2250.973
465.3509, 2261.880
465.8330, 2274.802
466.3152, 2290.622
466.7973, 2308.794
467.2794, 2327.250
467.7615, 2344.809
468.2436, 2363.933
468.7257, 2385.646
469.2079, 2409.945
469.6900, 2435.579
470.1721, 2462.768
470.6542, 2490.808
471.1363, 2519.567
471.6184, 2549.966
472.1006, 2577.896
472.5827, 2604.140
473.0648, 2626.540
473.5469, 2639.906
474.0291, 2644.572
474.5112, 2636.478
474.9933, 2609.555
475.4754, 2567.151
475.9575, 2520.794
476.4396, 2469.792
476.9218, 2423.242
477.4039, 2392.239
477.8860, 2373.387
478.3681, 2359.423
478.8502, 2349.005
479.3323, 2341.306
479.8145, 2334.842
480.2966, 2330.172
480.7787, 2329.529
481.2608, 2336.552
481.7429, 2346.115
482.2250, 2354.721
482.7072, 2361.751
483.1893, 2369.032
483.6714, 2376.069
484.1535, 2384.194
484.6356, 2394.735
485.1177, 2407.249
485.5999, 2423.055
486.0820, 2442.285
486.5641, 2464.883
487.0462, 2491.755
487.5283, 2525.413
488.0104, 2560.109
488.4926, 2593.726
488.9747, 2625.398
489.4568, 2659.835
489.9389, 2696.748
490.4210, 2736.471
490.9031, 2780.137
491.3853, 2828.358
491.8674, 2875.447
492.3495, 2924.683
492.8316, 2966.268
493.3137, 2982.534
493.7958, 2973.351
494.2780, 2934.733
494.7601, 2849.771
495.2422, 2737.450
495.7243, 2631.301
496.2064, 2531.274
496.6885, 2444.986
497.1707, 2377.407
497.6528, 2325.387
498.1349, 2284.709
498.6170, 2256.540
499.0992, 2235.257
499.5813, 2219.518
500.0634, 2208.212
500.5455, 2198.402
501.0276, 2188.703
501.5097, 2180.720
501.9919, 2175.712
502.4740, 2174.372
502.9561, 2171.828
503.4382, 2166.320
503.9203, 2160.464
504.4024, 2155.893
504.8846, 2152.415
505.3667, 2150.881
505.8488, 2152.192
506.3309, 2154.981
506.8130, 2156.048
507.2951, 2154.896
507.7773, 2154.279
508.2594, 2155.319
508.7415, 2157.772
509.2236, 2160.448
509.7057, 2163.383
510.1878, 2166.151
510.6700, 2168.179
511.1521, 2169.774
511.6342, 2171.714
512.1163, 2173.951
512.5984, 2177.110
513.0806, 2182.291
513.5627, 2188.860
514.0448, 2195.496
514.5269, 2202.422
515.0090, 2208.535
515.4911, 2213.557
515.9733, 2217.311
516.4554, 2218.711
516.9375, 2216.562
517.4196, 2212.508
517.9017, 2207.290
518.3839, 2200.381
518.8660, 2193.773
519.3481, 2187.705
519.8302, 2182.050
520.3123, 2176.686
520.7944, 2170.692
521.2766, 2166.690
521.7587, 2165.518
522.2408, 2166.619
522.7229, 2167.516
523.2050, 2167.804
523.6871, 2169.523
524.1693, 2174.260
524.6514, 2181.718
525.1335, 2189.162
525.6156, 2196.724
526.0977, 2203.652
526.5798, 2208.996
527.0620, 2213.156
527.5441, 2217.115
528.0262, 2220.779
528.5083, 2224.919
528.9904, 2229.963
529.4725, 2236.029
529.9547, 2243.438
530.4368, 2253.506
530.9189, 2263.931
531.4010, 2273.673
531.8831, 2282.716
532.3652, 2289.529
532.8474, 2292.897
533.3295, 2294.516
533.8116, 2295.386
534.2937, 2294.501
534.7758, 2294.753
535.2579, 2295.964
535.7401, 2298.508
536.2222, 2302.853
536.7043, 2309.320
537.1864, 2317.056
537.6685, 2325.653
538.1506, 2335.493
538.6328, 2349.234
539.1149, 2368.067
539.5970, 2384.341
540.0791, 2393.068
540.5612, 2395.247
541.0433, 2393.876
541.5255, 2388.747
542.0076, 2383.143
542.4897, 2379.460
542.9718, 2377.699
543.4539, 2377.912
543.9360, 2380.373
544.4182, 2384.251
544.9003, 2388.586
545.3824, 2393.801
545.8645, 2400.872
546.3466, 2410.819
546.8287, 2422.099
547.3109, 2434.017
547.7930, 2446.426
548.2751, 2459.768
548.7572, 2473.993
549.2393, 2489.290
549.7214, 2505.998
550.2036, 2525.726
550.6857, 2542.911
551.1678, 2555.540
551.6499, 2567.805
552.1320, 2585.738
552.6141, 2610.203
553.0963, 2635.566
553.5784, 2661.277
554.0605, 2686.454
554.5426, 2709.251
555.0247, 2729.632
555.5068, 2746.801
555.9890, 2760.221
556.4711, 2769.991
556.9532, 2777.106
557.4353, 2781.560
557.9174, 2779.657
558.3995, 2768.142
558.8817, 2748.997
559.3638, 2723.378
559.8459, 2688.204
560.3281, 2653.926
560.8102, 2622.659
561.2923, 2595.660
561.7744, 2575.166
562.2565, 2563.053
562.7386, 2556.029
563.2208, 2552.570
563.7029, 2553.116
564.1850, 2561.029
564.6671, 2577.455
565.1492, 2599.040
565.6313, 2624.334
566.1135, 2653.062
566.5956, 2687.214
567.0777, 2727.688
567.5598, 2769.656
568.0419, 2809.201
568.5240, 2846.119
569.0062, 2881.495
569.4883, 2915.424
569.9704, 2947.253
570.4525, 2977.905
570.9346, 3005.780
571.4167, 3025.447
571.8989, 3029.351
572.3810, 3029.004
572.8631, 3030.162
573.3452, 3033.391
573.8273, 3041.326
574.3094, 3052.565
574.7916, 3070.648
575.2737, 3098.082
575.7558, 3136.905
576.2379, 3179.315
576.7200, 3224.655
577.2021, 3274.500
577.6843, 3326.266
578.1664, 3384.582
578.6485, 3444.484
579.1306, 3508.555
579.6127, 3571.462
580.0948, 3629.659
580.5770, 3683.047
581.0591, 3713.194
581.5412, 3715.719
582.0233, 3688.082
582.5054, 3618.465
582.9875, 3510.563
583.4697, 3383.960
583.9518, 3235.322
584.4339, 3085.185
584.9160, 2954.517
585.3981, 2845.828
