##NAMES=Hurlbutite
##RRUFFID=R090048
##IDEAL CHEMISTRY=CaBe_2_P_2_O_8_
##LOCALITY=Smith mine, Chandler's Mill, Newport, New Hampshire
##OWNER=RRUFF
##SOURCE=University of Arizona Mineral Museum 1636
##DESCRIPTION=Colorless glassy grains in matrix, associated with, and hard to visually distinguish from quartz
##STATUS=The identification of this mineral has been confirmed by single-crystal X-ray diffraction.
##URL=rruff.info/R090048
92.02539, 688.1296
92.50751, 678.8389
92.98962, 679.4290
93.47174, 686.4270
93.95386, 697.7794
94.43597, 706.5443
94.91809, 711.0123
95.40021, 712.4589
95.88232, 712.1048
96.36444, 708.9454
96.84656, 705.4387
97.32867, 702.3625
97.81078, 699.9091
98.29290, 698.2488
98.77502, 697.1984
99.25713, 695.8546
99.73925, 693.7492
100.2214, 689.9008
100.7035, 686.6009
101.1856, 685.1639
101.6677, 685.4406
102.1498, 686.0807
102.6320, 685.3841
103.1141, 682.2761
103.5962, 680.4260
104.0783, 680.2943
104.5604, 681.1082
105.0425, 681.9315
105.5247, 682.3823
106.0068, 683.0553
106.4889, 684.9858
106.9710, 688.2141
107.4531, 691.5384
107.9352, 694.1611
108.4173, 696.2731
108.8995, 699.0608
109.3816, 703.2814
109.8637, 708.1313
110.3458, 712.6050
110.8279, 716.4750
111.3100, 720.4883
111.7922, 725.6235
112.2743, 732.1072
112.7564, 738.9396
113.2385, 747.2742
113.7206, 755.1968
114.2027, 760.9550
114.6849, 763.6874
115.1670, 763.8929
115.6491, 763.1617
116.1312, 759.3727
116.6133, 757.1620
117.0954, 757.6832
117.5776, 760.1758
118.0597, 763.3766
118.5418, 766.3669
119.0239, 769.1259
119.5060, 773.6788
119.9881, 781.2345
120.4703, 789.0412
120.9524, 795.9323
121.4345, 801.9535
121.9166, 807.9491
122.3987, 814.7629
122.8808, 822.5653
123.3630, 829.5490
123.8451, 835.2084
124.3272, 840.3176
124.8093, 845.2589
125.2914, 849.9800
125.7735, 855.2887
126.2557, 862.7222
126.7378, 871.8033
127.2199, 880.5497
127.7020, 888.5254
128.1841, 895.6189
128.6662, 901.3547
129.1483, 905.6592
129.6305, 908.3558
130.1126, 909.1674
130.5947, 908.2748
131.0768, 907.1679
131.5589, 906.9816
132.0410, 907.7490
132.5232, 909.2000
133.0053, 912.7529
133.4874, 916.0148
133.9695, 917.5011
134.4516, 917.0072
134.9337, 915.6130
135.4159, 914.9910
135.8980, 915.7695
136.3801, 916.1469
136.8622, 915.7104
137.3443, 915.0674
137.8264, 914.8267
138.3086, 915.2050
138.7907, 915.8522
139.2728, 915.7982
139.7549, 914.2479
140.2370, 912.8722
140.7191, 911.4780
141.2013, 910.3781
141.6834, 910.0731
142.1655, 910.8703
142.6476, 912.6055
143.1297, 914.5150
143.6118, 916.3684
144.0939, 918.5750
144.5761, 921.9343
145.0582, 926.0685
145.5403, 929.3148
146.0224, 930.8561
146.5045, 930.5066
146.9866, 928.5576
147.4688, 923.5756
147.9509, 918.1823
148.4330, 914.4782
148.9151, 912.4028
149.3972, 912.4052
149.8793, 916.5406
150.3615, 922.6096
150.8436, 928.0371
151.3257, 931.5528
151.8078, 934.0178
152.2899, 937.4710
152.7720, 942.7551
153.2542, 947.5743
153.7363, 950.6193
154.2184, 952.7343
154.7005, 955.2766
155.1826, 959.2287
155.6647, 964.4059
156.1469, 968.8298
156.6290, 971.7972
157.1111, 974.5926
157.5932, 977.1627
158.0753, 979.8022
158.5574, 983.0761
159.0396, 987.6498
159.5217, 993.8272
160.0038, 998.4237
160.4859, 1002.115
160.9680, 1003.940
161.4501, 1004.247
161.9323, 1002.550
162.4144, 997.2303
162.8965, 986.2842
163.3786, 967.8434
163.8607, 950.8713
164.3428, 935.5808
164.8250, 921.4904
165.3071, 908.4167
165.7892, 896.2816
166.2713, 885.0639
166.7534, 874.7066
167.2355, 865.2012
167.7177, 857.1462
168.1998, 851.9925
168.6819, 847.8159
169.1640, 841.9191
169.6461, 833.4685
170.1282, 824.3730
170.6104, 816.9100
171.0925, 810.8749
171.5746, 805.5130
172.0567, 800.4805
172.5388, 795.9072
173.0209, 792.2981
173.5031, 790.1949
173.9852, 788.5026
174.4673, 785.8859
174.9494, 782.4891
175.4315, 779.6820
175.9136, 778.5860
176.3958, 779.1507
176.8779, 780.0885
177.3600, 782.1555
177.8421, 783.7289
178.3242, 784.1897
178.8063, 783.4059
179.2885, 781.1728
179.7706, 776.5842
180.2527, 768.6693
180.7348, 762.6510
181.2169, 759.3383
181.6990, 757.5981
182.1812, 757.2947
182.6633, 758.2424
183.1454, 759.9389
183.6275, 761.6977
184.1096, 763.4106
184.5917, 765.4528
185.0738, 768.6617
185.5560, 771.6033
186.0381, 773.7352
186.5202, 774.7472
187.0023, 774.0369
187.4844, 770.4302
187.9665, 760.6891
188.4487, 753.0917
188.9308, 748.7638
189.4129, 745.9581
189.8950, 742.9567
190.3771, 739.2166
190.8592, 735.5881
191.3414, 733.8799
191.8235, 735.4075
192.3056, 736.3793
192.7877, 735.9308
193.2698, 734.8404
193.7519, 734.1459
194.2341, 734.2316
194.7162, 734.7769
195.1983, 735.1569
195.6804, 735.3278
196.1625, 735.5353
196.6446, 735.9161
197.1268, 736.3874
197.6089, 736.9061
198.0910, 737.7301
198.5731, 738.1136
199.0552, 736.8655
199.5373, 733.8384
200.0195, 730.3959
200.5016, 726.8311
200.9837, 723.2918
201.4658, 720.5855
201.9479, 719.0566
202.4300, 718.4535
202.9122, 718.4434
203.3943, 719.0574
203.8764, 719.8802
204.3585, 720.2278
204.8406, 720.1099
205.3227, 721.2457
205.8048, 724.3461
206.2870, 728.7836
206.7691, 734.4017
207.2512, 741.1472
207.7333, 748.2322
208.2154, 755.0417
208.6975, 761.6995
209.1797, 767.3251
209.6618, 773.4919
210.1439, 777.3319
210.6260, 776.5767
211.1081, 771.0076
211.5902, 762.6350
212.0724, 753.1524
212.5545, 741.0964
213.0366, 732.7441
213.5187, 730.5618
214.0008, 730.3915
214.4829, 730.1465
214.9651, 729.2567
215.4472, 728.0206
215.9293, 726.7363
216.4114, 724.8285
216.8935, 724.1914
217.3756, 725.5106
217.8578, 727.3688
218.3399, 728.8538
218.8220, 729.7413
219.3041, 730.3708
219.7862, 731.2697
220.2683, 732.7657
220.7505, 733.8775
221.2326, 734.4505
221.7147, 734.7893
222.1968, 735.1871
222.6789, 735.6932
223.1610, 736.0618
223.6432, 735.9011
224.1253, 734.7978
224.6074, 733.9871
225.0895, 733.7908
225.5716, 733.7028
226.0537, 733.2960
226.5358, 732.4653
227.0180, 731.3279
227.5001, 729.9904
227.9822, 728.3359
228.4643, 726.8723
228.9464, 725.7458
229.4285, 724.7717
229.9107, 723.8776
230.3928, 723.0618
230.8749, 722.0515
231.3570, 720.3633
231.8391, 717.9178
232.3212, 715.7454
232.8034, 713.5283
233.2855, 711.8642
233.7676, 711.9648
234.2497, 714.3113
234.7318, 716.8643
235.2139, 716.9410
235.6961, 714.8835
236.1782, 713.2122
236.6603, 712.3929
237.1424, 712.3855
237.6245, 713.4010
238.1066, 715.7726
238.5888, 718.1414
239.0709, 718.9828
239.5530, 718.7234
240.0351, 718.6204
240.5172, 719.1539
240.9993, 720.1025
241.4815, 721.0065
241.9636, 721.7488
242.4457, 722.6936
242.9278, 723.9378
243.4099, 725.5430
243.8920, 727.7738
244.3742, 731.1052
244.8563, 735.0773
245.3384, 738.5914
245.8205, 741.4288
246.3026, 744.2894
246.7847, 747.2839
247.2668, 750.5754
247.7490, 754.4843
248.2311, 759.1746
248.7132, 764.5533
249.1953, 770.6901
249.6774, 778.1777
250.1595, 785.1697
250.6417, 790.3505
251.1238, 794.7719
251.6059, 800.1545
252.0880, 808.0800
252.5701, 816.4396
253.0522, 819.6935
253.5344, 815.6982
254.0165, 810.4924
254.4986, 806.2870
254.9807, 801.9656
255.4628, 796.0619
255.9449, 787.8116
256.4271, 778.2297
256.9092, 769.5510
257.3913, 761.9642
257.8734, 755.0975
258.3555, 749.1312
258.8376, 743.5746
259.3198, 737.7128
259.8019, 731.2744
260.2840, 725.0081
260.7661, 720.5756
261.2482, 718.8615
261.7303, 717.4262
262.2125, 716.2473
262.6946, 714.9891
263.1767, 713.1642
263.6588, 710.6623
264.1409, 708.1215
264.6230, 706.7493
265.1052, 707.3855
265.5873, 707.5748
266.0694, 706.9100
266.5515, 706.0244
267.0336, 705.2366
267.5157, 704.6807
267.9979, 704.4781
268.4800, 704.8156
268.9621, 705.7559
269.4442, 707.1896
269.9263, 709.7294
270.4084, 712.2228
270.8906, 713.7851
271.3727, 714.3795
271.8548, 714.6901
272.3369, 715.5183
272.8190, 716.9149
273.3011, 718.7253
273.7833, 720.9319
274.2654, 723.4733
274.7475, 726.1376
275.2296, 729.0295
275.7117, 732.5692
276.1938, 737.2421
276.6760, 743.2678
277.1581, 749.1801
277.6402, 755.1862
278.1223, 760.9418
278.6044, 765.5789
279.0865, 769.6768
279.5686, 775.0110
280.0508, 783.2108
280.5329, 794.3400
281.0150, 804.2703
281.4971, 812.8620
281.9792, 820.6991
282.4613, 827.4457
282.9435, 833.5734
283.4256, 839.9961
283.9077, 847.2410
284.3898, 855.3499
284.8719, 864.3528
285.3540, 875.8054
285.8362, 886.3115
286.3183, 893.9999
286.8004, 900.2155
287.2825, 907.6682
287.7646, 917.9443
288.2467, 929.8576
288.7289, 939.3380
289.2110, 944.5292
289.6931, 949.7800
290.1752, 956.1863
290.6573, 962.8953
291.1394, 968.9938
291.6216, 974.2065
292.1037, 977.9553
292.5858, 978.7639
293.0679, 974.5869
293.5500, 971.4314
294.0321, 971.5729
294.5143, 972.2931
294.9964, 970.3861
295.4785, 964.9850
295.9606, 957.7744
296.4427, 951.0353
296.9248, 945.0331
297.4070, 938.6693
297.8891, 932.0369
298.3712, 924.9481
298.8533, 917.0168
299.3354, 908.2757
299.8175, 899.4117
300.2997, 891.3195
300.7818, 884.2410
301.2639, 875.5833
301.7460, 863.3199
302.2281, 851.1573
302.7102, 841.5757
303.1924, 834.5989
303.6745, 828.6588
304.1566, 822.6419
304.6387, 816.5886
305.1208, 810.8386
305.6029, 805.3734
306.0851, 800.1581
306.5672, 795.0527
307.0493, 790.1516
307.5314, 785.7981
308.0135, 782.2717
308.4956, 779.3785
308.9778, 776.3116
309.4599, 772.5824
309.9420, 769.2941
310.4241, 767.2475
310.9062, 765.8564
311.3883, 763.9157
311.8705, 760.8566
312.3526, 757.2618
312.8347, 754.4680
313.3168, 752.5749
313.7989, 751.0319
314.2810, 749.8696
314.7632, 748.9575
315.2453, 748.0750
315.7274, 747.1583
316.2095, 746.4273
316.6916, 746.4359
317.1737, 747.6692
317.6559, 747.3277
318.1380, 744.1836
318.6201, 739.9661
319.1022, 736.3648
319.5843, 733.5528
320.0664, 730.5005
320.5485, 726.1434
321.0306, 720.3600
321.5128, 714.9249
321.9949, 709.8676
322.4770, 705.0928
322.9591, 700.6811
323.4412, 696.5582
323.9233, 692.3089
324.4055, 687.6358
324.8876, 682.6100
325.3697, 678.0123
325.8518, 673.9565
326.3339, 670.1093
326.8160, 666.2953
327.2982, 662.5933
327.7803, 659.0928
328.2624, 655.7975
328.7445, 652.8205
329.2266, 650.4756
329.7087, 648.5523
330.1909, 647.4880
330.6730, 648.0723
331.1551, 649.3243
331.6372, 649.8816
332.1193, 649.3400
332.6014, 648.4133
333.0836, 648.0624
333.5657, 648.3407
334.0478, 649.2280
334.5299, 651.1492
335.0120, 653.3970
335.4941, 655.4469
335.9763, 657.2110
336.4584, 658.8231
336.9405, 660.3017
337.4226, 661.6117
337.9047, 663.6534
338.3868, 667.4938
338.8690, 671.0045
339.3511, 672.6949
339.8332, 673.0549
340.3153, 673.7234
340.7974, 675.8036
341.2795, 679.0078
341.7617, 681.4534
342.2438, 682.3797
342.7259, 683.5631
343.2080, 685.2472
343.6901, 687.4755
344.1722, 690.5206
344.6544, 694.5128
345.1365, 698.8043
345.6186, 702.0090
346.1007, 702.8287
346.5828, 704.5247
347.0649, 707.4005
347.5471, 710.9808
348.0292, 715.1121
348.5113, 719.6305
348.9934, 724.0953
349.4755, 727.8887
349.9576, 730.8267
350.4398, 733.8665
350.9219, 737.0820
351.4040, 740.3086
351.8861, 743.8340
352.3682, 747.3336
352.8503, 749.9766
353.3325, 751.0742
353.8146, 750.7023
354.2967, 750.0576
354.7788, 748.9915
355.2609, 747.8192
355.7430, 746.2955
356.2252, 744.7853
356.7073, 744.0361
357.1894, 744.4274
357.6715, 745.1600
358.1536, 744.1092
358.6357, 739.0822
359.1179, 735.6171
359.5999, 735.3568
360.0821, 735.6980
360.5642, 734.5886
361.0463, 731.6042
361.5284, 727.6160
362.0105, 723.5879
362.4926, 719.4214
362.9748, 715.6211
363.4569, 712.4535
363.9390, 709.3898
364.4211, 706.4410
364.9032, 703.4130
365.3853, 699.9723
365.8675, 695.8196
366.3496, 691.0200
366.8317, 686.1573
367.3138, 680.5894
367.7959, 675.8406
368.2780, 672.5013
368.7602, 670.0403
369.2423, 667.9022
369.7244, 665.8754
370.2065, 663.8342
370.6886, 661.4775
371.1707, 658.6230
371.6529, 655.9180
372.1350, 653.6832
372.6171, 651.4462
373.0992, 648.7805
373.5813, 645.6881
374.0634, 642.5612
374.5456, 639.8414
375.0277, 637.5531
375.5098, 635.2269
375.9919, 632.6373
376.4740, 630.2624
376.9561, 628.5956
377.4383, 627.3021
377.9204, 625.5706
378.4025, 622.5419
378.8846, 618.9687
379.3667, 617.2350
379.8488, 618.2619
380.3310, 618.7361
380.8131, 617.0722
381.2952, 614.3006
381.7773, 611.2040
382.2594, 607.8557
382.7415, 604.7838
383.2237, 602.6716
383.7058, 601.5088
384.1879, 600.5499
384.6700, 599.8685
385.1521, 599.0692
385.6342, 597.6158
386.1164, 595.5829
386.5985, 593.8837
387.0806, 593.6396
387.5627, 594.0472
388.0448, 592.8406
388.5269, 589.3182
389.0091, 585.9678
389.4912, 585.4589
389.9733, 586.4883
390.4554, 586.0782
390.9375, 582.2220
391.4196, 578.0050
391.9018, 576.5677
392.3839, 577.6132
392.8660, 578.4879
393.3481, 578.0656
393.8302, 576.7600
394.3123, 575.4566
394.7945, 574.2470
395.2766, 572.7687
395.7587, 570.5844
396.2408, 568.1122
396.7229, 566.1452
397.2050, 564.8710
397.6872, 563.7932
398.1693, 562.1899
398.6514, 559.9771
399.1335, 558.7824
399.6156, 559.7859
400.0977, 560.9219
400.5798, 560.5526
401.0620, 558.8931
401.5441, 557.2083
402.0262, 556.2501
402.5083, 555.9097
402.9904, 555.6885
403.4725, 555.7669
403.9547, 555.7239
404.4368, 555.3874
404.9189, 554.9218
405.4010, 554.4913
405.8831, 554.1563
406.3652, 553.9685
406.8474, 554.0128
407.3295, 554.3485
407.8116, 554.7709
408.2937, 555.6477
408.7758, 556.2816
409.2579, 556.1323
409.7401, 555.3587
410.2222, 554.5267
410.7043, 554.0390
411.1864, 553.8659
411.6685, 553.7375
412.1506, 554.2128
412.6328, 554.0016
413.1149, 552.0782
413.5970, 549.7609
414.0791, 548.6517
414.5612, 549.2617
415.0433, 550.5419
415.5255, 550.8821
416.0076, 550.0721
416.4897, 549.0417
416.9718, 547.3942
417.4539, 545.9251
417.9360, 544.7902
418.4182, 544.1307
418.9003, 544.3102
419.3824, 545.9745
419.8645, 548.6423
420.3466, 550.1004
420.8287, 549.8271
421.3109, 549.3885
421.7930, 548.8051
422.2751, 548.6487
422.7572, 549.8652
423.2393, 552.9451
423.7214, 556.3055
424.2036, 557.8932
424.6857, 557.8038
425.1678, 558.7219
425.6499, 561.8023
426.1320, 565.3751
426.6141, 567.7386
427.0963, 569.0616
427.5784, 570.6993
428.0605, 573.5032
428.5426, 576.8603
429.0247, 580.0811
429.5068, 583.2018
429.9890, 585.3480
430.4711, 585.6025
430.9532, 584.4855
431.4353, 583.9366
431.9174, 584.5090
432.3995, 584.8350
432.8817, 584.2639
433.3638, 582.9503
433.8459, 580.9920
434.3280, 578.3223
434.8101, 575.6589
435.2922, 573.9562
435.7744, 573.3211
436.2565, 573.4832
436.7386, 574.5022
437.2207, 576.2553
437.7028, 578.9418
438.1849, 582.3526
438.6671, 585.8291
439.1492, 588.9257
439.6313, 591.7232
440.1134, 594.6204
440.5955, 598.6061
441.0776, 601.4617
441.5598, 602.9150
442.0418, 603.1374
442.5240, 602.3173
443.0061, 600.5016
443.4882, 597.5283
443.9703, 593.0035
444.4524, 586.4753
444.9345, 580.4766
445.4167, 574.8102
445.8988, 569.9033
446.3809, 566.1230
446.8630, 563.2414
447.3451, 560.8458
447.8272, 558.8002
448.3094, 556.9366
448.7915, 554.9173
449.2736, 552.8927
449.7557, 550.2664
450.2378, 545.5385
450.7199, 541.0395
451.2021, 538.6072
451.6842, 538.3883
452.1663, 538.9490
452.6484, 539.4055
453.1305, 539.7491
453.6126, 539.8027
454.0948, 539.2792
454.5769, 539.1379
455.0590, 540.4530
455.5411, 542.5542
456.0232, 544.2722
456.5053, 545.0651
456.9875, 545.7958
457.4696, 547.3063
457.9517, 549.4249
458.4338, 551.3798
458.9159, 552.8937
459.3980, 554.1854
459.8802, 555.4941
460.3623, 556.7648
460.8444, 558.3984
461.3265, 560.9857
461.8086, 563.6019
462.2907, 565.4176
462.7729, 566.4203
463.2550, 566.9229
463.7371, 566.9880
464.2192, 566.8180
464.7013, 567.6227
465.1834, 570.5653
465.6656, 572.9314
466.1477, 573.3825
466.6298, 573.5673
467.1119, 575.5298
467.5940, 579.6230
468.0761, 584.3138
468.5583, 587.7315
469.0404, 589.6562
469.5225, 591.9085
470.0046, 594.4571
470.4867, 597.3853
470.9688, 600.8348
471.4510, 604.6605
471.9331, 608.7008
472.4152, 612.9207
472.8973, 617.0616
473.3794, 620.9309
473.8615, 624.9095
474.3437, 626.9667
474.8258, 625.9244
475.3079, 623.3451
475.7900, 620.1771
476.2721, 616.3948
476.7542, 611.4017
477.2364, 603.5392
477.7185, 594.4993
478.2006, 588.2396
478.6827, 585.1154
479.1648, 582.9211
479.6469, 580.9203
480.1291, 579.0077
480.6112, 576.9275
481.0933, 574.4770
481.5754, 572.4175
482.0575, 571.1439
482.5396, 570.5252
483.0217, 570.5096
483.5038, 571.1213
483.9860, 571.6362
484.4681, 571.2220
484.9502, 569.8391
485.4323, 569.2551
485.9144, 569.9618
486.3965, 570.8840
486.8787, 571.3728
487.3608, 571.7933
487.8429, 572.8318
488.3250, 574.7641
488.8071, 577.3499
489.2892, 580.1154
489.7714, 582.8391
490.2535, 586.3953
490.7356, 591.8470
491.2177, 596.9938
491.6998, 600.4639
492.1819, 602.6724
492.6641, 605.0363
493.1462, 608.6813
493.6283, 612.5491
494.1104, 613.4813
494.5925, 610.9694
495.0746, 606.8948
495.5568, 600.8275
496.0389, 593.9528
496.5210, 586.6051
497.0031, 578.9989
497.4852, 572.0975
497.9673, 566.8705
498.4495, 562.8922
498.9316, 558.9459
499.4137, 554.8629
499.8958, 551.4076
500.3779, 549.1277
500.8600, 547.7486
501.3422, 546.7092
501.8243, 546.2192
502.3064, 545.5368
502.7885, 543.9758
503.2706, 542.0485
503.7527, 540.7604
504.2349, 540.3412
504.7170, 540.0764
505.1991, 539.2625
505.6812, 537.8560
506.1633, 536.5723
506.6454, 535.3914
507.1276, 534.3416
507.6097, 533.4322
508.0918, 532.6605
508.5739, 532.0098
509.0560, 531.4769
509.5381, 531.1241
510.0203, 531.1277
510.5024, 531.7310
510.9845, 531.8581
511.4666, 531.4234
511.9487, 530.5928
512.4308, 528.8718
512.9130, 526.8598
513.3951, 525.7167
513.8772, 526.1293
514.3593, 527.3943
514.8414, 528.5228
515.3235, 529.6522
515.8057, 529.5315
516.2878, 526.9579
516.7699, 523.9176
517.2520, 522.1968
517.7341, 521.6323
518.2162, 520.9349
518.6984, 519.4200
519.1805, 517.5521
519.6626, 515.8866
520.1447, 514.4263
520.6268, 512.9618
521.1089, 511.2209
521.5911, 509.6183
522.0732, 509.3671
522.5553, 511.1020
523.0374, 512.0845
523.5195, 511.3569
524.0016, 510.0445
524.4838, 509.0972
524.9659, 508.5585
525.4480, 507.9203
525.9301, 506.7461
526.4122, 505.2778
526.8943, 504.8121
527.3765, 506.8520
527.8586, 507.7257
528.3407, 506.2781
528.8228, 504.2025
529.3049, 502.7981
529.7870, 502.2385
530.2692, 501.9964
530.7513, 501.6672
531.2334, 501.2651
531.7155, 500.8967
532.1976, 500.6609
532.6797, 500.2316
533.1619, 499.1514
533.6440, 497.9669
534.1261, 497.1751
534.6082, 496.8417
535.0903, 496.9821
535.5724, 498.3187
536.0546, 499.9942
536.5367, 499.8067
537.0188, 497.3507
537.5009, 494.8941
537.9830, 493.9426
538.4651, 494.4290
538.9473, 495.6782
539.4294, 498.5165
539.9115, 501.0061
540.3936, 502.3063
540.8757, 503.1109
541.3578, 504.3752
541.8400, 506.2324
542.3221, 508.0262
542.8042, 509.0768
543.2863, 509.3755
543.7684, 509.4581
544.2505, 508.6302
544.7326, 508.4523
545.2147, 509.5655
545.6968, 511.3025
546.1790, 512.9239
546.6611, 514.2458
547.1432, 515.6138
547.6253, 517.3076
548.1074, 519.3414
548.5895, 522.0014
549.0717, 525.9148
549.5538, 529.1194
550.0359, 529.5416
550.5180, 528.7226
551.0001, 528.9659
551.4822, 530.8549
551.9644, 533.3035
552.4465, 535.4626
552.9286, 537.7356
553.4107, 541.2885
553.8928, 546.3778
554.3749, 551.4103
554.8571, 554.9752
555.3392, 557.1026
555.8213, 558.8778
556.3034, 560.3301
556.7855, 561.4529
557.2676, 562.4421
557.7498, 563.0141
558.2319, 562.9112
558.7140, 562.0353
559.1961, 560.2828
559.6782, 557.4239
560.1603, 553.4662
560.6425, 549.3587
561.1246, 545.0193
561.6067, 540.6956
562.0888, 535.7237
562.5709, 531.1531
563.0530, 528.3515
563.5352, 527.6967
564.0173, 527.6697
564.4994, 526.6400
564.9815, 525.1827
565.4636, 525.3467
565.9457, 527.5220
566.4279, 530.3212
566.9100, 533.0045
567.3921, 535.5714
567.8742, 538.0400
568.3563, 540.2094
568.8384, 542.6096
569.3206, 545.7658
569.8027, 549.0733
570.2848, 552.0714
570.7669, 554.5499
571.2490, 556.0538
571.7311, 556.0856
572.2133, 554.7592
572.6954, 553.3350
573.1775, 551.9430
573.6596, 550.2418
574.1417, 547.7261
574.6238, 545.1995
575.1060, 543.0618
575.5881, 541.5189
576.0702, 541.0793
576.5523, 542.5604
577.0344, 545.4493
577.5165, 547.6660
577.9987, 548.8906
578.4808, 550.8583
578.9629, 554.5876
579.4450, 559.2848
579.9271, 564.1524
580.4092, 569.4123
580.8914, 573.1559
581.3735, 574.6292
581.8556, 574.2411
582.3377, 572.3739
582.8198, 569.0804
583.3019, 564.3184
583.7841, 557.9999
584.2662, 550.3108
584.7483, 541.6541
585.2304, 530.0094
585.7125, 520.7613
586.1946, 515.1199
586.6768, 510.6007
587.1589, 505.5616
587.6410, 500.3040
