##NAMES=Hurlbutite
##RRUFFID=R070612
##IDEAL CHEMISTRY=CaBe_2_P_2_O_8_
##LOCALITY=Viitaniemi, Erajarvi, Orivesi, Etela-Suomen Laani, Finland
##OWNER=RRUFF
##SOURCE=James Shigley
##DESCRIPTION=Light brown, massive, associated with beryllonite, hydroxylherderite, and apatite. The hurlbutite is very fine-grained holding the other coarser mineral fragments in place.
##STATUS=The identification of this mineral has been confirmed by single-crystal X-ray diffraction.
##URL=rruff.info/R070612
150.8159, 5314.690
151.2980, 5319.635
151.7802, 5283.593
152.2623, 5252.770
152.7444, 5239.966
153.2265, 5247.290
153.7086, 5267.923
154.1907, 5321.283
154.6729, 5387.878
155.1550, 5424.027
155.6371, 5382.596
156.1192, 5335.494
156.6013, 5319.819
157.0834, 5358.510
157.5656, 5408.996
158.0477, 5468.061
158.5298, 5533.348
159.0119, 5591.927
159.4940, 5636.570
159.9761, 5673.633
160.4583, 5708.703
160.9404, 5759.162
161.4225, 5794.475
161.9046, 5803.668
162.3867, 5786.512
162.8688, 5743.525
163.3510, 5656.924
163.8331, 5547.975
164.3152, 5446.411
164.7973, 5355.760
165.2794, 5283.059
165.7615, 5235.278
166.2437, 5216.413
166.7258, 5211.070
167.2079, 5213.964
167.6900, 5223.342
168.1721, 5234.961
168.6542, 5251.212
169.1363, 5266.396
169.6185, 5275.134
170.1006, 5276.794
170.5827, 5270.898
171.0648, 5240.385
171.5469, 5192.584
172.0290, 5173.149
172.5112, 5228.367
172.9933, 5329.175
173.4754, 5433.466
173.9575, 5568.264
174.4396, 5674.934
174.9217, 5656.980
175.4039, 5511.679
175.8860, 5358.453
176.3681, 5301.398
176.8502, 5318.363
177.3323, 5350.537
177.8144, 5379.513
178.2966, 5405.729
178.7787, 5431.111
179.2608, 5457.047
179.7429, 5477.039
180.2250, 5479.334
180.7071, 5466.724
181.1893, 5453.466
181.6714, 5438.681
182.1535, 5428.852
182.6356, 5445.162
183.1177, 5497.072
183.5998, 5562.957
184.0820, 5610.557
184.5641, 5640.448
185.0462, 5656.045
185.5283, 5654.741
186.0104, 5639.663
186.4925, 5626.956
186.9747, 5627.890
187.4568, 5628.329
187.9389, 5580.956
188.4210, 5481.734
188.9031, 5383.344
189.3852, 5345.054
189.8673, 5361.640
190.3495, 5379.167
190.8316, 5379.960
191.3137, 5368.644
191.7958, 5364.617
192.2779, 5367.353
192.7600, 5379.558
193.2422, 5410.552
193.7243, 5460.828
194.2064, 5506.212
194.6885, 5537.552
195.1706, 5555.174
195.6527, 5560.027
196.1349, 5546.074
196.6170, 5529.314
197.0991, 5543.550
197.5812, 5592.911
198.0633, 5640.318
198.5454, 5667.480
199.0276, 5673.845
199.5097, 5665.157
199.9918, 5637.350
200.4739, 5598.097
200.9560, 5567.986
201.4381, 5548.777
201.9203, 5533.416
202.4024, 5507.451
202.8845, 5463.092
203.3666, 5466.091
203.8487, 5537.401
204.3308, 5662.755
204.8130, 5772.749
205.2951, 5868.809
205.7772, 5947.589
206.2593, 6007.163
206.7414, 6047.236
207.2235, 6069.202
207.7057, 6066.049
208.1878, 6039.518
208.6699, 6040.842
209.1520, 6091.308
209.6341, 6137.515
210.1162, 6113.206
210.5983, 5996.553
211.0805, 5874.677
211.5626, 5770.988
212.0447, 5686.999
212.5268, 5602.331
213.0089, 5510.911
213.4910, 5423.416
213.9732, 5362.233
214.4553, 5340.891
214.9374, 5314.393
215.4195, 5261.576
215.9016, 5170.323
216.3837, 5099.750
216.8659, 5053.866
217.3480, 5026.582
217.8301, 5004.572
218.3122, 4989.038
218.7943, 4976.198
219.2764, 4964.918
219.7586, 4957.078
220.2407, 4945.262
220.7228, 4925.944
221.2049, 4902.732
221.6870, 4889.015
222.1691, 4888.474
222.6513, 4891.932
223.1334, 4895.010
223.6155, 4900.504
224.0976, 4898.978
224.5797, 4886.019
225.0618, 4864.043
225.5440, 4850.365
226.0261, 4845.965
226.5082, 4848.946
226.9903, 4859.475
227.4724, 4884.507
227.9545, 4902.899
228.4367, 4908.741
228.9188, 4902.152
229.4009, 4903.566
229.8830, 4919.372
230.3651, 4936.515
230.8472, 4940.440
231.3293, 4920.048
231.8115, 4906.925
232.2936, 4908.957
232.7757, 4927.682
233.2578, 4945.644
233.7399, 4959.113
234.2220, 4975.063
234.7042, 5004.329
235.1863, 5059.540
235.6684, 5106.824
236.1505, 5136.000
236.6326, 5143.772
237.1147, 5147.506
237.5969, 5139.141
238.0790, 5131.583
238.5611, 5148.141
239.0432, 5210.483
239.5253, 5263.405
240.0074, 5284.455
240.4896, 5255.612
240.9717, 5248.104
241.4538, 5268.490
241.9359, 5307.469
242.4180, 5348.004
242.9001, 5396.923
243.3823, 5436.882
243.8644, 5457.881
244.3465, 5443.035
244.8286, 5446.932
245.3107, 5475.369
245.7928, 5521.729
246.2750, 5567.595
246.7571, 5617.437
247.2392, 5661.122
247.7213, 5691.891
248.2034, 5699.219
248.6855, 5716.502
249.1677, 5744.614
249.6498, 5783.932
250.1319, 5837.311
250.6140, 5918.034
251.0961, 5994.978
251.5782, 6051.846
252.0603, 6087.843
252.5425, 6106.047
253.0246, 6108.088
253.5067, 6092.903
253.9888, 6049.785
254.4709, 5961.587
254.9530, 5869.867
255.4352, 5806.119
255.9173, 5789.188
256.3994, 5753.918
256.8815, 5683.290
257.3636, 5582.356
257.8458, 5507.776
258.3279, 5465.335
258.8100, 5440.802
259.2921, 5426.940
259.7742, 5432.326
260.2563, 5424.358
260.7385, 5388.900
261.2206, 5328.516
261.7027, 5304.332
262.1848, 5333.870
262.6669, 5373.882
263.1490, 5380.785
263.6311, 5339.549
264.1133, 5308.892
264.5954, 5303.608
265.0775, 5323.040
265.5596, 5338.801
266.0417, 5350.776
266.5238, 5359.271
267.0060, 5365.754
267.4881, 5372.423
267.9702, 5369.291
268.4523, 5348.931
268.9344, 5311.115
269.4165, 5292.132
269.8987, 5297.459
270.3808, 5312.355
270.8629, 5318.341
271.3450, 5312.380
271.8271, 5309.939
272.3092, 5316.985
272.7914, 5333.502
273.2735, 5345.879
273.7556, 5353.388
274.2377, 5358.274
274.7198, 5364.098
275.2019, 5371.639
275.6841, 5375.906
276.1662, 5372.833
276.6483, 5362.635
277.1304, 5361.803
277.6125, 5372.164
278.0946, 5388.429
278.5768, 5403.065
279.0589, 5415.831
279.5410, 5430.226
280.0231, 5448.003
280.5052, 5468.905
280.9873, 5489.985
281.4695, 5511.176
281.9516, 5532.258
282.4337, 5545.622
282.9158, 5549.938
283.3979, 5574.595
283.8800, 5654.784
284.3622, 5781.781
284.8443, 5840.558
285.3264, 5818.225
285.8085, 5765.167
286.2906, 5753.626
286.7727, 5782.838
287.2549, 5818.283
287.7370, 5850.928
288.2191, 5878.707
288.7012, 5888.136
289.1833, 5876.761
289.6654, 5854.099
290.1476, 5833.889
290.6297, 5815.477
291.1118, 5789.731
291.5939, 5748.322
292.0760, 5695.792
292.5581, 5645.914
293.0403, 5598.186
293.5224, 5556.562
294.0045, 5527.380
294.4866, 5509.189
294.9687, 5494.134
295.4508, 5479.287
295.9330, 5464.502
296.4151, 5448.048
296.8972, 5428.774
297.3793, 5412.944
297.8614, 5414.578
298.3435, 5428.234
298.8257, 5433.873
299.3078, 5411.465
299.7899, 5376.500
300.2720, 5356.389
300.7541, 5354.797
301.2362, 5359.219
301.7184, 5356.771
302.2005, 5349.902
302.6826, 5345.427
303.1647, 5350.261
303.6468, 5358.133
304.1289, 5361.708
304.6110, 5360.417
305.0931, 5354.708
305.5753, 5339.668
306.0574, 5320.054
306.5395, 5307.203
307.0216, 5313.994
307.5037, 5326.028
307.9858, 5326.859
308.4680, 5311.973
308.9501, 5301.575
309.4322, 5317.053
309.9143, 5346.983
310.3964, 5368.927
310.8785, 5369.377
311.3607, 5360.536
311.8428, 5348.580
312.3249, 5332.519
312.8070, 5321.800
313.2891, 5327.807
313.7712, 5341.568
314.2534, 5348.309
314.7355, 5331.188
315.2176, 5313.542
315.6997, 5309.156
316.1818, 5322.073
316.6639, 5335.461
317.1461, 5340.605
317.6282, 5342.735
318.1103, 5349.307
318.5924, 5362.747
319.0745, 5380.919
319.5566, 5406.011
320.0388, 5441.342
320.5209, 5467.963
321.0030, 5477.907
321.4851, 5477.744
321.9672, 5475.710
322.4493, 5461.766
322.9315, 5456.929
323.4136, 5472.502
323.8957, 5516.217
324.3778, 5546.351
324.8599, 5542.074
325.3420, 5527.967
325.8242, 5532.161
326.3063, 5590.553
326.7884, 5633.381
327.2705, 5636.618
327.7526, 5587.991
328.2347, 5570.434
328.7169, 5608.106
329.1990, 5664.026
329.6811, 5699.148
330.1632, 5690.349
330.6453, 5691.830
331.1274, 5717.428
331.6096, 5769.731
332.0917, 5811.797
332.5738, 5835.572
333.0559, 5855.842
333.5380, 5887.434
334.0201, 5933.823
334.5023, 5983.452
334.9844, 6034.563
335.4665, 6086.840
335.9486, 6144.973
336.4307, 6215.089
336.9128, 6281.638
337.3950, 6327.406
337.8771, 6345.408
338.3592, 6372.477
338.8413, 6420.115
339.3234, 6483.085
339.8055, 6531.478
340.2877, 6563.678
340.7698, 6585.619
341.2519, 6598.104
341.7340, 6600.590
342.2161, 6609.503
342.6982, 6630.554
343.1804, 6658.370
343.6624, 6674.135
344.1446, 6676.120
344.6267, 6681.932
345.1088, 6706.111
345.5909, 6746.680
346.0730, 6792.950
346.5551, 6842.142
347.0373, 6896.332
347.5194, 6966.036
348.0015, 7049.915
348.4836, 7130.424
348.9657, 7190.000
349.4478, 7237.344
349.9300, 7300.781
350.4121, 7397.058
350.8942, 7485.034
351.3763, 7510.633
351.8584, 7480.666
352.3405, 7425.221
352.8227, 7352.305
353.3048, 7267.987
353.7869, 7181.787
354.2690, 7099.690
354.7511, 7005.679
355.2332, 6876.953
355.7154, 6724.552
356.1975, 6578.985
356.6796, 6453.699
357.1617, 6342.859
357.6438, 6241.710
358.1259, 6148.889
358.6081, 6067.592
359.0902, 5998.618
359.5723, 5941.598
360.0544, 5895.918
360.5365, 5870.572
361.0186, 5849.221
361.5008, 5820.787
361.9829, 5780.575
362.4650, 5752.570
362.9471, 5760.298
363.4292, 5778.963
363.9113, 5778.060
364.3935, 5726.602
364.8756, 5677.981
365.3577, 5650.782
365.8398, 5650.028
366.3219, 5642.928
366.8040, 5618.772
367.2862, 5590.394
367.7683, 5569.992
368.2504, 5562.997
368.7325, 5557.425
369.2146, 5547.004
369.6967, 5531.358
370.1789, 5537.654
370.6610, 5586.583
371.1431, 5637.038
371.6252, 5654.215
372.1073, 5615.379
372.5894, 5590.782
373.0716, 5592.333
373.5537, 5615.839
374.0358, 5635.316
374.5179, 5650.304
375.0000, 5662.555
375.4821, 5675.663
375.9643, 5692.404
376.4464, 5692.885
376.9285, 5669.944
377.4106, 5634.058
377.8927, 5612.561
378.3748, 5606.133
378.8570, 5608.478
379.3391, 5619.936
379.8212, 5638.983
380.3033, 5650.840
380.7854, 5652.644
381.2675, 5650.405
381.7497, 5652.687
382.2318, 5659.251
382.7139, 5668.150
383.1960, 5679.457
383.6781, 5692.193
384.1602, 5703.882
384.6423, 5714.342
385.1245, 5724.346
385.6066, 5733.454
386.0887, 5742.757
386.5708, 5754.620
387.0529, 5777.716
387.5350, 5799.928
388.0172, 5802.802
388.4993, 5785.413
388.9814, 5774.326
389.4635, 5787.885
389.9456, 5818.572
390.4277, 5855.993
390.9099, 5912.668
391.3920, 5961.417
391.8741, 5987.789
392.3562, 5992.354
392.8383, 5983.102
393.3204, 5945.565
393.8026, 5904.778
394.2847, 5880.843
394.7668, 5908.229
395.2489, 5919.761
395.7310, 5891.713
396.2131, 5833.354
396.6953, 5784.150
397.1774, 5748.139
397.6595, 5723.774
398.1416, 5711.006
398.6237, 5718.686
399.1058, 5724.450
399.5880, 5728.389
400.0701, 5730.438
400.5522, 5730.468
401.0343, 5728.737
401.5164, 5724.392
401.9985, 5715.570
402.4807, 5699.639
402.9628, 5691.149
403.4449, 5691.952
403.9270, 5697.839
404.4091, 5702.457
404.8912, 5704.643
405.3734, 5710.088
405.8555, 5721.929
406.3376, 5739.374
406.8197, 5753.537
407.3018, 5764.414
407.7839, 5772.207
408.2661, 5774.923
408.7482, 5773.368
409.2303, 5775.909
409.7124, 5786.467
410.1945, 5801.301
410.6766, 5813.124
411.1588, 5821.966
411.6409, 5827.388
412.1230, 5820.497
412.6051, 5810.887
413.0872, 5819.326
413.5693, 5854.988
414.0515, 5900.335
414.5336, 5949.767
415.0157, 5996.930
415.4978, 6023.336
415.9799, 5969.953
416.4620, 5918.416
416.9442, 5960.963
417.4263, 6140.733
417.9084, 6290.902
418.3905, 6290.631
418.8726, 6206.944
419.3547, 6141.688
419.8369, 6127.737
420.3190, 6139.352
420.8011, 6175.764
421.2832, 6240.915
421.7653, 6289.898
422.2474, 6302.807
422.7296, 6301.346
423.2117, 6304.994
423.6938, 6298.371
424.1759, 6316.843
424.6580, 6374.127
425.1401, 6466.000
425.6223, 6549.202
426.1043, 6619.629
426.5865, 6687.328
427.0686, 6758.015
427.5507, 6829.437
428.0328, 6910.492
428.5149, 7005.802
428.9970, 7107.982
429.4792, 7200.470
429.9613, 7285.943
430.4434, 7354.466
430.9255, 7401.979
431.4076, 7428.418
431.8897, 7436.095
432.3719, 7423.800
432.8540, 7396.545
433.3361, 7352.598
433.8182, 7294.905
434.3003, 7249.105
434.7824, 7224.461
435.2646, 7218.276
435.7467, 7228.826
436.2288, 7256.173
436.7109, 7289.020
437.1930, 7312.155
437.6751, 7335.720
438.1573, 7377.122
438.6394, 7448.655
439.1215, 7530.829
439.6036, 7610.751
440.0857, 7688.873
440.5678, 7766.800
441.0500, 7833.862
441.5321, 7908.398
442.0142, 8017.968
442.4963, 8214.788
442.9784, 8332.080
443.4605, 8259.764
443.9427, 8082.082
444.4248, 7944.821
444.9069, 7898.247
445.3890, 7875.300
445.8711, 7865.152
446.3532, 7876.774
446.8354, 7853.330
447.3175, 7789.574
447.7996, 7694.424
448.2817, 7572.500
448.7638, 7409.222
449.2459, 7246.923
449.7281, 7089.131
450.2102, 6936.737
450.6923, 6785.933
451.1744, 6627.189
451.6565, 6493.446
452.1386, 6418.599
452.6208, 6404.750
453.1029, 6378.799
453.5850, 6330.064
454.0671, 6274.087
454.5492, 6237.958
455.0313, 6220.523
455.5135, 6211.023
455.9956, 6203.271
456.4777, 6199.360
456.9598, 6204.521
457.4419, 6219.159
457.9240, 6239.567
458.4062, 6266.584
458.8883, 6296.519
459.3704, 6321.983
459.8525, 6334.412
460.3346, 6346.573
460.8167, 6372.959
461.2989, 6410.769
461.7810, 6439.188
462.2631, 6433.847
462.7452, 6424.648
463.2273, 6434.455
463.7094, 6477.496
464.1916, 6523.626
464.6737, 6568.532
465.1558, 6611.382
465.6379, 6650.338
466.1200, 6672.997
466.6021, 6703.404
467.0842, 6750.083
467.5663, 6817.695
468.0485, 6881.467
468.5306, 6936.724
469.0127, 6992.025
469.4948, 7057.040
469.9769, 7134.739
470.4590, 7212.688
470.9412, 7287.529
471.4233, 7360.742
471.9054, 7450.542
472.3875, 7565.910
472.8696, 7650.697
473.3517, 7650.197
473.8339, 7576.097
474.3160, 7512.545
474.7981, 7473.608
475.2802, 7434.597
475.7623, 7356.081
476.2444, 7245.829
476.7266, 7134.482
477.2087, 7026.212
477.6908, 6931.058
478.1729, 6866.410
478.6550, 6833.225
479.1371, 6800.864
479.6193, 6739.911
480.1014, 6670.960
480.5835, 6617.856
481.0656, 6590.483
481.5477, 6577.788
482.0298, 6582.396
482.5120, 6599.753
482.9941, 6611.215
483.4762, 6598.986
483.9583, 6589.993
484.4404, 6598.044
484.9225, 6634.343
485.4047, 6667.466
485.8868, 6700.686
486.3689, 6729.298
486.8510, 6744.507
487.3331, 6733.270
487.8152, 6735.487
488.2974, 6764.236
488.7795, 6818.092
489.2616, 6867.587
489.7437, 6910.627
490.2258, 6955.954
490.7079, 7009.534
491.1901, 7071.746
491.6722, 7144.831
492.1543, 7238.293
492.6364, 7327.412
493.1185, 7374.973
493.6006, 7382.084
494.0828, 7358.648
494.5649, 7299.051
495.0470, 7216.461
495.5291, 7127.914
496.0112, 7035.024
496.4933, 6933.515
496.9755, 6798.735
497.4576, 6659.950
497.9397, 6550.426
498.4218, 6508.823
498.9039, 6474.323
499.3860, 6417.139
499.8682, 6343.790
500.3503, 6286.421
500.8324, 6267.073
501.3145, 6255.952
501.7966, 6238.190
502.2787, 6210.657
502.7609, 6180.720
503.2430, 6139.351
503.7251, 6099.903
504.2072, 6084.780
504.6893, 6107.393
505.1714, 6123.057
505.6536, 6116.421
506.1357, 6090.696
506.6178, 6080.094
507.0999, 6086.884
507.5820, 6098.765
508.0641, 6107.054
508.5462, 6111.796
509.0284, 6113.033
509.5105, 6108.534
509.9926, 6105.480
510.4747, 6117.311
510.9568, 6140.621
511.4389, 6162.172
511.9211, 6179.839
512.4032, 6189.622
512.8853, 6181.165
513.3674, 6153.569
513.8495, 6133.257
514.3317, 6144.446
514.8138, 6167.087
515.2959, 6181.114
515.7780, 6168.726
516.2601, 6160.567
516.7422, 6171.545
517.2244, 6194.660
517.7065, 6204.623
518.1886, 6182.668
518.6707, 6161.857
519.1528, 6153.974
519.6349, 6162.772
520.1171, 6170.387
520.5992, 6176.417
521.0813, 6181.809
521.5634, 6188.889
522.0455, 6198.961
522.5276, 6202.328
523.0098, 6192.068
523.4919, 6176.260
523.9740, 6183.331
524.4561, 6213.711
524.9382, 6247.903
525.4203, 6273.021
525.9025, 6292.119
526.3846, 6308.888
526.8667, 6320.646
527.3488, 6346.565
527.8309, 6431.135
528.3130, 6540.101
528.7951, 6611.280
529.2772, 6588.581
529.7593, 6548.641
530.2415, 6532.314
530.7236, 6538.283
531.2057, 6549.339
531.6878, 6562.211
532.1699, 6576.726
532.6520, 6593.833
533.1342, 6626.257
533.6163, 6637.998
534.0984, 6607.051
534.5805, 6564.491
535.0626, 6561.025
535.5447, 6621.941
536.0269, 6666.935
536.5090, 6665.240
536.9911, 6626.046
537.4732, 6630.063
537.9553, 6684.602
538.4374, 6749.721
538.9196, 6800.011
539.4017, 6835.584
539.8838, 6853.542
540.3659, 6847.199
540.8480, 6842.785
541.3301, 6883.900
541.8123, 6955.374
542.2944, 7016.217
542.7765, 7028.425
543.2586, 7033.907
543.7407, 7074.640
544.2228, 7148.694
544.7050, 7216.119
545.1871, 7253.895
545.6692, 7279.741
546.1513, 7306.342
546.6334, 7334.713
547.1155, 7365.588
547.5977, 7388.971
548.0798, 7417.155
548.5619, 7474.368
549.0440, 7586.208
549.5261, 7687.660
550.0082, 7757.289
550.4904, 7796.457
550.9725, 7853.345
551.4546, 7931.093
551.9367, 8017.979
552.4188, 8106.610
552.9009, 8196.966
553.3831, 8282.947
553.8652, 8364.205
554.3473, 8440.552
554.8294, 8509.436
555.3115, 8572.277
555.7936, 8632.972
556.2758, 8710.694
556.7579, 8775.737
557.2400, 8800.040
557.7221, 8783.661
558.2042, 8734.369
558.6863, 8635.891
559.1685, 8518.299
559.6506, 8404.158
560.1327, 8298.901
560.6148, 8196.979
561.0969, 8093.733
561.5790, 7993.248
562.0612, 7902.167
562.5433, 7824.808
563.0254, 7750.853
563.5075, 7669.249
563.9896, 7584.509
564.4717, 7546.656
564.9539, 7563.748
565.4360, 7605.137
565.9181, 7653.535
566.4002, 7708.237
566.8823, 7764.634
567.3644, 7822.568
567.8466, 7882.122
568.3287, 7946.084
568.8108, 8012.177
569.2929, 8074.631
569.7750, 8133.961
570.2571, 8185.751
570.7393, 8227.111
571.2214, 8257.781
571.7035, 8272.638
572.1856, 8255.089
572.6677, 8231.117
573.1498, 8216.169
573.6320, 8209.061
574.1141, 8219.948
574.5962, 8258.156
575.0783, 8312.794
575.5604, 8369.110
576.0425, 8426.226
576.5247, 8487.667
577.0068, 8550.693
577.4889, 8618.783
577.9710, 8707.571
578.4531, 8819.037
578.9352, 8940.554
579.4174, 9075.715
579.8995, 9217.100
580.3816, 9330.489
580.8637, 9415.964
581.3458, 9462.722
581.8279, 9452.703
582.3101, 9394.981
582.7922, 9307.338
583.2743, 9191.100
583.7564, 9054.612
584.2385, 8892.620
584.7206, 8712.995
585.2028, 8537.995
585.6849, 8356.244
586.1670, 8198.063
586.6491, 8079.354
587.1312, 8004.886
587.6133, 7951.247
588.0955, 7922.795
588.5776, 7908.049
589.0597, 7898.671
589.5418, 7894.572
590.0239, 7894.142
590.5060, 7892.104
590.9882, 7898.890
591.4703, 7950.464
591.9524, 8048.572
592.4345, 8121.313
592.9166, 8123.845
593.3987, 8083.036
593.8809, 8071.956
594.3630, 8088.276
594.8451, 8081.330
595.3272, 7999.824
595.8093, 7879.583
596.2914, 7763.305
596.7736, 7659.762
597.2557, 7556.397
597.7378, 7440.698
598.2199, 7322.630
598.7020, 7218.026
599.1841, 7132.991
599.6663, 7058.779
600.1484, 6995.359
600.6305, 6941.692
601.1126, 6893.324
601.5947, 6848.818
602.0768, 6812.907
602.5590, 6789.392
603.0411, 6779.365
603.5232, 6773.481
604.0053, 6773.851
604.4874, 6770.382
604.9695, 6729.583
605.4517, 6670.396
605.9338, 6673.339
606.4159, 6792.703
606.8980, 6927.577
607.3801, 6965.068
607.8622, 6927.772
608.3444, 6877.176
608.8265, 6822.405
609.3086, 6779.617
609.7907, 6767.499
610.2728, 6789.662
610.7549, 6789.422
611.2370, 6729.030
611.7191, 6662.016
612.2012, 6622.333
612.6833, 6629.182
613.1655, 6624.344
613.6476, 6600.963
614.1297, 6571.711
614.6118, 6560.251
615.0939, 6568.559
615.5760, 6570.271
616.0582, 6552.339
616.5403, 6526.435
617.0224, 6525.983
617.5045, 6547.960
617.9866, 6563.052
618.4688, 6533.497
618.9509, 6495.741
619.4330, 6500.308
619.9151, 6557.435
620.3972, 6603.452
620.8793, 6582.901
621.3615, 6544.980
621.8436, 6536.954
622.3257, 6610.422
622.8078, 6663.621
623.2899, 6675.446
623.7720, 6661.859
624.2542, 6656.193
624.7363, 6665.169
625.2184, 6666.913
625.7005, 6650.018
626.1826, 6618.514
626.6647, 6607.604
627.1469, 6618.823
627.6290, 6635.020
628.1111, 6647.227
628.5932, 6654.132
629.0753, 6652.268
629.5574, 6641.263
630.0396, 6621.579
630.5217, 6585.071
631.0038, 6542.378
631.4859, 6466.505
631.9680, 6508.021
632.4501, 6528.593
632.9323, 6529.346
633.4144, 6450.926
633.8965, 6474.744
634.3786, 6457.589
634.8607, 6438.754
635.3428, 6476.961
635.8250, 6410.056
636.3071, 6447.357
636.7892, 6443.062
637.2713, 6457.805
637.7534, 6431.323
638.2355, 6417.574
638.7177, 6445.062
639.1998, 6409.860
639.6819, 6403.909
640.1640, 6406.339
640.6461, 6414.138
641.1282, 6420.418
641.6104, 6421.759
642.0925, 6421.774
642.5746, 6424.716
643.0567, 6428.549
643.5388, 6426.714
644.0209, 6404.035
644.5031, 6387.081
644.9852, 6389.970
