##NAMES=Hutchinsonite
##RRUFFID=R060789
##IDEAL CHEMISTRY=Pb^2+^Tl^1+^As^3+^_5_S^2-^_9_
##LOCALITY=Peru
##OWNER=RRUFF
##SOURCE=Michael Scott
##DESCRIPTION=Deep red acicular crystals
##STATUS=The identification of this mineral has been confirmed by single-crystal X-ray diffraction.
##URL=rruff.info/R060789
131.1654, 1278.809
131.6475, 1288.151
132.1296, 1290.913
132.6117, 1287.637
133.0938, 1288.708
133.5759, 1297.427
134.0581, 1314.122
134.5402, 1343.600
135.0223, 1389.668
135.5044, 1444.109
135.9865, 1486.065
136.4686, 1512.613
136.9508, 1541.973
137.4329, 1589.727
137.9150, 1658.860
138.3971, 1718.272
138.8792, 1762.559
139.3613, 1794.336
139.8434, 1826.499
140.3256, 1858.468
140.8077, 1892.601
141.2898, 1933.991
141.7719, 1988.781
142.2540, 2032.807
142.7361, 2058.826
143.2183, 2066.272
143.7004, 2077.177
144.1825, 2098.867
144.6646, 2117.712
145.1467, 2116.203
145.6288, 2083.141
146.1110, 2045.800
146.5931, 2010.947
147.0752, 1979.555
147.5573, 1946.374
148.0394, 1913.063
148.5215, 1877.688
149.0037, 1835.679
149.4858, 1769.578
149.9679, 1713.381
150.4500, 1679.460
150.9321, 1695.800
151.4142, 1693.070
151.8964, 1657.099
152.3785, 1599.534
152.8606, 1556.092
153.3427, 1536.169
153.8248, 1525.270
154.3069, 1516.418
154.7890, 1516.028
155.2712, 1509.957
155.7533, 1492.583
156.2354, 1465.826
156.7175, 1443.244
157.1996, 1424.357
157.6817, 1411.967
158.1639, 1408.032
158.6460, 1420.199
159.1281, 1434.097
159.6102, 1446.186
160.0923, 1456.256
160.5744, 1464.088
161.0566, 1468.954
161.5387, 1471.585
162.0208, 1472.791
162.5029, 1469.617
162.9850, 1467.433
163.4671, 1468.695
163.9493, 1473.658
164.4314, 1481.600
164.9135, 1492.465
165.3956, 1506.060
165.8777, 1522.081
166.3598, 1546.959
166.8420, 1570.313
167.3241, 1583.383
167.8062, 1582.425
168.2883, 1579.469
168.7704, 1581.976
169.2525, 1588.592
169.7346, 1595.925
170.2168, 1604.112
170.6989, 1611.258
171.1810, 1614.415
171.6631, 1610.030
172.1452, 1606.949
172.6273, 1617.774
173.1095, 1638.636
173.5916, 1653.152
174.0737, 1643.913
174.5558, 1622.826
175.0379, 1608.160
175.5201, 1606.979
176.0022, 1611.612
176.4843, 1616.102
176.9664, 1619.983
177.4485, 1618.274
177.9306, 1602.640
178.4128, 1578.377
178.8949, 1556.943
179.3770, 1544.555
179.8591, 1536.017
180.3412, 1522.534
180.8233, 1503.858
181.3055, 1483.850
181.7876, 1463.732
182.2697, 1444.676
182.7518, 1430.064
183.2339, 1422.281
183.7160, 1419.963
184.1981, 1421.021
184.6803, 1425.922
185.1624, 1431.382
185.6445, 1437.087
186.1266, 1430.097
186.6087, 1446.858
187.0908, 1457.151
187.5730, 1461.324
188.0551, 1441.045
188.5372, 1452.340
189.0193, 1450.982
189.5014, 1449.104
189.9835, 1464.844
190.4657, 1448.121
190.9478, 1463.581
191.4299, 1466.194
191.9120, 1475.831
192.3941, 1480.924
192.8762, 1480.575
193.3584, 1476.299
193.8405, 1467.863
194.3226, 1459.991
194.8047, 1456.720
195.2868, 1457.861
195.7689, 1455.844
196.2511, 1447.231
196.7332, 1437.288
197.2153, 1443.465
197.6974, 1468.592
198.1795, 1493.263
198.6616, 1500.065
199.1437, 1487.553
199.6259, 1480.457
200.1080, 1478.630
200.5901, 1474.204
201.0722, 1467.319
201.5543, 1450.606
202.0364, 1446.583
202.5186, 1424.674
203.0007, 1429.710
203.4828, 1436.097
203.9649, 1439.312
204.4470, 1439.925
204.9291, 1442.116
205.4113, 1446.483
205.8934, 1450.860
206.3755, 1452.295
206.8576, 1449.472
207.3397, 1449.520
207.8218, 1453.892
208.3040, 1462.543
208.7861, 1475.233
209.2682, 1493.337
209.7503, 1512.971
210.2324, 1531.105
210.7145, 1549.205
211.1967, 1560.269
211.6788, 1559.997
212.1609, 1547.699
212.6430, 1541.994
213.1251, 1542.727
213.6072, 1550.390
214.0894, 1568.748
214.5715, 1605.145
215.0536, 1632.745
215.5357, 1639.329
216.0178, 1620.625
216.4999, 1617.784
216.9820, 1637.448
217.4642, 1666.543
217.9463, 1685.851
218.4284, 1691.642
218.9105, 1695.359
219.3926, 1702.180
219.8747, 1715.045
220.3569, 1716.117
220.8390, 1701.305
221.3211, 1677.573
221.8032, 1656.178
222.2853, 1638.923
222.7674, 1620.935
223.2496, 1598.282
223.7317, 1564.347
224.2138, 1549.067
224.6959, 1562.817
225.1780, 1589.776
225.6601, 1597.481
226.1423, 1577.179
226.6244, 1552.376
227.1065, 1531.392
227.5886, 1512.596
228.0707, 1502.088
228.5528, 1504.327
229.0350, 1513.282
229.5171, 1513.385
229.9992, 1497.856
230.4813, 1483.875
230.9634, 1479.873
231.4455, 1493.476
231.9276, 1499.728
232.4098, 1496.735
232.8919, 1486.674
233.3740, 1475.237
233.8561, 1459.010
234.3382, 1446.331
234.8203, 1441.626
235.3025, 1449.492
235.7846, 1455.735
236.2667, 1460.150
236.7488, 1462.782
237.2309, 1463.326
237.7130, 1460.214
238.1952, 1457.229
238.6773, 1456.736
239.1594, 1461.780
239.6415, 1462.509
240.1236, 1455.657
240.6057, 1444.196
241.0879, 1439.342
241.5700, 1442.209
242.0521, 1450.236
242.5342, 1464.273
243.0163, 1494.802
243.4984, 1508.051
243.9806, 1493.328
244.4627, 1459.465
244.9448, 1444.026
245.4269, 1458.148
245.9090, 1475.984
246.3911, 1482.117
246.8732, 1466.946
247.3554, 1461.015
247.8375, 1471.004
248.3196, 1492.150
248.8017, 1501.856
249.2838, 1494.203
249.7659, 1483.129
250.2481, 1475.980
250.7302, 1472.387
251.2123, 1473.956
251.6944, 1482.711
252.1765, 1491.810
252.6586, 1506.267
253.1408, 1518.128
253.6229, 1527.526
254.1050, 1527.098
254.5871, 1539.359
255.0692, 1546.535
255.5513, 1553.503
256.0334, 1567.549
256.5156, 1568.553
256.9977, 1582.488
257.4798, 1591.259
257.9619, 1602.394
258.4440, 1608.412
258.9261, 1616.010
259.4083, 1628.729
259.8904, 1619.035
260.3725, 1619.444
260.8546, 1627.691
261.3367, 1639.237
261.8188, 1649.512
262.3010, 1653.919
262.7831, 1672.755
263.2652, 1716.101
263.7473, 1774.343
264.2294, 1807.790
264.7115, 1807.945
265.1937, 1799.079
265.6758, 1794.651
266.1579, 1793.799
266.6400, 1800.872
267.1221, 1817.192
267.6042, 1841.589
268.0864, 1869.527
268.5685, 1902.350
269.0506, 1936.391
269.5327, 1969.507
270.0148, 2001.548
270.4969, 2034.175
270.9791, 2069.413
271.4612, 2104.708
271.9433, 2128.705
272.4254, 2138.023
272.9075, 2146.056
273.3896, 2161.816
273.8718, 2186.560
274.3539, 2207.959
274.8360, 2220.997
275.3181, 2232.907
275.8002, 2269.661
276.2823, 2338.613
276.7645, 2403.385
277.2466, 2439.017
277.7287, 2442.252
278.2108, 2449.863
278.6929, 2466.891
279.1750, 2487.864
279.6572, 2500.311
280.1393, 2504.013
280.6214, 2500.187
281.1035, 2486.799
281.5856, 2463.760
282.0677, 2442.835
282.5499, 2423.746
283.0320, 2408.797
283.5141, 2405.090
283.9962, 2413.559
284.4783, 2422.655
284.9604, 2425.853
285.4425, 2423.479
285.9247, 2418.587
286.4068, 2409.446
286.8889, 2397.120
287.3710, 2388.889
287.8531, 2378.059
288.3352, 2364.769
288.8174, 2341.650
289.2995, 2331.223
289.7816, 2315.711
290.2637, 2299.990
290.7458, 2291.349
291.2279, 2269.661
291.7101, 2260.904
292.1922, 2246.988
292.6743, 2235.435
293.1564, 2218.765
293.6385, 2203.675
294.1206, 2193.703
294.6028, 2180.894
295.0849, 2152.760
295.5670, 2140.972
296.0491, 2125.240
296.5312, 2098.035
297.0133, 2062.032
297.4955, 2019.207
297.9776, 1968.697
298.4597, 1923.038
298.9418, 1900.527
299.4239, 1895.592
299.9060, 1891.385
300.3882, 1880.344
300.8703, 1865.131
301.3524, 1849.633
301.8345, 1833.835
302.3166, 1818.255
302.7987, 1799.255
303.2809, 1780.633
303.7630, 1770.216
304.2451, 1776.857
304.7272, 1790.714
305.2093, 1799.778
305.6914, 1803.970
306.1736, 1809.981
306.6557, 1824.545
307.1378, 1844.202
307.6199, 1863.513
308.1020, 1885.149
308.5841, 1902.630
309.0663, 1907.741
309.5484, 1901.479
310.0305, 1895.946
310.5126, 1898.663
310.9947, 1906.402
311.4768, 1915.469
311.9590, 1925.228
312.4411, 1935.455
312.9232, 1947.494
313.4053, 1960.655
313.8874, 1970.293
314.3695, 1968.194
314.8516, 1964.654
315.3337, 1969.070
315.8159, 1990.889
316.2980, 2012.470
316.7801, 2025.756
317.2622, 2032.438
317.7443, 2039.489
318.2264, 2048.127
318.7086, 2058.920
319.1907, 2072.180
319.6728, 2087.669
320.1549, 2106.161
320.6370, 2132.970
321.1191, 2163.526
321.6013, 2185.675
322.0834, 2191.151
322.5655, 2191.186
323.0476, 2190.649
323.5297, 2189.960
324.0118, 2188.885
324.4940, 2186.187
324.9761, 2183.134
325.4582, 2182.167
325.9403, 2187.669
326.4224, 2191.640
326.9045, 2189.523
327.3867, 2173.912
327.8688, 2170.652
328.3509, 2187.762
328.8330, 2215.262
329.3151, 2239.882
329.7972, 2264.881
330.2794, 2283.214
330.7615, 2291.725
331.2436, 2288.044
331.7257, 2287.976
332.2078, 2299.054
332.6899, 2308.360
333.1721, 2300.352
333.6542, 2263.816
334.1363, 2229.905
334.6184, 2201.897
335.1005, 2180.079
335.5826, 2175.607
336.0648, 2196.375
336.5469, 2223.578
337.0290, 2240.740
337.5111, 2245.173
337.9932, 2248.246
338.4753, 2252.178
338.9575, 2256.144
339.4396, 2253.990
339.9217, 2242.076
340.4038, 2234.220
340.8859, 2241.386
341.3680, 2264.426
341.8502, 2292.564
342.3323, 2325.346
342.8144, 2361.038
343.2965, 2396.017
343.7786, 2431.203
344.2607, 2459.833
344.7429, 2475.965
345.2250, 2480.826
345.7071, 2486.141
346.1892, 2493.736
346.6713, 2500.382
347.1534, 2499.024
347.6355, 2490.526
348.1176, 2484.194
348.5998, 2483.756
349.0819, 2488.651
349.5640, 2479.384
350.0461, 2467.516
350.5282, 2453.190
351.0103, 2429.036
351.4925, 2417.569
351.9746, 2401.019
352.4567, 2384.261
352.9388, 2374.583
353.4209, 2351.859
353.9030, 2342.068
354.3852, 2308.291
354.8673, 2301.474
355.3494, 2307.208
355.8315, 2310.505
356.3136, 2290.762
356.7957, 2279.754
357.2779, 2309.049
357.7600, 2374.336
358.2421, 2444.083
358.7242, 2494.182
359.2063, 2543.739
359.6884, 2611.596
360.1706, 2713.528
360.6527, 2818.945
361.1348, 2918.130
361.6169, 3010.599
362.0990, 3092.974
362.5811, 3153.356
363.0633, 3211.706
363.5454, 3283.156
364.0275, 3385.684
364.5096, 3465.780
364.9917, 3501.258
365.4738, 3507.246
365.9560, 3510.790
366.4381, 3538.247
366.9202, 3544.408
367.4023, 3509.461
367.8844, 3420.141
368.3665, 3336.400
368.8487, 3255.695
369.3308, 3183.638
369.8129, 3128.014
370.2950, 3107.610
370.7771, 3079.112
371.2592, 3033.093
371.7414, 2969.793
372.2235, 2906.326
372.7056, 2846.408
373.1877, 2781.754
373.6698, 2703.238
374.1519, 2600.335
374.6341, 2511.103
375.1162, 2438.094
375.5983, 2382.789
376.0804, 2357.434
376.5625, 2370.750
377.0446, 2389.822
377.5267, 2391.659
378.0089, 2373.647
378.4910, 2371.418
378.9731, 2391.189
379.4552, 2421.132
379.9373, 2437.869
380.4194, 2441.121
380.9016, 2445.198
381.3837, 2457.956
381.8658, 2477.821
382.3479, 2496.731
382.8300, 2514.430
383.3121, 2532.057
383.7943, 2551.135
384.2764, 2571.099
384.7585, 2590.067
385.2406, 2605.034
385.7227, 2619.642
386.2048, 2642.062
386.6870, 2671.535
387.1691, 2697.518
387.6512, 2715.431
388.1333, 2723.155
388.6154, 2718.280
389.0975, 2703.171
389.5797, 2670.243
390.0618, 2613.159
390.5439, 2532.894
391.0260, 2434.717
391.5081, 2305.584
391.9902, 2169.856
392.4724, 2044.518
392.9545, 1934.358
393.4366, 1832.123
393.9187, 1725.472
394.4008, 1626.968
394.8829, 1553.497
395.3651, 1535.901
395.8472, 1522.794
396.3293, 1490.096
396.8114, 1431.773
397.2935, 1387.526
397.7756, 1371.224
398.2578, 1368.319
398.7399, 1365.344
399.2220, 1359.127
399.7041, 1355.476
400.1862, 1359.118
400.6683, 1368.328
401.1505, 1364.453
401.6326, 1332.631
402.1147, 1304.075
402.5968, 1299.453
403.0789, 1337.592
403.5610, 1352.502
404.0432, 1333.438
404.5253, 1294.374
405.0074, 1266.758
405.4895, 1251.621
405.9716, 1244.833
406.4537, 1247.907
406.9359, 1261.197
407.4180, 1266.816
407.9001, 1264.216
408.3822, 1255.341
408.8643, 1237.403
409.3464, 1211.160
409.8285, 1196.073
410.3106, 1201.673
410.7928, 1221.134
411.2749, 1240.008
411.7570, 1258.350
412.2391, 1272.051
412.7212, 1277.394
413.2033, 1275.750
413.6855, 1268.965
414.1676, 1254.471
414.6497, 1241.123
415.1318, 1243.233
415.6139, 1255.816
416.0960, 1263.006
416.5782, 1251.274
417.0603, 1232.763
417.5424, 1216.530
418.0245, 1202.454
418.5066, 1198.003
418.9887, 1215.308
419.4709, 1242.488
419.9530, 1264.146
420.4351, 1274.999
420.9172, 1279.146
421.3993, 1275.018
421.8814, 1263.230
422.3636, 1254.682
422.8457, 1253.953
423.3278, 1256.011
423.8099, 1257.695
424.2920, 1254.352
424.7741, 1256.041
425.2563, 1269.080
425.7384, 1287.716
426.2205, 1295.383
426.7026, 1287.243
427.1847, 1274.506
427.6668, 1259.066
428.1490, 1237.760
428.6311, 1228.938
429.1132, 1238.055
429.5953, 1253.190
430.0774, 1258.119
430.5595, 1250.542
431.0417, 1243.983
431.5238, 1241.771
432.0059, 1243.335
432.4880, 1245.709
432.9701, 1248.707
433.4522, 1253.793
433.9344, 1266.755
434.4165, 1284.700
434.8986, 1290.541
435.3807, 1280.404
435.8628, 1260.654
436.3449, 1234.095
436.8271, 1203.744
437.3092, 1183.133
437.7913, 1183.038
438.2734, 1195.668
438.7555, 1216.300
439.2376, 1245.604
439.7197, 1264.613
440.2018, 1243.376
440.6840, 1207.104
441.1661, 1190.032
441.6482, 1230.225
442.1303, 1269.453
442.6124, 1271.849
443.0945, 1244.599
443.5767, 1224.170
444.0588, 1231.457
444.5409, 1243.988
445.0230, 1248.412
445.5051, 1238.555
445.9872, 1229.046
446.4694, 1222.102
446.9515, 1216.801
447.4336, 1211.595
447.9157, 1203.363
448.3978, 1198.955
448.8799, 1202.022
449.3621, 1213.519
449.8442, 1217.839
450.3263, 1212.120
450.8084, 1203.118
451.2905, 1194.819
451.7726, 1185.520
452.2548, 1185.129
452.7369, 1198.129
453.2190, 1218.329
453.7011, 1230.185
454.1832, 1233.255
454.6653, 1231.147
455.1475, 1222.226
455.6296, 1208.714
456.1117, 1203.729
456.5938, 1208.997
457.0759, 1215.386
457.5580, 1211.097
458.0402, 1199.275
458.5223, 1188.965
459.0044, 1181.171
459.4865, 1178.215
459.9686, 1184.658
460.4507, 1199.258
460.9329, 1215.319
461.4150, 1231.014
461.8971, 1244.576
462.3792, 1253.710
462.8613, 1255.848
463.3434, 1258.943
463.8256, 1268.869
464.3077, 1281.667
464.7898, 1291.088
465.2719, 1299.836
465.7540, 1300.489
466.2361, 1285.182
466.7183, 1251.907
467.2004, 1231.659
467.6825, 1241.435
468.1646, 1254.191
468.6467, 1251.652
469.1288, 1216.352
469.6109, 1197.937
470.0930, 1207.339
470.5752, 1231.886
471.0573, 1237.318
471.5394, 1216.245
472.0215, 1196.789
472.5036, 1191.454
472.9857, 1200.027
473.4679, 1208.545
473.9500, 1217.393
474.4321, 1224.378
474.9142, 1227.085
475.3963, 1225.758
475.8784, 1221.268
476.3606, 1211.870
476.8427, 1202.031
477.3248, 1200.215
477.8069, 1205.191
478.2890, 1210.629
478.7711, 1211.418
479.2533, 1211.058
479.7354, 1214.312
480.2175, 1222.287
480.6996, 1230.035
481.1817, 1238.009
481.6638, 1242.631
482.1460, 1239.157
482.6281, 1216.050
483.1102, 1194.216
483.5923, 1177.861
484.0744, 1167.934
484.5565, 1170.087
485.0387, 1201.184
485.5208, 1232.494
486.0029, 1249.832
486.4850, 1249.905
486.9671, 1242.113
487.4492, 1220.839
487.9314, 1195.107
488.4135, 1178.151
488.8956, 1172.824
489.3777, 1170.297
489.8598, 1170.976
490.3419, 1173.283
490.8241, 1161.408
491.3062, 1131.010
491.7883, 1105.348
492.2704, 1107.480
492.7525, 1133.238
493.2346, 1147.144
493.7168, 1142.508
494.1989, 1132.687
494.6810, 1137.100
495.1631, 1152.089
495.6452, 1164.838
496.1273, 1167.733
496.6095, 1166.036
497.0916, 1165.482
497.5737, 1165.973
498.0558, 1165.988
498.5379, 1166.765
499.0201, 1165.517
499.5022, 1158.677
499.9843, 1139.996
500.4664, 1126.094
500.9485, 1127.535
501.4306, 1137.100
501.9127, 1141.845
502.3948, 1127.973
502.8770, 1120.497
503.3591, 1131.510
503.8412, 1162.427
504.3233, 1177.560
504.8054, 1164.512
505.2875, 1149.226
505.7697, 1152.649
506.2518, 1185.685
506.7339, 1197.403
507.2160, 1175.727
507.6981, 1140.417
508.1802, 1134.784
508.6624, 1160.778
509.1445, 1183.679
509.6266, 1186.295
510.1087, 1175.073
510.5908, 1170.282
511.0729, 1171.967
511.5551, 1177.664
512.0372, 1188.937
512.5193, 1202.149
513.0014, 1210.150
513.4835, 1210.463
513.9656, 1208.043
514.4478, 1209.909
514.9299, 1211.820
515.4120, 1205.152
515.8941, 1169.063
516.3762, 1138.177
516.8583, 1134.857
517.3405, 1160.076
517.8226, 1180.375
518.3047, 1188.731
518.7868, 1189.465
519.2689, 1185.069
519.7510, 1170.036
520.2332, 1158.216
520.7153, 1149.797
521.1974, 1144.681
521.6795, 1142.488
522.1616, 1142.219
522.6437, 1148.364
523.1259, 1166.855
523.6080, 1194.456
524.0901, 1201.159
524.5722, 1183.914
525.0543, 1162.966
525.5364, 1154.123
526.0186, 1155.175
526.5007, 1158.284
526.9828, 1164.161
527.4649, 1165.748
527.9470, 1146.454
528.4291, 1115.848
528.9113, 1096.519
529.3934, 1112.092
529.8755, 1132.968
530.3576, 1131.716
530.8397, 1111.498
531.3218, 1099.689
531.8040, 1123.899
532.2861, 1150.843
532.7682, 1155.975
533.2503, 1122.387
533.7324, 1097.427
534.2145, 1084.738
534.6967, 1085.220
535.1788, 1101.680
535.6609, 1155.326
536.1430, 1190.016
536.6251, 1189.222
537.1072, 1159.663
537.5894, 1140.294
538.0715, 1132.060
538.5536, 1130.947
539.0357, 1138.936
539.5178, 1154.954
539.9999, 1157.670
540.4821, 1143.523
540.9642, 1128.589
541.4463, 1136.002
541.9284, 1158.641
542.4105, 1173.340
542.8926, 1169.378
543.3748, 1158.555
543.8569, 1152.986
544.3390, 1151.359
544.8211, 1149.004
545.3032, 1135.729
545.7853, 1126.594
546.2675, 1135.266
546.7495, 1165.898
547.2316, 1190.955
547.7137, 1204.351
548.1959, 1207.951
548.6780, 1203.318
549.1601, 1174.794
549.6422, 1159.874
550.1243, 1167.504
550.6064, 1187.802
551.0886, 1196.807
551.5707, 1191.579
552.0528, 1182.403
552.5349, 1170.722
553.0170, 1157.414
553.4991, 1152.664
553.9813, 1157.215
554.4634, 1165.185
554.9455, 1172.731
555.4276, 1179.710
555.9097, 1184.829
556.3918, 1187.064
556.8740, 1190.317
557.3561, 1201.830
557.8382, 1217.339
558.3203, 1228.051
558.8024, 1228.161
559.2845, 1224.017
559.7667, 1218.403
560.2488, 1211.622
560.7309, 1204.840
561.2130, 1200.916
561.6951, 1195.162
562.1772, 1183.839
562.6594, 1161.286
563.1415, 1146.972
563.6236, 1143.492
564.1057, 1146.608
564.5878, 1153.034
565.0699, 1164.896
565.5521, 1173.402
566.0342, 1176.805
566.5163, 1176.210
566.9984, 1172.303
567.4805, 1164.649
567.9626, 1162.787
568.4448, 1179.327
568.9269, 1204.720
569.4090, 1210.557
569.8911, 1196.548
570.3732, 1178.170
570.8553, 1164.788
571.3375, 1156.079
571.8196, 1151.816
572.3017, 1151.422
572.7838, 1156.339
573.2659, 1177.083
573.7480, 1201.711
574.2302, 1211.169
574.7123, 1182.798
575.1944, 1156.379
575.6765, 1142.616
576.1586, 1141.079
576.6407, 1144.698
577.1229, 1158.025
577.6050, 1170.541
578.0871, 1177.243
578.5692, 1177.526
579.0513, 1175.903
579.5334, 1172.476
580.0156, 1166.947
580.4977, 1155.972
580.9798, 1140.772
581.4619, 1134.900
581.9440, 1145.907
582.4261, 1159.367
582.9083, 1145.551
583.3904, 1113.929
583.8725, 1095.778
584.3546, 1124.275
584.8367, 1160.482
585.3188, 1171.572
585.8010, 1157.355
586.2831, 1141.759
586.7652, 1132.509
587.2473, 1126.991
587.7294, 1123.158
588.2115, 1119.058
588.6937, 1120.491
589.1758, 1133.866
589.6579, 1149.105
590.1400, 1152.698
590.6221, 1138.730
591.1042, 1128.622
591.5864, 1126.691
592.0685, 1130.981
592.5506, 1136.898
593.0327, 1144.639
593.5148, 1150.390
593.9969, 1151.255
594.4791, 1148.671
594.9612, 1143.839
595.4433, 1136.860
595.9254, 1136.524
596.4075, 1164.403
596.8896, 1197.168
597.3718, 1201.476
597.8539, 1156.790
598.3360, 1118.633
598.8181, 1121.767
599.3002, 1145.737
599.7823, 1160.328
600.2645, 1145.106
600.7466, 1136.444
601.2287, 1146.711
601.7108, 1170.377
602.1929, 1181.183
602.6750, 1174.803
603.1572, 1163.609
603.6393, 1150.479
604.1214, 1135.531
604.6035, 1131.177
605.0856, 1139.741
605.5677, 1147.188
606.0499, 1132.888
606.5320, 1105.617
607.0141, 1098.522
607.4962, 1122.719
607.9783, 1149.464
608.4604, 1147.815
608.9425, 1128.041
609.4246, 1109.033
609.9067, 1089.870
610.3889, 1081.208
610.8710, 1096.305
611.3531, 1128.943
611.8352, 1150.443
612.3173, 1142.982
612.7994, 1135.137
613.2816, 1138.706
613.7637, 1156.134
614.2458, 1168.616
614.7279, 1178.228
615.2100, 1179.410
615.6921, 1164.528
616.1743, 1132.636
616.6564, 1103.338
617.1385, 1077.043
617.6206, 1058.391
618.1027, 1060.150
618.5848, 1076.302
619.0670, 1084.929
619.5491, 1071.010
620.0312, 1053.629
620.5133, 1049.385
620.9954, 1056.939
621.4775, 1071.506
621.9597, 1101.298
622.4418, 1128.638
622.9239, 1144.910
623.4060, 1149.042
623.8881, 1146.369
624.3702, 1128.651
624.8524, 1111.806
625.3345, 1105.931
625.8166, 1116.616
626.2987, 1121.303
626.7808, 1116.666
627.2629, 1111.259
627.7451, 1118.824
628.2272, 1138.787
628.7093, 1157.090
629.1914, 1173.288
629.6735, 1181.411
630.1556, 1162.695
