##NAMES=Hutchinsonite
##RRUFFID=R060789
##IDEAL CHEMISTRY=Pb^2+^Tl^1+^As^3+^_5_S^2-^_9_
##LOCALITY=Peru
##OWNER=RRUFF
##SOURCE=Michael Scott
##DESCRIPTION=Deep red acicular crystals
##STATUS=The identification of this mineral has been confirmed by single-crystal X-ray diffraction.
##URL=rruff.info/R060789
95.49341, 138.2374
95.97552, 145.5674
96.45764, 143.4151
96.93976, 126.3984
97.42188, 90.43848
97.90399, 54.24935
98.38611, 55.60220
98.86823, 101.0812
99.35034, 135.4894
99.83246, 135.1268
100.3146, 111.9507
100.7967, 92.33810
101.2788, 84.08813
101.7609, 84.18860
102.2430, 87.29263
102.7252, 93.59372
103.2073, 101.5495
103.6894, 110.8831
104.1715, 121.4070
104.6536, 132.4084
105.1357, 147.9392
105.6179, 160.3395
106.1000, 158.5189
106.5821, 136.1078
107.0642, 112.6016
107.5463, 111.1158
108.0284, 135.4030
108.5106, 156.9341
108.9927, 160.2664
109.4748, 156.7682
109.9569, 157.2176
110.4390, 167.6504
110.9211, 178.2053
111.4033, 165.9353
111.8854, 111.6405
112.3675, 79.75102
112.8496, 112.7930
113.3317, 170.3168
113.8138, 206.4030
114.2960, 194.9827
114.7781, 150.1067
115.2602, 119.7388
115.7423, 104.9775
116.2244, 105.9884
116.7065, 132.1221
117.1887, 170.9481
117.6708, 204.5101
118.1529, 220.9516
118.6350, 221.5139
119.1171, 220.8370
119.5992, 217.2385
120.0814, 213.8874
120.5635, 211.2430
121.0456, 209.4047
121.5277, 208.0669
122.0098, 206.4580
122.4919, 204.0950
122.9741, 208.3166
123.4562, 219.9989
123.9383, 236.7033
124.4204, 263.2256
124.9025, 295.7106
125.3846, 323.0207
125.8668, 332.3614
126.3489, 316.4594
126.8310, 319.2138
127.3131, 351.8932
127.7952, 389.7732
128.2773, 419.4314
128.7595, 439.7001
129.2416, 458.2742
129.7237, 484.6451
130.2058, 525.2921
130.6879, 551.2032
131.1700, 547.7323
131.6522, 540.1528
132.1343, 553.2307
132.6164, 590.0962
133.0985, 627.7795
133.5806, 633.4492
134.0627, 588.8722
134.5449, 563.4805
135.0270, 569.0760
135.5091, 590.9994
135.9912, 620.1757
136.4733, 655.1876
136.9554, 683.2252
137.4376, 679.6837
137.9197, 635.5693
138.4018, 599.3500
138.8839, 578.5119
139.3660, 570.9683
139.8481, 574.9034
140.3303, 590.9155
140.8124, 614.8115
141.2945, 639.0758
141.7766, 660.9334
142.2587, 692.7946
142.7408, 752.0029
143.2230, 823.9253
143.7051, 872.9063
144.1872, 881.5012
144.6693, 874.6586
145.1514, 890.5479
145.6335, 930.8249
146.1157, 977.8231
146.5978, 1029.047
147.0799, 1081.805
147.5620, 1125.094
148.0441, 1153.183
148.5262, 1172.599
149.0084, 1193.889
149.4905, 1218.175
149.9726, 1239.990
150.4547, 1251.794
150.9368, 1255.592
151.4189, 1268.056
151.9010, 1298.735
152.3832, 1337.378
152.8653, 1376.482
153.3474, 1418.975
153.8295, 1446.361
154.3116, 1435.860
154.7937, 1387.844
155.2759, 1344.256
155.7580, 1324.191
156.2401, 1310.174
156.7222, 1285.870
157.2043, 1248.278
157.6864, 1205.712
158.1686, 1163.248
158.6507, 1119.900
159.1328, 1086.623
159.6149, 1072.948
160.0970, 1067.983
160.5791, 1064.491
161.0613, 1061.070
161.5434, 1058.795
162.0255, 1056.582
162.5076, 1052.328
162.9897, 1059.112
163.4718, 1091.344
163.9540, 1130.674
164.4361, 1168.023
164.9182, 1201.800
165.4003, 1225.268
165.8824, 1223.515
166.3645, 1186.446
166.8467, 1160.193
167.3288, 1162.913
167.8109, 1176.760
168.2930, 1190.273
168.7751, 1200.133
169.2572, 1207.847
169.7394, 1215.657
170.2215, 1223.966
170.7036, 1231.220
171.1857, 1240.228
171.6678, 1246.615
172.1499, 1244.950
172.6321, 1233.351
173.1142, 1218.531
173.5963, 1212.850
174.0784, 1221.839
174.5605, 1226.710
175.0426, 1217.415
175.5248, 1206.900
176.0069, 1207.558
176.4890, 1223.548
176.9711, 1245.421
177.4532, 1255.376
177.9353, 1246.408
178.4175, 1240.294
178.8996, 1240.792
179.3817, 1244.564
179.8638, 1250.064
180.3459, 1256.665
180.8280, 1262.489
181.3102, 1264.530
181.7923, 1264.477
182.2744, 1256.211
182.7565, 1233.984
183.2386, 1207.721
183.7207, 1184.117
184.2029, 1165.587
184.6850, 1152.484
185.1671, 1145.889
185.6492, 1148.214
186.1313, 1152.995
186.6134, 1164.723
187.0956, 1175.274
187.5777, 1175.288
188.0598, 1162.333
188.5419, 1146.243
189.0240, 1146.924
189.5061, 1180.990
189.9883, 1199.395
190.4704, 1195.418
190.9525, 1179.863
191.4346, 1155.776
191.9167, 1125.597
192.3988, 1098.818
192.8810, 1092.828
193.3631, 1118.665
193.8452, 1145.204
194.3273, 1170.239
194.8094, 1195.761
195.2915, 1225.044
195.7737, 1258.332
196.2558, 1290.912
196.7379, 1314.314
197.2200, 1321.248
197.7021, 1333.650
198.1842, 1358.423
198.6664, 1383.609
199.1485, 1399.043
199.6306, 1403.248
200.1127, 1404.145
200.5948, 1412.614
201.0770, 1428.033
201.5591, 1453.547
202.0412, 1511.354
202.5233, 1561.626
203.0054, 1575.440
203.4875, 1549.437
203.9697, 1502.407
204.4518, 1457.872
204.9339, 1417.369
205.4160, 1375.774
205.8981, 1324.094
206.3802, 1278.189
206.8624, 1248.251
207.3445, 1235.013
207.8266, 1231.726
208.3087, 1231.415
208.7908, 1235.697
209.2729, 1237.482
209.7551, 1234.748
210.2372, 1231.524
210.7193, 1229.653
211.2014, 1229.347
211.6835, 1229.761
212.1656, 1229.063
212.6478, 1225.151
213.1299, 1230.734
213.6120, 1256.627
214.0941, 1281.531
214.5762, 1299.086
215.0583, 1307.668
215.5405, 1306.509
216.0226, 1292.238
216.5047, 1261.963
216.9868, 1245.763
217.4689, 1254.513
217.9510, 1266.704
218.4332, 1277.791
218.9153, 1286.244
219.3974, 1290.354
219.8795, 1287.370
220.3616, 1277.056
220.8437, 1275.720
221.3259, 1299.135
221.8080, 1316.334
222.2901, 1313.920
222.7722, 1298.998
223.2543, 1287.007
223.7364, 1289.555
224.2186, 1304.836
224.7007, 1312.269
225.1828, 1305.553
225.6649, 1296.983
226.1470, 1287.167
226.6291, 1277.526
227.1113, 1268.582
227.5934, 1259.634
228.0755, 1253.154
228.5576, 1262.340
229.0397, 1315.886
229.5218, 1346.567
230.0040, 1327.693
230.4861, 1284.954
230.9682, 1247.219
231.4503, 1228.077
231.9324, 1225.452
232.4145, 1235.565
232.8967, 1271.607
233.3788, 1298.111
233.8609, 1304.829
234.3430, 1302.863
234.8251, 1302.584
235.3072, 1307.918
235.7894, 1316.686
236.2715, 1326.517
236.7536, 1343.160
237.2357, 1347.181
237.7178, 1326.266
238.1999, 1299.344
238.6821, 1279.604
239.1642, 1270.679
239.6463, 1268.989
240.1284, 1270.069
240.6105, 1274.268
241.0926, 1280.124
241.5748, 1287.303
242.0569, 1296.215
242.5390, 1310.312
243.0211, 1328.762
243.5032, 1343.089
243.9853, 1342.205
244.4675, 1324.083
244.9496, 1307.826
245.4317, 1282.564
245.9138, 1270.986
246.3959, 1299.223
246.8780, 1358.298
247.3602, 1405.186
247.8423, 1389.702
248.3244, 1315.175
248.8065, 1278.213
249.2886, 1309.020
249.7707, 1346.121
250.2529, 1356.306
250.7350, 1346.909
251.2171, 1340.585
251.6992, 1355.834
252.1813, 1385.918
252.6634, 1402.167
253.1456, 1398.467
253.6277, 1390.996
254.1098, 1386.066
254.5919, 1383.577
255.0740, 1383.388
255.5561, 1384.719
256.0382, 1388.806
256.5204, 1401.523
257.0025, 1428.323
257.4846, 1445.838
257.9667, 1425.519
258.4488, 1394.335
258.9309, 1388.454
259.4131, 1430.999
259.8952, 1480.341
260.3773, 1479.031
260.8594, 1422.736
261.3415, 1377.941
261.8236, 1376.368
262.3058, 1398.279
262.7879, 1420.799
263.2700, 1444.408
263.7521, 1461.562
264.2342, 1461.866
264.7163, 1448.062
265.1985, 1439.526
265.6806, 1443.051
266.1627, 1453.480
266.6448, 1465.251
267.1269, 1479.388
267.6090, 1488.143
268.0912, 1487.056
268.5733, 1477.895
269.0554, 1464.448
269.5375, 1447.246
270.0196, 1426.671
270.5017, 1396.285
270.9839, 1356.563
271.4660, 1334.862
271.9481, 1348.628
272.4302, 1379.949
272.9123, 1406.937
273.3944, 1426.534
273.8766, 1445.604
274.3587, 1473.541
274.8408, 1509.439
275.3229, 1529.141
275.8050, 1519.881
276.2871, 1502.695
276.7693, 1491.266
277.2514, 1486.082
277.7335, 1482.318
278.2156, 1473.731
278.6977, 1463.905
279.1798, 1478.738
279.6620, 1541.805
280.1441, 1601.486
280.6262, 1636.386
281.1083, 1652.201
281.5904, 1660.870
282.0725, 1666.797
282.5547, 1673.050
283.0368, 1689.777
283.5189, 1735.742
284.0010, 1768.090
284.4831, 1771.107
284.9652, 1762.226
285.4474, 1760.103
285.9295, 1771.066
286.4116, 1792.196
286.8937, 1819.359
287.3758, 1856.513
287.8579, 1892.115
288.3401, 1924.480
288.8222, 1956.399
289.3043, 1988.255
289.7864, 2020.947
290.2685, 2057.695
290.7506, 2103.286
291.2328, 2160.731
291.7149, 2209.872
292.1970, 2269.940
292.6791, 2304.449
293.1612, 2288.860
293.6433, 2234.608
294.1255, 2169.699
294.6076, 2113.229
295.0897, 2064.141
295.5718, 2014.008
296.0539, 1956.407
296.5360, 1905.788
297.0182, 1860.531
297.5003, 1824.955
297.9824, 1806.313
298.4645, 1809.280
298.9466, 1825.290
299.4287, 1835.888
299.9109, 1838.257
300.3930, 1842.456
300.8751, 1847.035
301.3572, 1856.365
301.8393, 1875.212
302.3214, 1904.613
302.8036, 1939.099
303.2857, 1976.876
303.7678, 2018.333
304.2499, 2046.967
304.7320, 2044.256
305.2141, 2044.366
305.6963, 2071.485
306.1784, 2124.167
306.6605, 2186.216
307.1426, 2253.599
307.6247, 2322.883
308.1068, 2383.509
308.5890, 2433.737
309.0711, 2477.168
309.5532, 2517.105
310.0353, 2552.340
310.5174, 2577.290
310.9995, 2605.371
311.4817, 2613.492
311.9638, 2568.182
312.4459, 2470.454
312.9280, 2359.517
313.4101, 2249.337
313.8922, 2144.518
314.3744, 2053.573
314.8565, 1979.438
315.3386, 1914.953
315.8207, 1860.628
316.3028, 1813.368
316.7849, 1762.257
317.2671, 1699.822
317.7492, 1642.527
318.2313, 1624.890
318.7134, 1667.534
319.1955, 1690.738
319.6776, 1672.756
320.1598, 1637.460
320.6419, 1604.678
321.1240, 1578.768
321.6061, 1560.286
322.0882, 1549.947
322.5703, 1548.536
323.0525, 1552.045
323.5346, 1571.662
324.0167, 1584.792
324.4988, 1571.139
324.9809, 1541.597
325.4630, 1525.661
325.9452, 1544.908
326.4273, 1591.123
326.9094, 1615.092
327.3915, 1592.114
327.8736, 1576.035
328.3557, 1577.973
328.8379, 1588.462
329.3200, 1596.884
329.8021, 1599.347
330.2842, 1599.725
330.7663, 1604.205
331.2484, 1613.129
331.7306, 1625.190
332.2127, 1643.477
332.6948, 1662.345
333.1769, 1681.043
333.6590, 1698.271
334.1411, 1710.181
334.6233, 1712.459
335.1054, 1705.780
335.5875, 1697.211
336.0696, 1689.498
336.5517, 1675.203
337.0338, 1633.992
337.5160, 1584.921
337.9981, 1568.430
338.4802, 1619.412
338.9623, 1695.369
339.4444, 1732.119
339.9265, 1726.878
340.4087, 1718.714
340.8908, 1724.895
341.3729, 1738.430
341.8550, 1745.237
342.3371, 1739.617
342.8192, 1740.195
343.3014, 1761.200
343.7835, 1796.120
344.2656, 1827.242
344.7477, 1847.925
345.2298, 1870.693
345.7119, 1914.961
346.1941, 1985.129
346.6762, 2049.024
347.1583, 2094.288
347.6404, 2138.205
348.1225, 2197.870
348.6046, 2272.451
349.0868, 2347.247
349.5689, 2409.303
350.0510, 2459.425
350.5331, 2526.239
351.0152, 2616.337
351.4973, 2713.173
351.9795, 2831.850
352.4616, 2948.852
352.9437, 3027.527
353.4258, 3051.697
353.9079, 3039.824
354.3900, 3032.504
354.8722, 3043.565
355.3543, 3031.346
355.8364, 2977.357
356.3185, 2916.273
356.8006, 2876.436
357.2827, 2857.019
357.7649, 2831.367
358.2470, 2763.199
358.7291, 2652.928
359.2112, 2586.549
359.6933, 2602.233
360.1754, 2611.509
360.6576, 2576.535
361.1397, 2509.842
361.6218, 2433.682
362.1039, 2354.256
362.5860, 2273.926
363.0681, 2194.833
363.5503, 2116.492
364.0324, 2043.843
364.5145, 1976.513
364.9966, 1918.214
365.4787, 1874.419
365.9608, 1848.115
366.4430, 1823.003
366.9251, 1784.564
367.4072, 1741.790
367.8893, 1719.841
368.3714, 1727.634
368.8535, 1733.286
369.3357, 1699.306
369.8178, 1622.980
370.2999, 1562.245
370.7820, 1521.976
371.2641, 1496.283
371.7462, 1486.106
372.2284, 1487.943
372.7105, 1492.908
373.1926, 1496.521
373.6747, 1498.187
374.1568, 1495.480
374.6389, 1483.573
375.1211, 1473.186
375.6032, 1462.441
376.0853, 1454.959
376.5674, 1454.671
377.0495, 1462.271
377.5316, 1475.057
378.0138, 1491.945
378.4959, 1516.828
378.9780, 1527.662
379.4601, 1504.038
379.9422, 1484.894
380.4243, 1489.854
380.9065, 1510.340
381.3886, 1525.256
381.8707, 1520.377
382.3528, 1504.216
382.8349, 1499.230
383.3170, 1509.460
383.7992, 1516.625
384.2813, 1514.997
384.7634, 1506.292
385.2455, 1491.488
385.7276, 1470.640
386.2097, 1444.416
386.6919, 1404.069
387.1740, 1357.966
387.6561, 1337.164
388.1382, 1353.158
388.6203, 1374.888
389.1024, 1369.966
389.5846, 1340.152
390.0667, 1311.787
390.5488, 1293.176
391.0309, 1272.475
391.5130, 1235.945
391.9951, 1188.564
392.4773, 1147.286
392.9594, 1120.670
393.4415, 1108.490
393.9236, 1110.329
394.4057, 1157.584
394.8878, 1178.275
395.3700, 1145.376
395.8521, 1098.480
396.3342, 1074.055
396.8163, 1078.039
397.2984, 1091.011
397.7805, 1091.160
398.2627, 1076.521
398.7448, 1069.423
399.2269, 1083.401
399.7090, 1090.349
400.1911, 1072.205
400.6732, 1043.061
401.1554, 1028.202
401.6375, 1042.365
402.1196, 1067.926
402.6017, 1071.647
403.0838, 1049.706
403.5659, 1037.304
404.0481, 1057.410
404.5302, 1079.229
405.0123, 1068.698
405.4944, 1024.096
405.9765, 983.0246
406.4586, 964.2855
406.9408, 960.4956
407.4229, 962.3890
407.9050, 969.4189
408.3871, 973.0974
408.8692, 966.2646
409.3513, 950.1174
409.8335, 936.0123
410.3156, 919.9885
410.7977, 910.2559
411.2798, 911.6848
411.7619, 920.9854
412.2440, 933.6896
412.7262, 948.2435
413.2083, 963.7575
413.6904, 979.4902
414.1725, 999.2075
414.6546, 1008.656
415.1367, 997.2911
415.6189, 987.0978
416.1010, 996.3885
416.5831, 1016.900
417.0652, 1024.048
417.5473, 998.4688
418.0294, 951.9598
418.5116, 923.0831
418.9937, 912.2761
419.4758, 918.3576
419.9579, 958.0685
420.4400, 1004.831
420.9221, 1038.003
421.4043, 1054.332
421.8864, 1058.329
422.3685, 1047.849
422.8506, 1027.534
423.3327, 1009.567
423.8148, 994.6215
424.2970, 986.3376
424.7791, 990.9311
425.2612, 1006.132
425.7433, 1016.629
426.2254, 1019.643
426.7076, 1019.609
427.1897, 1019.715
427.6718, 1018.520
428.1539, 1010.236
428.6360, 991.8472
429.1181, 973.2208
429.6003, 973.4009
430.0824, 1009.534
430.5645, 1025.269
431.0466, 1004.517
431.5287, 980.0267
432.0108, 971.5174
432.4930, 976.4205
432.9751, 980.5480
433.4572, 972.5146
433.9393, 958.1790
434.4214, 962.9938
434.9035, 1001.375
435.3857, 1025.248
435.8678, 1013.266
436.3499, 986.1913
436.8320, 955.3522
437.3141, 922.6083
437.7962, 900.5953
438.2784, 900.9991
438.7605, 919.3611
439.2426, 948.5765
439.7247, 992.6429
440.2068, 1023.052
440.6889, 1007.355
441.1711, 956.3235
441.6532, 934.2528
442.1353, 973.9722
442.6174, 1009.903
443.0995, 1004.862
443.5816, 976.5633
444.0638, 957.7464
444.5459, 959.4327
445.0280, 969.4064
445.5101, 969.4081
445.9922, 955.0977
446.4743, 945.0430
446.9565, 944.5206
447.4386, 942.4797
447.9207, 926.2213
448.4028, 905.2080
448.8849, 902.0690
449.3670, 933.0673
449.8492, 978.1721
450.3313, 988.4859
450.8134, 953.3412
451.2955, 929.2244
451.7776, 937.5040
452.2597, 955.0563
452.7419, 964.1994
453.2240, 964.4976
453.7061, 963.5920
454.1882, 966.4903
454.6703, 970.0035
455.1524, 967.6617
455.6346, 959.2893
456.1167, 953.7061
456.5988, 958.5538
457.0809, 968.8553
457.5630, 965.6108
458.0451, 941.1236
458.5273, 917.1508
459.0093, 887.4641
459.4915, 866.1200
459.9736, 872.2281
460.4557, 906.3771
460.9378, 950.8270
461.4199, 989.7050
461.9020, 1023.092
462.3842, 1047.002
462.8663, 1057.454
463.3484, 1062.583
463.8305, 1060.384
464.3126, 1056.007
464.7947, 1055.370
465.2769, 1060.344
465.7590, 1068.023
466.2411, 1078.560
466.7232, 1090.650
467.2053, 1093.315
467.6874, 1084.163
468.1696, 1067.471
468.6517, 1038.368
469.1338, 1002.853
469.6159, 984.3608
470.0980, 1001.454
470.5801, 1021.848
471.0623, 1022.734
471.5444, 1012.193
472.0265, 1010.671
472.5086, 1025.752
472.9907, 1045.133
473.4728, 1049.052
473.9550, 1029.943
474.4371, 1019.086
474.9192, 1027.898
475.4013, 1032.310
475.8834, 1014.363
476.3655, 984.5502
476.8477, 965.6415
477.3298, 970.3904
477.8119, 987.4007
478.2940, 994.8279
478.7761, 991.2720
479.2582, 987.0256
479.7404, 983.3328
480.2225, 980.3702
480.7046, 980.0195
481.1867, 981.4224
481.6688, 978.3265
482.1509, 966.5339
482.6331, 950.3427
483.1152, 928.5980
483.5973, 904.3727
484.0794, 895.6881
484.5615, 913.5017
485.0436, 946.4958
485.5258, 971.3476
486.0079, 990.7833
486.4900, 994.8498
486.9721, 967.9421
487.4542, 938.3192
487.9363, 926.9913
488.4185, 930.9776
488.9006, 934.6295
489.3827, 927.8978
489.8648, 912.3470
490.3469, 889.3167
490.8290, 849.2253
491.3112, 828.5304
491.7933, 857.6034
492.2754, 894.7265
492.7575, 906.9636
493.2396, 893.7767
493.7217, 882.8401
494.2039, 890.6894
494.6860, 908.6806
495.1681, 925.3497
495.6502, 940.0400
496.1323, 954.2075
496.6144, 971.0566
497.0966, 985.1172
497.5787, 979.1736
498.0608, 933.8402
498.5429, 904.3249
499.0250, 910.5018
499.5071, 923.5526
499.9893, 918.2869
500.4714, 896.1641
500.9535, 874.9171
501.4356, 867.0290
501.9177, 871.1184
502.3998, 883.4048
502.8820, 911.8835
503.3641, 929.4784
503.8462, 913.3198
504.3283, 894.4765
504.8104, 904.4055
505.2925, 943.5881
505.7747, 968.8223
506.2568, 936.6393
506.7389, 883.7759
507.2210, 876.1642
507.7031, 914.6948
508.1852, 947.8499
508.6674, 946.0870
509.1495, 921.7003
509.6316, 909.3036
510.1137, 915.8406
510.5958, 921.2859
511.0779, 923.6367
511.5601, 924.5223
512.0422, 923.2014
512.5243, 921.2101
513.0064, 924.5544
513.4885, 940.1751
513.9706, 960.6479
514.4528, 954.4131
514.9349, 906.6047
515.4170, 873.6902
515.8991, 879.3392
516.3812, 898.7317
516.8633, 919.0396
517.3455, 938.2250
517.8276, 946.0208
518.3097, 927.6290
518.7918, 900.5377
519.2739, 887.4450
519.7560, 887.9521
520.2382, 892.1106
520.7203, 894.9666
521.2024, 898.7685
521.6845, 909.3826
522.1666, 939.5829
522.6487, 952.3600
523.1309, 934.7148
523.6130, 911.1232
524.0951, 895.4911
524.5772, 887.3635
525.0593, 881.5844
525.5414, 876.1827
526.0236, 868.0889
526.5057, 845.0074
526.9878, 801.0725
527.4699, 778.8569
527.9520, 801.1148
528.4341, 833.4380
528.9163, 844.1075
529.3984, 836.2742
529.8805, 832.3377
530.3626, 845.9625
530.8447, 860.3696
531.3268, 863.4513
531.8090, 855.7029
532.2911, 832.9981
532.7732, 791.7394
533.2553, 756.6738
533.7374, 772.1116
534.2195, 864.4157
534.7017, 915.4868
535.1838, 896.0334
535.6659, 869.1967
536.1480, 854.5725
536.6301, 850.2963
537.1122, 852.0521
537.5944, 859.1808
538.0765, 864.3746
538.5586, 852.3080
539.0407, 826.1630
539.5228, 820.5117
540.0049, 847.2546
540.4871, 876.7790
540.9692, 884.4618
541.4513, 873.8372
541.9334, 866.4948
542.4155, 865.3015
542.8976, 865.1792
543.3798, 861.3609
543.8619, 858.6232
544.3440, 865.5690
544.8261, 882.9429
545.3082, 901.9347
545.7903, 914.9359
546.2725, 921.7211
546.7546, 912.9911
547.2367, 871.3877
547.7188, 843.3088
548.2009, 851.9689
548.6830, 873.2104
549.1652, 884.9279
549.6473, 883.4578
550.1294, 875.0754
550.6115, 857.0237
551.0936, 837.2195
551.5757, 829.5340
552.0579, 834.4883
552.5400, 845.4258
553.0221, 859.8724
553.5042, 876.1649
553.9863, 889.9978
554.4684, 899.5804
554.9506, 909.3032
555.4327, 920.8857
555.9148, 931.1889
556.3969, 942.1315
556.8790, 950.1199
557.3611, 945.0889
557.8433, 918.5375
558.3254, 883.4170
558.8075, 866.8969
559.2896, 870.3177
559.7717, 869.6777
560.2538, 858.8564
560.7360, 844.4436
561.2181, 829.9765
561.7002, 816.3155
562.1823, 809.9295
562.6644, 811.9000
563.1465, 821.3507
563.6287, 849.6613
564.1108, 881.9305
564.5929, 885.6334
565.0750, 853.8241
565.5571, 820.1863
566.0392, 829.5825
566.5214, 885.1742
567.0035, 905.6311
567.4856, 863.4166
567.9677, 827.1918
568.4498, 822.1533
568.9319, 831.3509
569.4141, 833.6115
569.8962, 824.2881
570.3783, 825.6959
570.8604, 873.6808
571.3425, 932.7095
571.8246, 932.7661
572.3068, 874.5540
572.7889, 824.5431
573.2710, 821.4362
573.7531, 849.0458
574.2352, 863.9034
574.7173, 853.5967
575.1995, 851.4097
575.6816, 866.9559
576.1637, 881.3116
576.6458, 884.4554
577.1279, 877.2000
577.6100, 860.7507
578.0922, 831.1194
578.5743, 806.8863
579.0564, 830.8200
579.5385, 896.5922
580.0206, 915.5613
580.5027, 856.1081
580.9849, 788.6802
581.4670, 778.4677
581.9491, 821.8907
582.4312, 851.6337
582.9133, 863.2542
583.3954, 866.5048
583.8776, 858.2390
584.3597, 846.5522
584.8418, 839.5212
585.3239, 839.0922
585.8060, 844.8345
586.2881, 859.4428
586.7703, 879.1074
587.2524, 879.4376
587.7345, 850.9532
588.2166, 835.1273
588.6987, 856.0406
589.1808, 886.8312
589.6630, 897.5192
590.1451, 887.5358
590.6272, 878.6184
591.1093, 873.2119
591.5914, 874.8213
592.0735, 889.9271
592.5557, 914.1757
593.0378, 941.3619
593.5199, 968.9233
594.0020, 984.4324
594.4841, 963.0054
