##NAMES=Hydroxylbastnasite-(Ce)
##RRUFFID=R060283
##IDEAL CHEMISTRY=CeCO_3_(OH)
##LOCALITY=Trimouns, Luzenac, France
##OWNER=RRUFF
##SOURCE=Herb Obodda
##DESCRIPTION=Brown hexagonal tablet
##STATUS=The identification of this mineral has been confirmed by X-ray diffraction and chemical analysis
##URL=rruff.info/R060283
##MEASURED CHEMISTRY=(Ce_0.50_Nd_0.24_(La,Pr)_0.23_Y_0.03_)_Σ=1_CO_3_((OH)_0.65_F_0.35_)_Σ=1_
139.5374, 11460.91
140.0195, 11566.39
140.5016, 11686.19
140.9837, 11751.67
141.4658, 11733.29
141.9480, 11708.10
142.4301, 11731.14
142.9122, 11827.73
143.3943, 11918.56
143.8764, 11994.55
144.3585, 12055.33
144.8407, 12113.24
145.3228, 12157.40
145.8049, 12206.63
146.2870, 12278.26
146.7691, 12378.34
147.2512, 12491.70
147.7334, 12618.73
148.2155, 12765.93
148.6976, 12902.91
149.1797, 13011.39
149.6618, 13115.28
150.1439, 13244.95
150.6261, 13436.53
151.1082, 13619.98
151.5903, 13774.03
152.0724, 13883.08
152.5545, 13995.97
153.0366, 14121.06
153.5188, 14251.50
154.0009, 14373.28
154.4830, 14490.70
154.9651, 14595.63
155.4472, 14687.11
155.9293, 14776.75
156.4115, 14835.13
156.8936, 14840.89
157.3757, 14806.95
157.8578, 14778.49
158.3399, 14785.28
158.8220, 14792.08
159.3042, 14775.83
159.7863, 14696.94
160.2684, 14627.56
160.7505, 14592.28
161.2326, 14588.30
161.7148, 14597.00
162.1969, 14622.79
162.6790, 14652.82
163.1611, 14674.38
163.6432, 14657.31
164.1253, 14651.51
164.6075, 14689.03
165.0896, 14771.20
165.5717, 14860.46
166.0538, 14929.28
166.5359, 14993.27
167.0180, 15074.72
167.5002, 15188.49
167.9823, 15320.25
168.4644, 15462.41
168.9465, 15615.70
169.4286, 15770.45
169.9107, 15924.77
170.3929, 16074.89
170.8750, 16216.99
171.3571, 16340.64
171.8392, 16457.18
172.3213, 16578.29
172.8034, 16704.49
173.2856, 16834.14
173.7677, 16964.93
174.2498, 17097.95
174.7319, 17234.41
175.2140, 17386.25
175.6961, 17539.66
176.1783, 17670.69
176.6604, 17767.68
177.1425, 17851.56
177.6246, 17948.20
178.1067, 18054.68
178.5888, 18158.68
179.0710, 18232.41
179.5531, 18295.50
180.0352, 18394.23
180.5173, 18553.32
180.9994, 18738.17
181.4815, 18889.42
181.9637, 19009.07
182.4458, 19117.86
182.9279, 19231.64
183.4100, 19349.60
183.8921, 19470.51
184.3742, 19593.88
184.8564, 19720.32
185.3385, 19847.92
185.8206, 19977.81
186.3027, 20108.58
186.7848, 20252.10
187.2669, 20403.09
187.7491, 20526.58
188.2312, 20603.65
188.7133, 20643.24
189.1954, 20681.35
189.6775, 20719.97
190.1596, 20746.77
190.6418, 20746.25
191.1239, 20718.58
191.6060, 20674.87
192.0881, 20620.55
192.5702, 20554.77
193.0523, 20468.20
193.5345, 20359.01
194.0166, 20234.61
194.4987, 20101.37
194.9808, 19957.93
195.4629, 19825.52
195.9450, 19720.02
196.4272, 19639.50
196.9093, 19553.81
197.3914, 19457.38
197.8735, 19363.06
198.3556, 19300.17
198.8378, 19273.65
199.3199, 19248.46
199.8020, 19207.02
200.2841, 19149.14
200.7662, 19081.37
201.2483, 18998.22
201.7305, 18910.74
202.2126, 18849.26
202.6947, 18819.43
203.1768, 18794.54
203.6589, 18758.96
204.1410, 18711.95
204.6232, 18660.81
205.1053, 18602.70
205.5874, 18542.39
206.0695, 18494.32
206.5516, 18457.39
207.0337, 18435.57
207.5159, 18437.49
207.9980, 18470.63
208.4801, 18491.69
208.9622, 18494.29
209.4443, 18480.80
209.9264, 18457.73
210.4086, 18414.37
210.8907, 18382.96
211.3728, 18391.77
211.8549, 18451.17
212.3370, 18515.98
212.8191, 18581.32
213.3013, 18646.79
213.7834, 18711.04
214.2655, 18765.78
214.7476, 18833.03
215.2297, 18933.43
215.7118, 19078.11
216.1940, 19228.78
216.6761, 19381.41
217.1582, 19536.16
217.6403, 19678.89
218.1224, 19798.03
218.6045, 19918.37
219.0867, 20062.83
219.5688, 20231.56
220.0509, 20423.38
220.5330, 20642.52
221.0151, 20892.84
221.4972, 21118.02
221.9794, 21308.67
222.4615, 21486.83
222.9436, 21676.14
223.4257, 21873.04
223.9078, 22092.35
224.3899, 22340.96
224.8721, 22625.60
225.3542, 22893.22
225.8363, 23140.38
226.3184, 23375.98
226.8005, 23614.55
227.2826, 23855.11
227.7648, 24097.38
228.2469, 24339.74
228.7290, 24579.69
229.2111, 24831.83
229.6932, 25097.13
230.1753, 25370.79
230.6575, 25652.48
231.1396, 25949.69
231.6217, 26237.97
232.1038, 26507.15
232.5859, 26751.37
233.0681, 27008.43
233.5502, 27282.30
234.0323, 27564.97
234.5144, 27848.99
234.9965, 28131.19
235.4786, 28416.78
235.9608, 28707.41
236.4429, 28997.83
236.9250, 29300.70
237.4071, 29617.56
237.8892, 29943.89
238.3713, 30274.13
238.8535, 30614.98
239.3356, 30948.45
239.8177, 31267.65
240.2998, 31570.15
240.7819, 31870.87
241.2640, 32178.81
241.7462, 32484.53
242.2283, 32774.16
242.7104, 33045.54
243.1925, 33304.14
243.6746, 33548.37
244.1567, 33771.44
244.6389, 34010.35
245.1210, 34284.09
245.6031, 34561.88
246.0852, 34785.39
246.5673, 34936.35
247.0494, 35064.22
247.5316, 35188.23
248.0137, 35317.25
248.4958, 35411.07
248.9779, 35458.78
249.4600, 35476.87
249.9421, 35496.36
250.4243, 35527.76
250.9064, 35542.22
251.3885, 35530.11
251.8706, 35490.92
252.3527, 35422.24
252.8348, 35308.17
253.3170, 35174.77
253.7991, 35078.02
254.2812, 35047.89
254.7633, 34998.73
255.2454, 34890.69
255.7275, 34701.95
256.2097, 34540.01
256.6918, 34416.21
257.1739, 34313.26
257.6560, 34197.32
258.1381, 34062.20
258.6202, 33926.25
259.1024, 33794.62
259.5845, 33669.23
260.0666, 33545.16
260.5487, 33420.31
261.0308, 33298.64
261.5129, 33182.71
261.9951, 33075.70
262.4772, 32969.20
262.9593, 32859.53
263.4414, 32742.74
263.9235, 32636.62
264.4056, 32538.62
264.8878, 32452.52
265.3699, 32388.03
265.8520, 32355.69
266.3341, 32313.31
266.8162, 32243.04
267.2983, 32142.49
267.7805, 32032.72
268.2626, 31913.16
268.7447, 31785.95
269.2268, 31653.34
269.7089, 31513.61
270.1910, 31375.46
270.6732, 31247.84
271.1553, 31135.77
271.6374, 30985.73
272.1195, 30788.43
272.6016, 30566.38
273.0837, 30363.70
273.5659, 30183.83
274.0480, 30001.62
274.5301, 29810.38
275.0122, 29611.46
275.4943, 29378.68
275.9764, 29100.12
276.4586, 28810.15
276.9407, 28566.96
277.4228, 28380.35
277.9049, 28181.91
278.3870, 27938.24
278.8691, 27652.30
279.3513, 27394.39
279.8334, 27169.32
280.3155, 26959.85
280.7976, 26747.39
281.2797, 26534.21
281.7618, 26307.45
282.2440, 26050.90
282.7261, 25771.82
283.2082, 25527.02
283.6903, 25319.57
284.1724, 25135.15
284.6545, 24957.47
285.1367, 24788.13
285.6188, 24628.74
286.1009, 24483.02
286.5830, 24348.20
287.0652, 24211.39
287.5473, 24073.16
288.0294, 23936.83
288.5115, 23807.41
288.9936, 23683.76
289.4757, 23561.63
289.9579, 23433.88
290.4400, 23307.38
290.9221, 23201.38
291.4042, 23117.20
291.8863, 23037.11
292.3684, 22939.16
292.8506, 22828.69
293.3327, 22727.20
293.8148, 22640.08
294.2969, 22566.18
294.7790, 22501.58
295.2611, 22446.08
295.7433, 22400.79
296.2254, 22377.95
296.7075, 22366.63
297.1896, 22335.74
297.6717, 22263.04
298.1538, 22176.94
298.6360, 22119.89
299.1181, 22090.21
299.6002, 22074.07
300.0823, 22066.05
300.5644, 22063.21
301.0465, 22057.72
301.5287, 22037.15
302.0108, 22026.15
302.4929, 22068.81
302.9750, 22155.23
303.4571, 22226.23
303.9392, 22225.75
304.4214, 22191.17
304.9035, 22173.65
305.3856, 22191.85
305.8677, 22220.26
306.3498, 22232.77
306.8319, 22235.37
307.3141, 22249.71
307.7962, 22303.82
308.2783, 22368.52
308.7604, 22413.13
309.2425, 22420.94
309.7246, 22429.14
310.2068, 22470.45
310.6889, 22531.94
311.1710, 22580.50
311.6531, 22584.74
312.1352, 22579.44
312.6173, 22589.64
313.0995, 22621.00
313.5816, 22662.71
314.0637, 22722.82
314.5458, 22789.21
315.0279, 22839.62
315.5100, 22848.04
315.9922, 22851.39
316.4743, 22870.36
316.9564, 22910.96
317.4385, 22952.16
317.9206, 22989.81
318.4027, 23023.28
318.8849, 23051.71
319.3670, 23060.81
319.8491, 23077.21
320.3312, 23118.64
320.8133, 23194.19
321.2954, 23247.27
321.7776, 23245.02
322.2597, 23223.78
322.7418, 23222.30
323.2239, 23255.50
323.7060, 23299.64
324.1881, 23356.55
324.6703, 23428.50
325.1524, 23483.07
325.6345, 23497.21
326.1166, 23503.53
326.5987, 23528.45
327.0808, 23584.81
327.5630, 23645.03
328.0451, 23713.82
328.5272, 23789.75
329.0093, 23841.20
329.4914, 23852.55
329.9735, 23852.57
330.4557, 23858.46
330.9378, 23866.34
331.4199, 23887.49
331.9020, 23927.47
332.3841, 23982.23
332.8662, 24033.03
333.3484, 24081.18
333.8305, 24122.59
334.3126, 24155.50
334.7947, 24179.52
335.2768, 24196.19
335.7589, 24208.74
336.2411, 24212.18
336.7232, 24183.85
337.2053, 24104.82
337.6874, 24050.09
338.1695, 24072.85
338.6516, 24187.98
339.1338, 24240.18
339.6159, 24206.33
340.0980, 24140.85
340.5801, 24144.60
341.0622, 24226.15
341.5443, 24298.48
342.0265, 24325.70
342.5086, 24311.30
342.9907, 24287.03
343.4728, 24251.40
343.9549, 24212.49
344.4370, 24176.43
344.9192, 24144.23
345.4013, 24126.00
345.8834, 24140.69
346.3655, 24167.97
346.8476, 24146.10
347.3297, 24073.86
347.8119, 23992.20
348.2940, 23945.02
348.7761, 23920.27
349.2582, 23882.58
349.7403, 23816.64
350.2224, 23737.54
350.7046, 23661.39
351.1867, 23588.41
351.6688, 23525.49
352.1509, 23484.79
352.6330, 23455.29
353.1151, 23421.66
353.5973, 23383.15
354.0794, 23334.68
354.5615, 23266.45
355.0436, 23183.38
355.5258, 23100.44
356.0079, 23031.62
356.4900, 22963.33
356.9721, 22876.70
357.4542, 22757.00
357.9363, 22659.14
358.4185, 22631.45
358.9006, 22644.61
359.3827, 22647.95
359.8648, 22613.89
360.3469, 22571.12
360.8290, 22535.78
361.3112, 22511.02
361.7933, 22479.62
362.2754, 22437.32
362.7575, 22384.88
363.2396, 22322.86
363.7217, 22213.93
364.2039, 22133.70
364.6860, 22123.10
365.1681, 22183.21
365.6502, 22203.28
366.1323, 22132.40
366.6144, 22040.98
367.0966, 21977.37
367.5787, 21974.09
368.0608, 21961.26
368.5429, 21924.97
369.0250, 21872.58
369.5071, 21844.79
369.9893, 21871.57
370.4714, 21888.27
370.9535, 21858.39
371.4356, 21747.13
371.9177, 21671.47
372.3998, 21648.68
372.8820, 21654.09
373.3641, 21628.55
373.8462, 21555.07
374.3283, 21495.42
374.8104, 21484.95
375.2925, 21531.00
375.7747, 21534.40
376.2568, 21485.14
376.7389, 21413.12
377.2210, 21356.77
377.7031, 21316.80
378.1852, 21282.53
378.6674, 21251.19
379.1495, 21222.81
379.6316, 21197.68
380.1137, 21176.56
380.5958, 21153.64
381.0779, 21121.34
381.5601, 21081.56
382.0422, 21046.32
382.5243, 21018.02
383.0064, 20994.81
383.4885, 20971.38
383.9706, 20948.56
384.4528, 20934.12
384.9349, 20947.16
385.4170, 20968.43
385.8991, 20966.36
386.3812, 20934.75
386.8633, 20884.19
387.3455, 20809.01
387.8276, 20721.90
388.3097, 20650.71
388.7918, 20607.19
389.2739, 20587.65
389.7560, 20601.29
390.2382, 20652.92
390.7203, 20687.47
391.2024, 20668.29
391.6845, 20618.16
392.1666, 20562.89
392.6487, 20490.91
393.1309, 20434.39
393.6130, 20412.03
394.0951, 20421.24
394.5772, 20432.72
395.0593, 20443.07
395.5414, 20450.78
396.0236, 20454.78
396.5057, 20452.03
396.9878, 20449.02
397.4699, 20458.16
397.9520, 20468.98
398.4341, 20448.11
398.9163, 20358.23
399.3984, 20275.24
399.8805, 20225.73
400.3626, 20215.43
400.8447, 20224.04
401.3268, 20266.52
401.8090, 20316.85
402.2911, 20338.98
402.7732, 20327.73
403.2553, 20300.27
403.7374, 20254.19
404.2195, 20191.48
404.7017, 20150.10
405.1838, 20133.42
405.6659, 20128.79
406.1480, 20128.97
406.6301, 20134.18
407.1122, 20130.74
407.5944, 20115.85
408.0765, 20091.14
408.5586, 20056.88
409.0407, 20013.18
409.5228, 19972.84
410.0049, 19945.29
410.4871, 19928.03
410.9692, 19915.91
411.4513, 19910.22
411.9334, 19902.17
412.4155, 19874.48
412.8976, 19834.80
413.3798, 19806.04
413.8619, 19818.37
414.3440, 19834.92
414.8261, 19809.74
415.3082, 19741.99
415.7903, 19677.00
416.2725, 19652.95
416.7546, 19644.45
417.2367, 19621.78
417.7188, 19558.05
418.2009, 19498.33
418.6830, 19470.60
419.1652, 19465.97
419.6473, 19452.90
420.1294, 19395.74
420.6115, 19345.65
421.0936, 19334.63
421.5757, 19394.20
422.0579, 19434.33
422.5400, 19440.67
423.0221, 19421.39
423.5042, 19389.46
423.9863, 19332.29
424.4684, 19277.48
424.9506, 19226.94
425.4327, 19180.16
425.9148, 19154.99
426.3969, 19165.19
426.8791, 19181.30
427.3612, 19174.77
427.8433, 19133.93
428.3254, 19108.07
428.8075, 19108.44
429.2896, 19126.81
429.7718, 19136.69
430.2539, 19138.13
430.7360, 19131.51
431.2181, 19104.54
431.7002, 19060.95
432.1823, 19064.96
432.6645, 19130.51
433.1466, 19207.83
433.6287, 19224.44
434.1108, 19189.99
434.5929, 19151.54
435.0750, 19128.23
435.5572, 19113.30
436.0393, 19096.40
436.5214, 19077.50
437.0035, 19055.81
437.4856, 19027.17
437.9677, 18996.65
438.4499, 18971.36
438.9320, 18953.25
439.4141, 18940.61
439.8962, 18928.53
440.3783, 18920.70
440.8604, 18926.31
441.3426, 18974.75
441.8247, 19018.55
442.3068, 19027.55
442.7889, 18991.94
443.2710, 18953.06
443.7531, 18906.71
444.2353, 18868.71
444.7174, 18855.77
445.1995, 18905.02
445.6816, 18941.73
446.1637, 18949.59
446.6458, 18931.18
447.1280, 18912.62
447.6101, 18883.81
448.0922, 18866.02
448.5743, 18875.78
449.0564, 18934.20
449.5385, 18962.34
450.0207, 18949.17
450.5028, 18913.12
450.9849, 18885.13
451.4670, 18864.26
451.9491, 18858.09
452.4312, 18878.19
452.9134, 18918.79
453.3955, 18930.17
453.8776, 18908.55
454.3597, 18884.63
454.8418, 18890.42
455.3239, 18920.23
455.8061, 18952.53
456.2882, 18988.63
456.7703, 19015.96
457.2524, 19007.88
457.7345, 18972.40
458.2166, 18941.89
458.6988, 18943.34
459.1809, 18956.21
459.6630, 18959.39
460.1451, 18950.43
460.6272, 18934.03
461.1093, 18903.85
461.5915, 18870.92
462.0736, 18849.57
462.5557, 18854.25
463.0378, 18861.78
463.5199, 18863.53
464.0020, 18860.26
464.4842, 18858.96
464.9663, 18845.26
465.4484, 18845.68
465.9305, 18878.25
466.4126, 18992.29
466.8947, 19052.05
467.3769, 19029.51
467.8590, 18965.04
468.3411, 18924.69
468.8232, 18922.48
469.3053, 18916.29
469.7874, 18889.73
470.2696, 18845.10
470.7517, 18829.99
471.2338, 18853.22
471.7159, 18878.90
472.1980, 18866.97
472.6801, 18818.85
473.1623, 18801.68
473.6444, 18833.86
474.1265, 18883.07
474.6086, 18889.19
475.0907, 18858.57
475.5728, 18832.47
476.0550, 18832.60
476.5371, 18851.21
477.0192, 18884.37
477.5013, 18932.46
477.9834, 18966.31
478.4655, 18947.96
478.9477, 18906.61
479.4298, 18880.98
479.9119, 18890.63
480.3940, 18908.04
480.8761, 18925.64
481.3582, 18940.61
481.8404, 18944.55
482.3225, 18925.10
482.8046, 18901.89
483.2867, 18880.58
483.7688, 18856.88
484.2509, 18851.83
484.7331, 18890.68
485.2152, 18936.83
485.6973, 18955.33
486.1794, 18924.13
486.6615, 18902.98
487.1436, 18901.88
487.6258, 18917.18
488.1079, 18933.28
488.5900, 18951.79
489.0721, 18966.30
489.5542, 18973.81
490.0363, 18974.38
490.5185, 18966.78
491.0006, 18949.88
491.4827, 18928.65
491.9648, 18904.84
492.4469, 18880.54
492.9290, 18868.92
493.4112, 18881.63
493.8933, 18903.49
494.3754, 18909.38
494.8575, 18901.69
495.3396, 18895.22
495.8217, 18903.17
496.3039, 18915.77
496.7860, 18921.44
497.2681, 18916.69
497.7502, 18912.51
498.2324, 18914.02
498.7145, 18919.84
499.1966, 18928.16
499.6787, 18955.20
500.1608, 18967.66
500.6429, 18943.05
501.1251, 18884.95
501.6072, 18851.87
502.0893, 18866.52
502.5714, 18890.04
503.0535, 18903.30
503.5356, 18895.43
504.0178, 18906.13
504.4999, 18950.85
504.9820, 18999.86
505.4641, 19000.70
505.9462, 18941.40
506.4283, 18896.65
506.9105, 18891.28
507.3926, 18916.25
507.8747, 18941.60
508.3568, 18968.08
508.8389, 18981.49
509.3210, 18961.15
509.8032, 18919.81
510.2853, 18895.02
510.7674, 18894.80
511.2495, 18896.92
511.7316, 18867.42
512.2137, 18823.89
512.6959, 18802.45
513.1780, 18839.95
513.6601, 18886.07
514.1422, 18904.61
514.6243, 18899.79
515.1064, 18902.90
515.5886, 18958.55
516.0707, 19003.26
516.5528, 18989.54
517.0349, 18857.55
517.5170, 18779.88
517.9991, 18820.04
518.4813, 18905.35
518.9634, 18942.69
519.4455, 18894.29
519.9276, 18863.79
520.4097, 18880.97
520.8918, 18935.44
521.3740, 18957.84
521.8561, 18940.94
522.3382, 18915.88
522.8203, 18900.04
523.3024, 18893.38
523.7845, 18893.23
524.2667, 18899.66
524.7488, 18912.13
525.2309, 18935.40
525.7130, 18965.48
526.1951, 18987.89
526.6772, 18996.12
527.1594, 18995.99
527.6415, 18992.19
528.1236, 18985.28
528.6057, 18977.65
529.0878, 18968.27
529.5699, 18960.29
530.0521, 18956.78
530.5342, 18959.07
531.0163, 18961.35
531.4984, 18967.69
531.9805, 18970.56
532.4626, 18962.08
532.9448, 18912.11
533.4269, 18886.20
533.9090, 18902.66
534.3911, 18949.68
534.8732, 18979.20
535.3553, 18980.71
535.8375, 18985.38
536.3196, 19013.56
536.8017, 19068.28
537.2838, 19082.13
537.7659, 19044.51
538.2480, 19001.41
538.7302, 19012.57
539.2123, 19068.48
539.6944, 19099.46
540.1765, 19081.11
540.6586, 19048.51
541.1407, 19052.11
541.6229, 19084.14
542.1050, 19116.49
542.5871, 19138.84
543.0692, 19151.68
543.5513, 19151.28
544.0334, 19137.67
544.5156, 19126.57
544.9977, 19120.30
545.4798, 19122.49
545.9619, 19137.60
546.4440, 19189.15
546.9261, 19219.81
547.4083, 19207.60
547.8904, 19172.23
548.3725, 19148.07
548.8546, 19130.15
549.3367, 19132.05
549.8188, 19163.47
550.3010, 19221.04
550.7831, 19264.52
551.2652, 19291.11
551.7473, 19313.04
552.2294, 19340.83
552.7115, 19373.15
553.1937, 19395.00
553.6758, 19404.77
554.1579, 19405.79
554.6400, 19392.48
555.1221, 19372.74
555.6042, 19369.54
556.0864, 19397.33
556.5685, 19438.80
557.0506, 19486.01
557.5327, 19535.02
558.0148, 19570.29
558.4969, 19569.96
558.9791, 19564.35
559.4612, 19575.52
559.9433, 19611.59
560.4254, 19633.53
560.9075, 19618.20
561.3896, 19594.65
561.8718, 19588.04
562.3539, 19603.42
562.8360, 19628.22
563.3181, 19666.60
563.8002, 19711.17
564.2823, 19742.30
564.7645, 19755.69
565.2466, 19773.85
565.7287, 19805.65
566.2108, 19849.33
566.6929, 19907.76
567.1750, 19982.28
567.6572, 20029.80
568.1393, 19986.14
568.6214, 19893.35
569.1035, 19839.11
569.5856, 19842.26
570.0677, 19861.53
570.5499, 19863.41
571.0320, 19858.57
571.5141, 19863.88
571.9962, 19892.80
572.4783, 19925.75
572.9604, 19965.44
573.4426, 20006.11
573.9247, 20020.10
574.4068, 19964.38
574.8889, 19916.28
575.3710, 19906.90
575.8531, 19943.30
576.3353, 19984.13
576.8174, 20038.45
577.2995, 20083.15
577.7816, 20090.75
578.2637, 20056.98
578.7458, 20030.48
579.2280, 20018.24
579.7101, 20016.31
580.1922, 20021.38
580.6743, 20031.98
581.1564, 20039.85
581.6385, 20044.10
582.1207, 20041.88
582.6028, 20027.40
583.0849, 20001.78
583.5670, 19972.84
584.0491, 19940.75
584.5313, 19910.03
585.0134, 19883.21
585.4955, 19859.14
585.9776, 19844.23
586.4597, 19849.93
586.9418, 19861.68
587.4240, 19862.79
587.9061, 19846.57
588.3882, 19829.44
588.8703, 19812.25
589.3524, 19795.50
589.8345, 19782.49
590.3167, 19775.97
590.7988, 19761.87
591.2809, 19727.31
591.7630, 19679.30
592.2451, 19664.20
592.7272, 19683.69
593.2094, 19695.72
593.6915, 19658.26
594.1736, 19589.90
594.6557, 19518.29
595.1378, 19442.25
595.6199, 19393.39
596.1021, 19421.60
596.5842, 19485.51
597.0663, 19526.29
597.5484, 19516.62
598.0305, 19488.23
598.5126, 19434.96
598.9948, 19366.84
599.4769, 19326.24
599.9590, 19339.59
600.4411, 19350.76
600.9232, 19340.11
601.4053, 19305.85
601.8875, 19277.19
602.3696, 19254.73
602.8517, 19236.94
603.3339, 19227.94
603.8160, 19226.13
604.2981, 19205.30
604.7802, 19156.76
605.2623, 19109.88
605.7444, 19112.79
606.2266, 19148.91
606.7087, 19173.52
607.1908, 19163.91
607.6729, 19143.42
608.1550, 19127.05
608.6371, 19114.59
609.1193, 19104.78
609.6014, 19110.85
610.0835, 19107.65
610.5656, 19074.97
611.0477, 19004.66
611.5298, 18962.22
612.0120, 18969.96
612.4941, 18986.05
612.9762, 18980.83
613.4583, 18944.29
613.9404, 18923.46
614.4225, 18923.07
614.9047, 18933.97
615.3868, 18948.19
615.8689, 18964.77
616.3510, 18968.07
616.8331, 18948.38
617.3152, 18919.93
617.7974, 18903.74
618.2795, 18897.76
618.7616, 18892.93
619.2437, 18874.62
619.7258, 18862.79
620.2079, 18884.78
620.6901, 18940.96
621.1722, 18969.51
621.6543, 18928.25
622.1364, 18866.76
622.6185, 18815.46
623.1006, 18771.56
623.5828, 18748.03
624.0649, 18750.96
624.5470, 18768.65
625.0291, 18788.70
625.5112, 18811.75
625.9933, 18835.90
626.4755, 18865.72
626.9576, 18889.47
627.4397, 18875.29
627.9218, 18827.72
628.4039, 18781.49
628.8860, 18754.38
629.3682, 18738.00
629.8503, 18716.38
630.3324, 18692.11
630.8145, 18685.98
631.2966, 18742.07
631.7787, 18798.41
632.2609, 18801.50
632.7430, 18723.77
633.2251, 18675.31
633.7072, 18710.91
634.1893, 18764.09
634.6714, 18778.93
635.1536, 18735.01
635.6357, 18695.64
