##NAMES=Hydropyrochlore
##RRUFFID=R060980
##IDEAL CHEMISTRY=(H_2_O,[box])_2_Nb^5+^_2_(O,OH)_6_(H_2_O)
##LOCALITY=Lueshe mine, Kivu, Democratic Republic of the Congo
##OWNER=RRUFF
##SOURCE=Bob Jenkins
##DESCRIPTION=Pale green octahedron
##STATUS=The identification of this mineral is confirmed by single-crystal X-ray diffraction and chemical analysis.
##URL=rruff.info/R060980
##MEASURED CHEMISTRY=((H_2_O)_0.61_K_0.11_Sr_0.07_Ba_0.02_Ca_0.01_[box]_0.18_)(Nb_1.84_Ti_0.16_)(O_4.15_(OH)_1.85_)(H_2_O)
123.9327, 27582.89
124.4148, 28820.58
124.8969, 30030.47
125.3791, 31198.97
125.8612, 32326.90
126.3433, 33400.10
126.8254, 34372.18
127.3075, 35171.16
127.7896, 35865.67
128.2718, 36593.21
128.7539, 37374.47
129.2360, 38133.97
129.7181, 38787.68
130.2002, 39336.95
130.6823, 39838.66
131.1645, 40309.33
131.6466, 40753.16
132.1287, 41192.60
132.6108, 41623.80
133.0929, 42050.81
133.5750, 42476.32
134.0572, 42902.50
134.5393, 43330.68
135.0214, 43767.72
135.5035, 44213.41
135.9856, 44680.21
136.4677, 45163.00
136.9499, 45666.44
137.4320, 46216.16
137.9141, 46821.80
138.3962, 47445.27
138.8783, 48050.68
139.3604, 48628.59
139.8426, 49208.06
140.3247, 49799.26
140.8068, 50397.83
141.2889, 51014.30
141.7710, 51661.51
142.2531, 52310.49
142.7353, 52914.13
143.2174, 53451.48
143.6995, 53966.90
144.1816, 54472.08
144.6637, 54976.96
145.1458, 55453.85
145.6280, 55910.88
146.1101, 56339.07
146.5922, 56713.54
147.0743, 57020.98
147.5564, 57284.16
148.0385, 57513.83
148.5207, 57716.41
149.0028, 57877.15
149.4849, 57980.73
149.9670, 58027.24
150.4491, 58086.52
150.9312, 58184.26
151.4134, 58289.02
151.8955, 58374.77
152.3776, 58387.08
152.8597, 58440.87
153.3418, 58581.16
153.8239, 58840.82
154.3060, 59057.24
154.7882, 59144.44
155.2703, 59196.75
155.7524, 59342.53
156.2345, 59700.29
156.7166, 60075.46
157.1987, 60385.98
157.6809, 60579.96
158.1630, 60791.09
158.6451, 61060.44
159.1272, 61363.16
159.6093, 61648.33
160.0914, 61889.37
160.5736, 62105.11
161.0557, 62306.64
161.5378, 62504.27
162.0199, 62672.90
162.5020, 62788.14
162.9841, 62857.66
163.4663, 62929.50
163.9484, 63046.55
164.4305, 63167.34
164.9126, 63255.20
165.3947, 63299.71
165.8768, 63311.54
166.3590, 63293.38
166.8411, 63247.67
167.3232, 63187.57
167.8053, 63113.66
168.2874, 63034.00
168.7695, 62958.95
169.2517, 62898.96
169.7338, 62843.89
170.2159, 62789.25
170.6980, 62738.00
171.1801, 62674.69
171.6622, 62578.80
172.1444, 62461.49
172.6265, 62347.35
173.1086, 62241.91
173.5907, 62148.71
174.0728, 62074.20
174.5549, 62023.99
175.0371, 61975.26
175.5192, 61905.25
176.0013, 61816.50
176.4834, 61720.32
176.9655, 61626.60
177.4476, 61530.22
177.9298, 61423.39
178.4119, 61303.18
178.8940, 61173.00
179.3761, 61033.35
179.8582, 60885.14
180.3403, 60725.96
180.8224, 60555.96
181.3046, 60374.57
181.7867, 60175.66
182.2688, 59962.01
182.7509, 59728.50
183.2330, 59457.02
183.7151, 59150.88
184.1973, 58834.66
184.6794, 58547.31
185.1615, 58276.80
185.6436, 57982.96
186.1257, 57639.68
186.6078, 57260.48
187.0900, 56889.17
187.5721, 56530.41
188.0542, 56155.91
188.5363, 55712.13
189.0184, 55209.12
189.5005, 54710.27
189.9827, 54257.37
190.4648, 53842.88
190.9469, 53403.85
191.4290, 52941.22
191.9111, 52470.95
192.3932, 52024.10
192.8754, 51604.29
193.3575, 51158.86
193.8396, 50639.26
194.3217, 50048.77
194.8038, 49513.08
195.2859, 49050.38
195.7681, 48635.51
196.2502, 48191.57
196.7323, 47714.43
197.2144, 47258.27
197.6965, 46873.47
198.1786, 46564.13
198.6608, 46225.24
199.1429, 45837.15
199.6250, 45418.41
200.1071, 45010.02
200.5892, 44609.54
201.0714, 44225.36
201.5535, 43856.81
202.0356, 43499.58
202.5177, 43186.97
202.9998, 42933.55
203.4819, 42726.18
203.9641, 42520.12
204.4462, 42321.02
204.9283, 42102.07
205.4104, 41824.00
205.8925, 41466.15
206.3746, 41143.09
206.8568, 40889.82
207.3389, 40700.75
207.8210, 40476.88
208.3031, 40201.89
208.7852, 39922.71
209.2673, 39695.96
209.7494, 39534.96
210.2316, 39387.38
210.7137, 39239.71
211.1958, 39092.94
211.6779, 38961.27
212.1600, 38848.82
212.6421, 38746.39
213.1243, 38639.05
213.6064, 38522.93
214.0885, 38412.94
214.5706, 38309.20
215.0527, 38205.89
215.5348, 38136.90
216.0170, 38117.64
216.4991, 38116.75
216.9812, 38072.28
217.4633, 37956.71
217.9454, 37853.77
218.4275, 37801.65
218.9097, 37822.87
219.3918, 37823.14
219.8739, 37803.00
220.3560, 37762.83
220.8381, 37697.20
221.3202, 37590.86
221.8024, 37490.50
222.2845, 37419.39
222.7666, 37385.66
223.2487, 37363.53
223.7308, 37360.23
224.2129, 37367.90
224.6951, 37359.88
225.1772, 37326.50
225.6593, 37291.83
226.1414, 37267.51
226.6235, 37254.65
227.1056, 37248.32
227.5878, 37250.85
228.0699, 37258.73
228.5520, 37256.73
229.0341, 37234.99
229.5162, 37215.34
229.9983, 37214.30
230.4805, 37250.25
230.9626, 37264.48
231.4447, 37241.52
231.9268, 37188.78
232.4089, 37160.23
232.8910, 37166.46
233.3732, 37184.05
233.8553, 37199.93
234.3374, 37226.21
234.8195, 37227.33
235.3016, 37190.09
235.7837, 37118.27
236.2658, 37063.77
236.7480, 37030.95
237.2301, 37011.47
237.7122, 36998.93
238.1943, 36992.70
238.6764, 36996.51
239.1585, 37018.85
239.6407, 37059.76
240.1228, 37071.04
240.6049, 37026.02
241.0870, 36978.47
241.5691, 36982.20
242.0512, 37077.16
242.5334, 37146.80
243.0155, 37160.36
243.4976, 37114.03
243.9797, 37087.59
244.4618, 37088.10
244.9439, 37099.21
245.4261, 37104.08
245.9082, 37096.86
246.3903, 37091.61
246.8724, 37094.69
247.3545, 37107.91
247.8366, 37102.22
248.3188, 37078.00
248.8009, 37035.93
249.2830, 36970.33
249.7651, 36854.93
250.2472, 36773.11
250.7293, 36757.27
251.2115, 36819.63
251.6936, 36850.72
252.1757, 36843.63
252.6578, 36814.72
253.1399, 36778.90
253.6220, 36723.92
254.1042, 36688.98
254.5863, 36689.68
255.0684, 36732.23
255.5505, 36763.70
256.0326, 36776.21
256.5147, 36783.25
256.9969, 36806.54
257.4790, 36860.24
257.9611, 36896.90
258.4432, 36894.61
258.9253, 36841.78
259.4074, 36817.90
259.8896, 36829.74
260.3717, 36862.09
260.8538, 36898.38
261.3359, 36946.56
261.8180, 36977.91
262.3001, 36975.17
262.7823, 36928.74
263.2644, 36919.64
263.7465, 36970.75
264.2286, 37036.34
264.7107, 37041.31
265.1928, 36966.13
265.6750, 36884.22
266.1571, 36816.22
266.6392, 36763.05
267.1213, 36728.54
267.6034, 36721.58
268.0855, 36725.11
268.5677, 36715.20
269.0498, 36693.49
269.5319, 36655.64
270.0140, 36594.09
270.4961, 36505.58
270.9782, 36434.23
271.4604, 36382.06
271.9425, 36344.16
272.4246, 36314.39
272.9067, 36294.64
273.3888, 36275.90
273.8709, 36258.87
274.3531, 36244.58
274.8352, 36204.10
275.3173, 36125.23
275.7994, 36038.24
276.2815, 35996.84
276.7636, 36009.78
277.2457, 36015.96
277.7278, 35989.51
278.2100, 35929.63
278.6921, 35863.82
279.1742, 35786.42
279.6563, 35712.84
280.1384, 35672.23
280.6205, 35668.26
281.1027, 35660.51
281.5848, 35633.52
282.0669, 35587.86
282.5490, 35533.49
283.0311, 35469.66
283.5132, 35400.33
283.9954, 35331.60
284.4775, 35263.68
284.9596, 35192.24
285.4417, 35115.55
285.9238, 35033.93
286.4059, 34944.08
286.8881, 34843.93
287.3702, 34746.90
287.8523, 34671.36
288.3344, 34616.45
288.8165, 34571.25
289.2986, 34548.77
289.7808, 34535.47
290.2629, 34459.99
290.7450, 34313.31
291.2271, 34151.17
291.7092, 34041.32
292.1913, 33978.47
292.6735, 33925.00
293.1556, 33880.71
293.6377, 33835.22
294.1198, 33752.62
294.6019, 33629.23
295.0840, 33500.47
295.5662, 33412.06
296.0483, 33353.56
296.5304, 33281.21
297.0125, 33158.15
297.4946, 33015.11
297.9767, 32921.28
298.4589, 32878.32
298.9410, 32847.44
299.4231, 32786.41
299.9052, 32705.39
300.3873, 32634.61
300.8694, 32592.85
301.3516, 32562.76
301.8337, 32522.11
302.3158, 32469.49
302.7979, 32404.73
303.2800, 32327.83
303.7621, 32237.20
304.2443, 32127.86
304.7264, 31979.24
305.2085, 31825.23
305.6906, 31705.55
306.1727, 31619.79
306.6548, 31535.50
307.1370, 31435.00
307.6191, 31321.73
308.1012, 31201.30
308.5833, 31076.08
309.0654, 30947.13
309.5475, 30810.19
310.0297, 30668.43
310.5118, 30540.99
310.9939, 30453.60
311.4760, 30383.41
311.9581, 30304.54
312.4402, 30203.71
312.9224, 30098.35
313.4045, 29996.43
313.8866, 29897.00
314.3687, 29799.77
314.8508, 29705.59
315.3329, 29613.01
315.8151, 29520.77
316.2972, 29419.58
316.7793, 29328.68
317.2614, 29264.32
317.7435, 29219.45
318.2256, 29164.81
318.7078, 29066.99
319.1899, 28970.57
319.6720, 28905.66
320.1541, 28903.37
320.6362, 28895.92
321.1183, 28852.36
321.6005, 28787.11
322.0826, 28744.61
322.5647, 28747.42
323.0468, 28765.63
323.5289, 28785.83
324.0110, 28812.98
324.4932, 28830.30
324.9753, 28821.29
325.4574, 28800.14
325.9395, 28799.69
326.4216, 28848.89
326.9037, 28896.80
327.3859, 28924.34
327.8680, 28917.45
328.3501, 28917.04
328.8322, 28925.20
329.3143, 28939.99
329.7964, 28958.87
330.2786, 28994.63
330.7607, 29020.20
331.2428, 29018.39
331.7249, 28966.39
332.2070, 28971.82
332.6891, 29067.16
333.1712, 29201.77
333.6534, 29304.35
334.1355, 29364.33
334.6176, 29413.29
335.0997, 29455.10
335.5818, 29487.08
336.0639, 29538.58
336.5461, 29625.12
337.0282, 29710.85
337.5103, 29746.31
337.9924, 29705.51
338.4745, 29700.81
338.9566, 29771.90
339.4388, 29910.58
339.9209, 30019.56
340.4030, 30093.85
340.8851, 30149.41
341.3672, 30194.83
341.8493, 30229.80
342.3315, 30275.37
342.8136, 30345.54
343.2957, 30427.94
343.7778, 30467.88
344.2599, 30459.17
344.7420, 30457.86
345.2242, 30521.78
345.7063, 30643.02
346.1884, 30746.07
346.6705, 30812.25
347.1526, 30858.43
347.6347, 30916.57
348.1169, 30984.92
348.5990, 31052.54
349.0811, 31111.47
349.5632, 31161.34
350.0453, 31202.03
350.5274, 31231.25
351.0096, 31253.34
351.4917, 31269.15
351.9738, 31281.00
352.4559, 31299.84
352.9380, 31357.05
353.4201, 31417.24
353.9023, 31418.28
354.3844, 31342.97
354.8665, 31266.69
355.3486, 31271.01
355.8307, 31324.12
356.3128, 31360.22
356.7950, 31329.27
357.2771, 31280.10
357.7592, 31254.90
358.2413, 31258.19
358.7234, 31259.55
359.2055, 31218.90
359.6877, 31171.31
360.1698, 31161.92
360.6519, 31265.30
361.1340, 31359.23
361.6161, 31381.08
362.0982, 31330.56
362.5804, 31265.85
363.0625, 31186.64
363.5446, 31111.98
364.0267, 31057.79
364.5088, 31062.61
364.9909, 31051.87
365.4731, 30997.84
365.9552, 30908.45
366.4373, 30834.15
366.9194, 30789.10
367.4015, 30757.57
367.8836, 30730.84
368.3658, 30709.67
368.8479, 30692.26
369.3300, 30687.71
369.8121, 30687.45
370.2942, 30665.69
370.7763, 30597.53
371.2585, 30535.21
371.7406, 30501.68
372.2227, 30514.94
372.7048, 30504.50
373.1869, 30452.12
373.6690, 30386.50
374.1512, 30363.45
374.6333, 30412.14
375.1154, 30432.71
375.5975, 30380.49
376.0796, 30248.59
376.5617, 30159.93
377.0439, 30123.90
377.5260, 30113.72
378.0081, 30106.90
378.4902, 30106.45
378.9723, 30084.04
379.4544, 30024.19
379.9366, 29938.95
380.4187, 29873.39
380.9008, 29829.10
381.3829, 29801.25
381.8650, 29794.55
382.3471, 29804.33
382.8293, 29800.54
383.3114, 29768.07
383.7935, 29730.05
384.2756, 29736.21
384.7577, 29780.97
385.2398, 29816.30
385.7219, 29803.31
386.2040, 29759.57
386.6862, 29718.74
387.1683, 29686.19
387.6504, 29650.38
388.1325, 29593.71
388.6146, 29522.97
389.0967, 29459.18
389.5789, 29426.04
390.0610, 29396.49
390.5431, 29344.68
391.0252, 29267.22
391.5073, 29189.69
391.9894, 29128.74
392.4716, 29076.70
392.9537, 29023.41
393.4358, 28966.20
393.9179, 28907.13
394.4000, 28843.00
394.8821, 28774.77
395.3643, 28715.72
395.8464, 28676.08
396.3285, 28642.85
396.8106, 28606.71
397.2927, 28566.29
397.7748, 28520.86
398.2570, 28470.53
398.7391, 28414.54
399.2212, 28350.61
399.7033, 28260.44
400.1854, 28178.34
400.6675, 28119.72
401.1497, 28100.06
401.6318, 28073.67
402.1139, 28039.83
402.5960, 28000.20
403.0781, 27959.08
403.5602, 27922.77
404.0424, 27871.71
404.5245, 27788.54
405.0066, 27669.28
405.4887, 27602.25
405.9708, 27605.95
406.4529, 27625.25
406.9351, 27593.36
407.4172, 27504.99
407.8993, 27423.88
408.3814, 27368.16
408.8635, 27330.12
409.3456, 27277.21
409.8278, 27207.74
410.3099, 27148.84
410.7920, 27135.79
411.2741, 27154.78
411.7562, 27150.77
412.2383, 27108.39
412.7205, 27051.54
413.2026, 27006.57
413.6847, 26972.94
414.1668, 26949.87
414.6489, 26942.22
415.1310, 26941.78
415.6132, 26941.10
416.0953, 26940.68
416.5774, 26929.01
417.0595, 26883.01
417.5416, 26822.45
418.0237, 26777.29
418.5059, 26776.73
418.9880, 26781.66
419.4701, 26772.11
419.9522, 26748.13
420.4343, 26717.46
420.9164, 26678.81
421.3986, 26638.33
421.8807, 26600.24
422.3628, 26561.43
422.8449, 26531.08
423.3270, 26518.64
423.8091, 26518.12
424.2913, 26508.06
424.7734, 26485.12
425.2555, 26453.64
425.7376, 26410.09
426.2197, 26334.35
426.7018, 26300.33
427.1840, 26338.11
427.6661, 26398.21
428.1482, 26401.91
428.6303, 26310.58
429.1124, 26248.18
429.5945, 26258.16
430.0767, 26335.19
430.5588, 26375.61
431.0409, 26375.07
431.5230, 26348.26
432.0051, 26301.10
432.4872, 26232.98
432.9694, 26170.46
433.4515, 26113.77
433.9336, 26069.24
434.4157, 26059.96
434.8978, 26084.32
435.3799, 26102.72
435.8621, 26086.83
436.3442, 26046.82
436.8263, 26003.80
437.3084, 25957.15
437.7905, 25918.78
438.2726, 25914.11
438.7548, 25926.77
439.2369, 25921.19
439.7190, 25852.25
440.2011, 25777.70
440.6832, 25755.78
441.1653, 25783.35
441.6474, 25805.57
442.1295, 25788.92
442.6117, 25754.95
443.0938, 25722.51
443.5759, 25690.19
444.0580, 25668.24
444.5401, 25658.13
445.0222, 25661.21
445.5044, 25681.75
445.9865, 25753.93
446.4686, 25816.45
446.9507, 25839.52
447.4328, 25800.26
447.9149, 25781.64
448.3971, 25791.80
448.8792, 25818.26
449.3613, 25843.72
449.8434, 25850.97
450.3255, 25891.05
450.8076, 25983.71
451.2898, 26122.88
451.7719, 26242.17
452.2540, 26336.41
452.7361, 26420.60
453.2182, 26506.33
453.7003, 26592.99
454.1825, 26673.77
454.6646, 26743.60
455.1467, 26813.65
455.6288, 26898.30
456.1109, 26998.44
456.5930, 27121.33
457.0752, 27292.84
457.5573, 27485.44
458.0394, 27616.62
458.5215, 27681.23
459.0036, 27758.05
459.4857, 27942.53
459.9679, 28186.51
460.4500, 28396.99
460.9321, 28518.28
461.4142, 28629.18
461.8963, 28802.86
462.3784, 29022.02
462.8606, 29216.90
463.3427, 29325.30
463.8248, 29420.72
464.3069, 29552.91
464.7890, 29744.50
465.2711, 29938.43
465.7533, 30127.08
466.2354, 30308.87
466.7175, 30478.39
467.1996, 30619.11
467.6817, 30763.26
468.1638, 30929.03
468.6460, 31114.76
469.1281, 31256.60
469.6102, 31316.68
470.0923, 31376.53
470.5744, 31504.34
471.0565, 31732.88
471.5387, 31915.42
472.0208, 32030.87
472.5029, 32101.46
472.9850, 32178.75
473.4671, 32264.33
473.9492, 32345.55
474.4314, 32421.95
474.9135, 32491.55
475.3956, 32536.23
475.8777, 32555.23
476.3598, 32568.21
476.8419, 32592.59
477.3241, 32627.78
477.8062, 32672.49
478.2883, 32734.78
478.7704, 32796.00
479.2525, 32828.08
479.7346, 32838.41
480.2168, 32856.38
480.6989, 32904.16
481.1810, 32961.38
481.6631, 33008.60
482.1452, 33037.19
482.6273, 33074.60
483.1095, 33158.64
483.5916, 33247.17
484.0737, 33286.80
484.5558, 33188.50
485.0379, 33120.20
485.5201, 33149.76
486.0022, 33270.66
486.4843, 33326.18
486.9664, 33273.06
487.4485, 33199.88
487.9306, 33151.95
488.4128, 33138.02
488.8949, 33134.89
489.3770, 33151.82
489.8591, 33172.44
490.3412, 33164.39
490.8233, 33123.68
491.3055, 33082.93
491.7876, 33052.60
492.2697, 33031.55
492.7518, 33015.88
493.2339, 33005.61
493.7160, 32994.96
494.1982, 32981.65
494.6803, 32963.50
495.1624, 32932.37
495.6445, 32879.24
496.1266, 32829.28
496.6087, 32818.77
497.0908, 32833.12
497.5729, 32834.64
498.0551, 32782.41
498.5372, 32727.00
499.0193, 32707.55
499.5014, 32727.17
499.9835, 32757.36
500.4656, 32818.88
500.9478, 32868.57
501.4299, 32872.04
501.9120, 32736.85
502.3941, 32654.77
502.8762, 32682.62
503.3583, 32783.23
503.8405, 32849.76
504.3226, 32862.09
504.8047, 32864.93
505.2868, 32872.76
505.7689, 32886.70
506.2510, 32890.26
506.7332, 32880.97
507.2153, 32865.66
507.6974, 32846.83
508.1795, 32824.09
508.6616, 32817.50
509.1437, 32832.64
509.6259, 32864.80
510.1080, 32916.09
510.5901, 32983.51
511.0722, 33030.84
511.5543, 33011.07
512.0364, 32965.75
512.5186, 32968.16
513.0007, 33023.89
513.4828, 33095.32
513.9649, 33178.20
514.4470, 33250.04
514.9291, 33278.38
515.4113, 33194.63
515.8934, 33131.10
516.3755, 33173.22
516.8576, 33288.62
517.3397, 33375.76
517.8218, 33360.09
518.3040, 33350.66
518.7861, 33403.13
519.2682, 33552.48
519.7503, 33652.32
520.2324, 33673.33
520.7145, 33667.64
521.1967, 33686.50
521.6788, 33744.82
522.1609, 33790.40
522.6430, 33814.61
523.1251, 33822.46
523.6072, 33819.03
524.0894, 33798.75
524.5715, 33808.34
525.0536, 33894.96
525.5357, 34038.01
526.0178, 34138.46
526.4999, 34192.08
526.9821, 34222.74
527.4642, 34241.54
527.9463, 34256.47
528.4284, 34284.90
528.9105, 34335.91
529.3926, 34396.52
529.8748, 34457.92
530.3569, 34520.17
530.8390, 34581.76
531.3211, 34635.07
531.8032, 34693.65
532.2853, 34769.09
532.7675, 34866.55
533.2496, 34958.59
533.7317, 35051.95
534.2138, 35132.31
534.6959, 35186.95
535.1780, 35180.18
535.6602, 35202.82
536.1423, 35268.42
536.6244, 35365.65
537.1065, 35468.43
537.5886, 35579.74
538.0707, 35685.15
538.5529, 35773.36
539.0350, 35846.27
539.5171, 35946.48
539.9992, 36077.07
540.4813, 36211.53
540.9634, 36322.86
541.4456, 36416.71
541.9277, 36506.77
542.4098, 36589.05
542.8919, 36682.44
543.3740, 36814.66
543.8561, 36973.91
544.3383, 37130.17
544.8204, 37273.64
545.3025, 37405.74
545.7846, 37524.12
546.2667, 37629.18
546.7488, 37729.71
547.2310, 37827.97
547.7131, 37922.85
548.1952, 38013.52
548.6773, 38078.74
549.1594, 38172.79
549.6415, 38327.22
550.1237, 38499.11
550.6058, 38608.36
551.0879, 38613.36
551.5700, 38651.76
552.0521, 38769.94
552.5342, 38953.79
553.0164, 39109.81
553.4985, 39236.59
553.9806, 39343.70
554.4627, 39421.82
554.9448, 39482.75
555.4269, 39578.93
555.9091, 39718.43
556.3912, 39882.02
556.8733, 40073.62
557.3554, 40271.18
557.8375, 40426.67
558.3196, 40470.50
558.8018, 40513.23
559.2839, 40648.66
559.7660, 40853.64
560.2481, 41038.98
560.7302, 41154.24
561.2123, 41253.26
561.6945, 41362.04
562.1766, 41482.66
562.6587, 41607.42
563.1408, 41699.02
563.6229, 41817.09
564.1050, 42030.52
564.5872, 42416.70
565.0693, 42707.39
565.5514, 42845.08
566.0335, 42889.82
566.5156, 42999.70
566.9977, 43180.38
567.4799, 43362.38
567.9620, 43512.77
568.4441, 43638.65
568.9262, 43750.11
569.4083, 43847.94
569.8904, 43958.74
570.3726, 44122.88
570.8547, 44309.32
571.3368, 44473.36
571.8189, 44594.42
572.3010, 44718.24
572.7831, 44876.45
573.2653, 45055.62
573.7474, 45230.91
574.2295, 45396.96
574.7116, 45558.82
575.1937, 45724.63
575.6758, 45894.25
576.1580, 46041.63
576.6401, 46135.81
577.1222, 46245.66
577.6042, 46407.61
578.0864, 46640.96
578.5685, 46860.81
579.0506, 47073.42
579.5327, 47263.16
580.0148, 47390.70
580.4969, 47458.32
580.9791, 47584.51
581.4612, 47811.41
581.9433, 48084.81
582.4254, 48305.02
582.9075, 48482.05
583.3896, 48656.02
583.8718, 48844.55
584.3539, 49041.21
584.8360, 49250.73
585.3181, 49471.02
585.8002, 49671.91
586.2823, 49803.54
586.7645, 49929.02
587.2466, 50098.71
587.7287, 50359.25
588.2108, 50596.35
588.6929, 50776.40
589.1750, 50934.58
589.6572, 51119.98
590.1393, 51356.93
590.6214, 51572.27
591.1035, 51745.39
591.5856, 51888.21
592.0677, 52050.93
592.5499, 52234.38
593.0320, 52434.31
593.5141, 52653.08
593.9962, 52888.04
594.4783, 53127.21
594.9604, 53373.24
595.4426, 53610.69
595.9247, 53821.31
596.4068, 54018.50
596.8889, 54222.61
597.3710, 54441.73
597.8531, 54665.43
598.3353, 54901.76
598.8174, 55140.20
599.2995, 55362.02
599.7816, 55522.50
600.2637, 55701.82
600.7458, 55936.60
601.2280, 56223.65
601.7101, 56483.72
602.1922, 56699.07
602.6743, 56912.73
603.1564, 57148.79
603.6385, 57416.18
604.1207, 57647.46
604.6028, 57828.68
605.0849, 58019.24
605.5670, 58311.78
606.0491, 58683.52
606.5313, 59008.49
607.0134, 59250.22
607.4955, 59451.89
607.9776, 59654.46
608.4597, 59860.71
608.9418, 60084.75
609.4240, 60357.71
609.9061, 60627.70
610.3882, 60854.29
610.8703, 61041.65
611.3524, 61236.14
611.8345, 61448.73
612.3167, 61677.69
612.7988, 61929.02
613.2809, 62232.98
613.7630, 62485.34
614.2451, 62662.57
614.7272, 62819.09
615.2094, 63014.67
615.6915, 63253.73
616.1736, 63500.01
616.6557, 63749.58
617.1378, 63996.83
617.6199, 64222.70
618.1021, 64431.23
