##NAMES=Hydroboracite
##RRUFFID=R060866
##IDEAL CHEMISTRY=CaMg[B_3_O_4_(OH)_3_]_2_&#183;3H_2_O
##LOCALITY=Thompson mine, Death Valley, California, USA
##OWNER=RRUFF
##SOURCE=Michael Scott
##DESCRIPTION=Tuft of colorless slender prismatic crystals
##STATUS=The identification of this mineral is confirmed by single-crystal X-ray diffraction and chemical analysis.
##URL=rruff.info/R060866
##MEASURED CHEMISTRY=Ca_1.00_Mg_1.00_B_6_O_8_(OH)_6_Â·3H_2_O ; B and H not measured but assumed by stoichiometry and verified by Raman
119.1124, 10805.21
119.5946, 11743.26
120.0767, 12672.86
120.5588, 13704.92
121.0409, 14629.35
121.5230, 15261.67
122.0051, 15528.01
122.4873, 15505.08
122.9694, 15155.44
123.4515, 14512.72
123.9336, 13824.27
124.4157, 13212.99
124.8979, 12681.80
125.3800, 12235.83
125.8621, 11893.98
126.3442, 11632.10
126.8263, 11417.32
127.3084, 11251.51
127.7905, 11135.12
128.2727, 11087.22
128.7548, 11096.53
129.2369, 11121.40
129.7190, 11136.18
130.2011, 11150.84
130.6832, 11195.69
131.1654, 11274.06
131.6475, 11379.45
132.1296, 11508.88
132.6117, 11662.39
133.0938, 11819.45
133.5759, 11960.32
134.0581, 12087.81
134.5402, 12238.60
135.0223, 12420.87
135.5044, 12627.54
135.9865, 12840.39
136.4686, 13061.37
136.9508, 13275.53
137.4329, 13471.45
137.9150, 13646.73
138.3971, 13808.68
138.8792, 13957.05
139.3613, 14092.31
139.8434, 14223.86
140.3256, 14349.90
140.8077, 14477.89
141.2898, 14619.49
141.7719, 14778.27
142.2540, 14939.12
142.7361, 15091.46
143.2183, 15230.32
143.7004, 15403.89
144.1825, 15627.05
144.6646, 15875.73
145.1467, 16105.18
145.6288, 16307.75
146.1110, 16503.34
146.5931, 16696.03
147.0752, 16879.75
147.5573, 17074.17
148.0394, 17269.40
148.5215, 17473.10
149.0037, 17714.58
149.4858, 18058.00
149.9679, 18383.24
150.4500, 18641.87
150.9321, 18859.66
151.4142, 18979.42
151.8964, 18936.98
152.3785, 18764.40
152.8606, 18670.68
153.3427, 18734.46
153.8248, 18841.44
154.3069, 18919.61
154.7890, 19072.57
155.2712, 19086.81
155.7533, 18880.30
156.2354, 18450.97
156.7175, 18012.77
157.1996, 17533.23
157.6817, 17087.74
158.1639, 16745.41
158.6460, 16573.30
159.1281, 16461.72
159.6102, 16376.32
160.0923, 16313.41
160.5744, 16278.27
161.0566, 16271.23
161.5387, 16291.98
162.0208, 16340.44
162.5029, 16434.80
162.9850, 16542.80
163.4671, 16645.84
163.9493, 16736.33
164.4314, 16833.72
164.9135, 16946.96
165.3956, 17073.76
165.8777, 17209.31
166.3598, 17348.17
166.8420, 17497.31
167.3241, 17660.62
167.8062, 17834.54
168.2883, 18033.08
168.7704, 18295.48
169.2525, 18601.63
169.7346, 18879.33
170.2168, 19098.59
170.6989, 19260.65
171.1810, 19362.60
171.6631, 19386.53
172.1452, 19370.28
172.6273, 19314.26
173.1095, 19229.22
173.5916, 19191.65
174.0737, 19222.06
174.5558, 19340.96
175.0379, 19582.74
175.5201, 20015.62
176.0022, 20545.79
176.4843, 21121.16
176.9664, 21738.54
177.4485, 22225.71
177.9306, 22441.98
178.4128, 22408.90
178.8949, 22185.95
179.3770, 21663.88
179.8591, 20997.46
180.3412, 20439.77
180.8233, 19988.71
181.3055, 19644.15
181.7876, 19421.56
182.2697, 19309.23
182.7518, 19249.73
183.2339, 19245.65
183.7160, 19274.72
184.1981, 19285.43
184.6803, 19278.53
185.1624, 19240.47
185.6445, 19143.04
186.1266, 18991.16
186.6087, 18821.07
187.0908, 18641.97
187.5730, 18458.32
188.0551, 18299.67
188.5372, 18170.40
189.0193, 18059.26
189.5014, 17938.26
189.9835, 17806.50
190.4657, 17693.70
190.9478, 17616.87
191.4299, 17574.83
191.9120, 17566.68
192.3941, 17601.18
192.8762, 17659.66
193.3584, 17693.34
193.8405, 17699.03
194.3226, 17713.74
194.8047, 17771.99
195.2868, 17873.10
195.7689, 17971.61
196.2511, 18071.95
196.7332, 18160.83
197.2153, 18189.27
197.6974, 18154.30
198.1795, 18076.98
198.6616, 17962.04
199.1437, 17804.78
199.6259, 17660.35
200.1080, 17534.05
200.5901, 17428.90
201.0722, 17372.53
201.5543, 17373.52
202.0364, 17396.25
202.5186, 17402.55
203.0007, 17387.43
203.4828, 17386.02
203.9649, 17410.54
204.4470, 17458.73
204.9291, 17497.22
205.4113, 17521.15
205.8934, 17544.01
206.3755, 17580.24
206.8576, 17629.67
207.3397, 17692.40
207.8218, 17773.89
208.3040, 17875.44
208.7861, 17960.52
209.2682, 18023.34
209.7503, 18077.78
210.2324, 18135.95
210.7145, 18188.57
211.1967, 18275.10
211.6788, 18418.20
212.1609, 18628.48
212.6430, 18817.58
213.1251, 18970.31
213.6072, 19116.14
214.0894, 19315.35
214.5715, 19603.21
215.0536, 19860.81
215.5357, 20048.50
216.0178, 20169.40
216.4999, 20202.91
216.9820, 20120.12
217.4642, 19968.57
217.9463, 19830.58
218.4284, 19700.33
218.9105, 19596.45
219.3926, 19535.81
219.8747, 19544.75
220.3569, 19514.05
220.8390, 19434.10
221.3211, 19319.42
221.8032, 19195.74
222.2853, 19059.10
222.7674, 18923.72
223.2496, 18794.23
223.7317, 18659.22
224.2138, 18559.36
224.6959, 18501.65
225.1780, 18478.01
225.6601, 18462.91
226.1423, 18454.41
226.6244, 18457.95
227.1065, 18476.51
227.5886, 18513.16
228.0707, 18557.28
228.5528, 18608.24
229.0350, 18666.37
229.5171, 18733.05
229.9992, 18812.04
230.4813, 18895.05
230.9634, 18975.03
231.4455, 19039.60
231.9276, 19129.91
232.4098, 19252.68
232.8919, 19404.36
233.3740, 19558.79
233.8561, 19707.32
234.3382, 19871.15
234.8203, 20063.92
235.3025, 20286.46
235.7846, 20534.64
236.2667, 20807.14
236.7488, 21106.53
237.2309, 21431.71
237.7130, 21771.36
238.1952, 22146.64
238.6773, 22568.73
239.1594, 23036.59
239.6415, 23554.63
240.1236, 24148.84
240.6057, 24802.94
241.0879, 25446.70
241.5700, 26156.52
242.0521, 26753.45
242.5342, 27123.71
243.0163, 27252.32
243.4984, 27177.56
243.9806, 26866.87
244.4627, 26340.44
244.9448, 25739.88
245.4269, 25001.05
245.9090, 24262.55
246.3911, 23605.19
246.8732, 23030.52
247.3554, 22533.05
247.8375, 22115.08
248.3196, 21774.89
248.8017, 21499.63
249.2838, 21298.49
249.7659, 21154.89
250.2481, 21060.68
250.7302, 21032.78
251.2123, 21020.31
251.6944, 21020.67
252.1765, 21033.78
252.6586, 21050.72
253.1408, 21055.36
253.6229, 21087.13
254.1050, 21177.75
254.5871, 21343.04
255.0692, 21528.79
255.5513, 21723.83
256.0334, 21931.10
256.5156, 22188.92
256.9977, 22509.24
257.4798, 22865.89
257.9619, 23249.68
258.4440, 23695.11
258.9261, 24095.38
259.4083, 24478.66
259.8904, 24822.16
260.3725, 24925.69
260.8546, 24742.69
261.3367, 24388.68
261.8188, 23923.92
262.3010, 23285.83
262.7831, 22700.83
263.2652, 22187.77
263.7473, 21749.76
264.2294, 21378.17
264.7115, 21080.38
265.1937, 20841.91
265.6758, 20665.62
266.1579, 20572.87
266.6400, 20472.83
267.1221, 20346.61
267.6042, 20203.09
268.0864, 20099.93
268.5685, 20044.41
269.0506, 20012.91
269.5327, 19989.41
270.0148, 19974.06
270.4969, 19969.91
270.9791, 19984.87
271.4612, 20010.92
271.9433, 20005.44
272.4254, 19957.43
272.9075, 19908.53
273.3896, 19888.21
273.8718, 19898.39
274.3539, 19928.84
274.8360, 19987.24
275.3181, 20061.98
275.8002, 20106.15
276.2823, 20111.13
276.7645, 20114.61
277.2466, 20147.24
277.7287, 20212.89
278.2108, 20265.10
278.6929, 20289.78
279.1750, 20302.82
279.6572, 20355.03
280.1393, 20451.17
280.6214, 20560.02
281.1035, 20659.25
281.5856, 20748.36
282.0677, 20849.95
282.5499, 20972.97
283.0320, 21103.30
283.5141, 21211.32
283.9962, 21297.86
284.4783, 21355.29
284.9604, 21372.09
285.4425, 21350.21
285.9247, 21319.26
286.4068, 21280.22
286.8889, 21237.96
287.3710, 21206.99
287.8531, 21187.85
288.3352, 21158.84
288.8174, 21102.62
289.2995, 21022.95
289.7816, 20935.92
290.2637, 20836.15
290.7458, 20748.13
291.2279, 20732.45
291.7101, 20783.51
292.1922, 20820.18
292.6743, 20773.92
293.1564, 20671.45
293.6385, 20606.59
294.1206, 20591.95
294.6028, 20604.84
295.0849, 20618.34
295.5670, 20633.43
296.0491, 20654.35
296.5312, 20689.75
297.0133, 20732.84
297.4955, 20765.53
297.9776, 20784.72
298.4597, 20802.36
298.9418, 20826.24
299.4239, 20858.50
299.9060, 20905.86
300.3882, 20973.87
300.8703, 21058.02
301.3524, 21151.74
301.8345, 21254.90
302.3166, 21360.34
302.7987, 21468.19
303.2809, 21572.82
303.7630, 21664.81
304.2451, 21742.39
304.7272, 21801.41
305.2093, 21833.31
305.6914, 21836.96
306.1736, 21823.76
306.6557, 21797.03
307.1378, 21760.53
307.6199, 21720.91
308.1020, 21661.16
308.5841, 21612.69
309.0663, 21612.32
309.5484, 21660.52
310.0305, 21709.75
310.5126, 21708.60
310.9947, 21697.13
311.4768, 21725.09
311.9590, 21835.19
312.4411, 21970.54
312.9232, 22098.87
313.4053, 22221.15
313.8874, 22343.97
314.3695, 22467.53
314.8516, 22597.11
315.3337, 22738.00
315.8159, 22877.15
316.2980, 23041.60
316.7801, 23255.70
317.2622, 23511.55
317.7443, 23769.39
318.2264, 24030.89
318.7086, 24276.70
319.1907, 24493.60
319.6728, 24696.08
320.1549, 24848.37
320.6370, 24944.88
321.1191, 24984.55
321.6013, 24963.29
322.0834, 24875.84
322.5655, 24729.41
323.0476, 24521.03
323.5297, 24194.67
324.0118, 23894.67
324.4940, 23646.81
324.9761, 23439.15
325.4582, 23243.11
325.9403, 23037.87
326.4224, 22858.31
326.9045, 22717.98
327.3867, 22634.47
327.8688, 22555.91
328.3509, 22480.03
328.8330, 22408.82
329.3151, 22344.09
329.7972, 22280.10
330.2794, 22229.26
330.7615, 22194.60
331.2436, 22176.82
331.7257, 22176.11
332.2078, 22216.19
332.6899, 22259.01
333.1721, 22248.08
333.6542, 22130.08
334.1363, 22052.99
334.6184, 22064.87
335.1005, 22172.44
335.5826, 22243.62
336.0648, 22263.66
336.5469, 22266.41
337.0290, 22288.31
337.5111, 22339.65
337.9932, 22377.93
338.4753, 22396.54
338.9575, 22394.72
339.4396, 22361.32
339.9217, 22282.60
340.4038, 22206.60
340.8859, 22179.39
341.3680, 22207.05
341.8502, 22222.11
342.3323, 22214.78
342.8144, 22187.90
343.2965, 22142.20
343.7786, 22074.58
344.2607, 22015.50
344.7429, 21995.86
345.2250, 22010.79
345.7071, 22003.89
346.1892, 21963.66
346.6713, 21909.96
347.1534, 21873.02
347.6355, 21852.34
348.1176, 21839.02
348.5998, 21818.27
349.0819, 21683.56
349.5640, 21791.15
350.0461, 21857.76
350.5282, 21885.60
351.0103, 21758.52
351.4925, 21831.48
351.9746, 21824.27
352.4567, 21813.78
352.9388, 21914.89
353.4209, 21810.34
353.9030, 21909.69
354.3852, 21927.64
354.8673, 21951.60
355.3494, 21972.71
355.8315, 21988.35
356.3136, 21981.21
356.7957, 21969.63
357.2779, 21972.15
357.7600, 21987.54
358.2421, 21997.05
358.7242, 21975.87
359.2063, 21949.66
359.6884, 21945.16
360.1706, 21992.05
360.6527, 22035.22
361.1348, 22039.08
361.6169, 22014.47
362.0990, 22003.74
362.5811, 22039.04
363.0633, 22081.37
363.5454, 22104.26
364.0275, 22082.43
364.5096, 22078.28
364.9917, 22131.44
365.4738, 22211.28
365.9560, 22254.49
366.4381, 22198.55
366.9202, 22148.57
367.4023, 22147.07
367.8844, 22219.29
368.3665, 22275.45
368.8487, 22300.67
369.3308, 22312.46
369.8129, 22331.45
370.2950, 22358.52
370.7771, 22391.70
371.2592, 22431.19
371.7414, 22476.71
372.2235, 22524.89
372.7056, 22567.91
373.1877, 22621.18
373.6698, 22704.71
374.1519, 22841.78
374.6341, 22943.54
375.1162, 22980.70
375.5983, 22969.90
376.0804, 23002.90
376.5625, 23092.06
377.0446, 23190.61
377.5267, 23267.32
378.0089, 23321.54
378.4910, 23367.12
378.9731, 23400.22
379.4552, 23433.22
379.9373, 23493.31
380.4194, 23582.44
380.9016, 23678.46
381.3837, 23768.89
381.8658, 23857.08
382.3479, 23962.97
382.8300, 24089.38
383.3121, 24223.78
383.7943, 24360.20
384.2764, 24492.71
384.7585, 24599.21
385.2406, 24652.99
385.7227, 24679.79
386.2048, 24729.17
386.6870, 24799.36
387.1691, 24852.88
387.6512, 24850.90
388.1333, 24811.70
388.6154, 24765.46
389.0975, 24729.36
389.5797, 24678.09
390.0618, 24579.98
390.5439, 24444.49
391.0260, 24313.75
391.5081, 24212.06
391.9902, 24125.13
392.4724, 24039.20
392.9545, 23947.33
393.4366, 23871.09
393.9187, 23828.48
394.4008, 23808.49
394.8829, 23789.04
395.3651, 23746.96
395.8472, 23719.20
396.3293, 23727.75
396.8114, 23782.99
397.2935, 23828.28
397.7756, 23847.37
398.2578, 23854.45
398.7399, 23864.16
399.2220, 23882.59
399.7041, 23896.67
400.1862, 23900.07
400.6683, 23893.56
401.1505, 23897.60
401.6326, 23906.24
402.1147, 23931.89
402.5968, 23988.84
403.0789, 24105.93
403.5610, 24182.29
404.0432, 24190.18
404.5253, 24163.27
405.0074, 24200.21
405.4895, 24323.93
405.9716, 24445.69
406.4537, 24517.83
406.9359, 24536.95
407.4180, 24576.15
407.9001, 24638.39
408.3822, 24713.51
408.8643, 24785.42
409.3464, 24854.64
409.8285, 24941.73
410.3106, 25054.69
410.7928, 25189.36
411.2749, 25347.47
411.7570, 25530.40
412.2391, 25700.89
412.7212, 25820.59
413.2033, 25905.70
413.6855, 25994.29
414.1676, 26097.42
414.6497, 26202.70
415.1318, 26302.81
415.6139, 26394.35
416.0960, 26462.36
416.5782, 26486.98
417.0603, 26490.48
417.5424, 26491.77
418.0245, 26492.01
418.5066, 26494.56
418.9887, 26501.89
419.4709, 26512.40
419.9530, 26524.09
420.4351, 26517.15
420.9172, 26529.03
421.3993, 26574.29
421.8814, 26653.95
422.3636, 26762.41
422.8457, 26921.72
423.3278, 27096.41
423.8099, 27260.10
424.2920, 27409.58
424.7741, 27551.98
425.2563, 27700.68
425.7384, 27845.91
426.2205, 27949.79
426.7026, 28022.01
427.1847, 28042.06
427.6668, 27998.22
428.1490, 27881.21
428.6311, 27732.02
429.1132, 27544.61
429.5953, 27327.32
430.0774, 27087.64
430.5595, 26818.60
431.0417, 26555.26
431.5238, 26304.17
432.0059, 26067.92
432.4880, 25862.68
432.9701, 25689.68
433.4522, 25541.21
433.9344, 25409.26
434.4165, 25296.09
434.8986, 25205.90
435.3807, 25144.20
435.8628, 25097.13
436.3449, 25043.19
436.8271, 24984.72
437.3092, 24932.20
437.7913, 24883.15
438.2734, 24847.46
438.7555, 24849.52
439.2376, 24894.71
439.7197, 24932.25
440.2018, 24905.04
440.6840, 24849.21
441.1661, 24816.53
441.6482, 24856.19
442.1303, 24897.41
442.6124, 24895.60
443.0945, 24858.04
443.5767, 24831.30
444.0588, 24836.33
444.5409, 24854.63
445.0230, 24875.58
445.5051, 24900.01
445.9872, 24923.54
446.4694, 24939.19
446.9515, 24954.97
447.4336, 24985.62
447.9157, 25039.23
448.3978, 25099.62
448.8799, 25164.25
449.3621, 25234.53
449.8442, 25301.25
450.3263, 25362.36
450.8084, 25422.09
451.2905, 25483.71
451.7726, 25546.31
452.2548, 25611.28
452.7369, 25680.96
453.2190, 25750.97
453.7011, 25814.27
454.1832, 25871.40
454.6653, 25912.15
455.1475, 25934.90
455.6296, 25937.70
456.1117, 25903.88
456.5938, 25828.15
457.0759, 25741.94
457.5580, 25687.48
458.0402, 25654.65
458.5223, 25612.00
459.0044, 25540.05
459.4865, 25458.77
459.9686, 25385.47
460.4507, 25321.59
460.9329, 25270.98
461.4150, 25241.14
461.8971, 25224.66
462.3792, 25213.88
462.8613, 25204.75
463.3434, 25207.63
463.8256, 25240.13
464.3077, 25285.91
464.7898, 25317.70
465.2719, 25333.39
465.7540, 25327.79
466.2361, 25281.08
466.7183, 25183.79
467.2004, 25139.75
467.6825, 25197.02
468.1646, 25281.00
468.6467, 25342.09
469.1288, 25361.37
469.6109, 25389.01
470.0930, 25427.41
470.5752, 25475.84
471.0573, 25538.84
471.5394, 25626.11
472.0215, 25698.16
472.5036, 25730.87
472.9857, 25723.70
473.4679, 25731.91
473.9500, 25757.11
474.4321, 25791.66
474.9142, 25828.99
475.3963, 25869.23
475.8784, 25910.58
476.3606, 25950.67
476.8427, 25995.71
477.3248, 26058.47
477.8069, 26137.35
478.2890, 26219.03
478.7711, 26287.12
479.2533, 26357.74
479.7354, 26452.18
480.2175, 26575.65
480.6996, 26709.38
481.1817, 26836.63
481.6638, 26965.97
482.1460, 27108.93
482.6281, 27283.67
483.1102, 27455.12
483.5923, 27618.18
484.0744, 27768.86
484.5565, 27885.22
485.0387, 27962.68
485.5208, 28000.93
486.0029, 27998.53
486.4850, 27950.31
486.9671, 27871.76
487.4492, 27760.95
487.9314, 27622.33
488.4135, 27457.55
488.8956, 27252.67
489.3777, 27061.37
489.8598, 26896.72
490.3419, 26758.96
490.8241, 26630.40
491.3062, 26508.09
491.7883, 26409.51
492.2704, 26361.80
492.7525, 26357.69
493.2346, 26324.62
493.7168, 26245.78
494.1989, 26160.14
494.6810, 26126.62
495.1631, 26134.35
495.6452, 26143.33
496.1273, 26136.04
496.6095, 26118.13
497.0916, 26090.07
497.5737, 26053.21
498.0558, 26026.80
498.5379, 26026.09
499.0201, 26040.65
499.5022, 26062.37
499.9843, 26097.09
500.4664, 26126.55
500.9485, 26139.72
501.4306, 26144.21
501.9127, 26153.67
502.3948, 26175.67
502.8770, 26198.30
503.3591, 26214.07
503.8412, 26220.97
504.3233, 26246.27
504.8054, 26299.56
505.2875, 26359.42
505.7697, 26413.62
506.2518, 26466.21
506.7339, 26495.19
507.2160, 26488.55
507.6981, 26467.80
508.1802, 26476.34
508.6624, 26515.08
509.1445, 26570.88
509.6266, 26649.15
510.1087, 26740.04
510.5908, 26810.13
511.0729, 26859.64
511.5551, 26893.90
512.0372, 26906.16
512.5193, 26908.95
513.0014, 26924.07
513.4835, 26955.53
513.9656, 27002.77
514.4478, 27076.68
514.9299, 27165.50
515.4120, 27244.85
515.8941, 27291.92
516.3762, 27336.78
516.8583, 27399.49
517.3405, 27481.64
517.8226, 27545.97
518.3047, 27568.41
518.7868, 27579.79
519.2689, 27601.53
519.7510, 27656.95
520.2332, 27687.87
520.7153, 27673.14
521.1974, 27642.16
521.6795, 27656.93
522.1616, 27736.21
522.6437, 27812.20
523.1259, 27860.24
523.6080, 27884.67
524.0901, 27916.85
524.5722, 27955.40
525.0543, 28012.78
525.5364, 28121.15
526.0186, 28263.08
526.5007, 28360.20
526.9828, 28395.32
527.4649, 28399.27
527.9470, 28406.78
528.4291, 28411.88
528.9113, 28399.99
529.3934, 28343.30
529.8755, 28282.79
530.3576, 28248.26
530.8397, 28239.29
531.3218, 28244.99
531.8040, 28262.69
532.2861, 28292.32
532.7682, 28331.96
533.2503, 28375.12
533.7324, 28443.47
534.2145, 28581.59
534.6967, 28733.19
535.1788, 28823.60
535.6609, 28837.82
536.1430, 28811.15
536.6251, 28728.18
537.1072, 28604.21
537.5894, 28558.41
538.0715, 28613.18
538.5536, 28674.33
539.0357, 28672.44
539.5178, 28612.63
539.9999, 28587.29
540.4821, 28600.24
540.9642, 28647.57
541.4463, 28733.04
541.9284, 28850.41
542.4105, 28981.20
542.8926, 29118.45
543.3748, 29266.48
543.8569, 29421.18
544.3390, 29586.18
544.8211, 29779.32
545.3032, 30021.83
545.7853, 30288.70
546.2675, 30556.92
546.7495, 30818.63
547.2316, 31124.33
547.7137, 31506.27
548.1959, 31926.85
548.6780, 32363.72
549.1601, 32891.39
549.6422, 33332.50
550.1243, 33702.62
550.6064, 33975.33
551.0886, 34086.32
551.5707, 34033.64
552.0528, 33819.58
552.5349, 33411.25
553.0170, 32826.36
553.4991, 32248.69
553.9813, 31673.01
554.4634, 31138.39
554.9455, 30675.96
555.4276, 30280.89
555.9097, 29944.94
556.3918, 29669.30
556.8740, 29446.64
557.3561, 29284.02
557.8382, 29169.47
558.3203, 29077.70
558.8024, 28984.74
559.2845, 28922.83
559.7667, 28922.29
560.2488, 28976.02
560.7309, 29035.69
561.2130, 29086.25
561.6951, 29137.62
562.1772, 29193.30
562.6594, 29246.31
563.1415, 29323.60
563.6236, 29452.24
564.1057, 29583.24
564.5878, 29661.00
565.0699, 29663.47
565.5521, 29676.16
566.0342, 29719.60
566.5163, 29776.38
566.9984, 29798.03
567.4805, 29783.23
567.9626, 29754.61
568.4448, 29725.91
568.9269, 29692.22
569.4090, 29638.21
569.8911, 29564.23
570.3732, 29475.62
570.8553, 29365.69
571.3375, 29247.88
571.8196, 29141.22
572.3017, 29040.96
572.7838, 28968.84
573.2659, 28959.01
573.7480, 28979.93
574.2302, 28979.92
574.7123, 28910.99
575.1944, 28854.22
575.6765, 28835.95
576.1586, 28853.92
576.6407, 28877.44
577.1229, 28922.04
577.6050, 28952.72
578.0871, 28943.88
578.5692, 28881.46
579.0513, 28868.25
579.5334, 28915.81
580.0156, 28985.18
580.4977, 29031.28
580.9798, 29056.85
581.4619, 29086.23
581.9440, 29121.51
582.4261, 29168.32
582.9083, 29247.25
583.3904, 29346.56
583.8725, 29429.39
584.3546, 29478.20
584.8367, 29500.15
585.3188, 29488.95
585.8010, 29446.68
586.2831, 29416.25
586.7652, 29441.01
587.2473, 29466.37
587.7294, 29451.21
588.2115, 29349.24
588.6937, 29291.00
589.1758, 29313.08
589.6579, 29362.78
590.1400, 29373.23
590.6221, 29326.44
591.1042, 29285.17
591.5864, 29252.75
592.0685, 29238.74
592.5506, 29286.70
593.0327, 29400.33
593.5148, 29509.60
593.9969, 29581.58
594.4791, 29620.48
594.9612, 29623.28
595.4433, 29590.78
595.9254, 29575.98
596.4075, 29639.28
596.8896, 29737.83
597.3718, 29812.82
597.8539, 29835.27
598.3360, 29878.09
598.8181, 30004.91
599.3002, 30166.40
599.7823, 30290.12
600.2645, 30315.78
600.7466, 30355.13
601.2287, 30432.80
601.7108, 30541.63
602.1929, 30650.61
602.6750, 30762.61
603.1572, 30866.76
603.6393, 30954.90
604.1214, 31026.55
604.6035, 31118.31
605.0856, 31235.29
605.5677, 31346.88
606.0499, 31421.80
606.5320, 31468.05
607.0141, 31515.09
607.4962, 31569.43
607.9783, 31619.23
608.4604, 31656.08
608.9425, 31678.79
609.4246, 31684.48
609.9067, 31648.80
610.3889, 31617.97
610.8710, 31626.05
611.3531, 31661.87
611.8352, 31673.53
612.3173, 31635.53
612.7994, 31586.48
