##NAMES=Hydroxylherderite
##RRUFFID=R060353
##IDEAL CHEMISTRY=CaBe(P^5+^O_4_)(OH)
##LOCALITY=Shigar Valley, northeast of Skardu, Baltistan, Pakistan
##OWNER=RRUFF
##SOURCE=Herb Obodda
##DESCRIPTION=Colorless equant crystal
##STATUS=The identification of this mineral has been confirmed by X-ray diffraction and chemical analysis
##URL=rruff.info/R060353
##MEASURED CHEMISTRY=(Ca_0.99_Mn_0.01_)_Σ=1_Be_1.00_P_1.00_O_4_((OH)_0.52_F_0.48_)_Σ=1_; trace amounts of Na; Be not measured but assumed by stoichiometry; OH estimated by charge balance
145.145, 2831.335
145.628, 2852.919
146.110, 2869.211
146.592, 2877.037
147.074, 2878.333
147.556, 2882.359
148.038, 2887.150
148.520, 2896.197
149.002, 2911.601
149.484, 2944.688
149.967, 2970.455
150.449, 2984.497
150.931, 2986.487
151.413, 2989.345
151.895, 2991.436
152.377, 2995.323
152.859, 3003.119
153.342, 3015.026
153.824, 3031.080
154.306, 3051.590
154.788, 3076.974
155.270, 3105.630
155.752, 3141.382
156.234, 3179.856
156.716, 3215.380
157.198, 3233.750
157.680, 3259.151
158.163, 3302.498
158.645, 3372.634
159.127, 3443.917
159.609, 3504.068
160.091, 3560.021
160.573, 3628.202
161.055, 3713.760
161.538, 3812.521
162.020, 3921.019
162.502, 4037.970
162.984, 4164.826
163.466, 4308.750
163.948, 4465.760
164.430, 4617.743
164.912, 4745.262
165.394, 4866.553
165.876, 4997.776
166.359, 5213.653
166.841, 5386.917
167.323, 5445.527
167.805, 5390.607
168.287, 5258.300
168.769, 5020.544
169.251, 4730.837
169.733, 4460.320
170.216, 4230.608
170.698, 4036.942
171.180, 3875.490
171.662, 3745.417
172.144, 3648.827
172.626, 3595.858
173.108, 3577.162
173.590, 3571.276
174.072, 3576.071
174.555, 3584.577
175.037, 3585.673
175.519, 3574.281
176.001, 3567.408
176.483, 3587.224
176.965, 3628.426
177.447, 3670.088
177.929, 3692.644
178.412, 3707.936
178.894, 3739.111
179.376, 3797.328
179.858, 3861.176
180.340, 3905.052
180.822, 3929.079
181.304, 3937.451
181.786, 3927.646
182.268, 3904.095
182.751, 3878.105
183.233, 3851.285
183.715, 3824.754
184.197, 3795.622
184.679, 3763.192
185.161, 3745.226
185.643, 3765.124
186.125, 3816.367
186.607, 3869.624
187.090, 3911.719
187.572, 3948.813
188.054, 3999.469
188.536, 4063.722
189.018, 4138.493
189.500, 4221.463
189.982, 4311.186
190.464, 4405.118
190.947, 4490.983
191.429, 4575.608
191.911, 4704.511
192.393, 4887.650
192.875, 5085.629
193.357, 5260.464
193.839, 5410.583
194.321, 5503.888
194.803, 5522.807
195.286, 5468.346
195.768, 5356.450
196.250, 5175.971
196.732, 4958.607
197.214, 4753.639
197.696, 4560.040
198.178, 4389.647
198.661, 4246.459
199.143, 4130.444
199.625, 4045.220
200.107, 3997.299
200.589, 3974.799
201.071, 3942.883
201.553, 3898.574
202.035, 3855.999
202.517, 3826.301
202.999, 3811.212
203.482, 3792.530
203.964, 3764.243
204.446, 3730.826
204.928, 3713.982
205.410, 3717.438
205.892, 3727.400
206.374, 3733.829
206.857, 3737.104
207.339, 3733.935
207.821, 3720.661
208.303, 3699.014
208.785, 3687.816
209.267, 3691.088
209.749, 3697.597
210.231, 3694.894
210.713, 3679.643
211.195, 3667.837
211.678, 3663.860
212.160, 3667.912
212.642, 3672.490
213.124, 3676.764
213.606, 3683.103
214.088, 3696.064
214.570, 3720.295
215.052, 3738.655
215.535, 3743.051
216.017, 3730.301
216.499, 3732.322
216.981, 3755.057
217.463, 3786.485
217.945, 3807.492
218.427, 3811.601
218.909, 3818.558
219.391, 3836.166
219.874, 3867.897
220.356, 3894.448
220.838, 3914.333
221.320, 3929.727
221.802, 3945.078
222.284, 3963.271
222.766, 3976.011
223.248, 3980.041
223.731, 3974.671
224.213, 3962.734
224.695, 3942.157
225.177, 3916.066
225.659, 3889.286
226.141, 3855.247
226.623, 3831.728
227.105, 3830.753
227.587, 3869.997
228.070, 3886.806
228.552, 3870.737
229.034, 3832.672
229.516, 3807.254
229.998, 3796.622
230.480, 3795.288
230.962, 3802.013
231.444, 3822.675
231.926, 3837.612
232.409, 3844.002
232.891, 3843.749
233.373, 3844.652
233.855, 3847.171
234.337, 3850.284
234.819, 3852.990
235.301, 3853.122
235.783, 3857.923
236.266, 3870.480
236.748, 3888.879
237.230, 3900.903
237.712, 3900.886
238.194, 3901.659
238.676, 3913.029
239.158, 3943.702
239.640, 3967.105
240.122, 3978.891
240.605, 3980.250
241.087, 3982.433
241.569, 3989.916
242.051, 3993.163
242.533, 3982.887
243.015, 3946.122
243.497, 3922.105
243.980, 3919.245
244.462, 3936.170
244.944, 3949.338
245.426, 3953.629
245.908, 3959.514
246.390, 3977.239
246.872, 4015.409
247.354, 4047.186
247.836, 4065.493
248.318, 4070.824
248.801, 4082.176
249.283, 4101.269
249.765, 4124.313
250.247, 4149.395
250.729, 4181.185
251.211, 4204.806
251.693, 4216.112
252.176, 4215.354
252.658, 4214.176
253.140, 4213.315
253.622, 4211.665
254.104, 4208.139
254.586, 4202.679
255.068, 4196.208
255.550, 4189.771
256.032, 4183.496
256.514, 4172.020
256.997, 4152.146
257.479, 4130.799
257.961, 4113.813
258.443, 4099.105
258.925, 4093.600
259.407, 4100.852
259.889, 4121.107
260.371, 4138.483
260.854, 4152.753
261.336, 4164.081
261.818, 4170.931
262.300, 4168.297
262.782, 4174.076
263.264, 4194.164
263.746, 4229.087
264.228, 4262.272
264.711, 4294.194
265.193, 4323.961
265.675, 4350.789
266.157, 4373.691
266.639, 4396.130
267.121, 4419.820
267.603, 4444.835
268.085, 4460.873
268.567, 4462.361
269.050, 4463.724
269.532, 4486.648
270.014, 4540.079
270.496, 4580.486
270.978, 4592.316
271.460, 4576.590
271.942, 4566.953
272.424, 4570.104
272.906, 4567.253
273.389, 4528.326
273.871, 4443.343
274.353, 4372.259
274.835, 4336.317
275.317, 4332.993
275.799, 4325.097
276.281, 4311.348
276.763, 4295.892
277.246, 4284.783
277.728, 4278.995
278.210, 4269.180
278.692, 4249.612
279.174, 4222.153
279.656, 4204.446
280.138, 4197.594
280.620, 4196.981
281.103, 4199.020
281.585, 4203.889
282.067, 4206.805
282.549, 4205.430
283.031, 4200.652
283.513, 4197.323
283.995, 4195.321
284.477, 4195.262
284.959, 4199.492
285.441, 4207.862
285.924, 4213.184
286.406, 4210.466
286.888, 4203.054
287.370, 4206.396
287.852, 4221.728
288.334, 4239.852
288.816, 4248.529
289.298, 4249.376
289.781, 4257.587
290.263, 4282.780
290.745, 4317.337
291.227, 4337.349
291.709, 4342.184
292.191, 4341.938
292.673, 4344.222
293.155, 4349.168
293.638, 4357.558
294.120, 4369.541
294.602, 4385.056
295.084, 4406.239
295.566, 4433.171
296.048, 4458.343
296.530, 4477.978
297.012, 4491.275
297.494, 4494.033
297.977, 4475.662
298.459, 4453.606
298.941, 4462.500
299.423, 4500.679
299.905, 4536.306
300.387, 4540.585
300.869, 4524.086
301.351, 4508.487
301.833, 4499.786
302.316, 4494.742
302.798, 4487.421
303.280, 4478.608
303.762, 4475.143
304.244, 4488.583
304.726, 4509.037
305.208, 4520.653
305.690, 4514.092
306.172, 4503.276
306.655, 4504.731
307.137, 4515.311
307.619, 4519.378
308.101, 4496.232
308.583, 4465.378
309.065, 4450.178
309.547, 4462.933
310.030, 4482.375
310.512, 4499.175
310.994, 4511.588
311.476, 4513.156
311.958, 4490.576
312.440, 4461.058
312.922, 4437.893
313.404, 4422.113
313.886, 4416.881
314.369, 4430.433
314.851, 4456.884
315.333, 4479.693
315.815, 4494.036
316.297, 4501.177
316.779, 4500.448
317.261, 4486.942
317.743, 4476.231
318.225, 4474.666
318.708, 4480.072
319.190, 4487.828
319.672, 4497.163
320.154, 4508.135
320.636, 4520.455
321.118, 4533.198
321.600, 4549.786
322.082, 4577.118
322.565, 4607.947
323.047, 4629.894
323.529, 4634.281
324.011, 4635.197
324.493, 4637.640
324.975, 4643.417
325.457, 4645.538
325.939, 4634.720
326.422, 4622.211
326.904, 4622.934
327.386, 4651.370
327.868, 4679.651
328.350, 4702.192
328.832, 4718.256
329.314, 4731.807
329.796, 4740.269
330.278, 4747.642
330.760, 4758.690
331.243, 4781.079
331.725, 4795.783
332.207, 4795.085
332.689, 4777.520
333.171, 4774.311
333.653, 4793.182
334.135, 4818.514
334.617, 4835.917
335.100, 4842.641
335.582, 4848.230
336.064, 4853.788
336.546, 4859.466
337.028, 4867.608
337.510, 4881.782
337.992, 4891.328
338.474, 4886.372
338.957, 4863.967
339.439, 4839.997
339.921, 4814.773
340.403, 4789.961
340.885, 4773.176
341.367, 4765.267
341.849, 4760.752
342.331, 4757.462
342.813, 4755.439
343.296, 4749.167
343.778, 4737.019
344.260, 4722.074
344.742, 4709.788
345.224, 4700.134
345.706, 4694.929
346.188, 4697.552
346.670, 4706.396
347.152, 4713.314
347.635, 4717.761
348.117, 4720.104
348.599, 4717.986
349.081, 4712.728
349.563, 4712.199
350.045, 4727.254
350.527, 4748.546
351.009, 4754.607
351.491, 4743.052
351.974, 4726.637
352.456, 4716.789
352.938, 4711.643
353.420, 4706.631
353.902, 4695.895
354.384, 4686.213
354.866, 4688.676
355.349, 4703.509
355.831, 4715.510
356.313, 4710.721
356.795, 4697.311
357.277, 4686.333
357.759, 4686.609
358.241, 4686.898
358.723, 4677.517
359.205, 4660.056
359.688, 4645.957
360.170, 4640.281
360.652, 4640.816
361.134, 4646.119
361.616, 4664.030
362.098, 4676.667
362.580, 4673.603
363.062, 4658.817
363.544, 4647.080
364.027, 4641.208
364.509, 4640.478
364.991, 4645.205
365.473, 4660.626
365.955, 4672.455
366.437, 4679.421
366.919, 4681.426
367.401, 4678.205
367.884, 4658.720
368.366, 4644.063
368.848, 4641.468
369.330, 4653.925
369.812, 4670.632
370.294, 4699.460
370.776, 4729.270
371.258, 4742.718
371.741, 4724.411
372.223, 4714.570
372.705, 4726.896
373.187, 4763.688
373.669, 4786.823
374.151, 4791.589
374.633, 4788.401
375.115, 4785.117
375.597, 4778.491
376.079, 4784.213
376.562, 4810.948
377.044, 4852.714
377.526, 4872.977
378.008, 4867.328
378.490, 4856.710
378.972, 4857.125
379.454, 4868.538
379.936, 4881.875
380.419, 4897.625
380.901, 4912.458
381.383, 4918.121
381.865, 4914.880
382.347, 4908.845
382.829, 4900.212
383.311, 4891.506
383.793, 4892.048
384.276, 4903.950
384.758, 4919.969
385.240, 4931.256
385.722, 4938.953
386.204, 4947.192
386.686, 4959.145
387.168, 4971.931
387.650, 4980.948
388.132, 4985.620
388.615, 4991.633
389.097, 5005.661
389.579, 5023.305
390.061, 5038.042
390.543, 5047.388
391.025, 5052.851
391.507, 5053.977
391.989, 5051.330
392.471, 5049.001
392.954, 5044.735
393.436, 5044.098
393.918, 5052.175
394.400, 5078.251
394.882, 5102.528
395.364, 5119.561
395.846, 5130.328
396.328, 5137.269
396.810, 5137.280
397.293, 5136.466
397.775, 5137.464
398.257, 5141.120
398.739, 5145.049
399.221, 5147.874
399.703, 5151.018
400.185, 5156.960
400.668, 5172.550
401.150, 5181.779
401.632, 5176.974
402.114, 5155.082
402.596, 5147.724
403.078, 5158.394
403.560, 5179.772
404.042, 5208.518
404.524, 5250.396
405.007, 5278.885
405.489, 5283.923
405.971, 5272.492
406.453, 5281.368
406.935, 5316.563
407.417, 5349.191
407.899, 5352.929
408.381, 5329.296
408.863, 5319.545
409.346, 5329.701
409.828, 5352.245
410.310, 5375.490
410.792, 5399.691
411.274, 5426.710
411.756, 5463.756
412.238, 5503.669
412.720, 5525.101
413.203, 5524.786
413.685, 5525.404
414.167, 5553.610
414.649, 5599.525
415.131, 5641.728
415.613, 5666.109
416.095, 5687.147
416.577, 5719.239
417.060, 5761.135
417.542, 5804.604
418.024, 5846.239
418.506, 5886.036
418.988, 5921.446
419.470, 5941.863
419.952, 5974.067
420.434, 6039.121
420.916, 6125.187
421.398, 6202.563
421.881, 6243.044
422.363, 6287.909
422.845, 6359.665
423.327, 6475.079
423.809, 6576.574
424.291, 6655.789
424.773, 6719.032
425.255, 6774.172
425.738, 6836.026
426.220, 6871.286
426.702, 6870.190
427.184, 6832.984
427.666, 6782.717
428.148, 6719.934
428.630, 6643.557
429.112, 6547.577
429.595, 6420.316
430.077, 6311.657
430.559, 6224.592
431.041, 6161.368
431.523, 6130.479
432.005, 6135.947
432.487, 6149.104
432.969, 6156.633
433.451, 6158.693
433.934, 6152.596
434.416, 6134.784
434.898, 6122.836
435.380, 6145.325
435.862, 6195.427
436.344, 6243.023
436.826, 6269.426
437.308, 6289.831
437.790, 6330.972
438.273, 6391.899
438.755, 6452.330
439.237, 6493.077
439.719, 6526.507
440.201, 6568.010
440.683, 6620.841
441.165, 6683.482
441.647, 6755.370
442.129, 6836.584
442.612, 6926.275
443.094, 7014.747
443.576, 7118.370
444.058, 7251.424
444.540, 7424.972
445.022, 7589.077
445.504, 7730.124
445.987, 7856.482
446.469, 7980.325
446.951, 8145.910
447.433, 8259.571
447.915, 8301.151
448.397, 8273.597
448.879, 8215.163
449.361, 8117.104
449.843, 7998.598
450.326, 7866.833
450.808, 7716.666
451.290, 7572.143
451.772, 7435.229
452.254, 7301.970
452.736, 7161.718
453.218, 7009.870
453.700, 6874.247
454.182, 6770.623
454.665, 6695.102
455.147, 6628.384
455.629, 6569.776
456.111, 6519.176
456.593, 6478.948
457.075, 6447.339
457.557, 6419.830
458.039, 6396.920
458.522, 6375.112
459.004, 6345.393
459.486, 6310.328
459.968, 6282.205
460.450, 6271.238
460.932, 6269.639
461.414, 6271.696
461.896, 6279.342
462.379, 6279.965
462.861, 6251.775
463.343, 6215.338
463.825, 6200.645
464.307, 6247.626
464.789, 6290.136
465.271, 6301.645
465.753, 6280.855
466.235, 6258.946
466.717, 6236.056
467.200, 6216.963
467.682, 6204.916
468.164, 6201.256
468.646, 6202.648
469.128, 6210.958
469.610, 6223.736
470.092, 6235.330
470.574, 6245.833
471.057, 6254.552
471.539, 6259.681
472.021, 6260.788
472.503, 6269.512
472.985, 6287.766
473.467, 6307.979
473.949, 6323.858
474.431, 6335.250
474.914, 6338.353
475.396, 6330.399
475.878, 6316.178
476.360, 6303.077
476.842, 6291.439
477.324, 6283.239
477.806, 6278.795
478.288, 6279.240
478.770, 6289.743
479.253, 6313.655
479.735, 6332.126
480.217, 6319.695
480.699, 6294.435
481.181, 6284.075
481.663, 6314.463
482.145, 6348.944
482.627, 6368.458
483.109, 6374.393
483.592, 6381.685
484.074, 6393.484
484.556, 6408.221
485.038, 6425.723
485.520, 6454.196
486.002, 6470.819
486.484, 6466.344
486.966, 6452.169
487.448, 6447.745
487.931, 6460.002
488.413, 6469.919
488.895, 6472.250
489.377, 6467.303
489.859, 6462.368
490.341, 6457.343
490.823, 6453.331
491.306, 6451.442
491.788, 6451.814
492.270, 6453.233
492.752, 6455.643
493.234, 6459.239
493.716, 6466.104
494.198, 6475.432
494.680, 6481.059
495.162, 6468.922
495.645, 6455.332
496.127, 6472.596
496.609, 6521.551
497.091, 6565.485
497.573, 6565.174
498.055, 6547.656
498.537, 6546.669
499.019, 6585.572
499.501, 6623.319
499.984, 6635.904
500.466, 6632.362
500.948, 6636.188
501.430, 6668.703
501.912, 6697.461
502.394, 6705.346
502.876, 6683.680
503.358, 6673.977
503.841, 6677.649
504.323, 6693.008
504.805, 6720.907
505.287, 6771.013
505.769, 6811.342
506.251, 6834.407
506.733, 6845.736
507.215, 6862.744
507.698, 6886.001
508.180, 6911.309
508.662, 6934.929
509.144, 6957.790
509.626, 6989.371
510.108, 7031.404
510.590, 7075.747
511.072, 7110.440
511.554, 7140.602
512.036, 7181.498
512.519, 7242.889
513.001, 7310.776
513.483, 7367.770
513.965, 7417.380
514.447, 7474.190
514.929, 7545.184
515.411, 7626.796
515.893, 7715.215
516.375, 7808.577
516.858, 7916.194
517.340, 8067.265
517.822, 8222.354
518.304, 8342.443
518.786, 8453.354
519.268, 8489.326
519.750, 8417.498
520.232, 8261.063
520.715, 8118.258
521.197, 7993.152
521.679, 7874.488
522.161, 7752.757
522.643, 7623.645
523.125, 7533.316
523.607, 7485.622
524.089, 7467.581
524.571, 7471.617
525.054, 7496.301
525.536, 7518.721
526.018, 7527.908
526.500, 7538.095
526.982, 7577.799
527.464, 7643.510
527.946, 7713.551
528.429, 7767.515
528.911, 7823.021
529.393, 7901.720
529.875, 8006.539
530.357, 8121.765
530.839, 8251.362
531.321, 8381.441
531.803, 8498.816
532.286, 8617.711
532.768, 8703.700
533.250, 8747.343
533.732, 8751.180
534.214, 8727.435
534.696, 8676.281
535.178, 8598.983
535.660, 8493.221
536.142, 8356.475
536.625, 8207.621
537.107, 8031.850
537.589, 7868.537
538.071, 7760.796
538.553, 7713.592
539.035, 7672.360
539.517, 7630.144
539.999, 7588.007
540.481, 7539.356
540.964, 7486.925
541.446, 7457.015
541.928, 7484.298
542.410, 7535.385
542.892, 7550.746
543.374, 7529.635
543.856, 7507.117
544.338, 7512.154
544.820, 7528.346
545.303, 7536.828
545.785, 7528.973
546.267, 7520.340
546.749, 7512.358
547.231, 7508.388
547.713, 7514.907
548.195, 7549.113
548.677, 7577.948
549.159, 7590.489
549.642, 7586.756
550.124, 7585.367
550.606, 7590.492
551.088, 7592.403
551.570, 7581.366
552.052, 7552.203
552.534, 7538.275
553.016, 7544.163
553.499, 7560.622
553.981, 7578.322
554.463, 7596.353
554.945, 7601.856
555.427, 7582.344
555.909, 7553.301
556.391, 7545.668
556.873, 7556.524
557.356, 7564.965
557.838, 7544.992
558.320, 7522.313
558.802, 7529.271
559.284, 7576.858
559.766, 7616.897
560.248, 7616.500
560.730, 7600.015
561.213, 7595.086
561.695, 7614.958
562.177, 7638.183
562.659, 7664.283
563.141, 7691.179
563.623, 7710.972
564.105, 7712.710
564.587, 7724.398
565.069, 7760.102
565.552, 7821.837
566.034, 7870.928
566.516, 7904.802
566.998, 7934.780
567.480, 7965.289
567.962, 7998.666
568.444, 8054.750
568.926, 8143.432
569.408, 8242.477
569.891, 8320.331
570.373, 8384.653
570.855, 8460.828
571.337, 8574.084
571.819, 8694.315
572.301, 8790.810
572.783, 8865.987
573.265, 8949.987
573.747, 9048.140
574.230, 9165.235
574.712, 9308.931
575.194, 9496.095
575.676, 9672.782
576.158, 9837.521
576.640, 9990.559
577.122, 10131.970
577.604, 10270.250
578.086, 10381.470
578.569, 10452.580
579.051, 10497.530
579.533, 10566.740
580.015, 10663.900
580.497, 10755.680
580.979, 10816.540
581.461, 10856.680
581.943, 10907.500
582.426, 10968.750
582.908, 11053.050
583.390, 11190.900
583.872, 11353.950
584.354, 11496.550
584.836, 11608.510
585.318, 11698.320
585.800, 11767.050
586.282, 11817.660
586.765, 11854.190
587.247, 11900.190
587.729, 11909.700
588.211, 11864.730
588.693, 11765.260
589.175, 11636.570
589.657, 11460.090
590.140, 11278.150
590.622, 11106.870
591.104, 10941.470
591.586, 10814.360
592.068, 10731.770
592.550, 10672.710
593.032, 10606.240
593.514, 10536.510
593.996, 10496.930
594.479, 10503.300
594.961, 10530.610
595.443, 10564.350
595.925, 10592.990
596.407, 10576.500
596.889, 10475.750
597.371, 10335.870
597.853, 10189.490
598.335, 10037.680
598.818, 9866.561
599.300, 9640.810
599.782, 9415.595
600.264, 9229.935
600.746, 9108.908
601.228, 8989.111
601.710, 8862.082
602.192, 8741.771
602.674, 8647.365
603.157, 8588.345
603.639, 8520.411
604.121, 8427.325
604.603, 8325.661
605.085, 8268.515
605.567, 8254.918
606.049, 8250.681
606.531, 8240.739
607.013, 8226.213
607.496, 8208.233
607.978, 8186.942
608.460, 8164.681
608.942, 8141.252
609.424, 8118.549
609.906, 8099.816
610.388, 8088.755
610.870, 8073.567
611.353, 8044.075
611.835, 8009.927
612.317, 7983.632
612.799, 7971.596
613.281, 7961.547
613.763, 7952.503
614.245, 7944.395
614.727, 7937.021
615.209, 7931.192
615.692, 7923.613
616.174, 7908.602
616.656, 7888.948
617.138, 7893.294
617.620, 7923.628
618.102, 7949.526
618.584, 7935.647
619.067, 7900.095
619.549, 7881.829
620.031, 7891.869
620.513, 7901.494
620.995, 7887.385
621.477, 7859.820
621.959, 7833.701
622.441, 7808.833
622.923, 7791.048
623.406, 7784.459
623.888, 7786.944
624.370, 7789.854
624.852, 7791.575
625.334, 7795.741
625.816, 7806.172
626.298, 7822.832
626.780, 7824.347
627.263, 7806.572
627.745, 7788.760
628.227, 7793.020
628.709, 7812.752
629.191, 7808.076
629.673, 7770.655
630.155, 7732.540
630.637, 7730.980
631.119, 7752.730
631.602, 7774.453
632.084, 7795.540
632.566, 7805.721
633.048, 7788.026
633.530, 7754.928
634.012, 7736.552
634.494, 7754.453
634.976, 7774.435
635.458, 7783.973
635.941, 7783.683
636.423, 7791.647
636.905, 7812.679
637.387, 7833.227
637.869, 7846.238
638.351, 7851.556
638.833, 7849.865
639.315, 7840.271
639.797, 7827.604
640.280, 7815.832
640.762, 7805.218
641.244, 7796.270
641.726, 7788.141
642.208, 7784.298
642.690, 7788.813
643.172, 7799.982
643.654, 7814.724
644.137, 7840.338
644.619, 7861.084
645.101, 7866.172
645.583, 7858.635
646.065, 7861.183
646.547, 7886.395
647.029, 7907.500
647.511, 7913.211
647.994, 7902.298
648.476, 7893.342
648.958, 7884.150
649.440, 7883.009
649.922, 7904.511
650.404, 7942.780
650.886, 7961.606
651.368, 7953.315
651.851, 7942.817
652.333, 7965.368
652.815, 8002.891
653.297, 8022.490
653.779, 7993.491
654.261, 7968.973
654.743, 7982.781
655.225, 8021.106
655.707, 8050.448
656.190, 8052.988
656.672, 8058.390
657.154, 8080.660
657.636, 8116.582
658.118, 8121.253
658.600, 8080.740
659.082, 8044.958
659.564, 8049.123
660.046, 8089.391
660.529, 8102.145
661.011, 8084.068
661.493, 8064.526
661.975, 8071.538
662.457, 8096.703
662.939, 8127.411
663.421, 8165.186
663.903, 8195.905
664.385, 8203.829
