##NAMES=Hydroxykenomicrolite
##RRUFFID=R061058
##IDEAL CHEMISTRY=([box],Na,Sb^3+^)_2_Ta^5+^_2_O_6_(OH)
##LOCALITY=Mt. Vasin-Myl'k, Voron'ya Tundra, Russia
##OWNER=RRUFF
##SOURCE=Michael Scott
##DESCRIPTION=Grayish adamantine grains (orange under long wave ultraviolet light) intimately associated with simpsonite (bluish white in SW UV).
##STATUS=The identification of this mineral has been confirmed by single-crystal X-ray diffraction.
##URL=rruff.info/R061058
143.7055, 6200.462
144.1876, 6570.072
144.6697, 6918.534
145.1519, 7231.303
145.6340, 7540.592
146.1161, 7861.835
146.5982, 8180.649
147.0803, 8479.065
147.5624, 8752.820
148.0446, 8995.425
148.5267, 9177.898
149.0088, 9288.475
149.4909, 9366.971
149.9730, 9422.208
150.4551, 9452.816
150.9372, 9457.251
151.4194, 9436.485
151.9015, 9386.469
152.3836, 9291.147
152.8657, 9120.501
153.3478, 8945.069
153.8299, 8787.205
154.3121, 8645.772
154.7942, 8516.369
155.2763, 8398.229
155.7584, 8290.984
156.2405, 8191.462
156.7226, 8095.187
157.2048, 8009.617
157.6869, 7936.503
158.1690, 7876.467
158.6511, 7831.802
159.1332, 7806.521
159.6153, 7798.984
160.0975, 7795.414
160.5796, 7787.586
161.0617, 7790.096
161.5438, 7816.798
162.0259, 7865.541
162.5080, 7917.933
162.9902, 7963.430
163.4723, 8004.199
163.9544, 8048.486
164.4365, 8103.634
164.9186, 8156.709
165.4007, 8194.260
165.8829, 8216.803
166.3650, 8240.184
166.8471, 8275.112
167.3292, 8317.951
167.8113, 8358.746
168.2934, 8405.322
168.7756, 8443.245
169.2577, 8452.801
169.7398, 8432.789
170.2219, 8413.400
170.7040, 8415.013
171.1861, 8430.300
171.6683, 8443.171
172.1504, 8451.844
172.6325, 8456.787
173.1146, 8456.316
173.5967, 8449.556
174.0788, 8445.676
174.5610, 8454.437
175.0431, 8469.283
175.5252, 8478.079
176.0073, 8472.681
176.4894, 8464.037
176.9715, 8467.845
177.4537, 8486.609
177.9358, 8502.363
178.4179, 8502.468
178.9000, 8492.449
179.3821, 8479.433
179.8642, 8460.506
180.3464, 8442.495
180.8285, 8436.896
181.3106, 8446.410
181.7927, 8454.796
182.2748, 8454.485
182.7569, 8446.563
183.2391, 8430.411
183.7212, 8402.090
184.2033, 8368.411
184.6854, 8337.678
185.1675, 8309.440
185.6496, 8286.176
186.1318, 8278.992
186.6139, 8275.743
187.0960, 8259.335
187.5781, 8219.161
188.0602, 8168.553
188.5423, 8125.376
189.0245, 8090.805
189.5066, 8060.447
189.9887, 8036.667
190.4708, 8014.955
190.9529, 7989.149
191.4350, 7955.983
191.9172, 7919.783
192.3993, 7886.426
192.8814, 7856.409
193.3635, 7827.981
193.8456, 7804.950
194.3277, 7781.657
194.8099, 7750.132
195.2920, 7704.770
195.7741, 7654.381
196.2562, 7612.699
196.7383, 7582.006
197.2204, 7549.616
197.7026, 7506.060
198.1847, 7458.683
198.6668, 7413.882
199.1489, 7370.840
199.6310, 7334.556
200.1131, 7316.103
200.5953, 7320.512
201.0774, 7318.425
201.5595, 7288.805
202.0416, 7248.580
202.5237, 7214.427
203.0058, 7192.373
203.4880, 7173.618
203.9701, 7145.949
204.4522, 7107.573
204.9343, 7070.322
205.4164, 7039.739
205.8985, 7012.437
206.3807, 6986.643
206.8628, 6963.269
207.3449, 6937.438
207.8270, 6897.197
208.3091, 6838.901
208.7912, 6797.533
209.2734, 6805.009
209.7555, 6825.946
210.2376, 6825.788
210.7197, 6795.259
211.2018, 6755.342
211.6839, 6726.176
212.1661, 6708.052
212.6482, 6694.968
213.1303, 6688.938
213.6124, 6685.179
214.0945, 6678.562
214.5766, 6667.846
215.0588, 6658.141
215.5409, 6654.483
216.0230, 6656.881
216.5051, 6661.146
216.9872, 6666.295
217.4693, 6673.109
217.9515, 6681.453
218.4336, 6691.093
218.9157, 6704.598
219.3978, 6725.050
219.8799, 6752.000
220.3620, 6781.109
220.8442, 6817.671
221.3263, 6849.338
221.8084, 6862.966
222.2905, 6857.495
222.7726, 6850.395
223.2547, 6852.998
223.7369, 6863.951
224.2190, 6876.104
224.7011, 6889.908
225.1832, 6901.965
225.6653, 6908.938
226.1474, 6910.979
226.6296, 6912.021
227.1117, 6912.643
227.5938, 6913.700
228.0759, 6918.150
228.5580, 6926.718
229.0401, 6938.404
229.5223, 6952.062
230.0044, 6967.627
230.4865, 6985.453
230.9686, 7010.061
231.4507, 7036.536
231.9328, 7053.918
232.4150, 7059.642
232.8971, 7059.376
233.3792, 7055.638
233.8613, 7049.465
234.3434, 7044.765
234.8255, 7039.070
235.3077, 7036.883
235.7898, 7048.480
236.2719, 7077.544
236.7540, 7105.434
237.2361, 7112.399
237.7182, 7105.114
238.2004, 7106.153
238.6825, 7128.716
239.1646, 7156.941
239.6467, 7172.619
240.1288, 7174.809
240.6109, 7174.633
241.0931, 7180.567
241.5752, 7190.264
242.0573, 7194.789
242.5394, 7192.236
243.0215, 7185.360
243.5036, 7168.303
243.9858, 7143.620
244.4679, 7138.263
244.9500, 7178.461
245.4321, 7247.208
245.9142, 7281.021
246.3963, 7259.791
246.8785, 7226.137
247.3606, 7194.840
247.8427, 7168.128
248.3248, 7154.124
248.8069, 7158.676
249.2890, 7177.040
249.7712, 7195.368
250.2533, 7212.001
250.7354, 7230.642
251.2175, 7258.437
251.6996, 7288.501
252.1817, 7304.510
252.6639, 7297.682
253.1460, 7280.938
253.6281, 7283.208
254.1102, 7314.680
254.5923, 7339.988
255.0744, 7349.487
255.5566, 7350.527
256.0387, 7349.978
256.5208, 7349.614
257.0029, 7354.469
257.4850, 7373.710
257.9671, 7418.470
258.4492, 7450.381
258.9314, 7451.192
259.4135, 7448.854
259.8956, 7470.909
260.3777, 7520.754
260.8598, 7578.869
261.3419, 7624.767
261.8241, 7655.238
262.3062, 7683.484
262.7883, 7705.240
263.2704, 7728.338
263.7525, 7760.317
264.2346, 7799.309
264.7168, 7836.027
265.1989, 7861.804
265.6810, 7875.769
266.1631, 7895.377
266.6452, 7923.845
267.1273, 7953.969
267.6095, 7986.761
268.0916, 8019.268
268.5737, 8045.180
269.0558, 8059.464
269.5379, 8064.462
270.0201, 8077.220
270.5022, 8105.650
270.9843, 8133.972
271.4664, 8161.072
271.9485, 8186.490
272.4306, 8209.170
272.9128, 8228.324
273.3949, 8246.110
273.8770, 8269.088
274.3591, 8306.610
274.8412, 8333.067
275.3233, 8334.229
275.8055, 8330.755
276.2876, 8342.288
276.7697, 8374.298
277.2518, 8414.839
277.7339, 8447.039
278.2160, 8469.784
278.6982, 8486.775
279.1803, 8495.804
279.6624, 8501.166
280.1445, 8503.591
280.6266, 8503.876
281.1087, 8504.805
281.5909, 8513.004
282.0730, 8529.620
282.5551, 8530.593
283.0372, 8499.472
283.5193, 8468.161
284.0014, 8453.057
284.4836, 8451.469
284.9657, 8453.208
285.4478, 8457.619
285.9299, 8460.945
286.4120, 8445.004
286.8941, 8401.564
287.3763, 8354.947
287.8584, 8316.079
288.3405, 8283.540
288.8226, 8256.118
289.3047, 8237.148
289.7868, 8220.118
290.2690, 8197.107
290.7511, 8168.851
291.2332, 8129.762
291.7153, 8067.052
292.1974, 7995.807
292.6795, 7939.021
293.1617, 7905.311
293.6438, 7874.948
294.1259, 7828.970
294.6080, 7770.849
295.0901, 7722.233
295.5722, 7694.146
296.0544, 7675.054
296.5365, 7645.565
297.0186, 7603.774
297.5007, 7561.038
297.9828, 7520.235
298.4649, 7481.487
298.9471, 7445.272
299.4292, 7411.482
299.9113, 7379.304
300.3934, 7347.354
300.8755, 7315.153
301.3576, 7286.310
301.8398, 7264.190
302.3219, 7243.839
302.8040, 7219.947
303.2861, 7192.582
303.7682, 7166.919
304.2503, 7147.613
304.7325, 7135.031
305.2146, 7120.243
305.6967, 7101.464
306.1788, 7082.753
306.6609, 7069.254
307.1430, 7057.187
307.6252, 7036.406
308.1073, 7000.123
308.5894, 6953.213
309.0715, 6917.427
309.5536, 6896.540
310.0357, 6882.873
310.5179, 6885.248
311.0000, 6890.487
311.4821, 6883.211
311.9642, 6858.454
312.4463, 6824.311
312.9284, 6793.815
313.4106, 6763.977
313.8927, 6745.370
314.3748, 6749.786
314.8569, 6754.870
315.3390, 6739.242
315.8211, 6705.959
316.3033, 6682.045
316.7854, 6702.190
317.2675, 6770.189
317.7496, 6807.579
318.2317, 6786.014
318.7138, 6762.596
319.1960, 6756.751
319.6781, 6766.023
320.1602, 6783.324
320.6423, 6805.575
321.1244, 6832.454
321.6065, 6864.413
322.0887, 6904.208
322.5708, 6940.977
323.0529, 6962.111
323.5350, 6980.586
324.0171, 7011.281
324.4992, 7059.112
324.9814, 7116.418
325.4635, 7178.696
325.9456, 7245.904
326.4277, 7310.052
326.9098, 7373.005
327.3919, 7426.686
327.8741, 7455.766
328.3562, 7455.739
328.8383, 7470.687
329.3204, 7533.539
329.8025, 7621.345
330.2846, 7692.982
330.7668, 7740.544
331.2489, 7775.870
331.7310, 7806.721
332.2131, 7832.991
332.6952, 7865.686
333.1773, 7908.020
333.6595, 7955.119
334.1416, 8003.444
334.6237, 8053.182
335.1058, 8107.053
335.5879, 8169.261
336.0700, 8236.296
336.5522, 8282.102
337.0343, 8286.718
337.5164, 8296.954
337.9985, 8330.477
338.4806, 8373.133
338.9627, 8404.156
339.4449, 8415.646
339.9270, 8418.486
340.4091, 8433.135
340.8912, 8466.278
341.3733, 8499.458
341.8554, 8538.080
342.3376, 8572.474
342.8197, 8594.639
343.3018, 8605.109
343.7839, 8611.383
344.2660, 8619.676
344.7481, 8629.929
345.2303, 8642.953
345.7124, 8666.366
346.1945, 8683.000
346.6766, 8685.689
347.1587, 8678.280
347.6408, 8667.721
348.1230, 8657.354
348.6051, 8645.716
349.0872, 8628.861
349.5693, 8605.143
350.0514, 8582.807
350.5335, 8567.613
351.0157, 8553.562
351.4978, 8532.551
351.9799, 8501.482
352.4620, 8476.083
352.9441, 8480.311
353.4262, 8502.928
353.9084, 8494.729
354.3905, 8437.649
354.8726, 8365.819
355.3547, 8314.427
355.8368, 8280.865
356.3189, 8257.261
356.8011, 8255.351
357.2832, 8253.946
357.7653, 8228.875
358.2474, 8180.705
358.7295, 8129.771
359.2116, 8089.358
359.6938, 8057.952
360.1759, 8022.385
360.6580, 7976.499
361.1401, 7934.455
361.6222, 7903.203
362.1043, 7877.833
362.5865, 7851.695
363.0686, 7822.150
363.5507, 7789.260
364.0328, 7752.424
364.5149, 7704.194
364.9970, 7667.273
365.4792, 7647.246
365.9613, 7632.142
366.4434, 7615.085
366.9255, 7595.490
367.4076, 7576.979
367.8897, 7565.006
368.3719, 7558.396
368.8540, 7533.706
369.3361, 7469.622
369.8182, 7416.853
370.3003, 7397.379
370.7824, 7396.169
371.2646, 7393.955
371.7467, 7384.116
372.2288, 7367.423
372.7109, 7342.064
373.1930, 7306.979
373.6751, 7277.763
374.1573, 7268.167
374.6394, 7257.579
375.1215, 7220.080
375.6036, 7154.011
376.0857, 7097.796
376.5678, 7080.258
377.0500, 7083.807
377.5321, 7076.944
378.0142, 7056.024
378.4963, 7023.688
378.9784, 6976.438
379.4605, 6916.459
379.9427, 6871.719
380.4248, 6855.347
380.9069, 6841.828
381.3890, 6820.324
381.8711, 6791.032
382.3532, 6753.311
382.8354, 6705.625
383.3175, 6654.528
383.7996, 6615.113
384.2817, 6594.792
384.7638, 6576.399
385.2459, 6566.160
385.7281, 6553.588
386.2102, 6526.648
386.6923, 6486.616
387.1744, 6447.739
387.6565, 6424.014
388.1386, 6415.741
388.6208, 6409.857
389.1029, 6414.746
389.5850, 6411.479
390.0671, 6386.577
390.5492, 6352.298
391.0313, 6326.466
391.5135, 6317.088
391.9956, 6318.115
392.4777, 6324.986
392.9598, 6339.812
393.4419, 6340.254
393.9240, 6312.857
394.4062, 6274.862
394.8883, 6241.501
395.3704, 6213.165
395.8525, 6190.292
396.3346, 6173.692
396.8167, 6162.453
397.2989, 6158.570
397.7810, 6162.991
398.2631, 6161.511
398.7452, 6140.369
399.2273, 6102.596
399.7094, 6075.760
400.1916, 6074.519
400.6737, 6068.319
401.1558, 6036.688
401.6379, 5992.526
402.1200, 5962.051
402.6021, 5955.300
403.0843, 5957.729
403.5664, 5942.307
404.0485, 5894.060
404.5306, 5860.695
405.0127, 5846.758
405.4948, 5841.693
405.9770, 5848.374
406.4591, 5859.877
406.9412, 5857.633
407.4233, 5823.737
407.9054, 5766.202
408.3875, 5731.989
408.8697, 5735.238
409.3518, 5735.510
409.8339, 5713.772
410.3160, 5686.346
410.7981, 5670.438
411.2802, 5670.640
411.7624, 5677.128
412.2445, 5683.796
412.7266, 5689.718
413.2087, 5689.947
413.6908, 5683.123
414.1729, 5671.173
414.6551, 5650.375
415.1372, 5623.422
415.6193, 5607.332
416.1014, 5611.250
416.5835, 5622.813
417.0656, 5634.384
417.5478, 5645.322
418.0299, 5656.183
418.5120, 5668.710
418.9941, 5678.546
419.4762, 5673.253
419.9583, 5629.363
420.4405, 5603.794
420.9226, 5608.704
421.4047, 5625.727
421.8868, 5645.539
422.3689, 5663.445
422.8510, 5670.838
423.3332, 5656.010
423.8153, 5619.506
424.2974, 5601.034
424.7795, 5611.048
425.2616, 5626.255
425.7437, 5642.776
426.2259, 5658.906
426.7080, 5674.147
427.1901, 5689.230
427.6722, 5698.049
428.1543, 5689.453
428.6364, 5664.606
429.1186, 5644.927
429.6007, 5635.246
430.0828, 5631.206
430.5649, 5629.468
431.0470, 5629.779
431.5291, 5630.802
432.0113, 5635.474
432.4934, 5638.377
432.9755, 5629.984
433.4576, 5613.265
433.9397, 5606.077
434.4218, 5620.663
434.9040, 5647.099
435.3861, 5654.778
435.8682, 5623.739
436.3503, 5602.160
436.8324, 5592.880
437.3145, 5593.818
437.7967, 5609.290
438.2788, 5635.968
438.7609, 5658.107
439.2430, 5658.458
439.7251, 5638.120
440.2072, 5633.875
440.6894, 5655.904
441.1715, 5680.093
441.6536, 5700.396
442.1357, 5718.034
442.6178, 5733.533
443.0999, 5746.361
443.5821, 5761.286
444.0642, 5789.743
444.5463, 5828.120
445.0284, 5845.500
445.5105, 5828.600
445.9926, 5805.299
446.4748, 5805.230
446.9569, 5824.030
447.4390, 5837.595
447.9211, 5834.900
448.4032, 5831.797
448.8853, 5839.010
449.3675, 5855.330
449.8496, 5877.766
450.3317, 5905.649
450.8138, 5934.996
451.2959, 5956.538
451.7780, 5963.680
452.2602, 5974.711
452.7423, 5992.353
453.2244, 6011.366
453.7065, 6028.861
454.1886, 6044.591
454.6707, 6059.649
455.1529, 6075.066
455.6350, 6090.055
456.1171, 6099.849
456.5992, 6099.054
457.0813, 6106.368
457.5634, 6131.122
458.0455, 6165.029
458.5276, 6204.711
459.0098, 6250.396
459.4919, 6289.848
459.9740, 6313.418
460.4561, 6325.485
460.9382, 6334.686
461.4203, 6341.962
461.9025, 6346.953
462.3846, 6347.567
462.8667, 6345.398
463.3488, 6351.478
463.8309, 6368.239
464.3130, 6389.703
464.7952, 6416.327
465.2773, 6445.761
465.7594, 6474.409
466.2415, 6501.458
466.7236, 6529.422
467.2057, 6562.145
467.6879, 6600.881
468.1700, 6635.329
468.6521, 6659.138
469.1342, 6685.141
469.6163, 6719.568
470.0984, 6758.112
470.5806, 6794.461
471.0627, 6825.930
471.5448, 6853.817
472.0269, 6873.791
472.5090, 6887.318
472.9911, 6920.304
473.4733, 6986.573
473.9554, 7060.497
474.4375, 7113.005
474.9196, 7147.729
475.4017, 7188.208
475.8839, 7237.346
476.3660, 7295.136
476.8481, 7362.176
477.3302, 7438.112
477.8123, 7522.149
478.2944, 7614.189
478.7766, 7711.996
479.2587, 7809.681
479.7408, 7908.590
480.2229, 8005.189
480.7050, 8095.219
481.1871, 8187.355
481.6693, 8286.416
482.1514, 8391.224
482.6335, 8497.289
483.1156, 8601.234
483.5977, 8704.647
484.0798, 8810.755
484.5620, 8919.992
485.0441, 9031.379
485.5262, 9153.504
486.0083, 9269.211
486.4904, 9355.382
486.9725, 9411.032
487.4547, 9470.719
487.9368, 9563.275
488.4189, 9656.285
488.9010, 9712.699
489.3831, 9732.691
489.8652, 9732.389
490.3474, 9719.132
490.8295, 9695.171
491.3116, 9666.978
491.7937, 9638.169
492.2758, 9599.521
492.7579, 9554.775
493.2401, 9497.707
493.7222, 9416.069
494.2043, 9315.451
494.6864, 9216.357
495.1685, 9134.371
495.6506, 9066.073
496.1328, 9001.092
496.6149, 8943.745
497.0970, 8873.828
497.5791, 8776.959
498.0612, 8668.581
498.5433, 8562.817
499.0255, 8459.753
499.5076, 8364.056
499.9897, 8277.938
500.4718, 8200.321
500.9539, 8136.290
501.4360, 8083.734
501.9182, 8018.076
502.4003, 7918.904
502.8824, 7799.755
503.3645, 7714.961
503.8466, 7705.820
504.3287, 7678.013
504.8109, 7610.172
505.2930, 7534.942
505.7751, 7477.078
506.2572, 7438.787
506.7393, 7408.911
507.2214, 7382.338
507.7036, 7355.958
508.1857, 7313.176
508.6678, 7245.152
509.1499, 7189.450
509.6320, 7173.245
510.1141, 7167.655
510.5963, 7139.161
511.0784, 7083.261
511.5605, 7029.173
512.0426, 6993.234
512.5247, 6964.350
513.0068, 6930.498
513.4890, 6890.152
513.9711, 6839.616
514.4532, 6773.162
514.9353, 6699.219
515.4174, 6651.320
515.8995, 6658.166
516.3817, 6652.179
516.8638, 6625.768
517.3459, 6590.559
517.8280, 6551.835
518.3101, 6512.095
518.7922, 6475.474
519.2744, 6444.609
519.7565, 6419.023
520.2386, 6398.471
520.7207, 6384.603
521.2028, 6367.303
521.6849, 6341.035
522.1671, 6311.485
522.6492, 6287.866
523.1313, 6271.442
523.6134, 6246.776
524.0955, 6198.252
524.5776, 6147.005
525.0598, 6115.548
525.5419, 6101.137
526.0240, 6085.544
526.5061, 6058.317
526.9882, 6025.811
527.4703, 6005.334
527.9525, 6007.770
528.4346, 6001.401
528.9167, 5980.169
529.3988, 5956.114
529.8809, 5930.951
530.3630, 5908.607
530.8452, 5898.418
531.3273, 5911.521
531.8094, 5930.766
532.2915, 5927.122
532.7736, 5900.889
533.2557, 5869.595
533.7379, 5834.639
534.2200, 5802.084
534.7021, 5778.935
535.1842, 5764.749
535.6663, 5758.937
536.1484, 5765.934
536.6306, 5776.853
537.1127, 5788.471
537.5948, 5799.727
538.0769, 5809.431
538.5590, 5817.094
539.0411, 5822.357
539.5233, 5824.867
540.0054, 5824.786
540.4875, 5820.971
540.9696, 5809.449
541.4517, 5799.043
541.9338, 5793.005
542.4160, 5790.845
542.8981, 5792.269
543.3802, 5798.849
543.8623, 5804.734
544.3444, 5804.128
544.8265, 5799.096
545.3087, 5794.722
545.7908, 5791.934
546.2729, 5790.321
546.7550, 5789.591
547.2371, 5789.725
547.7192, 5790.362
548.2014, 5783.088
548.6835, 5786.697
549.1656, 5814.750
549.6477, 5849.632
550.1298, 5873.847
550.6119, 5884.430
551.0941, 5889.247
551.5762, 5891.097
552.0583, 5893.023
552.5404, 5913.930
553.0225, 5960.250
553.5046, 5999.981
553.9868, 6019.242
554.4689, 6023.803
554.9510, 6020.437
555.4331, 6004.991
555.9152, 6003.008
556.3973, 6035.967
556.8795, 6076.180
557.3616, 6094.814
557.8437, 6095.603
558.3258, 6101.860
558.8079, 6127.712
559.2900, 6161.785
559.7722, 6172.938
560.2543, 6142.763
560.7364, 6136.602
561.2185, 6186.079
561.7006, 6235.625
562.1827, 6255.670
562.6649, 6254.347
563.1470, 6256.446
563.6291, 6276.581
564.1112, 6296.400
564.5933, 6289.321
565.0754, 6264.423
565.5576, 6256.683
566.0397, 6275.603
566.5218, 6305.010
567.0039, 6329.067
567.4860, 6347.398
567.9681, 6368.473
568.4503, 6393.656
568.9324, 6419.730
569.4145, 6447.894
569.8966, 6475.372
570.3787, 6499.505
570.8608, 6519.600
571.3430, 6536.222
571.8251, 6549.709
572.3072, 6560.075
572.7893, 6564.384
573.2714, 6559.643
573.7535, 6563.721
574.2357, 6585.686
574.7178, 6620.556
575.1999, 6660.940
575.6820, 6709.566
576.1641, 6751.356
576.6462, 6779.742
577.1284, 6802.171
577.6105, 6822.762
578.0926, 6842.539
578.5747, 6863.192
579.0568, 6885.880
579.5389, 6907.584
580.0211, 6918.909
580.5032, 6913.913
580.9853, 6927.933
581.4674, 6981.775
581.9495, 7032.916
582.4316, 7053.784
582.9138, 7055.044
583.3959, 7060.587
583.8780, 7077.206
584.3601, 7097.528
584.8422, 7114.521
585.3243, 7132.448
585.8065, 7161.100
586.2886, 7201.542
586.7707, 7245.210
587.2528, 7287.203
587.7349, 7325.260
588.2170, 7337.250
588.6992, 7291.854
589.1813, 7269.909
589.6634, 7296.070
590.1455, 7336.411
590.6276, 7369.293
591.1097, 7391.858
591.5919, 7406.980
592.0740, 7409.341
592.5561, 7409.975
593.0382, 7428.412
593.5203, 7461.480
594.0024, 7490.639
594.4846, 7511.225
594.9667, 7519.718
595.4488, 7508.117
595.9309, 7469.962
596.4130, 7451.746
596.8951, 7456.285
597.3773, 7474.864
597.8594, 7520.623
598.3415, 7571.404
598.8236, 7597.773
599.3057, 7593.094
599.7878, 7580.838
600.2700, 7581.924
600.7521, 7594.043
601.2342, 7612.668
601.7163, 7639.811
602.1984, 7653.646
602.6805, 7637.164
603.1627, 7606.653
603.6448, 7596.721
604.1269, 7613.253
604.6090, 7629.179
605.0911, 7648.076
605.5732, 7659.823
606.0554, 7649.427
606.5375, 7627.935
607.0196, 7620.603
607.5017, 7639.313
607.9838, 7665.415
608.4659, 7670.171
608.9481, 7653.897
609.4302, 7637.939
609.9123, 7619.823
610.3944, 7612.987
610.8765, 7641.175
611.3586, 7683.983
611.8408, 7686.001
612.3229, 7624.187
612.8050, 7565.053
613.2871, 7525.608
613.7692, 7499.279
614.2513, 7483.441
614.7335, 7475.252
615.2156, 7470.302
615.6977, 7466.893
616.1798, 7460.480
616.6619, 7438.413
617.1440, 7397.916
617.6262, 7359.391
618.1083, 7323.701
618.5904, 7293.642
619.0725, 7276.912
619.5546, 7267.644
620.0367, 7249.164
620.5189, 7216.961
621.0010, 7177.649
621.4831, 7127.347
621.9652, 7075.009
622.4473, 7032.259
622.9294, 7000.806
623.4116, 6978.860
623.8937, 6967.690
624.3758, 6960.833
624.8579, 6929.965
625.3400, 6865.292
625.8221, 6809.726
626.3043, 6776.054
626.7864, 6749.415
627.2685, 6719.522
627.7506, 6686.796
628.2327, 6653.290
628.7148, 6617.724
629.1970, 6583.719
629.6791, 6550.774
630.1612, 6521.764
630.6433, 6506.163
631.1254, 6503.661
631.6075, 6496.103
632.0897, 6464.470
632.5718, 6414.132
633.0539, 6383.149
633.5360, 6379.242
634.0181, 6375.701
634.5002, 6372.353
634.9824, 6362.022
635.4645, 6335.046
635.9466, 6293.842
636.4287, 6257.121
636.9108, 6233.112
637.3929, 6213.236
637.8751, 6190.861
638.3572, 6168.279
638.8393, 6151.583
