##NAMES=Hydroxyapophyllite-(K)
##RRUFFID=R110121
##IDEAL CHEMISTRY=KCa_4_Si_8_O_20_(OH)&#183;8H_2_O
##LOCALITY=Kandivali quarry, Malad (near Poona), Marashtra State, India
##OWNER=RRUFF
##SOURCE=Marcus Origlieri
##DESCRIPTION=White to colorless prismatic crystals on a basalt matrix
##STATUS=The identification of this mineral has been confirmed by single-crystal X-ray diffraction.
##URL=rruff.info/R110121
178.8666, 138.2144
179.3488, 137.0624
179.8309, 136.3845
180.3130, 136.2574
180.7951, 136.9182
181.2772, 137.6646
181.7593, 138.4408
182.2415, 139.3206
182.7236, 140.4726
183.2057, 141.8993
183.6878, 143.3052
184.1699, 144.2378
184.6520, 144.4672
185.1342, 144.5966
185.6163, 144.9405
186.0984, 145.0596
186.5805, 144.3311
187.0626, 142.5335
187.5447, 140.2884
188.0269, 138.5799
188.5090, 137.3806
188.9911, 136.6037
189.4732, 136.2855
189.9553, 136.3750
190.4374, 136.8591
190.9196, 137.8370
191.4017, 138.9975
191.8838, 139.8300
192.3659, 140.2896
192.8480, 140.9369
193.3301, 142.0006
193.8123, 143.4520
194.2944, 145.2500
194.7765, 147.6031
195.2586, 150.0336
195.7407, 151.9593
196.2228, 153.3652
196.7050, 154.8575
197.1871, 157.0108
197.6692, 159.7864
198.1513, 162.3100
198.6334, 164.3800
199.1155, 166.1382
199.5977, 167.3422
200.0798, 168.0720
200.5619, 169.2638
201.0440, 172.3814
201.5261, 177.9650
202.0082, 181.9624
202.4904, 182.8039
202.9725, 182.6445
203.4546, 182.2977
203.9367, 181.9429
204.4188, 181.5118
204.9009, 180.8751
205.3831, 179.9063
205.8652, 179.1285
206.3473, 178.6205
206.8294, 178.2405
207.3115, 178.0989
207.7936, 178.1212
208.2758, 177.9469
208.7579, 177.0483
209.2400, 175.1319
209.7221, 173.0641
210.2042, 170.6718
210.6863, 168.2830
211.1685, 166.2440
211.6506, 164.5636
212.1327, 162.8292
212.6148, 160.3668
213.0969, 156.5064
213.5790, 153.3932
214.0612, 151.6517
214.5433, 150.2206
215.0254, 148.1338
215.5075, 145.2122
215.9896, 142.0596
216.4717, 139.5225
216.9539, 137.7194
217.4360, 136.4152
217.9181, 135.9046
218.4002, 135.7397
218.8823, 135.4826
219.3644, 135.0284
219.8466, 134.5381
220.3287, 134.1822
220.8108, 133.9155
221.2929, 134.0280
221.7750, 134.7759
222.2571, 135.8438
222.7393, 136.8092
223.2214, 137.5580
223.7035, 138.3570
224.1856, 139.7226
224.6677, 141.6082
225.1498, 143.1003
225.6320, 143.8357
226.1141, 144.0646
226.5962, 144.2413
227.0783, 144.5135
227.5604, 144.5004
228.0425, 143.7439
228.5247, 142.3809
229.0068, 140.7412
229.4889, 139.1725
229.9710, 137.4078
230.4531, 134.7025
230.9352, 130.6723
231.4174, 126.3577
231.8995, 122.6285
232.3816, 119.2911
232.8637, 115.8234
233.3458, 111.8929
233.8279, 107.6293
234.3101, 103.2950
234.7922, 98.64535
235.2743, 94.45910
235.7564, 91.42085
236.2385, 89.10323
236.7206, 86.60220
237.2028, 83.18237
237.6849, 79.17315
238.1670, 75.94917
238.6491, 73.81412
239.1312, 72.09913
239.6133, 70.65720
240.0955, 69.35168
240.5776, 67.90099
241.0597, 66.03169
241.5418, 63.91816
242.0239, 62.49855
242.5060, 62.40009
242.9882, 62.15709
243.4703, 61.14799
243.9524, 59.76930
244.4345, 58.62035
244.9166, 58.07636
245.3987, 57.98970
245.8809, 57.66459
246.3630, 56.80374
246.8451, 56.08372
247.3272, 55.61917
247.8093, 55.37094
248.2914, 55.33526
248.7736, 55.52959
249.2557, 55.85546
249.7378, 55.89610
250.2199, 55.16333
250.7020, 54.75648
251.1841, 54.95723
251.6663, 55.50596
252.1484, 56.09902
252.6305, 56.59267
253.1126, 57.03544
253.5947, 57.59538
254.0768, 58.38053
254.5590, 59.15886
255.0411, 60.00615
255.5232, 60.80651
256.0053, 61.37521
256.4874, 61.63475
256.9695, 61.77130
257.4517, 62.23392
257.9338, 63.46251
258.4159, 64.51326
258.8980, 65.21158
259.3801, 65.80333
259.8622, 66.55685
260.3444, 67.56338
260.8265, 68.72234
261.3086, 69.85067
261.7907, 71.04734
262.2728, 72.04098
262.7549, 72.63686
263.2371, 73.12536
263.7192, 73.78563
264.2013, 74.69447
264.6834, 75.75585
265.1655, 76.86356
265.6476, 78.15160
266.1298, 79.09556
266.6119, 79.55245
267.0940, 79.73959
267.5761, 79.88870
268.0582, 80.04025
268.5403, 80.00838
269.0225, 79.55183
269.5046, 78.56348
269.9867, 77.53275
270.4688, 76.31240
270.9509, 75.15446
271.4330, 74.40717
271.9152, 74.08169
272.3973, 73.65713
272.8794, 72.53381
273.3615, 70.65053
273.8436, 69.30169
274.3257, 68.91637
274.8079, 68.77587
275.2900, 68.29508
275.7721, 67.45829
276.2542, 66.65178
276.7363, 66.16819
277.2184, 65.99416
277.7006, 65.78299
278.1827, 65.42902
278.6648, 65.12328
279.1469, 64.97999
279.6290, 64.99972
280.1111, 65.18664
280.5933, 65.62882
281.0754, 66.21757
281.5575, 66.57937
282.0396, 66.52348
282.5217, 66.47440
283.0038, 66.66475
283.4860, 67.07925
283.9681, 67.64884
284.4502, 68.38100
284.9323, 69.22788
285.4144, 70.07806
285.8965, 70.93760
286.3787, 71.78561
286.8608, 72.56522
287.3429, 73.31092
287.8250, 74.16200
288.3071, 75.17078
288.7892, 76.30123
289.2714, 77.46886
289.7535, 78.64912
290.2356, 79.97976
290.7177, 81.49210
291.1998, 83.20183
291.6819, 85.22080
292.1641, 87.68159
292.6462, 90.25534
293.1283, 92.66989
293.6104, 94.92945
294.0925, 96.91844
294.5746, 98.46428
295.0568, 99.72137
295.5389, 101.0139
296.0210, 102.4177
296.5031, 103.7373
296.9852, 104.7376
297.4673, 105.5141
297.9495, 106.3153
298.4316, 107.2818
298.9137, 108.2917
299.3958, 109.1811
299.8779, 109.9513
300.3600, 110.5755
300.8422, 111.0307
301.3243, 111.3205
301.8064, 111.3703
302.2885, 110.7897
302.7706, 110.3255
303.2527, 111.0540
303.7349, 113.0730
304.2170, 114.9121
304.6991, 115.5896
305.1812, 115.8267
305.6633, 116.6507
306.1454, 118.3697
306.6276, 120.2193
307.1097, 121.3882
307.5918, 121.9298
308.0739, 122.8625
308.5560, 124.7291
309.0381, 126.9508
309.5203, 128.9179
310.0024, 130.6273
310.4845, 132.0382
310.9666, 133.0060
311.4487, 133.6098
311.9308, 134.1935
312.4130, 134.7048
312.8951, 135.3932
313.3772, 136.6731
313.8593, 138.4276
314.3414, 139.8148
314.8235, 140.1555
315.3057, 139.8325
315.7878, 139.8283
316.2699, 140.2580
316.7520, 140.9266
317.2341, 141.7174
317.7162, 142.6229
318.1984, 143.6722
318.6805, 145.1761
319.1626, 146.6888
319.6447, 147.4321
320.1268, 147.2931
320.6089, 146.9557
321.0911, 146.8080
321.5732, 146.6915
322.0553, 146.3959
322.5374, 145.9141
323.0195, 145.1834
323.5016, 144.0896
323.9838, 142.6245
324.4659, 141.0619
324.9480, 139.5165
325.4301, 137.9085
325.9122, 136.1568
326.3943, 134.2233
326.8765, 132.2438
327.3586, 130.1837
327.8407, 128.1009
328.3228, 126.4041
328.8049, 125.3358
329.2870, 124.4881
329.7692, 123.5059
330.2513, 122.3946
330.7334, 121.1084
331.2155, 119.3202
331.6976, 117.3718
332.1797, 116.0786
332.6619, 115.5947
333.1440, 115.5753
333.6261, 116.0575
334.1082, 116.8142
334.5903, 117.2813
335.0724, 117.1082
335.5546, 116.6431
336.0367, 116.2500
336.5188, 115.9171
337.0009, 115.8346
337.4830, 116.3350
337.9651, 117.0966
338.4473, 117.5541
338.9294, 117.7515
339.4115, 117.4705
339.8936, 116.3653
340.3757, 114.5230
340.8578, 112.6550
341.3400, 111.1070
341.8221, 109.5420
342.3042, 107.4050
342.7863, 104.5853
343.2684, 101.8110
343.7505, 99.41203
344.2327, 97.31990
344.7148, 95.46900
345.1969, 93.97166
345.6790, 92.37242
346.1611, 89.88974
346.6432, 86.68242
347.1254, 83.82224
347.6075, 81.67078
348.0896, 79.97755
348.5717, 78.59106
349.0538, 77.50575
349.5359, 76.35166
350.0181, 74.64869
350.5002, 72.63710
350.9823, 71.33378
351.4644, 71.49902
351.9465, 71.79043
352.4286, 71.33089
352.9108, 70.21294
353.3929, 68.79558
353.8750, 67.08236
354.3571, 65.35722
354.8392, 64.35845
355.3214, 64.37447
355.8035, 64.34386
356.2856, 63.87214
356.7677, 63.10437
357.2498, 62.24799
357.7319, 61.33571
358.2141, 60.49058
358.6962, 59.95490
359.1783, 59.82864
359.6604, 59.37251
360.1425, 58.16268
360.6246, 56.79386
361.1068, 55.78679
361.5889, 55.19157
362.0710, 54.87024
362.5531, 54.73927
363.0352, 54.80259
363.5173, 54.88892
363.9995, 55.12887
364.4816, 55.26310
364.9637, 55.01545
365.4458, 54.55227
365.9279, 54.32518
366.4100, 54.59682
366.8922, 55.19660
367.3743, 55.56554
367.8564, 55.52116
368.3385, 55.52224
368.8206, 55.55639
369.3027, 55.69550
369.7849, 56.06903
370.2670, 56.70143
370.7491, 57.44070
371.2312, 58.10313
371.7133, 58.74720
372.1954, 59.06397
372.6776, 58.68092
373.1597, 58.30652
373.6418, 58.35702
374.1239, 58.83226
374.6060, 59.55357
375.0881, 60.43450
375.5703, 61.45683
376.0524, 62.10509
376.5345, 61.93139
377.0166, 61.90893
377.4987, 62.32288
377.9808, 63.00817
378.4630, 63.68518
378.9451, 64.22404
379.4272, 64.75700
379.9093, 65.61482
380.3914, 67.08290
380.8735, 68.41809
381.3557, 69.41251
381.8378, 70.40285
382.3199, 71.57530
382.8020, 72.99566
383.2841, 74.71141
383.7662, 76.87577
384.2484, 79.63577
384.7305, 81.86267
385.2126, 83.03602
385.6947, 84.16197
386.1768, 85.43530
386.6589, 86.90939
387.1411, 88.61154
387.6232, 90.55830
388.1053, 92.76028
388.5874, 95.27996
389.0695, 98.34444
389.5516, 101.2937
390.0338, 103.8396
390.5159, 106.3081
390.9980, 109.0594
391.4801, 112.1942
391.9622, 115.3344
392.4443, 117.9923
392.9265, 120.1111
393.4086, 122.2646
393.8907, 124.6119
394.3728, 126.9137
394.8549, 129.1016
395.3370, 131.1397
395.8192, 132.9124
396.3013, 134.2431
396.7834, 135.2569
397.2655, 136.4208
397.7476, 137.9033
398.2297, 139.0886
398.7119, 139.5597
399.1940, 139.5722
399.6761, 139.4316
400.1582, 139.2900
400.6403, 138.8458
401.1224, 137.7083
401.6046, 135.8997
402.0867, 133.9249
402.5688, 131.7773
403.0509, 129.7025
403.5330, 128.0394
404.0151, 126.7969
404.4973, 125.4861
404.9794, 123.8374
405.4615, 121.9975
405.9436, 120.2108
406.4257, 118.5193
406.9078, 116.8487
407.3900, 115.0924
407.8721, 113.3128
408.3542, 111.7680
408.8363, 110.5656
409.3184, 109.5289
409.8005, 108.5302
410.2827, 107.6045
410.7648, 106.9079
411.2469, 106.5331
411.7290, 106.3759
412.2111, 106.1677
412.6932, 105.6777
413.1754, 105.6879
413.6575, 106.7129
414.1396, 108.0978
414.6217, 109.1257
415.1038, 109.6893
415.5859, 110.1937
416.0681, 111.0354
416.5502, 112.2438
417.0323, 113.5091
417.5144, 114.6602
417.9965, 116.0293
418.4786, 117.7339
418.9608, 119.7541
419.4429, 122.0579
419.9250, 124.6302
420.4071, 127.4519
420.8892, 130.4759
421.3713, 133.6808
421.8535, 137.1364
422.3356, 141.0337
422.8177, 145.0453
423.2998, 148.7327
423.7819, 152.1609
424.2640, 155.8753
424.7462, 160.4496
425.2283, 165.9383
425.7104, 171.7503
426.1925, 178.2541
426.6746, 184.6958
427.1567, 190.7825
427.6389, 196.6891
428.1210, 202.7471
428.6031, 209.1919
429.0852, 215.5892
429.5673, 221.0769
430.0494, 225.6545
430.5316, 229.3749
431.0137, 232.6796
431.4958, 234.7188
431.9779, 234.8860
432.4600, 233.1322
432.9421, 229.6625
433.4243, 224.2160
433.9064, 217.0911
434.3885, 209.5036
434.8706, 201.4024
435.3527, 193.0176
435.8348, 183.9393
436.3170, 174.7352
436.7991, 166.3688
437.2812, 159.4129
437.7633, 152.9411
438.2454, 145.9862
438.7275, 138.6509
439.2097, 131.7936
439.6918, 125.6409
440.1739, 120.2556
440.6560, 115.9082
441.1381, 112.5926
441.6202, 109.4802
442.1024, 106.4230
442.5845, 103.4144
443.0666, 100.3615
443.5487, 97.28177
444.0308, 94.54932
444.5129, 92.49697
444.9951, 91.06908
445.4772, 89.58114
445.9593, 88.04810
446.4414, 86.45904
446.9235, 84.63726
447.4056, 82.80741
447.8878, 81.30235
448.3699, 80.23445
448.8520, 79.47493
449.3341, 78.82697
449.8162, 78.28037
450.2983, 77.90314
450.7805, 77.84731
451.2626, 77.79483
451.7447, 77.45909
452.2268, 76.97690
452.7089, 76.73508
453.1910, 77.01437
453.6732, 77.68932
454.1553, 78.23049
454.6374, 78.53962
455.1195, 78.87920
455.6016, 79.18530
456.0837, 79.59847
456.5659, 80.29325
457.0480, 81.28166
457.5301, 82.32121
458.0122, 83.08897
458.4943, 83.59826
458.9764, 84.42416
459.4586, 85.77309
459.9407, 87.16206
460.4228, 88.25075
460.9049, 89.21144
461.3870, 90.37502
461.8691, 91.93938
462.3513, 93.61404
462.8334, 94.96556
463.3155, 96.01298
463.7976, 97.26590
464.2797, 98.94594
464.7618, 100.8275
465.2440, 102.6040
465.7261, 104.2726
466.2082, 106.0423
466.6903, 107.7343
467.1724, 109.7044
467.6545, 112.6131
468.1367, 116.4358
468.6188, 120.1960
469.1009, 123.1447
469.5830, 125.4975
470.0651, 128.4388
470.5472, 131.9970
471.0294, 135.9794
471.5115, 140.3351
471.9936, 145.0796
472.4757, 150.1897
472.9578, 155.6686
473.4399, 161.7358
473.9221, 168.7107
474.4042, 176.7452
474.8863, 184.8124
475.3684, 192.8225
475.8505, 201.0214
476.3326, 209.1262
476.8148, 217.5369
477.2969, 226.9046
477.7790, 237.4879
478.2611, 249.0493
478.7432, 261.0564
479.2253, 273.6161
479.7075, 286.1874
480.1896, 299.3748
480.6717, 311.9528
481.1538, 323.5971
481.6359, 334.0578
482.1180, 342.8649
482.6002, 349.8800
483.0823, 354.9459
483.5644, 357.7271
484.0465, 358.2403
484.5286, 356.2945
485.0107, 351.3073
485.4929, 343.9117
485.9750, 334.6082
486.4571, 323.3395
486.9392, 310.9488
487.4213, 297.3795
487.9034, 283.1167
488.3856, 269.3143
488.8677, 256.0567
489.3498, 243.2053
489.8319, 230.5508
490.3140, 218.1921
490.7961, 206.9812
491.2783, 197.0181
491.7604, 187.9797
492.2425, 179.7136
492.7246, 172.2222
493.2067, 165.5269
493.6888, 159.6559
494.1710, 154.4446
494.6531, 149.7497
495.1352, 145.6389
495.6173, 141.8985
496.0994, 138.5174
496.5815, 135.4578
497.0637, 132.7936
497.5458, 130.4425
498.0279, 128.2603
498.5100, 126.1673
498.9921, 124.1729
499.4742, 122.2524
499.9564, 120.3782
500.4385, 118.6603
500.9206, 116.9513
501.4027, 115.5174
501.8848, 114.7205
502.3669, 114.4474
502.8491, 114.1132
503.3312, 113.2039
503.8133, 111.9682
504.2954, 111.1635
504.7775, 110.9179
505.2596, 110.4997
505.7418, 109.3641
506.2239, 107.9810
506.7060, 107.0185
507.1881, 106.5716
507.6702, 106.2991
508.1523, 106.0052
508.6345, 105.7832
509.1166, 105.8209
509.5987, 106.1466
510.0808, 106.5800
510.5629, 106.9887
511.0450, 107.3747
511.5272, 107.7829
512.0093, 108.1767
512.4914, 108.6338
512.9735, 109.1058
513.4556, 109.6833
513.9377, 110.5403
514.4199, 111.6980
514.9020, 112.9485
515.3841, 113.9643
515.8662, 114.6311
516.3483, 115.8366
516.8304, 118.1856
517.3126, 120.4412
517.7947, 122.0662
518.2768, 123.4352
518.7589, 125.1553
519.2410, 127.4801
519.7231, 130.0170
520.2053, 132.1547
520.6874, 133.8441
521.1695, 135.7678
521.6516, 137.8714
522.1337, 140.4418
522.6158, 143.8897
523.0980, 147.9249
523.5801, 151.7067
524.0622, 154.6084
524.5443, 157.4420
525.0264, 161.1826
525.5085, 165.6937
525.9907, 169.9176
526.4728, 173.3952
526.9549, 176.6995
527.4370, 180.7476
527.9191, 185.7160
528.4012, 190.4794
528.8834, 194.6545
529.3655, 198.8293
529.8476, 203.4780
530.3297, 208.4918
530.8118, 213.4580
531.2939, 218.1660
531.7761, 222.6488
532.2582, 226.9491
532.7403, 230.6888
533.2224, 234.9515
533.7045, 240.3888
534.1866, 245.7073
534.6688, 250.2666
535.1509, 254.0406
535.6330, 257.1908
536.1151, 259.7089
536.5972, 261.8251
537.0793, 264.3140
537.5615, 267.3920
538.0436, 269.9109
538.5257, 271.4823
539.0078, 272.3386
539.4899, 272.4913
539.9720, 271.9969
540.4542, 271.5686
540.9363, 271.8083
541.4184, 272.1943
541.9005, 271.9444
542.3826, 271.0525
542.8647, 269.9626
543.3469, 268.8651
543.8290, 267.7508
544.3111, 266.5794
544.7932, 265.3104
545.2753, 264.0945
545.7574, 262.9398
546.2396, 261.8454
546.7217, 260.7615
547.2038, 259.7213
547.6859, 258.8990
548.1680, 258.4450
548.6501, 258.2396
549.1323, 257.7326
549.6144, 256.6684
550.0965, 255.7475
550.5786, 254.7110
551.0607, 254.0708
551.5428, 254.3303
552.0250, 255.4197
552.5071, 256.7717
552.9892, 258.0810
553.4713, 259.3148
553.9534, 260.3527
554.4355, 261.1447
554.9177, 261.9638
555.3998, 262.6892
555.8819, 263.6909
556.3640, 265.5062
556.8461, 268.2380
557.3282, 270.9966
557.8104, 273.1568
558.2925, 275.3406
558.7746, 278.3758
559.2567, 282.2502
559.7388, 286.2390
560.2209, 289.9347
560.7031, 293.4468
561.1852, 297.1328
561.6673, 301.2763
562.1494, 305.2540
562.6315, 308.3673
563.1136, 311.8530
563.5958, 316.6675
564.0779, 322.7523
564.5600, 329.4658
565.0421, 336.4780
565.5242, 343.6007
566.0063, 350.0381
566.4885, 355.2334
566.9706, 361.2577
567.4527, 368.9939
567.9348, 377.4345
568.4169, 386.0608
568.8990, 394.7657
569.3812, 403.5662
569.8633, 412.0646
570.3454, 420.7830
570.8275, 430.7906
571.3096, 441.9663
571.7917, 452.6781
572.2739, 462.1971
572.7560, 471.1543
573.2381, 480.6872
573.7202, 490.8887
574.2023, 501.4180
574.6844, 512.5540
575.1666, 523.8017
575.6487, 535.4131
576.1308, 546.8602
576.6129, 556.7877
577.0950, 564.4844
577.5771, 570.8625
578.0593, 578.1233
578.5414, 587.1080
579.0235, 594.6578
579.5056, 600.0872
579.9877, 604.5088
580.4698, 608.8436
580.9520, 612.4962
581.4341, 614.1251
581.9162, 613.0258
582.3983, 609.8464
582.8804, 605.3406
583.3625, 599.4957
583.8447, 592.3896
584.3268, 584.1205
584.8089, 574.4542
585.2910, 562.9252
585.7731, 549.6608
586.2552, 536.0045
586.7374, 522.3119
587.2195, 508.0067
587.7016, 492.7768
588.1837, 476.7925
588.6658, 460.2511
589.1479, 443.2374
589.6301, 425.9507
590.1122, 408.3359
590.5943, 390.1864
591.0764, 373.8126
591.5585, 360.3827
592.0406, 347.3957
592.5228, 334.5573
593.0049, 321.6880
593.4870, 308.4027
593.9691, 294.5866
594.4512, 281.4643
594.9333, 270.3576
595.4155, 260.8861
595.8976, 251.5207
596.3797, 242.1773
596.8618, 232.9933
597.3439, 224.0303
597.8260, 215.3515
598.3082, 207.0718
598.7903, 199.1418
599.2724, 191.7427
599.7545, 184.9147
600.2366, 178.6514
600.7188, 173.0774
601.2009, 168.1291
601.6830, 163.6358
602.1651, 159.5265
602.6472, 155.6057
603.1293, 151.0663
603.6115, 145.0341
604.0936, 140.0159
604.5757, 136.7295
605.0578, 133.9184
605.5399, 130.8749
606.0220, 127.6350
606.5042, 124.5309
606.9863, 121.7963
607.4684, 119.2533
607.9505, 116.5571
608.4326, 113.7118
608.9147, 111.0837
609.3969, 108.8185
609.8790, 106.7031
610.3611, 104.4345
610.8432, 102.0369
611.3253, 100.0375
611.8074, 98.88120
612.2896, 97.72860
612.7717, 96.17178
613.2538, 94.30984
613.7359, 92.21193
614.2180, 89.93145
614.7001, 87.80376
615.1823, 86.25214
615.6644, 85.30984
616.1465, 84.23097
616.6286, 82.72437
617.1107, 81.50045
617.5928, 81.00322
618.0750, 80.71104
618.5571, 80.07311
619.0392, 78.99245
619.5213, 77.80135
620.0034, 76.69691
620.4855, 75.67645
620.9677, 74.74303
621.4498, 73.90122
621.9319, 73.05430
622.4140, 72.09150
622.8961, 71.16391
623.3782, 70.65609
623.8604, 70.75928
624.3425, 70.62413
624.8246, 69.95815
625.3067, 69.20237
625.7888, 68.54903
626.2709, 68.05998
626.7531, 67.86491
627.2352, 68.03809
627.7173, 68.28532
628.1994, 68.04011
628.6815, 67.21126
629.1636, 66.38363
629.6458, 65.55427
630.1279, 64.77737
630.6100, 64.03053
631.0921, 63.35570
631.5742, 62.81116
632.0563, 62.37502
632.5385, 62.18078
633.0206, 62.63229
633.5027, 63.31620
633.9848, 63.27214
634.4669, 62.37934
634.9490, 61.50182
635.4312, 61.29322
635.9133, 61.59291
636.3954, 61.63612
636.8775, 61.12164
637.3596, 60.74968
637.8417, 60.58469
638.3239, 60.53493
638.8060, 60.59797
639.2881, 60.72139
639.7702, 60.77333
640.2523, 60.64939
640.7344, 60.47625
641.2166, 60.56884
641.6987, 60.94870
642.1808, 61.08342
642.6629, 60.78376
643.1450, 60.35215
643.6271, 59.94965
644.1093, 59.61523
644.5914, 59.54915
645.0735, 59.94245
645.5556, 60.42235
646.0377, 60.85566
646.5198, 61.25332
647.0020, 61.65473
647.4841, 62.05209
647.9662, 62.34438
648.4483, 62.41755
648.9304, 62.31667
649.4125, 62.37019
649.8947, 62.63876
650.3768, 62.95090
650.8589, 63.28289
651.3410, 63.63971
651.8231, 63.99961
652.3052, 64.37981
652.7874, 64.87054
653.2695, 65.72282
653.7516, 66.51077
654.2337, 66.46898
654.7158, 65.82710
655.1979, 65.73647
655.6801, 66.59280
656.1622, 67.67933
656.6443, 68.21935
657.1264, 68.18195
657.6085, 68.15562
658.0906, 68.12218
658.5728, 68.12092
659.0549, 68.16520
659.5370, 68.24389
660.0191, 68.44180
660.5012, 68.70802
660.9833, 68.75163
661.4655, 68.27399
661.9476, 67.42747
662.4297, 66.68218
662.9118, 66.04686
663.3939, 65.45628
663.8760, 64.91280
664.3582, 64.38359
664.8403, 63.84777
665.3224, 63.30444
665.8045, 62.70452
666.2866, 62.09465
666.7687, 61.36979
667.2509, 60.44065
667.7330, 59.37030
668.2151, 58.23994
668.6972, 57.07808
669.1793, 55.91581
669.6614, 54.75549
670.1436, 53.60712
670.6257, 52.63021
671.1078, 51.93012
671.5899, 51.17807
672.0720, 50.24633
672.5541, 49.24392
673.0363, 48.25797
673.5184, 47.28653
674.0005, 46.24392
674.4826, 45.00426
674.9647, 43.73615
675.4468, 42.52266
