##NAMES=Hydromagnesite
##RRUFFID=R060011
##IDEAL CHEMISTRY=Mg_5_(CO_3_)_4_(OH)_2_&#183;4H_2_O
##LOCALITY=Paradise Range, Nye County, Nevada, USA
##OWNER=RRUFF
##SOURCE=University of Arizona Mineral Museum
##DESCRIPTION=Colorless bladed crystals
##STATUS=The identification of this mineral has been confirmed by X-ray diffraction and chemical analysis
##URL=rruff.info/R060011
##MEASURED CHEMISTRY=Mg_5.00_(CO_3_)_4_(OH)_2_Â·4H_2_O
155.7082, 1152.108
156.1903, 1143.033
156.6724, 1134.455
157.1546, 1133.839
157.6367, 1153.523
158.1188, 1171.976
158.6009, 1180.495
159.0830, 1174.143
159.5652, 1169.886
160.0473, 1171.526
160.5294, 1178.112
161.0115, 1187.714
161.4936, 1204.566
161.9757, 1221.081
162.4579, 1233.053
162.9400, 1238.586
163.4221, 1241.390
163.9042, 1240.748
164.3863, 1237.906
164.8684, 1237.030
165.3506, 1243.409
165.8327, 1250.880
166.3148, 1254.153
166.7969, 1245.574
167.2790, 1238.663
167.7611, 1243.817
168.2433, 1259.528
168.7254, 1272.532
169.2075, 1273.930
169.6896, 1268.754
170.1717, 1262.868
170.6538, 1259.736
171.1360, 1255.876
171.6181, 1247.027
172.1002, 1232.884
172.5823, 1220.533
173.0644, 1216.692
173.5465, 1218.083
174.0287, 1218.736
174.5108, 1214.955
174.9929, 1209.539
175.4750, 1206.107
175.9571, 1205.391
176.4392, 1203.758
176.9214, 1194.441
177.4035, 1180.814
177.8856, 1172.144
178.3677, 1178.902
178.8498, 1192.530
179.3319, 1198.067
179.8141, 1190.876
180.2962, 1182.722
180.7783, 1190.481
181.2604, 1211.351
181.7425, 1231.264
182.2246, 1240.959
182.7068, 1242.838
183.1889, 1242.106
183.6710, 1238.302
184.1531, 1234.252
184.6352, 1234.514
185.1173, 1238.990
185.5995, 1245.830
186.0816, 1254.601
186.5637, 1264.751
187.0458, 1274.341
187.5279, 1282.238
188.0100, 1289.646
188.4922, 1299.421
188.9743, 1311.775
189.4564, 1324.647
189.9385, 1334.477
190.4206, 1342.108
190.9027, 1354.163
191.3849, 1374.782
191.8670, 1401.351
192.3491, 1423.728
192.8312, 1441.449
193.3133, 1458.308
193.7955, 1479.526
194.2776, 1504.998
194.7597, 1529.332
195.2418, 1549.199
195.7239, 1565.422
196.2060, 1585.725
196.6882, 1610.516
197.1703, 1638.104
197.6524, 1667.077
198.1345, 1697.234
198.6166, 1726.328
199.0987, 1755.020
199.5809, 1783.315
200.0630, 1802.281
200.5451, 1810.617
201.0272, 1811.438
201.5093, 1811.994
201.9914, 1813.888
202.4736, 1806.796
202.9557, 1782.249
203.4378, 1738.513
203.9199, 1698.381
204.4020, 1664.266
204.8841, 1633.263
205.3663, 1596.473
205.8484, 1551.067
206.3305, 1509.187
206.8126, 1480.373
207.2947, 1467.877
207.7768, 1447.600
208.2590, 1415.134
208.7411, 1374.255
209.2232, 1337.745
209.7053, 1305.497
210.1874, 1277.559
210.6695, 1253.092
211.1517, 1231.738
211.6338, 1215.779
212.1159, 1207.052
212.5980, 1204.161
213.0801, 1198.243
213.5622, 1187.391
214.0444, 1177.203
214.5265, 1172.496
215.0086, 1174.402
215.4907, 1178.158
215.9728, 1183.716
216.4549, 1190.841
216.9371, 1195.701
217.4192, 1195.946
217.9013, 1197.338
218.3834, 1206.453
218.8655, 1227.142
219.3476, 1244.807
219.8298, 1255.330
220.3119, 1258.532
220.7940, 1265.575
221.2761, 1278.090
221.7582, 1292.586
222.2403, 1305.624
222.7225, 1316.655
223.2046, 1327.036
223.6867, 1337.769
224.1688, 1349.428
224.6509, 1355.536
225.1330, 1354.529
225.6152, 1349.502
226.0973, 1343.997
226.5794, 1337.138
227.0615, 1331.830
227.5436, 1329.987
228.0257, 1332.997
228.5079, 1330.142
228.9900, 1316.419
229.4721, 1300.582
229.9542, 1296.819
230.4363, 1313.947
230.9185, 1326.944
231.4006, 1326.262
231.8827, 1306.638
232.3648, 1295.845
232.8469, 1297.484
233.3290, 1305.762
233.8112, 1311.134
234.2933, 1313.980
234.7754, 1313.177
235.2575, 1306.443
235.7396, 1288.693
236.2217, 1282.109
236.7039, 1291.843
237.1860, 1310.359
237.6681, 1321.848
238.1502, 1319.667
238.6323, 1320.968
239.1144, 1333.780
239.5966, 1365.460
240.0787, 1388.206
240.5608, 1398.216
241.0429, 1400.686
241.5250, 1407.194
242.0071, 1419.343
242.4893, 1433.164
242.9714, 1447.577
243.4535, 1465.546
243.9356, 1477.186
244.4177, 1478.748
244.8998, 1474.923
245.3820, 1478.938
245.8641, 1497.226
246.3462, 1513.930
246.8283, 1521.973
247.3104, 1520.000
247.7925, 1512.127
248.2747, 1495.334
248.7568, 1473.360
249.2389, 1457.196
249.7210, 1450.039
250.2031, 1443.849
250.6852, 1434.922
251.1674, 1422.974
251.6495, 1408.932
252.1316, 1391.825
252.6137, 1372.893
253.0958, 1355.668
253.5779, 1338.099
254.0601, 1325.396
254.5422, 1322.323
255.0243, 1336.188
255.5064, 1339.580
255.9885, 1324.297
256.4706, 1298.914
256.9528, 1294.350
257.4349, 1323.627
257.9170, 1352.233
258.3991, 1359.728
258.8812, 1335.299
259.3633, 1319.871
259.8455, 1317.653
260.3276, 1325.488
260.8097, 1332.955
261.2918, 1341.134
261.7739, 1347.088
262.2560, 1349.255
262.7382, 1347.310
263.2203, 1341.682
263.7024, 1329.183
264.1845, 1313.755
264.6666, 1310.106
265.1487, 1322.931
265.6309, 1337.899
266.1130, 1347.577
266.5951, 1352.640
267.0772, 1349.265
267.5593, 1334.044
268.0414, 1311.257
268.5236, 1297.192
269.0057, 1295.630
269.4878, 1293.375
269.9699, 1280.781
270.4520, 1254.608
270.9341, 1233.577
271.4163, 1220.677
271.8984, 1213.175
272.3805, 1202.733
272.8626, 1188.602
273.3447, 1173.416
273.8268, 1158.511
274.3090, 1143.904
274.7911, 1129.812
275.2732, 1116.588
275.7553, 1103.927
276.2374, 1090.345
276.7195, 1074.737
277.2017, 1062.019
277.6838, 1056.423
278.1659, 1058.630
278.6480, 1059.478
279.1301, 1057.985
279.6122, 1054.855
280.0944, 1052.138
280.5765, 1050.234
281.0586, 1046.505
281.5407, 1037.474
282.0229, 1023.065
282.5050, 1013.649
282.9871, 1010.842
283.4692, 1012.577
283.9513, 1014.743
284.4334, 1017.325
284.9156, 1020.498
285.3977, 1024.674
285.8798, 1029.754
286.3619, 1034.625
286.8440, 1039.524
287.3261, 1043.615
287.8083, 1044.467
288.2904, 1042.042
288.7725, 1040.509
289.2546, 1042.288
289.7367, 1047.093
290.2188, 1053.973
290.7010, 1063.603
291.1831, 1073.563
291.6652, 1079.567
292.1473, 1081.852
292.6294, 1082.988
293.1115, 1082.455
293.5937, 1081.667
294.0758, 1087.465
294.5579, 1102.612
295.0400, 1117.639
295.5221, 1117.327
296.0042, 1103.847
296.4864, 1090.125
296.9685, 1084.697
297.4506, 1083.824
297.9327, 1078.609
298.4148, 1068.005
298.8969, 1054.783
299.3791, 1039.620
299.8612, 1023.985
300.3433, 1013.513
300.8254, 1015.860
301.3075, 1024.004
301.7896, 1025.988
302.2718, 1020.573
302.7539, 1012.843
303.2360, 1007.130
303.7181, 1002.992
304.2002, 999.2664
304.6823, 995.8848
305.1645, 992.4370
305.6466, 987.6646
306.1287, 981.2084
306.6108, 976.6379
307.0929, 979.3226
307.5750, 985.7423
308.0572, 989.5406
308.5393, 982.5557
309.0214, 975.0604
309.5035, 979.4028
309.9856, 996.3561
310.4677, 1008.620
310.9499, 997.0015
311.4320, 975.4254
311.9141, 963.0620
312.3962, 976.2667
312.8783, 993.9762
313.3604, 1001.500
313.8426, 998.9985
314.3247, 998.0135
314.8068, 1009.192
315.2889, 1023.348
315.7710, 1030.963
316.2531, 1022.195
316.7353, 1012.380
317.2174, 1006.817
317.6995, 1005.690
318.1816, 1009.863
318.6637, 1029.732
319.1458, 1049.935
319.6280, 1058.138
320.1101, 1036.585
320.5922, 1017.519
321.0743, 1011.587
321.5564, 1016.783
322.0385, 1021.745
322.5207, 1025.067
323.0028, 1026.288
323.4849, 1025.083
323.9670, 1019.752
324.4491, 1013.983
324.9312, 1006.377
325.4134, 998.2351
325.8955, 994.4514
326.3776, 999.0516
326.8597, 1005.563
327.3418, 1011.205
327.8239, 1018.065
328.3061, 1020.742
328.7882, 1017.789
329.2703, 1010.567
329.7524, 1002.364
330.2345, 988.3998
330.7166, 978.1608
331.1988, 976.1418
331.6809, 988.6451
332.1630, 994.6601
332.6451, 989.7614
333.1272, 979.9534
333.6093, 976.9583
334.0915, 985.9476
334.5736, 993.5816
335.0557, 994.5934
335.5378, 986.6541
336.0199, 983.6111
336.5020, 988.4227
336.9842, 995.2455
337.4663, 995.2467
337.9484, 985.5222
338.4305, 976.8967
338.9126, 972.9151
339.3947, 973.6378
339.8769, 972.1496
340.3590, 967.5228
340.8411, 962.5454
341.3232, 961.4178
341.8053, 965.1119
342.2874, 964.7319
342.7696, 955.5007
343.2517, 940.2139
343.7338, 935.6533
344.2159, 943.2869
344.6980, 953.4139
345.1801, 957.0986
345.6623, 954.7507
346.1444, 952.9033
346.6265, 953.1354
347.1086, 954.5013
347.5907, 955.0218
348.0728, 954.6898
348.5550, 953.5582
349.0371, 950.0000
349.5192, 945.4424
350.0013, 945.1719
350.4834, 951.5333
350.9655, 959.6885
351.4477, 962.7543
351.9298, 961.3706
352.4119, 958.4259
352.8940, 952.2987
353.3762, 946.6233
353.8583, 949.2255
354.3404, 963.2104
354.8225, 977.1480
355.3046, 978.4609
355.7867, 971.0823
356.2689, 964.4557
356.7510, 963.9161
357.2331, 965.9301
357.7152, 967.4460
358.1973, 968.2001
358.6794, 968.8177
359.1616, 968.8830
359.6437, 969.2424
360.1258, 971.0793
360.6079, 976.5062
361.0900, 982.1679
361.5721, 986.2582
362.0543, 988.7334
362.5364, 990.7690
363.0185, 994.2032
363.5006, 996.7908
363.9827, 996.4955
364.4648, 987.3316
364.9470, 980.8798
365.4291, 981.8262
365.9112, 989.1222
366.3933, 995.1392
366.8754, 998.9312
367.3575, 1000.713
367.8397, 1000.543
368.3218, 994.6140
368.8039, 991.4716
369.2860, 992.2023
369.7681, 996.1315
370.2502, 1001.387
370.7324, 1011.625
371.2145, 1019.531
371.6966, 1021.768
372.1787, 1015.140
372.6608, 1010.823
373.1429, 1009.307
373.6251, 1009.845
374.1072, 1011.623
374.5893, 1016.167
375.0714, 1018.829
375.5535, 1017.554
376.0356, 1012.015
376.5178, 1007.676
376.9999, 1004.619
377.4820, 1002.684
377.9641, 1002.615
378.4462, 1005.095
378.9283, 1004.692
379.4105, 998.8943
379.8926, 989.2381
380.3747, 983.1174
380.8568, 980.8961
381.3389, 979.6341
381.8210, 975.7957
382.3032, 970.0416
382.7853, 967.8575
383.2674, 971.0389
383.7495, 977.2231
384.2316, 983.1532
384.7137, 988.6834
385.1959, 991.5403
385.6780, 987.6144
386.1601, 980.2882
386.6422, 977.5472
387.1243, 981.3842
387.6064, 986.0056
388.0886, 983.4315
388.5707, 976.5516
389.0528, 972.9135
389.5349, 980.7517
390.0170, 991.0273
390.4991, 994.4066
390.9813, 989.9379
391.4634, 984.5427
391.9455, 979.9026
392.4276, 977.7920
392.9097, 980.4653
393.3918, 997.6528
393.8740, 1011.751
394.3561, 1011.729
394.8382, 999.0757
395.3203, 988.8724
395.8024, 989.2507
396.2845, 992.5204
396.7667, 993.3682
397.2488, 986.8511
397.7309, 982.8375
398.2130, 982.5023
398.6951, 985.8665
399.1772, 993.0264
399.6594, 1012.899
400.1415, 1028.763
400.6236, 1033.437
401.1057, 1019.806
401.5878, 1012.067
402.0699, 1014.522
402.5521, 1020.772
403.0342, 1020.878
403.5163, 1010.003
403.9984, 1001.605
404.4805, 999.4813
404.9626, 1003.736
405.4448, 1008.819
405.9269, 1015.524
406.4090, 1021.601
406.8911, 1024.685
407.3732, 1024.436
407.8553, 1023.413
408.3375, 1021.874
408.8196, 1020.003
409.3017, 1017.958
409.7838, 1015.605
410.2659, 1014.565
410.7480, 1017.371
411.2302, 1022.941
411.7123, 1025.229
412.1944, 1022.755
412.6765, 1019.170
413.1586, 1019.746
413.6407, 1023.719
414.1229, 1027.680
414.6050, 1030.900
415.0871, 1032.741
415.5692, 1031.195
416.0513, 1026.002
416.5334, 1021.547
417.0156, 1021.628
417.4977, 1024.574
417.9798, 1027.873
418.4619, 1031.537
418.9440, 1034.495
419.4261, 1035.709
419.9083, 1035.432
420.3904, 1035.293
420.8725, 1032.972
421.3546, 1032.921
421.8367, 1039.657
422.3188, 1063.548
422.8010, 1077.666
423.2831, 1066.273
423.7652, 1040.986
424.2473, 1026.569
424.7295, 1038.888
425.2116, 1051.049
425.6937, 1052.810
426.1758, 1039.399
426.6579, 1033.971
427.1400, 1043.020
427.6222, 1055.682
428.1043, 1060.493
428.5864, 1052.395
429.0685, 1046.591
429.5506, 1045.993
430.0327, 1050.039
430.5149, 1055.657
430.9970, 1064.530
431.4791, 1070.829
431.9612, 1068.102
432.4433, 1055.421
432.9254, 1049.794
433.4076, 1054.270
433.8897, 1064.124
434.3718, 1071.959
434.8539, 1077.746
435.3360, 1080.401
435.8181, 1076.686
436.3003, 1069.511
436.7824, 1067.711
437.2645, 1071.838
437.7466, 1077.032
438.2287, 1079.645
438.7108, 1079.728
439.1930, 1077.172
439.6751, 1069.663
440.1572, 1061.782
440.6393, 1057.057
441.1214, 1055.548
441.6035, 1057.554
442.0857, 1066.279
442.5678, 1076.877
443.0499, 1085.844
443.5320, 1093.237
444.0141, 1096.946
444.4962, 1092.627
444.9784, 1084.601
445.4605, 1080.105
445.9426, 1085.401
446.4247, 1090.399
446.9068, 1090.081
447.3889, 1082.763
447.8711, 1081.686
448.3532, 1091.689
448.8353, 1105.524
449.3174, 1118.465
449.7995, 1133.895
450.2816, 1142.579
450.7638, 1141.918
451.2459, 1133.867
451.7280, 1125.101
452.2101, 1113.894
452.6922, 1106.115
453.1743, 1105.923
453.6565, 1114.206
454.1386, 1121.440
454.6207, 1128.036
455.1028, 1132.372
455.5849, 1129.067
456.0670, 1118.879
456.5492, 1115.330
457.0313, 1126.083
457.5134, 1145.411
457.9955, 1160.895
458.4776, 1172.641
458.9597, 1179.972
459.4419, 1180.058
459.9240, 1175.918
460.4061, 1172.667
460.8882, 1171.622
461.3703, 1171.129
461.8524, 1169.268
462.3346, 1166.846
462.8167, 1165.775
463.2988, 1166.862
463.7809, 1169.668
464.2630, 1175.213
464.7451, 1184.012
465.2273, 1189.810
465.7094, 1188.306
466.1915, 1183.809
466.6736, 1180.162
467.1557, 1178.623
467.6378, 1177.365
468.1200, 1177.879
468.6021, 1178.965
469.0842, 1174.929
469.5663, 1160.287
470.0484, 1146.961
470.5305, 1140.247
471.0127, 1142.378
471.4948, 1144.018
471.9769, 1145.532
472.4590, 1146.128
472.9411, 1144.504
473.4232, 1140.425
473.9054, 1135.623
474.3875, 1130.147
474.8696, 1124.417
475.3517, 1120.444
475.8338, 1118.271
476.3159, 1116.596
476.7981, 1114.526
477.2802, 1112.154
477.7623, 1109.339
478.2444, 1105.527
478.7265, 1102.959
479.2086, 1106.625
479.6908, 1113.805
480.1729, 1117.625
480.6550, 1111.880
481.1371, 1103.336
481.6192, 1096.409
482.1013, 1091.313
482.5835, 1089.963
483.0656, 1097.596
483.5477, 1107.129
484.0298, 1112.630
484.5119, 1111.350
484.9940, 1107.828
485.4762, 1100.706
485.9583, 1091.935
486.4404, 1086.530
486.9225, 1086.837
487.4046, 1088.815
487.8867, 1091.972
488.3689, 1096.879
488.8510, 1099.492
489.3331, 1099.179
489.8152, 1097.368
490.2973, 1095.245
490.7794, 1092.697
491.2616, 1090.675
491.7437, 1090.235
492.2258, 1089.736
492.7079, 1081.552
493.1900, 1065.062
493.6722, 1054.583
494.1543, 1063.878
494.6364, 1086.391
495.1185, 1100.191
495.6006, 1103.786
496.0828, 1101.259
496.5649, 1092.588
497.0470, 1080.947
497.5291, 1073.219
498.0112, 1074.169
498.4933, 1077.305
498.9755, 1076.578
499.4576, 1073.180
499.9397, 1071.678
500.4218, 1075.598
500.9039, 1081.121
501.3860, 1087.121
501.8682, 1095.511
502.3503, 1097.248
502.8324, 1082.237
503.3145, 1062.472
503.7966, 1052.341
504.2787, 1059.598
504.7609, 1068.022
505.2430, 1076.270
505.7251, 1084.118
506.2072, 1090.488
506.6893, 1096.135
507.1714, 1098.840
507.6536, 1095.964
508.1357, 1086.298
508.6178, 1081.927
509.0999, 1084.710
509.5820, 1089.289
510.0641, 1086.977
510.5463, 1078.465
511.0284, 1072.708
511.5105, 1073.800
511.9926, 1078.372
512.4747, 1081.542
512.9568, 1083.025
513.4390, 1080.430
513.9211, 1063.680
514.4032, 1045.425
514.8853, 1044.317
515.3674, 1067.244
515.8495, 1089.091
516.3317, 1092.685
516.8138, 1086.316
517.2959, 1081.448
517.7780, 1084.613
518.2601, 1086.931
518.7422, 1084.211
519.2244, 1077.094
519.7065, 1072.485
520.1886, 1070.891
520.6707, 1072.240
521.1528, 1077.232
521.6349, 1088.865
522.1171, 1096.301
522.5992, 1098.517
523.0813, 1097.538
523.5634, 1095.399
524.0455, 1091.507
524.5276, 1089.769
525.0098, 1091.861
525.4919, 1096.524
525.9740, 1099.849
526.4561, 1101.841
526.9382, 1102.710
527.4203, 1101.120
527.9025, 1098.701
528.3846, 1100.388
528.8667, 1107.401
529.3488, 1113.578
529.8309, 1110.696
530.3130, 1103.478
530.7952, 1099.551
531.2773, 1105.746
531.7594, 1112.528
532.2415, 1113.275
532.7236, 1109.713
533.2057, 1109.249
533.6879, 1118.932
534.1700, 1128.527
534.6521, 1132.347
535.1342, 1126.810
535.6163, 1124.399
536.0984, 1127.981
536.5806, 1132.971
537.0627, 1134.362
537.5448, 1130.567
538.0269, 1126.719
538.5090, 1122.535
538.9911, 1119.306
539.4733, 1123.063
539.9554, 1135.003
540.4375, 1145.418
540.9196, 1147.433
541.4017, 1143.087
541.8839, 1141.957
542.3660, 1144.452
542.8481, 1147.919
543.3302, 1150.917
543.8123, 1152.953
544.2944, 1152.692
544.7766, 1147.843
545.2587, 1143.718
545.7408, 1145.406
546.2229, 1151.153
546.7050, 1156.647
547.1871, 1161.875
547.6693, 1164.946
548.1514, 1163.952
548.6335, 1158.307
549.1156, 1153.965
549.5977, 1151.944
550.0798, 1151.449
550.5620, 1151.891
551.0441, 1152.823
551.5262, 1155.684
552.0083, 1161.184
552.4904, 1168.173
552.9725, 1175.281
553.4547, 1183.256
553.9368, 1187.182
554.4189, 1183.495
554.9010, 1174.692
555.3831, 1170.779
555.8652, 1171.818
556.3474, 1174.562
556.8295, 1175.849
557.3116, 1177.121
557.7937, 1183.219
558.2758, 1196.892
558.7579, 1206.277
559.2401, 1191.930
559.7222, 1168.537
560.2043, 1158.935
560.6864, 1191.571
561.1685, 1220.604
561.6506, 1220.705
562.1328, 1197.520
562.6149, 1182.461
563.0970, 1185.846
563.5791, 1194.831
564.0612, 1206.130
564.5433, 1223.403
565.0255, 1227.604
565.5076, 1210.939
565.9897, 1190.416
566.4718, 1184.680
566.9539, 1196.622
567.4360, 1204.920
567.9182, 1204.666
568.4003, 1200.728
568.8824, 1204.981
569.3645, 1216.587
569.8466, 1225.745
570.3287, 1225.283
570.8109, 1219.723
571.2930, 1215.267
571.7751, 1212.088
572.2572, 1212.206
572.7393, 1225.494
573.2214, 1238.615
573.7036, 1235.040
574.1857, 1200.010
574.6678, 1174.676
575.1499, 1182.748
575.6320, 1207.543
576.1141, 1224.766
576.5963, 1226.894
577.0784, 1225.090
577.5605, 1219.594
578.0426, 1211.293
578.5247, 1204.581
579.0068, 1197.242
579.4890, 1196.163
579.9711, 1209.940
580.4532, 1240.242
580.9353, 1249.855
581.4174, 1235.203
581.8995, 1214.627
582.3817, 1208.584
582.8638, 1213.843
583.3459, 1218.492
583.8280, 1219.343
584.3101, 1219.120
584.7922, 1222.815
585.2744, 1228.012
585.7565, 1228.593
586.2386, 1215.488
586.7207, 1202.037
587.2028, 1196.813
587.6849, 1199.912
588.1671, 1203.062
588.6492, 1200.941
589.1313, 1200.536
589.6134, 1207.376
590.0955, 1230.812
590.5776, 1240.433
591.0598, 1229.809
591.5419, 1211.142
592.0240, 1200.599
592.5061, 1199.762
592.9882, 1199.056
593.4703, 1196.211
593.9525, 1192.496
594.4346, 1191.445
594.9167, 1192.875
595.3988, 1194.225
595.8809, 1192.435
596.3630, 1190.220
596.8452, 1193.205
597.3273, 1201.434
597.8094, 1208.817
598.2915, 1212.233
598.7736, 1212.290
599.2557, 1208.977
599.7379, 1199.694
600.2200, 1192.481
600.7021, 1191.424
601.1843, 1193.408
601.6664, 1193.414
602.1485, 1188.973
602.6306, 1185.652
603.1127, 1184.968
603.5948, 1186.204
604.0770, 1185.316
604.5591, 1181.392
605.0412, 1178.388
605.5233, 1178.241
606.0054, 1180.832
606.4875, 1187.053
606.9697, 1197.475
607.4518, 1205.281
607.9339, 1200.683
608.4160, 1189.047
608.8981, 1181.875
609.3802, 1182.688
609.8624, 1185.028
610.3445, 1184.668
610.8266, 1182.400
611.3087, 1179.541
611.7908, 1168.950
612.2729, 1165.599
612.7551, 1182.530
613.2372, 1215.239
613.7193, 1230.587
614.2014, 1217.085
614.6835, 1199.021
615.1656, 1184.528
615.6478, 1173.331
616.1299, 1169.766
616.6120, 1176.171
617.0941, 1184.205
617.5762, 1185.230
618.0583, 1180.222
618.5405, 1177.284
619.0226, 1177.717
619.5047, 1180.287
619.9868, 1185.603
620.4689, 1191.878
620.9510, 1194.972
621.4332, 1190.297
621.9153, 1184.327
622.3974, 1180.086
622.8795, 1177.805
623.3616, 1178.283
623.8438, 1185.414
624.3259, 1192.223
624.8080, 1196.303
625.2901, 1198.085
625.7722, 1192.902
626.2543, 1173.090
626.7365, 1155.841
627.2186, 1157.003
627.7007, 1180.852
628.1828, 1194.805
628.6649, 1194.570
629.1470, 1188.493
629.6292, 1188.346
630.1113, 1193.080
630.5934, 1197.254
631.0755, 1198.652
631.5576, 1199.193
632.0397, 1200.809
632.5219, 1203.459
633.0040, 1207.032
633.4861, 1213.749
633.9682, 1219.427
634.4503, 1220.989
634.9324, 1218.182
635.4146, 1215.840
635.8967, 1217.947
636.3788, 1218.279
636.8609, 1212.049
637.3430, 1192.354
637.8251, 1186.675
638.3073, 1200.505
638.7894, 1220.055
639.2715, 1228.321
639.7536, 1225.155
640.2357, 1220.395
640.7178, 1214.542
641.2000, 1210.698
641.6821, 1215.828
642.1642, 1227.692
642.6463, 1238.175
643.1284, 1242.781
643.6105, 1244.897
644.0927, 1247.589
644.5748, 1250.526
645.0569, 1251.452
645.5390, 1246.097
646.0211, 1241.250
646.5032, 1241.435
646.9854, 1249.639
647.4675, 1252.441
647.9496, 1246.165
648.4317, 1238.658
648.9138, 1236.393
649.3959, 1240.300
649.8781, 1243.766
650.3602, 1245.678
650.8423, 1248.183
651.3244, 1257.159
