##NAMES=Hydroxylherderite
##RRUFFID=R060353
##IDEAL CHEMISTRY=CaBe(P^5+^O_4_)(OH)
##LOCALITY=Shigar Valley, northeast of Skardu, Baltistan, Pakistan
##OWNER=RRUFF
##SOURCE=Herb Obodda
##DESCRIPTION=Colorless equant crystal
##STATUS=The identification of this mineral has been confirmed by X-ray diffraction and chemical analysis
##URL=rruff.info/R060353
##MEASURED CHEMISTRY=(Ca_0.99_Mn_0.01_)_Σ=1_Be_1.00_P_1.00_O_4_((OH)_0.52_F_0.48_)_Σ=1_; trace amounts of Na; Be not measured but assumed by stoichiometry; OH estimated by charge balance
152.7376, 31669.95
153.2197, 32075.95
153.7018, 32307.06
154.1839, 32395.51
154.6660, 32502.46
155.1481, 32673.47
155.6303, 32802.76
156.1124, 32840.33
156.5945, 32826.44
157.0766, 32819.22
157.5587, 32853.34
158.0408, 32925.95
158.5230, 33013.90
159.0051, 33082.89
159.4872, 33210.54
159.9693, 33407.09
160.4514, 33531.49
160.9335, 33590.33
161.4157, 33655.79
161.8978, 33728.47
162.3799, 33818.43
162.8620, 33927.87
163.3441, 34056.44
163.8262, 34212.81
164.3084, 34390.53
164.7905, 34583.13
165.2726, 34790.68
165.7547, 35012.62
166.2368, 35193.16
166.7189, 35354.64
167.2011, 35462.95
167.6832, 35532.15
168.1653, 35546.08
168.6474, 35468.53
169.1295, 35268.60
169.6116, 34951.27
170.0938, 34629.69
170.5759, 34271.80
171.0580, 33943.46
171.5401, 33655.67
172.0222, 33412.22
172.5043, 33217.45
172.9865, 33077.34
173.4686, 32991.14
173.9507, 32900.13
174.4328, 32765.82
174.9149, 32661.19
175.3970, 32616.43
175.8792, 32620.77
176.3613, 32646.12
176.8434, 32672.70
177.3255, 32699.51
177.8076, 32731.38
178.2897, 32769.62
178.7719, 32808.54
179.2540, 32850.91
179.7361, 32892.52
180.2182, 32924.86
180.7003, 32942.98
181.1824, 32947.05
181.6646, 32926.16
182.1467, 32892.00
182.6288, 32829.75
183.1109, 32714.43
183.5930, 32563.85
184.0751, 32419.36
184.5573, 32308.45
185.0394, 32231.65
185.5215, 32192.89
186.0036, 32215.65
186.4857, 32242.94
186.9678, 32252.55
187.4500, 32247.52
187.9321, 32236.16
188.4142, 32218.34
188.8963, 32196.87
189.3784, 32235.90
189.8605, 32348.76
190.3427, 32491.73
190.8248, 32658.99
191.3069, 32843.35
191.7890, 33032.44
192.2711, 33217.01
192.7532, 33397.77
193.2354, 33589.96
193.7175, 33855.84
194.1996, 34068.24
194.6817, 34176.09
195.1638, 34191.60
195.6459, 34150.05
196.1281, 34072.99
196.6102, 33958.41
197.0923, 33780.17
197.5744, 33503.83
198.0565, 33218.48
198.5386, 32941.59
199.0208, 32677.74
199.5029, 32434.83
199.9850, 32213.08
200.4671, 32015.95
200.9492, 31859.87
201.4313, 31760.02
201.9135, 31673.97
202.3956, 31585.32
202.8777, 31501.04
203.3598, 31435.98
203.8419, 31398.86
204.3240, 31385.53
204.8061, 31380.80
205.2883, 31411.74
205.7704, 31418.16
206.2525, 31361.10
206.7346, 31269.93
207.2167, 31200.79
207.6988, 31182.00
208.1810, 31197.34
208.6631, 31195.65
209.1452, 31166.40
209.6273, 31135.21
210.1094, 31100.95
210.5915, 31068.52
211.0737, 31051.47
211.5558, 31058.25
212.0379, 31071.45
212.5200, 31043.39
213.0021, 30925.13
213.4842, 30843.38
213.9664, 30832.59
214.4485, 30864.89
214.9306, 30905.83
215.4127, 30943.45
215.8948, 30979.62
216.3769, 31018.05
216.8591, 31057.85
217.3412, 31102.20
217.8233, 31159.04
218.3054, 31217.88
218.7875, 31267.13
219.2696, 31303.60
219.7518, 31330.25
220.2339, 31351.45
220.7160, 31364.88
221.1981, 31377.25
221.6802, 31384.32
222.1623, 31392.97
222.6445, 31419.38
223.1266, 31465.31
223.6087, 31502.22
224.0908, 31490.56
224.5729, 31407.58
225.0550, 31326.13
225.5372, 31245.14
226.0193, 31166.44
226.5014, 31094.08
226.9835, 31027.65
227.4656, 30955.95
227.9477, 30862.50
228.4298, 30732.01
228.9120, 30644.54
229.3941, 30627.93
229.8762, 30627.22
230.3583, 30614.18
230.8404, 30584.00
231.3225, 30536.61
231.8047, 30465.63
232.2868, 30360.40
232.7689, 30314.68
233.2510, 30371.74
233.7331, 30436.34
234.2152, 30460.43
234.6974, 30449.33
235.1795, 30432.89
235.6616, 30432.06
236.1437, 30446.68
236.6258, 30485.83
237.1079, 30593.97
237.5901, 30677.56
238.0722, 30688.85
238.5543, 30651.25
239.0364, 30619.46
239.5185, 30630.69
240.0006, 30676.88
240.4828, 30690.32
240.9649, 30646.75
241.4470, 30598.37
241.9291, 30547.49
242.4112, 30499.58
242.8933, 30462.80
243.3755, 30441.63
243.8576, 30431.92
244.3397, 30417.69
244.8218, 30380.08
245.3039, 30362.57
245.7860, 30383.46
246.2682, 30419.54
246.7503, 30444.83
247.2324, 30449.22
247.7145, 30442.20
248.1966, 30445.26
248.6787, 30473.36
249.1609, 30485.67
249.6430, 30465.00
250.1251, 30438.81
250.6072, 30427.40
251.0893, 30436.25
251.5714, 30459.92
252.0535, 30493.37
252.5357, 30546.48
253.0178, 30584.53
253.4999, 30595.07
253.9820, 30601.57
254.4641, 30619.96
254.9462, 30650.15
255.4284, 30678.69
255.9105, 30686.30
256.3926, 30665.24
256.8747, 30667.35
257.3568, 30714.87
257.8390, 30767.05
258.3211, 30825.18
258.8032, 30877.48
259.2853, 30894.63
259.7674, 30831.19
260.2495, 30694.34
260.7317, 30650.80
261.2138, 30784.84
261.6959, 30915.93
262.1780, 30973.47
262.6601, 30983.36
263.1422, 30995.81
263.6244, 31041.04
264.1065, 31109.13
264.5886, 31167.07
265.0707, 31212.96
265.5528, 31251.98
266.0349, 31268.52
266.5170, 31286.20
266.9991, 31340.24
267.4813, 31454.28
267.9634, 31586.46
268.4455, 31663.47
268.9276, 31672.88
269.4097, 31677.76
269.8918, 31685.99
270.3740, 31705.81
270.8561, 31753.25
271.3382, 31836.65
271.8203, 31916.26
272.3024, 31954.64
272.7845, 31951.57
273.2667, 31921.56
273.7488, 31843.59
274.2309, 31761.21
274.7130, 31721.71
275.1951, 31727.51
275.6772, 31729.23
276.1594, 31689.18
276.6415, 31618.37
277.1236, 31554.40
277.6057, 31498.46
278.0878, 31459.99
278.5699, 31464.98
279.0521, 31504.40
279.5342, 31515.71
280.0163, 31451.44
280.4984, 31354.86
280.9805, 31295.43
281.4626, 31283.04
281.9448, 31280.78
282.4269, 31266.28
282.9090, 31238.81
283.3911, 31194.82
283.8732, 31102.41
284.3553, 31016.58
284.8375, 30995.78
285.3196, 31033.04
285.8017, 31060.17
286.2838, 31030.89
286.7659, 30962.26
287.2480, 30926.56
287.7302, 30953.90
288.2123, 30977.31
288.6944, 30960.77
289.1765, 30920.39
289.6586, 30894.85
290.1407, 30902.70
290.6229, 30926.51
291.1050, 30924.01
291.5871, 30867.73
292.0692, 30836.66
292.5513, 30859.93
293.0334, 30905.32
293.5156, 30941.03
293.9977, 30958.25
294.4798, 30959.23
294.9619, 30944.83
295.4440, 30904.67
295.9261, 30878.31
296.4083, 30871.75
296.8904, 30872.51
297.3725, 30879.71
297.8546, 30888.70
298.3367, 30887.16
298.8188, 30862.95
299.3010, 30814.35
299.7831, 30768.49
300.2652, 30721.10
300.7473, 30680.48
301.2294, 30655.82
301.7115, 30638.98
302.1937, 30614.04
302.6758, 30570.25
303.1579, 30515.77
303.6400, 30485.84
304.1221, 30523.59
304.6042, 30518.46
305.0864, 30428.60
305.5685, 30305.35
306.0506, 30193.61
306.5327, 30109.34
307.0148, 30047.97
307.4969, 30006.43
307.9791, 29991.06
308.4612, 29973.62
308.9433, 29969.33
309.4254, 29947.79
309.9075, 29875.98
310.3896, 29758.82
310.8718, 29647.78
311.3539, 29587.35
311.8360, 29574.37
312.3181, 29579.20
312.8002, 29623.27
313.2823, 29650.93
313.7644, 29617.04
314.2466, 29541.73
314.7287, 29477.53
315.2108, 29456.92
315.6929, 29457.91
316.1750, 29436.76
316.6571, 29387.72
317.1393, 29347.44
317.6214, 29337.47
318.1035, 29349.24
318.5856, 29369.58
319.0677, 29406.18
319.5498, 29436.38
320.0320, 29433.26
320.5141, 29405.37
320.9962, 29395.97
321.4783, 29429.82
321.9604, 29476.75
322.4425, 29472.31
322.9247, 29395.55
323.4068, 29354.80
323.8889, 29421.89
324.3710, 29527.10
324.8531, 29568.53
325.3352, 29525.32
325.8174, 29459.64
326.2995, 29439.45
326.7816, 29477.38
327.2637, 29494.07
327.7458, 29480.95
328.2279, 29455.32
328.7101, 29422.61
329.1922, 29385.88
329.6743, 29348.50
330.1564, 29311.29
330.6385, 29276.44
331.1206, 29261.83
331.6028, 29299.62
332.0849, 29320.37
332.5670, 29297.79
333.0491, 29257.85
333.5312, 29237.71
334.0133, 29251.56
334.4955, 29275.13
334.9776, 29257.37
335.4597, 29165.15
335.9418, 29105.78
336.4239, 29102.79
336.9060, 29115.03
337.3882, 29125.41
337.8703, 29127.87
338.3524, 29115.90
338.8345, 29079.05
339.3166, 29016.97
339.7987, 28957.95
340.2809, 28891.90
340.7630, 28842.49
341.2451, 28832.14
341.7272, 28842.04
342.2093, 28836.51
342.6914, 28795.04
343.1736, 28732.81
343.6557, 28674.06
344.1378, 28617.67
344.6199, 28569.77
345.1020, 28534.53
345.5841, 28508.93
346.0663, 28489.72
346.5484, 28477.48
347.0305, 28468.84
347.5126, 28472.63
347.9947, 28479.83
348.4768, 28458.33
348.9590, 28395.27
349.4411, 28316.29
349.9232, 28244.48
350.4053, 28178.65
350.8874, 28138.37
351.3695, 28148.15
351.8517, 28171.59
352.3338, 28176.26
352.8159, 28160.91
353.2980, 28140.67
353.7801, 28127.99
354.2622, 28120.78
354.7444, 28093.12
355.2265, 28017.01
355.7086, 27956.46
356.1907, 27943.29
356.6728, 27953.57
357.1549, 27948.63
357.6371, 27913.04
358.1192, 27865.03
358.6013, 27842.79
359.0834, 27876.42
359.5655, 27879.21
360.0476, 27826.75
360.5298, 27766.88
361.0119, 27731.10
361.4940, 27719.76
361.9761, 27712.68
362.4582, 27689.28
362.9403, 27650.77
363.4224, 27632.60
363.9045, 27661.96
364.3867, 27674.68
364.8688, 27629.11
365.3509, 27559.81
365.8330, 27522.44
366.3151, 27550.31
366.7972, 27594.55
367.2794, 27567.76
367.7615, 27459.78
368.2436, 27385.04
368.7257, 27397.13
369.2078, 27441.49
369.6899, 27460.94
370.1721, 27452.13
370.6542, 27441.18
371.1363, 27444.54
371.6184, 27455.21
372.1005, 27457.18
372.5826, 27447.17
373.0648, 27437.06
373.5469, 27437.07
374.0290, 27447.11
374.5111, 27458.27
374.9932, 27473.08
375.4753, 27486.56
375.9575, 27495.98
376.4396, 27501.83
376.9217, 27505.21
377.4038, 27506.23
377.8859, 27506.34
378.3680, 27509.41
378.8502, 27529.13
379.3323, 27532.28
379.8144, 27508.85
380.2965, 27474.48
380.7786, 27437.89
381.2607, 27402.69
381.7429, 27374.44
382.2250, 27361.30
382.7071, 27365.10
383.1892, 27358.29
383.6713, 27323.02
384.1534, 27295.67
384.6356, 27296.10
385.1177, 27309.27
385.5998, 27310.81
386.0819, 27288.61
386.5640, 27250.93
387.0461, 27205.20
387.5283, 27144.22
388.0104, 27112.72
388.4925, 27150.27
388.9746, 27201.36
389.4567, 27217.89
389.9388, 27196.59
390.4210, 27172.47
390.9031, 27180.83
391.3852, 27198.93
391.8673, 27160.50
392.3494, 27046.25
392.8315, 26949.45
393.3137, 26954.92
393.7958, 27045.73
394.2779, 27109.48
394.7600, 27137.15
395.2421, 27142.55
395.7242, 27122.34
396.2064, 27086.27
396.6885, 27057.26
397.1706, 27045.34
397.6527, 27040.54
398.1348, 27022.15
398.6169, 26965.14
399.0991, 26945.45
399.5812, 27006.64
400.0633, 27069.92
400.5454, 27075.55
401.0275, 27027.81
401.5096, 26971.77
401.9918, 26945.21
402.4739, 26943.67
402.9560, 26919.90
403.4381, 26845.88
403.9202, 26789.69
404.4023, 26770.94
404.8845, 26774.10
405.3666, 26784.63
405.8487, 26798.41
406.3308, 26811.11
406.8129, 26819.43
407.2950, 26823.16
407.7772, 26816.31
408.2593, 26792.97
408.7414, 26765.17
409.2235, 26743.86
409.7056, 26727.40
410.1877, 26707.61
410.6699, 26670.88
411.1520, 26636.60
411.6341, 26634.92
412.1162, 26662.39
412.5983, 26676.66
413.0804, 26650.45
413.5625, 26600.91
414.0446, 26581.57
414.5268, 26612.05
415.0089, 26631.79
415.4910, 26620.24
415.9731, 26597.54
416.4552, 26580.47
416.9373, 26573.91
417.4195, 26582.45
417.9016, 26613.58
418.3837, 26670.11
418.8658, 26712.09
419.3479, 26717.19
419.8300, 26732.02
420.3122, 26789.37
420.7943, 26857.49
421.2764, 26881.66
421.7585, 26835.89
422.2406, 26773.25
422.7227, 26787.75
423.2049, 26893.13
423.6870, 26983.10
424.1691, 27036.32
424.6512, 27072.65
425.1333, 27104.65
425.6154, 27133.00
426.0976, 27158.67
426.5797, 27193.97
427.0618, 27221.43
427.5439, 27215.08
428.0260, 27174.08
428.5081, 27105.24
428.9903, 27000.29
429.4724, 26875.59
429.9545, 26779.62
430.4366, 26727.62
430.9187, 26670.42
431.4008, 26570.69
431.8830, 26469.63
432.3651, 26428.46
432.8472, 26453.04
433.3293, 26483.21
433.8114, 26452.56
434.2935, 26352.89
434.7757, 26309.45
435.2578, 26378.31
435.7399, 26441.49
436.2220, 26466.50
436.7041, 26469.54
437.1862, 26471.57
437.6684, 26480.67
438.1505, 26501.11
438.6326, 26544.81
439.1147, 26615.80
439.5968, 26674.28
440.0789, 26701.90
440.5611, 26730.15
441.0432, 26770.43
441.5253, 26826.58
442.0074, 26912.57
442.4895, 27061.27
442.9716, 27226.71
443.4538, 27340.45
443.9359, 27407.31
444.4180, 27493.81
444.9001, 27632.94
445.3822, 27805.85
445.8643, 27977.09
446.3465, 28156.56
446.8286, 28310.76
447.3107, 28426.52
447.7928, 28518.04
448.2749, 28605.79
448.7570, 28686.09
449.2392, 28729.61
449.7213, 28711.93
450.2034, 28636.44
450.6855, 28537.89
451.1676, 28428.59
451.6497, 28276.90
452.1319, 28057.01
452.6140, 27806.18
453.0961, 27552.93
453.5782, 27306.25
454.0603, 27077.81
454.5424, 26886.60
455.0246, 26728.44
455.5067, 26565.02
455.9888, 26386.64
456.4709, 26216.88
456.9530, 26069.16
457.4352, 25940.07
457.9173, 25827.69
458.3994, 25732.12
458.8815, 25652.67
459.3636, 25592.72
459.8457, 25548.57
460.3279, 25511.48
460.8100, 25479.62
461.2921, 25449.42
461.7742, 25415.61
462.2563, 25375.48
462.7384, 25344.79
463.2205, 25339.61
463.7026, 25327.98
464.1848, 25284.45
464.6669, 25224.69
465.1490, 25182.27
465.6311, 25175.96
466.1132, 25185.81
466.5953, 25166.47
467.0775, 25107.52
467.5596, 25056.79
468.0417, 25030.10
468.5238, 25005.46
469.0059, 24963.84
469.4880, 24911.18
469.9702, 24873.68
470.4523, 24875.70
470.9344, 24895.20
471.4165, 24896.31
471.8986, 24879.43
472.3807, 24865.11
472.8629, 24864.70
473.3450, 24869.12
473.8271, 24856.92
474.3092, 24819.78
474.7913, 24795.17
475.2734, 24803.07
475.7556, 24816.45
476.2377, 24811.98
476.7198, 24789.00
477.2019, 24753.92
477.6840, 24706.52
478.1661, 24657.21
478.6483, 24664.45
479.1304, 24795.98
479.6125, 24872.71
480.0946, 24844.32
480.5767, 24777.06
481.0588, 24710.16
481.5410, 24654.54
482.0231, 24620.47
482.5052, 24634.39
482.9873, 24677.05
483.4694, 24677.04
483.9515, 24623.84
484.4337, 24572.96
484.9158, 24554.03
485.3979, 24556.84
485.8800, 24556.35
486.3621, 24549.46
486.8442, 24546.46
487.3264, 24559.84
487.8085, 24575.36
488.2906, 24569.21
488.7727, 24540.73
489.2548, 24518.14
489.7369, 24529.70
490.2191, 24571.21
490.7012, 24576.17
491.1833, 24467.37
491.6654, 24417.12
492.1475, 24510.20
492.6296, 24636.97
493.1118, 24687.15
493.5939, 24640.15
494.0760, 24555.37
494.5581, 24470.93
495.0402, 24393.26
495.5223, 24376.24
496.0045, 24446.46
496.4866, 24506.57
496.9687, 24485.99
497.4508, 24422.34
497.9329, 24384.17
498.4150, 24382.57
498.8972, 24394.55
499.3793, 24414.40
499.8614, 24438.62
500.3435, 24459.13
500.8256, 24475.23
501.3077, 24497.81
501.7899, 24536.75
502.2720, 24591.53
502.7541, 24655.05
503.2362, 24740.87
503.7183, 24818.88
504.2004, 24873.47
504.6826, 24923.75
505.1647, 24992.06
505.6468, 25082.28
506.1289, 25175.07
506.6110, 25243.74
507.0931, 25294.41
507.5753, 25374.89
508.0574, 25490.18
508.5395, 25624.77
509.0216, 25789.72
509.5037, 25963.03
509.9858, 26095.48
510.4680, 26154.69
510.9501, 26240.50
511.4322, 26420.37
511.9143, 26646.04
512.3964, 26830.06
512.8785, 26966.54
513.3607, 27144.42
513.8428, 27442.77
514.3249, 27851.71
514.8070, 28255.58
515.2891, 28617.31
515.7712, 29021.55
516.2534, 29488.71
516.7355, 29996.79
517.2176, 30558.93
517.6997, 31158.77
518.1818, 31708.74
518.6639, 32186.26
519.1461, 32553.71
519.6282, 32658.79
520.1103, 32487.04
520.5924, 32098.02
521.0745, 31452.70
521.5566, 30634.43
522.0388, 29798.23
522.5209, 28918.01
523.0030, 28110.29
523.4851, 27389.26
523.9672, 26775.57
524.4493, 26295.41
524.9315, 25943.58
525.4136, 25683.79
525.8957, 25497.03
526.3778, 25371.26
526.8599, 25250.16
527.3420, 25110.03
527.8242, 25017.82
528.3063, 24996.49
528.7884, 25006.41
529.2705, 25023.11
529.7526, 25044.85
530.2347, 25079.31
530.7169, 25121.31
531.1990, 25184.98
531.6811, 25316.08
532.1632, 25513.56
532.6453, 25679.98
533.1274, 25771.87
533.6096, 25821.78
534.0917, 25892.17
534.5738, 26006.14
535.0559, 26032.21
535.5380, 25917.13
536.0201, 25745.15
536.5022, 25544.34
536.9843, 25332.99
537.4664, 25146.53
537.9485, 25002.22
538.4307, 24870.84
538.9128, 24677.19
539.3949, 24383.63
539.8770, 24190.89
540.3591, 24187.34
540.8412, 24208.21
541.3234, 24163.39
541.8055, 24072.89
542.2876, 23989.26
542.7697, 23930.27
543.2518, 23882.23
543.7339, 23825.43
544.2161, 23770.04
544.6982, 23754.38
545.1803, 23790.65
545.6624, 23829.16
546.1445, 23811.27
546.6266, 23730.96
547.1088, 23696.18
547.5909, 23737.92
548.0730, 23782.69
548.5551, 23817.88
549.0372, 23843.51
549.5193, 23860.38
550.0015, 23868.92
550.4836, 23870.71
550.9657, 23863.29
551.4478, 23849.08
551.9299, 23846.83
552.4120, 23862.42
552.8942, 23867.73
553.3763, 23836.81
553.8584, 23792.40
554.3405, 23782.03
554.8226, 23821.43
555.3047, 23845.98
555.7869, 23828.56
556.2690, 23792.05
556.7511, 23751.96
557.2332, 23713.37
557.7153, 23684.81
558.1974, 23672.34
558.6796, 23670.91
559.1617, 23665.31
559.6438, 23654.74
560.1259, 23642.94
560.6080, 23634.04
561.0901, 23621.00
561.5723, 23597.13
562.0544, 23565.61
562.5365, 23535.11
563.0186, 23500.08
563.5007, 23478.94
563.9828, 23500.64
564.4650, 23554.90
564.9471, 23599.75
565.4292, 23621.12
565.9113, 23645.82
566.3934, 23704.89
566.8755, 23801.23
567.3577, 23898.33
567.8398, 24009.98
568.3219, 24105.66
568.8040, 24145.20
569.2861, 24179.45
569.7682, 24273.02
570.2504, 24437.57
570.7325, 24626.88
571.2146, 24792.68
571.6967, 24942.42
572.1788, 25111.40
572.6609, 25295.85
573.1431, 25521.54
573.6252, 25820.01
574.1073, 26158.26
574.5894, 26473.93
575.0715, 26762.61
575.5536, 27051.16
576.0358, 27325.33
576.5179, 27619.56
577.0000, 27981.45
577.4821, 28388.56
577.9642, 28775.65
578.4464, 29107.88
578.9285, 29400.79
579.4106, 29683.16
579.8927, 29958.01
580.3748, 30207.11
580.8569, 30398.07
581.3391, 30600.08
581.8212, 30862.89
582.3033, 31163.04
582.7854, 31444.50
583.2675, 31685.31
583.7496, 31921.65
584.2318, 32173.79
584.7139, 32437.53
585.1960, 32719.00
585.6781, 33013.29
586.1602, 33271.79
586.6423, 33451.79
587.1245, 33556.23
587.6066, 33610.18
588.0887, 33645.66
588.5708, 33574.12
589.0529, 33377.82
589.5350, 33087.75
590.0172, 32716.29
590.4993, 32271.59
590.9814, 31768.55
591.4635, 31192.23
591.9456, 30584.24
592.4277, 29982.10
592.9099, 29391.56
593.3920, 28851.38
593.8741, 28375.31
594.3562, 27945.87
594.8383, 27544.83
595.3204, 27169.93
595.8026, 26833.26
596.2847, 26537.79
596.7668, 26268.02
597.2489, 26035.52
597.7310, 25816.13
598.2131, 25577.46
598.6953, 25313.08
599.1774, 25052.90
599.6595, 24830.22
600.1416, 24633.78
600.6237, 24412.93
601.1058, 24162.46
601.5880, 23934.51
602.0701, 23753.42
602.5522, 23608.17
603.0343, 23483.81
603.5164, 23387.15
603.9985, 23280.53
604.4807, 23136.79
604.9628, 23005.58
605.4449, 22928.05
605.9270, 22883.18
606.4091, 22826.43
606.8912, 22740.24
607.3734, 22644.29
607.8555, 22565.99
608.3376, 22505.01
608.8197, 22447.71
609.3018, 22398.32
609.7839, 22339.51
610.2661, 22249.71
610.7482, 22148.78
611.2303, 22077.31
611.7124, 22044.04
612.1945, 22018.46
612.6766, 22005.83
613.1588, 21986.57
613.6409, 21943.03
614.1230, 21876.55
614.6051, 21791.45
615.0872, 21687.58
615.5693, 21585.61
616.0515, 21531.89
616.5336, 21535.35
617.0157, 21526.77
617.4978, 21497.55
617.9799, 21459.10
618.4620, 21413.99
618.9442, 21365.30
619.4263, 21317.68
619.9084, 21264.50
620.3905, 21227.60
620.8726, 21236.40
621.3547, 21256.24
621.8369, 21241.43
622.3190, 21192.06
622.8011, 21139.13
623.2832, 21103.45
623.7653, 21077.66
624.2474, 21038.30
624.7296, 20977.88
625.2117, 20931.39
625.6938, 20920.38
626.1759, 20904.83
626.6580, 20850.08
627.1401, 20772.54
627.6223, 20716.72
628.1044, 20702.17
628.5865, 20695.92
629.0686, 20682.21
629.5507, 20662.71
630.0328, 20635.51
630.5150, 20602.75
630.9971, 20581.83
631.4792, 20590.39
631.9613, 20612.53
632.4434, 20576.21
632.9255, 20437.32
633.4077, 20356.44
633.8898, 20403.88
634.3719, 20469.68
634.8539, 20488.59
635.3361, 20470.25
635.8182, 20451.53
636.3003, 20446.79
636.7824, 20438.85
637.2645, 20406.30
637.7466, 20365.91
638.2288, 20356.27
638.7109, 20378.42
639.1930, 20382.95
639.6751, 20324.93
640.1572, 20223.43
640.6393, 20171.57
641.1215, 20198.94
641.6036, 20203.21
642.0857, 20141.77
642.5678, 20077.73
643.0499, 20055.32
643.5320, 20064.12
644.0142, 20063.53
644.4963, 20027.37
644.9784, 19998.27
645.4605, 20029.81
645.9426, 20079.86
