##NAMES=Hydroxylherderite
##RRUFFID=R070451
##IDEAL CHEMISTRY=CaBe(P^5+^O_4_)(OH)
##LOCALITY=Fletcher mine, Groton, Grafton County, New Hampshire, USA
##OWNER=RRUFF
##SOURCE=Michael Scott
##DESCRIPTION=Brownish green prismatic crystal
##STATUS=The identification of this mineral has been confirmed by X-ray diffraction and chemical analysis
##URL=rruff.info/R070451
##MEASURED CHEMISTRY=Ca_1.00_Be_1.00_P_1.00_O_4_((OH)_0.80_F_0.20_)_Î£=1_; trace amounts of Al; OH estimated by charge balance; BeO by difference
134.9772, 3247.850
135.4593, 3402.295
135.9414, 3567.557
136.4235, 3740.664
136.9057, 3921.298
137.3878, 4096.453
137.8699, 4264.743
138.3520, 4424.535
138.8341, 4574.738
139.3162, 4715.397
139.7984, 4846.955
140.2805, 4972.740
140.7626, 5090.574
141.2447, 5201.715
141.7268, 5305.451
142.2089, 5399.878
142.6911, 5495.158
143.1732, 5592.931
143.6553, 5689.383
144.1374, 5782.656
144.6195, 5893.910
145.1016, 5965.135
145.5838, 5968.342
146.0659, 5869.320
146.5480, 5771.234
147.0301, 5664.318
147.5122, 5557.643
147.9943, 5483.468
148.4765, 5450.465
148.9586, 5442.870
149.4407, 5451.842
149.9228, 5471.473
150.4049, 5515.523
150.8870, 5593.607
151.3692, 5704.960
151.8513, 5810.928
152.3334, 5905.918
152.8155, 5997.235
153.2976, 6092.510
153.7797, 6192.788
154.2619, 6294.957
154.7440, 6402.178
155.2261, 6516.108
155.7082, 6621.257
156.1903, 6709.197
156.6724, 6790.061
157.1546, 6873.368
157.6367, 6957.997
158.1188, 7048.496
158.6009, 7147.258
159.0830, 7258.394
159.5652, 7369.548
160.0473, 7465.852
160.5294, 7560.950
161.0115, 7679.464
161.4936, 7829.401
161.9757, 8005.260
162.4579, 8208.748
162.9400, 8462.743
163.4221, 8705.720
163.9042, 8893.595
164.3863, 9044.556
164.8684, 9220.283
165.3506, 9430.016
165.8327, 9682.850
166.3148, 9988.145
166.7969, 10395.61
167.2790, 10808.76
167.7611, 11260.39
168.2433, 11725.34
168.7254, 11975.42
169.2075, 11803.46
169.6896, 11367.72
170.1717, 10853.26
170.6538, 10222.93
171.1360, 9608.743
171.6181, 9106.704
172.1002, 8717.639
172.5823, 8416.916
173.0644, 8199.184
173.5465, 8053.910
174.0287, 7957.622
174.5108, 7921.296
174.9929, 7919.475
175.4750, 7926.592
175.9571, 7941.574
176.4392, 7962.071
176.9214, 7977.215
177.4035, 7994.121
177.8856, 8033.046
178.3677, 8117.776
178.8498, 8228.238
179.3319, 8330.461
179.8141, 8414.062
180.2962, 8505.913
180.7783, 8637.803
181.2604, 8805.902
181.7425, 9002.736
182.2246, 9251.479
182.7068, 9524.048
183.1889, 9774.569
183.6710, 10021.26
184.1531, 10200.63
184.6352, 10181.97
185.1173, 9971.668
185.5995, 9689.875
186.0816, 9393.160
186.5637, 9094.957
187.0458, 8837.063
187.5279, 8627.686
188.0100, 8468.393
188.4922, 8378.682
188.9743, 8360.277
189.4564, 8374.570
189.9385, 8390.139
190.4206, 8407.517
190.9027, 8430.304
191.3849, 8456.821
191.8670, 8489.857
192.3491, 8539.888
192.8312, 8607.771
193.3133, 8690.880
193.7955, 8789.787
194.2776, 8904.274
194.7597, 9023.028
195.2418, 9135.577
195.7239, 9245.053
196.2060, 9387.609
196.6882, 9569.708
197.1703, 9766.668
197.6524, 9947.276
198.1345, 10109.24
198.6166, 10256.68
199.0987, 10418.25
199.5809, 10594.04
200.0630, 10639.44
200.5451, 10538.08
201.0272, 10329.33
201.5093, 10055.26
201.9914, 9699.821
202.4736, 9363.585
202.9557, 9092.829
203.4378, 8889.938
203.9199, 8725.326
204.4020, 8599.740
204.8841, 8509.762
205.3663, 8452.811
205.8484, 8435.609
206.3305, 8428.235
206.8126, 8411.310
207.2947, 8381.505
207.7768, 8363.682
208.2590, 8363.015
208.7411, 8374.764
209.2232, 8382.261
209.7053, 8384.186
210.1874, 8385.061
210.6695, 8388.212
211.1517, 8394.341
211.6338, 8399.356
212.1159, 8401.154
212.5980, 8401.209
213.0801, 8409.161
213.5622, 8427.661
214.0444, 8448.949
214.5265, 8465.510
215.0086, 8474.382
215.4907, 8488.425
215.9728, 8509.352
216.4549, 8537.163
216.9371, 8575.255
217.4192, 8632.873
217.9013, 8686.626
218.3834, 8707.872
218.8655, 8677.546
219.3476, 8667.081
219.8298, 8697.661
220.3119, 8769.499
220.7940, 8824.277
221.2761, 8855.884
221.7582, 8877.439
222.2403, 8901.559
222.7225, 8923.014
223.2046, 8958.456
223.6867, 9015.666
224.1688, 9097.981
224.6509, 9168.039
225.1330, 9218.004
225.6152, 9263.917
226.0973, 9326.931
226.5794, 9412.339
227.0615, 9501.501
227.5436, 9581.671
228.0257, 9644.765
228.5079, 9756.245
228.9900, 9942.934
229.4721, 10159.05
229.9542, 10344.33
230.4363, 10509.89
230.9185, 10624.11
231.4006, 10678.03
231.8827, 10668.75
232.3648, 10604.82
232.8469, 10462.00
233.3290, 10278.03
233.8112, 10114.58
234.2933, 9971.390
234.7754, 9849.094
235.2575, 9746.823
235.7396, 9661.801
236.2217, 9609.371
236.7039, 9610.283
237.1860, 9633.908
237.6681, 9615.136
238.1502, 9523.381
238.6323, 9437.591
239.1144, 9387.777
239.5966, 9389.844
240.0787, 9385.029
240.5608, 9364.627
241.0429, 9340.542
241.5250, 9340.611
242.0071, 9375.226
242.4893, 9418.419
242.9714, 9459.596
243.4535, 9498.963
243.9356, 9536.494
244.4177, 9566.595
244.8998, 9596.267
245.3820, 9643.686
245.8641, 9710.461
246.3462, 9793.023
246.8283, 9892.884
247.3104, 10023.93
247.7925, 10136.86
248.2747, 10221.40
248.7568, 10289.56
249.2389, 10376.09
249.7210, 10488.75
250.2031, 10608.06
250.6852, 10725.25
251.1674, 10836.85
251.6495, 10955.38
252.1316, 11097.32
252.6137, 11243.06
253.0958, 11326.25
253.5779, 11328.83
254.0601, 11296.65
254.5422, 11250.67
255.0243, 11187.18
255.5064, 11121.10
255.9885, 11057.54
256.4706, 10991.36
256.9528, 10900.56
257.4349, 10772.75
257.9170, 10640.45
258.3991, 10512.79
258.8812, 10374.84
259.3633, 10289.53
259.8455, 10277.96
260.3276, 10317.54
260.8097, 10325.92
261.2918, 10283.86
261.7739, 10245.93
262.2560, 10246.53
262.7382, 10302.30
263.2203, 10345.18
263.7024, 10363.21
264.1845, 10367.71
264.6666, 10401.19
265.1487, 10472.57
265.6309, 10553.97
266.1130, 10624.76
266.5951, 10676.63
267.0772, 10754.23
267.5593, 10870.89
268.0414, 11012.64
268.5236, 11134.99
269.0057, 11248.52
269.4878, 11319.73
269.9699, 11322.30
270.4520, 11243.78
270.9341, 11152.00
271.4163, 11052.16
271.8984, 10942.70
272.3805, 10810.38
272.8626, 10639.75
273.3447, 10488.09
273.8268, 10397.96
274.3090, 10379.36
274.7911, 10353.37
275.2732, 10310.05
275.7553, 10258.00
276.2374, 10222.42
276.7195, 10205.77
277.2017, 10194.78
277.6838, 10176.67
278.1659, 10149.15
278.6480, 10145.65
279.1301, 10175.15
279.6122, 10224.48
280.0944, 10263.89
280.5765, 10292.12
281.0586, 10316.33
281.5407, 10340.93
282.0229, 10365.94
282.5050, 10387.21
282.9871, 10402.97
283.4692, 10416.67
283.9513, 10439.18
284.4334, 10471.73
284.9156, 10498.62
285.3977, 10510.95
285.8798, 10509.09
286.3619, 10495.57
286.8440, 10466.96
287.3261, 10432.89
287.8083, 10410.55
288.2904, 10400.01
288.7725, 10394.29
289.2546, 10392.65
289.7367, 10393.59
290.2188, 10385.86
290.7010, 10364.97
291.1831, 10343.28
291.6652, 10344.27
292.1473, 10366.52
292.6294, 10390.00
293.1115, 10401.73
293.5937, 10405.41
294.0758, 10412.64
294.5579, 10423.53
295.0400, 10440.88
295.5221, 10473.22
296.0042, 10518.18
296.4864, 10559.86
296.9685, 10582.07
297.4506, 10595.81
297.9327, 10630.47
298.4148, 10692.06
298.8969, 10757.86
299.3791, 10793.06
299.8612, 10806.63
300.3433, 10828.60
300.8254, 10876.78
301.3075, 10942.55
301.7896, 11013.99
302.2718, 11092.33
302.7539, 11167.84
303.2360, 11221.02
303.7181, 11262.91
304.2002, 11321.40
304.6823, 11420.36
305.1645, 11537.91
305.6466, 11647.21
306.1287, 11747.61
306.6108, 11844.37
307.0929, 11964.71
307.5750, 12083.05
308.0572, 12157.61
308.5393, 12159.80
309.0214, 12115.36
309.5035, 12037.83
309.9856, 11927.52
310.4677, 11806.33
310.9499, 11670.57
311.4320, 11536.49
311.9141, 11424.05
312.3962, 11354.64
312.8783, 11297.62
313.3604, 11230.56
313.8426, 11154.11
314.3247, 11087.29
314.8068, 11034.42
315.2889, 10999.54
315.7710, 10986.12
316.2531, 11013.04
316.7353, 11045.70
317.2174, 11068.93
317.6995, 11083.39
318.1816, 11097.78
318.6637, 11105.92
319.1458, 11120.26
319.6280, 11150.79
320.1101, 11230.49
320.5922, 11295.74
321.0743, 11312.74
321.5564, 11292.42
322.0385, 11296.04
322.5207, 11354.59
323.0028, 11432.66
323.4849, 11507.74
323.9670, 11570.48
324.4491, 11637.66
324.9312, 11724.59
325.4134, 11821.29
325.8955, 11890.19
326.3776, 11906.47
326.8597, 11909.23
327.3418, 11917.64
327.8239, 11964.07
328.3061, 11971.56
328.7882, 11913.21
329.2703, 11814.06
329.7524, 11737.92
330.2345, 11693.23
330.7166, 11663.41
331.1988, 11645.68
331.6809, 11653.93
332.1630, 11641.81
332.6451, 11591.03
333.1272, 11526.34
333.6093, 11496.90
334.0915, 11526.90
334.5736, 11553.64
335.0557, 11550.81
335.5378, 11505.07
336.0199, 11494.39
336.5020, 11528.53
336.9842, 11588.09
337.4663, 11649.31
337.9484, 11715.24
338.4305, 11774.79
338.9126, 11824.72
339.3947, 11864.74
339.8769, 11901.93
340.3590, 11936.14
340.8411, 11968.48
341.3232, 11997.64
341.8053, 12021.43
342.2874, 12058.65
342.7696, 12122.32
343.2517, 12203.85
343.7338, 12249.92
344.2159, 12257.14
344.6980, 12250.79
345.1801, 12252.90
345.6623, 12262.72
346.1444, 12269.29
346.6265, 12269.22
347.1086, 12265.42
347.5907, 12259.02
348.0728, 12250.23
348.5550, 12255.68
349.0371, 12295.65
349.5192, 12360.92
350.0013, 12420.83
350.4834, 12465.50
350.9655, 12511.67
351.4477, 12592.80
351.9298, 12701.79
352.4119, 12798.00
352.8940, 12873.99
353.3762, 12917.10
353.8583, 12898.88
354.3404, 12808.31
354.8225, 12685.77
355.3046, 12559.71
355.7867, 12430.86
356.2689, 12300.88
356.7510, 12148.57
357.2331, 12008.26
357.7152, 11917.41
358.1973, 11882.18
358.6794, 11861.23
359.1616, 11831.59
359.6437, 11799.00
360.1258, 11771.50
360.6079, 11756.27
361.0900, 11743.56
361.5721, 11724.47
362.0543, 11699.09
362.5364, 11684.94
363.0185, 11691.62
363.5006, 11711.68
363.9827, 11738.25
364.4648, 11799.73
364.9470, 11836.76
365.4291, 11814.67
365.9112, 11743.96
366.3933, 11698.28
366.8754, 11703.56
367.3575, 11729.82
367.8397, 11760.26
368.3218, 11819.90
368.8039, 11851.04
369.2860, 11825.66
369.7681, 11766.62
370.2502, 11741.99
370.7324, 11772.90
371.2145, 11817.42
371.6966, 11863.62
372.1787, 11923.31
372.6608, 11953.46
373.1429, 11939.15
373.6251, 11903.38
374.1072, 11883.60
374.5893, 11883.87
375.0714, 11892.44
375.5535, 11909.18
376.0356, 11935.35
376.5178, 11947.66
376.9999, 11940.52
377.4820, 11928.87
377.9641, 11930.39
378.4462, 11946.65
378.9283, 11966.11
379.4105, 11988.46
379.8926, 12011.46
380.3747, 12022.57
380.8568, 12020.30
381.3389, 12016.08
381.8210, 12019.62
382.3032, 12030.14
382.7853, 12041.52
383.2674, 12052.15
383.7495, 12063.66
384.2316, 12081.49
384.7137, 12104.82
385.1959, 12123.42
385.6780, 12126.62
386.1601, 12120.92
386.6422, 12120.36
387.1243, 12127.60
387.6064, 12136.66
388.0886, 12140.42
388.5707, 12140.95
389.0528, 12143.48
389.5349, 12152.22
390.0170, 12163.28
390.4991, 12168.96
390.9813, 12167.79
391.4634, 12178.65
391.9455, 12232.94
392.4276, 12300.98
392.9097, 12345.06
393.3918, 12325.73
393.8740, 12302.73
394.3561, 12308.55
394.8382, 12339.97
395.3203, 12363.16
395.8024, 12356.60
396.2845, 12342.80
396.7667, 12337.02
397.2488, 12342.66
397.7309, 12355.70
398.2130, 12376.31
398.6951, 12403.94
399.1772, 12437.05
399.6594, 12500.31
400.1415, 12546.99
400.6236, 12555.20
401.1057, 12496.66
401.5878, 12467.09
402.0699, 12477.05
402.5521, 12510.82
403.0342, 12547.91
403.5163, 12598.37
403.9984, 12633.77
404.4805, 12642.43
404.9626, 12623.72
405.4448, 12614.26
405.9269, 12614.40
406.4090, 12623.17
406.8911, 12642.66
407.3732, 12675.25
407.8553, 12701.45
408.3375, 12712.74
408.8196, 12718.15
409.3017, 12749.15
409.7838, 12807.67
410.2659, 12870.15
410.7480, 12917.76
411.2302, 12954.11
411.7123, 12995.93
412.1944, 13044.74
412.6765, 13099.56
413.1586, 13162.20
413.6407, 13231.40
414.1229, 13299.98
414.6050, 13362.66
415.0871, 13424.31
415.5692, 13485.97
416.0513, 13547.86
416.5334, 13624.26
417.0156, 13732.49
417.4977, 13862.44
417.9798, 13997.32
418.4619, 14138.26
418.9440, 14277.33
419.4261, 14402.15
419.9083, 14516.10
420.3904, 14652.63
420.8725, 14829.23
421.3546, 15031.12
421.8367, 15246.63
422.3188, 15481.91
422.8010, 15719.61
423.2831, 15993.65
423.7652, 16265.92
424.2473, 16463.04
424.7295, 16605.79
425.2116, 16645.61
425.6937, 16549.31
426.1758, 16283.93
426.6579, 16013.54
427.1400, 15723.86
427.6222, 15436.47
428.1043, 15165.00
428.5864, 14896.40
429.0685, 14671.69
429.5506, 14506.51
430.0327, 14395.41
430.5149, 14293.64
430.9970, 14199.46
431.4791, 14120.21
431.9612, 14061.26
432.4433, 14022.44
432.9254, 14004.22
433.4076, 14010.12
433.8897, 14031.41
434.3718, 14050.45
434.8539, 14067.60
435.3360, 14095.76
435.8181, 14147.49
436.3003, 14214.47
436.7824, 14271.35
437.2645, 14316.13
437.7466, 14365.52
438.2287, 14437.50
438.7108, 14526.36
439.1930, 14619.78
439.6751, 14710.25
440.1572, 14805.48
440.6393, 14912.90
441.1214, 15031.60
441.6035, 15157.11
442.0857, 15274.61
442.5678, 15404.54
443.0499, 15571.90
443.5320, 15798.07
444.0141, 16015.40
444.4962, 16200.16
444.9784, 16357.98
445.4605, 16498.29
445.9426, 16685.42
446.4247, 16797.36
446.9068, 16787.27
447.3889, 16643.53
447.8711, 16448.24
448.3532, 16148.95
448.8353, 15836.80
449.3174, 15576.63
449.7995, 15394.53
450.2816, 15220.34
450.7638, 15048.71
451.2459, 14880.29
451.7280, 14720.39
452.2101, 14561.99
452.6922, 14429.94
453.1743, 14342.83
453.6565, 14305.76
454.1386, 14269.67
454.6207, 14233.95
455.1028, 14198.78
455.5849, 14161.91
456.0670, 14123.96
456.5492, 14093.95
457.0313, 14080.50
457.5134, 14074.93
457.9955, 14051.40
458.4776, 14010.66
458.9597, 13978.38
459.4419, 13985.37
459.9240, 14012.21
460.4061, 14022.98
460.8882, 14002.07
461.3703, 13982.86
461.8524, 14008.29
462.3346, 14058.39
462.8167, 14086.31
463.2988, 14038.33
463.7809, 13984.76
464.2630, 13977.48
464.7451, 14025.56
465.2273, 14058.31
465.7094, 14030.08
466.1915, 13985.71
466.6736, 13965.24
467.1557, 14003.41
467.6378, 14035.13
468.1200, 14045.09
468.6021, 14039.26
469.0842, 14044.07
469.5663, 14065.24
470.0484, 14090.39
470.5305, 14116.79
471.0127, 14149.10
471.4948, 14165.13
471.9769, 14160.00
472.4590, 14144.87
472.9411, 14131.63
473.4232, 14118.56
473.9054, 14120.39
474.3875, 14150.26
474.8696, 14196.38
475.3517, 14200.68
475.8338, 14160.48
476.3159, 14129.54
476.7981, 14170.33
477.2802, 14255.47
477.7623, 14295.22
478.2444, 14266.80
478.7265, 14221.11
479.2086, 14211.84
479.6908, 14231.60
480.1729, 14262.22
480.6550, 14308.18
481.1371, 14352.46
481.6192, 14377.19
482.1013, 14382.67
482.5835, 14388.71
483.0656, 14410.84
483.5477, 14434.81
484.0298, 14448.14
484.5119, 14435.17
484.9940, 14428.62
485.4762, 14440.34
485.9583, 14463.74
486.4404, 14481.94
486.9225, 14478.49
487.4046, 14484.53
487.8867, 14512.29
488.3689, 14567.20
488.8510, 14613.75
489.3331, 14658.20
489.8152, 14687.36
490.2973, 14682.01
490.7794, 14631.13
491.2616, 14593.32
491.7437, 14579.29
492.2258, 14582.85
492.7079, 14584.10
493.1900, 14582.09
493.6722, 14596.31
494.1543, 14658.05
494.6364, 14746.75
495.1185, 14781.12
495.6006, 14751.08
496.0828, 14717.69
496.5649, 14758.49
497.0470, 14840.52
497.5291, 14893.13
498.0112, 14861.49
498.4933, 14823.82
498.9755, 14856.56
499.4576, 14942.80
499.9397, 15016.92
500.4218, 15027.89
500.9039, 15031.52
501.3860, 15066.85
501.8682, 15150.53
502.3503, 15227.56
502.8324, 15273.18
503.3145, 15310.17
503.7966, 15365.52
504.2787, 15454.08
504.7609, 15545.82
505.2430, 15636.56
505.7251, 15726.62
506.2072, 15820.54
506.6893, 15914.64
507.1714, 16018.64
507.6536, 16141.15
508.1357, 16283.97
508.6178, 16423.71
509.0999, 16554.83
509.5820, 16692.41
510.0641, 16854.97
510.5463, 17043.14
511.0284, 17252.14
511.5105, 17483.01
511.9926, 17736.43
512.4747, 18017.94
512.9568, 18326.42
513.4390, 18652.51
513.9211, 19029.03
514.4032, 19404.19
514.8853, 19721.18
515.3674, 19983.88
515.8495, 20146.62
516.3317, 20174.92
516.8138, 20087.96
517.2959, 19912.23
517.7780, 19566.36
518.2601, 19221.57
518.7422, 18926.28
519.2244, 18680.08
519.7065, 18478.34
520.1886, 18313.67
520.6707, 18202.39
521.1528, 18158.84
521.6349, 18212.34
522.1171, 18253.83
522.5992, 18259.31
523.0813, 18277.02
523.5634, 18382.12
524.0455, 18589.61
524.5276, 18806.78
525.0098, 19019.96
525.4919, 19221.29
525.9740, 19397.58
526.4561, 19550.27
526.9382, 19657.88
527.4203, 19713.50
527.9025, 19715.12
528.3846, 19653.01
528.8667, 19522.94
529.3488, 19350.49
529.8309, 19142.29
530.3130, 18913.11
530.7952, 18683.66
531.2773, 18445.91
531.7594, 18227.20
532.2415, 18052.32
532.7236, 17912.59
533.2057, 17778.44
533.6879, 17613.71
534.1700, 17471.77
534.6521, 17381.95
535.1342, 17363.29
535.6163, 17351.46
536.0984, 17342.75
536.5806, 17342.07
537.0627, 17355.84
537.5448, 17390.26
538.0269, 17425.63
538.5090, 17462.10
538.9911, 17495.94
539.4733, 17511.72
539.9554, 17508.06
540.4375, 17497.35
540.9196, 17484.14
541.4017, 17469.08
541.8839, 17462.41
542.3660, 17466.79
542.8481, 17453.97
543.3302, 17379.30
543.8123, 17269.74
544.2944, 17176.41
544.7766, 17109.46
545.2587, 17069.81
545.7408, 17077.71
546.2229, 17115.28
546.7050, 17138.49
547.1871, 17109.54
547.6693, 17079.08
548.1514, 17072.79
548.6335, 17094.43
549.1156, 17118.32
549.5977, 17128.57
550.0798, 17148.50
550.5620, 17196.61
551.0441, 17304.52
551.5262, 17374.72
552.0083, 17378.93
552.4904, 17361.12
552.9725, 17416.51
553.4547, 17560.63
553.9368, 17696.00
554.4189, 17778.84
554.9010, 17827.39
555.3831, 17911.52
555.8652, 18031.56
556.3474, 18170.07
556.8295, 18316.71
557.3116, 18472.09
557.7937, 18635.29
558.2758, 18807.42
558.7579, 18986.85
559.2401, 19156.92
559.7222, 19334.91
560.2043, 19546.70
560.6864, 19840.90
561.1685, 20134.37
561.6506, 20384.96
562.1328, 20598.82
562.6149, 20817.79
563.0970, 21089.73
563.5791, 21331.90
564.0612, 21518.83
564.5433, 21654.22
565.0255, 21712.64
565.5076, 21656.98
565.9897, 21567.75
566.4718, 21529.68
566.9539, 21553.23
567.4360, 21559.56
567.9182, 21524.55
568.4003, 21480.38
568.8824, 21490.58
569.3645, 21554.11
569.8466, 21660.35
570.3287, 21802.12
570.8109, 21982.34
571.2930, 22202.29
571.7751, 22463.68
572.2572, 22762.19
572.7393, 23117.79
573.2214, 23501.54
573.7036, 23886.30
574.1857, 24265.92
574.6678, 24645.25
575.1499, 25067.44
575.6320, 25475.19
576.1141, 25789.86
576.5963, 26004.43
577.0784, 26111.71
577.5605, 26112.48
578.0426, 26006.83
578.5247, 25772.49
579.0068, 25363.90
579.4890, 24923.66
579.9711, 24512.37
580.4532, 24132.42
580.9353, 23767.15
581.4174, 23411.51
581.8995, 23091.48
582.3817, 22831.45
582.8638, 22630.51
583.3459, 22489.59
583.8280, 22420.57
584.3101, 22389.14
584.7922, 22335.39
585.2744, 22287.76
585.7565, 22317.77
586.2386, 22504.68
586.7207, 22741.77
587.2028, 22959.35
587.6849, 23155.86
588.1671, 23403.76
588.6492, 23741.76
589.1313, 24122.42
589.6134, 24510.99
590.0955, 24878.06
590.5776, 25317.03
591.0598, 25834.60
591.5419, 26418.05
592.0240, 27054.13
592.5061, 27745.51
592.9882, 28481.64
593.4703, 29245.00
593.9525, 30046.50
594.4346, 30930.20
594.9167, 31887.86
595.3988, 32803.65
595.8809, 33672.34
596.3630, 34433.82
596.8452, 35032.19
597.3273, 35452.62
597.8094, 35593.73
598.2915, 35385.42
598.7736, 34861.34
599.2557, 34023.19
599.7379, 32756.84
600.2200, 31431.34
600.7021, 30075.15
601.1843, 28742.39
601.6664, 27517.06
602.1485, 26400.18
602.6306, 25368.64
603.1127, 24415.06
603.5948, 23546.63
604.0770, 22833.80
604.5591, 22309.32
605.0412, 21849.76
605.5233, 21397.37
606.0054, 20955.47
606.4875, 20593.38
606.9697, 20316.63
607.4518, 20094.36
607.9339, 19919.58
608.4160, 19776.65
608.8981, 19638.67
609.3802, 19492.53
609.8624, 19363.38
610.3445, 19279.15
610.8266, 19222.16
611.3087, 19160.90
611.7908, 19051.95
612.2729, 18970.59
612.7551, 18959.40
613.2372, 19008.07
613.7193, 19038.72
614.2014, 19035.73
614.6835, 19030.51
615.1656, 19039.78
615.6478, 19067.96
616.1299, 19069.22
616.6120, 19042.46
617.0941, 18990.80
617.5762, 18902.06
618.0583, 18782.45
618.5405, 18697.00
619.0226, 18665.09
619.5047, 18640.46
619.9868, 18550.21
620.4689, 18421.20
620.9510, 18315.61
621.4332, 18271.74
621.9153, 18250.15
622.3974, 18220.98
622.8795, 18190.80
623.3616, 18186.04
623.8438, 18238.78
624.3259, 18298.78
624.8080, 18339.93
625.2901, 18356.53
625.7722, 18389.82
626.2543, 18453.94
626.7365, 18517.16
627.2186, 18547.05
627.7007, 18532.48
628.1828, 18562.11
628.6649, 18652.09
