##NAMES=Hydrotalcite
##RRUFFID=R050457
##IDEAL CHEMISTRY=Mg_6_Al_2_CO_3_(OH)_16_(H_2_O)_4_
##LOCALITY=Snarum, Norway
##OWNER=RRUFF
##SOURCE=University of Arizona Mineral Museum
##DESCRIPTION=Pearly-white foliated mass
##STATUS=The identification of this mineral has been confirmed by X-ray diffraction and chemical analysis
##URL=rruff.info/R050457
##MEASURED CHEMISTRY=Mg_6.00_(Al_1.60_Fe^3+^_0.40_)_Σ=2_(CO_3_)(OH)_16_·4H_2_O
117.8891, 39.47248
118.3712, 39.47742
118.8533, 39.79230
119.3354, 40.18280
119.8175, 40.42154
120.2996, 40.52119
120.7818, 40.59140
121.2639, 40.73004
121.7460, 40.94198
122.2281, 41.08411
122.7102, 41.12109
123.1923, 41.07875
123.6745, 40.91327
124.1566, 40.63047
124.6387, 40.34789
125.1208, 40.24681
125.6029, 40.42971
126.0850, 40.58728
126.5672, 40.73016
127.0493, 40.82446
127.5314, 40.82121
128.0135, 40.70398
128.4956, 40.52218
128.9777, 40.41257
129.4599, 40.47887
129.9420, 40.50808
130.4241, 40.49476
130.9062, 40.43390
131.3883, 40.31614
131.8705, 40.13227
132.3526, 39.89079
132.8347, 39.63806
133.3168, 39.29451
133.7989, 39.01747
134.2810, 38.87825
134.7632, 38.86683
135.2453, 38.93806
135.7274, 39.12804
136.2095, 39.36666
136.6916, 39.43117
137.1737, 39.18420
137.6559, 38.83469
138.1380, 38.58982
138.6201, 38.46257
139.1022, 38.37849
139.5843, 38.30632
140.0664, 38.24187
140.5486, 38.18213
141.0307, 38.13089
141.5128, 38.08256
141.9949, 38.02649
142.4770, 37.98505
142.9591, 37.89532
143.4413, 37.72593
143.9234, 37.49807
144.4055, 37.24073
144.8876, 36.94359
145.3697, 36.60557
145.8518, 36.43795
146.3340, 36.74314
146.8161, 36.95988
147.2982, 36.89923
147.7803, 36.58768
148.2624, 36.14828
148.7445, 35.66963
149.2267, 35.08584
149.7088, 34.78343
150.1909, 34.90823
150.6730, 35.12801
151.1551, 35.32541
151.6372, 35.45466
152.1194, 35.45219
152.6015, 35.21436
153.0836, 34.58630
153.5657, 34.14757
154.0478, 34.09394
154.5299, 34.13575
155.0121, 33.97501
155.4942, 33.53126
155.9763, 32.94856
156.4584, 32.38813
156.9405, 31.82153
157.4227, 31.42208
157.9048, 31.36335
158.3869, 31.50011
158.8690, 31.51498
159.3511, 31.28750
159.8332, 30.96842
160.3154, 30.73700
160.7975, 30.59190
161.2796, 30.48527
161.7617, 30.42913
162.2438, 30.41318
162.7259, 30.30270
163.2081, 29.97387
163.6902, 29.60986
164.1723, 29.34764
164.6544, 29.19831
165.1365, 29.10071
165.6186, 28.99931
166.1008, 28.89966
166.5829, 28.77235
167.0650, 28.58047
167.5471, 28.38113
168.0292, 28.21781
168.5113, 28.09957
168.9935, 27.99412
169.4756, 27.84572
169.9577, 27.62612
170.4398, 27.41419
170.9219, 27.18822
171.4040, 26.98567
171.8862, 26.84709
172.3683, 26.78559
172.8504, 26.77079
173.3325, 26.73019
173.8146, 26.64227
174.2967, 26.55110
174.7789, 26.50001
175.2610, 26.43292
175.7431, 26.25960
176.2252, 25.93180
176.7073, 25.51984
177.1894, 25.26235
177.6716, 25.23706
178.1537, 25.24737
178.6358, 25.29464
179.1179, 25.35132
179.6000, 25.36202
180.0821, 25.29455
180.5643, 25.16812
181.0464, 25.04222
181.5285, 24.89119
182.0106, 24.77353
182.4927, 24.71079
182.9749, 24.70250
183.4570, 24.76284
183.9391, 24.96534
184.4212, 25.19405
184.9033, 25.20791
185.3854, 24.88526
185.8676, 24.54261
186.3497, 24.50523
186.8318, 24.78508
187.3139, 24.94476
187.7960, 24.65534
188.2781, 24.19544
188.7603, 23.86421
189.2424, 23.73240
189.7245, 23.70935
190.2066, 23.69909
190.6887, 23.71549
191.1708, 23.69167
191.6530, 23.52601
192.1351, 23.34592
192.6172, 23.28711
193.0993, 23.41525
193.5814, 23.61531
194.0635, 23.63593
194.5457, 23.34669
195.0278, 23.13747
195.5099, 23.13144
195.9920, 23.21390
196.4741, 23.28222
196.9562, 23.29172
197.4384, 23.25242
197.9205, 23.19048
198.4026, 23.08237
198.8847, 22.98283
199.3668, 22.87609
199.8489, 22.78844
200.3311, 22.76507
200.8132, 22.83141
201.2953, 22.95043
201.7774, 22.97467
202.2595, 22.78210
202.7416, 22.62452
203.2238, 22.55788
203.7059, 22.53412
204.1880, 22.46729
204.6701, 22.30550
205.1522, 22.09103
205.6344, 22.02037
206.1165, 22.26327
206.5986, 22.43897
207.0807, 22.43331
207.5628, 22.30642
208.0449, 22.17157
208.5271, 22.08818
209.0092, 22.03891
209.4913, 21.95121
209.9734, 21.73484
210.4555, 21.59237
210.9376, 21.67290
211.4198, 21.89588
211.9019, 22.02449
212.3840, 21.90548
212.8661, 21.64319
213.3482, 21.53757
213.8303, 21.65907
214.3125, 21.80891
214.7946, 21.90645
215.2767, 21.94956
215.7588, 21.91738
216.2409, 21.76888
216.7230, 21.55687
217.2052, 21.37467
217.6873, 21.21210
218.1694, 21.10654
218.6515, 21.10720
219.1336, 21.21048
219.6157, 21.32307
220.0979, 21.43490
220.5800, 21.52115
221.0621, 21.55721
221.5442, 21.53753
222.0263, 21.47858
222.5084, 21.36453
222.9906, 21.18296
223.4727, 21.07945
223.9548, 21.21023
224.4369, 21.37171
224.9190, 21.38493
225.4011, 21.20985
225.8833, 21.01681
226.3654, 21.05159
226.8475, 21.38801
227.3296, 21.59341
227.8117, 21.46736
228.2938, 21.25076
228.7760, 21.04999
229.2581, 20.89438
229.7402, 20.81517
230.2223, 20.88980
230.7044, 21.20298
231.1866, 21.39710
231.6687, 21.35507
232.1508, 21.24879
232.6329, 21.15484
233.1150, 21.09808
233.5971, 21.09063
234.0793, 21.17490
234.5614, 21.44578
235.0435, 21.56571
235.5256, 21.46641
236.0077, 21.28523
236.4898, 21.07149
236.9720, 20.85106
237.4541, 20.65644
237.9362, 20.53271
238.4183, 20.49501
238.9004, 20.50235
239.3825, 20.59667
239.8647, 20.69611
240.3468, 20.72916
240.8289, 20.69650
241.3110, 20.67139
241.7931, 20.75739
242.2752, 21.03702
242.7574, 21.17784
243.2395, 21.11438
243.7216, 20.98416
244.2037, 20.82649
244.6858, 20.66968
245.1679, 20.58643
245.6501, 20.67689
246.1322, 21.01876
246.6143, 21.20880
247.0964, 21.15133
247.5785, 21.03249
248.0606, 20.98042
248.5428, 21.00220
249.0249, 21.01880
249.5070, 20.95399
249.9891, 20.79310
250.4712, 20.61882
250.9533, 20.38824
251.4355, 20.17752
251.9176, 20.04382
252.3997, 19.98618
252.8818, 19.95503
253.3639, 19.90163
253.8460, 19.83059
254.3282, 19.83953
254.8103, 20.02700
255.2924, 20.21496
255.7745, 20.25169
256.2566, 20.14801
256.7387, 20.06320
257.2209, 20.13893
257.7030, 20.33492
258.1851, 20.38812
258.6672, 20.20393
259.1493, 19.95386
259.6314, 19.71246
260.1136, 19.48855
260.5957, 19.35113
261.0778, 19.36884
261.5599, 19.50222
262.0420, 19.59809
262.5241, 19.61770
263.0063, 19.64412
263.4884, 19.78518
263.9705, 20.01867
264.4526, 20.13990
264.9347, 19.99915
265.4168, 19.71498
265.8990, 19.52789
266.3811, 19.46023
266.8632, 19.44429
267.3453, 19.45315
267.8275, 19.48183
268.3096, 19.48648
268.7917, 19.42960
269.2738, 19.36127
269.7559, 19.34879
270.2380, 19.40083
270.7202, 19.46737
271.2023, 19.52366
271.6844, 19.56859
272.1665, 19.59620
272.6486, 19.61337
273.1307, 19.59903
273.6129, 19.51296
274.0950, 19.35614
274.5771, 19.24109
275.0592, 19.27649
275.5413, 19.43231
276.0234, 19.52462
276.5056, 19.47503
276.9877, 19.42508
277.4698, 19.52145
277.9519, 19.72960
278.4340, 19.87600
278.9161, 19.81591
279.3983, 19.59655
279.8804, 19.42273
280.3625, 19.29409
280.8446, 19.23855
281.3267, 19.30407
281.8088, 19.44655
282.2910, 19.56327
282.7731, 19.59303
283.2552, 19.55458
283.7373, 19.49743
284.2194, 19.38373
284.7015, 19.32677
285.1837, 19.43542
285.6658, 19.61633
286.1479, 19.72341
286.6300, 19.66452
287.1121, 19.51681
287.5942, 19.45298
288.0764, 19.49111
288.5585, 19.57528
289.0406, 19.75920
289.5227, 19.94486
290.0048, 20.01537
290.4869, 19.91824
290.9691, 19.73346
291.4512, 19.58387
291.9333, 19.46247
292.4154, 19.40198
292.8975, 19.46382
293.3796, 19.55755
293.8618, 19.62337
294.3439, 19.64595
294.8260, 19.63121
295.3081, 19.56358
295.7902, 19.41655
296.2723, 19.34340
296.7545, 19.45222
297.2366, 19.58512
297.7187, 19.63980
298.2008, 19.61365
298.6829, 19.59215
299.1650, 19.68930
299.6472, 19.92681
300.1293, 20.07867
300.6114, 20.10158
301.0935, 20.05421
301.5756, 19.91198
302.0577, 19.70955
302.5399, 19.54170
303.0220, 19.50766
303.5041, 19.59897
303.9862, 19.61548
304.4683, 19.46013
304.9504, 19.34191
305.4326, 19.38334
305.9147, 19.51081
306.3968, 19.58063
306.8789, 19.48949
307.3610, 19.28361
307.8431, 19.16854
308.3253, 19.21122
308.8074, 19.24323
309.2895, 19.19587
309.7716, 19.12023
310.2537, 19.08729
310.7358, 19.13366
311.2180, 19.21045
311.7001, 19.19936
312.1822, 19.04335
312.6643, 18.92506
313.1464, 18.91729
313.6285, 18.93390
314.1107, 18.89388
314.5928, 18.77740
315.0749, 18.64790
315.5570, 18.59643
316.0392, 18.63714
316.5213, 18.70559
317.0034, 18.82821
317.4855, 18.95199
317.9676, 19.05955
318.4497, 19.14340
318.9319, 19.19080
319.4140, 19.17718
319.8961, 19.09494
320.3782, 19.02874
320.8603, 19.00968
321.3424, 18.97772
321.8246, 18.87895
322.3067, 18.74568
322.7888, 18.65655
323.2709, 18.67622
323.7530, 18.79137
324.2351, 18.91136
324.7173, 19.10122
325.1994, 19.19635
325.6815, 19.08311
326.1636, 18.87241
326.6457, 18.72472
327.1278, 18.72893
327.6100, 18.81422
328.0921, 18.79107
328.5742, 18.56677
329.0563, 18.43771
329.5384, 18.56848
330.0205, 18.75975
330.5027, 18.82557
330.9848, 18.71343
331.4669, 18.54348
331.9490, 18.49092
332.4311, 18.58783
332.9132, 18.66128
333.3954, 18.68869
333.8775, 18.68326
334.3596, 18.61434
334.8417, 18.49820
335.3238, 18.42304
335.8059, 18.50958
336.2881, 18.76163
336.7702, 18.91545
337.2523, 18.93502
337.7344, 18.87882
338.2165, 18.72745
338.6986, 18.52482
339.1808, 18.36793
339.6629, 18.34011
340.1450, 18.39736
340.6271, 18.35960
341.1092, 18.15188
341.5913, 17.99545
342.0735, 18.01798
342.5556, 18.11812
343.0377, 18.16979
343.5198, 18.11804
344.0019, 18.02491
344.4840, 17.99468
344.9662, 18.04325
345.4483, 18.08354
345.9304, 18.05924
346.4125, 18.03524
346.8946, 18.08151
347.3767, 18.20807
347.8589, 18.30919
348.3410, 18.23830
348.8231, 18.00205
349.3052, 17.88506
349.7873, 18.00243
350.2694, 18.16708
350.7516, 18.28730
351.2337, 18.35221
351.7158, 18.32793
352.1979, 18.13412
352.6800, 17.83102
353.1621, 17.61159
353.6443, 17.47685
354.1264, 17.43412
354.6085, 17.53520
355.0906, 17.71758
355.5727, 17.89736
356.0548, 18.08584
356.5370, 18.21369
357.0191, 18.13465
357.5012, 17.82408
357.9833, 17.59016
358.4654, 17.63749
358.9475, 17.78403
359.4297, 17.79915
359.9118, 17.63697
360.3939, 17.46877
360.8760, 17.42412
361.3581, 17.48447
361.8402, 17.55847
362.3224, 17.63433
362.8045, 17.70356
363.2866, 17.77181
363.7687, 17.83646
364.2508, 17.85144
364.7329, 17.75198
365.2151, 17.60567
365.6972, 17.53230
366.1793, 17.55008
366.6614, 17.58806
367.1436, 17.58246
367.6257, 17.55527
368.1078, 17.57566
368.5899, 17.73779
369.0720, 17.87997
369.5541, 17.83367
370.0363, 17.62743
370.5184, 17.44999
371.0005, 17.38930
371.4826, 17.41368
371.9647, 17.44852
372.4468, 17.49832
372.9290, 17.54565
373.4111, 17.59436
373.8932, 17.63412
374.3753, 17.63638
374.8574, 17.58908
375.3395, 17.53350
375.8217, 17.53590
376.3038, 17.60946
376.7859, 17.61563
377.2680, 17.46482
377.7501, 17.29322
378.2322, 17.21035
378.7144, 17.22257
379.1965, 17.29300
379.6786, 17.40668
380.1607, 17.55745
380.6428, 17.67646
381.1249, 17.79687
381.6071, 17.85492
382.0892, 17.80038
382.5713, 17.67069
383.0534, 17.52357
383.5355, 17.37909
384.0176, 17.25991
384.4998, 17.21892
384.9819, 17.37042
385.4640, 17.41031
385.9461, 17.21592
386.4282, 16.97956
386.9103, 16.87558
387.3925, 16.92313
387.8746, 17.01990
388.3567, 17.05707
388.8388, 17.02311
389.3209, 17.01285
389.8030, 17.06357
390.2852, 17.09621
390.7673, 17.06468
391.2494, 16.99297
391.7315, 16.92814
392.2136, 16.89683
392.6957, 16.89689
393.1779, 16.92086
393.6600, 16.97229
394.1421, 17.04637
394.6242, 17.23590
395.1063, 17.39416
395.5884, 17.34125
396.0706, 17.05294
396.5527, 16.71427
397.0348, 16.58316
397.5169, 16.72585
397.9990, 16.81447
398.4811, 16.84404
398.9633, 16.82040
399.4454, 16.69798
399.9275, 16.51954
400.4096, 16.38558
400.8917, 16.37896
401.3738, 16.46391
401.8560, 16.47503
402.3381, 16.34256
402.8202, 16.27126
403.3023, 16.38600
403.7844, 16.55552
404.2665, 16.63869
404.7487, 16.59063
405.2308, 16.49551
405.7129, 16.46468
406.1950, 16.50371
406.6771, 16.49410
407.1592, 16.34498
407.6414, 16.21608
408.1235, 16.25746
408.6056, 16.43748
409.0877, 16.57562
409.5698, 16.52546
410.0519, 16.36629
410.5341, 16.29084
411.0162, 16.32158
411.4983, 16.36696
411.9804, 16.36303
412.4625, 16.33967
412.9446, 16.35482
413.4268, 16.45580
413.9089, 16.53221
414.3910, 16.44462
414.8731, 16.23715
415.3553, 16.13571
415.8374, 16.24338
416.3195, 16.43533
416.8016, 16.54853
417.2837, 16.59301
417.7658, 16.54841
418.2480, 16.29736
418.7301, 16.01346
419.2122, 15.92981
419.6943, 16.06221
420.1764, 16.20085
420.6585, 16.16566
421.1407, 15.97992
421.6228, 15.91846
422.1049, 16.06668
422.5870, 16.23099
423.0691, 16.37579
423.5512, 16.47746
424.0334, 16.47164
424.5155, 16.32726
424.9976, 16.13690
425.4797, 16.07543
425.9618, 16.21626
426.4439, 16.35115
426.9261, 16.53074
427.4082, 16.66706
427.8903, 16.65204
428.3724, 16.51638
428.8545, 16.41582
429.3366, 16.49091
429.8188, 16.72989
430.3009, 16.86068
430.7830, 16.70818
431.2651, 16.63977
431.7472, 16.81890
432.2293, 17.07269
432.7115, 17.16512
433.1936, 17.01319
433.6757, 16.77370
434.1578, 16.72494
434.6399, 16.94748
435.1220, 17.07439
435.6042, 16.97096
436.0863, 16.85587
436.5684, 16.83474
437.0505, 16.89554
437.5326, 16.96941
438.0147, 17.01363
438.4969, 17.03355
438.9790, 17.04861
439.4611, 17.06142
439.9432, 17.06256
440.4253, 17.01209
440.9074, 16.96437
441.3896, 16.98927
441.8717, 17.11167
442.3538, 17.24732
442.8359, 17.30961
443.3180, 17.31401
443.8001, 17.35362
444.2823, 17.46078
444.7644, 17.58104
445.2465, 17.68539
445.7286, 17.76860
446.2107, 17.77717
446.6928, 17.59407
447.1750, 17.39869
447.6571, 17.40896
448.1392, 17.60600
448.6213, 17.77559
449.1034, 17.78731
449.5855, 17.71216
450.0677, 17.76829
450.5498, 18.07237
451.0319, 18.24215
451.5140, 18.08479
451.9961, 17.78414
452.4782, 17.54470
452.9604, 17.41009
453.4425, 17.34974
453.9246, 17.33878
454.4067, 17.38165
454.8888, 17.43057
455.3709, 17.50595
455.8531, 17.56426
456.3352, 17.57160
456.8173, 17.55484
457.2994, 17.56716
457.7815, 17.63349
458.2636, 17.71687
458.7458, 17.72738
459.2279, 17.57751
459.7100, 17.54227
460.1921, 17.75134
460.6742, 17.95933
461.1563, 18.01920
461.6385, 17.94054
462.1206, 17.81755
462.6027, 17.71597
463.0848, 17.63136
463.5669, 17.52724
464.0491, 17.34775
464.5312, 17.26713
465.0133, 17.43271
465.4954, 17.67422
465.9775, 17.82663
466.4597, 17.85148
466.9418, 17.80972
467.4239, 17.71610
467.9060, 17.58877
468.3881, 17.56164
468.8702, 17.69329
469.3524, 17.85159
469.8345, 17.97093
470.3166, 18.03655
470.7987, 17.97547
471.2808, 17.61730
471.7629, 17.24407
472.2451, 17.14804
472.7272, 17.27931
473.2093, 17.38285
473.6914, 17.35233
474.1735, 17.23953
474.6556, 17.14138
475.1378, 17.07039
475.6199, 16.97093
476.1020, 16.75978
476.5841, 16.56708
477.0662, 16.56006
477.5483, 16.71478
478.0305, 16.81938
478.5126, 16.70029
478.9947, 16.39013
479.4768, 16.18219
479.9589, 16.15247
480.4410, 16.13172
480.9232, 16.11644
481.4053, 16.09054
481.8874, 16.01858
482.3695, 15.90133
482.8516, 15.80411
483.3337, 15.81788
483.8159, 15.95989
484.2980, 16.06870
484.7801, 16.18586
485.2622, 16.21476
485.7443, 16.02271
486.2264, 15.74662
486.7086, 15.61953
487.1907, 15.76222
487.6728, 16.00433
488.1549, 16.08598
488.6370, 15.99481
489.1191, 15.94942
489.6013, 16.04361
490.0834, 16.14585
490.5655, 16.13195
491.0476, 16.01653
491.5297, 15.89967
492.0118, 15.80870
492.4940, 15.74511
492.9761, 15.71626
493.4582, 15.72106
493.9403, 15.74735
494.4224, 15.80639
494.9045, 15.86724
495.3867, 15.83699
495.8688, 15.66223
496.3509, 15.54492
496.8330, 15.54153
497.3151, 15.61266
497.7972, 15.75270
498.2794, 15.94211
498.7615, 16.09329
499.2436, 16.12394
499.7257, 16.04177
500.2078, 15.98987
500.6899, 16.01684
501.1721, 16.01505
501.6542, 15.91976
502.1363, 15.81081
502.6184, 15.77146
503.1005, 15.82414
503.5826, 15.93903
504.0648, 16.10623
504.5469, 16.34164
505.0290, 16.46524
505.5111, 16.38682
505.9932, 16.30529
506.4753, 16.29608
506.9575, 16.33578
507.4396, 16.38247
507.9217, 16.41699
508.4038, 16.46641
508.8859, 16.57842
509.3680, 16.74864
509.8502, 16.89899
510.3323, 17.02762
510.8144, 17.10749
511.2965, 17.05754
511.7786, 16.91146
512.2607, 16.87167
512.7429, 17.09280
513.2250, 17.35690
513.7071, 17.44971
514.1892, 17.41148
514.6713, 17.44698
515.1534, 17.66615
515.6356, 17.95095
516.1177, 18.05765
516.5998, 17.85212
517.0819, 17.77178
517.5640, 17.92822
518.0461, 18.13111
518.5283, 18.23384
519.0104, 18.26074
519.4925, 18.33365
519.9746, 18.53861
520.4567, 18.83388
520.9388, 19.06452
521.4210, 19.20895
521.9031, 19.32524
522.3852, 19.38766
522.8673, 19.45286
523.3494, 19.57712
523.8315, 19.75157
524.3137, 19.90327
524.7958, 19.90854
525.2779, 19.85473
525.7600, 20.12444
526.2421, 20.84893
526.7242, 21.39517
527.2064, 21.30121
527.6885, 20.97114
528.1706, 20.93377
528.6527, 21.27295
529.1348, 21.63775
529.6169, 21.78861
530.0991, 21.87249
530.5812, 22.00051
531.0633, 22.39330
531.5454, 22.65333
532.0275, 22.78773
532.5096, 22.42021
532.9918, 22.70083
533.4739, 22.72169
533.9560, 22.73190
534.4381, 23.10371
534.9202, 22.80921
535.4023, 23.17528
535.8845, 23.27768
536.3666, 23.50074
536.8487, 23.46248
537.3308, 23.50493
537.8129, 23.80880
538.2951, 23.50300
538.7772, 23.49282
539.2593, 23.67216
539.7415, 23.92076
540.2236, 24.12583
540.7057, 24.25523
541.1878, 24.30896
541.6699, 24.23214
542.1520, 24.05593
542.6342, 24.01487
543.1163, 24.17006
543.5984, 24.35218
544.0805, 24.51614
544.5626, 24.61752
545.0447, 24.54631
545.5269, 24.20309
546.0090, 23.84752
546.4911, 23.64327
546.9732, 23.52762
547.4553, 23.38740
547.9374, 23.19690
548.4196, 22.97748
548.9017, 22.75243
549.3838, 22.52192
549.8659, 22.23831
550.3480, 21.88749
550.8301, 21.50953
551.3123, 21.04864
551.7944, 20.59760
552.2765, 20.32026
552.7586, 20.23660
553.2407, 20.13612
553.7228, 19.71667
554.2050, 18.94760
554.6871, 18.43167
555.1692, 18.31289
555.6513, 18.25457
556.1334, 18.14791
556.6155, 18.01908
557.0977, 17.91619
557.5798, 17.86051
558.0619, 17.76485
558.5440, 17.51655
559.0261, 17.15886
559.5082, 16.84722
559.9904, 16.60596
560.4725, 16.39993
560.9546, 16.19596
561.4367, 16.00773
561.9188, 15.88200
562.4009, 15.84614
562.8831, 15.83982
563.3652, 15.90081
563.8473, 15.95347
564.3294, 15.85691
564.8115, 15.59724
565.2936, 15.33169
565.7758, 15.22014
566.2579, 15.26279
566.7400, 15.30132
567.2221, 15.43925
567.7042, 15.43990
568.1863, 15.11318
568.6685, 14.71465
569.1506, 14.52265
569.6327, 14.58779
570.1148, 14.72172
570.5969, 14.74127
571.0790, 14.66727
571.5612, 14.64845
572.0433, 14.72869
572.5254, 14.73763
573.0075, 14.48707
573.4896, 14.15679
573.9717, 14.02258
574.4539, 14.14678
574.9360, 14.32029
575.4181, 14.53071
575.9002, 14.69215
576.3823, 14.60858
576.8644, 14.28937
577.3466, 14.06235
577.8287, 14.19342
578.3108, 14.58165
578.7929, 14.72911
579.2750, 14.36132
579.7571, 14.10759
580.2393, 14.08534
580.7214, 14.12529
581.2035, 14.08446
581.6856, 13.96732
582.1677, 13.87803
582.6498, 13.90238
583.1320, 14.00636
583.6141, 14.07170
584.0962, 14.08810
584.5783, 14.10304
585.0604, 14.15984
585.5425, 14.19446
586.0247, 14.12004
586.5068, 13.94826
586.9889, 13.83755
587.4710, 13.93241
587.9531, 14.07434
588.4352, 14.04471
588.9174, 13.87480
589.3995, 13.77218
589.8816, 13.83523
590.3637, 13.98482
590.8458, 14.08917
591.3279, 14.14014
591.8101, 14.16061
592.2922, 14.14198
592.7743, 14.10204
593.2564, 14.04936
593.7385, 13.98262
594.2206, 13.87600
594.7028, 13.71699
595.1849, 13.58245
595.6670, 13.63525
596.1491, 13.91342
596.6312, 14.09394
597.1133, 14.12053
597.5955, 14.09064
598.0776, 14.04653
598.5597, 13.99187
599.0418, 13.92469
599.5239, 13.81863
600.0060, 13.75899
600.4882, 13.87131
600.9703, 14.07576
601.4524, 14.15990
601.9345, 14.07900
602.4166, 13.97202
602.8987, 13.96944
603.3809, 14.05906
603.8630, 14.05963
604.3451, 13.85153
604.8272, 13.72030
605.3093, 13.78108
605.7914, 13.90429
606.2736, 13.97346
606.7557, 13.96770
607.2378, 13.91521
607.7199, 13.81708
608.2020, 13.70202
608.6841, 13.74536
609.1663, 14.04163
609.6484, 14.22183
610.1305, 14.06284
610.6126, 13.82214
611.0947, 13.73065
611.5768, 13.79044
612.0590, 13.83260
612.5411, 13.74737
613.0232, 13.63393
613.5053, 13.59840
613.9874, 13.63603
