##NAMES=Hydrocerussite
##RRUFFID=R080104
##IDEAL CHEMISTRY=Pb^2+^_3_(CO_3_)_2_(OH)_2_
##LOCALITY=St. Anthony deposit, Tiger, Mammoth District, Pinal County, Arizona
##OWNER=RRUFF
##SOURCE=Evan Jones
##DESCRIPTION=Colorless pyramidal crystals associated with diaboleite
##STATUS=The identification of this mineral has been confirmed only by single crystal X-ray diffraction.
##URL=rruff.info/R080104
92.52344, 2136.699
93.00555, 2111.619
93.48767, 2115.677
93.96979, 2201.665
94.45190, 2287.823
94.93402, 2363.426
95.41614, 2400.934
95.89825, 2414.430
96.38037, 2424.736
96.86249, 2431.122
97.34460, 2432.445
97.82672, 2427.050
98.30884, 2424.533
98.79095, 2429.501
99.27307, 2435.626
99.75519, 2434.530
100.2373, 2427.915
100.7194, 2419.771
101.2015, 2419.226
101.6837, 2428.212
102.1658, 2441.081
102.6479, 2453.496
103.1300, 2465.048
103.6121, 2478.374
104.0942, 2496.901
104.5764, 2518.191
105.0585, 2538.598
105.5406, 2555.958
106.0227, 2571.396
106.5048, 2588.352
106.9869, 2607.428
107.4691, 2625.663
107.9512, 2643.130
108.4333, 2659.077
108.9154, 2671.696
109.3975, 2678.713
109.8796, 2679.131
110.3618, 2679.867
110.8439, 2683.295
111.3260, 2685.006
111.8081, 2682.421
112.2902, 2675.535
112.7723, 2666.433
113.2544, 2658.070
113.7366, 2651.640
114.2187, 2643.594
114.7008, 2632.931
115.1829, 2621.251
115.6650, 2610.031
116.1471, 2599.755
116.6293, 2589.968
117.1114, 2579.632
117.5935, 2568.854
118.0756, 2557.479
118.5577, 2544.276
119.0398, 2530.298
119.5220, 2517.989
120.0041, 2508.727
120.4862, 2501.804
120.9683, 2495.073
121.4504, 2488.246
121.9325, 2482.016
122.4147, 2476.939
122.8968, 2473.021
123.3789, 2469.985
123.8610, 2468.183
124.3431, 2467.050
124.8252, 2466.443
125.3074, 2466.931
125.7895, 2467.162
126.2716, 2464.788
126.7537, 2461.221
127.2358, 2451.678
127.7179, 2437.281
128.2001, 2416.880
128.6822, 2388.758
129.1643, 2351.872
129.6464, 2306.292
130.1285, 2254.767
130.6107, 2193.340
131.0928, 2128.818
131.5749, 2061.043
132.0570, 1991.468
132.5391, 1921.816
133.0212, 1853.919
133.5034, 1787.438
133.9855, 1724.225
134.4676, 1662.196
134.9497, 1604.237
135.4318, 1552.388
135.9139, 1506.746
136.3960, 1465.252
136.8782, 1426.117
137.3603, 1389.484
137.8424, 1355.943
138.3245, 1326.440
138.8066, 1299.783
139.2887, 1274.954
139.7709, 1251.884
140.2530, 1230.516
140.7351, 1211.158
141.2172, 1193.671
141.6993, 1176.970
142.1814, 1160.388
142.6636, 1144.283
143.1457, 1129.895
143.6278, 1117.967
144.1099, 1107.663
144.5920, 1098.127
145.0741, 1089.363
145.5563, 1080.911
146.0384, 1072.099
146.5205, 1062.764
147.0026, 1054.649
147.4847, 1048.677
147.9668, 1043.664
148.4490, 1039.203
148.9311, 1035.179
149.4132, 1031.438
149.8953, 1027.755
150.3774, 1024.030
150.8595, 1020.558
151.3417, 1017.187
151.8238, 1014.114
152.3059, 1011.557
152.7880, 1009.600
153.2701, 1008.052
153.7522, 1006.468
154.2344, 1004.713
154.7165, 1003.085
155.1986, 1001.842
155.6807, 1000.659
156.1628, 999.0395
156.6449, 996.6976
157.1271, 993.8924
157.6092, 991.7118
158.0913, 990.3273
158.5734, 989.2127
159.0555, 988.6605
159.5376, 988.3448
160.0198, 987.3682
160.5019, 985.1197
160.9840, 981.8498
161.4661, 978.7440
161.9482, 975.5729
162.4303, 972.7719
162.9125, 971.1046
163.3946, 970.5018
163.8767, 969.2442
164.3588, 966.0270
164.8409, 961.5277
165.3230, 956.8985
165.8052, 952.4597
166.2873, 947.8541
166.7694, 942.6274
167.2515, 936.6221
167.7336, 930.4551
168.2157, 924.9001
168.6979, 919.2400
169.1800, 912.4479
169.6621, 903.8542
170.1442, 894.0162
170.6263, 884.4813
171.1084, 875.6563
171.5906, 866.4860
172.0727, 856.6210
172.5548, 846.2433
173.0369, 835.5699
173.5190, 824.7132
174.0011, 813.6765
174.4833, 802.5213
174.9654, 791.4124
175.4475, 779.8987
175.9296, 767.5683
176.4117, 754.7885
176.8938, 742.1115
177.3760, 729.9896
177.8581, 718.4427
178.3402, 706.6543
178.8223, 694.3259
179.3044, 682.1050
179.7865, 670.2352
180.2687, 658.7042
180.7508, 647.4258
181.2329, 636.3782
181.7150, 625.5302
182.1971, 615.1437
182.6792, 605.1177
183.1614, 595.5682
183.6435, 586.6970
184.1256, 578.4755
184.6077, 570.5043
185.0898, 562.4476
185.5719, 554.3113
186.0541, 546.2988
186.5362, 538.4529
187.0183, 530.7163
187.5004, 522.9122
187.9825, 514.9686
188.4646, 507.5191
188.9468, 501.5150
189.4289, 496.6186
189.9110, 491.3389
190.3931, 484.7228
190.8752, 477.7263
191.3573, 471.8767
191.8395, 467.5417
192.3216, 463.6402
192.8037, 459.5421
193.2858, 455.2681
193.7679, 450.7764
194.2500, 445.7706
194.7322, 440.5167
195.2143, 435.7677
195.6964, 431.5419
196.1785, 427.9353
196.6606, 425.2646
197.1427, 423.1505
197.6249, 420.7815
198.1070, 417.5209
198.5891, 413.4649
199.0712, 409.5768
199.5533, 405.7018
200.0354, 402.2125
200.5176, 399.4049
200.9997, 397.1038
201.4818, 394.9370
201.9639, 392.6233
202.4460, 390.1548
202.9281, 387.8182
203.4103, 385.9052
203.8924, 383.8781
204.3745, 381.4715
204.8566, 378.7898
205.3387, 376.1702
205.8208, 373.9161
206.3030, 372.0649
206.7851, 370.1642
207.2672, 368.2460
207.7493, 366.2570
208.2314, 364.1534
208.7135, 361.9621
209.1957, 359.7568
209.6778, 357.5965
210.1599, 355.4813
210.6420, 353.4598
211.1241, 351.7409
211.6062, 349.9230
212.0884, 347.6206
212.5705, 344.9411
213.0526, 342.4108
213.5347, 340.5230
214.0168, 339.3765
214.4989, 338.0971
214.9811, 336.6653
215.4632, 335.1273
215.9453, 333.5626
216.4274, 331.9557
216.9095, 330.1279
217.3916, 327.7939
217.8737, 324.9605
218.3559, 322.6932
218.8380, 321.3386
219.3201, 320.3275
219.8022, 319.2025
220.2843, 317.9303
220.7664, 316.6468
221.2486, 315.5447
221.7307, 314.5292
222.2128, 313.2451
222.6949, 311.4573
223.1770, 309.4677
223.6591, 307.5381
224.1413, 305.6464
224.6234, 304.0064
225.1055, 302.9332
225.5876, 302.2242
226.0697, 301.5614
226.5518, 301.0781
227.0340, 300.4873
227.5161, 299.2303
227.9982, 297.0908
228.4803, 295.0314
228.9624, 293.7704
229.4445, 292.9048
229.9267, 291.9014
230.4088, 290.4986
230.8909, 288.9230
231.3730, 287.6802
231.8551, 286.9659
232.3372, 286.0899
232.8194, 284.6230
233.3015, 282.8869
233.7836, 281.2380
234.2657, 279.8335
234.7478, 278.5839
235.2299, 277.3067
235.7121, 276.0309
236.1942, 274.6481
236.6763, 273.0099
237.1584, 271.3134
237.6405, 269.7655
238.1227, 268.4569
238.6048, 267.3115
239.0869, 266.1393
239.5690, 264.8983
240.0511, 263.6985
240.5332, 262.6028
241.0154, 261.5345
241.4975, 260.4131
241.9796, 259.2030
242.4617, 257.9637
242.9438, 256.8767
243.4259, 256.1325
243.9081, 255.2286
244.3902, 254.0524
244.8723, 252.7412
245.3544, 251.3299
245.8365, 249.8385
246.3186, 248.4530
246.8008, 247.6130
247.2829, 247.8967
247.7650, 247.9163
248.2471, 247.5076
248.7292, 246.8795
249.2113, 246.1730
249.6935, 245.4478
250.1756, 244.7527
250.6577, 244.1640
251.1398, 243.3726
251.6219, 243.2175
252.1040, 244.1857
252.5862, 245.4975
253.0683, 246.4513
253.5504, 246.8447
254.0325, 246.9759
254.5146, 247.3190
254.9967, 247.9304
255.4789, 248.7021
255.9610, 249.8472
256.4431, 251.0268
256.9252, 251.7384
257.4073, 251.9194
257.8894, 252.2676
258.3716, 253.7955
258.8537, 257.1974
259.3358, 260.0266
259.8179, 261.8518
260.3000, 263.3757
260.7821, 265.1377
261.2643, 267.2500
261.7464, 269.6416
262.2285, 272.3279
262.7106, 275.4483
263.1927, 278.1344
263.6748, 280.0388
264.1570, 281.7074
264.6391, 283.5859
265.1212, 285.7185
265.6033, 287.8821
266.0854, 289.8608
266.5675, 291.6329
267.0497, 293.3458
267.5318, 294.7257
268.0139, 296.2297
268.4960, 298.5938
268.9781, 301.7646
269.4602, 304.3759
269.9424, 305.2491
270.4245, 304.5180
270.9066, 303.9520
271.3887, 303.9070
271.8708, 303.7962
272.3529, 303.1510
272.8351, 301.9930
273.3172, 300.6861
273.7993, 299.5944
274.2814, 298.4259
274.7635, 296.4235
275.2456, 293.0323
275.7278, 289.4227
276.2099, 286.4977
276.6920, 284.1654
277.1741, 281.6733
277.6562, 278.7123
278.1383, 275.3188
278.6205, 271.7200
279.1026, 267.7952
279.5847, 263.8495
280.0668, 260.1233
280.5489, 256.5587
281.0310, 252.8553
281.5132, 248.6928
281.9953, 244.5827
282.4774, 241.3132
282.9595, 239.0269
283.4416, 236.7229
283.9237, 233.6944
284.4059, 230.1215
284.8880, 226.7447
285.3701, 223.8406
285.8522, 221.0743
286.3343, 217.9563
286.8164, 214.5121
287.2986, 211.3885
287.7807, 209.1367
288.2628, 207.4987
288.7449, 205.6450
289.2270, 203.3824
289.7091, 201.0209
290.1913, 198.7004
290.6734, 196.4587
291.1555, 194.4072
291.6376, 192.6780
292.1197, 191.1829
292.6018, 189.7122
293.0840, 188.3022
293.5661, 186.8297
294.0482, 185.0153
294.5303, 183.0978
295.0124, 181.5321
295.4945, 180.7029
295.9767, 180.2331
296.4588, 179.3938
296.9409, 178.0475
297.4230, 176.8040
297.9051, 176.2061
298.3872, 175.8183
298.8694, 175.0731
299.3515, 173.6561
299.8336, 172.0875
300.3157, 171.0581
300.7978, 170.6266
301.2799, 170.3538
301.7621, 170.2885
302.2442, 170.1920
302.7263, 169.8223
303.2084, 169.1123
303.6905, 168.2640
304.1726, 167.4363
304.6548, 166.6283
305.1369, 165.9033
305.6190, 165.3054
306.1011, 164.7774
306.5832, 164.3265
307.0653, 163.9447
307.5475, 163.4843
308.0296, 162.7417
308.5117, 161.7537
308.9938, 160.9573
309.4759, 160.5208
309.9580, 160.1672
310.4402, 159.7611
310.9223, 159.2893
311.4044, 158.7126
311.8865, 157.9526
312.3686, 157.0571
312.8507, 156.2359
313.3329, 155.5581
313.8150, 154.8364
314.2971, 153.8961
314.7792, 152.8465
315.2613, 151.8884
315.7434, 151.1394
316.2256, 150.5150
316.7077, 149.8504
317.1898, 149.1556
317.6719, 148.3694
318.1540, 147.3725
318.6361, 146.3061
319.1183, 145.3334
319.6004, 144.5180
320.0825, 143.7540
320.5646, 142.8493
321.0467, 141.7561
321.5288, 140.8310
322.0110, 140.3891
322.4931, 140.0410
322.9752, 139.4857
323.4573, 138.6768
323.9394, 137.7693
324.4215, 136.8819
324.9037, 136.0198
325.3858, 135.1758
325.8679, 134.3290
326.3500, 133.5292
326.8321, 132.8474
327.3142, 132.2595
327.7964, 131.6312
328.2785, 130.8131
328.7606, 129.8618
329.2427, 129.0705
329.7248, 128.5717
330.2069, 128.0327
330.6891, 127.1625
331.1712, 126.1099
331.6533, 125.1940
332.1354, 124.6439
332.6175, 124.2770
333.0996, 123.6722
333.5818, 122.7134
334.0639, 121.8844
334.5460, 121.5662
335.0281, 121.4691
335.5102, 121.2916
335.9923, 120.9522
336.4745, 120.5181
336.9566, 120.0123
337.4387, 119.4253
337.9208, 118.9645
338.4029, 118.8331
338.8850, 118.7613
339.3671, 118.4344
339.8492, 117.8044
340.3314, 117.2388
340.8135, 117.0638
341.2956, 117.2184
341.7777, 117.3537
342.2598, 117.4852
342.7419, 117.4604
343.2241, 117.0877
343.7062, 116.4319
344.1883, 115.8200
344.6704, 115.3320
345.1525, 115.0070
345.6346, 115.0422
346.1168, 115.6049
346.5989, 116.0185
347.0810, 115.5140
347.5631, 114.5399
348.0452, 113.8748
348.5273, 113.8311
349.0095, 114.0760
349.4916, 114.3107
349.9737, 114.5372
350.4558, 114.6292
350.9379, 114.4278
351.4200, 114.1121
351.9022, 113.9553
352.3843, 113.9713
352.8664, 114.1445
353.3485, 114.5969
353.8306, 115.2325
354.3127, 115.6409
354.7949, 115.6295
355.2770, 115.4858
355.7591, 115.5215
356.2412, 115.7198
356.7233, 116.1375
357.2054, 117.0727
357.6876, 118.1524
358.1697, 118.7073
358.6518, 118.5955
359.1339, 118.3628
359.6160, 118.4463
360.0981, 118.8144
360.5803, 119.2802
361.0624, 119.8588
361.5445, 120.5000
362.0266, 121.1741
362.5087, 121.8781
362.9908, 122.5851
363.4730, 123.2748
363.9551, 123.9610
364.4372, 124.6885
364.9193, 125.4170
365.4014, 126.2388
365.8835, 127.3064
366.3657, 128.4785
366.8478, 129.3954
367.3299, 129.8754
367.8120, 130.3100
368.2941, 131.4093
368.7762, 133.3606
369.2584, 135.0872
369.7405, 136.2615
370.2226, 137.2462
370.7047, 138.3813
371.1868, 139.7171
371.6689, 141.0961
372.1511, 142.3622
372.6332, 143.5130
373.1153, 144.8992
373.5974, 146.7552
374.0795, 148.6042
374.5616, 150.1687
375.0438, 151.5407
375.5259, 152.9786
376.0080, 154.6042
376.4901, 156.4137
376.9722, 158.3986
377.4543, 160.7234
377.9365, 163.0006
378.4186, 165.1784
378.9007, 167.2964
379.3828, 169.3499
379.8649, 171.3480
380.3470, 173.3777
380.8292, 175.5762
381.3113, 178.0754
381.7934, 180.3635
382.2755, 182.4490
382.7576, 184.3523
383.2397, 185.8544
383.7219, 187.1375
384.2040, 188.7377
384.6861, 191.1392
385.1682, 194.2643
385.6503, 196.7832
386.1324, 197.9432
386.6146, 199.3010
387.0967, 201.3670
387.5788, 203.6854
388.0609, 205.6569
388.5430, 207.0203
389.0251, 208.0181
389.5073, 209.1527
389.9894, 210.5632
390.4715, 211.8152
390.9536, 213.0240
391.4357, 213.9875
391.9178, 214.4904
392.4000, 214.5689
392.8821, 214.5138
393.3642, 214.6586
393.8463, 215.0198
394.3284, 214.9716
394.8105, 214.2247
395.2927, 213.3679
395.7748, 212.5020
396.2569, 211.6870
396.7390, 211.0622
397.2211, 210.7888
397.7032, 210.5473
398.1854, 209.5129
398.6675, 207.3498
399.1496, 205.4038
399.6317, 204.3983
400.1138, 203.5327
400.5959, 202.1947
401.0781, 200.2859
401.5602, 198.1537
402.0423, 196.0406
402.5244, 193.9603
403.0065, 192.0268
403.4886, 190.3044
403.9708, 188.6760
404.4529, 187.1625
404.9350, 185.6851
405.4171, 183.9914
405.8992, 181.8699
406.3813, 179.5316
406.8635, 177.2619
407.3456, 175.0553
407.8277, 172.9419
408.3098, 170.9620
408.7919, 169.0530
409.2740, 167.1247
409.7562, 165.1746
410.2383, 163.1820
410.7204, 161.0915
411.2025, 158.9345
411.6846, 156.7944
412.1667, 154.6979
412.6489, 152.5746
413.1310, 150.2594
413.6131, 147.7440
414.0952, 145.4651
414.5773, 143.7049
415.0594, 142.0712
415.5416, 140.1884
416.0237, 138.0628
416.5058, 135.9597
416.9879, 134.0626
417.4700, 132.3292
417.9521, 130.5211
418.4343, 128.6354
418.9164, 126.6947
419.3985, 124.5812
419.8806, 122.4487
420.3627, 120.5659
420.8448, 119.0106
421.3270, 117.6092
421.8091, 116.1008
422.2912, 114.4302
422.7733, 112.8281
423.2554, 111.3470
423.7375, 109.8883
424.2197, 108.4487
424.7018, 106.9976
425.1839, 105.4443
425.6660, 103.6988
426.1481, 101.8247
426.6302, 100.2070
427.1124, 98.99204
427.5945, 97.89804
428.0766, 96.92073
428.5587, 96.03448
429.0408, 95.19901
429.5229, 94.40797
430.0051, 93.69033
430.4872, 93.08004
430.9693, 92.57536
431.4514, 92.19709
431.9335, 92.08656
432.4156, 91.98186
432.8978, 91.74771
433.3799, 91.43179
433.8620, 91.15836
434.3441, 90.98576
434.8262, 90.92522
435.3083, 90.99621
435.7905, 91.16621
436.2726, 91.56094
436.7547, 92.49443
437.2368, 93.53430
437.7189, 94.28205
438.2010, 94.65372
438.6832, 94.89410
439.1653, 95.36815
439.6474, 95.94968
440.1295, 95.95174
440.6116, 95.24364
441.0938, 93.97282
441.5759, 92.12229
442.0580, 89.81580
442.5401, 87.34322
443.0222, 84.74197
443.5043, 82.04980
443.9865, 79.25965
444.4686, 76.39037
444.9507, 73.47411
445.4328, 70.44397
445.9149, 67.46335
446.3970, 64.94219
446.8792, 62.97285
447.3613, 61.09819
447.8434, 59.17886
448.3255, 57.29455
448.8076, 55.52602
449.2897, 53.88350
449.7719, 52.38319
450.2540, 51.04756
450.7361, 49.87901
451.2182, 48.78968
451.7003, 47.79219
452.1824, 46.84670
452.6646, 45.91707
453.1467, 45.02898
453.6288, 44.22470
454.1109, 43.52060
454.5930, 42.92756
455.0751, 42.48061
455.5573, 42.33602
456.0394, 42.02771
456.5215, 41.39259
457.0036, 40.76009
457.4857, 40.34860
457.9678, 40.12683
458.4500, 39.90921
458.9321, 39.54247
459.4142, 39.06522
459.8963, 38.70665
460.3784, 38.52365
460.8605, 38.36378
461.3427, 38.24170
461.8248, 38.08939
462.3069, 37.80198
462.7890, 37.35415
463.2711, 36.91680
463.7532, 36.70677
464.2354, 36.70288
464.7175, 36.61297
465.1996, 36.35583
465.6817, 36.08585
466.1638, 35.91547
466.6459, 35.81687
467.1281, 35.72316
467.6102, 35.60594
468.0923, 35.49026
468.5744, 35.40920
469.0565, 35.35883
469.5386, 35.30430
470.0208, 35.22424
470.5029, 35.14258
470.9850, 35.12381
471.4671, 35.19437
471.9492, 35.17998
472.4313, 34.95264
472.9135, 34.66748
473.3956, 34.51359
473.8777, 34.49527
474.3598, 34.45717
474.8419, 34.26882
475.3240, 33.95357
475.8062, 33.74718
476.2883, 33.72221
476.7704, 33.70028
477.2525, 33.63713
477.7346, 33.56247
478.2167, 33.52987
478.6989, 33.54702
479.1810, 33.55001
479.6631, 33.44684
480.1452, 33.20869
480.6273, 33.01499
481.1094, 32.80968
481.5916, 32.70911
482.0737, 32.85698
482.5558, 33.11807
483.0379, 33.25105
483.5200, 33.12826
484.0021, 32.88435
484.4843, 32.78663
484.9664, 32.87394
485.4485, 32.92536
485.9306, 32.85400
486.4127, 32.77232
486.8948, 32.74650
487.3770, 32.77702
487.8591, 32.84318
488.3412, 32.98477
488.8233, 33.13844
489.3054, 33.16552
489.7875, 33.05470
490.2697, 32.91820
490.7518, 32.79197
491.2339, 32.68843
491.7160, 32.61857
492.1981, 32.57603
492.6802, 32.58634
493.1624, 32.70159
493.6445, 32.86154
494.1266, 32.99793
494.6087, 33.09706
495.0908, 33.10991
495.5729, 32.97131
496.0551, 32.68404
496.5372, 32.48071
497.0193, 32.35769
497.5014, 32.30790
497.9835, 32.37816
498.4656, 32.50309
498.9478, 32.61875
499.4299, 32.69759
499.9120, 32.69490
500.3941, 32.51271
500.8762, 32.04857
501.3583, 31.81069
501.8405, 31.98108
502.3226, 32.19374
502.8047, 32.38387
503.2868, 32.51240
503.7689, 32.51333
504.2510, 32.34030
504.7331, 32.08696
505.2152, 31.92160
505.6974, 31.85381
506.1795, 31.81759
506.6616, 31.87799
507.1437, 31.88818
507.6258, 31.68217
508.1079, 31.30545
508.5901, 31.01794
509.0722, 31.04722
509.5543, 31.18771
510.0364, 31.09391
510.5185, 30.76890
511.0006, 30.52400
511.4828, 30.53429
511.9649, 30.68739
512.4470, 30.75859
512.9291, 30.75956
513.4113, 30.66717
513.8934, 30.37858
514.3755, 30.05183
514.8576, 29.87510
515.3397, 29.84774
515.8218, 29.81835
516.3040, 29.66478
516.7861, 29.41449
517.2682, 29.26886
517.7503, 29.39057
518.2324, 29.41392
518.7145, 29.24049
519.1967, 28.99311
519.6788, 28.76562
520.1609, 28.58611
520.6430, 28.46005
521.1251, 28.40536
521.6072, 28.41904
522.0894, 28.40798
522.5715, 28.38173
523.0536, 28.31234
523.5357, 28.15384
524.0178, 27.96955
524.4999, 27.84666
524.9821, 27.81365
525.4642, 27.77081
525.9463, 27.61208
526.4284, 27.36206
526.9105, 27.10982
527.3926, 26.84545
527.8748, 26.65223
528.3569, 26.65072
528.8390, 26.77957
529.3211, 26.82505
529.8032, 26.76055
530.2853, 26.61526
530.7675, 26.34131
531.2496, 26.00859
531.7317, 25.77256
532.2138, 25.67876
532.6959, 25.61249
533.1780, 25.41848
533.6602, 25.05240
534.1423, 24.83848
534.6244, 24.83686
535.1065, 24.89366
535.5886, 25.03416
536.0707, 25.17094
536.5529, 25.15825
537.0350, 24.94225
537.5171, 24.64422
537.9992, 24.46622
538.4813, 24.43810
538.9634, 24.37516
539.4456, 24.21227
539.9277, 24.07951
540.4098, 24.08199
540.8919, 24.15183
541.3740, 24.14306
541.8561, 23.96918
542.3383, 23.75767
542.8204, 23.68923
543.3025, 23.74455
543.7846, 23.73018
544.2667, 23.57836
544.7488, 23.38351
545.2310, 23.24826
545.7131, 23.16562
546.1952, 23.07610
546.6773, 22.91910
547.1594, 22.80117
547.6415, 22.84017
548.1237, 22.97275
548.6058, 23.03081
549.0879, 22.94448
549.5700, 22.79585
550.0521, 22.71873
550.5342, 22.73310
551.0164, 22.76274
551.4985, 22.87352
551.9806, 22.93075
552.4627, 22.85245
552.9448, 22.68108
553.4269, 22.49480
553.9091, 22.32904
554.3912, 22.18117
554.8733, 22.04452
555.3554, 21.91614
555.8375, 21.81729
556.3196, 21.77447
556.8018, 21.73470
557.2839, 21.63767
557.7660, 21.51443
558.2481, 21.45711
558.7302, 21.53639
559.2123, 21.64980
559.6945, 21.73106
560.1766, 21.76619
560.6587, 21.66700
561.1408, 21.37938
561.6229, 21.03870
562.1050, 20.80030
562.5872, 20.67707
563.0693, 20.61696
563.5514, 20.66413
564.0335, 20.72999
564.5156, 20.79688
564.9977, 20.84456
565.4799, 20.83533
565.9620, 20.75508
566.4441, 20.64072
566.9262, 20.55011
567.4083, 20.48936
567.8904, 20.42677
568.3726, 20.32095
568.8547, 20.25836
569.3368, 20.32881
569.8189, 20.44711
570.3010, 20.46363
570.7831, 20.31064
571.2653, 20.10912
571.7474, 19.98865
572.2295, 19.94473
572.7116, 19.95318
573.1937, 20.04193
573.6758, 20.10295
574.1580, 20.01871
574.6401, 19.82606
575.1222, 19.66878
575.6043, 19.53973
576.0864, 19.47200
576.5685, 19.54997
577.0507, 19.68148
577.5328, 19.68703
578.0149, 19.52910
578.4970, 19.35473
578.9791, 19.32601
579.4612, 19.44979
579.9434, 19.54722
580.4255, 19.69810
580.9076, 19.72400
581.3897, 19.46372
581.8718, 19.12847
582.3539, 18.95432
582.8361, 18.98905
583.3182, 19.09823
583.8003, 19.17902
584.2824, 19.22647
584.7645, 19.17780
585.2466, 18.97438
585.7288, 18.84342
586.2108, 18.95586
586.6929, 19.18184
587.1750, 19.32513
587.6572, 19.34701
588.1393, 19.39708
588.6214, 19.60615
589.1035, 19.85073
