##NAMES=Hydroxylherderite
##RRUFFID=R070451
##IDEAL CHEMISTRY=CaBe(P^5+^O_4_)(OH)
##LOCALITY=Fletcher mine, Groton, Grafton County, New Hampshire, USA
##OWNER=RRUFF
##SOURCE=Michael Scott
##DESCRIPTION=Brownish green prismatic crystal
##STATUS=The identification of this mineral has been confirmed by X-ray diffraction and chemical analysis
##URL=rruff.info/R070451
##MEASURED CHEMISTRY=Ca_1.00_Be_1.00_P_1.00_O_4_((OH)_0.80_F_0.20_)_Î£=1_; trace amounts of Al; OH estimated by charge balance; BeO by difference
115.2438, 46.37841
115.7259, 50.40553
116.2080, 54.26241
116.6901, 58.32013
117.1722, 63.94136
117.6544, 71.71696
118.1365, 76.44774
118.6186, 71.53876
119.1007, 64.62963
119.5828, 62.60438
120.0649, 68.31040
120.5471, 76.59502
121.0292, 78.83076
121.5113, 72.03877
121.9934, 67.68914
122.4755, 71.28326
122.9576, 77.93279
123.4398, 82.78178
123.9219, 83.50456
124.4040, 82.52246
124.8861, 85.74386
125.3682, 95.24806
125.8503, 105.8416
126.3325, 117.1532
126.8146, 128.4042
127.2967, 138.3409
127.7788, 145.9135
128.2609, 152.4476
128.7430, 163.2768
129.2252, 183.6787
129.7073, 202.0300
130.1894, 214.9706
130.6715, 224.8568
131.1536, 234.7655
131.6357, 246.5211
132.1179, 259.9845
132.6000, 274.0815
133.0821, 292.1382
133.5642, 307.3494
134.0463, 316.7184
134.5284, 322.3432
135.0106, 328.0274
135.4927, 336.4299
135.9748, 347.3372
136.4569, 356.0484
136.9390, 359.1707
137.4211, 363.7426
137.9033, 373.4823
138.3854, 386.5668
138.8675, 397.7189
139.3496, 401.9566
139.8317, 399.1406
140.3138, 410.1076
140.7960, 438.7790
141.2781, 473.8392
141.7602, 510.9098
142.2423, 550.0073
142.7244, 593.3684
143.2065, 644.2390
143.6887, 702.4813
144.1708, 753.0688
144.6529, 802.4282
145.1350, 839.8278
145.6171, 858.2635
146.0992, 858.2456
146.5814, 844.4397
147.0635, 817.0175
147.5456, 775.8777
148.0277, 743.8658
148.5098, 723.5745
148.9919, 710.2247
149.4741, 700.5836
149.9562, 694.4123
150.4383, 692.6788
150.9204, 696.1750
151.4025, 705.4050
151.8846, 719.6670
152.3668, 744.9417
152.8489, 771.6113
153.3310, 790.2077
153.8131, 799.8369
154.2952, 807.4760
154.7773, 816.9260
155.2595, 828.7625
155.7416, 845.2671
156.2237, 869.3045
156.7058, 896.9924
157.1879, 923.9223
157.6700, 949.6466
158.1522, 975.8747
158.6343, 999.7332
159.1164, 1024.646
159.5985, 1060.904
160.0806, 1114.969
160.5627, 1180.329
161.0449, 1245.369
161.5270, 1306.808
162.0091, 1378.313
162.4912, 1475.587
162.9733, 1589.286
163.4554, 1706.500
163.9376, 1812.521
164.4197, 1921.604
164.9018, 2058.257
165.3839, 2224.029
165.8660, 2413.202
166.3481, 2643.689
166.8303, 2892.541
167.3124, 3122.810
167.7945, 3349.799
168.2766, 3540.082
168.7587, 3623.952
169.2408, 3597.417
169.7230, 3464.737
170.2051, 3176.497
170.6872, 2801.468
171.1693, 2441.467
171.6514, 2132.816
172.1335, 1873.126
172.6157, 1658.961
173.0978, 1497.260
173.5799, 1371.157
174.0620, 1275.029
174.5441, 1202.962
175.0262, 1149.765
175.5084, 1114.023
175.9905, 1094.330
176.4726, 1087.179
176.9547, 1095.193
177.4368, 1112.271
177.9189, 1134.771
178.4011, 1163.459
178.8832, 1198.597
179.3653, 1238.910
179.8474, 1287.594
180.3295, 1354.603
180.8116, 1442.809
181.2938, 1546.609
181.7759, 1671.616
182.2580, 1806.132
182.7401, 1940.521
183.2222, 2076.943
183.7043, 2199.661
184.1865, 2264.407
184.6686, 2266.403
185.1507, 2209.473
185.6328, 2074.062
186.1149, 1899.645
186.5970, 1725.546
187.0792, 1566.978
187.5613, 1427.912
188.0434, 1316.423
188.5255, 1239.299
189.0076, 1183.384
189.4897, 1147.534
189.9719, 1126.739
190.4540, 1116.083
190.9361, 1113.739
191.4182, 1119.849
191.9003, 1134.890
192.3824, 1160.158
192.8646, 1193.516
193.3467, 1232.932
193.8288, 1279.408
194.3109, 1335.421
194.7930, 1402.071
195.2751, 1475.259
195.7573, 1544.335
196.2394, 1601.430
196.7215, 1671.157
197.2036, 1765.324
197.6857, 1866.580
198.1678, 1967.870
198.6500, 2065.973
199.1321, 2145.208
199.6142, 2176.978
200.0963, 2156.750
200.5784, 2090.919
201.0605, 1964.880
201.5427, 1812.636
202.0248, 1654.145
202.5069, 1496.295
202.9890, 1346.026
203.4711, 1213.121
203.9532, 1096.811
204.4354, 1002.703
204.9175, 932.0278
205.3996, 878.3380
205.8817, 840.5221
206.3638, 816.9548
206.8459, 802.2032
207.3281, 788.6652
207.8102, 774.5104
208.2923, 767.0444
208.7744, 773.3083
209.2565, 780.0063
209.7386, 777.6804
210.2207, 766.3247
210.7029, 754.0872
211.1850, 751.3162
211.6671, 761.7977
212.1492, 767.8793
212.6313, 765.1107
213.1134, 762.0364
213.5956, 763.0533
214.0777, 767.9683
214.5598, 773.8380
215.0419, 777.9915
215.5240, 780.3922
216.0061, 781.1263
216.4883, 774.9786
216.9704, 772.0007
217.4525, 778.6076
217.9346, 792.2835
218.4167, 805.1105
218.8988, 809.4538
219.3810, 804.8656
219.8631, 808.1716
220.3452, 828.2987
220.8273, 848.0746
221.3094, 861.9740
221.7915, 871.9649
222.2737, 882.2942
222.7558, 895.3229
223.2379, 911.4106
223.7200, 933.3290
224.2021, 970.7008
224.6842, 1003.633
225.1664, 1022.697
225.6485, 1035.828
226.1306, 1054.517
226.6127, 1085.234
227.0948, 1126.594
227.5770, 1172.870
228.0591, 1225.939
228.5412, 1282.414
229.0233, 1346.734
229.5054, 1411.887
229.9875, 1471.728
230.4697, 1523.736
230.9518, 1565.764
231.4339, 1593.340
231.9160, 1608.568
232.3981, 1602.441
232.8802, 1571.485
233.3624, 1523.946
233.8445, 1460.406
234.3266, 1382.295
234.8087, 1303.162
235.2908, 1248.821
235.7729, 1231.795
236.2551, 1209.987
236.7372, 1175.121
237.2193, 1137.950
237.7014, 1104.318
238.1835, 1075.842
238.6656, 1051.766
239.1478, 1030.378
239.6299, 1010.293
240.1120, 998.3008
240.5941, 999.8210
241.0762, 1005.238
241.5583, 1009.835
242.0405, 1013.724
242.5226, 1020.143
243.0047, 1032.168
243.4868, 1050.028
243.9689, 1071.167
244.4510, 1097.281
244.9332, 1125.660
245.4153, 1154.304
245.8974, 1184.329
246.3795, 1218.112
246.8616, 1256.682
247.3437, 1300.594
247.8259, 1352.414
248.3080, 1413.836
248.7901, 1482.318
249.2722, 1557.888
249.7543, 1639.194
250.2364, 1725.291
250.7186, 1819.453
251.2007, 1914.745
251.6828, 1992.956
252.1649, 2056.460
252.6470, 2096.427
253.1291, 2107.411
253.6113, 2097.825
254.0934, 2075.767
254.5755, 2044.183
255.0576, 2001.105
255.5397, 1939.593
256.0219, 1854.320
256.5040, 1771.379
256.9861, 1697.973
257.4682, 1630.070
257.9503, 1563.240
258.4324, 1496.508
258.9146, 1435.825
259.3967, 1386.888
259.8788, 1349.789
260.3609, 1321.278
260.8430, 1303.225
261.3251, 1292.073
261.8073, 1284.258
262.2894, 1279.872
262.7715, 1281.549
263.2536, 1288.269
263.7357, 1301.567
264.2178, 1331.463
264.7000, 1384.834
265.1821, 1446.767
265.6642, 1505.149
266.1463, 1562.094
266.6284, 1624.292
267.1105, 1698.977
267.5927, 1780.359
268.0748, 1862.243
268.5569, 1951.691
269.0390, 2017.784
269.5211, 2032.348
270.0032, 2008.954
270.4854, 1963.697
270.9675, 1897.626
271.4496, 1813.863
271.9317, 1709.083
272.4138, 1582.346
272.8959, 1459.309
273.3781, 1349.528
273.8602, 1253.970
274.3423, 1171.638
274.8244, 1102.996
275.3065, 1046.608
275.7886, 1006.036
276.2708, 978.2764
276.7529, 949.6222
277.2350, 912.7203
277.7171, 876.5063
278.1992, 856.7783
278.6813, 855.6395
279.1635, 856.3088
279.6456, 851.7550
280.1277, 845.3672
280.6098, 844.5268
281.0919, 851.7571
281.5740, 858.8672
282.0562, 853.3002
282.5383, 833.2947
283.0204, 823.6175
283.5025, 836.3164
283.9846, 854.6550
284.4667, 863.9648
284.9489, 863.1072
285.4310, 858.2048
285.9131, 853.8378
286.3952, 849.9298
286.8773, 844.4190
287.3594, 837.3882
287.8416, 828.8505
288.3237, 816.4884
288.8058, 802.3603
289.2879, 791.8398
289.7700, 788.0226
290.2521, 789.8218
290.7343, 792.9515
291.2164, 801.7682
291.6985, 806.5024
292.1806, 801.0688
292.6627, 792.3869
293.1448, 788.7294
293.6270, 793.0234
294.1091, 803.2925
294.5912, 816.1975
295.0733, 833.2537
295.5554, 850.3899
296.0375, 866.8478
296.5197, 883.8055
297.0018, 902.8683
297.4839, 923.7444
297.9660, 943.6125
298.4481, 958.9489
298.9302, 968.3401
299.4124, 983.4322
299.8945, 1004.778
300.3766, 1031.017
300.8587, 1063.093
301.3408, 1099.897
301.8229, 1138.523
302.3051, 1176.322
302.7872, 1215.259
303.2693, 1265.596
303.7514, 1331.214
304.2335, 1403.799
304.7156, 1485.266
305.1978, 1570.299
305.6799, 1655.005
306.1620, 1738.162
306.6441, 1816.270
307.1262, 1889.822
307.6083, 1968.025
308.0905, 2005.835
308.5726, 1973.381
309.0547, 1911.545
309.5368, 1838.620
310.0189, 1757.466
310.5010, 1667.677
310.9832, 1560.757
311.4653, 1439.569
311.9474, 1339.311
312.4295, 1271.065
312.9116, 1213.104
313.3937, 1148.647
313.8759, 1082.044
314.3580, 1025.693
314.8401, 985.4478
315.3222, 958.6736
315.8043, 943.8135
316.2864, 942.9464
316.7686, 941.7124
317.2507, 928.9555
317.7328, 912.2823
318.2149, 904.7289
318.6970, 911.1212
319.1791, 921.0867
319.6613, 925.4080
320.1434, 926.1675
320.6255, 933.2700
321.1076, 951.1062
321.5897, 975.0281
322.0718, 998.2247
322.5540, 1020.252
323.0361, 1043.452
323.5182, 1068.617
324.0003, 1095.363
324.4824, 1123.917
324.9645, 1154.414
325.4467, 1184.638
325.9288, 1213.030
326.4109, 1239.428
326.8930, 1261.609
327.3751, 1291.357
327.8572, 1306.600
328.3394, 1288.788
328.8215, 1245.043
329.3036, 1196.369
329.7857, 1154.219
330.2678, 1117.680
330.7499, 1083.990
331.2321, 1055.022
331.7142, 1026.416
332.1963, 995.7775
332.6784, 966.0797
333.1605, 939.1110
333.6426, 915.8933
334.1247, 898.9158
334.6068, 893.0351
335.0890, 904.1697
335.5711, 910.5152
336.0532, 906.1606
336.5353, 902.7947
337.0174, 906.6279
337.4995, 917.0040
337.9817, 929.8640
338.4638, 942.2120
338.9459, 954.1713
339.4280, 966.4546
339.9101, 975.6427
340.3922, 990.5872
340.8744, 1017.627
341.3565, 1049.870
341.8386, 1079.310
342.3207, 1103.392
342.8028, 1122.114
343.2849, 1134.512
343.7671, 1139.899
344.2492, 1143.954
344.7313, 1148.568
345.2134, 1151.701
345.6955, 1151.095
346.1776, 1146.764
346.6598, 1142.371
347.1419, 1138.100
347.6240, 1135.540
348.1061, 1138.752
348.5882, 1147.858
349.0703, 1163.785
349.5525, 1191.465
350.0346, 1227.179
350.5167, 1259.953
350.9988, 1287.109
351.4809, 1311.395
351.9630, 1338.118
352.4452, 1365.373
352.9273, 1384.241
353.4094, 1392.213
353.8915, 1387.260
354.3736, 1361.558
354.8557, 1313.626
355.3379, 1254.655
355.8200, 1175.509
356.3021, 1091.840
356.7842, 1023.527
357.2663, 974.3024
357.7484, 935.7238
358.2306, 898.8231
358.7127, 863.4584
359.1948, 830.5328
359.6769, 797.4892
360.1590, 769.0482
360.6411, 747.8651
361.1233, 732.9274
361.6054, 722.4883
362.0875, 715.8196
362.5696, 711.6417
363.0517, 704.9331
363.5338, 691.9115
364.0160, 682.6005
364.4981, 681.1522
364.9802, 681.6033
365.4623, 678.6733
365.9444, 671.3969
366.4265, 662.9771
366.9087, 657.4861
367.3908, 655.1719
367.8729, 650.8731
368.3550, 643.5267
368.8371, 635.0449
369.3192, 624.3581
369.8014, 613.3045
370.2835, 606.2526
370.7656, 605.9305
371.2477, 610.1908
371.7298, 616.7375
372.2119, 626.0303
372.6941, 632.9883
373.1762, 634.1686
373.6583, 632.4317
374.1404, 632.8607
374.6225, 636.8468
375.1046, 638.5035
375.5868, 631.2681
376.0689, 620.1283
376.5510, 617.1332
377.0331, 625.8078
377.5152, 633.9865
377.9973, 626.9836
378.4795, 602.6956
378.9616, 589.6057
379.4437, 594.3054
379.9258, 604.6890
380.4079, 617.6937
380.8900, 630.7789
381.3722, 637.9709
381.8543, 635.6096
382.3364, 626.7332
382.8185, 620.4601
383.3006, 619.0390
383.7827, 617.5433
384.2649, 614.6968
384.7470, 612.4874
385.2291, 613.4594
385.7112, 617.4573
386.1933, 621.1964
386.6754, 620.6229
387.1576, 615.3463
387.6397, 613.4744
388.1218, 619.5410
388.6039, 623.7773
389.0860, 621.0190
389.5681, 614.8821
390.0503, 611.3010
390.5324, 613.1440
391.0145, 617.5181
391.4966, 619.7332
391.9787, 619.4827
392.4608, 620.1089
392.9430, 624.4345
393.4251, 628.0903
393.9072, 625.7906
394.3893, 617.5974
394.8714, 611.3021
395.3535, 612.2090
395.8357, 616.9283
396.3178, 619.5648
396.7999, 619.4791
397.2820, 619.9610
397.7641, 624.0875
398.2462, 630.7101
398.7284, 633.9078
399.2105, 630.4370
399.6926, 627.2311
400.1747, 626.9825
400.6568, 628.7545
401.1389, 631.2498
401.6211, 634.0619
402.1032, 636.6928
402.5853, 637.9827
403.0674, 635.7111
403.5495, 639.3369
404.0316, 655.7400
404.5138, 670.8604
404.9959, 676.9973
405.4780, 675.7519
405.9601, 672.1838
406.4422, 669.1865
406.9243, 666.9533
407.4065, 665.9307
407.8886, 664.8930
408.3707, 667.7936
408.8528, 678.0416
409.3349, 690.4452
409.8170, 699.8353
410.2992, 705.8085
410.7813, 714.3351
411.2634, 733.3063
411.7455, 760.1195
412.2276, 779.7928
412.7097, 788.4143
413.1919, 796.8228
413.6740, 812.5797
414.1561, 833.4789
414.6382, 855.4852
415.1203, 878.8096
415.6024, 902.0411
416.0846, 922.5768
416.5667, 942.0025
417.0488, 964.2186
417.5309, 989.7165
418.0130, 1021.280
418.4951, 1062.915
418.9773, 1115.166
419.4594, 1177.647
419.9415, 1259.333
420.4236, 1343.548
420.9057, 1418.836
421.3878, 1486.670
421.8700, 1555.130
422.3521, 1630.111
422.8342, 1709.406
423.3163, 1784.628
423.7984, 1870.929
424.2805, 1927.577
424.7627, 1952.718
425.2448, 1948.448
425.7269, 1910.481
426.2090, 1841.232
426.6911, 1756.921
427.1732, 1668.346
427.6554, 1575.716
428.1375, 1489.719
428.6196, 1410.595
429.1017, 1338.045
429.5838, 1269.454
430.0659, 1207.248
430.5481, 1156.760
431.0302, 1121.025
431.5123, 1093.307
431.9944, 1066.585
432.4765, 1043.000
432.9586, 1031.163
433.4408, 1034.419
433.9229, 1046.077
434.4050, 1058.389
434.8871, 1070.922
435.3692, 1090.129
435.8513, 1123.254
436.3335, 1156.899
436.8156, 1179.381
437.2977, 1195.576
437.7798, 1218.953
438.2619, 1256.530
438.7440, 1304.607
439.2262, 1352.941
439.7083, 1393.662
440.1904, 1449.420
440.6725, 1525.746
441.1546, 1611.397
441.6367, 1699.882
442.1189, 1790.778
442.6010, 1888.110
443.0831, 1998.071
443.5652, 2115.054
444.0473, 2218.213
444.5294, 2307.928
445.0116, 2382.995
445.4937, 2455.934
445.9758, 2506.545
446.4579, 2510.914
446.9400, 2463.865
447.4221, 2387.946
447.9043, 2290.195
448.3864, 2174.394
448.8685, 2043.226
449.3506, 1894.899
449.8327, 1753.520
450.3148, 1638.850
450.7970, 1548.662
451.2791, 1455.864
451.7612, 1349.413
452.2433, 1253.369
452.7254, 1176.622
453.2076, 1114.926
453.6897, 1064.120
454.1718, 1022.551
454.6539, 988.5584
455.1360, 961.1036
455.6181, 942.0057
456.1003, 919.3165
456.5824, 885.7281
457.0645, 856.2527
457.5466, 837.4398
458.0287, 825.3381
458.5108, 812.6591
458.9930, 795.6986
459.4751, 780.1513
459.9572, 776.3038
460.4393, 784.4006
460.9214, 788.2814
461.4035, 783.5578
461.8857, 775.4800
462.3678, 767.8926
462.8499, 760.8548
463.3320, 754.8119
463.8141, 750.6960
464.2962, 746.9534
464.7784, 741.6928
465.2605, 735.4750
465.7426, 730.5753
466.2247, 728.0122
466.7068, 727.1447
467.1889, 726.5819
467.6711, 724.5659
468.1532, 727.0463
468.6353, 742.0283
469.1174, 754.5180
469.5995, 752.6096
470.0816, 739.6870
470.5638, 727.2001
471.0459, 722.4307
471.5280, 722.6951
472.0101, 719.8832
472.4922, 712.6655
472.9743, 706.0451
473.4565, 699.9507
473.9386, 695.7018
474.4207, 694.7047
474.9028, 696.8077
475.3849, 700.0478
475.8670, 705.0605
476.3492, 709.7996
476.8313, 709.3625
477.3134, 703.5955
477.7955, 700.2759
478.2776, 704.6512
478.7597, 712.8051
479.2419, 714.7628
479.7240, 707.9429
480.2061, 702.4709
480.6882, 701.7555
481.1703, 702.2067
481.6524, 699.8488
482.1346, 695.0046
482.6167, 691.2370
483.0988, 691.1973
483.5809, 694.4518
484.0630, 698.7867
484.5451, 705.8013
485.0273, 711.2201
485.5094, 713.4819
485.9915, 714.7955
486.4736, 716.2202
486.9557, 718.2082
487.4378, 721.8512
487.9200, 729.6644
488.4021, 739.7176
488.8842, 746.3347
489.3663, 749.4088
489.8484, 748.9885
490.3305, 741.9617
490.8127, 733.0731
491.2948, 732.5383
491.7769, 743.7556
492.2590, 753.3311
492.7411, 754.8254
493.2232, 753.3581
493.7054, 753.6057
494.1875, 756.5383
494.6696, 763.2460
495.1517, 775.2996
495.6338, 791.3387
496.1159, 802.7675
496.5981, 805.8314
497.0802, 809.2630
497.5623, 811.9290
498.0444, 816.6590
498.5265, 826.8029
499.0086, 842.0536
499.4908, 858.0858
499.9729, 871.0399
500.4550, 881.9592
500.9371, 893.8762
501.4192, 906.1060
501.9013, 922.5014
502.3835, 946.5565
502.8656, 974.9880
503.3477, 1001.849
503.8298, 1026.078
504.3119, 1052.415
504.7940, 1083.979
505.2762, 1117.738
505.7583, 1147.422
506.2404, 1174.139
506.7225, 1207.158
507.2046, 1253.470
507.6867, 1310.296
508.1689, 1364.683
508.6510, 1408.839
509.1331, 1462.829
509.6152, 1527.189
510.0973, 1601.522
510.5794, 1684.249
511.0616, 1776.076
511.5437, 1880.873
512.0258, 2006.454
512.5079, 2143.567
512.9901, 2266.854
513.4722, 2373.198
513.9543, 2482.014
514.4364, 2615.923
514.9185, 2740.597
515.4006, 2813.127
515.8828, 2831.671
516.3649, 2829.396
516.8470, 2815.889
517.3291, 2786.499
517.8112, 2724.922
518.2933, 2640.617
518.7755, 2565.558
519.2576, 2515.833
519.7397, 2490.923
520.2218, 2490.349
520.7039, 2521.115
521.1860, 2564.253
521.6682, 2611.419
522.1503, 2676.684
522.6324, 2775.093
523.1145, 2898.207
523.5966, 3022.435
524.0787, 3134.271
524.5609, 3245.043
525.0430, 3382.193
525.5251, 3545.390
526.0072, 3685.194
526.4893, 3798.436
526.9714, 3871.021
527.4536, 3880.616
527.9357, 3832.879
528.4178, 3751.828
528.8999, 3630.242
529.3820, 3486.215
529.8641, 3319.265
530.3463, 3139.414
530.8284, 2963.172
531.3105, 2795.778
531.7926, 2641.173
532.2747, 2503.917
532.7568, 2382.998
533.2390, 2282.855
533.7211, 2211.841
534.2032, 2152.969
534.6853, 2099.011
535.1674, 2054.720
535.6495, 2027.492
536.1317, 2019.969
536.6138, 2023.685
537.0959, 2036.369
537.5780, 2054.139
538.0601, 2063.007
538.5422, 2060.323
539.0244, 2057.365
539.5065, 2066.717
539.9886, 2081.912
540.4707, 2071.411
540.9528, 2020.696
541.4349, 1967.246
541.9171, 1921.288
542.3992, 1874.299
542.8813, 1814.826
543.3634, 1744.093
543.8455, 1674.491
544.3276, 1615.100
544.8098, 1565.405
545.2919, 1523.684
545.7740, 1491.340
546.2561, 1463.230
546.7382, 1438.675
547.2203, 1417.869
547.7025, 1402.492
548.1846, 1391.993
548.6667, 1380.374
549.1488, 1359.719
549.6309, 1340.508
550.1130, 1335.556
550.5952, 1342.816
551.0773, 1352.038
551.5594, 1358.809
552.0415, 1368.051
552.5236, 1388.963
553.0057, 1428.211
553.4879, 1456.637
553.9700, 1457.547
554.4521, 1467.162
554.9342, 1506.768
555.4163, 1562.594
555.8984, 1610.250
556.3806, 1640.646
556.8627, 1671.133
557.3448, 1725.602
557.8269, 1800.918
558.3090, 1869.968
558.7911, 1927.084
559.2733, 1988.359
559.7554, 2067.753
560.2375, 2159.343
560.7196, 2241.850
561.2017, 2306.837
561.6838, 2377.662
562.1660, 2472.252
562.6481, 2569.756
563.1302, 2650.384
563.6123, 2711.453
564.0944, 2759.197
564.5765, 2799.066
565.0587, 2828.593
565.5408, 2836.608
566.0229, 2813.747
566.5050, 2793.015
566.9871, 2774.473
567.4692, 2764.541
567.9514, 2768.531
568.4335, 2785.381
568.9156, 2809.088
569.3977, 2828.468
569.8798, 2861.551
570.3619, 2932.373
570.8441, 3033.145
571.3262, 3137.593
571.8083, 3237.542
572.2904, 3340.636
572.7725, 3454.565
573.2546, 3579.520
573.7368, 3717.854
574.2189, 3889.563
574.7010, 4051.968
575.1831, 4201.218
575.6652, 4331.978
576.1473, 4445.465
576.6295, 4539.753
577.1116, 4597.257
577.5937, 4592.766
578.0758, 4538.998
578.5579, 4479.639
579.0400, 4417.014
579.5221, 4333.008
580.0042, 4211.626
580.4863, 4071.045
580.9684, 3944.728
581.4506, 3830.479
581.9327, 3732.842
582.4148, 3644.302
582.8969, 3580.972
583.3790, 3557.571
583.8611, 3567.642
584.3433, 3595.165
584.8254, 3632.820
585.3075, 3688.068
585.7896, 3775.113
586.2717, 3895.430
586.7538, 4027.892
587.2360, 4169.027
587.7181, 4328.758
588.2002, 4508.405
588.6823, 4711.715
589.1644, 4948.424
589.6465, 5224.706
590.1287, 5524.230
590.6108, 5824.032
591.0929, 6151.726
591.5750, 6549.166
592.0571, 7012.629
592.5392, 7500.760
593.0214, 7984.851
593.5035, 8473.035
593.9856, 9004.687
594.4677, 9613.115
594.9498, 10179.57
595.4319, 10706.50
595.9141, 11172.37
596.3962, 11612.07
596.8783, 11977.42
597.3604, 12152.19
597.8425, 12084.84
598.3246, 11828.55
598.8068, 11386.99
599.2889, 10796.59
599.7710, 10135.89
600.2531, 9417.196
600.7352, 8669.103
601.2173, 7903.120
601.6995, 7129.087
602.1816, 6427.117
602.6637, 5805.333
603.1458, 5251.269
603.6279, 4772.321
604.1100, 4353.112
604.5922, 3988.472
605.0743, 3673.256
605.5564, 3399.357
606.0385, 3163.246
606.5206, 2961.584
607.0027, 2791.417
607.4849, 2651.013
607.9670, 2530.109
608.4491, 2426.699
608.9312, 2337.860
