##NAMES=Hydroxylherderite
##RRUFFID=R050518
##IDEAL CHEMISTRY=CaBe(P^5+^O_4_)(OH)
##LOCALITY=Mt. Apatite, Auburn, Maine, USA
##OWNER=RRUFF
##SOURCE=University of Arizona Mineral Museum
##DESCRIPTION=Colorless prismatic crystals
##STATUS=The identification of this mineral has been confirmed by X-ray diffraction and chemical analysis
##URL=rruff.info/R050518
##MEASURED CHEMISTRY=Ca_1.00_Be_1.00_(P_1.00_O_4_)((OH)_0.75_F_0.25_)_Î£=1_
149.8449, 4291.145
150.3270, 4423.289
150.8091, 4531.290
151.2912, 4606.817
151.7733, 4667.445
152.2555, 4713.819
152.7376, 4751.633
153.2197, 4789.985
153.7018, 4836.056
154.1839, 4884.852
154.6660, 4911.512
155.1481, 4895.564
155.6303, 4881.507
156.1124, 4878.221
156.5945, 4883.872
157.0766, 4894.359
157.5587, 4906.622
158.0408, 4921.710
158.5230, 4947.505
159.0051, 4980.777
159.4872, 5030.834
159.9693, 5103.046
160.4514, 5170.847
160.9335, 5227.742
161.4157, 5279.384
161.8978, 5326.640
162.3799, 5381.146
162.8620, 5439.538
163.3441, 5509.378
163.8262, 5590.373
164.3084, 5684.242
164.7905, 5797.365
165.2726, 5937.565
165.7547, 6102.377
166.2368, 6235.338
166.7189, 6355.425
167.2011, 6428.395
167.6832, 6449.778
168.1653, 6418.897
168.6474, 6331.366
169.1295, 6180.413
169.6116, 5968.289
170.0938, 5756.071
170.5759, 5518.919
171.0580, 5306.319
171.5401, 5135.491
172.0222, 5001.081
172.5043, 4883.314
172.9865, 4762.719
173.4686, 4638.537
173.9507, 4599.031
174.4328, 4739.541
174.9149, 4853.586
175.3970, 4845.281
175.8792, 4748.953
176.3613, 4662.475
176.8434, 4660.640
177.3255, 4743.899
177.8076, 4792.266
178.2897, 4772.511
178.7719, 4758.621
179.2540, 4772.742
179.7361, 4815.060
180.2182, 4882.315
180.7003, 4975.822
181.1824, 5095.941
181.6646, 5190.737
182.1467, 5271.084
182.6288, 5323.353
183.1109, 5341.083
183.5930, 5326.485
184.0751, 5283.906
184.5573, 5214.057
185.0394, 5117.831
185.5215, 5019.111
186.0036, 4904.096
186.4857, 4800.047
186.9678, 4716.270
187.4500, 4651.715
187.9321, 4601.651
188.4142, 4562.018
188.8963, 4533.370
189.3784, 4527.117
189.8605, 4559.220
190.3427, 4592.079
190.8248, 4602.455
191.3069, 4600.059
191.7890, 4613.516
192.2711, 4663.083
192.7532, 4745.348
193.2354, 4822.479
193.7175, 4896.020
194.1996, 4964.050
194.6817, 5034.067
195.1638, 5098.970
195.6459, 5141.536
196.1281, 5151.145
196.6102, 5129.516
197.0923, 5086.086
197.5744, 5019.276
198.0565, 4938.705
198.5386, 4839.436
199.0208, 4728.145
199.5029, 4618.799
199.9850, 4516.297
200.4671, 4422.839
200.9492, 4349.865
201.4313, 4312.490
201.9135, 4273.872
202.3956, 4213.737
202.8777, 4144.171
203.3598, 4092.742
203.8419, 4076.825
204.3240, 4086.045
204.8061, 4075.943
205.2883, 4030.503
205.7704, 3988.189
206.2525, 3956.987
206.7346, 3935.820
207.2167, 3924.172
207.6988, 3922.961
208.1810, 3928.330
208.6631, 3927.689
209.1452, 3914.124
209.6273, 3904.031
210.1094, 3898.791
210.5915, 3899.354
211.0737, 3908.769
211.5558, 3928.975
212.0379, 3955.595
212.5200, 3977.795
213.0021, 3997.165
213.4842, 4010.234
213.9664, 4010.257
214.4485, 4005.405
214.9306, 4006.319
215.4127, 4016.838
215.8948, 4034.951
216.3769, 4057.519
216.8591, 4088.221
217.3412, 4116.727
217.8233, 4135.512
218.3054, 4154.176
218.7875, 4185.495
219.2696, 4233.518
219.7518, 4289.141
220.2339, 4337.575
220.7160, 4373.020
221.1981, 4412.399
221.6802, 4460.505
222.1623, 4510.819
222.6445, 4561.492
223.1266, 4611.321
223.6087, 4650.644
224.0908, 4666.547
224.5729, 4652.680
225.0550, 4625.102
225.5372, 4573.937
226.0193, 4516.081
226.5014, 4464.894
226.9835, 4422.300
227.4656, 4379.784
227.9477, 4327.279
228.4298, 4260.427
228.9120, 4199.771
229.3941, 4144.067
229.8762, 4094.436
230.3583, 4051.455
230.8404, 4015.134
231.3225, 3985.892
231.8047, 3965.556
232.2868, 3956.405
232.7689, 3937.665
233.2510, 3896.291
233.7331, 3858.868
234.2152, 3839.407
234.6974, 3835.698
235.1795, 3837.982
235.6616, 3839.436
236.1437, 3840.096
236.6258, 3835.865
237.1079, 3817.492
237.5901, 3804.418
238.0722, 3806.974
238.5543, 3819.955
239.0364, 3831.236
239.5185, 3832.587
240.0006, 3825.918
240.4828, 3826.879
240.9649, 3852.365
241.4470, 3866.603
241.9291, 3856.520
242.4112, 3832.398
242.8933, 3807.201
243.3755, 3786.889
243.8576, 3773.752
244.3397, 3775.998
244.8218, 3821.824
245.3039, 3848.091
245.7860, 3834.814
246.2682, 3806.056
246.7503, 3788.663
247.2324, 3793.028
247.7145, 3809.594
248.1966, 3817.811
248.6787, 3812.677
249.1609, 3806.868
249.6430, 3789.347
250.1251, 3778.335
250.6072, 3793.739
251.0893, 3838.360
251.5714, 3892.703
252.0535, 3928.294
252.5357, 3940.823
253.0178, 3944.358
253.4999, 3933.830
253.9820, 3919.752
254.4641, 3903.512
254.9462, 3887.879
255.4284, 3880.573
255.9105, 3893.847
256.3926, 3933.509
256.8747, 3960.221
257.3568, 3964.611
257.8390, 3963.429
258.3211, 3961.119
258.8032, 3958.436
259.2853, 3955.148
259.7674, 3950.716
260.2495, 3945.237
260.7317, 3941.278
261.2138, 3940.760
261.6959, 3939.469
262.1780, 3932.940
262.6601, 3924.889
263.1422, 3922.175
263.6244, 3929.449
264.1065, 3944.427
264.5886, 3961.078
265.0707, 3984.855
265.5528, 3999.265
266.0349, 3988.935
266.5170, 3970.607
266.9991, 3965.630
267.4813, 3985.057
267.9634, 4014.625
268.4455, 4028.051
268.9276, 4019.367
269.4097, 4018.783
269.8918, 4054.572
270.3740, 4094.107
270.8561, 4107.424
271.3382, 4085.465
271.8203, 4054.252
272.3024, 4041.929
272.7845, 4048.337
273.2667, 4046.114
273.7488, 4023.331
274.2309, 3993.658
274.7130, 3970.842
275.1951, 3955.427
275.6772, 3939.761
276.1594, 3919.699
276.6415, 3895.613
277.1236, 3866.014
277.6057, 3823.769
278.0878, 3789.072
278.5699, 3787.227
279.0521, 3812.752
279.5342, 3834.645
280.0163, 3839.706
280.4984, 3835.278
280.9805, 3830.274
281.4626, 3824.594
281.9448, 3824.711
282.4269, 3840.794
282.9090, 3868.425
283.3911, 3886.781
283.8732, 3892.124
284.3553, 3888.196
284.8375, 3874.955
285.3196, 3853.545
285.8017, 3831.385
286.2838, 3811.369
286.7659, 3794.694
287.2480, 3784.493
287.7302, 3785.752
288.2123, 3787.284
288.6944, 3783.736
289.1765, 3777.122
289.6586, 3770.917
290.1407, 3765.816
290.6229, 3764.098
291.1050, 3771.827
291.5871, 3793.521
292.0692, 3815.690
292.5513, 3839.279
293.0334, 3861.230
293.5156, 3877.888
293.9977, 3888.387
294.4798, 3895.099
294.9619, 3900.879
295.4440, 3905.297
295.9261, 3909.895
296.4083, 3912.791
296.8904, 3917.237
297.3725, 3926.090
297.8546, 3938.791
298.3367, 3952.555
298.8188, 3965.239
299.3010, 3977.076
299.7831, 3984.602
300.2652, 3977.901
300.7473, 3977.418
301.2294, 3994.974
301.7115, 4022.389
302.1937, 4044.757
302.6758, 4052.843
303.1579, 4050.451
303.6400, 4052.993
304.1221, 4069.304
304.6042, 4076.584
305.0864, 4066.065
305.5685, 4048.495
306.0506, 4033.249
306.5327, 4023.617
307.0148, 4018.756
307.4969, 4019.708
307.9791, 4030.239
308.4612, 4032.469
308.9433, 4017.679
309.4254, 3998.333
309.9075, 3979.163
310.3896, 3961.370
310.8718, 3946.281
311.3539, 3935.037
311.8360, 3927.587
312.3181, 3925.282
312.8002, 3938.319
313.2823, 3941.090
313.7644, 3909.470
314.2466, 3856.084
314.7287, 3813.946
315.2108, 3802.815
315.6929, 3809.859
316.1750, 3814.067
316.6571, 3815.765
317.1393, 3812.295
317.6214, 3795.283
318.1035, 3774.114
318.5856, 3765.807
319.0677, 3776.098
319.5498, 3794.092
320.0320, 3816.241
320.5141, 3840.626
320.9962, 3857.722
321.4783, 3862.596
321.9604, 3860.412
322.4425, 3858.816
322.9247, 3855.536
323.4068, 3859.838
323.8889, 3883.640
324.3710, 3913.045
324.8531, 3926.166
325.3352, 3918.520
325.8174, 3907.972
326.2995, 3914.518
326.7816, 3942.639
327.2637, 3964.672
327.7458, 3981.015
328.2279, 3991.258
328.7101, 3991.912
329.1922, 3985.563
329.6743, 3979.830
330.1564, 3979.720
330.6385, 3984.926
331.1206, 3992.753
331.6028, 4014.169
332.0849, 4025.453
332.5670, 4009.943
333.0491, 3986.851
333.5312, 3981.175
334.0133, 4002.524
334.4955, 4038.710
334.9776, 4068.687
335.4597, 4096.728
335.9418, 4107.729
336.4239, 4084.377
336.9060, 4058.841
337.3882, 4052.028
337.8703, 4064.667
338.3524, 4083.259
338.8345, 4098.127
339.3166, 4109.258
339.7987, 4109.930
340.2809, 4096.907
340.7630, 4076.500
341.2451, 4045.387
341.7272, 4010.135
342.2093, 3984.244
342.6914, 3977.372
343.1736, 3979.290
343.6557, 3969.721
344.1378, 3945.750
344.6199, 3928.003
345.1020, 3933.196
345.5841, 3944.657
346.0663, 3940.439
346.5484, 3914.823
347.0305, 3887.738
347.5126, 3873.349
347.9947, 3868.337
348.4768, 3861.416
348.9590, 3848.605
349.4411, 3836.904
349.9232, 3839.187
350.4053, 3855.860
350.8874, 3860.505
351.3695, 3839.564
351.8517, 3810.613
352.3338, 3791.353
352.8159, 3781.595
353.2980, 3766.799
353.7801, 3734.456
354.2622, 3687.077
354.7444, 3654.759
355.2265, 3646.092
355.7086, 3639.221
356.1907, 3634.604
356.6728, 3626.095
357.1549, 3601.695
357.6371, 3556.659
358.1192, 3503.256
358.6013, 3465.605
359.0834, 3450.256
359.5655, 3439.891
360.0476, 3439.548
360.5298, 3439.495
361.0119, 3433.205
361.4940, 3420.690
361.9761, 3406.190
362.4582, 3393.029
362.9403, 3381.230
363.4224, 3370.730
363.9045, 3360.467
364.3867, 3353.283
364.8688, 3354.900
365.3509, 3358.675
365.8330, 3353.752
366.3151, 3333.459
366.7972, 3308.132
367.2794, 3292.172
367.7615, 3285.634
368.2436, 3288.010
368.7257, 3307.210
369.2078, 3328.968
369.6899, 3338.877
370.1721, 3335.944
370.6542, 3328.561
371.1363, 3319.151
371.6184, 3308.787
372.1005, 3299.153
372.5826, 3290.204
373.0648, 3283.836
373.5469, 3281.445
374.0290, 3283.352
374.5111, 3289.285
374.9932, 3308.753
375.4753, 3323.482
375.9575, 3317.279
376.4396, 3297.167
376.9217, 3284.432
377.4038, 3290.528
377.8859, 3306.509
378.3680, 3309.139
378.8502, 3273.558
379.3323, 3258.558
379.8144, 3284.886
380.2965, 3319.475
380.7786, 3333.908
381.2607, 3324.867
381.7429, 3307.296
382.2250, 3296.151
382.7071, 3291.854
383.1892, 3288.281
383.6713, 3286.396
384.1534, 3284.206
384.6356, 3276.757
385.1177, 3269.540
385.5998, 3273.165
386.0819, 3294.976
386.5640, 3322.685
387.0461, 3331.886
387.5283, 3318.708
388.0104, 3306.932
388.4925, 3305.777
388.9746, 3305.920
389.4567, 3298.493
389.9388, 3282.928
390.4210, 3268.185
390.9031, 3259.186
391.3852, 3254.813
391.8673, 3253.462
392.3494, 3255.586
392.8315, 3257.094
393.3137, 3253.589
393.7958, 3246.449
394.2779, 3243.503
394.7600, 3248.015
395.2421, 3253.915
395.7242, 3256.545
396.2064, 3258.111
396.6885, 3265.698
397.1706, 3282.985
397.6527, 3302.156
398.1348, 3307.591
398.6169, 3287.338
399.0991, 3275.775
399.5812, 3280.430
400.0633, 3287.518
400.5454, 3285.675
401.0275, 3276.334
401.5096, 3270.241
401.9918, 3277.558
402.4739, 3296.097
402.9560, 3303.529
403.4381, 3287.675
403.9202, 3277.968
404.4023, 3284.783
404.8845, 3299.053
405.3666, 3312.140
405.8487, 3321.580
406.3308, 3326.141
406.8129, 3320.539
407.2950, 3305.147
407.7772, 3299.381
408.2593, 3310.174
408.7414, 3326.260
409.2235, 3340.000
409.7056, 3351.342
410.1877, 3359.665
410.6699, 3360.808
411.1520, 3361.274
411.6341, 3369.686
412.1162, 3385.411
412.5983, 3399.769
413.0804, 3406.996
413.5625, 3410.932
414.0446, 3423.571
414.5268, 3448.594
415.0089, 3473.894
415.4910, 3501.146
415.9731, 3525.696
416.4552, 3539.926
416.9373, 3543.956
417.4195, 3547.510
417.9016, 3560.277
418.3837, 3582.676
418.8658, 3609.249
419.3479, 3640.581
419.8300, 3675.709
420.3122, 3713.296
420.7943, 3755.004
421.2764, 3805.743
421.7585, 3868.454
422.2406, 3931.689
422.7227, 3971.719
423.2049, 3982.784
423.6870, 4011.253
424.1691, 4081.032
424.6512, 4154.711
425.1333, 4210.741
425.6154, 4248.594
426.0976, 4269.522
426.5797, 4273.503
427.0618, 4261.111
427.5439, 4228.867
428.0260, 4176.611
428.5081, 4121.715
428.9903, 4071.508
429.4724, 4025.758
429.9545, 3982.906
430.4366, 3939.812
430.9187, 3904.272
431.4008, 3874.946
431.8830, 3855.684
432.3651, 3853.652
432.8472, 3869.070
433.3293, 3892.279
433.8114, 3914.101
434.2935, 3934.505
434.7757, 3955.085
435.2578, 3969.402
435.7399, 3991.061
436.2220, 4026.350
436.7041, 4070.214
437.1862, 4115.380
437.6684, 4158.726
438.1505, 4204.172
438.6326, 4258.774
439.1147, 4323.614
439.5968, 4386.041
440.0789, 4437.715
440.5611, 4493.855
441.0432, 4558.898
441.5253, 4635.105
442.0074, 4730.681
442.4895, 4851.267
442.9716, 4991.473
443.4538, 5160.578
443.9359, 5353.701
444.4180, 5514.271
444.9001, 5610.716
445.3822, 5664.420
445.8643, 5722.732
446.3465, 5793.413
446.8286, 5848.904
447.3107, 5897.435
447.7928, 5919.904
448.2749, 5895.551
448.7570, 5825.043
449.2392, 5725.586
449.7213, 5609.481
450.2034, 5476.801
450.6855, 5319.735
451.1676, 5118.235
451.6497, 4919.339
452.1319, 4717.619
452.6140, 4528.202
453.0961, 4366.926
453.5782, 4237.266
454.0603, 4129.791
454.5424, 4040.167
455.0246, 3966.584
455.5067, 3892.659
455.9888, 3814.159
456.4709, 3741.510
456.9530, 3685.264
457.4352, 3639.100
457.9173, 3590.850
458.3994, 3528.799
458.8815, 3476.516
459.3636, 3460.564
459.8457, 3467.002
460.3279, 3457.822
460.8100, 3420.244
461.2921, 3373.743
461.7742, 3344.058
462.2563, 3335.630
462.7384, 3327.280
463.2205, 3315.843
463.7026, 3307.691
464.1848, 3311.717
464.6669, 3320.596
465.1490, 3317.884
465.6311, 3294.291
466.1132, 3262.992
466.5953, 3255.101
467.0775, 3280.622
467.5596, 3295.353
468.0417, 3283.639
468.5238, 3267.866
469.0059, 3261.640
469.4880, 3263.216
469.9702, 3261.934
470.4523, 3251.046
470.9344, 3234.660
471.4165, 3215.994
471.8986, 3195.323
472.3807, 3183.301
472.8629, 3186.763
473.3450, 3199.226
473.8271, 3207.835
474.3092, 3211.968
474.7913, 3215.245
475.2734, 3219.583
475.7556, 3222.410
476.2377, 3220.380
476.7198, 3214.180
477.2019, 3207.786
477.6840, 3204.073
478.1661, 3202.410
478.6483, 3199.774
479.1304, 3196.626
479.6125, 3191.536
480.0946, 3179.237
480.5767, 3168.649
481.0588, 3169.917
481.5410, 3182.592
482.0231, 3193.568
482.5052, 3187.829
482.9873, 3171.979
483.4694, 3170.215
483.9515, 3185.976
484.4337, 3201.162
484.9158, 3202.834
485.3979, 3199.418
485.8800, 3211.591
486.3621, 3253.733
486.8442, 3278.405
487.3264, 3248.181
487.8085, 3199.711
488.2906, 3182.091
488.7727, 3200.680
489.2548, 3226.477
489.7369, 3235.107
490.2191, 3227.705
490.7012, 3221.672
491.1833, 3215.582
491.6654, 3212.850
492.1475, 3214.152
492.6296, 3218.878
493.1118, 3227.412
493.5939, 3239.446
494.0760, 3251.998
494.5581, 3262.501
495.0402, 3271.015
495.5223, 3277.441
496.0045, 3280.540
496.4866, 3284.841
496.9687, 3290.781
497.4508, 3300.366
497.9329, 3317.927
498.4150, 3347.179
498.8972, 3377.316
499.3793, 3403.623
499.8614, 3427.184
500.3435, 3447.709
500.8256, 3465.701
501.3077, 3486.991
501.7899, 3517.312
502.2720, 3556.274
502.7541, 3596.363
503.2362, 3628.129
503.7183, 3672.768
504.2004, 3741.494
504.6826, 3820.596
505.1647, 3895.228
505.6468, 3962.626
506.1289, 4030.370
506.6110, 4107.298
507.0931, 4192.187
507.5753, 4274.235
508.0574, 4349.033
508.5395, 4432.190
509.0216, 4537.304
509.5037, 4655.365
509.9858, 4766.798
510.4680, 4863.179
510.9501, 4969.219
511.4322, 5090.394
511.9143, 5230.707
512.3964, 5397.503
512.8785, 5590.951
513.3607, 5801.006
513.8428, 6017.402
514.3249, 6241.254
514.8070, 6488.125
515.2891, 6777.123
515.7712, 7065.500
516.2534, 7369.188
516.7355, 7657.871
517.2176, 7930.952
517.6997, 8174.248
518.1818, 8322.088
518.6639, 8309.228
519.1461, 8152.106
519.6282, 7900.976
520.1103, 7545.129
520.5924, 7142.481
521.0745, 6694.112
521.5566, 6231.126
522.0388, 5798.667
522.5209, 5387.424
523.0030, 5041.590
523.4851, 4786.668
523.9672, 4598.005
524.4493, 4459.284
524.9315, 4362.385
525.4136, 4285.663
525.8957, 4213.718
526.3778, 4150.287
526.8599, 4111.071
527.3420, 4105.340
527.8242, 4108.437
528.3063, 4117.827
528.7884, 4133.845
529.2705, 4158.154
529.7526, 4189.946
530.2347, 4225.489
530.7169, 4270.886
531.1990, 4314.116
531.6811, 4333.134
532.1632, 4328.059
532.6453, 4304.522
533.1274, 4258.537
533.6096, 4203.756
534.0917, 4164.716
534.5738, 4146.048
535.0559, 4118.755
535.5380, 4073.265
536.0201, 4024.082
536.5022, 3971.012
536.9843, 3922.489
537.4664, 3899.424
537.9485, 3912.826
538.4307, 3942.858
538.9128, 3946.658
539.3949, 3913.965
539.8770, 3899.944
540.3591, 3923.476
540.8412, 3950.577
541.3234, 3957.967
541.8055, 3954.742
542.2876, 3965.076
542.7697, 4005.754
543.2518, 4049.019
543.7339, 4070.340
544.2161, 4074.558
544.6982, 4073.276
545.1803, 4068.867
545.6624, 4066.141
546.1445, 4071.105
546.6266, 4084.514
547.1088, 4092.456
547.5909, 4094.238
548.0730, 4091.949
548.5551, 4080.861
549.0372, 4068.498
549.5193, 4065.528
550.0015, 4073.471
550.4836, 4080.743
550.9657, 4070.917
551.4478, 4048.398
551.9299, 4044.579
552.4120, 4067.052
552.8942, 4081.257
553.3763, 4064.775
553.8584, 4031.247
554.3405, 4007.644
554.8226, 3995.458
555.3047, 3988.771
555.7869, 3995.549
556.2690, 4000.425
556.7511, 3983.286
557.2332, 3948.115
557.7153, 3917.128
558.1974, 3904.533
558.6796, 3903.937
559.1617, 3896.161
559.6438, 3878.613
560.1259, 3860.647
560.6080, 3831.783
561.0901, 3812.927
561.5723, 3822.272
562.0544, 3852.207
562.5365, 3877.111
563.0186, 3882.909
563.5007, 3883.039
563.9828, 3889.888
564.4650, 3903.115
564.9471, 3920.933
565.4292, 3942.362
565.9113, 3971.140
566.3934, 4012.389
566.8755, 4067.276
567.3577, 4121.468
567.8398, 4179.240
568.3219, 4231.355
568.8040, 4266.003
569.2861, 4297.979
569.7682, 4342.880
570.2504, 4404.620
570.7325, 4480.433
571.2146, 4573.003
571.6967, 4678.023
572.1788, 4775.143
572.6609, 4862.626
573.1431, 4949.777
573.6252, 5039.684
574.1073, 5133.792
574.5894, 5235.420
575.0715, 5346.059
575.5536, 5458.932
576.0358, 5576.414
576.5179, 5693.122
577.0000, 5799.501
577.4821, 5900.614
577.9642, 6011.514
578.4464, 6140.155
578.9285, 6280.914
579.4106, 6421.803
579.8927, 6562.855
580.3748, 6703.834
580.8569, 6837.926
581.3391, 6979.788
581.8212, 7142.270
582.3033, 7317.016
582.7854, 7485.487
583.2675, 7649.838
583.7496, 7795.746
584.2318, 7911.003
584.7139, 8000.688
585.1960, 8071.136
585.6781, 8123.884
586.1602, 8163.437
586.6423, 8194.617
587.1245, 8215.050
587.6066, 8204.794
588.0887, 8138.568
588.5708, 8080.620
589.0529, 8036.505
589.5350, 8004.587
590.0172, 7984.270
590.4993, 7975.161
590.9814, 7975.837
591.4635, 7981.590
591.9456, 8000.006
592.4277, 8043.245
592.9099, 8109.775
593.3920, 8191.535
593.8741, 8287.646
594.3562, 8392.606
594.8383, 8504.820
595.3204, 8631.053
595.8026, 8712.254
596.2847, 8769.012
596.7668, 8763.637
597.2489, 8676.354
597.7310, 8524.652
598.2131, 8322.052
598.6953, 8074.205
599.1774, 7799.753
599.6595, 7506.540
600.1416, 7199.591
600.6237, 6892.026
601.1058, 6583.020
601.5880, 6284.575
602.0701, 5996.529
602.5522, 5729.399
603.0343, 5504.094
603.5164, 5326.177
603.9985, 5158.970
604.4807, 4998.416
604.9628, 4849.732
605.4449, 4717.563
605.9270, 4599.854
606.4091, 4490.252
606.8912, 4387.159
607.3734, 4292.317
607.8555, 4210.776
608.3376, 4142.334
608.8197, 4073.603
609.3018, 4000.310
609.7839, 3936.197
610.2661, 3894.447
610.7482, 3865.187
611.2303, 3826.901
611.7124, 3774.852
612.1945, 3725.437
612.6766, 3680.182
613.1588, 3642.362
613.6409, 3620.757
614.1230, 3609.845
614.6051, 3591.882
615.0872, 3556.433
615.5693, 3513.954
616.0515, 3485.891
616.5336, 3474.735
617.0157, 3461.584
617.4978, 3443.125
617.9799, 3425.015
618.4620, 3410.806
618.9442, 3399.334
619.4263, 3389.017
619.9084, 3381.889
620.3905, 3371.200
620.8726, 3351.669
621.3547, 3328.084
621.8369, 3306.580
622.3190, 3287.336
622.8011, 3267.066
623.2832, 3243.701
623.7653, 3217.528
624.2474, 3186.162
624.7296, 3142.667
625.2117, 3119.286
625.6938, 3137.991
626.1759, 3157.295
626.6580, 3145.286
627.1401, 3114.466
627.6223, 3099.485
628.1044, 3119.610
628.5865, 3138.250
629.0686, 3129.675
629.5507, 3107.620
630.0328, 3089.284
630.5150, 3078.761
630.9971, 3081.886
631.4792, 3106.181
631.9613, 3141.619
632.4434, 3145.516
632.9255, 3100.403
633.4077, 3069.336
633.8898, 3066.735
634.3719, 3075.167
634.8539, 3089.195
635.3361, 3105.813
635.8182, 3116.730
636.3003, 3118.353
636.7824, 3115.442
637.2645, 3111.511
637.7466, 3105.072
638.2288, 3091.326
638.7109, 3070.626
639.1930, 3051.734
639.6751, 3042.112
640.1572, 3039.291
640.6393, 3030.909
641.1215, 3012.600
641.6036, 2999.377
642.0857, 3004.145
642.5678, 3004.743
643.0499, 2979.836
643.5320, 2938.249
644.0142, 2911.652
644.4963, 2920.251
644.9784, 2931.318
645.4605, 2921.628
