##NAMES=Hydroxylherderite
##RRUFFID=R050520
##IDEAL CHEMISTRY=CaBe(P^5+^O_4_)(OH)
##LOCALITY=Virgem da Lapa, Minas Gerais, Brazil
##OWNER=RRUFF
##SOURCE=University of Arizona Mineral Museum
##DESCRIPTION=White massive associated with a dark green tourmaline
##STATUS=The identification of this mineral has been confirmed by X-ray diffraction and chemical analysis
##URL=rruff.info/R050520
##MEASURED CHEMISTRY=Ca_1.00_Be_1.00_(P_1.00_O_4_)((OH)_0.53_F_0.47_)_Î£=1_ ; Be not measured but estimated by difference and charge balance
117.863, 2833.474
118.345, 2887.229
118.827, 2950.589
119.309, 3018.434
119.791, 3087.151
120.274, 3157.613
120.756, 3234.547
121.238, 3310.097
121.720, 3397.100
122.202, 3510.613
122.684, 3677.143
123.166, 3852.604
123.648, 4019.052
124.131, 4171.291
124.613, 4277.448
125.095, 4311.831
125.577, 4284.600
126.059, 4210.013
126.541, 4061.782
127.023, 3889.260
127.505, 3753.781
127.988, 3656.200
128.470, 3585.505
128.952, 3540.755
129.434, 3517.093
129.916, 3499.626
130.398, 3483.469
130.880, 3470.112
131.362, 3464.556
131.844, 3467.386
132.327, 3472.518
132.809, 3474.805
133.291, 3474.246
133.773, 3470.389
134.255, 3459.866
134.737, 3445.572
135.219, 3441.448
135.701, 3447.976
136.184, 3463.204
136.666, 3487.513
137.148, 3521.933
137.630, 3554.416
138.112, 3578.623
138.594, 3595.378
139.076, 3621.523
139.558, 3657.598
140.040, 3701.726
140.523, 3751.467
141.005, 3807.031
141.487, 3867.019
141.969, 3931.402
142.451, 4000.986
142.933, 4073.490
143.415, 4164.328
143.897, 4242.427
144.380, 4262.857
144.862, 4205.588
145.344, 4126.846
145.826, 4033.413
146.308, 3918.908
146.790, 3827.233
147.272, 3762.001
147.754, 3718.238
148.236, 3691.026
148.719, 3690.003
149.201, 3694.079
149.683, 3699.445
150.165, 3707.419
150.647, 3712.192
151.129, 3706.630
151.611, 3700.094
152.093, 3704.370
152.575, 3734.186
153.058, 3760.978
153.540, 3774.792
154.022, 3768.552
154.504, 3774.471
154.986, 3803.610
155.468, 3844.023
155.950, 3880.622
156.432, 3901.156
156.915, 3926.904
157.397, 3968.398
157.879, 4031.413
158.361, 4086.983
158.843, 4118.440
159.325, 4141.898
159.807, 4178.510
160.289, 4233.364
160.771, 4303.110
161.254, 4385.336
161.736, 4478.592
162.218, 4590.919
162.700, 4731.033
163.182, 4891.628
163.664, 5063.211
164.146, 5241.590
164.628, 5431.296
165.111, 5634.880
165.593, 5854.819
166.075, 6079.674
166.557, 6311.016
167.039, 6542.297
167.521, 6763.733
168.003, 6978.881
168.485, 7179.271
168.967, 7379.674
169.449, 7593.109
169.932, 7711.353
170.414, 7661.662
170.896, 7467.196
171.378, 7167.594
171.860, 6677.701
172.342, 6142.618
172.824, 5707.529
173.307, 5377.107
173.789, 5121.087
174.271, 4932.917
174.753, 4800.871
175.235, 4703.000
175.717, 4632.928
176.199, 4588.393
176.681, 4571.781
177.163, 4584.829
177.645, 4608.650
178.128, 4622.315
178.610, 4632.586
179.092, 4656.845
179.574, 4708.097
180.056, 4776.643
180.538, 4847.097
181.020, 4918.484
181.503, 4996.251
181.985, 5093.896
182.467, 5204.523
182.949, 5308.777
183.431, 5415.244
183.913, 5506.314
184.395, 5536.675
184.877, 5503.675
185.359, 5432.042
185.842, 5336.051
186.324, 5219.881
186.806, 5110.145
187.288, 5012.181
187.770, 4928.066
188.252, 4864.813
188.734, 4821.223
189.216, 4803.688
189.698, 4827.270
190.181, 4888.330
190.663, 4954.725
191.145, 5016.258
191.627, 5075.310
192.109, 5134.762
192.591, 5191.748
193.073, 5269.912
193.555, 5400.042
194.038, 5580.827
194.520, 5777.685
195.002, 5991.184
195.484, 6211.436
195.966, 6411.362
196.448, 6595.590
196.930, 6732.090
197.412, 6794.791
197.894, 6783.827
198.376, 6688.262
198.859, 6481.475
199.341, 6190.278
199.823, 5934.748
200.305, 5715.400
200.787, 5530.483
201.269, 5380.546
201.751, 5269.776
202.234, 5173.982
202.716, 5090.369
203.198, 5018.094
203.680, 4953.390
204.162, 4896.233
204.644, 4846.720
205.126, 4806.847
205.608, 4778.170
206.090, 4748.453
206.572, 4714.371
207.055, 4678.109
207.537, 4650.326
208.019, 4634.468
208.501, 4617.973
208.983, 4589.138
209.465, 4542.380
209.947, 4507.750
210.430, 4488.985
210.912, 4483.535
211.394, 4483.651
211.876, 4490.645
212.358, 4500.121
212.840, 4510.222
213.322, 4521.650
213.804, 4529.962
214.286, 4532.199
214.768, 4532.355
215.251, 4542.140
215.733, 4564.219
216.215, 4590.116
216.697, 4618.354
217.179, 4653.854
217.661, 4671.700
218.143, 4659.497
218.625, 4636.280
219.108, 4647.684
219.590, 4708.973
220.072, 4774.327
220.554, 4823.487
221.036, 4847.724
221.518, 4887.847
222.000, 4949.370
222.482, 5022.538
222.964, 5093.754
223.447, 5169.283
223.929, 5229.071
224.411, 5266.982
224.893, 5282.504
225.375, 5275.810
225.857, 5240.342
226.339, 5187.835
226.821, 5133.659
227.303, 5075.164
227.786, 5020.397
228.268, 4971.977
228.750, 4929.660
229.232, 4892.482
229.714, 4860.657
230.196, 4833.375
230.678, 4809.801
231.161, 4792.186
231.643, 4773.039
232.125, 4747.420
232.607, 4714.279
233.089, 4699.044
233.571, 4711.489
234.053, 4731.636
234.535, 4740.663
235.017, 4733.746
235.499, 4724.945
235.982, 4711.908
236.464, 4695.938
236.946, 4700.436
237.428, 4741.497
237.910, 4784.091
238.392, 4800.497
238.874, 4772.138
239.357, 4755.772
239.839, 4760.076
240.321, 4781.614
240.803, 4803.128
241.285, 4830.411
241.767, 4850.002
242.249, 4851.351
242.731, 4818.162
243.213, 4802.715
243.695, 4814.252
244.178, 4844.264
244.660, 4865.812
245.142, 4877.076
245.624, 4882.485
246.106, 4881.448
246.588, 4864.142
247.070, 4866.093
247.552, 4895.514
248.035, 4940.353
248.517, 4975.931
248.999, 5000.032
249.481, 5018.409
249.963, 5030.745
250.445, 5032.745
250.927, 5045.989
251.409, 5071.848
251.891, 5107.931
252.374, 5153.278
252.856, 5216.165
253.338, 5272.417
253.820, 5315.128
254.302, 5343.077
254.784, 5367.120
255.266, 5389.294
255.748, 5405.671
256.231, 5410.723
256.713, 5399.776
257.195, 5388.389
257.677, 5381.441
258.159, 5378.433
258.641, 5364.907
259.123, 5334.751
259.605, 5303.039
260.087, 5281.675
260.570, 5271.379
261.052, 5271.037
261.534, 5285.406
262.016, 5310.372
262.498, 5321.024
262.980, 5312.087
263.462, 5298.716
263.944, 5290.060
264.427, 5286.416
264.909, 5285.658
265.391, 5285.337
265.873, 5288.770
266.355, 5308.366
266.837, 5350.346
267.319, 5392.371
267.801, 5422.019
268.284, 5435.699
268.766, 5453.246
269.248, 5475.479
269.730, 5500.785
270.212, 5526.316
270.694, 5552.150
271.176, 5577.079
271.658, 5602.993
272.140, 5630.702
272.622, 5642.467
273.105, 5634.778
273.587, 5616.869
274.069, 5601.176
274.551, 5589.199
275.033, 5570.645
275.515, 5540.419
275.997, 5500.185
276.479, 5465.650
276.962, 5439.031
277.444, 5412.599
277.926, 5375.056
278.408, 5323.772
278.890, 5286.494
279.372, 5271.354
279.854, 5272.438
280.336, 5265.095
280.819, 5247.026
281.301, 5231.954
281.783, 5233.322
282.265, 5251.379
282.747, 5261.392
283.229, 5257.218
283.711, 5247.946
284.193, 5256.654
284.675, 5284.846
285.158, 5309.932
285.640, 5317.992
286.122, 5310.305
286.604, 5298.450
287.086, 5280.223
287.568, 5265.832
288.050, 5275.170
288.532, 5307.282
289.014, 5337.435
289.497, 5350.164
289.979, 5351.256
290.461, 5367.600
290.943, 5400.832
291.425, 5437.354
291.907, 5456.335
292.389, 5462.222
292.871, 5484.111
293.353, 5542.888
293.836, 5616.994
294.318, 5649.299
294.800, 5639.591
295.282, 5627.767
295.764, 5648.594
296.246, 5694.046
296.728, 5741.652
297.211, 5790.158
297.693, 5833.336
298.175, 5850.675
298.657, 5848.002
299.139, 5863.475
299.621, 5952.907
300.103, 6073.188
300.585, 6132.595
301.067, 6112.817
301.549, 6062.352
302.032, 6025.192
302.514, 5999.884
302.996, 5981.448
303.478, 5969.595
303.960, 5962.093
304.442, 5955.957
304.924, 5951.078
305.406, 5947.901
305.889, 5950.333
306.371, 5954.302
306.853, 5952.626
307.335, 5940.827
307.817, 5923.520
308.299, 5902.276
308.781, 5878.035
309.263, 5856.916
309.746, 5846.055
310.228, 5839.568
310.710, 5830.251
311.192, 5813.104
311.674, 5797.885
312.156, 5793.256
312.638, 5796.150
313.120, 5797.519
313.602, 5790.265
314.085, 5781.320
314.567, 5775.243
315.049, 5772.208
315.531, 5774.198
316.013, 5785.613
316.495, 5802.158
316.977, 5817.091
317.459, 5830.235
317.941, 5839.245
318.424, 5841.542
318.906, 5836.680
319.388, 5831.904
319.870, 5821.122
320.352, 5815.467
320.834, 5825.204
321.316, 5874.473
321.798, 5917.328
322.280, 5938.764
322.763, 5941.312
323.245, 5942.154
323.727, 5935.854
324.209, 5935.201
324.691, 5948.291
325.173, 5993.176
325.655, 6026.817
326.138, 6037.274
326.620, 6033.313
327.102, 6034.862
327.584, 6048.540
328.066, 6063.354
328.548, 6074.923
329.030, 6080.699
329.512, 6091.459
329.994, 6109.769
330.477, 6131.970
330.959, 6153.302
331.441, 6167.451
331.923, 6189.665
332.405, 6227.005
332.887, 6279.412
333.369, 6319.722
333.851, 6341.515
334.333, 6358.816
334.816, 6382.024
335.298, 6413.807
335.780, 6444.638
336.262, 6476.782
336.744, 6506.558
337.226, 6521.484
337.708, 6515.630
338.190, 6508.111
338.672, 6510.669
339.155, 6527.811
339.637, 6529.987
340.119, 6515.953
340.601, 6488.911
341.083, 6449.454
341.565, 6395.363
342.047, 6345.068
342.529, 6303.689
343.012, 6270.962
343.494, 6251.848
343.976, 6248.494
344.458, 6246.740
344.940, 6231.361
345.422, 6203.515
345.904, 6178.023
346.386, 6156.101
346.868, 6140.499
347.351, 6143.174
347.833, 6163.028
348.315, 6177.162
348.797, 6163.925
349.279, 6132.849
349.761, 6114.121
350.243, 6112.562
350.725, 6114.480
351.208, 6101.347
351.690, 6077.303
352.172, 6056.086
352.654, 6045.463
353.136, 6040.647
353.618, 6036.966
354.100, 6034.244
354.582, 6027.745
355.065, 6007.731
355.547, 5982.982
356.029, 5967.765
356.511, 5971.539
356.993, 5978.319
357.475, 5976.315
357.957, 5966.576
358.439, 5952.541
358.921, 5931.623
359.404, 5909.848
359.886, 5893.431
360.368, 5885.314
360.850, 5874.067
361.332, 5843.687
361.814, 5808.818
362.296, 5790.500
362.778, 5818.218
363.260, 5844.072
363.743, 5845.216
364.225, 5821.141
364.707, 5797.835
365.189, 5772.925
365.671, 5756.997
366.153, 5757.851
366.635, 5801.198
367.117, 5832.997
367.599, 5836.986
368.082, 5822.923
368.564, 5821.360
369.046, 5852.992
369.528, 5880.989
370.010, 5890.804
370.492, 5872.327
370.974, 5863.911
371.457, 5871.000
371.939, 5885.055
372.421, 5896.488
372.903, 5906.884
373.385, 5911.587
373.867, 5907.023
374.349, 5894.108
374.831, 5888.524
375.313, 5891.847
375.796, 5899.831
376.278, 5909.669
376.760, 5921.004
377.242, 5936.735
377.724, 5960.179
378.206, 5984.752
378.688, 5994.204
379.170, 5986.588
379.652, 5976.591
380.135, 5970.417
380.617, 5967.685
381.099, 5963.397
381.581, 5956.288
382.063, 5953.639
382.545, 5967.776
383.027, 5995.805
383.509, 6018.541
383.991, 6030.664
384.474, 6034.814
384.956, 6029.220
385.438, 6015.953
385.920, 6012.807
386.402, 6045.648
386.884, 6094.193
387.366, 6119.770
387.848, 6114.443
388.331, 6099.858
388.813, 6095.080
389.295, 6096.586
389.777, 6097.099
390.259, 6085.632
390.741, 6077.058
391.223, 6090.237
391.705, 6123.500
392.188, 6148.224
392.670, 6139.864
393.152, 6119.566
393.634, 6106.260
394.116, 6104.230
394.598, 6110.162
395.080, 6128.807
395.562, 6154.543
396.044, 6174.284
396.526, 6177.134
397.009, 6179.399
397.491, 6188.691
397.973, 6207.631
398.455, 6224.284
398.937, 6237.748
399.419, 6247.775
399.901, 6253.868
400.384, 6245.045
400.866, 6246.047
401.348, 6265.229
401.830, 6298.655
402.312, 6321.319
402.794, 6328.483
403.276, 6331.025
403.758, 6332.327
404.240, 6328.144
404.723, 6337.829
405.205, 6367.467
405.687, 6404.237
406.169, 6426.582
406.651, 6430.504
407.133, 6438.622
407.615, 6460.221
408.097, 6491.606
408.579, 6512.242
409.062, 6520.992
409.544, 6525.890
410.026, 6530.121
410.508, 6534.788
410.990, 6550.898
411.472, 6583.386
411.954, 6618.981
412.436, 6629.729
412.918, 6621.893
413.401, 6625.998
413.883, 6662.725
414.365, 6719.421
414.847, 6775.858
415.329, 6831.393
415.811, 6890.001
416.293, 6961.530
416.775, 7035.541
417.258, 7095.154
417.740, 7122.723
418.222, 7153.444
418.704, 7207.242
419.186, 7283.048
419.668, 7376.229
420.150, 7497.563
420.632, 7626.630
421.115, 7750.868
421.597, 7865.315
422.079, 7991.297
422.561, 8138.315
423.043, 8297.772
423.525, 8461.237
424.007, 8627.790
424.489, 8797.580
424.971, 8985.213
425.453, 9182.157
425.936, 9335.449
426.418, 9462.936
426.900, 9528.075
427.382, 9512.827
427.864, 9403.963
428.346, 9252.913
428.828, 9040.034
429.310, 8803.984
429.793, 8592.796
430.275, 8405.156
430.757, 8239.494
431.239, 8095.833
431.721, 7974.536
432.203, 7883.035
432.685, 7822.439
433.167, 7781.813
433.650, 7753.772
434.132, 7738.697
434.614, 7742.267
435.096, 7766.701
435.578, 7803.217
436.060, 7839.021
436.542, 7876.385
437.024, 7923.864
437.506, 7983.994
437.989, 8056.806
438.471, 8141.519
438.953, 8237.880
439.435, 8349.891
439.917, 8485.063
440.399, 8635.296
440.881, 8786.992
441.363, 8930.380
441.845, 9097.865
442.328, 9314.869
442.810, 9568.053
443.292, 9842.603
443.774, 10127.810
444.256, 10437.410
444.738, 10786.950
445.220, 11174.600
445.702, 11560.350
446.185, 11969.480
446.667, 12345.150
447.149, 12657.890
447.631, 12934.840
448.113, 13102.700
448.595, 13156.300
449.077, 13102.270
449.559, 12947.930
450.042, 12671.170
450.524, 12324.070
451.006, 11901.910
451.488, 11403.970
451.970, 10936.250
452.452, 10493.470
452.934, 10084.330
453.416, 9721.396
453.898, 9403.978
454.380, 9115.156
454.863, 8856.950
455.345, 8630.775
455.827, 8455.695
456.309, 8327.749
456.791, 8210.583
457.273, 8080.189
457.755, 7951.812
458.237, 7863.695
458.720, 7815.932
459.202, 7774.541
459.684, 7707.704
460.166, 7631.697
460.648, 7574.324
461.130, 7543.591
461.612, 7523.532
462.094, 7505.537
462.577, 7488.563
463.059, 7470.182
463.541, 7447.965
464.023, 7425.082
464.505, 7401.345
464.987, 7376.976
465.469, 7358.307
465.951, 7351.601
466.434, 7348.309
466.916, 7343.159
467.398, 7335.792
467.880, 7326.072
468.362, 7302.604
468.844, 7280.077
469.326, 7284.871
469.808, 7350.530
470.290, 7389.253
470.772, 7367.117
471.255, 7289.633
471.737, 7256.063
472.219, 7282.160
472.701, 7315.363
473.183, 7316.462
473.665, 7282.601
474.147, 7258.322
474.629, 7247.137
475.112, 7245.995
475.594, 7252.606
476.076, 7266.388
476.558, 7282.548
477.040, 7302.444
477.522, 7321.578
478.004, 7330.956
478.486, 7331.076
478.969, 7326.860
479.451, 7314.150
479.933, 7302.184
480.415, 7306.098
480.897, 7332.128
481.379, 7355.293
481.861, 7354.886
482.343, 7342.195
482.825, 7332.462
483.308, 7334.024
483.790, 7336.274
484.272, 7335.347
484.754, 7331.651
485.236, 7327.960
485.718, 7314.289
486.200, 7309.404
486.682, 7325.515
487.164, 7374.316
487.647, 7408.010
488.129, 7420.374
488.611, 7422.474
489.093, 7425.734
489.575, 7430.543
490.057, 7435.702
490.539, 7441.500
491.021, 7447.214
491.504, 7449.196
491.986, 7446.528
492.468, 7446.143
492.950, 7452.018
493.432, 7463.509
493.914, 7477.360
494.396, 7493.485
494.878, 7510.379
495.361, 7529.377
495.843, 7547.845
496.325, 7556.393
496.807, 7545.777
497.289, 7538.067
497.771, 7562.518
498.253, 7608.084
498.735, 7647.944
499.217, 7658.228
499.699, 7666.295
500.182, 7693.979
500.664, 7741.762
501.146, 7781.875
501.628, 7790.486
502.110, 7796.039
502.592, 7818.966
503.074, 7874.516
503.556, 7928.368
504.039, 7980.078
504.521, 8028.527
505.003, 8070.262
505.485, 8090.320
505.967, 8129.954
506.449, 8202.641
506.931, 8304.681
507.413, 8399.792
507.896, 8479.918
508.378, 8580.940
508.860, 8736.620
509.342, 8944.610
509.824, 9142.060
510.306, 9325.392
510.788, 9492.148
511.270, 9611.419
511.752, 9705.111
512.235, 9858.846
512.717, 10104.070
513.199, 10417.540
513.681, 10775.920
514.163, 11177.220
514.645, 11610.070
515.127, 12044.300
515.609, 12523.860
516.091, 13103.300
516.574, 13794.050
517.056, 14476.910
517.538, 15271.070
518.020, 15942.680
518.502, 16307.290
518.984, 16320.320
519.466, 16038.370
519.948, 15312.600
520.430, 14319.270
520.913, 13380.710
521.395, 12456.040
521.877, 11650.160
522.359, 10987.240
522.841, 10469.090
523.323, 10045.400
523.805, 9721.585
524.287, 9475.989
524.770, 9304.040
525.252, 9205.146
525.734, 9140.491
526.216, 9111.347
526.698, 9103.064
527.180, 9089.260
527.662, 9079.160
528.144, 9107.189
528.627, 9202.625
529.109, 9321.279
529.591, 9403.511
530.073, 9461.889
530.555, 9536.549
531.037, 9660.085
531.519, 9799.523
532.001, 9948.618
532.484, 10113.380
532.966, 10211.990
533.448, 10193.940
533.930, 10113.050
534.412, 10009.340
534.894, 9880.434
535.376, 9737.522
535.858, 9564.796
536.340, 9384.362
536.823, 9241.357
537.305, 9145.449
537.787, 9062.540
538.269, 8978.176
538.751, 8897.537
539.233, 8855.669
539.715, 8856.385
540.197, 8872.867
540.679, 8889.674
541.162, 8907.397
541.644, 8927.879
542.126, 8951.273
542.608, 8977.054
543.090, 9009.971
543.572, 9044.106
544.054, 9066.071
544.536, 9066.245
545.018, 9062.200
545.501, 9066.805
545.983, 9078.238
546.465, 9092.236
546.947, 9114.932
547.429, 9132.806
547.911, 9133.138
548.393, 9114.853
548.875, 9112.227
549.357, 9148.463
549.840, 9188.050
550.322, 9211.307
550.804, 9208.884
551.286, 9212.540
551.768, 9226.900
552.250, 9242.516
552.732, 9246.151
553.214, 9236.489
553.697, 9223.225
554.179, 9208.324
554.661, 9191.284
555.143, 9169.733
555.625, 9143.962
556.107, 9118.449
556.589, 9093.712
557.071, 9071.667
557.554, 9036.686
558.036, 9038.914
558.518, 9000.048
559.000, 9044.493
559.482, 9069.418
559.964, 9080.127
560.446, 9077.386
560.928, 9020.905
561.411, 8970.891
561.893, 8967.987
562.375, 8971.418
562.857, 8957.810
563.339, 8960.856
563.821, 8993.630
564.303, 9048.681
564.785, 9089.164
565.267, 9090.390
565.750, 9123.934
566.232, 9243.667
566.714, 9449.606
567.196, 9542.854
567.678, 9501.772
568.160, 9438.823
568.642, 9458.317
569.124, 9545.639
569.606, 9630.429
570.089, 9697.137
570.571, 9777.713
571.053, 9919.157
571.535, 10101.380
572.017, 10278.430
572.499, 10407.520
572.981, 10548.440
573.463, 10761.540
573.945, 11023.130
574.428, 11259.430
574.910, 11426.660
575.392, 11575.400
575.874, 11723.900
576.356, 11873.240
576.838, 12024.590
577.320, 12194.660
577.802, 12349.680
578.284, 12466.440
578.767, 12532.160
579.249, 12594.730
579.731, 12649.620
580.213, 12713.180
580.695, 12811.720
581.177, 12944.330
581.659, 13088.590
582.141, 13235.650
582.624, 13392.420
583.106, 13582.550
583.588, 13797.050
584.070, 14001.190
584.552, 14183.350
585.034, 14335.320
585.516, 14453.700
585.998, 14537.340
586.481, 14569.690
586.963, 14533.490
587.445, 14449.470
587.927, 14328.530
588.409, 14166.310
588.891, 13984.750
589.373, 13769.490
589.855, 13544.590
590.338, 13331.150
590.820, 13115.380
591.302, 12942.250
591.784, 12823.070
592.266, 12746.810
592.748, 12678.930
593.230, 12616.710
593.712, 12593.550
594.194, 12647.380
594.677, 12742.020
595.159, 12786.070
595.641, 12779.310
596.123, 12720.820
596.605, 12600.390
597.087, 12432.510
597.569, 12221.710
598.051, 11963.610
598.533, 11711.250
599.016, 11505.200
599.498, 11313.890
599.980, 11105.310
600.462, 10824.510
600.944, 10588.180
601.426, 10430.940
601.908, 10325.500
602.390, 10232.660
602.872, 10163.330
603.355, 10085.980
603.837, 9984.600
604.319, 9871.743
604.801, 9798.604
605.283, 9769.333
605.765, 9749.028
606.247, 9720.296
606.729, 9684.842
607.211, 9645.254
607.694, 9602.196
608.176, 9562.229
608.658, 9532.714
609.140, 9509.345
609.622, 9487.136
610.104, 9464.937
610.586, 9443.896
611.068, 9428.965
611.551, 9413.674
612.033, 9390.202
612.515, 9323.937
612.997, 9288.593
613.479, 9318.822
613.961, 9384.620
614.443, 9416.594
614.925, 9395.539
615.407, 9379.939
615.890, 9392.801
616.372, 9426.359
616.854, 9426.918
617.336, 9391.164
617.818, 9355.943
618.300, 9351.330
618.782, 9366.420
619.265, 9370.514
619.747, 9362.192
620.229, 9346.653
620.711, 9320.816
621.193, 9293.387
621.675, 9276.824
622.157, 9279.231
622.639, 9278.466
623.121, 9260.405
623.604, 9234.701
624.086, 9214.149
624.568, 9203.006
625.050, 9194.674
625.532, 9187.770
626.014, 9183.137
626.496, 9183.505
626.978, 9189.860
627.460, 9199.055
627.943, 9213.737
628.425, 9230.330
628.907, 9223.773
629.389, 9193.315
629.871, 9171.936
630.353, 9191.040
630.835, 9233.557
631.317, 9269.907
631.799, 9298.313
632.282, 9314.279
632.764, 9301.850
633.246, 9281.621
633.728, 9275.863
634.210, 9298.950
634.692, 9317.127
635.174, 9310.131
635.656, 9296.877
