##NAMES=Hydrocerussite
##RRUFFID=R080104
##IDEAL CHEMISTRY=Pb^2+^_3_(CO_3_)_2_(OH)_2_
##LOCALITY=St. Anthony deposit, Tiger, Mammoth District, Pinal County, Arizona
##OWNER=RRUFF
##SOURCE=Evan Jones
##DESCRIPTION=Colorless pyramidal crystals associated with diaboleite
##STATUS=The identification of this mineral has been confirmed only by single crystal X-ray diffraction.
##URL=rruff.info/R080104
91.87140, 0.0000000E+00
92.35352, 134.7374
92.83563, 122.3814
93.31775, 117.1199
93.79987, 120.8274
94.28198, 131.8812
94.76410, 145.7662
95.24622, 161.5475
95.72833, 179.6788
96.21045, 200.4529
96.69257, 223.9130
97.17468, 250.6578
97.65680, 280.2798
98.13892, 312.9218
98.62103, 350.8188
99.10315, 392.8864
99.58527, 439.9970
100.0674, 497.7885
100.5495, 567.9005
101.0316, 644.0145
101.5137, 714.6940
101.9958, 775.6201
102.4780, 848.0833
102.9601, 940.2394
103.4422, 1054.944
103.9243, 1169.312
104.4064, 1280.450
104.8885, 1393.681
105.3707, 1521.752
105.8528, 1667.110
106.3349, 1822.417
106.8170, 1985.027
107.2991, 2161.396
107.7813, 2332.989
108.2634, 2500.674
108.7455, 2664.526
109.2276, 2818.747
109.7097, 2964.095
110.1918, 3100.554
110.6740, 3228.310
111.1561, 3342.592
111.6382, 3453.530
112.1203, 3557.108
112.6024, 3656.287
113.0845, 3763.186
113.5667, 3878.015
114.0488, 4001.650
114.5309, 4136.090
115.0130, 4279.772
115.4951, 4435.010
115.9772, 4605.899
116.4594, 4793.544
116.9415, 4984.683
117.4236, 5176.974
117.9057, 5369.622
118.3878, 5560.947
118.8699, 5756.554
119.3521, 5948.231
119.8342, 6135.567
120.3163, 6319.025
120.7984, 6491.919
121.2805, 6648.462
121.7626, 6791.786
122.2448, 6927.240
122.7269, 7061.367
123.2090, 7186.881
123.6911, 7296.904
124.1732, 7390.564
124.6553, 7469.333
125.1375, 7533.158
125.6196, 7582.833
126.1017, 7620.859
126.5838, 7651.174
127.0659, 7670.359
127.5480, 7672.065
128.0302, 7654.204
128.5123, 7621.385
128.9944, 7578.578
129.4765, 7525.887
129.9586, 7464.299
130.4407, 7390.696
130.9229, 7307.650
131.4050, 7224.564
131.8871, 7143.992
132.3692, 7065.908
132.8513, 6991.118
133.3334, 6908.790
133.8156, 6800.818
134.2977, 6680.033
134.7798, 6569.861
135.2619, 6466.057
135.7440, 6366.856
136.2261, 6274.024
136.7083, 6187.182
137.1904, 6105.795
137.6725, 6031.034
138.1546, 5964.518
138.6367, 5907.334
139.1188, 5850.658
139.6010, 5790.261
140.0831, 5726.321
140.5652, 5670.592
141.0473, 5624.833
141.5294, 5583.537
142.0115, 5539.228
142.4937, 5487.500
142.9758, 5441.615
143.4579, 5405.836
143.9400, 5382.407
144.4221, 5357.620
144.9042, 5329.516
145.3864, 5300.792
145.8685, 5276.796
146.3506, 5258.419
146.8327, 5242.868
147.3148, 5229.000
147.7969, 5216.426
148.2791, 5206.500
148.7612, 5199.541
149.2433, 5195.209
149.7254, 5192.641
150.2075, 5189.787
150.6896, 5190.589
151.1718, 5196.802
151.6539, 5214.349
152.1360, 5228.761
152.6181, 5236.945
153.1002, 5241.416
153.5823, 5249.622
154.0645, 5263.710
154.5466, 5280.443
155.0287, 5298.310
155.5108, 5319.755
155.9929, 5339.375
156.4750, 5354.929
156.9572, 5367.444
157.4393, 5380.910
157.9214, 5396.127
158.4035, 5412.640
158.8856, 5430.200
159.3677, 5449.790
159.8499, 5469.475
160.3320, 5490.379
160.8141, 5511.741
161.2962, 5528.687
161.7783, 5534.472
162.2604, 5537.385
162.7426, 5544.263
163.2247, 5564.583
163.7068, 5582.808
164.1889, 5590.833
164.6710, 5589.141
165.1531, 5586.370
165.6353, 5587.508
166.1174, 5589.474
166.5995, 5588.953
167.0816, 5587.409
167.5637, 5580.983
168.0458, 5566.380
168.5280, 5543.678
169.0101, 5516.656
169.4922, 5488.790
169.9743, 5458.133
170.4564, 5422.108
170.9385, 5377.250
171.4207, 5328.041
171.9028, 5278.858
172.3849, 5230.249
172.8670, 5178.402
173.3491, 5119.356
173.8312, 5054.711
174.3134, 4987.212
174.7955, 4917.136
175.2776, 4846.003
175.7597, 4776.789
176.2418, 4709.465
176.7239, 4641.251
177.2061, 4566.920
177.6882, 4487.712
178.1703, 4408.511
178.6524, 4329.917
179.1345, 4252.234
179.6166, 4177.772
180.0988, 4106.378
180.5809, 4035.676
181.0630, 3961.720
181.5451, 3885.035
182.0272, 3810.937
182.5093, 3741.684
182.9915, 3676.137
183.4736, 3613.053
183.9557, 3551.881
184.4378, 3492.579
184.9199, 3433.134
185.4020, 3374.786
185.8842, 3318.591
186.3663, 3267.031
186.8484, 3218.637
187.3305, 3169.945
187.8126, 3119.948
188.2947, 3070.199
188.7769, 3022.166
189.2590, 2975.905
189.7411, 2932.698
190.2232, 2893.714
190.7053, 2858.573
191.1874, 2823.832
191.6696, 2788.867
192.1517, 2754.148
192.6338, 2719.956
193.1159, 2686.259
193.5980, 2653.940
194.0801, 2623.603
194.5623, 2595.305
195.0444, 2568.230
195.5265, 2542.711
196.0086, 2518.094
196.4907, 2492.949
196.9728, 2467.168
197.4550, 2441.618
197.9371, 2416.127
198.4192, 2390.642
198.9013, 2368.377
199.3834, 2350.310
199.8655, 2334.953
200.3477, 2318.454
200.8298, 2300.630
201.3119, 2282.625
201.7940, 2264.616
202.2761, 2246.491
202.7582, 2230.023
203.2404, 2216.066
203.7225, 2203.379
204.2046, 2188.090
204.6867, 2169.436
205.1688, 2150.785
205.6509, 2134.765
206.1331, 2121.825
206.6152, 2107.931
207.0973, 2092.266
207.5794, 2075.674
208.0615, 2060.814
208.5436, 2048.014
209.0258, 2036.018
209.5079, 2024.296
209.9900, 2012.998
210.4721, 2001.380
210.9542, 1989.103
211.4363, 1976.537
211.9185, 1965.136
212.4006, 1955.407
212.8827, 1945.604
213.3648, 1934.505
213.8469, 1921.117
214.3290, 1909.703
214.8112, 1901.193
215.2933, 1894.763
215.7754, 1887.213
216.2575, 1878.306
216.7396, 1868.663
217.2217, 1858.450
217.7039, 1847.135
218.1860, 1837.034
218.6681, 1828.836
219.1502, 1821.945
219.6323, 1814.138
220.1144, 1804.842
220.5966, 1795.765
221.0787, 1788.283
221.5608, 1783.646
222.0429, 1777.156
222.5250, 1767.640
223.0071, 1756.200
223.4893, 1747.272
223.9714, 1741.526
224.4535, 1737.146
224.9356, 1733.380
225.4177, 1731.108
225.8998, 1727.269
226.3820, 1720.911
226.8641, 1712.957
227.3462, 1706.833
227.8283, 1703.080
228.3104, 1700.304
228.7925, 1698.065
229.2747, 1697.191
229.7568, 1694.678
230.2389, 1689.303
230.7210, 1682.350
231.2031, 1678.408
231.6852, 1679.667
232.1674, 1680.679
232.6495, 1678.468
233.1316, 1670.711
233.6137, 1664.920
234.0958, 1661.539
234.5779, 1660.235
235.0601, 1660.449
235.5422, 1663.777
236.0243, 1666.328
236.5064, 1666.154
236.9885, 1661.590
237.4706, 1657.978
237.9528, 1655.438
238.4349, 1653.869
238.9170, 1653.017
239.3991, 1652.627
239.8812, 1653.328
240.3633, 1655.527
240.8455, 1659.873
241.3276, 1664.125
241.8097, 1668.312
242.2918, 1672.337
242.7739, 1675.710
243.2560, 1677.139
243.7382, 1679.920
244.2203, 1685.430
244.7024, 1694.435
245.1845, 1704.024
245.6666, 1714.151
246.1487, 1724.869
246.6309, 1736.556
247.1130, 1749.599
247.5951, 1763.003
248.0772, 1775.852
248.5593, 1787.127
249.0414, 1801.937
249.5236, 1821.611
250.0057, 1843.938
250.4878, 1865.498
250.9699, 1885.071
251.4520, 1906.124
251.9341, 1929.781
252.4163, 1956.700
252.8984, 1983.356
253.3805, 2008.934
253.8626, 2035.106
254.3447, 2063.649
254.8268, 2095.672
255.3090, 2128.659
255.7911, 2161.734
256.2732, 2195.079
256.7553, 2228.082
257.2374, 2259.938
257.7195, 2292.396
258.2017, 2327.951
258.6838, 2368.399
259.1659, 2408.579
259.6480, 2447.841
260.1301, 2485.864
260.6122, 2522.370
261.0944, 2556.140
261.5765, 2590.113
262.0586, 2628.487
262.5407, 2673.924
263.0228, 2716.063
263.5049, 2751.420
263.9871, 2780.610
264.4692, 2811.463
264.9513, 2845.674
265.4334, 2879.299
265.9155, 2909.243
266.3976, 2934.318
266.8798, 2958.099
267.3619, 2981.732
267.8440, 3004.800
268.3261, 3021.935
268.8082, 3032.039
269.2903, 3038.476
269.7725, 3044.634
270.2546, 3051.824
270.7367, 3052.248
271.2188, 3043.835
271.7009, 3028.017
272.1830, 3010.552
272.6652, 2991.985
273.1473, 2970.565
273.6294, 2944.373
274.1115, 2912.816
274.5936, 2880.378
275.0757, 2848.272
275.5579, 2814.723
276.0400, 2774.692
276.5221, 2726.923
277.0042, 2677.683
277.4863, 2630.942
277.9684, 2586.996
278.4506, 2540.950
278.9327, 2491.510
279.4148, 2441.057
279.8969, 2395.553
280.3790, 2355.835
280.8611, 2315.346
281.3433, 2268.932
281.8254, 2216.503
282.3075, 2169.886
282.7896, 2129.553
283.2717, 2094.163
283.7538, 2064.156
284.2360, 2039.902
284.7181, 2011.738
285.2002, 1972.018
285.6823, 1922.678
286.1644, 1881.609
286.6465, 1850.005
287.1287, 1823.656
287.6108, 1798.192
288.0929, 1773.598
288.5750, 1749.800
289.0571, 1726.740
289.5392, 1704.349
290.0214, 1682.513
290.5035, 1661.187
290.9856, 1641.458
291.4677, 1625.152
291.9498, 1611.791
292.4319, 1598.970
292.9141, 1586.203
293.3962, 1573.257
293.8783, 1559.035
294.3604, 1543.580
294.8425, 1528.795
295.3246, 1516.125
295.8068, 1505.310
296.2889, 1495.828
296.7710, 1487.911
297.2531, 1480.692
297.7352, 1472.710
298.2173, 1464.100
298.6995, 1455.681
299.1816, 1448.017
299.6637, 1441.007
300.1458, 1434.709
300.6279, 1429.210
301.1100, 1424.064
301.5922, 1418.618
302.0743, 1413.014
302.5564, 1407.898
303.0385, 1404.101
303.5206, 1400.824
304.0027, 1396.889
304.4849, 1392.171
304.9670, 1386.781
305.4491, 1380.118
305.9312, 1372.851
306.4133, 1366.591
306.8954, 1363.602
307.3776, 1361.253
307.8597, 1356.554
308.3418, 1349.090
308.8239, 1341.696
309.3060, 1337.207
309.7881, 1334.030
310.2703, 1329.785
310.7524, 1322.197
311.2345, 1314.117
311.7166, 1307.817
312.1987, 1303.276
312.6808, 1298.800
313.1630, 1293.105
313.6451, 1287.034
314.1272, 1281.443
314.6093, 1277.005
315.0914, 1272.780
315.5735, 1268.501
316.0557, 1264.130
316.5378, 1259.517
317.0199, 1255.045
317.5020, 1250.069
317.9841, 1243.923
318.4662, 1235.520
318.9484, 1227.541
319.4305, 1221.047
319.9126, 1215.673
320.3947, 1210.445
320.8768, 1205.409
321.3589, 1200.210
321.8411, 1194.420
322.3232, 1187.291
322.8053, 1181.444
323.2874, 1178.624
323.7695, 1177.163
324.2516, 1174.425
324.7338, 1168.912
325.2159, 1163.064
325.6980, 1157.636
326.1801, 1152.782
326.6622, 1147.742
327.1443, 1142.066
327.6265, 1136.324
328.1086, 1131.076
328.5907, 1126.607
329.0728, 1122.395
329.5549, 1118.369
330.0370, 1114.516
330.5192, 1110.965
331.0013, 1107.723
331.4834, 1104.756
331.9655, 1102.060
332.4476, 1100.055
332.9297, 1097.530
333.4119, 1093.892
333.8940, 1089.600
334.3761, 1086.896
334.8582, 1086.718
335.3403, 1086.699
335.8224, 1085.574
336.3046, 1082.859
336.7867, 1080.400
337.2688, 1078.166
337.7509, 1076.227
338.2330, 1074.901
338.7151, 1074.586
339.1973, 1073.629
339.6794, 1070.690
340.1615, 1065.585
340.6436, 1063.660
341.1257, 1065.787
341.6078, 1069.275
342.0900, 1070.629
342.5721, 1069.691
343.0542, 1068.664
343.5363, 1067.904
344.0184, 1067.608
344.5005, 1069.040
344.9827, 1072.422
345.4648, 1075.875
345.9469, 1077.384
346.4290, 1077.224
346.9111, 1077.438
347.3932, 1078.459
347.8754, 1079.964
348.3575, 1081.148
348.8396, 1082.057
349.3217, 1083.490
349.8038, 1086.241
350.2859, 1089.868
350.7681, 1093.393
351.2502, 1096.734
351.7323, 1099.784
352.2144, 1102.156
352.6965, 1104.099
353.1786, 1106.290
353.6608, 1109.511
354.1429, 1112.991
354.6250, 1115.401
355.1071, 1116.653
355.5892, 1118.541
356.0714, 1122.840
356.5535, 1128.609
357.0356, 1134.459
357.5177, 1140.438
357.9998, 1145.901
358.4819, 1149.589
358.9641, 1151.922
359.4462, 1155.156
359.9283, 1160.792
360.4104, 1167.652
360.8925, 1174.745
361.3746, 1181.684
361.8568, 1189.083
362.3389, 1197.412
362.8210, 1206.338
363.3031, 1215.311
363.7852, 1223.795
364.2673, 1232.550
364.7495, 1241.959
365.2316, 1252.167
365.7137, 1262.674
366.1958, 1272.563
366.6779, 1282.873
367.1600, 1294.923
367.6422, 1310.045
368.1243, 1325.685
368.6064, 1341.092
369.0885, 1356.259
369.5706, 1372.792
370.0527, 1392.053
370.5349, 1411.733
371.0170, 1430.520
371.4991, 1447.008
371.9812, 1464.662
372.4633, 1483.777
372.9454, 1504.311
373.4276, 1525.583
373.9097, 1547.537
374.3918, 1570.790
374.8739, 1595.348
375.3560, 1621.799
375.8381, 1648.213
376.3203, 1674.471
376.8024, 1700.450
377.2845, 1725.435
377.7666, 1748.751
378.2487, 1773.783
378.7308, 1801.843
379.2130, 1832.558
379.6951, 1860.392
380.1772, 1885.094
380.6593, 1909.353
381.1414, 1936.538
381.6235, 1966.062
382.1057, 1994.810
382.5878, 2021.876
383.0699, 2047.842
383.5520, 2073.248
384.0341, 2098.404
384.5162, 2124.054
384.9984, 2152.224
385.4805, 2181.282
385.9626, 2208.067
386.4447, 2232.255
386.9268, 2254.216
387.4089, 2274.183
387.8911, 2292.289
388.3732, 2308.372
388.8553, 2321.130
389.3374, 2332.656
389.8195, 2345.222
390.3016, 2358.556
390.7838, 2370.627
391.2659, 2379.890
391.7480, 2387.195
392.2301, 2393.537
392.7122, 2400.325
393.1943, 2404.698
393.6765, 2404.307
394.1586, 2400.290
394.6407, 2395.869
395.1228, 2393.531
395.6049, 2390.042
396.0870, 2383.363
396.5692, 2372.252
397.0513, 2361.415
397.5334, 2352.998
398.0155, 2344.888
398.4976, 2334.561
398.9797, 2320.060
399.4619, 2305.006
399.9440, 2289.823
400.4261, 2274.496
400.9082, 2259.453
401.3903, 2245.940
401.8724, 2231.459
402.3546, 2214.112
402.8367, 2192.375
403.3188, 2171.516
403.8009, 2152.314
404.2830, 2133.955
404.7651, 2114.115
405.2473, 2092.433
405.7294, 2070.913
406.2115, 2050.618
406.6936, 2031.796
407.1757, 2011.889
407.6578, 1990.802
408.1400, 1968.775
408.6221, 1945.198
409.1042, 1920.128
409.5863, 1896.166
410.0684, 1874.320
410.5505, 1853.806
411.0327, 1831.463
411.5148, 1807.255
411.9969, 1783.144
412.4790, 1760.544
412.9611, 1738.775
413.4432, 1716.590
413.9254, 1693.541
414.4075, 1670.273
414.8896, 1647.742
415.3717, 1625.471
415.8538, 1602.446
416.3359, 1577.178
416.8181, 1551.752
417.3002, 1528.870
417.7823, 1508.200
418.2644, 1487.517
418.7465, 1464.598
419.2286, 1440.904
419.7108, 1418.159
420.1929, 1397.168
420.6750, 1376.246
421.1571, 1354.167
421.6392, 1331.488
422.1213, 1310.244
422.6035, 1292.298
423.0856, 1274.822
423.5677, 1256.218
424.0498, 1235.773
424.5319, 1216.878
425.0140, 1201.129
425.4962, 1186.290
425.9783, 1170.004
426.4604, 1150.680
426.9425, 1132.263
427.4246, 1115.340
427.9067, 1099.716
428.3889, 1085.022
428.8710, 1071.162
429.3531, 1058.447
429.8352, 1047.111
430.3173, 1037.632
430.7994, 1027.854
431.2816, 1017.669
431.7637, 1007.242
432.2458, 996.4765
432.7279, 985.2267
433.2100, 975.9367
433.6921, 969.9614
434.1743, 966.4981
434.6564, 962.7965
435.1385, 958.7853
435.6206, 955.0759
436.1027, 952.3915
436.5848, 950.4189
437.0670, 948.3132
437.5491, 945.9082
438.0312, 943.3586
438.5133, 941.4901
438.9954, 939.7070
439.4775, 936.3313
439.9597, 931.0129
440.4418, 923.4218
440.9239, 913.0939
441.4060, 900.0119
441.8881, 884.9410
442.3702, 867.4861
442.8524, 848.8207
443.3345, 829.9023
443.8166, 810.3242
444.2987, 791.3108
444.7808, 773.3260
445.2629, 756.1878
445.7451, 739.2416
446.2272, 721.9427
446.7093, 705.5714
447.1914, 690.8157
447.6735, 678.1260
448.1556, 665.4899
448.6378, 652.1301
449.1199, 639.4619
449.6020, 629.0455
450.0841, 622.1363
450.5662, 615.2961
451.0483, 608.0109
451.5305, 600.3898
452.0126, 593.0557
452.4947, 585.8992
452.9768, 579.1785
453.4589, 572.3924
453.9410, 565.4378
454.4232, 562.5048
454.9053, 564.8113
455.3874, 567.2585
455.8695, 561.9297
456.3516, 549.9268
456.8337, 539.6660
457.3159, 534.4634
457.7980, 531.9547
458.2801, 527.8988
458.7622, 522.5303
459.2443, 517.3256
459.7264, 513.5356
460.2086, 510.4726
460.6907, 507.2901
461.1728, 503.8403
461.6549, 500.4523
462.1370, 497.4109
462.6191, 494.6271
463.1013, 492.0404
463.5834, 489.5515
464.0655, 487.3161
464.5476, 485.7510
465.0297, 484.7164
465.5118, 483.0023
465.9940, 479.1780
466.4761, 475.4168
466.9582, 472.9777
467.4403, 472.8357
467.9224, 472.3999
468.4045, 471.6618
468.8867, 470.5827
469.3688, 469.0540
469.8509, 466.9113
470.3330, 464.6623
470.8151, 462.3733
471.2972, 460.0636
471.7794, 457.9142
472.2615, 455.9233
472.7436, 454.0533
473.2257, 452.1314
473.7078, 450.1412
474.1899, 448.9614
474.6721, 448.7972
475.1542, 449.0420
475.6363, 448.8807
476.1184, 448.3435
476.6005, 447.6336
477.0826, 446.8759
477.5648, 445.9661
478.0469, 444.4449
478.5290, 442.4137
479.0111, 440.7956
479.4932, 440.7716
479.9753, 441.2986
480.4575, 441.0745
480.9396, 439.6733
481.4217, 438.1516
481.9038, 437.1058
482.3859, 436.3824
482.8680, 435.7728
483.3502, 435.2463
483.8323, 434.7791
484.3144, 434.3961
484.7965, 434.0870
485.2786, 433.7080
485.7607, 433.4012
486.2429, 432.8828
486.7250, 431.9801
487.2071, 430.4424
487.6892, 429.0523
488.1713, 427.6690
488.6534, 426.5404
489.1356, 426.0915
489.6177, 426.5813
490.0998, 427.0222
490.5819, 427.1934
491.0640, 427.1416
491.5461, 427.1192
492.0283, 427.1636
492.5104, 427.0201
492.9925, 426.3842
493.4746, 425.3638
493.9567, 424.5720
494.4388, 424.0569
494.9210, 423.6670
495.4031, 423.2671
495.8852, 422.8447
496.3673, 422.3525
496.8494, 421.5822
497.3315, 420.9049
497.8137, 420.7338
498.2958, 420.9774
498.7779, 421.2853
499.2600, 421.5948
499.7421, 421.8183
500.2242, 421.4782
500.7064, 419.9976
501.1885, 420.3696
501.6706, 426.7859
502.1527, 434.0448
502.6348, 436.7730
503.1169, 429.6525
503.5991, 423.4879
504.0812, 419.3285
504.5633, 416.9878
505.0454, 415.9340
505.5275, 417.1442
506.0096, 417.9725
506.4918, 417.0423
506.9739, 414.0863
507.4560, 412.7779
507.9381, 413.6075
508.4202, 414.7556
508.9023, 414.1032
509.3845, 411.7745
509.8666, 409.9878
510.3487, 409.2847
510.8308, 409.0672
511.3129, 408.3060
511.7950, 407.1228
512.2772, 406.0788
512.7593, 405.7342
513.2414, 405.5543
513.7235, 404.8684
514.2056, 403.6743
514.6877, 402.3040
515.1699, 400.7068
515.6520, 399.1632
516.1341, 397.9365
516.6162, 397.1349
517.0983, 396.5404
517.5804, 396.2824
518.0626, 396.1338
518.5447, 395.7243
519.0268, 394.5590
519.5089, 393.5937
519.9910, 393.3184
520.4731, 393.6391
520.9553, 392.9879
521.4374, 390.7817
521.9195, 388.4926
522.4016, 386.9856
522.8837, 386.4485
523.3658, 385.8311
523.8480, 385.1722
524.3301, 384.3412
524.8122, 383.0524
525.2943, 381.3500
525.7764, 379.7806
526.2585, 378.4149
526.7407, 377.3623
527.2228, 376.9307
527.7049, 377.0375
528.1870, 377.2024
528.6691, 377.4087
529.1512, 377.3698
529.6334, 376.6086
530.1155, 375.0611
530.5976, 373.5075
531.0797, 372.3031
531.5618, 371.3481
532.0439, 370.5694
532.5261, 370.0913
533.0082, 369.5576
533.4903, 368.9485
533.9724, 368.2092
534.4545, 367.2038
534.9366, 365.5139
535.4188, 364.0333
535.9009, 362.9916
536.3830, 362.3844
536.8651, 361.9632
537.3472, 361.8850
537.8293, 361.7018
538.3115, 361.0668
538.7936, 359.9504
539.2757, 358.8912
539.7578, 357.8993
540.2399, 357.0423
540.7220, 356.4994
541.2042, 356.2097
541.6863, 355.7907
542.1684, 355.1115
542.6505, 354.2477
543.1326, 353.1990
543.6147, 352.0275
544.0969, 350.9507
544.5790, 350.0400
545.0611, 349.3348
545.5432, 348.9862
546.0253, 349.0283
546.5074, 348.8988
546.9896, 348.4774
547.4717, 347.7199
547.9538, 346.5702
548.4359, 344.2171
548.9180, 342.5810
549.4001, 342.3145
549.8823, 342.6874
550.3644, 342.3999
550.8465, 340.8428
551.3286, 339.8152
551.8107, 340.0419
552.2928, 341.2522
552.7750, 341.3452
553.2571, 340.1571
553.7392, 338.6788
554.2213, 337.4676
554.7034, 336.5070
555.1855, 335.5891
555.6677, 334.6729
556.1498, 334.0182
556.6319, 334.4077
557.1140, 335.2155
557.5961, 335.0291
558.0782, 332.8516
558.5604, 330.5536
559.0425, 329.8468
559.5246, 330.1778
560.0067, 330.3265
560.4888, 329.6207
560.9709, 328.7800
561.4531, 328.1209
561.9352, 327.6548
562.4173, 327.1956
562.8994, 326.8714
563.3815, 326.4238
563.8636, 325.6700
564.3458, 324.3790
564.8279, 323.4555
565.3100, 323.0414
565.7921, 322.8071
566.2742, 322.2941
566.7563, 321.4573
567.2385, 320.8164
567.7206, 320.6023
568.2027, 320.5020
568.6848, 319.6922
569.1669, 318.2707
569.6490, 317.0517
570.1312, 316.6685
570.6133, 316.6457
571.0954, 316.2305
571.5775, 315.4345
572.0596, 314.7778
572.5417, 314.9515
573.0239, 315.1955
573.5060, 314.7205
573.9881, 312.9613
574.4702, 311.6573
574.9523, 311.7711
575.4344, 312.4532
575.9166, 312.6284
576.3987, 311.8586
576.8808, 311.0528
577.3629, 310.2230
577.8450, 309.4299
578.3271, 308.9150
578.8093, 308.8083
579.2914, 308.5754
579.7735, 307.8468
580.2556, 306.7486
580.7377, 306.2789
581.2198, 306.4752
581.7020, 306.8866
582.1841, 307.3946
582.6662, 307.8067
583.1483, 307.5428
583.6304, 306.4218
584.1125, 305.2139
584.5947, 304.5967
585.0768, 304.3364
585.5589, 304.0927
586.0410, 303.8234
586.5231, 303.4789
587.0052, 303.0915
587.4874, 302.6248
587.9695, 301.9813
588.4516, 300.6239
