##NAMES=Hydroxylapatite
##RRUFFID=R050512
##IDEAL CHEMISTRY=Ca_5_(P^5+^O_4_)_3_OH
##LOCALITY=Moneta Island, Mayeguez, Puerto Rico, USA
##OWNER=RRUFF
##SOURCE=American Museum of Natural History
##DESCRIPTION=Pale pink consolidated powder
##STATUS=The identification of this mineral has been confirmed by X-ray diffraction and chemical analysis
##URL=rruff.info/R050512
##MEASURED CHEMISTRY=Ca_5.00_(PO_4_)_3_((OH)_0.67_F_0.33_)
90.92609, 0.0000000E+00
91.40820, 592.4183
91.89032, 590.8778
92.37244, 591.6921
92.85455, 594.4910
93.33667, 597.0637
93.81879, 596.2742
94.30090, 593.7600
94.78302, 594.9127
95.26514, 602.4100
95.74725, 612.9719
96.22937, 618.9338
96.71149, 619.9391
97.19360, 619.7924
97.67572, 621.4132
98.15784, 624.7738
98.63995, 630.2501
99.12207, 638.5911
99.60419, 649.3685
100.0863, 659.3221
100.5684, 668.1593
101.0505, 676.8010
101.5327, 686.4553
102.0148, 697.0126
102.4969, 708.6387
102.9790, 720.2628
103.4611, 730.2363
103.9432, 749.1336
104.4253, 779.0282
104.9075, 816.6796
105.3896, 854.2042
105.8717, 887.0723
106.3538, 926.4696
106.8359, 977.1043
107.3180, 1038.252
107.8002, 1111.246
108.2823, 1200.350
108.7644, 1301.907
109.2465, 1406.301
109.7286, 1504.797
110.2107, 1611.014
110.6929, 1732.688
111.1750, 1865.893
111.6571, 2017.559
112.1392, 2188.478
112.6213, 2378.472
113.1034, 2589.463
113.5856, 2818.744
114.0677, 3073.824
114.5498, 3357.690
115.0319, 3663.089
115.5140, 4007.094
115.9961, 4400.254
116.4783, 4842.161
116.9604, 5299.734
117.4425, 5782.280
117.9246, 6273.350
118.4067, 6750.619
118.8888, 7207.518
119.3710, 7652.608
119.8531, 8096.544
120.3352, 8540.521
120.8173, 8960.630
121.2994, 9327.468
121.7815, 9657.265
122.2637, 9979.610
122.7458, 10273.26
123.2279, 10579.93
123.7100, 10939.75
124.1921, 11359.55
124.6742, 11821.56
125.1564, 12313.26
125.6385, 12834.61
126.1206, 13387.97
126.6027, 13968.66
127.0848, 14578.90
127.5669, 15223.46
128.0491, 15911.18
128.5312, 16616.58
129.0133, 17312.38
129.4954, 17992.69
129.9775, 18661.35
130.4596, 19324.71
130.9418, 19974.86
131.4239, 20606.87
131.9060, 21221.33
132.3881, 21817.41
132.8702, 22381.89
133.3523, 22917.06
133.8345, 23427.04
134.3166, 23910.74
134.7987, 24372.24
135.2808, 24819.27
135.7629, 25256.20
136.2450, 25687.26
136.7272, 26122.04
137.2093, 26564.83
137.6914, 27005.78
138.1735, 27430.70
138.6556, 27831.24
139.1377, 28246.07
139.6199, 28688.18
140.1020, 29153.67
140.5841, 29640.78
141.0662, 30145.12
141.5483, 30669.13
142.0304, 31214.95
142.5126, 31775.84
142.9947, 32350.85
143.4768, 32835.54
143.9589, 33159.16
144.4410, 33477.84
144.9231, 33799.95
145.4053, 34115.19
145.8874, 34412.89
146.3695, 34678.44
146.8516, 34947.18
147.3337, 35227.23
147.8158, 35537.06
148.2980, 35824.74
148.7801, 36083.50
149.2622, 36324.01
149.7443, 36560.65
150.2264, 36817.76
150.7085, 37054.30
151.1907, 37252.95
151.6728, 37401.63
152.1549, 37541.42
152.6370, 37663.66
153.1191, 37776.96
153.6012, 37900.15
154.0834, 38041.77
154.5655, 38185.76
155.0476, 38327.14
155.5297, 38462.90
156.0118, 38593.98
156.4939, 38718.29
156.9761, 38837.71
157.4582, 38955.00
157.9403, 39055.95
158.4224, 39164.36
158.9045, 39295.55
159.3866, 39480.87
159.8688, 39654.91
160.3509, 39791.41
160.8330, 39898.19
161.3151, 40010.27
161.7972, 40149.23
162.2793, 40294.32
162.7615, 40429.68
163.2436, 40540.70
163.7257, 40651.19
164.2078, 40778.93
164.6899, 40919.94
165.1720, 41046.46
165.6541, 41136.00
166.1363, 41207.42
166.6184, 41279.30
167.1005, 41366.03
167.5826, 41447.91
168.0647, 41507.15
168.5468, 41545.59
169.0290, 41589.94
169.5111, 41667.89
169.9932, 41758.96
170.4753, 41836.51
170.9574, 41871.76
171.4395, 41900.54
171.9217, 41958.95
172.4038, 42047.21
172.8859, 42132.79
173.3680, 42184.83
173.8501, 42217.87
174.3322, 42258.25
174.8144, 42309.87
175.2965, 42378.49
175.7786, 42480.48
176.2607, 42618.26
176.7428, 42749.08
177.2249, 42821.57
177.7071, 42855.15
178.1892, 42899.70
178.6713, 42989.11
179.1534, 43099.61
179.6355, 43190.90
180.1176, 43260.82
180.5998, 43324.69
181.0819, 43403.83
181.5640, 43491.93
182.0461, 43570.45
182.5282, 43618.71
183.0103, 43651.08
183.4925, 43704.91
183.9746, 43784.93
184.4567, 43867.27
184.9388, 43918.38
185.4209, 43943.56
185.9030, 43970.66
186.3852, 44020.39
186.8673, 44084.46
187.3494, 44135.17
187.8315, 44171.27
188.3136, 44195.88
188.7957, 44206.03
189.2779, 44203.69
189.7600, 44212.85
190.2421, 44249.68
190.7242, 44309.99
191.2063, 44372.79
191.6884, 44438.50
192.1706, 44501.43
192.6527, 44552.20
193.1348, 44589.82
193.6169, 44626.63
194.0990, 44674.21
194.5811, 44729.92
195.0633, 44761.00
195.5454, 44758.07
196.0275, 44744.11
196.5096, 44762.15
196.9917, 44814.02
197.4738, 44876.52
197.9560, 44950.06
198.4381, 45035.06
198.9202, 45078.24
199.4023, 45065.25
199.8844, 45028.46
200.3665, 45034.21
200.8487, 45089.02
201.3308, 45151.62
201.8129, 45203.16
202.2950, 45243.57
202.7771, 45276.29
203.2592, 45295.68
203.7414, 45314.11
204.2235, 45363.38
204.7056, 45450.37
205.1877, 45537.25
205.6698, 45607.44
206.1519, 45660.82
206.6341, 45689.89
207.1162, 45683.30
207.5983, 45660.53
208.0804, 45666.66
208.5625, 45706.65
209.0446, 45758.79
209.5268, 45818.39
210.0089, 45891.89
210.4910, 45939.71
210.9731, 45948.63
211.4552, 45940.62
211.9373, 45971.09
212.4195, 46053.50
212.9016, 46141.24
213.3837, 46212.21
213.8658, 46262.75
214.3479, 46312.42
214.8300, 46364.23
215.3121, 46414.24
215.7943, 46450.00
216.2764, 46461.38
216.7585, 46477.63
217.2406, 46513.44
217.7227, 46575.05
218.2048, 46632.87
218.6870, 46688.18
219.1691, 46737.54
219.6512, 46774.26
220.1333, 46795.42
220.6154, 46808.47
221.0975, 46812.50
221.5797, 46795.25
222.0618, 46807.24
222.5439, 46861.77
223.0260, 46940.30
223.5081, 47003.70
223.9902, 47052.11
224.4724, 47087.09
224.9545, 47105.48
225.4366, 47096.99
225.9187, 47105.70
226.4008, 47135.10
226.8829, 47181.11
227.3651, 47237.49
227.8472, 47316.95
228.3293, 47386.20
228.8114, 47426.41
229.2935, 47417.16
229.7757, 47441.32
230.2578, 47513.13
230.7399, 47609.87
231.2220, 47688.73
231.7041, 47742.31
232.1862, 47786.58
232.6684, 47822.19
233.1505, 47837.41
233.6326, 47883.59
234.1147, 47984.84
234.5968, 48103.81
235.0789, 48166.08
235.5611, 48132.51
236.0432, 48106.19
236.5253, 48124.00
237.0074, 48200.19
237.4895, 48270.62
237.9716, 48340.78
238.4538, 48402.42
238.9359, 48438.58
239.4180, 48428.06
239.9001, 48428.09
240.3822, 48461.08
240.8643, 48537.80
241.3465, 48595.60
241.8286, 48626.70
242.3107, 48644.18
242.7928, 48665.66
243.2749, 48689.73
243.7570, 48719.63
244.2392, 48759.11
244.7213, 48811.77
245.2034, 48850.62
245.6855, 48867.16
246.1676, 48877.64
246.6497, 48903.43
247.1319, 48953.77
247.6140, 49003.97
248.0961, 49047.27
248.5782, 49082.88
249.0603, 49127.36
249.5424, 49189.18
250.0246, 49253.26
250.5067, 49299.98
250.9888, 49309.77
251.4709, 49341.66
251.9530, 49413.78
252.4351, 49528.85
252.9173, 49634.27
253.3994, 49731.05
253.8815, 49816.75
254.3636, 49887.71
254.8457, 49936.83
255.3278, 49981.45
255.8100, 50021.66
256.2921, 50057.46
256.7742, 50101.71
257.2563, 50164.11
257.7384, 50221.66
258.2205, 50249.16
258.7026, 50226.41
259.1848, 50228.27
259.6669, 50277.62
260.1490, 50367.18
260.6311, 50423.61
261.1132, 50433.85
261.5953, 50434.37
262.0775, 50450.16
262.5596, 50482.24
263.0417, 50529.68
263.5238, 50600.02
264.0059, 50685.37
264.4880, 50751.05
264.9702, 50792.00
265.4523, 50820.10
265.9344, 50839.34
266.4165, 50844.67
266.8986, 50859.13
267.3807, 50888.70
267.8629, 50927.00
268.3450, 50953.07
268.8271, 50964.00
269.3092, 50971.96
269.7913, 50982.58
270.2734, 50995.37
270.7556, 51020.66
271.2377, 51067.46
271.7198, 51122.88
272.2019, 51148.85
272.6840, 51133.15
273.1661, 51134.13
273.6483, 51189.65
274.1304, 51309.26
274.6125, 51400.43
275.0946, 51451.68
275.5767, 51485.32
276.0588, 51538.28
276.5410, 51609.80
277.0231, 51696.48
277.5052, 51801.98
277.9873, 51926.20
278.4694, 52027.38
278.9515, 52101.27
279.4337, 52157.20
279.9158, 52206.63
280.3979, 52248.74
280.8800, 52286.84
281.3621, 52323.45
281.8442, 52357.95
282.3264, 52377.84
282.8085, 52380.77
283.2906, 52381.21
283.7727, 52397.20
284.2548, 52429.64
284.7369, 52463.71
285.2191, 52495.61
285.7012, 52526.55
286.1833, 52560.66
286.6654, 52598.02
287.1475, 52639.51
287.6296, 52690.63
288.1118, 52749.49
288.5939, 52793.45
289.0760, 52808.60
289.5581, 52811.04
290.0402, 52848.57
290.5223, 52922.21
291.0045, 52993.49
291.4866, 53031.39
291.9687, 53040.95
292.4508, 53045.42
292.9329, 53046.58
293.4150, 53048.98
293.8972, 53066.41
294.3793, 53097.47
294.8614, 53120.73
295.3435, 53112.63
295.8256, 53085.82
296.3077, 53075.00
296.7899, 53086.15
297.2720, 53110.73
297.7541, 53137.14
298.2362, 53166.52
298.7183, 53204.59
299.2004, 53262.98
299.6826, 53329.74
300.1647, 53382.40
300.6468, 53417.02
301.1289, 53445.84
301.6110, 53476.41
302.0931, 53509.91
302.5753, 53551.49
303.0574, 53617.42
303.5395, 53686.01
304.0216, 53724.68
304.5037, 53732.72
304.9858, 53732.87
305.4680, 53738.78
305.9501, 53751.24
306.4322, 53771.41
306.9143, 53806.01
307.3964, 53845.20
307.8785, 53880.69
308.3607, 53913.17
308.8428, 53946.52
309.3249, 53982.79
309.8070, 54021.72
310.2891, 54062.88
310.7712, 54108.15
311.2534, 54152.70
311.7355, 54192.37
312.2176, 54227.65
312.6997, 54260.81
313.1818, 54279.43
313.6639, 54302.55
314.1461, 54349.04
314.6282, 54433.64
315.1103, 54516.42
315.5924, 54581.75
316.0745, 54630.67
316.5566, 54666.32
317.0388, 54666.87
317.5209, 54671.57
318.0030, 54711.33
318.4851, 54803.45
318.9672, 54875.65
319.4493, 54896.41
319.9315, 54885.44
320.4136, 54868.76
320.8957, 54834.32
321.3778, 54813.24
321.8599, 54818.24
322.3420, 54851.24
322.8242, 54893.66
323.3063, 54959.57
323.7884, 55024.43
324.2705, 55066.80
324.7526, 55043.55
325.2347, 55039.84
325.7169, 55079.23
326.1990, 55158.62
326.6811, 55236.26
327.1632, 55332.93
327.6453, 55410.93
328.1274, 55449.07
328.6096, 55385.76
329.0917, 55359.02
329.5738, 55393.48
330.0559, 55469.01
330.5380, 55521.77
331.0201, 55544.66
331.5023, 55552.50
331.9844, 55544.75
332.4665, 55495.80
332.9486, 55496.89
333.4307, 55575.41
333.9128, 55689.46
334.3950, 55765.06
334.8771, 55784.81
335.3592, 55799.45
335.8413, 55823.45
336.3234, 55857.73
336.8055, 55891.40
337.2877, 55924.24
337.7698, 55955.86
338.2519, 55984.01
338.7340, 56004.80
339.2161, 56036.96
339.6982, 56088.49
340.1803, 56155.45
340.6624, 56212.45
341.1446, 56262.22
341.6267, 56295.85
342.1088, 56297.63
342.5909, 56265.84
343.0730, 56255.48
343.5551, 56278.21
344.0373, 56321.10
344.5194, 56355.38
345.0015, 56380.89
345.4836, 56403.60
345.9657, 56424.31
346.4478, 56444.27
346.9300, 56473.26
347.4121, 56514.83
347.8942, 56556.38
348.3763, 56577.69
348.8584, 56582.64
349.3405, 56592.55
349.8227, 56625.01
350.3048, 56668.54
350.7869, 56694.96
351.2690, 56704.34
351.7511, 56715.83
352.2332, 56750.45
352.7154, 56800.34
353.1975, 56846.91
353.6796, 56874.02
354.1617, 56905.07
354.6438, 56978.16
355.1259, 57083.85
355.6081, 57174.76
356.0902, 57198.76
356.5723, 57198.82
357.0544, 57227.16
357.5365, 57302.43
358.0186, 57383.39
358.5008, 57444.66
358.9829, 57490.01
359.4650, 57528.19
359.9471, 57565.26
360.4292, 57595.14
360.9113, 57613.08
361.3935, 57618.02
361.8756, 57619.51
362.3577, 57615.57
362.8398, 57613.90
363.3219, 57623.14
363.8040, 57671.14
364.2862, 57707.64
364.7683, 57708.16
365.2504, 57675.29
365.7325, 57656.11
366.2146, 57663.91
366.6967, 57686.24
367.1789, 57715.36
367.6610, 57773.66
368.1431, 57811.33
368.6252, 57810.72
369.1073, 57785.16
369.5894, 57776.64
370.0716, 57777.79
370.5537, 57803.35
371.0358, 57865.16
371.5179, 57984.39
372.0000, 58073.29
372.4821, 58115.77
372.9643, 58137.36
373.4464, 58174.70
373.9285, 58243.76
374.4106, 58290.36
374.8927, 58288.94
375.3748, 58242.14
375.8570, 58243.45
376.3391, 58304.20
376.8212, 58387.30
377.3033, 58468.68
377.7854, 58549.77
378.2675, 58612.54
378.7497, 58652.28
379.2318, 58675.39
379.7139, 58699.95
380.1960, 58726.88
380.6781, 58746.91
381.1602, 58753.82
381.6424, 58749.37
382.1245, 58736.03
382.6066, 58709.80
383.0887, 58694.92
383.5708, 58733.22
384.0529, 58814.45
384.5351, 58889.79
385.0172, 58938.68
385.4993, 58969.04
385.9814, 58990.36
386.4635, 59002.90
386.9456, 59019.73
387.4278, 59053.49
387.9099, 59097.32
388.3920, 59140.88
388.8741, 59180.84
389.3562, 59219.36
389.8383, 59259.96
390.3205, 59300.88
390.8026, 59336.82
391.2847, 59357.74
391.7668, 59376.80
392.2489, 59407.76
392.7310, 59455.74
393.2132, 59495.46
393.6953, 59508.60
394.1774, 59508.27
394.6595, 59510.28
395.1416, 59513.22
395.6237, 59525.87
396.1059, 59560.10
396.5880, 59613.96
397.0701, 59652.91
397.5522, 59648.08
398.0343, 59641.23
398.5164, 59657.35
398.9986, 59727.15
399.4807, 59783.70
399.9628, 59820.37
400.4449, 59843.39
400.9270, 59866.20
401.4091, 59884.24
401.8913, 59908.23
402.3734, 59942.66
402.8555, 59989.41
403.3376, 60035.20
403.8197, 60076.51
404.3018, 60120.21
404.7840, 60175.60
405.2661, 60247.36
405.7482, 60312.66
406.2303, 60366.36
406.7124, 60409.73
407.1945, 60452.39
407.6767, 60494.70
408.1588, 60530.61
408.6409, 60548.63
409.1230, 60550.55
409.6051, 60573.31
410.0872, 60623.81
410.5694, 60684.04
411.0515, 60726.98
411.5336, 60755.14
412.0157, 60781.17
412.4978, 60816.16
412.9799, 60852.31
413.4621, 60870.70
413.9442, 60872.46
414.4263, 60873.49
414.9084, 60889.71
415.3905, 60913.98
415.8727, 60935.30
416.3548, 60952.72
416.8369, 60964.43
417.3190, 60958.52
417.8011, 60944.45
418.2832, 60947.22
418.7654, 60976.71
419.2475, 61028.25
419.7296, 61107.05
420.2117, 61220.32
420.6938, 61316.62
421.1759, 61362.11
421.6581, 61384.64
422.1402, 61414.39
422.6223, 61474.95
423.1044, 61524.72
423.5865, 61543.30
424.0686, 61535.98
424.5508, 61545.89
425.0329, 61603.70
425.5150, 61658.16
425.9971, 61684.09
426.4792, 61656.67
426.9613, 61653.98
427.4435, 61683.98
427.9256, 61735.55
428.4077, 61794.81
428.8898, 61875.36
429.3719, 61935.29
429.8540, 61960.44
430.3362, 61953.06
430.8183, 61945.22
431.3004, 61937.70
431.7825, 61927.60
432.2646, 61905.26
432.7467, 61870.47
433.2289, 61859.99
433.7110, 61880.90
434.1931, 61923.97
434.6752, 61980.47
435.1573, 62048.31
435.6394, 62108.56
436.1216, 62154.60
436.6036, 62185.19
437.0858, 62187.48
437.5679, 62160.19
438.0500, 62141.16
438.5321, 62176.84
439.0142, 62241.18
439.4963, 62289.59
439.9785, 62302.89
440.4606, 62305.40
440.9427, 62311.27
441.4248, 62322.26
441.9069, 62342.50
442.3890, 62401.84
442.8712, 62452.74
443.3533, 62454.80
443.8354, 62390.99
444.3175, 62345.04
444.7996, 62347.81
445.2817, 62381.15
445.7639, 62425.95
446.2460, 62488.05
446.7281, 62550.17
447.2102, 62609.83
447.6923, 62665.95
448.1744, 62713.08
448.6566, 62738.18
449.1387, 62765.88
449.6208, 62810.11
450.1029, 62885.11
450.5850, 62930.70
451.0671, 62935.92
451.5493, 62922.22
452.0314, 62916.45
452.5135, 62917.05
452.9956, 62937.63
453.4777, 62996.57
453.9598, 63076.30
454.4420, 63089.01
454.9241, 63028.48
455.4062, 62960.70
455.8883, 62928.49
456.3704, 62929.60
456.8525, 62966.73
457.3347, 63051.01
457.8168, 63127.89
458.2989, 63101.27
458.7810, 63006.30
459.2631, 62947.07
459.7452, 63003.90
460.2274, 63098.66
460.7095, 63144.77
461.1916, 63147.88
461.6737, 63144.82
462.1558, 63154.42
462.6379, 63170.16
463.1201, 63183.62
463.6022, 63185.38
464.0843, 63202.55
464.5664, 63267.63
465.0485, 63350.23
465.5306, 63402.10
466.0128, 63384.74
466.4949, 63361.46
466.9770, 63345.11
467.4591, 63336.10
467.9412, 63345.34
468.4233, 63387.97
468.9055, 63436.49
469.3876, 63475.93
469.8697, 63502.73
470.3518, 63530.55
470.8339, 63562.08
471.3160, 63595.02
471.7982, 63623.54
472.2803, 63645.86
472.7624, 63672.93
473.2445, 63708.33
473.7266, 63751.14
474.2087, 63794.52
474.6909, 63837.00
475.1730, 63885.86
475.6551, 63954.64
476.1372, 64035.52
476.6193, 64095.46
477.1014, 64124.05
477.5836, 64143.01
478.0657, 64179.24
478.5478, 64227.51
479.0299, 64272.91
479.5120, 64311.93
479.9941, 64343.21
480.4763, 64362.52
480.9584, 64371.33
481.4405, 64379.95
481.9226, 64395.18
482.4047, 64412.77
482.8868, 64428.76
483.3690, 64439.35
483.8511, 64455.27
484.3332, 64480.96
484.8153, 64513.92
485.2974, 64550.45
485.7795, 64611.66
486.2617, 64652.74
486.7438, 64652.08
487.2259, 64610.98
487.7080, 64601.93
488.1901, 64640.07
488.6722, 64690.81
489.1544, 64737.36
489.6365, 64782.89
490.1186, 64808.64
490.6007, 64807.45
491.0828, 64796.31
491.5649, 64801.71
492.0471, 64823.99
492.5292, 64850.39
493.0113, 64874.12
493.4934, 64899.22
493.9755, 64943.25
494.4576, 65004.21
494.9398, 65060.27
495.4219, 65098.51
495.9040, 65118.86
496.3861, 65110.62
496.8682, 65064.64
497.3503, 65033.43
497.8325, 65085.58
498.3146, 65176.01
498.7967, 65235.91
499.2788, 65211.26
499.7609, 65176.22
500.2430, 65169.97
500.7252, 65186.95
501.2073, 65198.29
501.6894, 65181.51
502.1715, 65170.49
502.6536, 65185.59
503.1357, 65244.51
503.6179, 65285.21
504.1000, 65290.34
504.5821, 65287.07
505.0642, 65301.70
505.5463, 65337.70
506.0284, 65382.89
506.5106, 65441.50
506.9927, 65504.11
507.4748, 65536.36
507.9569, 65530.70
508.4390, 65525.97
508.9211, 65540.83
509.4033, 65573.16
509.8854, 65609.88
510.3675, 65650.95
510.8496, 65694.63
511.3317, 65736.70
511.8138, 65780.38
512.2960, 65838.57
512.7781, 65928.84
513.2602, 66006.59
513.7423, 66003.33
514.2244, 65950.35
514.7065, 65923.31
515.1887, 65998.70
515.6708, 66081.33
516.1529, 66098.30
516.6350, 66049.84
517.1171, 66015.61
517.5992, 66027.70
518.0814, 66061.04
518.5635, 66100.23
519.0456, 66147.83
519.5277, 66194.68
520.0098, 66244.21
520.4919, 66290.88
520.9741, 66324.95
521.4562, 66337.84
521.9383, 66353.63
522.4204, 66376.48
522.9025, 66405.88
523.3846, 66441.69
523.8668, 66484.63
524.3489, 66527.39
524.8310, 66563.51
525.3131, 66594.15
525.7952, 66631.30
526.2773, 66676.30
526.7595, 66723.47
527.2416, 66779.80
527.7237, 66833.53
528.2058, 66853.02
528.6879, 66818.91
529.1700, 66762.27
529.6522, 66693.99
530.1343, 66626.27
530.6164, 66591.18
531.0985, 66634.11
531.5806, 66693.23
532.0627, 66726.65
532.5449, 66729.21
533.0270, 66747.77
533.5091, 66805.49
533.9912, 66876.91
534.4733, 66943.14
534.9554, 67006.59
535.4376, 67058.50
535.9197, 67092.09
536.4018, 67115.74
536.8839, 67143.42
537.3660, 67176.36
537.8481, 67208.09
538.3303, 67237.07
538.8124, 67263.02
539.2945, 67289.20
539.7766, 67316.97
540.2587, 67334.11
540.7408, 67316.86
541.2230, 67280.63
541.7051, 67292.21
542.1872, 67362.27
542.6693, 67435.16
543.1514, 67457.77
543.6335, 67444.52
544.1157, 67420.09
544.5978, 67378.89
545.0799, 67348.52
545.5620, 67346.16
546.0441, 67369.77
546.5262, 67414.17
547.0084, 67495.70
547.4905, 67580.32
547.9726, 67651.21
548.4547, 67704.86
548.9368, 67770.55
549.4189, 67869.68
549.9011, 67964.52
550.3832, 68033.89
550.8653, 68073.63
551.3474, 68093.09
551.8295, 68085.66
552.3116, 68064.04
552.7938, 68041.59
553.2759, 68016.16
553.7580, 68011.02
554.2401, 68039.26
554.7222, 68086.00
555.2043, 68116.87
555.6865, 68132.34
556.1686, 68137.16
556.6507, 68116.44
557.1328, 68095.02
557.6149, 68122.33
558.0970, 68202.15
558.5792, 68271.64
559.0613, 68277.66
559.5434, 68255.88
560.0255, 68239.86
560.5076, 68229.86
560.9897, 68241.98
561.4719, 68299.36
561.9540, 68378.97
562.4361, 68441.39
562.9182, 68470.49
563.4003, 68493.64
563.8824, 68512.39
564.3646, 68527.14
564.8467, 68546.36
565.3288, 68570.73
565.8109, 68595.13
566.2930, 68613.65
566.7751, 68624.84
567.2573, 68653.14
567.7394, 68701.83
568.2215, 68750.54
568.7036, 68769.94
569.1857, 68770.05
569.6678, 68794.55
570.1500, 68862.53
570.6321, 68932.88
571.1142, 68955.02
571.5963, 68943.37
572.0784, 68929.98
572.5605, 68916.63
573.0427, 68918.09
573.5248, 68966.83
574.0069, 69050.38
574.4890, 69088.06
574.9711, 68991.04
575.4532, 68894.60
575.9354, 68875.36
576.4175, 68969.76
576.8996, 69025.52
577.3817, 69025.52
577.8638, 69003.14
578.3459, 68979.70
578.8281, 68944.59
579.3102, 68955.58
579.7923, 69029.35
580.2744, 69134.58
580.7565, 69219.89
581.2386, 69284.45
581.7208, 69318.89
582.2029, 69303.97
582.6850, 69267.52
583.1671, 69258.73
583.6492, 69274.91
584.1313, 69299.74
584.6134, 69322.61
585.0955, 69350.71
585.5776, 69389.83
586.0598, 69441.04
586.5419, 69506.96
