##NAMES=Hydroxylherderite
##RRUFFID=R060353
##IDEAL CHEMISTRY=CaBe(P^5+^O_4_)(OH)
##LOCALITY=Shigar Valley, northeast of Skardu, Baltistan, Pakistan
##OWNER=RRUFF
##SOURCE=Herb Obodda
##DESCRIPTION=Colorless equant crystal
##STATUS=The identification of this mineral has been confirmed by X-ray diffraction and chemical analysis
##URL=rruff.info/R060353
##MEASURED CHEMISTRY=(Ca_0.99_Mn_0.01_)_Σ=1_Be_1.00_P_1.00_O_4_((OH)_0.52_F_0.48_)_Σ=1_; trace amounts of Na; Be not measured but assumed by stoichiometry; OH estimated by charge balance
91.53320, 1390.900
92.01532, 1371.871
92.49744, 1361.202
92.97955, 1383.079
93.46167, 1414.917
93.94379, 1432.879
94.42590, 1444.660
94.90802, 1452.710
95.39014, 1456.520
95.87225, 1456.227
96.35437, 1452.527
96.83649, 1446.006
97.31860, 1438.227
97.80072, 1430.366
98.28284, 1421.162
98.76495, 1409.792
99.24707, 1399.372
99.72919, 1390.479
100.2113, 1382.523
100.6934, 1374.909
101.1755, 1367.744
101.6577, 1361.486
102.1398, 1356.434
102.6219, 1352.516
103.1040, 1349.910
103.5861, 1349.227
104.0682, 1348.708
104.5504, 1347.028
105.0325, 1344.088
105.5146, 1341.016
105.9967, 1339.312
106.4788, 1339.564
106.9609, 1339.353
107.4431, 1338.170
107.9252, 1336.470
108.4073, 1334.812
108.8894, 1333.296
109.3715, 1331.974
109.8536, 1330.877
110.3358, 1329.861
110.8179, 1329.315
111.3000, 1329.927
111.7821, 1331.522
112.2642, 1332.390
112.7463, 1331.615
113.2285, 1329.889
113.7106, 1327.563
114.1927, 1324.332
114.6748, 1321.512
115.1569, 1321.466
115.6390, 1325.770
116.1212, 1328.746
116.6033, 1327.987
117.0854, 1325.544
117.5675, 1323.267
118.0496, 1322.007
118.5317, 1321.652
119.0139, 1321.706
119.4960, 1322.388
119.9781, 1323.286
120.4602, 1324.488
120.9423, 1325.842
121.4244, 1327.188
121.9066, 1328.465
122.3887, 1329.734
122.8708, 1329.898
123.3529, 1328.609
123.8350, 1326.828
124.3171, 1324.757
124.7993, 1322.513
125.2814, 1320.363
125.7635, 1318.501
126.2456, 1316.942
126.7277, 1316.060
127.2098, 1315.469
127.6920, 1315.723
128.1741, 1318.250
128.6562, 1323.841
129.1383, 1329.145
129.6204, 1328.864
130.1025, 1323.677
130.5847, 1318.982
131.0668, 1317.255
131.5489, 1317.801
132.0310, 1318.226
132.5131, 1318.001
132.9952, 1317.553
133.4774, 1317.131
133.9595, 1316.760
134.4416, 1316.732
134.9237, 1317.689
135.4058, 1319.926
135.8879, 1321.168
136.3701, 1318.793
136.8522, 1316.713
137.3343, 1317.578
137.8164, 1322.000
138.2985, 1328.121
138.7806, 1332.848
139.2628, 1335.489
139.7449, 1337.866
140.2270, 1340.507
140.7091, 1342.880
141.1912, 1344.571
141.6733, 1345.381
142.1555, 1345.322
142.6376, 1344.407
143.1197, 1342.116
143.6018, 1339.445
144.0839, 1335.776
144.5660, 1331.849
145.0482, 1328.849
145.5303, 1327.545
146.0124, 1327.700
146.4945, 1327.527
146.9766, 1326.582
147.4587, 1325.807
147.9409, 1325.860
148.4230, 1326.547
148.9051, 1326.890
149.3872, 1325.912
149.8693, 1323.998
150.3514, 1323.314
150.8336, 1325.321
151.3157, 1327.703
151.7978, 1327.882
152.2799, 1325.450
152.7620, 1323.448
153.2441, 1325.093
153.7263, 1328.749
154.2084, 1331.793
154.6905, 1332.661
155.1726, 1332.417
155.6547, 1333.508
156.1368, 1336.488
156.6190, 1339.880
157.1011, 1343.162
157.5832, 1346.219
158.0653, 1348.758
158.5474, 1349.670
159.0295, 1349.296
159.5117, 1352.219
159.9938, 1360.438
160.4759, 1370.463
160.9580, 1380.977
161.4401, 1392.151
161.9222, 1404.700
162.4044, 1419.490
162.8865, 1437.074
163.3686, 1454.174
163.8507, 1468.106
164.3328, 1483.919
164.8149, 1504.708
165.2971, 1530.198
165.7792, 1557.331
166.2613, 1583.397
166.7434, 1610.259
167.2255, 1628.831
167.7076, 1643.584
168.1898, 1648.789
168.6719, 1638.210
169.1540, 1611.266
169.6361, 1574.900
170.1182, 1537.823
170.6003, 1498.327
171.0825, 1463.192
171.5646, 1432.166
172.0467, 1405.980
172.5288, 1386.206
173.0109, 1373.612
173.4930, 1365.579
173.9752, 1358.406
174.4573, 1351.749
174.9394, 1346.758
175.4215, 1344.474
175.9036, 1344.066
176.3857, 1343.635
176.8679, 1342.427
177.3500, 1341.382
177.8321, 1341.684
178.3142, 1343.346
178.7963, 1345.596
179.2784, 1348.196
179.7606, 1351.111
180.2427, 1353.918
180.7248, 1356.749
181.2069, 1359.166
181.6890, 1360.960
182.1711, 1362.128
182.6533, 1362.456
183.1354, 1361.606
183.6175, 1359.483
184.0996, 1356.963
184.5817, 1353.180
185.0638, 1349.712
185.5460, 1347.400
186.0281, 1346.441
186.5102, 1346.771
186.9923, 1348.463
187.4744, 1351.932
187.9565, 1355.730
188.4387, 1358.633
188.9208, 1362.343
189.4029, 1367.958
189.8850, 1375.869
190.3671, 1385.818
190.8492, 1397.551
191.3314, 1411.405
191.8135, 1426.690
192.2956, 1442.817
192.7777, 1460.318
193.2598, 1481.104
193.7419, 1505.664
194.2241, 1530.872
194.7062, 1549.187
195.1883, 1560.148
195.6704, 1563.317
196.1525, 1557.039
196.6346, 1543.468
197.1168, 1523.812
197.5989, 1498.370
198.0810, 1469.342
198.5631, 1443.056
199.0452, 1418.991
199.5273, 1397.973
200.0095, 1380.170
200.4916, 1365.549
200.9737, 1354.338
201.4558, 1346.959
201.9379, 1342.348
202.4200, 1337.313
202.9022, 1331.239
203.3843, 1325.875
203.8664, 1322.249
204.3485, 1319.866
204.8306, 1317.313
205.3127, 1313.803
205.7949, 1309.995
206.2770, 1307.355
206.7591, 1306.229
207.2412, 1305.349
207.7233, 1303.991
208.2054, 1302.224
208.6876, 1300.520
209.1697, 1299.105
209.6518, 1297.823
210.1339, 1296.361
210.6160, 1294.561
211.0981, 1293.018
211.5803, 1292.428
212.0624, 1292.795
212.5445, 1292.950
213.0266, 1292.426
213.5087, 1291.515
213.9908, 1290.287
214.4730, 1288.640
214.9551, 1287.335
215.4372, 1287.465
215.9193, 1289.302
216.4014, 1290.910
216.8836, 1291.365
217.3657, 1291.607
217.8478, 1292.301
218.3299, 1293.608
218.8120, 1295.123
219.2941, 1296.344
219.7763, 1297.289
220.2584, 1297.832
220.7405, 1297.211
221.2226, 1296.642
221.7047, 1297.145
222.1868, 1298.955
222.6690, 1301.275
223.1511, 1302.977
223.6332, 1304.282
224.1153, 1304.333
224.5974, 1302.104
225.0795, 1299.422
225.5617, 1297.643
226.0438, 1297.135
226.5259, 1297.273
227.0080, 1297.031
227.4901, 1296.487
227.9722, 1295.353
228.4544, 1293.144
228.9365, 1290.740
229.4186, 1288.776
229.9007, 1287.454
230.3828, 1286.621
230.8649, 1286.023
231.3471, 1285.572
231.8292, 1285.566
232.3113, 1285.995
232.7934, 1286.814
233.2755, 1288.264
233.7576, 1290.320
234.2398, 1292.357
234.7219, 1293.300
235.2040, 1292.392
235.6861, 1291.595
236.1682, 1290.320
236.6503, 1289.449
237.1325, 1290.282
237.6146, 1293.062
238.0967, 1296.178
238.5788, 1297.173
239.0609, 1294.928
239.5430, 1292.922
240.0252, 1290.817
240.5073, 1289.215
240.9894, 1288.933
241.4715, 1290.159
241.9536, 1292.064
242.4357, 1293.691
242.9179, 1295.105
243.4000, 1295.862
243.8821, 1295.170
244.3642, 1294.147
244.8463, 1293.997
245.3284, 1294.973
245.8106, 1296.603
246.2927, 1298.474
246.7748, 1300.596
247.2569, 1302.724
247.7390, 1305.013
248.2211, 1307.216
248.7033, 1309.000
249.1854, 1310.294
249.6675, 1311.341
250.1496, 1312.044
250.6317, 1312.535
251.1138, 1313.944
251.5960, 1317.888
252.0781, 1322.302
252.5602, 1324.201
253.0423, 1322.983
253.5244, 1321.155
254.0065, 1321.248
254.4887, 1322.513
254.9708, 1322.789
255.4529, 1321.157
255.9350, 1318.394
256.4171, 1315.386
256.8992, 1312.061
257.3813, 1308.958
257.8635, 1306.311
258.3456, 1304.155
258.8277, 1302.734
259.3098, 1302.859
259.7919, 1303.326
260.2740, 1302.174
260.7562, 1299.012
261.2383, 1295.891
261.7204, 1294.182
262.2025, 1293.148
262.6846, 1291.915
263.1667, 1290.150
263.6489, 1288.171
264.1310, 1286.299
264.6131, 1284.447
265.0952, 1283.076
265.5773, 1283.148
266.0594, 1283.525
266.5416, 1282.933
267.0237, 1280.738
267.5058, 1278.287
267.9879, 1277.667
268.4700, 1279.391
268.9521, 1280.629
269.4343, 1280.291
269.9164, 1279.141
270.3985, 1277.423
270.8806, 1275.125
271.3627, 1272.979
271.8448, 1271.990
272.3270, 1272.344
272.8091, 1272.841
273.2912, 1273.842
273.7733, 1274.468
274.2554, 1273.924
274.7375, 1272.104
275.2197, 1269.940
275.7018, 1268.527
276.1839, 1268.025
276.6660, 1267.232
277.1481, 1264.886
277.6302, 1263.038
278.1124, 1263.180
278.5945, 1265.200
279.0766, 1267.468
279.5587, 1268.405
280.0408, 1267.906
280.5229, 1267.114
281.0051, 1265.615
281.4872, 1264.223
281.9693, 1263.572
282.4514, 1263.425
282.9335, 1262.913
283.4156, 1260.910
283.8978, 1257.353
284.3799, 1255.372
284.8620, 1256.637
285.3441, 1257.893
285.8262, 1257.647
286.3083, 1256.492
286.7905, 1255.850
287.2726, 1256.813
287.7547, 1259.212
288.2368, 1261.434
288.7189, 1262.947
289.2010, 1264.950
289.6832, 1268.944
290.1653, 1273.389
290.6474, 1275.736
291.1295, 1274.194
291.6116, 1270.004
292.0938, 1268.320
292.5759, 1271.366
293.0580, 1273.874
293.5401, 1274.579
294.0222, 1274.343
294.5043, 1273.999
294.9865, 1273.900
295.4686, 1274.168
295.9507, 1275.264
296.4328, 1278.305
296.9149, 1280.113
297.3970, 1279.560
297.8792, 1278.221
298.3613, 1277.401
298.8434, 1277.503
299.3255, 1278.122
299.8076, 1278.698
300.2897, 1279.554
300.7719, 1279.559
301.2540, 1278.111
301.7361, 1276.337
302.2182, 1275.035
302.7003, 1274.280
303.1824, 1273.481
303.6646, 1271.819
304.1467, 1268.927
304.6288, 1266.514
305.1109, 1264.912
305.5930, 1263.447
306.0751, 1261.866
306.5573, 1260.145
307.0394, 1258.352
307.5215, 1256.520
308.0036, 1254.617
308.4857, 1252.959
308.9678, 1252.069
309.4500, 1250.906
309.9321, 1248.937
310.4142, 1246.454
310.8963, 1244.038
311.3784, 1242.042
311.8605, 1240.461
312.3427, 1239.289
312.8248, 1238.289
313.3069, 1238.068
313.7890, 1239.774
314.2711, 1242.004
314.7532, 1242.675
315.2354, 1240.673
315.7175, 1237.259
316.1996, 1236.211
316.6817, 1239.668
317.1638, 1242.188
317.6459, 1243.193
318.1281, 1243.113
318.6102, 1241.780
319.0923, 1239.296
319.5744, 1236.920
320.0565, 1236.943
320.5386, 1240.690
321.0208, 1243.818
321.5029, 1245.958
321.9850, 1247.670
322.4671, 1249.050
322.9492, 1250.251
323.4313, 1251.708
323.9135, 1254.240
324.3956, 1258.425
324.8777, 1260.636
325.3598, 1258.453
325.8419, 1256.532
326.3240, 1256.674
326.8062, 1258.643
327.2883, 1261.333
327.7704, 1264.070
328.2525, 1266.809
328.7346, 1268.815
329.2167, 1268.634
329.6989, 1269.418
330.1810, 1271.875
330.6631, 1275.778
331.1452, 1280.962
331.6273, 1287.491
332.1094, 1294.750
332.5916, 1300.615
333.0737, 1303.373
333.5558, 1307.747
334.0379, 1315.855
334.5200, 1325.028
335.0021, 1333.116
335.4843, 1339.398
335.9664, 1343.696
336.4485, 1345.482
336.9306, 1344.164
337.4127, 1342.027
337.8948, 1339.710
338.3770, 1336.355
338.8591, 1331.119
339.3412, 1324.075
339.8233, 1316.284
340.3055, 1308.668
340.7876, 1301.277
341.2697, 1293.787
341.7518, 1284.967
342.2339, 1277.396
342.7160, 1273.171
343.1982, 1271.047
343.6803, 1267.911
344.1624, 1261.129
344.6445, 1251.732
345.1266, 1245.010
345.6087, 1242.347
346.0909, 1240.277
346.5730, 1237.500
347.0551, 1234.582
347.5372, 1232.364
348.0193, 1231.286
348.5014, 1230.648
348.9836, 1229.055
349.4657, 1226.164
349.9478, 1223.493
350.4299, 1221.683
350.9120, 1220.087
351.3941, 1218.297
351.8763, 1216.234
352.3584, 1213.958
352.8405, 1211.452
353.3226, 1208.697
353.8047, 1206.072
354.2868, 1203.439
354.7690, 1201.178
355.2511, 1199.532
355.7332, 1198.442
356.2153, 1197.664
356.6974, 1197.296
357.1795, 1197.154
357.6617, 1196.468
358.1438, 1195.053
358.6259, 1193.463
359.1080, 1192.194
359.5901, 1190.949
360.0722, 1189.176
360.5544, 1186.487
361.0365, 1183.408
361.5186, 1180.298
362.0007, 1177.016
362.4828, 1175.007
362.9649, 1175.985
363.4471, 1177.939
363.9292, 1178.556
364.4113, 1177.428
364.8934, 1175.738
365.3755, 1174.503
365.8576, 1173.547
366.3398, 1171.662
366.8219, 1167.760
367.3040, 1164.081
367.7861, 1163.197
368.2682, 1164.845
368.7503, 1166.728
369.2325, 1168.282
369.7146, 1169.400
370.1967, 1169.882
370.6788, 1169.698
371.1609, 1168.974
371.6430, 1167.502
372.1252, 1165.531
372.6073, 1163.936
373.0894, 1163.229
373.5715, 1162.620
374.0536, 1161.266
374.5357, 1159.343
375.0179, 1158.000
375.5000, 1158.141
375.9821, 1158.897
376.4642, 1158.068
376.9463, 1154.868
377.4284, 1152.134
377.9106, 1151.357
378.3927, 1151.639
378.8748, 1151.344
379.3569, 1149.990
379.8390, 1148.404
380.3211, 1147.684
380.8033, 1148.016
381.2854, 1148.199
381.7675, 1148.269
382.2496, 1148.080
382.7317, 1147.381
383.2138, 1146.228
383.6960, 1145.021
384.1781, 1143.995
384.6602, 1143.169
385.1423, 1142.778
385.6244, 1142.620
386.1065, 1143.001
386.5887, 1144.827
387.0708, 1147.109
387.5529, 1148.032
388.0350, 1146.752
388.5171, 1144.239
388.9992, 1142.625
389.4814, 1142.863
389.9635, 1142.587
390.4456, 1141.643
390.9277, 1140.306
391.4098, 1138.417
391.8919, 1136.179
392.3741, 1134.428
392.8562, 1134.088
393.3383, 1135.323
393.8204, 1136.779
394.3025, 1139.239
394.7846, 1141.114
395.2668, 1141.588
395.7489, 1141.113
396.2310, 1140.633
396.7131, 1140.733
397.1952, 1141.073
397.6773, 1140.393
398.1595, 1137.676
398.6416, 1135.613
399.1237, 1134.738
399.6058, 1134.450
400.0879, 1134.180
400.5700, 1133.817
401.0522, 1133.741
401.5343, 1134.664
402.0164, 1136.880
402.4985, 1138.289
402.9806, 1138.011
403.4627, 1137.640
403.9449, 1137.897
404.4270, 1138.619
404.9091, 1139.283
405.3912, 1139.559
405.8733, 1139.544
406.3554, 1139.619
406.8376, 1139.992
407.3197, 1139.914
407.8018, 1138.836
408.2839, 1137.281
408.7660, 1135.455
409.2481, 1133.188
409.7303, 1131.766
410.2124, 1133.090
410.6945, 1136.946
411.1766, 1140.003
411.6587, 1141.572
412.1408, 1142.076
412.6230, 1141.412
413.1051, 1139.829
413.5872, 1139.261
414.0693, 1141.426
414.5514, 1144.774
415.0335, 1146.705
415.5157, 1146.966
415.9978, 1147.015
416.4799, 1147.781
416.9620, 1149.043
417.4441, 1150.021
417.9262, 1150.092
418.4084, 1150.669
418.8905, 1152.214
419.3726, 1154.865
419.8547, 1159.451
420.3368, 1166.670
420.8189, 1174.529
421.3011, 1179.369
421.7832, 1180.081
422.2653, 1182.678
422.7474, 1189.021
423.2295, 1196.687
423.7116, 1203.837
424.1938, 1210.264
424.6759, 1216.560
425.1580, 1223.376
425.6401, 1230.585
426.1222, 1235.982
426.6043, 1241.096
427.0865, 1242.952
427.5686, 1239.759
428.0507, 1233.176
428.5328, 1224.975
429.0149, 1215.883
429.4970, 1206.670
429.9792, 1198.681
430.4613, 1192.468
430.9434, 1186.231
431.4255, 1179.260
431.9076, 1172.859
432.3897, 1167.972
432.8719, 1164.361
433.3540, 1160.997
433.8361, 1156.990
434.3182, 1152.572
434.8003, 1149.367
435.2824, 1147.769
435.7646, 1146.933
436.2467, 1147.044
436.7288, 1147.519
437.2109, 1147.639
437.6930, 1147.169
438.1751, 1146.772
438.6573, 1147.356
439.1394, 1148.990
439.6215, 1150.681
440.1036, 1152.350
440.5857, 1153.993
441.0678, 1155.033
441.5500, 1155.899
442.0321, 1158.142
442.5142, 1163.396
442.9963, 1170.190
443.4784, 1175.537
443.9605, 1179.125
444.4427, 1183.753
444.9248, 1191.344
445.4069, 1200.620
445.8890, 1209.345
446.3711, 1217.621
446.8532, 1224.899
447.3354, 1230.846
447.8175, 1235.558
448.2996, 1239.302
448.7817, 1242.167
449.2638, 1243.883
449.7459, 1244.359
450.2281, 1243.503
450.7102, 1240.057
451.1923, 1232.666
451.6744, 1223.826
452.1565, 1214.945
452.6386, 1205.923
453.1208, 1196.017
453.6029, 1184.632
454.0850, 1172.649
454.5671, 1162.520
455.0492, 1154.943
455.5313, 1148.452
456.0135, 1143.672
456.4956, 1139.532
456.9777, 1134.982
457.4598, 1130.012
457.9419, 1125.414
458.4240, 1121.938
458.9062, 1119.605
459.3883, 1117.621
459.8704, 1116.538
460.3525, 1115.178
460.8346, 1112.687
461.3167, 1109.999
461.7989, 1108.682
462.2810, 1109.360
462.7631, 1110.240
463.2452, 1107.894
463.7273, 1101.409
464.2094, 1097.156
464.6916, 1097.625
465.1737, 1098.992
465.6558, 1099.274
466.1379, 1098.543
466.6200, 1097.461
467.1021, 1095.883
467.5843, 1094.404
468.0664, 1094.744
468.5485, 1097.301
469.0306, 1098.740
469.5127, 1096.792
469.9948, 1093.269
470.4770, 1091.039
470.9591, 1090.384
471.4412, 1090.338
471.9233, 1090.637
472.4054, 1091.175
472.8875, 1091.809
473.3697, 1092.532
473.8518, 1093.174
474.3339, 1093.635
474.8160, 1093.886
475.2981, 1093.717
475.7802, 1093.320
476.2624, 1092.313
476.7445, 1089.438
477.2266, 1085.984
477.7087, 1084.796
478.1908, 1087.028
478.6729, 1090.531
479.1551, 1091.359
479.6372, 1088.006
480.1193, 1085.396
480.6014, 1083.214
481.0835, 1081.923
481.5656, 1082.402
482.0478, 1084.042
482.5299, 1085.316
483.0120, 1085.196
483.4941, 1084.004
483.9762, 1082.897
484.4583, 1081.816
484.9405, 1080.970
485.4226, 1080.864
485.9047, 1080.684
486.3868, 1079.594
486.8689, 1077.575
487.3510, 1075.630
487.8332, 1074.378
488.3153, 1073.865
488.7974, 1074.589
489.2795, 1077.234
489.7616, 1079.462
490.2437, 1079.495
490.7259, 1078.256
491.2080, 1077.022
491.6901, 1075.994
492.1722, 1075.052
492.6543, 1073.987
493.1364, 1072.938
493.6186, 1072.435
494.1007, 1072.719
494.5828, 1073.075
495.0649, 1072.485
495.5470, 1070.801
496.0291, 1070.178
496.5113, 1072.104
496.9934, 1073.787
497.4755, 1073.253
497.9576, 1071.169
498.4397, 1069.241
498.9218, 1068.284
499.4040, 1068.037
499.8861, 1067.972
500.3682, 1068.434
500.8503, 1068.424
501.3324, 1066.957
501.8145, 1065.901
502.2967, 1066.761
502.7788, 1069.131
503.2609, 1071.453
503.7430, 1072.635
504.2251, 1072.958
504.7072, 1073.670
505.1894, 1075.455
505.6715, 1076.030
506.1536, 1073.277
506.6357, 1070.128
507.1178, 1068.902
507.5999, 1069.870
508.0821, 1071.701
508.5642, 1074.033
509.0463, 1076.463
509.5284, 1077.536
510.0105, 1076.841
510.4926, 1076.255
510.9748, 1076.913
511.4569, 1078.531
511.9390, 1080.301
512.4211, 1081.836
512.9032, 1084.142
513.3853, 1088.002
513.8674, 1092.876
514.3495, 1097.697
514.8317, 1102.266
515.3138, 1107.190
515.7959, 1112.987
516.2780, 1119.661
516.7601, 1127.787
517.2422, 1139.427
517.7244, 1150.005
518.2065, 1158.400
518.6886, 1164.644
519.1707, 1169.303
519.6528, 1172.492
520.1349, 1173.048
520.6171, 1168.792
521.0992, 1158.689
521.5813, 1148.030
522.0634, 1136.734
522.5455, 1124.919
523.0276, 1111.309
523.5098, 1097.395
523.9919, 1085.973
524.4740, 1078.368
524.9561, 1073.305
525.4382, 1068.905
525.9203, 1065.181
526.4025, 1063.030
526.8846, 1063.688
527.3667, 1064.640
527.8488, 1063.113
528.3309, 1059.512
528.8130, 1056.400
529.2952, 1054.321
529.7773, 1053.193
530.2594, 1053.107
530.7415, 1053.951
531.2236, 1055.544
531.7057, 1058.098
532.1879, 1060.506
532.6700, 1060.518
533.1521, 1056.714
533.6342, 1053.640
534.1163, 1051.412
534.5984, 1049.918
535.0806, 1049.623
535.5627, 1050.037
536.0448, 1049.779
536.5269, 1047.889
537.0090, 1045.207
537.4911, 1044.492
537.9733, 1047.025
538.4554, 1048.685
538.9375, 1048.429
539.4196, 1047.664
539.9017, 1047.217
540.3839, 1047.069
540.8660, 1046.740
541.3481, 1045.774
541.8302, 1044.503
542.3123, 1043.700
542.7944, 1043.413
543.2766, 1043.176
543.7587, 1042.651
544.2408, 1042.247
544.7229, 1042.720
545.2050, 1044.237
545.6871, 1045.189
546.1693, 1044.575
546.6514, 1043.402
547.1335, 1042.886
547.6156, 1042.979
548.0977, 1042.661
548.5798, 1041.168
549.0620, 1039.036
549.5441, 1038.090
550.0262, 1039.790
550.5083, 1040.744
550.9904, 1040.085
551.4725, 1039.308
551.9547, 1039.942
552.4368, 1041.652
552.9189, 1042.651
553.4010, 1041.383
553.8831, 1038.630
554.3652, 1037.690
554.8474, 1039.323
555.3295, 1040.877
555.8116, 1041.789
556.2937, 1042.316
556.7758, 1042.667
557.2579, 1042.832
557.7401, 1042.545
558.2222, 1040.900
558.7043, 1038.996
559.1864, 1039.031
559.6685, 1041.068
560.1506, 1042.945
560.6328, 1043.204
561.1149, 1043.030
561.5970, 1045.544
562.0791, 1052.030
562.5612, 1056.541
563.0433, 1056.367
563.5255, 1054.993
564.0076, 1055.258
564.4897, 1057.150
564.9718, 1059.321
565.4539, 1060.938
565.9360, 1062.120
566.4182, 1063.194
566.9003, 1063.782
567.3824, 1065.035
567.8645, 1067.685
568.3466, 1070.412
568.8287, 1071.901
569.3109, 1072.619
569.7930, 1074.346
570.2751, 1078.474
570.7572, 1084.024
571.2393, 1088.731
571.7214, 1092.435
572.2036, 1096.943
572.6857, 1102.557
573.1678, 1109.491
573.6499, 1118.082
574.1320, 1128.236
574.6141, 1139.228
575.0963, 1151.646
575.5784, 1164.152
576.0605, 1175.629
576.5426, 1186.160
577.0247, 1196.552
577.5068, 1207.239
577.9890, 1217.241
578.4711, 1224.688
578.9532, 1228.954
579.4353, 1232.083
579.9174, 1233.493
580.3995, 1234.516
580.8817, 1235.787
581.3638, 1237.148
581.8459, 1237.827
582.3280, 1237.307
582.8101, 1237.234
583.2922, 1240.794
583.7744, 1248.272
584.2565, 1255.092
584.7386, 1260.475
