##NAMES=Hydroxylherderite
##RRUFFID=R050518
##IDEAL CHEMISTRY=CaBe(P^5+^O_4_)(OH)
##LOCALITY=Mt. Apatite, Auburn, Maine, USA
##OWNER=RRUFF
##SOURCE=University of Arizona Mineral Museum
##DESCRIPTION=Colorless prismatic crystals
##STATUS=The identification of this mineral has been confirmed by X-ray diffraction and chemical analysis
##URL=rruff.info/R050518
##MEASURED CHEMISTRY=Ca_1.00_Be_1.00_(P_1.00_O_4_)((OH)_0.75_F_0.25_)_Î£=1_
120.274, 3150.031
120.756, 3217.932
121.238, 3306.218
121.720, 3410.192
122.202, 3525.927
122.684, 3668.664
123.166, 3808.041
123.648, 3934.276
124.131, 4042.839
124.613, 4104.521
125.095, 4078.590
125.577, 3993.658
126.059, 3896.329
126.541, 3792.718
127.023, 3691.219
127.505, 3599.145
127.988, 3517.510
128.470, 3452.840
128.952, 3410.345
129.434, 3389.630
129.916, 3390.595
130.398, 3423.395
130.880, 3474.467
131.362, 3512.878
131.844, 3537.994
132.327, 3554.331
132.809, 3563.123
133.291, 3565.289
133.773, 3570.162
134.255, 3581.277
134.737, 3597.629
135.219, 3613.250
135.701, 3627.113
136.184, 3644.257
136.666, 3671.254
137.148, 3708.739
137.630, 3749.878
138.112, 3791.822
138.594, 3834.904
139.076, 3882.330
139.558, 3932.156
140.040, 3989.127
140.523, 4054.636
141.005, 4122.721
141.487, 4218.994
141.969, 4353.599
142.451, 4529.833
142.933, 4720.189
143.415, 4951.849
143.897, 5169.554
144.380, 5298.979
144.862, 5334.120
145.344, 5290.647
145.826, 5154.603
146.308, 4904.599
146.790, 4678.866
147.272, 4475.972
147.754, 4299.351
148.236, 4156.216
148.719, 4050.926
149.201, 3975.819
149.683, 3936.052
150.165, 3943.401
150.647, 3943.874
151.129, 3929.291
151.611, 3910.350
152.093, 3900.590
152.575, 3897.471
153.058, 3906.166
153.540, 3930.720
154.022, 3975.892
154.504, 4019.163
154.986, 4054.597
155.468, 4088.038
155.950, 4126.629
156.432, 4154.567
156.915, 4203.195
157.397, 4288.160
157.879, 4418.266
158.361, 4549.035
158.843, 4655.757
159.325, 4762.402
159.807, 4900.654
160.289, 5093.329
160.771, 5307.702
161.254, 5524.661
161.736, 5735.732
162.218, 5986.982
162.700, 6298.540
163.182, 6661.478
163.664, 7064.736
164.146, 7481.454
164.628, 7956.190
165.111, 8535.479
165.593, 9242.614
166.075, 9931.937
166.557, 10557.340
167.039, 11111.590
167.521, 11583.890
168.003, 11917.100
168.485, 12202.890
168.967, 12558.880
169.449, 13021.800
169.932, 13311.240
170.414, 13283.430
170.896, 12950.180
171.378, 12331.780
171.860, 11210.480
172.342, 9920.216
172.824, 8774.928
173.307, 7777.738
173.789, 6944.309
174.271, 6311.930
174.753, 5851.450
175.235, 5510.509
175.717, 5303.832
176.199, 5181.952
176.681, 5086.996
177.163, 5018.290
177.645, 4978.327
178.128, 4983.075
178.610, 5020.688
179.092, 5061.346
179.574, 5080.290
180.056, 5097.034
180.538, 5143.524
181.020, 5220.639
181.503, 5323.079
181.985, 5442.912
182.467, 5582.797
182.949, 5756.863
183.431, 6001.248
183.913, 6277.980
184.395, 6517.457
184.877, 6721.342
185.359, 6852.482
185.842, 6849.998
186.324, 6728.574
186.806, 6555.926
187.288, 6324.731
187.770, 6064.213
188.252, 5865.612
188.734, 5728.564
189.216, 5642.396
189.698, 5596.463
190.181, 5590.868
190.663, 5627.365
191.145, 5715.872
191.627, 5846.596
192.109, 5975.308
192.591, 6098.011
193.073, 6250.222
193.555, 6469.525
194.038, 6755.174
194.520, 7085.557
195.002, 7451.722
195.484, 7856.234
195.966, 8352.912
196.448, 8963.637
196.930, 9554.441
197.412, 10030.830
197.894, 10395.420
198.376, 10559.390
198.859, 10487.230
199.341, 10199.500
199.823, 9744.220
200.305, 9079.417
200.787, 8409.305
201.269, 7907.125
201.751, 7590.628
202.234, 7341.532
202.716, 7152.600
203.198, 7012.276
203.680, 6872.375
204.162, 6737.043
204.644, 6589.326
205.126, 6411.281
205.608, 6196.836
206.090, 5982.758
206.572, 5766.885
207.055, 5555.749
207.537, 5377.763
208.019, 5237.530
208.501, 5118.296
208.983, 5008.597
209.465, 4906.228
209.947, 4821.533
210.430, 4756.854
210.912, 4708.700
211.394, 4665.434
211.876, 4626.693
212.358, 4593.696
212.840, 4566.336
213.322, 4543.650
213.804, 4531.811
214.286, 4533.608
214.768, 4545.494
215.251, 4557.658
215.733, 4569.948
216.215, 4583.009
216.697, 4596.605
217.179, 4609.261
217.661, 4626.515
218.143, 4646.846
218.625, 4672.540
219.108, 4711.129
219.590, 4769.769
220.072, 4826.997
220.554, 4871.259
221.036, 4893.294
221.518, 4935.591
222.000, 5000.433
222.482, 5083.512
222.964, 5182.371
223.447, 5308.395
223.929, 5425.628
224.411, 5523.531
224.893, 5601.216
225.375, 5660.591
225.857, 5704.501
226.339, 5727.156
226.821, 5717.006
227.303, 5659.837
227.786, 5598.144
228.268, 5544.778
228.750, 5501.224
229.232, 5448.521
229.714, 5378.116
230.196, 5305.847
230.678, 5250.157
231.161, 5222.229
231.643, 5187.736
232.125, 5135.025
232.607, 5062.315
233.089, 5007.026
233.571, 4971.351
234.053, 4950.705
234.535, 4943.865
235.017, 4961.392
235.499, 4971.104
235.982, 4964.730
236.464, 4943.605
236.946, 4930.912
237.428, 4930.670
237.910, 4934.128
238.392, 4933.232
238.874, 4917.675
239.357, 4919.742
239.839, 4949.719
240.321, 5001.464
240.803, 5037.541
241.285, 5032.169
241.767, 5045.616
242.249, 5122.861
242.731, 5333.095
243.213, 5457.880
243.695, 5461.678
244.178, 5376.619
244.660, 5302.408
245.142, 5234.911
245.624, 5184.330
246.106, 5156.071
246.588, 5155.009
247.070, 5165.632
247.552, 5192.209
248.035, 5228.391
248.517, 5260.054
248.999, 5281.069
249.481, 5308.011
249.963, 5349.044
250.445, 5408.868
250.927, 5459.637
251.409, 5489.366
251.891, 5519.008
252.374, 5584.000
252.856, 5707.101
253.338, 5820.672
253.820, 5895.194
254.302, 5920.617
254.784, 6009.562
255.266, 6205.279
255.748, 6419.242
256.231, 6554.078
256.713, 6596.674
257.195, 6589.951
257.677, 6528.335
258.159, 6413.764
258.641, 6322.428
259.123, 6260.441
259.605, 6213.107
260.087, 6169.148
260.570, 6128.975
261.052, 6092.010
261.534, 6058.164
262.016, 6027.479
262.498, 6000.806
262.980, 5975.202
263.462, 5959.111
263.944, 5957.364
264.427, 5969.313
264.909, 5999.400
265.391, 6054.646
265.873, 6125.341
266.355, 6183.207
266.837, 6219.644
267.319, 6261.652
267.801, 6322.726
268.284, 6405.734
268.766, 6494.632
269.248, 6591.573
269.730, 6691.347
270.212, 6782.819
270.694, 6863.819
271.176, 6941.022
271.658, 7025.484
272.140, 7120.371
272.622, 7161.196
273.105, 7142.787
273.587, 7078.015
274.069, 6980.090
274.551, 6845.004
275.033, 6687.090
275.515, 6499.581
275.997, 6288.416
276.479, 6100.929
276.962, 5937.505
277.444, 5800.228
277.926, 5696.132
278.408, 5627.655
278.890, 5567.034
279.372, 5508.831
279.854, 5453.648
280.336, 5398.195
280.819, 5338.903
281.301, 5297.048
281.783, 5299.936
282.265, 5348.288
282.747, 5372.699
283.229, 5359.343
283.711, 5325.813
284.193, 5312.252
284.675, 5320.335
285.158, 5324.871
285.640, 5310.309
286.122, 5278.083
286.604, 5239.800
287.086, 5191.704
287.568, 5150.647
288.050, 5149.662
288.532, 5187.161
289.014, 5222.062
289.497, 5233.218
289.979, 5226.515
290.461, 5224.644
290.943, 5227.202
291.425, 5237.362
291.907, 5260.976
292.389, 5296.315
292.871, 5334.362
293.353, 5371.322
293.836, 5409.681
294.318, 5457.871
294.800, 5515.698
295.282, 5572.839
295.764, 5620.629
296.246, 5660.929
296.728, 5700.314
297.211, 5739.040
297.693, 5779.264
298.175, 5825.982
298.657, 5878.382
299.139, 5932.082
299.621, 5982.984
300.103, 6034.025
300.585, 6092.342
301.067, 6161.678
301.549, 6229.200
302.032, 6285.776
302.514, 6330.276
302.996, 6360.188
303.478, 6367.103
303.960, 6362.001
304.442, 6358.576
304.924, 6357.510
305.406, 6357.080
305.889, 6356.175
306.371, 6354.856
306.853, 6353.426
307.335, 6359.425
307.817, 6359.835
308.299, 6337.884
308.781, 6296.357
309.263, 6254.569
309.746, 6231.482
310.228, 6213.012
310.710, 6182.919
311.192, 6134.209
311.674, 6077.771
312.156, 6014.556
312.638, 5948.108
313.120, 5888.168
313.602, 5835.153
314.085, 5792.582
314.567, 5762.463
315.049, 5745.122
315.531, 5741.406
316.013, 5769.570
316.495, 5808.807
316.977, 5826.414
317.459, 5777.775
317.941, 5731.580
318.424, 5727.313
318.906, 5769.578
319.388, 5808.987
319.870, 5818.783
320.352, 5822.031
320.834, 5839.988
321.316, 5886.228
321.798, 5939.274
322.280, 5996.809
322.763, 6057.865
323.245, 6115.029
323.727, 6170.821
324.209, 6220.003
324.691, 6259.371
325.173, 6283.194
325.655, 6305.021
326.138, 6330.102
326.620, 6354.271
327.102, 6367.638
327.584, 6362.674
328.066, 6353.140
328.548, 6344.449
329.030, 6339.994
329.512, 6325.605
329.994, 6291.905
330.477, 6252.463
330.959, 6222.851
331.441, 6202.014
331.923, 6192.354
332.405, 6193.203
332.887, 6204.721
333.369, 6233.774
333.851, 6291.253
334.333, 6354.265
334.816, 6406.300
335.298, 6440.410
335.780, 6477.733
336.262, 6521.055
336.744, 6568.329
337.226, 6615.850
337.708, 6666.969
338.190, 6711.066
338.672, 6742.489
339.155, 6759.037
339.637, 6776.567
340.119, 6801.726
340.601, 6818.153
341.083, 6797.284
341.565, 6734.523
342.047, 6664.710
342.529, 6596.354
343.012, 6529.614
343.494, 6474.864
343.976, 6433.216
344.458, 6394.275
344.940, 6345.569
345.422, 6288.446
345.904, 6235.934
346.386, 6188.600
346.868, 6150.406
347.351, 6134.221
347.833, 6139.201
348.315, 6146.982
348.797, 6143.896
349.279, 6134.168
349.761, 6134.070
350.243, 6148.143
350.725, 6158.068
351.208, 6136.886
351.690, 6091.798
352.172, 6046.700
352.654, 6018.861
353.136, 5994.640
353.618, 5949.708
354.100, 5884.690
354.582, 5822.926
355.065, 5792.495
355.547, 5775.327
356.029, 5744.950
356.511, 5688.995
356.993, 5624.391
357.475, 5564.483
357.957, 5507.510
358.439, 5447.706
358.921, 5372.039
359.404, 5298.221
359.886, 5241.699
360.368, 5207.253
360.850, 5179.568
361.332, 5148.256
361.814, 5119.455
362.296, 5101.979
362.778, 5117.262
363.260, 5128.004
363.743, 5114.405
364.225, 5076.187
364.707, 5041.630
365.189, 5022.557
365.671, 5007.734
366.153, 4989.288
366.635, 4953.571
367.117, 4928.224
367.599, 4921.954
368.082, 4929.368
368.564, 4933.581
369.046, 4923.484
369.528, 4918.893
370.010, 4929.512
370.492, 4966.804
370.974, 4987.319
371.457, 4985.044
371.939, 4969.324
372.421, 4949.378
372.903, 4914.754
373.385, 4894.399
373.867, 4898.750
374.349, 4925.889
374.831, 4944.779
375.313, 4954.931
375.796, 4957.125
376.278, 4946.953
376.760, 4917.884
377.242, 4910.039
377.724, 4933.733
378.206, 4973.036
378.688, 4992.175
379.170, 4988.441
379.652, 4981.560
380.135, 4980.272
380.617, 4983.899
381.099, 4985.501
381.581, 4984.880
382.063, 4983.278
382.545, 4980.249
383.027, 4976.596
383.509, 4978.442
383.991, 4990.562
384.474, 5005.799
384.956, 5006.468
385.438, 4994.618
385.920, 4987.831
386.402, 5008.612
386.884, 5040.606
387.366, 5050.741
387.848, 5030.787
388.331, 5007.601
388.813, 5008.628
389.295, 5025.754
389.777, 5042.438
390.259, 5055.083
390.741, 5061.272
391.223, 5055.315
391.705, 5038.118
392.188, 5023.230
392.670, 5018.205
393.152, 5019.105
393.634, 5022.256
394.116, 5025.712
394.598, 5032.975
395.080, 5047.447
395.562, 5066.758
396.044, 5085.362
396.526, 5104.186
397.009, 5119.790
397.491, 5130.720
397.973, 5136.324
398.455, 5139.266
398.937, 5140.035
399.419, 5138.203
399.901, 5133.181
400.384, 5114.495
400.866, 5105.500
401.348, 5109.918
401.830, 5126.590
402.312, 5149.645
402.794, 5189.177
403.276, 5221.855
403.758, 5232.720
404.240, 5207.680
404.723, 5207.596
405.205, 5242.354
405.687, 5290.965
406.169, 5319.149
406.651, 5321.583
407.133, 5327.584
407.615, 5345.330
408.097, 5373.628
408.579, 5406.331
409.062, 5443.003
409.544, 5486.724
410.026, 5544.080
410.508, 5612.470
410.990, 5674.808
411.472, 5725.274
411.954, 5776.053
412.436, 5843.436
412.918, 5926.508
413.401, 6020.182
413.883, 6124.609
414.365, 6236.667
414.847, 6342.988
415.329, 6443.144
415.811, 6563.113
416.293, 6735.564
416.775, 6935.996
417.258, 7129.188
417.740, 7296.063
418.222, 7464.709
418.704, 7634.367
419.186, 7817.746
419.668, 8041.204
420.150, 8318.777
420.632, 8639.998
421.115, 9003.806
421.597, 9407.476
422.079, 9850.147
422.561, 10325.270
423.043, 10838.890
423.525, 11396.950
424.007, 12043.950
424.489, 12686.620
424.971, 13366.350
425.453, 14051.720
425.936, 14550.400
426.418, 14928.460
426.900, 15050.630
427.382, 14838.820
427.864, 14210.630
428.346, 13497.750
428.828, 12649.840
429.310, 11768.820
429.793, 10980.100
430.275, 10273.910
430.757, 9667.450
431.239, 9176.320
431.721, 8789.296
432.203, 8473.099
432.685, 8229.053
433.167, 8034.639
433.650, 7873.706
434.132, 7747.297
434.614, 7668.665
435.096, 7642.524
435.578, 7653.484
436.060, 7692.051
436.542, 7753.915
437.024, 7817.876
437.506, 7868.750
437.989, 7921.113
438.471, 7993.071
438.953, 8084.774
439.435, 8202.572
439.917, 8343.871
440.399, 8516.504
440.881, 8727.893
441.363, 8976.719
441.845, 9273.021
442.328, 9632.459
442.810, 10040.110
443.292, 10483.460
443.774, 10933.340
444.256, 11439.260
444.738, 12050.130
445.220, 12760.730
445.702, 13451.930
446.185, 14216.740
446.667, 14861.510
447.149, 15276.990
447.631, 15461.950
448.113, 15396.210
448.595, 15009.680
449.077, 14398.850
449.559, 13721.100
450.042, 12928.480
450.524, 12138.030
451.006, 11363.860
451.488, 10601.780
451.970, 9938.003
452.452, 9375.612
452.934, 8892.645
453.416, 8488.482
453.898, 8164.990
454.380, 7866.580
454.863, 7592.341
455.345, 7344.359
455.827, 7138.243
456.309, 6970.988
456.791, 6824.778
457.273, 6691.181
457.755, 6572.534
458.237, 6473.721
458.720, 6395.872
459.202, 6325.528
459.684, 6250.662
460.166, 6177.719
460.648, 6119.804
461.130, 6082.194
461.612, 6050.624
462.094, 6012.777
462.577, 5972.667
463.059, 5937.070
463.541, 5909.191
464.023, 5885.843
464.505, 5866.564
464.987, 5850.913
465.469, 5835.458
465.951, 5817.710
466.434, 5800.749
466.916, 5786.449
467.398, 5774.708
467.880, 5766.232
468.362, 5766.929
468.844, 5769.294
469.326, 5760.750
469.808, 5731.762
470.290, 5706.593
470.772, 5689.771
471.255, 5681.340
471.737, 5687.460
472.219, 5715.965
472.701, 5740.699
473.183, 5740.763
473.665, 5714.186
474.147, 5691.380
474.629, 5674.631
475.112, 5662.405
475.594, 5650.270
476.076, 5639.246
476.558, 5639.321
477.040, 5663.217
477.522, 5694.771
478.004, 5699.892
478.486, 5681.208
478.969, 5661.503
479.451, 5659.523
479.933, 5664.567
480.415, 5661.658
480.897, 5646.501
481.379, 5633.002
481.861, 5626.017
482.343, 5627.792
482.825, 5641.335
483.308, 5687.465
483.790, 5725.897
484.272, 5740.139
484.754, 5732.813
485.236, 5720.094
485.718, 5689.871
486.200, 5667.537
486.682, 5668.102
487.164, 5703.906
487.647, 5725.236
488.129, 5727.783
488.611, 5719.151
489.093, 5705.480
489.575, 5681.151
490.057, 5666.798
490.539, 5666.820
491.021, 5678.706
491.504, 5698.030
491.986, 5726.457
492.468, 5750.171
492.950, 5759.260
493.432, 5756.174
493.914, 5752.525
494.396, 5747.517
494.878, 5750.803
495.361, 5782.742
495.843, 5830.589
496.325, 5860.195
496.807, 5857.330
497.289, 5845.221
497.771, 5844.365
498.253, 5852.885
498.735, 5865.933
499.217, 5883.236
499.699, 5902.501
500.182, 5920.823
500.664, 5938.046
501.146, 5961.958
501.628, 6001.383
502.110, 6044.342
502.592, 6083.163
503.074, 6111.899
503.556, 6143.186
504.039, 6174.481
504.521, 6210.103
505.003, 6255.272
505.485, 6297.697
505.967, 6372.101
506.449, 6495.084
506.931, 6660.212
507.413, 6821.586
507.896, 6992.493
508.378, 7123.146
508.860, 7150.894
509.342, 7081.823
509.824, 7092.273
510.306, 7197.741
510.788, 7352.301
511.270, 7512.791
511.752, 7678.165
512.235, 7844.577
512.717, 7998.865
513.199, 8169.127
513.681, 8388.199
514.163, 8652.057
514.645, 8944.221
515.127, 9271.860
515.609, 9612.955
516.091, 9960.158
516.574, 10314.980
517.056, 10639.650
517.538, 10993.560
518.020, 11268.830
518.502, 11380.020
518.984, 11275.000
519.466, 11050.710
519.948, 10515.330
520.430, 9898.553
520.913, 9680.468
521.395, 10197.640
521.877, 10576.700
522.359, 10568.730
522.841, 10196.820
523.323, 9772.367
523.805, 9247.968
524.287, 8813.947
524.770, 8622.302
525.252, 8666.408
525.734, 8777.878
526.216, 8948.050
526.698, 9171.171
527.180, 9443.141
527.662, 9763.929
528.144, 10138.750
528.627, 10589.610
529.109, 11069.550
529.591, 11537.590
530.073, 11985.780
530.555, 12374.110
531.037, 12732.950
531.519, 12982.560
532.001, 13061.730
532.484, 12963.650
532.966, 12728.080
533.448, 12292.980
533.930, 11772.670
534.412, 11247.930
534.894, 10686.790
535.376, 10182.230
535.858, 9732.413
536.340, 9342.905
536.823, 9036.326
537.305, 8825.644
537.787, 8665.357
538.269, 8548.382
538.751, 8470.736
539.233, 8400.541
539.715, 8334.598
540.197, 8290.600
540.679, 8290.909
541.162, 8326.684
541.644, 8349.950
542.126, 8357.006
542.608, 8359.529
543.090, 8364.400
543.572, 8374.263
544.054, 8395.529
544.536, 8435.771
545.018, 8479.740
545.501, 8522.161
545.983, 8558.760
546.465, 8578.889
546.947, 8559.431
547.429, 8539.164
547.911, 8537.871
548.393, 8556.984
548.875, 8575.051
549.357, 8597.056
549.840, 8610.165
550.322, 8604.220
550.804, 8558.284
551.286, 8544.372
551.768, 8576.855
552.250, 8626.378
552.732, 8651.072
553.214, 8645.939
553.697, 8647.558
554.179, 8665.809
554.661, 8693.908
555.143, 8713.641
555.625, 8725.763
556.107, 8742.011
556.589, 8769.684
557.071, 8805.630
557.554, 8846.628
558.036, 8892.405
558.518, 8938.194
559.000, 8969.016
559.482, 9003.093
559.964, 9062.915
560.446, 9165.318
560.928, 9263.282
561.411, 9328.136
561.893, 9380.209
562.375, 9446.271
562.857, 9534.333
563.339, 9633.414
563.821, 9742.218
564.303, 9860.732
564.785, 9990.615
565.267, 10130.570
565.750, 10279.160
566.232, 10436.410
566.714, 10601.040
567.196, 10767.620
567.678, 10929.830
568.160, 11114.770
568.642, 11353.160
569.124, 11634.790
569.606, 11934.790
570.089, 12248.110
570.571, 12573.600
571.053, 12893.490
571.535, 13222.920
572.017, 13587.560
572.499, 14021.820
572.981, 14470.370
573.463, 14921.120
573.945, 15361.050
574.428, 15761.810
574.910, 16122.390
575.392, 16428.920
575.874, 16676.891
576.356, 16868.070
576.838, 16974.529
577.320, 16958.670
577.802, 16897.051
578.284, 16832.340
578.767, 16756.850
579.249, 16700.100
579.731, 16653.020
580.213, 16640.240
580.695, 16703.490
581.177, 16840.980
581.659, 17015.250
582.141, 17225.990
582.624, 17453.721
583.106, 17682.631
583.588, 17902.949
584.070, 18076.189
584.552, 18166.811
585.034, 18203.609
585.516, 18215.279
585.998, 18202.180
586.481, 18145.369
586.963, 18029.930
587.445, 17871.820
587.927, 17671.689
588.409, 17399.859
588.891, 17162.330
589.373, 16953.900
589.855, 16794.859
590.338, 16704.990
590.820, 16673.551
591.302, 16733.520
591.784, 16886.250
592.266, 17135.100
592.748, 17517.250
593.230, 18045.811
593.712, 18590.391
594.194, 19141.150
594.677, 19658.680
595.159, 20066.020
595.641, 20358.369
596.123, 20455.631
596.605, 20292.119
597.087, 19908.490
597.569, 19321.789
598.051, 18520.920
598.533, 17645.811
599.016, 16696.131
599.498, 15747.680
599.980, 14873.210
600.462, 14077.880
600.944, 13357.820
601.426, 12725.950
601.908, 12171.320
602.390, 11685.660
602.872, 11289.500
603.355, 10932.220
603.837, 10601.170
604.319, 10303.530
604.801, 10048.050
605.283, 9836.044
605.765, 9651.658
606.247, 9465.914
606.729, 9298.752
607.211, 9219.301
607.694, 9229.473
608.176, 9296.506
608.658, 9526.784
609.140, 9746.479
609.622, 9677.485
610.104, 9190.152
610.586, 8710.300
611.068, 8462.123
611.551, 8351.849
612.033, 8264.626
612.515, 8173.312
612.997, 8104.815
613.479, 8071.236
613.961, 8061.920
614.443, 8054.761
614.925, 8056.430
615.407, 8045.939
615.890, 8012.331
616.372, 7960.770
616.854, 7927.834
617.336, 7916.253
617.818, 7897.306
618.300, 7847.838
618.782, 7776.126
619.265, 7704.300
619.747, 7632.226
620.229, 7566.959
620.711, 7516.949
621.193, 7475.895
621.675, 7437.443
622.157, 7402.752
622.639, 7362.886
623.121, 7307.596
623.604, 7246.858
624.086, 7193.331
624.568, 7140.859
625.050, 7106.667
625.532, 7098.275
626.014, 7108.561
626.496, 7118.728
626.978, 7131.191
627.460, 7134.607
627.943, 7112.141
628.425, 7077.655
628.907, 7122.648
629.389, 7249.515
629.871, 7352.918
630.353, 7330.933
630.835, 7240.329
631.317, 7189.013
631.799, 7185.244
632.282, 7199.828
632.764, 7222.361
633.246, 7247.101
633.728, 7269.629
634.210, 7293.908
634.692, 7305.716
635.174, 7293.604
635.656, 7269.215
636.138, 7249.235
636.621, 7243.672
637.103, 7225.218
637.585, 7182.481
638.067, 7128.419
638.549, 7100.603
639.031, 7104.087
