##NAMES=Hydrozincite
##RRUFFID=R050635
##IDEAL CHEMISTRY=Zn^2+^_5_(CO_3_)_2_(OH)_6_
##LOCALITY=Ojuela mine, Mapimi, Durango, Mexico
##OWNER=RRUFF
##SOURCE=University of Arizona Mineral Museum
##DESCRIPTION=Sample is coated with colorless thin bladed crystals
##STATUS=The identification of this mineral is confirmed by single-crystal X-ray diffraction and chemical analysis.
##URL=rruff.info/R050635
##MEASURED CHEMISTRY=Zn_5.00_(CO_3_)_2_(OH)_6_
134.877, 2522.396
135.359, 2616.904
135.841, 2708.628
136.323, 2797.925
136.805, 2884.574
137.288, 2965.388
137.770, 3046.392
138.252, 3131.430
138.734, 3217.943
139.216, 3301.323
139.698, 3377.821
140.180, 3447.736
140.662, 3513.313
141.144, 3583.908
141.626, 3641.038
142.109, 3670.903
142.591, 3681.075
143.073, 3689.618
143.555, 3712.250
144.037, 3750.450
144.519, 3788.513
145.001, 3830.319
145.484, 3868.465
145.966, 3895.517
146.448, 3914.788
146.930, 3937.070
147.412, 3973.801
147.894, 4028.656
148.376, 4080.630
148.858, 4131.020
149.340, 4178.067
149.822, 4225.111
150.305, 4270.064
150.787, 4305.060
151.269, 4321.343
151.751, 4314.864
152.233, 4300.525
152.715, 4283.555
153.197, 4256.541
153.679, 4214.607
154.161, 4157.509
154.644, 4087.607
155.126, 4006.802
155.608, 3907.626
156.090, 3817.708
156.572, 3739.649
157.054, 3668.077
157.536, 3601.741
158.018, 3539.730
158.501, 3477.712
158.983, 3409.127
159.465, 3325.658
159.947, 3259.711
160.429, 3221.437
160.911, 3194.110
161.393, 3163.510
161.875, 3126.595
162.357, 3088.608
162.840, 3057.017
163.322, 3035.077
163.804, 3012.026
164.286, 2988.266
164.768, 2962.946
165.250, 2934.096
165.732, 2901.146
166.214, 2868.004
166.697, 2840.660
167.179, 2820.225
167.661, 2802.123
168.143, 2787.611
168.625, 2774.550
169.107, 2760.742
169.589, 2745.618
170.071, 2729.535
170.553, 2712.753
171.036, 2694.878
171.518, 2677.781
172.000, 2660.760
172.482, 2645.053
172.964, 2632.945
173.446, 2625.358
173.928, 2619.488
174.410, 2609.745
174.893, 2593.675
175.375, 2584.520
175.857, 2590.795
176.339, 2603.987
176.821, 2611.995
177.303, 2611.536
177.785, 2605.740
178.267, 2597.670
178.749, 2586.504
179.232, 2578.130
179.714, 2573.462
180.196, 2572.622
180.678, 2577.644
181.160, 2590.600
181.642, 2604.276
182.124, 2606.075
182.606, 2595.625
183.089, 2585.631
183.571, 2577.061
184.053, 2571.788
184.535, 2574.646
185.017, 2588.550
185.499, 2605.549
185.981, 2613.265
186.463, 2611.509
186.945, 2611.246
187.428, 2616.329
187.910, 2624.947
188.392, 2635.035
188.874, 2647.074
189.356, 2657.602
189.838, 2659.938
190.320, 2654.197
190.802, 2650.673
191.285, 2655.250
191.767, 2663.732
192.249, 2667.299
192.731, 2662.312
193.213, 2657.288
193.695, 2665.635
194.177, 2686.576
194.659, 2703.987
195.141, 2712.545
195.624, 2714.342
196.106, 2711.938
196.588, 2704.713
197.070, 2696.536
197.552, 2691.931
198.034, 2690.482
198.516, 2689.952
198.998, 2689.869
199.480, 2690.236
199.963, 2691.402
200.445, 2693.780
200.927, 2695.778
201.409, 2693.721
201.891, 2688.395
202.373, 2687.316
202.855, 2698.498
203.337, 2713.467
203.820, 2718.466
204.302, 2710.575
204.784, 2697.409
205.266, 2682.192
205.748, 2665.959
206.230, 2659.269
206.712, 2673.509
207.194, 2695.540
207.676, 2705.581
208.159, 2699.877
208.641, 2691.825
209.123, 2695.346
209.605, 2707.868
210.087, 2716.371
210.569, 2713.416
211.051, 2707.253
211.533, 2709.402
212.016, 2721.593
212.498, 2733.906
212.980, 2736.905
213.462, 2732.536
213.944, 2729.959
214.426, 2728.064
214.908, 2730.032
215.390, 2741.557
215.872, 2763.246
216.355, 2785.192
216.837, 2800.902
217.319, 2810.564
217.801, 2816.382
218.283, 2815.773
218.765, 2813.194
219.247, 2812.206
219.729, 2812.880
220.212, 2814.358
220.694, 2816.173
221.176, 2818.426
221.658, 2821.260
222.140, 2826.628
222.622, 2831.031
223.104, 2830.248
223.586, 2825.044
224.068, 2822.174
224.551, 2825.362
225.033, 2834.253
225.515, 2845.553
225.997, 2865.380
226.479, 2881.322
226.961, 2883.301
227.443, 2874.155
227.925, 2865.771
228.408, 2864.166
228.890, 2867.349
229.372, 2868.842
229.854, 2867.253
230.336, 2866.125
230.818, 2869.942
231.300, 2875.776
231.782, 2874.923
232.264, 2862.253
232.747, 2842.690
233.229, 2828.521
233.711, 2820.513
234.193, 2814.735
234.675, 2811.418
235.157, 2809.362
235.639, 2806.530
236.121, 2802.341
236.604, 2796.648
237.086, 2788.148
237.568, 2774.178
238.050, 2764.476
238.532, 2767.386
239.014, 2773.588
239.496, 2768.239
239.978, 2746.554
240.460, 2720.507
240.943, 2708.273
241.425, 2715.268
241.907, 2720.661
242.389, 2724.004
242.871, 2724.508
243.353, 2720.124
243.835, 2710.722
244.317, 2700.322
244.799, 2693.737
245.282, 2692.581
245.764, 2689.524
246.246, 2680.509
246.728, 2672.566
247.210, 2671.776
247.692, 2678.021
248.174, 2686.054
248.656, 2691.018
249.139, 2692.369
249.621, 2694.601
250.103, 2701.633
250.585, 2705.950
251.067, 2700.104
251.549, 2687.210
252.031, 2677.973
252.513, 2681.302
252.995, 2696.951
253.478, 2706.184
253.960, 2707.440
254.442, 2704.975
254.924, 2698.758
255.406, 2689.792
255.888, 2678.889
256.370, 2666.036
256.852, 2652.576
257.335, 2645.538
257.817, 2648.881
258.299, 2654.712
258.781, 2665.200
259.263, 2676.707
259.745, 2684.205
260.227, 2685.346
260.709, 2683.050
261.191, 2685.026
261.674, 2695.778
262.156, 2704.193
262.638, 2711.148
263.120, 2714.795
263.602, 2712.174
264.084, 2702.790
264.566, 2690.915
265.048, 2682.519
265.530, 2676.160
266.013, 2677.415
266.495, 2693.065
266.977, 2710.429
267.459, 2723.441
267.941, 2730.542
268.423, 2731.807
268.905, 2724.820
269.387, 2706.639
269.870, 2696.138
270.352, 2701.707
270.834, 2708.275
271.316, 2710.132
271.798, 2707.813
272.280, 2704.986
272.762, 2705.895
273.244, 2709.732
273.727, 2705.236
274.209, 2680.429
274.691, 2663.737
275.173, 2671.016
275.655, 2693.181
276.137, 2713.784
276.619, 2725.529
277.101, 2729.232
277.583, 2724.974
278.065, 2707.805
278.548, 2695.000
279.030, 2697.416
279.512, 2706.662
279.994, 2714.030
280.476, 2717.381
280.958, 2716.796
281.440, 2710.845
281.922, 2698.857
282.405, 2688.448
282.887, 2683.322
283.369, 2680.401
283.851, 2675.675
284.333, 2668.030
284.815, 2662.220
285.297, 2663.740
285.779, 2671.021
286.262, 2674.649
286.744, 2669.673
287.226, 2664.007
287.708, 2669.499
288.190, 2686.561
288.672, 2698.114
289.154, 2693.828
289.636, 2680.235
290.118, 2667.686
290.601, 2657.269
291.083, 2650.756
291.565, 2651.525
292.047, 2659.114
292.529, 2666.228
293.011, 2672.520
293.493, 2677.562
293.975, 2680.546
294.457, 2681.572
294.940, 2682.009
295.422, 2682.759
295.904, 2683.777
296.386, 2684.579
296.868, 2687.551
297.350, 2687.966
297.832, 2680.483
298.314, 2668.663
298.797, 2661.225
299.279, 2662.779
299.761, 2671.078
300.243, 2678.853
300.725, 2688.730
301.207, 2694.882
301.689, 2694.162
302.171, 2690.394
302.654, 2688.396
303.136, 2689.574
303.618, 2691.052
304.100, 2687.931
304.582, 2676.533
305.064, 2668.275
305.546, 2662.050
306.028, 2659.338
306.510, 2662.022
306.992, 2669.598
307.475, 2679.740
307.957, 2691.573
308.439, 2706.271
308.921, 2710.307
309.403, 2686.466
309.885, 2668.498
310.367, 2672.295
310.849, 2689.324
311.332, 2701.027
311.814, 2694.510
312.296, 2675.790
312.778, 2669.438
313.260, 2684.142
313.742, 2695.623
314.224, 2691.761
314.706, 2684.155
315.189, 2687.348
315.671, 2707.728
316.153, 2730.841
316.635, 2734.656
317.117, 2716.666
317.599, 2700.042
318.081, 2687.870
318.563, 2681.332
319.045, 2684.167
319.528, 2696.385
320.010, 2706.406
320.492, 2703.100
320.974, 2690.356
321.456, 2683.122
321.938, 2684.034
322.420, 2689.204
322.902, 2696.652
323.384, 2705.835
323.867, 2714.665
324.349, 2723.590
324.831, 2731.280
325.313, 2735.112
325.795, 2735.086
326.277, 2736.116
326.759, 2742.624
327.241, 2752.582
327.724, 2756.975
328.206, 2753.157
328.688, 2746.805
329.170, 2737.206
329.652, 2727.009
330.134, 2722.631
330.616, 2727.076
331.098, 2737.293
331.581, 2747.241
332.063, 2759.484
332.545, 2766.632
333.027, 2762.013
333.509, 2755.616
333.991, 2759.187
334.473, 2773.573
334.955, 2787.572
335.437, 2787.828
335.919, 2770.395
336.402, 2759.550
336.884, 2758.192
337.366, 2759.656
337.848, 2761.093
338.330, 2763.150
338.812, 2769.101
339.294, 2782.451
339.776, 2799.673
340.259, 2802.751
340.741, 2779.820
341.223, 2760.844
341.705, 2749.541
342.187, 2745.780
342.669, 2752.023
343.151, 2769.413
343.633, 2788.443
344.116, 2795.660
344.598, 2789.518
345.080, 2782.772
345.562, 2776.108
346.044, 2770.750
346.526, 2768.342
347.008, 2768.529
347.490, 2768.067
347.972, 2765.054
348.455, 2759.870
348.937, 2753.129
349.419, 2744.258
349.901, 2735.603
350.383, 2726.283
350.865, 2718.402
351.347, 2718.224
351.829, 2737.713
352.311, 2756.263
352.794, 2752.920
353.276, 2731.886
353.758, 2715.294
354.240, 2713.381
354.722, 2721.573
355.204, 2728.703
355.686, 2733.889
356.168, 2740.100
356.651, 2750.736
357.133, 2761.563
357.615, 2767.887
358.097, 2768.566
358.579, 2764.294
359.061, 2754.842
359.543, 2737.613
360.025, 2727.693
360.508, 2727.836
360.990, 2731.442
361.472, 2736.007
361.954, 2741.482
362.436, 2749.575
362.918, 2762.269
363.400, 2776.997
363.882, 2780.998
364.364, 2763.799
364.846, 2752.075
365.329, 2751.736
365.811, 2757.384
366.293, 2764.931
366.775, 2773.112
367.257, 2780.534
367.739, 2785.672
368.221, 2788.515
368.703, 2789.248
369.186, 2785.556
369.668, 2782.293
370.150, 2782.051
370.632, 2784.725
371.114, 2789.652
371.596, 2798.463
372.078, 2808.694
372.560, 2815.006
373.043, 2816.733
373.525, 2819.298
374.007, 2826.247
374.489, 2836.161
374.971, 2845.509
375.453, 2856.255
375.935, 2863.239
376.417, 2858.672
376.899, 2848.544
377.382, 2846.980
377.864, 2858.835
378.346, 2877.964
378.828, 2895.891
379.310, 2912.605
379.792, 2927.864
380.274, 2943.991
380.756, 2956.880
381.238, 2961.671
381.721, 2959.905
382.203, 2957.778
382.685, 2959.292
383.167, 2964.818
383.649, 2978.237
384.131, 3011.043
384.613, 3038.440
385.095, 3058.793
385.578, 3070.980
386.060, 3071.948
386.542, 3060.913
387.024, 3044.943
387.506, 3034.331
387.988, 3030.125
388.470, 3025.104
388.952, 3019.786
389.435, 3012.105
389.917, 3000.156
390.399, 2984.667
390.881, 2968.484
391.363, 2955.057
391.845, 2941.551
392.327, 2919.831
392.809, 2887.933
393.291, 2859.969
393.773, 2844.625
394.256, 2838.227
394.738, 2832.684
395.220, 2830.311
395.702, 2824.035
396.184, 2806.327
396.666, 2782.724
397.148, 2764.230
397.630, 2754.023
398.113, 2748.965
398.595, 2745.655
399.077, 2745.032
399.559, 2742.255
400.041, 2736.737
400.523, 2729.671
401.005, 2718.521
401.487, 2706.173
401.970, 2700.118
402.452, 2705.608
402.934, 2719.819
403.416, 2731.661
403.898, 2747.894
404.380, 2750.044
404.862, 2725.295
405.344, 2693.795
405.826, 2670.237
406.309, 2658.364
406.791, 2656.908
407.273, 2670.214
407.755, 2697.506
408.237, 2711.521
408.719, 2704.413
409.201, 2693.956
409.683, 2691.161
410.165, 2692.967
410.648, 2692.681
411.130, 2685.978
411.612, 2678.583
412.094, 2678.486
412.576, 2684.389
413.058, 2685.387
413.540, 2675.297
414.022, 2660.950
414.504, 2655.494
414.987, 2660.521
415.469, 2665.666
415.951, 2670.320
416.433, 2673.381
416.915, 2672.706
417.397, 2668.735
417.879, 2665.203
418.362, 2665.539
418.844, 2669.354
419.326, 2669.053
419.808, 2658.814
420.290, 2651.187
420.772, 2648.260
421.254, 2649.000
421.736, 2654.043
422.218, 2663.184
422.701, 2670.746
423.183, 2666.818
423.665, 2649.143
424.147, 2637.136
424.629, 2633.162
425.111, 2634.483
425.593, 2643.650
426.075, 2656.939
426.557, 2663.963
427.040, 2656.149
427.522, 2642.526
428.004, 2635.126
428.486, 2633.891
428.968, 2636.957
429.450, 2646.930
429.932, 2657.603
430.414, 2655.574
430.897, 2636.195
431.379, 2622.026
431.861, 2624.390
432.343, 2632.046
432.825, 2630.548
433.307, 2619.472
433.789, 2611.597
434.271, 2619.123
434.753, 2641.234
435.236, 2653.298
435.718, 2646.651
436.200, 2640.185
436.682, 2637.483
437.164, 2636.750
437.646, 2635.146
438.128, 2631.885
438.610, 2629.590
439.092, 2632.881
439.575, 2642.720
440.057, 2649.188
440.539, 2649.910
441.021, 2649.193
441.503, 2649.954
441.985, 2651.274
442.467, 2650.711
442.949, 2646.598
443.431, 2640.870
443.914, 2634.820
444.396, 2628.675
444.878, 2625.334
445.360, 2626.612
445.842, 2630.184
446.324, 2632.846
446.806, 2635.665
447.289, 2633.864
447.771, 2620.153
448.253, 2606.108
448.735, 2603.018
449.217, 2609.876
449.699, 2617.803
450.181, 2620.530
450.663, 2618.829
451.145, 2616.970
451.628, 2611.784
452.110, 2611.192
452.592, 2622.496
453.074, 2634.583
453.556, 2635.573
454.038, 2624.415
454.520, 2612.433
455.002, 2612.486
455.484, 2622.939
455.967, 2627.931
456.449, 2625.900
456.931, 2621.125
457.413, 2613.692
457.895, 2605.588
458.377, 2600.091
458.859, 2597.625
459.341, 2598.121
459.823, 2603.787
460.306, 2612.304
460.788, 2618.641
461.270, 2621.763
461.752, 2619.830
462.234, 2608.288
462.716, 2583.223
463.198, 2574.368
463.680, 2599.485
464.163, 2621.241
464.645, 2620.018
465.127, 2604.020
465.609, 2587.523
466.091, 2576.926
466.573, 2574.057
467.055, 2587.139
467.537, 2626.665
468.020, 2644.969
468.502, 2616.072
468.984, 2583.321
469.466, 2568.470
469.948, 2569.089
470.430, 2573.102
470.912, 2575.835
471.394, 2577.518
471.876, 2577.164
472.358, 2574.930
472.841, 2577.108
473.323, 2589.301
473.805, 2603.665
474.287, 2602.490
474.769, 2579.461
475.251, 2569.939
475.733, 2597.239
476.216, 2628.167
476.698, 2629.543
477.180, 2605.435
477.662, 2585.111
478.144, 2589.102
478.626, 2610.866
479.108, 2620.899
479.590, 2611.524
480.072, 2602.908
480.555, 2599.767
481.037, 2596.364
481.519, 2584.818
482.001, 2566.419
482.483, 2553.803
482.965, 2560.842
483.447, 2581.692
483.929, 2597.787
484.411, 2609.800
484.894, 2613.486
485.376, 2601.526
485.858, 2582.000
486.340, 2571.609
486.822, 2572.653
487.304, 2577.405
487.786, 2589.582
488.268, 2600.692
488.750, 2595.298
489.233, 2573.485
489.715, 2555.405
490.197, 2560.066
490.679, 2584.719
491.161, 2592.030
491.643, 2559.181
492.125, 2536.510
492.607, 2534.817
493.090, 2543.645
493.572, 2555.062
494.054, 2566.505
494.536, 2575.464
495.018, 2580.558
495.500, 2581.420
495.982, 2572.624
496.464, 2547.313
496.947, 2530.990
497.429, 2549.182
497.911, 2582.963
498.393, 2595.641
498.875, 2574.166
499.357, 2552.553
499.839, 2547.054
500.321, 2551.851
500.803, 2560.683
501.285, 2571.686
501.768, 2579.428
502.250, 2577.820
502.732, 2567.086
503.214, 2562.750
503.696, 2573.832
504.178, 2580.724
504.660, 2576.320
505.142, 2568.202
505.625, 2565.477
506.107, 2569.866
506.589, 2574.109
507.071, 2570.681
507.553, 2560.292
508.035, 2546.802
508.517, 2526.806
508.999, 2513.228
509.482, 2517.889
509.964, 2533.082
510.446, 2544.300
510.928, 2551.630
511.410, 2552.436
511.892, 2537.236
512.374, 2517.952
512.856, 2514.044
513.338, 2527.883
513.821, 2546.854
514.303, 2561.040
514.785, 2570.248
515.267, 2569.210
515.749, 2543.415
516.231, 2525.370
516.713, 2526.120
517.195, 2533.016
517.677, 2533.823
518.160, 2526.284
518.642, 2516.698
519.124, 2509.216
519.606, 2504.181
520.088, 2503.729
520.570, 2508.965
521.052, 2514.268
521.534, 2516.361
522.016, 2516.582
522.499, 2518.543
522.981, 2524.196
523.463, 2527.065
523.945, 2522.749
524.427, 2515.940
524.909, 2511.536
525.391, 2510.066
525.873, 2510.156
526.356, 2511.162
526.838, 2512.429
527.320, 2509.948
527.802, 2500.325
528.284, 2492.816
528.766, 2485.858
529.248, 2483.368
529.730, 2493.103
530.213, 2513.031
530.695, 2526.502
531.177, 2517.225
531.659, 2496.011
532.141, 2482.098
532.623, 2475.632
533.105, 2477.073
533.587, 2490.691
534.070, 2507.419
534.552, 2506.882
535.034, 2479.660
535.516, 2465.491
535.998, 2480.745
536.480, 2500.037
536.962, 2506.502
537.444, 2501.466
537.926, 2492.324
538.409, 2482.727
538.891, 2474.454
539.373, 2473.223
539.855, 2482.473
540.337, 2484.250
540.819, 2469.582
541.301, 2453.391
541.783, 2444.719
542.265, 2442.635
542.748, 2443.332
543.230, 2450.667
543.712, 2455.189
544.194, 2441.804
544.676, 2418.222
545.158, 2409.484
545.640, 2424.034
546.122, 2447.339
546.604, 2461.705
547.087, 2465.960
547.569, 2468.443
548.051, 2469.531
548.533, 2468.624
549.015, 2462.009
549.497, 2454.702
549.979, 2454.329
550.461, 2463.121
550.943, 2473.687
551.426, 2476.844
551.908, 2474.002
552.390, 2476.364
552.872, 2487.824
553.354, 2493.101
553.836, 2478.400
554.318, 2451.343
554.800, 2434.391
555.283, 2430.403
555.765, 2431.417
556.247, 2437.296
556.729, 2445.600
557.211, 2457.172
557.693, 2469.746
558.175, 2473.502
558.657, 2459.041
559.140, 2432.778
559.622, 2423.346
560.104, 2439.203
560.586, 2452.189
561.068, 2455.325
561.550, 2455.018
562.032, 2455.692
562.514, 2457.032
562.997, 2455.345
563.479, 2443.190
563.961, 2431.196
564.443, 2436.564
564.925, 2454.194
565.407, 2459.304
565.889, 2441.257
566.371, 2416.431
566.853, 2409.548
567.336, 2427.469
567.818, 2435.037
568.300, 2421.452
568.782, 2410.775
569.264, 2414.381
569.746, 2425.489
570.228, 2434.972
570.710, 2439.835
571.192, 2439.287
571.675, 2426.691
572.157, 2406.234
572.639, 2403.805
573.121, 2425.663
573.603, 2446.572
574.085, 2450.018
574.567, 2440.662
575.049, 2434.559
575.531, 2434.016
576.014, 2432.349
576.496, 2425.808
576.978, 2419.110
577.460, 2416.713
577.942, 2418.499
578.424, 2421.583
578.906, 2423.846
579.388, 2426.496
579.870, 2434.855
580.353, 2452.262
580.835, 2460.901
581.317, 2454.151
581.799, 2440.779
582.281, 2425.122
582.763, 2408.521
583.245, 2397.260
583.727, 2395.497
584.210, 2397.253
584.692, 2399.120
585.174, 2401.255
585.656, 2404.481
586.138, 2408.929
586.620, 2412.988
587.102, 2414.761
587.584, 2414.186
588.067, 2413.600
588.549, 2414.023
589.031, 2412.886
589.513, 2408.766
589.995, 2403.437
590.477, 2397.921
590.959, 2392.526
591.441, 2389.209
591.924, 2389.242
592.406, 2392.115
592.888, 2399.453
593.370, 2410.181
593.852, 2415.383
594.334, 2410.145
594.816, 2399.672
595.298, 2393.617
595.780, 2393.759
596.263, 2393.640
596.745, 2392.613
597.227, 2392.029
597.709, 2392.262
598.191, 2393.400
598.673, 2394.927
599.155, 2396.458
599.637, 2400.720
600.119, 2417.027
600.602, 2439.434
601.084, 2440.017
601.566, 2413.173
602.048, 2386.777
602.530, 2379.427
603.012, 2386.000
603.494, 2387.921
603.976, 2377.650
604.458, 2375.611
604.941, 2395.888
605.423, 2415.235
605.905, 2412.394
606.387, 2392.841
606.869, 2376.665
607.351, 2375.569
607.833, 2382.694
608.315, 2386.410
608.797, 2386.716
609.280, 2387.532
609.762, 2390.333
610.244, 2391.875
610.726, 2387.862
611.208, 2379.748
611.690, 2376.347
612.172, 2383.224
612.654, 2388.247
613.137, 2384.568
613.619, 2379.143
614.101, 2381.325
614.583, 2390.629
615.065, 2397.275
615.547, 2392.752
616.029, 2381.402
616.511, 2377.747
616.994, 2383.417
617.476, 2387.765
617.958, 2389.646
618.440, 2387.729
618.922, 2377.620
619.404, 2361.091
619.886, 2350.676
620.368, 2350.099
620.851, 2354.382
621.333, 2365.661
621.815, 2378.372
622.297, 2382.863
622.779, 2377.884
623.261, 2371.982
623.743, 2374.273
624.225, 2382.791
624.707, 2383.532
625.190, 2373.027
625.672, 2365.304
626.154, 2366.310
626.636, 2370.255
627.118, 2371.593
627.600, 2370.336
628.082, 2367.915
628.564, 2365.371
629.046, 2361.154
629.529, 2351.643
630.011, 2340.292
630.493, 2333.854
630.975, 2334.198
631.457, 2338.282
631.939, 2344.049
632.421, 2351.097
632.903, 2348.815
633.385, 2329.720
633.868, 2318.671
634.350, 2331.514
634.832, 2351.247
635.314, 2361.188
635.796, 2360.572
636.278, 2355.964
636.760, 2345.510
637.242, 2335.380
637.724, 2329.605
638.207, 2328.039
638.689, 2331.795
639.171, 2340.807
639.653, 2348.276
640.135, 2343.402
640.617, 2326.078
641.099, 2322.898
641.581, 2341.948
642.064, 2358.114
642.546, 2362.619
643.028, 2359.367
643.510, 2348.942
643.992, 2330.681
644.474, 2320.806
644.956, 2334.958
645.438, 2350.567
645.920, 2345.010
646.403, 2327.015
646.885, 2318.718
647.367, 2327.558
647.849, 2341.991
648.331, 2347.688
648.813, 2344.638
649.295, 2338.827
649.778, 2327.627
650.260, 2319.395
650.742, 2317.227
651.224, 2319.776
651.706, 2327.028
652.188, 2339.545
652.670, 2348.589
653.152, 2352.469
653.634, 2351.235
654.117, 2341.650
654.599, 2327.631
655.081, 2316.007
655.563, 2309.284
656.045, 2307.645
656.527, 2313.206
657.009, 2325.251
657.491, 2330.280
657.973, 2325.257
