##NAMES=Hydroxylapatite
##RRUFFID=R060180
##IDEAL CHEMISTRY=Ca_5_(P^5+^O_4_)_3_OH
##LOCALITY=Holly Springs, Georgia, USA
##OWNER=RRUFF
##SOURCE=Julian Gray
##DESCRIPTION=Tan colored nodule in talc schist associated with serpentinite
##STATUS=The identification of this mineral has been confirmed by X-ray diffraction and chemical analysis
##URL=rruff.info/R060180
##MEASURED CHEMISTRY=Ca_5.00_(P_1.00_O_4_)_3_((OH)_0.98_Cl_0.02_)
90.26367, 235.0464
90.74579, 234.6485
91.22791, 234.8857
91.71002, 235.6785
92.19214, 236.3205
92.67426, 235.9664
93.15637, 234.9759
93.63850, 234.3344
94.12061, 234.7514
94.60273, 235.6305
95.08485, 235.3093
95.56696, 233.6267
96.04908, 231.8525
96.53120, 231.5489
97.01331, 232.6677
97.49543, 234.1452
97.97755, 235.6105
98.45966, 237.0548
98.94178, 238.6847
99.42390, 240.7178
99.90602, 242.6207
100.3881, 243.2984
100.8703, 242.5125
101.3524, 241.3376
101.8345, 239.9651
102.3166, 238.0014
102.7987, 237.6589
103.2808, 239.4438
103.7630, 242.9574
104.2451, 246.3799
104.7272, 249.6872
105.2093, 252.9789
105.6914, 256.6086
106.1735, 261.8954
106.6557, 265.0923
107.1378, 264.3323
107.6199, 259.3841
108.1020, 258.3271
108.5841, 262.9250
109.0662, 270.4996
109.5484, 278.6998
110.0305, 286.9054
110.5126, 296.4401
110.9947, 307.6003
111.4768, 320.6583
111.9590, 334.5706
112.4411, 347.9530
112.9232, 362.5671
113.4053, 380.2755
113.8874, 400.7958
114.3695, 425.0910
114.8517, 453.5880
115.3338, 486.9062
115.8159, 522.8284
116.2980, 558.4534
116.7801, 596.4861
117.2622, 642.3203
117.7444, 699.5101
118.2265, 764.6231
118.7086, 835.1744
119.1907, 911.4438
119.6728, 993.1624
120.1549, 1079.690
120.6371, 1171.429
121.1192, 1270.442
121.6013, 1379.665
122.0834, 1495.301
122.5655, 1612.700
123.0477, 1730.557
123.5298, 1849.530
124.0119, 1971.725
124.4940, 2096.804
124.9761, 2220.508
125.4582, 2338.239
125.9404, 2451.360
126.4225, 2561.489
126.9046, 2667.099
127.3867, 2770.761
127.8688, 2875.931
128.3509, 2982.504
128.8331, 3091.616
129.3152, 3203.266
129.7973, 3318.503
130.2794, 3439.520
130.7615, 3564.177
131.2436, 3695.090
131.7258, 3840.435
132.2079, 4001.578
132.6900, 4174.047
133.1721, 4353.590
133.6542, 4539.500
134.1364, 4727.748
134.6185, 4919.182
135.1006, 5114.388
135.5827, 5306.329
136.0648, 5496.829
136.5469, 5683.205
137.0291, 5861.563
137.5112, 6032.336
137.9933, 6188.321
138.4754, 6326.573
138.9575, 6445.440
139.4396, 6548.543
139.9218, 6632.142
140.4039, 6699.861
140.8860, 6767.171
141.3681, 6833.441
141.8502, 6899.670
142.3323, 6963.885
142.8145, 7023.942
143.2966, 7089.640
143.7787, 7161.622
144.2608, 7240.521
144.7429, 7325.101
145.2251, 7415.759
145.7072, 7512.803
146.1893, 7617.126
146.6714, 7730.573
147.1535, 7848.279
147.6356, 7968.459
148.1178, 8090.218
148.5999, 8217.420
149.0820, 8351.743
149.5641, 8490.364
150.0462, 8628.679
150.5283, 8766.060
151.0105, 8901.997
151.4926, 8956.288
151.9747, 9000.254
152.4568, 9037.080
152.9389, 9069.267
153.4210, 9094.173
153.9032, 9108.335
154.3853, 9110.538
154.8674, 9103.089
155.3495, 9085.653
155.8316, 9054.151
156.3138, 9022.210
156.7959, 8987.747
157.2780, 8954.229
157.7601, 8928.475
158.2422, 8916.813
158.7243, 8908.901
159.2065, 8898.952
159.6886, 8881.890
160.1707, 8869.640
160.6528, 8866.029
161.1349, 8869.565
161.6170, 8876.641
162.0992, 8886.466
162.5813, 8898.859
163.0634, 8914.274
163.5455, 8937.817
164.0276, 8957.479
164.5097, 8965.210
164.9919, 8963.701
165.4740, 8963.333
165.9561, 8966.726
166.4382, 8974.672
166.9203, 8988.253
167.4025, 9013.396
167.8846, 9038.559
168.3667, 9055.362
168.8488, 9065.095
169.3309, 9075.843
169.8130, 9093.847
170.2952, 9115.290
170.7773, 9135.189
171.2594, 9151.160
171.7415, 9165.528
172.2236, 9180.059
172.7057, 9194.670
173.1879, 9209.416
173.6700, 9223.671
174.1521, 9238.006
174.6342, 9253.479
175.1163, 9272.212
175.5984, 9291.416
176.0806, 9307.112
176.5627, 9319.303
177.0448, 9330.862
177.5269, 9346.698
178.0090, 9364.012
178.4911, 9376.568
178.9733, 9379.107
179.4554, 9376.059
179.9375, 9373.730
180.4196, 9372.215
180.9017, 9372.170
181.3839, 9376.794
181.8660, 9384.322
182.3481, 9388.358
182.8302, 9382.794
183.3123, 9372.162
183.7944, 9367.231
184.2766, 9368.964
184.7587, 9373.275
185.2408, 9375.166
185.7229, 9375.109
186.2050, 9375.824
186.6871, 9376.944
187.1693, 9379.588
187.6514, 9388.496
188.1335, 9404.734
188.6156, 9424.163
189.0977, 9442.011
189.5798, 9458.079
190.0620, 9472.241
190.5441, 9482.057
191.0262, 9488.720
191.5083, 9501.737
191.9904, 9523.160
192.4725, 9547.655
192.9547, 9566.501
193.4368, 9579.783
193.9189, 9590.885
194.4010, 9600.780
194.8831, 9609.692
195.3652, 9620.410
195.8474, 9633.491
196.3295, 9648.061
196.8116, 9662.364
197.2937, 9676.315
197.7758, 9690.596
198.2579, 9705.059
198.7401, 9719.632
199.2222, 9736.279
199.7043, 9755.514
200.1864, 9775.954
200.6685, 9793.979
201.1507, 9808.619
201.6328, 9824.449
202.1149, 9845.848
202.5970, 9873.817
203.0791, 9896.221
203.5612, 9910.662
204.0434, 9919.833
204.5255, 9931.081
205.0076, 9945.327
205.4897, 9958.754
205.9718, 9968.359
206.4539, 9973.274
206.9361, 9980.509
207.4182, 9992.170
207.9003, 10005.98
208.3824, 10014.68
208.8645, 10017.50
209.3466, 10017.47
209.8288, 10015.86
210.3109, 10012.07
210.7930, 10009.10
211.2751, 10006.15
211.7572, 10004.46
212.2393, 10009.12
212.7215, 10021.75
213.2036, 10036.87
213.6857, 10050.76
214.1678, 10062.42
214.6499, 10076.55
215.1321, 10095.24
215.6142, 10116.60
216.0963, 10131.64
216.5784, 10137.77
217.0605, 10142.32
217.5426, 10150.18
218.0248, 10162.63
218.5069, 10174.00
218.9890, 10182.30
219.4711, 10189.12
219.9532, 10203.10
220.4353, 10228.76
220.9175, 10254.55
221.3996, 10272.93
221.8817, 10280.26
222.3638, 10289.46
222.8459, 10301.86
223.3280, 10317.16
223.8102, 10332.92
224.2923, 10350.22
224.7744, 10366.63
225.2565, 10380.02
225.7386, 10388.13
226.2208, 10398.39
226.7029, 10412.13
227.1850, 10428.54
227.6671, 10442.72
228.1492, 10453.27
228.6313, 10463.55
229.1135, 10476.26
229.5956, 10495.10
230.0777, 10508.33
230.5598, 10514.30
231.0419, 10514.04
231.5240, 10511.90
232.0062, 10505.41
232.4883, 10500.67
232.9704, 10501.77
233.4525, 10511.48
233.9346, 10521.18
234.4167, 10530.54
234.8989, 10539.45
235.3810, 10547.24
235.8631, 10553.54
236.3452, 10559.11
236.8273, 10564.58
237.3095, 10570.99
237.7916, 10574.41
238.2737, 10572.75
238.7558, 10567.65
239.2379, 10566.58
239.7200, 10571.89
240.2022, 10577.85
240.6843, 10581.50
241.1664, 10582.51
241.6485, 10581.93
242.1306, 10579.08
242.6127, 10574.83
243.0949, 10572.53
243.5770, 10574.09
244.0591, 10575.43
244.5412, 10574.29
245.0233, 10568.74
245.5054, 10565.27
245.9876, 10562.75
246.4697, 10562.83
246.9518, 10571.64
247.4339, 10595.49
247.9160, 10618.76
248.3981, 10632.76
248.8803, 10630.91
249.3624, 10635.66
249.8445, 10649.70
250.3266, 10669.75
250.8087, 10686.83
251.2909, 10698.33
251.7730, 10710.36
252.2551, 10725.56
252.7372, 10745.11
253.2193, 10764.99
253.7014, 10786.43
254.1836, 10807.43
254.6657, 10822.50
255.1478, 10827.88
255.6299, 10834.03
256.1120, 10846.06
256.5941, 10866.79
257.0763, 10884.11
257.5584, 10896.25
258.0405, 10906.44
258.5226, 10921.44
259.0047, 10944.20
259.4868, 10966.11
259.9690, 10983.36
260.4511, 10994.62
260.9332, 11007.07
261.4153, 11020.04
261.8974, 11034.91
262.3795, 11054.46
262.8617, 11081.12
263.3438, 11106.87
263.8259, 11128.07
264.3080, 11143.11
264.7901, 11165.42
265.2722, 11199.59
265.7544, 11235.43
266.2365, 11256.14
266.7186, 11256.79
267.2007, 11257.30
267.6829, 11264.20
268.1650, 11278.10
268.6471, 11289.46
269.1292, 11297.83
269.6113, 11304.83
270.0934, 11311.83
270.5756, 11318.24
271.0577, 11327.37
271.5398, 11340.69
272.0219, 11358.17
272.5040, 11375.17
272.9861, 11391.25
273.4683, 11407.34
273.9504, 11424.99
274.4325, 11444.59
274.9146, 11462.75
275.3967, 11478.23
275.8788, 11491.46
276.3610, 11505.03
276.8431, 11518.73
277.3252, 11532.98
277.8073, 11549.16
278.2894, 11567.77
278.7715, 11582.91
279.2537, 11592.18
279.7358, 11597.65
280.2179, 11608.23
280.7000, 11624.73
281.1821, 11643.42
281.6642, 11662.91
282.1464, 11683.28
282.6285, 11699.17
283.1106, 11707.86
283.5927, 11713.02
284.0748, 11725.64
284.5569, 11746.39
285.0391, 11767.83
285.5212, 11784.11
286.0033, 11795.61
286.4854, 11808.70
286.9675, 11824.43
287.4496, 11841.31
287.9318, 11857.59
288.4139, 11873.35
288.8960, 11885.63
289.3781, 11891.28
289.8602, 11891.68
290.3424, 11893.60
290.8245, 11897.77
291.3066, 11903.70
291.7887, 11911.92
292.2708, 11922.14
292.7530, 11930.32
293.2351, 11933.22
293.7172, 11932.38
294.1993, 11931.82
294.6814, 11931.59
295.1635, 11932.41
295.6457, 11934.53
296.1278, 11938.16
296.6099, 11944.53
297.0920, 11955.09
297.5741, 11968.38
298.0562, 11982.37
298.5384, 11997.06
299.0205, 12010.14
299.5026, 12018.41
299.9847, 12023.12
300.4668, 12027.79
300.9489, 12032.31
301.4311, 12038.38
301.9132, 12050.01
302.3953, 12067.11
302.8774, 12083.06
303.3595, 12090.36
303.8416, 12093.36
304.3238, 12100.27
304.8059, 12117.54
305.2880, 12135.93
305.7701, 12143.18
306.2522, 12141.25
306.7343, 12141.78
307.2165, 12155.77
307.6986, 12175.52
308.1807, 12191.03
308.6628, 12197.70
309.1449, 12203.12
309.6270, 12213.51
310.1092, 12227.60
310.5913, 12241.24
311.0734, 12249.96
311.5555, 12258.27
312.0376, 12270.55
312.5197, 12289.11
313.0019, 12307.28
313.4840, 12320.06
313.9661, 12329.97
314.4482, 12342.36
314.9304, 12363.28
315.4125, 12384.86
315.8946, 12401.61
316.3767, 12412.14
316.8588, 12422.74
317.3409, 12438.60
317.8231, 12455.69
318.3052, 12468.56
318.7873, 12471.75
319.2694, 12474.05
319.7515, 12478.22
320.2336, 12484.35
320.7158, 12494.00
321.1979, 12509.61
321.6800, 12527.85
322.1621, 12545.70
322.6442, 12562.46
323.1263, 12578.65
323.6085, 12593.02
324.0906, 12605.86
324.5727, 12622.22
325.0548, 12645.30
325.5369, 12670.47
326.0190, 12694.92
326.5012, 12721.41
326.9833, 12744.02
327.4654, 12759.02
327.9475, 12768.96
328.4296, 12783.76
328.9117, 12809.19
329.3939, 12834.37
329.8760, 12855.07
330.3581, 12869.92
330.8402, 12882.20
331.3223, 12889.31
331.8044, 12894.27
332.2866, 12903.57
332.7687, 12919.38
333.2508, 12935.61
333.7329, 12950.72
334.2150, 12964.97
334.6971, 12976.17
335.1793, 12983.74
335.6614, 12988.97
336.1435, 12993.50
336.6256, 12997.71
337.1077, 13000.78
337.5899, 13001.15
338.0720, 12999.55
338.5541, 13007.59
339.0362, 13029.98
339.5183, 13052.74
340.0005, 13060.76
340.4826, 13051.55
340.9647, 13047.08
341.4468, 13051.39
341.9289, 13062.81
342.4110, 13077.68
342.8932, 13096.48
343.3753, 13113.76
343.8574, 13123.12
344.3395, 13125.22
344.8216, 13132.64
345.3037, 13147.17
345.7859, 13165.62
346.2680, 13183.47
346.7501, 13200.65
347.2322, 13216.29
347.7143, 13228.03
348.1964, 13237.72
348.6786, 13253.32
349.1607, 13276.45
349.6428, 13298.55
350.1249, 13309.87
350.6070, 13312.47
351.0891, 13312.69
351.5713, 13309.36
352.0534, 13307.15
352.5355, 13314.53
353.0176, 13331.23
353.4997, 13349.91
353.9818, 13367.16
354.4640, 13382.17
354.9461, 13393.76
355.4282, 13400.84
355.9103, 13405.33
356.3924, 13406.51
356.8745, 13405.83
357.3567, 13408.84
357.8388, 13422.33
358.3209, 13438.90
358.8030, 13451.69
359.2851, 13457.56
359.7672, 13464.68
360.2494, 13478.28
360.7315, 13496.17
361.2136, 13514.07
361.6957, 13530.60
362.1779, 13546.68
362.6600, 13563.03
363.1421, 13579.85
363.6242, 13595.18
364.1063, 13605.85
364.5884, 13615.66
365.0706, 13628.37
365.5527, 13647.93
366.0348, 13666.86
366.5169, 13682.46
366.9990, 13694.94
367.4811, 13709.33
367.9633, 13730.58
368.4454, 13750.75
368.9275, 13765.06
369.4096, 13765.71
369.8917, 13771.17
370.3738, 13784.01
370.8560, 13801.84
371.3381, 13817.82
371.8202, 13831.92
372.3023, 13844.50
372.7844, 13855.60
373.2665, 13865.10
373.7487, 13873.55
374.2308, 13880.89
374.7129, 13887.38
375.1950, 13892.92
375.6771, 13896.52
376.1592, 13902.66
376.6414, 13912.79
377.1235, 13926.74
377.6056, 13943.44
378.0877, 13964.18
378.5698, 13984.24
379.0519, 13999.46
379.5341, 14009.77
380.0162, 14019.07
380.4983, 14027.40
380.9804, 14035.77
381.4625, 14046.24
381.9446, 14058.88
382.4268, 14072.00
382.9089, 14084.58
383.3910, 14096.78
383.8731, 14109.35
384.3553, 14122.09
384.8374, 14135.87
385.3195, 14151.95
385.8016, 14169.84
386.2837, 14188.63
386.7658, 14208.84
387.2480, 14228.96
387.7301, 14246.81
388.2122, 14262.42
388.6943, 14278.30
389.1764, 14297.19
389.6585, 14317.07
390.1407, 14335.08
390.6228, 14350.39
391.1049, 14363.63
391.5870, 14372.64
392.0691, 14379.30
392.5512, 14389.29
393.0334, 14407.89
393.5155, 14428.82
393.9976, 14448.24
394.4797, 14465.37
394.9618, 14481.76
395.4439, 14496.73
395.9261, 14511.60
396.4082, 14528.09
396.8903, 14550.36
397.3724, 14570.85
397.8545, 14585.13
398.3366, 14592.72
398.8188, 14607.62
399.3009, 14639.18
399.7830, 14672.77
400.2651, 14699.04
400.7472, 14712.89
401.2293, 14726.71
401.7115, 14738.56
402.1936, 14750.96
402.6757, 14772.46
403.1578, 14807.54
403.6399, 14843.89
404.1220, 14875.12
404.6042, 14899.46
405.0863, 14930.59
405.5684, 14971.38
406.0505, 15013.63
406.5326, 15044.06
407.0147, 15060.54
407.4969, 15083.10
407.9790, 15120.08
408.4611, 15166.90
408.9432, 15202.79
409.4254, 15226.44
409.9075, 15251.73
410.3896, 15291.10
410.8717, 15342.04
411.3538, 15393.03
411.8359, 15441.05
412.3181, 15490.64
412.8002, 15550.73
413.2823, 15618.01
413.7644, 15683.64
414.2465, 15740.38
414.7286, 15793.42
415.2108, 15851.48
415.6929, 15914.51
416.1750, 15977.23
416.6571, 16035.29
417.1392, 16090.05
417.6213, 16145.31
418.1035, 16200.03
418.5856, 16257.22
419.0677, 16315.79
419.5498, 16377.51
420.0319, 16446.64
420.5140, 16535.89
420.9962, 16626.26
421.4783, 16705.47
421.9604, 16767.09
422.4425, 16829.96
422.9246, 16895.49
423.4067, 16964.55
423.8889, 17039.30
424.3710, 17128.76
424.8531, 17214.38
425.3352, 17292.17
425.8173, 17362.23
426.2994, 17424.12
426.7816, 17476.25
427.2637, 17521.28
427.7458, 17561.80
428.2279, 17602.87
428.7100, 17628.02
429.1921, 17635.39
429.6743, 17626.77
430.1564, 17606.35
430.6385, 17574.98
431.1206, 17528.22
431.6028, 17457.68
432.0849, 17364.43
432.5670, 17288.35
433.0491, 17231.15
433.5312, 17183.55
434.0133, 17135.63
434.4955, 17087.96
434.9776, 17044.03
435.4597, 17004.15
435.9418, 16969.38
436.4239, 16940.24
436.9060, 16917.74
437.3882, 16906.45
437.8703, 16916.97
438.3524, 16937.66
438.8345, 16950.14
439.3166, 16950.83
439.7987, 16953.62
440.2809, 16974.30
440.7630, 17003.34
441.2451, 17025.73
441.7272, 17031.04
442.2093, 17032.09
442.6914, 17034.60
443.1736, 17038.50
443.6557, 17042.84
444.1378, 17052.53
444.6199, 17059.21
445.1020, 17056.82
445.5841, 17038.67
446.0663, 17023.59
446.5484, 17016.69
447.0305, 17014.16
447.5126, 17009.65
447.9947, 17005.52
448.4768, 16996.47
448.9590, 16978.82
449.4411, 16952.26
449.9232, 16932.87
450.4053, 16924.57
450.8874, 16917.04
451.3695, 16901.71
451.8517, 16875.65
452.3338, 16853.48
452.8159, 16837.23
453.2980, 16824.55
453.7801, 16811.23
454.2622, 16797.40
454.7444, 16781.77
455.2265, 16761.73
455.7086, 16739.24
456.1907, 16724.55
456.6729, 16718.06
457.1550, 16713.42
457.6371, 16703.30
458.1192, 16690.47
458.6013, 16681.81
459.0834, 16680.97
459.5656, 16681.45
460.0477, 16675.64
460.5298, 16665.22
461.0119, 16655.48
461.4940, 16648.63
461.9761, 16643.70
462.4583, 16638.94
462.9404, 16633.86
463.4225, 16633.75
463.9046, 16648.10
464.3867, 16665.39
464.8688, 16674.43
465.3510, 16660.42
465.8331, 16651.96
466.3152, 16659.92
466.7973, 16679.10
467.2794, 16690.46
467.7615, 16683.81
468.2437, 16678.24
468.7258, 16680.06
469.2079, 16690.23
469.6900, 16703.06
470.1721, 16719.43
470.6542, 16737.18
471.1364, 16754.51
471.6185, 16771.93
472.1006, 16786.53
472.5827, 16797.16
473.0648, 16805.03
473.5469, 16814.50
474.0291, 16825.97
474.5112, 16835.04
474.9933, 16835.72
475.4754, 16831.25
475.9575, 16836.94
476.4396, 16854.30
476.9218, 16874.54
477.4039, 16886.26
477.8860, 16893.48
478.3681, 16905.78
478.8503, 16928.68
479.3324, 16954.57
479.8145, 16977.38
480.2966, 16997.15
480.7787, 17013.56
481.2608, 17025.08
481.7430, 17034.29
482.2251, 17042.37
482.7072, 17048.99
483.1893, 17056.76
483.6714, 17068.63
484.1535, 17081.26
484.6357, 17091.37
485.1178, 17096.04
485.5999, 17101.46
486.0820, 17108.72
486.5641, 17117.78
487.0462, 17128.11
487.5284, 17139.78
488.0105, 17153.26
488.4926, 17169.92
488.9747, 17190.84
489.4568, 17207.21
489.9389, 17217.09
490.4211, 17225.73
490.9032, 17238.43
491.3853, 17255.24
491.8674, 17274.35
492.3495, 17295.33
492.8316, 17317.92
493.3138, 17343.39
493.7959, 17371.21
494.2780, 17395.23
494.7601, 17407.21
495.2422, 17413.84
495.7243, 17428.52
496.2065, 17452.23
496.6886, 17477.18
497.1707, 17499.44
497.6528, 17518.81
498.1349, 17534.62
498.6170, 17543.27
499.0992, 17553.52
499.5813, 17571.85
500.0634, 17595.54
500.5455, 17618.17
501.0276, 17638.23
501.5097, 17656.21
501.9919, 17672.36
502.4740, 17686.54
502.9561, 17699.38
503.4382, 17709.85
503.9203, 17719.97
504.4025, 17731.73
504.8846, 17748.78
505.3667, 17759.12
505.8488, 17758.05
506.3309, 17752.43
506.8130, 17757.91
507.2952, 17776.56
507.7773, 17797.23
508.2594, 17815.94
508.7415, 17833.12
509.2236, 17852.60
509.7057, 17874.68
510.1879, 17895.74
510.6700, 17912.78
511.1521, 17926.58
511.6342, 17939.28
512.1163, 17950.84
512.5984, 17962.46
513.0806, 17974.04
513.5627, 17986.59
514.0448, 18002.22
514.5269, 18026.43
515.0090, 18050.08
515.4911, 18066.37
515.9733, 18076.02
516.4554, 18084.46
516.9375, 18090.73
517.4196, 18098.49
517.9017, 18110.48
518.3839, 18129.54
518.8660, 18146.26
519.3481, 18158.81
519.8302, 18168.79
520.3123, 18177.38
520.7944, 18182.53
521.2766, 18190.65
521.7587, 18204.35
522.2408, 18221.84
522.7229, 18235.95
523.2050, 18246.24
523.6871, 18256.04
524.1693, 18267.04
524.6514, 18279.19
525.1335, 18292.13
525.6156, 18305.76
526.0977, 18321.60
526.5798, 18343.44
527.0620, 18369.04
527.5441, 18391.54
528.0262, 18409.02
528.5083, 18422.90
528.9904, 18428.95
529.4725, 18431.75
529.9547, 18442.80
530.4368, 18476.79
530.9189, 18513.10
531.4010, 18536.46
531.8831, 18546.67
532.3652, 18558.34
532.8474, 18580.06
533.3295, 18602.25
533.8116, 18618.90
534.2937, 18625.01
534.7758, 18632.87
535.2579, 18644.18
535.7401, 18657.04
536.2222, 18668.40
536.7043, 18678.51
537.1865, 18687.65
537.6686, 18695.13
538.1507, 18702.25
538.6328, 18714.08
539.1149, 18731.21
539.5970, 18751.61
540.0792, 18776.53
540.5613, 18804.40
541.0434, 18825.19
541.5255, 18837.98
542.0076, 18848.43
542.4897, 18860.10
542.9719, 18873.63
543.4540, 18890.66
543.9361, 18911.80
544.4182, 18935.29
544.9003, 18961.14
545.3824, 18987.82
545.8646, 19012.16
546.3467, 19029.46
546.8288, 19046.89
547.3109, 19068.41
547.7930, 19094.07
548.2751, 19117.52
548.7573, 19135.44
549.2394, 19152.83
549.7215, 19172.95
550.2036, 19199.83
550.6857, 19220.68
551.1678, 19234.26
551.6500, 19243.60
552.1321, 19251.99
552.6142, 19259.20
553.0963, 19268.89
553.5784, 19283.84
554.0605, 19300.46
554.5427, 19305.81
555.0248, 19300.80
555.5069, 19301.29
555.9890, 19318.29
556.4711, 19346.42
556.9532, 19379.22
557.4354, 19416.25
557.9175, 19448.90
558.3996, 19466.35
558.8817, 19477.32
559.3638, 19490.65
559.8459, 19506.57
560.3281, 19528.46
560.8102, 19561.94
561.2923, 19601.14
561.7744, 19636.64
562.2565, 19662.72
562.7386, 19689.46
563.2208, 19718.48
563.7029, 19749.79
564.1850, 19785.80
564.6671, 19829.76
565.1492, 19872.27
565.6313, 19908.06
566.1135, 19936.25
566.5956, 19965.48
567.0777, 19994.82
567.5598, 20027.73
568.0419, 20070.76
568.5240, 20121.37
569.0062, 20168.21
569.4883, 20206.71
569.9704, 20244.94
570.4525, 20293.53
570.9346, 20350.00
571.4167, 20405.61
571.8989, 20451.33
572.3810, 20500.20
572.8631, 20564.28
573.3452, 20641.25
573.8273, 20718.63
574.3094, 20785.60
574.7916, 20855.95
575.2737, 20938.97
575.7558, 21041.15
576.2379, 21137.22
576.7200, 21227.46
577.2021, 21309.52
577.6843, 21383.83
578.1664, 21454.25
578.6485, 21502.79
579.1306, 21526.34
579.6127, 21528.55
580.0948, 21514.88
580.5770, 21485.35
581.0591, 21447.74
581.5412, 21396.24
582.0233, 21343.90
582.5054, 21321.38
582.9875, 21326.66
583.4697, 21342.63
583.9518, 21354.37
584.4340, 21372.79
584.9161, 21413.56
585.3982, 21480.64
585.8803, 21548.63
586.3624, 21610.52
