##NAMES=Hydroxylapatite
##RRUFFID=R060180
##IDEAL CHEMISTRY=Ca_5_(P^5+^O_4_)_3_OH
##LOCALITY=Holly Springs, Georgia, USA
##OWNER=RRUFF
##SOURCE=Julian Gray
##DESCRIPTION=Tan colored nodule in talc schist associated with serpentinite
##STATUS=The identification of this mineral has been confirmed by X-ray diffraction and chemical analysis
##URL=rruff.info/R060180
##MEASURED CHEMISTRY=Ca_5.00_(P_1.00_O_4_)_3_((OH)_0.98_Cl_0.02_)
92.02539, 60.95259
92.50751, 61.84990
92.98962, 62.71580
93.47174, 62.58195
93.95386, 62.04278
94.43597, 61.12133
94.91809, 59.78817
95.40021, 58.29304
95.88232, 57.30280
96.36444, 57.30804
96.84656, 57.13213
97.32867, 56.44975
97.81078, 55.43005
98.29290, 54.34762
98.77502, 53.36161
99.25713, 52.37383
99.73925, 51.57958
100.2214, 51.04810
100.7035, 50.60358
101.1856, 50.25422
101.6677, 49.95073
102.1498, 49.50458
102.6320, 48.56987
103.1141, 46.40658
103.5962, 45.83406
104.0783, 48.52409
104.5604, 52.11891
105.0425, 53.84333
105.5247, 52.71715
106.0068, 50.14117
106.4889, 48.41384
106.9710, 47.54597
107.4531, 46.90053
107.9352, 46.22881
108.4173, 45.54617
108.8995, 44.93793
109.3816, 44.44390
109.8637, 44.03791
110.3458, 43.67344
110.8279, 43.33462
111.3100, 43.07074
111.7922, 42.93599
112.2743, 42.93324
112.7564, 43.06229
113.2385, 43.40368
113.7206, 43.82492
114.2027, 44.24788
114.6849, 44.65049
115.1670, 44.98775
115.6491, 45.08228
116.1312, 44.60421
116.6133, 44.25473
117.0954, 44.25620
117.5776, 44.44671
118.0597, 44.52955
118.5418, 44.26052
119.0239, 43.62649
119.5060, 43.60997
119.9881, 44.21236
120.4703, 45.26984
120.9524, 47.35213
121.4345, 50.10508
121.9166, 52.15228
122.3987, 52.03608
122.8808, 49.30315
123.3630, 47.19645
123.8451, 45.92396
124.3272, 45.16397
124.8093, 44.64645
125.2914, 44.32939
125.7735, 44.24020
126.2557, 44.57073
126.7378, 45.22769
127.2199, 45.81319
127.7020, 45.99608
128.1841, 45.95946
128.6662, 46.35913
129.1483, 47.70253
129.6305, 49.00053
130.1126, 49.30843
130.5947, 48.73170
131.0768, 48.26942
131.5589, 49.11597
132.0410, 51.55073
132.5232, 53.00003
133.0053, 52.08564
133.4874, 50.80046
133.9695, 50.07776
134.4516, 50.11778
134.9337, 50.59025
135.4159, 51.02767
135.8980, 51.49041
136.3801, 51.78419
136.8622, 51.76289
137.3443, 51.67064
137.8264, 51.72979
138.3086, 52.02236
138.7907, 52.44968
139.2728, 52.73426
139.7549, 53.05006
140.2370, 53.00311
140.7191, 52.26290
141.2013, 51.18770
141.6834, 50.29950
142.1655, 49.87980
142.6476, 49.84398
143.1297, 49.81766
143.6118, 49.88267
144.0939, 49.87528
144.5761, 49.61008
145.0582, 49.16323
145.5403, 48.89668
146.0224, 49.09800
146.5045, 49.63428
146.9866, 50.03756
147.4688, 50.20924
147.9509, 50.30880
148.4330, 50.51179
148.9151, 50.84400
149.3972, 51.11828
149.8793, 51.10994
150.3615, 50.99616
150.8436, 51.00644
151.3257, 51.28836
151.8078, 51.71220
152.2899, 51.92670
152.7720, 51.68155
153.2542, 51.69391
153.7363, 52.56531
154.2184, 53.79709
154.7005, 54.61572
155.1826, 54.44777
155.6647, 53.40198
156.1469, 52.59618
156.6290, 52.06387
157.1111, 51.78973
157.5932, 51.99009
158.0753, 52.46270
158.5574, 52.79772
159.0396, 52.60608
159.5217, 51.79179
160.0038, 51.34186
160.4859, 51.60176
160.9680, 51.86176
161.4501, 51.76889
161.9323, 51.35847
162.4144, 50.92595
162.8965, 50.78819
163.3786, 51.04677
163.8607, 51.17337
164.3428, 50.96188
164.8250, 50.76937
165.3071, 50.93207
165.7892, 51.48513
166.2713, 52.09310
166.7534, 52.35091
167.2355, 52.21307
167.7177, 52.01801
168.1998, 51.63301
168.6819, 51.26643
169.1640, 51.25973
169.6461, 51.75146
170.1282, 52.34736
170.6104, 52.49739
171.0925, 52.25875
171.5746, 52.09270
172.0567, 52.19113
172.5388, 52.50134
173.0209, 52.89205
173.5031, 53.41335
173.9852, 53.90386
174.4673, 54.25589
174.9494, 54.47274
175.4315, 54.58111
175.9136, 54.51670
176.3958, 54.28985
176.8779, 54.22723
177.3600, 54.49195
177.8421, 54.84833
178.3242, 55.19192
178.8063, 55.50808
179.2885, 55.78648
179.7706, 55.96955
180.2527, 55.99095
180.7348, 56.21785
181.2169, 56.89917
181.6990, 57.62218
182.1812, 58.18732
182.6633, 58.55803
183.1454, 58.80021
183.6275, 59.01395
184.1096, 59.25439
184.5917, 59.33007
185.0738, 59.12828
185.5560, 58.86997
186.0381, 58.67118
186.5202, 58.57523
187.0023, 58.59714
187.4844, 58.76176
187.9665, 59.09829
188.4487, 59.56640
188.9308, 60.39889
189.4129, 61.24075
189.8950, 61.67150
190.3771, 61.55804
190.8592, 61.24281
191.3414, 61.42221
191.8235, 62.51988
192.3056, 63.30723
192.7877, 62.83082
193.2698, 62.19744
193.7519, 63.18821
194.2341, 66.64803
194.7162, 71.18153
195.1983, 73.96510
195.6804, 75.06067
196.1625, 75.19191
196.6446, 73.89014
197.1268, 71.77334
197.6089, 70.20996
198.0910, 69.64565
198.5731, 69.88506
199.0552, 70.59799
199.5373, 71.81178
200.0195, 73.21716
200.5016, 74.79199
200.9837, 76.47958
201.4658, 77.96510
201.9479, 79.12025
202.4300, 80.05637
202.9122, 80.86103
203.3943, 81.52076
203.8764, 82.24621
204.3585, 83.24876
204.8406, 84.52840
205.3227, 85.78407
205.8048, 87.09492
206.2870, 88.21931
206.7691, 88.99805
207.2512, 89.41033
207.7333, 89.50896
208.2154, 89.29896
208.6975, 88.74532
209.1797, 88.08770
209.6618, 87.46370
210.1439, 86.67086
210.6260, 85.52812
211.1081, 84.02473
211.5902, 82.36357
212.0724, 80.74196
212.5545, 79.07896
213.0366, 77.75237
213.5187, 76.89945
214.0008, 76.27621
214.4829, 75.78810
214.9651, 75.39725
215.4472, 75.05665
215.9293, 74.68249
216.4114, 74.17086
216.8935, 73.85880
217.3756, 73.87510
217.8578, 73.96239
218.3399, 73.88358
218.8220, 73.61415
219.3041, 73.36881
219.7862, 73.49049
220.2683, 74.22300
220.7505, 74.87923
221.2326, 75.47726
221.7147, 76.00110
222.1968, 76.41183
222.6789, 76.70972
223.1610, 76.95987
223.6432, 77.24475
224.1253, 77.48557
224.6074, 77.97356
225.0895, 78.94500
225.5716, 80.02987
226.0537, 80.87387
226.5358, 81.39956
227.0180, 81.79082
227.5001, 82.28365
227.9822, 82.87202
228.4643, 83.61069
228.9464, 84.62994
229.4285, 85.74293
229.9107, 86.71861
230.3928, 87.50076
230.8749, 88.24677
231.3570, 89.16067
231.8391, 90.25489
232.3212, 91.35355
232.8034, 92.40099
233.2855, 93.44720
233.7676, 94.56547
234.2497, 95.77634
234.7318, 97.01608
235.2139, 98.28549
235.6961, 99.57355
236.1782, 100.6578
236.6603, 101.1532
237.1424, 101.5081
237.6245, 102.5107
238.1066, 104.4101
238.5888, 106.4652
239.0709, 108.0469
239.5530, 109.2460
240.0351, 110.2574
240.5172, 111.0137
240.9993, 111.6504
241.4815, 112.4063
241.9636, 113.2972
242.4457, 114.3183
242.9278, 115.5098
243.4099, 116.8220
243.8920, 118.1688
244.3742, 119.6818
244.8563, 121.1758
245.3384, 122.1183
245.8205, 122.2103
246.3026, 122.4242
246.7847, 123.3319
247.2668, 124.7006
247.7490, 126.2005
248.2311, 127.7330
248.7132, 129.2724
249.1953, 130.8504
249.6774, 132.6626
250.1595, 134.0729
250.6417, 134.6450
251.1238, 134.7616
251.6059, 134.9081
252.0880, 135.3437
252.5701, 135.8937
253.0522, 136.1066
253.5344, 135.8425
254.0165, 135.4959
254.4986, 135.2552
254.9807, 134.9892
255.4628, 134.4773
255.9449, 133.5761
256.4271, 132.5642
256.9092, 132.1848
257.3913, 133.0286
257.8734, 133.3673
258.3555, 132.6370
258.8376, 131.4462
259.3198, 130.3327
259.8019, 129.5088
260.2840, 128.8497
260.7661, 128.0780
261.2482, 127.0424
261.7303, 126.1935
262.2125, 125.4604
262.6946, 124.9542
263.1767, 124.8855
263.6588, 125.2897
264.1409, 125.8426
264.6230, 125.9493
265.1052, 125.3224
265.5873, 124.7868
266.0694, 124.1539
266.5515, 123.7512
267.0336, 123.9587
267.5157, 124.7995
267.9979, 125.8464
268.4800, 126.4305
268.9621, 126.1732
269.4442, 126.2769
269.9263, 126.8536
270.4084, 127.6313
270.8906, 128.4300
271.3727, 129.2291
271.8548, 130.1275
272.3369, 131.2451
272.8190, 132.5911
273.3011, 134.1370
273.7833, 136.0626
274.2654, 137.9967
274.7475, 139.6960
275.2296, 141.1765
275.7117, 142.6105
276.1938, 144.1583
276.6760, 145.8231
277.1581, 147.6191
277.6402, 149.4324
278.1223, 151.4479
278.6044, 153.8745
279.0865, 156.6213
279.5686, 159.3609
280.0508, 161.8053
280.5329, 163.9357
281.0150, 166.4366
281.4971, 169.5576
281.9792, 172.7202
282.4613, 175.6086
282.9435, 178.3602
283.4256, 181.3415
283.9077, 184.8036
284.3898, 188.7048
284.8719, 192.4756
285.3540, 195.9830
285.8362, 199.5465
286.3183, 203.3023
286.8004, 207.1661
287.2825, 210.9736
287.7646, 214.6408
288.2467, 218.2071
288.7289, 221.8760
289.2110, 225.7388
289.6931, 229.5704
290.1752, 233.2187
290.6573, 236.8307
291.1394, 240.5982
291.6216, 244.6026
292.1037, 248.7366
292.5858, 252.8372
293.0679, 256.7815
293.5500, 260.8965
294.0321, 265.5215
294.5143, 270.2029
294.9964, 274.3534
295.4785, 277.8358
295.9606, 281.0484
296.4427, 284.5479
296.9248, 288.4345
297.4070, 292.3597
297.8891, 296.4523
298.3712, 300.4956
298.8533, 304.3498
299.3354, 307.9663
299.8175, 311.2756
300.2997, 314.0579
300.7818, 316.1597
301.2639, 319.1105
301.7460, 323.5983
302.2281, 328.3495
302.7102, 332.6383
303.1924, 336.3980
303.6745, 339.8535
304.1566, 343.1825
304.6387, 346.3561
305.1208, 349.2795
305.6029, 351.9612
306.0851, 354.4293
306.5672, 356.4526
307.0493, 358.2228
307.5314, 360.3747
308.0135, 363.3463
308.4956, 366.9107
308.9778, 370.0210
309.4599, 372.6970
309.9420, 375.0104
310.4241, 376.6288
310.9062, 377.9236
311.3883, 379.6265
311.8705, 382.0605
312.3526, 384.9569
312.8347, 387.7097
313.3168, 390.2661
313.7989, 392.8549
314.2810, 395.6769
314.7632, 398.5002
315.2453, 400.9518
315.7274, 402.9056
316.2095, 404.7703
316.6916, 407.2501
317.1737, 410.6754
317.6559, 413.1989
318.1380, 414.1122
318.6201, 414.3953
319.1022, 414.8570
319.5843, 415.6232
320.0664, 416.5786
320.5485, 417.7353
321.0306, 419.1025
321.5128, 419.8152
321.9949, 419.5693
322.4770, 418.9543
322.9591, 417.7860
323.4412, 416.3825
323.9233, 416.2554
324.4055, 418.9582
324.8876, 423.7181
325.3697, 424.9995
325.8518, 421.0484
326.3339, 416.1518
326.8160, 411.3528
327.2982, 406.7927
327.7803, 402.7233
328.2624, 399.3151
328.7445, 396.3317
329.2266, 393.1076
329.7087, 389.3369
330.1909, 385.9008
330.6730, 383.5517
331.1551, 381.4321
331.6372, 378.2143
332.1193, 373.4965
332.6014, 368.3473
333.0836, 364.3214
333.5657, 361.9677
334.0478, 359.1759
334.5299, 355.6292
335.0120, 351.8057
335.4941, 348.0648
335.9763, 344.4725
336.4584, 340.8297
336.9405, 336.9268
337.4226, 332.7068
337.9047, 328.9273
338.3868, 325.6991
338.8690, 322.7095
339.3511, 320.0244
339.8332, 317.4674
340.3153, 314.5273
340.7974, 310.7787
341.2795, 306.4537
341.7617, 303.1371
342.2438, 301.7867
342.7259, 300.1641
343.2080, 297.4850
343.6901, 294.2901
344.1722, 291.4344
344.6544, 289.2856
345.1365, 287.5422
345.6186, 285.5978
346.1007, 283.3886
346.5828, 281.0361
347.0649, 278.1202
347.5471, 275.3232
348.0292, 273.3697
348.5113, 272.3495
348.9934, 271.6535
349.4755, 270.5602
349.9576, 268.9007
350.4398, 267.5282
350.9219, 266.6056
351.4040, 265.7704
351.8861, 264.7064
352.3682, 263.5426
352.8503, 262.7419
353.3325, 262.7249
353.8146, 263.4120
354.2967, 263.5381
354.7788, 262.3163
355.2609, 261.4313
355.7430, 261.4229
356.2252, 261.9168
356.7073, 262.3732
357.1894, 262.5364
357.6715, 262.5298
358.1536, 262.6482
358.6357, 262.7421
359.1179, 263.2379
359.5999, 264.3006
360.0821, 265.6404
360.5642, 267.2599
361.0463, 269.0472
361.5284, 270.4900
362.0105, 270.8173
362.4926, 269.5552
362.9748, 269.0265
363.4569, 269.4528
363.9390, 270.3478
364.4211, 271.7310
364.9032, 273.4395
365.3853, 275.1631
365.8675, 276.7153
366.3496, 278.0733
366.8317, 278.9775
367.3138, 278.7003
367.7959, 278.9039
368.2780, 280.2242
368.7602, 282.1020
369.2423, 283.8587
369.7244, 285.1931
370.2065, 286.2891
370.6886, 287.5862
371.1707, 289.3720
371.6529, 290.5959
372.1350, 290.7224
372.6171, 290.5618
373.0992, 290.4539
373.5813, 290.5281
374.0634, 291.0087
374.5456, 292.5038
375.0277, 295.1100
375.5098, 296.5109
375.9919, 295.5044
376.4740, 294.5054
376.9561, 294.8921
377.4383, 296.1541
377.9204, 297.0501
378.4025, 296.7915
378.8846, 295.7285
379.3667, 294.7994
379.8488, 294.0079
380.3310, 293.3470
380.8131, 292.9457
381.2952, 292.6114
381.7773, 292.0817
382.2594, 291.2279
382.7415, 290.4600
383.2237, 290.5064
383.7058, 291.3581
384.1879, 291.4030
384.6700, 289.5488
385.1521, 287.4854
385.6342, 286.9246
386.1164, 287.7650
386.5985, 288.3914
387.0806, 287.7499
387.5627, 286.2689
388.0448, 284.9129
388.5269, 283.7422
389.0091, 282.7623
389.4912, 281.9621
389.9733, 281.3575
390.4554, 281.0472
390.9375, 281.4002
391.4196, 281.7362
391.9018, 281.1043
392.3839, 279.6630
392.8660, 279.0043
393.3481, 280.2226
393.8302, 282.2521
394.3123, 282.8661
394.7945, 281.5758
395.2766, 280.6036
395.7587, 281.2997
396.2408, 282.7594
396.7229, 283.2322
397.2050, 282.2376
397.6872, 281.1600
398.1693, 281.6641
398.6514, 283.9307
399.1335, 285.6743
399.6156, 286.6143
400.0977, 287.1640
400.5798, 287.2556
401.0620, 287.1146
401.5441, 287.6431
402.0262, 289.5567
402.5083, 292.4595
402.9904, 294.2857
403.4725, 294.0800
403.9547, 294.1566
404.4368, 295.0576
404.9189, 296.4374
405.4010, 297.8944
405.8831, 299.2923
406.3652, 300.6912
406.8474, 302.2118
407.3295, 304.0290
407.8116, 305.3932
408.2937, 305.8640
408.7758, 306.3226
409.2579, 307.3012
409.7401, 308.7305
410.2222, 310.2132
410.7043, 311.4503
411.1864, 312.4980
411.6685, 313.8887
412.1506, 315.9561
412.6328, 317.9746
413.1149, 319.9214
413.5970, 321.7303
414.0791, 323.2729
414.5612, 324.5198
415.0433, 325.6973
415.5255, 327.1421
416.0076, 328.8905
416.4897, 330.8121
416.9718, 333.2382
417.4539, 335.5384
417.9360, 337.1298
418.4182, 338.2660
418.9003, 339.7953
419.3824, 342.5013
419.8645, 346.0781
420.3466, 349.1816
420.8287, 351.5596
421.3109, 353.9481
421.7930, 356.6382
422.2751, 359.4811
422.7572, 362.3403
423.2393, 365.2011
423.7214, 367.9448
424.2036, 370.3003
424.6857, 372.2897
425.1678, 374.6497
425.6499, 377.7842
426.1320, 381.0340
426.6141, 383.7784
427.0963, 386.0706
427.5784, 388.3476
428.0605, 391.1283
428.5426, 393.8769
429.0247, 395.7410
429.5068, 396.6733
429.9890, 397.0394
430.4711, 397.0011
430.9532, 396.5340
431.4353, 395.7518
431.9174, 394.7499
432.3995, 393.2886
432.8817, 390.9727
433.3638, 388.1427
433.8459, 385.4608
434.3280, 383.1297
434.8101, 381.0824
435.2922, 379.2828
435.7744, 377.8253
436.2565, 376.2285
436.7386, 374.2047
437.2207, 372.2487
437.7028, 370.7336
438.1849, 369.6260
438.6671, 368.6718
439.1492, 367.6961
439.6313, 366.7367
440.1134, 366.0432
440.5955, 366.4742
441.0776, 366.1007
441.5598, 364.0394
442.0418, 361.4205
442.5240, 359.3495
443.0061, 358.1407
443.4882, 357.4637
443.9703, 356.9578
444.4524, 356.6872
444.9345, 356.2904
445.4167, 355.9413
445.8988, 355.2909
446.3809, 354.0309
446.8630, 352.3944
447.3451, 350.7885
447.8272, 349.4442
448.3094, 348.3031
448.7915, 347.2954
449.2736, 346.5864
449.7557, 345.5288
450.2378, 343.8103
450.7199, 341.7723
451.2021, 339.5278
451.6842, 337.1215
452.1663, 334.7845
452.6484, 332.9164
453.1305, 331.3211
453.6126, 329.0707
454.0948, 325.8495
454.5769, 322.6255
455.0590, 320.1195
455.5411, 318.0586
456.0232, 316.0291
456.5053, 314.1072
456.9875, 311.9798
457.4696, 309.1877
457.9517, 305.8992
458.4338, 302.8771
458.9159, 300.4595
459.3980, 298.2361
459.8802, 295.4714
460.3623, 292.0841
460.8444, 289.0673
461.3265, 286.7727
461.8086, 284.8118
462.2907, 282.9715
462.7729, 281.1741
463.2550, 279.1832
463.7371, 276.7718
464.2192, 274.0610
464.7013, 271.6797
465.1834, 269.9030
465.6656, 268.0802
466.1477, 266.1371
466.6298, 264.0768
467.1119, 261.8809
467.5940, 259.5508
468.0761, 257.1718
468.5583, 254.8228
469.0404, 252.4517
469.5225, 250.3342
470.0046, 248.5177
470.4867, 246.9137
470.9688, 245.6566
471.4510, 244.5677
471.9331, 243.4078
472.4152, 242.0695
472.8973, 240.5589
473.3794, 238.8630
473.8615, 236.9493
474.3437, 234.9940
474.8258, 232.9265
475.3079, 230.9190
475.7900, 229.0578
476.2721, 227.3600
476.7542, 225.8053
477.2364, 224.6700
477.7185, 223.6241
478.2006, 221.6902
478.6827, 218.6778
479.1648, 215.9665
479.6469, 214.4004
480.1291, 213.5433
480.6112, 212.6183
481.0933, 211.6423
481.5754, 210.4713
482.0575, 209.0050
482.5396, 207.3004
483.0217, 205.3509
483.5038, 203.1368
483.9860, 201.0521
484.4681, 199.4922
484.9502, 198.4904
485.4323, 197.4555
485.9144, 196.4200
486.3965, 195.3213
486.8787, 194.1541
487.3608, 192.8939
487.8429, 191.4139
488.3250, 189.6595
488.8071, 187.9236
489.2892, 186.7786
489.7714, 186.5797
490.2535, 186.0823
490.7356, 185.3126
491.2177, 184.2770
491.6998, 182.8906
492.1819, 181.2431
492.6641, 179.4892
493.1462, 177.6891
493.6283, 175.9450
494.1104, 174.6144
494.5925, 173.9012
495.0746, 173.0572
495.5568, 171.6938
496.0389, 170.2949
496.5210, 169.2464
497.0031, 168.5558
497.4852, 167.8705
497.9673, 166.9975
498.4495, 165.9451
498.9316, 164.6748
499.4137, 163.1177
499.8958, 161.6656
500.3779, 160.6929
500.8600, 159.9088
501.3422, 158.6620
501.8243, 156.5910
502.3064, 154.7682
502.7885, 153.9728
503.2706, 153.7153
503.7527, 153.0651
504.2349, 151.8199
504.7170, 150.4354
505.1991, 149.3563
505.6812, 148.5956
506.1633, 147.8012
506.6454, 146.8469
507.1276, 146.0026
507.6097, 145.5932
508.0918, 145.2930
508.5739, 144.5101
509.0560, 143.0438
509.5381, 141.3708
510.0203, 140.2931
510.5024, 140.0407
510.9845, 139.5918
511.4666, 138.7588
511.9487, 137.9154
512.4308, 137.1704
512.9130, 136.5244
513.3951, 135.9867
513.8772, 135.5991
514.3593, 135.2056
514.8414, 134.4527
515.3235, 133.2698
515.8057, 132.2435
516.2878, 131.5515
516.7699, 131.0166
517.2520, 130.5277
517.7341, 130.0698
518.2162, 129.5593
518.6984, 128.9969
519.1805, 128.3389
519.6626, 127.4073
520.1447, 126.2376
520.6268, 125.3458
521.1089, 125.0905
521.5911, 125.1262
522.0732, 124.5769
522.5553, 123.1112
523.0374, 122.1189
523.5195, 122.1774
524.0016, 122.5643
524.4838, 122.8272
524.9659, 122.8382
525.4480, 122.3759
525.9301, 121.1963
526.4122, 119.5329
526.8943, 118.6037
527.3765, 119.3279
527.8586, 119.4842
528.3407, 118.3545
528.8228, 116.9829
529.3049, 116.2680
529.7870, 116.2649
530.2692, 116.3872
530.7513, 116.1663
531.2334, 115.6343
531.7155, 114.9404
532.1976, 114.0058
532.6797, 113.0987
533.1619, 112.2489
533.6440, 111.5284
534.1261, 111.0790
534.6082, 110.9625
535.0903, 110.7961
535.5724, 110.2547
536.0546, 109.5003
536.5367, 108.8884
537.0188, 108.4704
537.5009, 108.0733
537.9830, 107.5848
538.4651, 107.0087
538.9473, 106.3948
539.4294, 105.3768
539.9115, 104.7773
540.3936, 105.3849
540.8757, 106.2717
541.3578, 106.1187
541.8400, 104.7600
542.3221, 103.2304
542.8042, 102.6278
543.2863, 102.9720
543.7684, 103.0059
544.2505, 102.4353
544.7326, 101.8946
545.2147, 101.6101
545.6968, 101.3632
546.1790, 100.7740
546.6611, 99.78843
547.1432, 98.98246
547.6253, 99.27084
548.1074, 100.5055
548.5895, 100.8770
549.0717, 100.0041
549.5538, 98.93913
550.0359, 98.17134
550.5180, 97.64819
551.0001, 97.34597
551.4822, 97.34468
551.9644, 97.36242
552.4465, 97.18874
552.9286, 96.91418
553.4107, 96.71383
553.8928, 96.62096
554.3749, 96.62162
554.8571, 96.73284
555.3392, 96.94810
555.8213, 97.02708
556.3034, 96.80238
556.7855, 96.66548
557.2676, 96.83823
557.7498, 97.09493
558.2319, 97.13154
558.7140, 96.89660
559.1961, 96.62094
559.6782, 96.60487
560.1603, 96.85583
560.6425, 96.73164
561.1246, 95.79371
561.6067, 95.13245
562.0888, 95.17839
562.5709, 95.59473
563.0530, 96.03909
563.5352, 96.43285
564.0173, 96.78024
564.4994, 97.06709
564.9815, 97.30990
565.4636, 97.57349
565.9457, 97.87659
566.4279, 98.13411
566.9100, 98.24181
567.3921, 98.26744
567.8742, 98.43985
568.3563, 98.76501
568.8384, 99.22293
569.3206, 99.93208
569.8027, 100.7069
570.2848, 101.2600
570.7669, 101.5835
571.2490, 101.9926
571.7311, 102.7771
572.2133, 103.8952
572.6954, 104.8432
573.1775, 105.2138
573.6596, 105.9953
574.1417, 107.6884
574.6238, 109.5771
575.1060, 110.9857
575.5881, 111.8797
576.0702, 112.7521
576.5523, 113.9650
577.0344, 115.4892
577.5165, 117.3018
577.9987, 119.5017
578.4808, 121.5590
578.9629, 123.3191
579.4450, 124.7290
579.9271, 125.6242
580.4092, 125.8937
580.8914, 126.4275
581.3735, 127.5508
581.8556, 129.1130
582.3377, 130.9966
582.8198, 133.1703
583.3019, 135.5838
583.7841, 138.2020
584.2662, 141.0642
584.7483, 144.2856
585.2304, 147.9404
585.7125, 151.8909
586.1946, 156.3204
586.6768, 160.8796
587.1589, 165.7514
587.6410, 170.5733
588.1231, 174.5594
