##NAMES=Hydroxyapophyllite-(K)
##RRUFFID=R110121
##IDEAL CHEMISTRY=KCa_4_Si_8_O_20_(OH)&#183;8H_2_O
##LOCALITY=Kandivali quarry, Malad (near Poona), Marashtra State, India
##OWNER=RRUFF
##SOURCE=Marcus Origlieri
##DESCRIPTION=White to colorless prismatic crystals on a basalt matrix
##STATUS=The identification of this mineral has been confirmed by single-crystal X-ray diffraction.
##URL=rruff.info/R110121
147.3820, 35.30980
147.8641, 37.78061
148.3462, 40.60416
148.8283, 43.18023
149.3104, 44.75999
149.7925, 46.45078
150.2747, 49.61054
150.7568, 55.12581
151.2389, 61.10541
151.7210, 67.29237
152.2031, 73.75938
152.6852, 80.07761
153.1674, 85.61543
153.6495, 91.17442
154.1316, 97.94286
154.6137, 107.0868
155.0958, 116.5275
155.5779, 125.5160
156.0601, 133.4527
156.5422, 142.1629
157.0243, 152.4086
157.5064, 163.5341
157.9885, 174.2696
158.4706, 184.2526
158.9528, 193.8498
159.4349, 203.2273
159.9170, 212.4333
160.3991, 221.3804
160.8812, 230.0665
161.3633, 238.4785
161.8455, 246.5824
162.3276, 255.3943
162.8097, 263.2228
163.2918, 269.0526
163.7739, 271.4123
164.2560, 273.3351
164.7382, 275.9128
165.2203, 279.0730
165.7024, 282.5379
166.1845, 286.9008
166.6666, 291.2008
167.1487, 294.5250
167.6309, 296.3409
168.1130, 297.4639
168.5951, 297.8977
169.0772, 297.8192
169.5593, 298.2994
170.0414, 299.8797
170.5236, 302.4154
171.0057, 305.7168
171.4878, 310.1870
171.9699, 315.0817
172.4520, 319.5619
172.9341, 323.7085
173.4163, 328.3295
173.8984, 334.0122
174.3805, 340.6169
174.8626, 347.7093
175.3447, 355.1445
175.8268, 363.0996
176.3090, 371.8013
176.7911, 381.1762
177.2732, 391.2141
177.7553, 400.4440
178.2374, 408.4482
178.7195, 416.1596
179.2017, 423.1044
179.6838, 430.4158
180.1659, 439.9855
180.6480, 452.0000
181.1301, 464.7048
181.6122, 477.2720
182.0944, 489.5004
182.5765, 500.3690
183.0586, 509.7998
183.5407, 517.6102
184.0228, 524.0226
184.5049, 529.1367
184.9871, 532.2306
185.4692, 532.0876
185.9513, 528.9788
186.4334, 524.2648
186.9155, 517.5625
187.3976, 509.6222
187.8798, 502.6115
188.3619, 496.4556
188.8440, 491.7261
189.3261, 489.5534
189.8082, 489.8035
190.2903, 491.2709
190.7725, 493.1362
191.2546, 495.6067
191.7367, 499.8480
192.2188, 506.0414
192.7009, 513.6169
193.1830, 521.7564
193.6652, 530.4223
194.1473, 539.3515
194.6294, 548.0613
195.1115, 556.6381
195.5936, 566.2473
196.0757, 576.9144
196.5579, 588.6725
197.0400, 602.1758
197.5221, 617.6401
198.0042, 632.5181
198.4863, 644.8450
198.9684, 654.5214
199.4506, 666.3797
199.9327, 681.2570
200.4148, 697.6328
200.8969, 711.7640
201.3790, 723.3800
201.8611, 734.9886
202.3433, 748.6496
202.8254, 764.7115
203.3075, 778.7479
203.7896, 790.0557
204.2717, 799.3568
204.7538, 808.0983
205.2360, 816.1314
205.7181, 824.1141
206.2002, 833.0458
206.6823, 843.4959
207.1644, 851.2043
207.6465, 855.9167
208.1287, 857.6299
208.6108, 856.4060
209.0929, 852.1983
209.5750, 845.1926
210.0571, 835.4009
210.5392, 822.5670
211.0214, 808.0239
211.5035, 791.6729
211.9856, 773.8369
212.4677, 754.6750
212.9498, 733.3661
213.4319, 712.5088
213.9140, 693.4163
214.3962, 676.2130
214.8783, 660.2645
215.3604, 645.6716
215.8425, 632.2938
216.3246, 620.4183
216.8067, 610.5682
217.2889, 600.9879
217.7710, 590.1366
218.2531, 576.8141
218.7352, 565.7481
219.2173, 557.8170
219.6994, 552.3157
220.1816, 546.2684
220.6637, 539.0327
221.1458, 532.1559
221.6279, 526.7210
222.1100, 523.0600
222.5921, 519.8726
223.0743, 517.2806
223.5564, 515.0970
224.0385, 512.2957
224.5206, 508.8586
225.0027, 504.9673
225.4848, 500.7724
225.9670, 496.4760
226.4491, 491.5137
226.9312, 485.8500
227.4133, 479.5108
227.8954, 472.2498
228.3775, 464.1411
228.8597, 455.2267
229.3418, 445.6368
229.8239, 435.4813
230.3060, 424.3937
230.7881, 412.0965
231.2702, 398.7919
231.7524, 385.8973
232.2345, 373.4240
232.7166, 361.5414
233.1987, 350.6024
233.6808, 341.1474
234.1629, 331.4114
234.6451, 320.7903
235.1272, 309.7274
235.6093, 300.0262
236.0914, 292.2044
236.5735, 285.0348
237.0556, 277.7691
237.5378, 269.8861
238.0199, 263.1092
238.5020, 257.9733
238.9841, 254.0038
239.4662, 249.3975
239.9483, 243.5214
240.4305, 237.8806
240.9126, 233.1997
241.3947, 229.6093
241.8768, 226.7170
242.3589, 224.6695
242.8410, 223.3038
243.3232, 222.0205
243.8053, 220.8168
244.2874, 219.7043
244.7695, 218.6630
245.2516, 217.5205
245.7337, 216.8003
246.2159, 216.5392
246.6980, 216.7010
247.1801, 217.2269
247.6622, 218.3685
248.1443, 219.4931
248.6264, 220.2059
249.1086, 220.0622
249.5907, 220.5571
250.0728, 221.6694
250.5549, 223.4453
251.0370, 226.2073
251.5191, 230.9079
252.0013, 235.0992
252.4834, 237.4824
252.9655, 236.7818
253.4476, 237.6337
253.9297, 240.6538
254.4118, 244.9497
254.8940, 248.5682
255.3761, 251.1444
255.8582, 253.7015
256.3403, 256.6526
256.8224, 260.1000
257.3046, 263.5890
257.7867, 267.2122
258.2688, 270.7767
258.7509, 273.7734
259.2330, 275.7356
259.7151, 278.0099
260.1973, 281.2709
260.6794, 285.7855
261.1615, 289.7377
261.6436, 292.7172
262.1257, 295.4450
262.6078, 299.2685
263.0900, 304.6824
263.5721, 309.9671
264.0542, 314.6685
264.5363, 318.9594
265.0184, 321.7949
265.5005, 322.8464
265.9827, 322.9146
266.4648, 323.2027
266.9469, 323.9360
267.4290, 324.2577
267.9111, 324.0848
268.3932, 323.4669
268.8754, 321.2192
269.3575, 316.8206
269.8396, 311.5900
270.3217, 307.2540
270.8038, 304.0130
271.2859, 300.9078
271.7681, 297.7155
272.2502, 294.4509
272.7323, 291.2362
273.2144, 288.1663
273.6965, 285.0598
274.1786, 281.4456
274.6608, 276.9810
275.1429, 273.7501
275.6250, 272.5344
276.1071, 273.0645
276.5892, 273.1581
277.0714, 272.5591
277.5535, 272.2545
278.0356, 273.3466
278.5177, 275.9709
278.9998, 278.5526
279.4819, 280.7077
279.9641, 282.5929
280.4462, 284.9351
280.9283, 287.8880
281.4104, 290.6605
281.8925, 292.0933
282.3746, 292.1449
282.8568, 293.9227
283.3389, 298.3444
283.8210, 304.4930
284.3031, 309.8651
284.7852, 314.4224
285.2673, 318.7678
285.7495, 323.1949
286.2316, 327.7406
286.7137, 332.9074
287.1958, 338.9211
287.6779, 345.3579
288.1600, 351.1972
288.6422, 356.4253
289.1243, 362.0021
289.6064, 368.3374
290.0885, 375.4362
290.5706, 383.2860
291.0527, 392.1056
291.5349, 401.1053
292.0170, 409.1299
292.4991, 416.1400
292.9812, 422.5806
293.4633, 428.0475
293.9454, 433.0253
294.4276, 439.3633
294.9097, 447.3978
295.3918, 455.4586
295.8739, 461.6284
296.3560, 465.9849
296.8381, 469.1728
297.3203, 471.0464
297.8024, 472.0010
298.2845, 472.9829
298.7666, 474.0685
299.2487, 474.6144
299.7308, 473.6014
300.2130, 471.4689
300.6951, 469.5023
301.1772, 468.4872
301.6593, 467.8005
302.1414, 466.2469
302.6235, 463.8667
303.1057, 461.8922
303.5878, 461.6495
304.0699, 462.5233
304.5520, 463.3749
305.0341, 463.6087
305.5162, 463.8665
305.9984, 464.7023
306.4805, 466.1165
306.9626, 468.1684
307.4447, 471.2294
307.9268, 474.8418
308.4089, 478.4039
308.8911, 481.8675
309.3732, 485.0831
309.8553, 488.0074
310.3374, 490.5953
310.8195, 492.7471
311.3016, 494.1685
311.7838, 495.2145
312.2659, 496.1524
312.7480, 496.9025
313.2301, 497.8463
313.7122, 499.3142
314.1943, 501.1515
314.6765, 503.0028
315.1586, 504.6100
315.6407, 506.2466
316.1228, 507.9962
316.6049, 509.7534
317.0870, 512.1116
317.5692, 516.2051
318.0513, 520.8504
318.5334, 524.3644
319.0155, 525.6658
319.4976, 526.1924
319.9797, 526.3785
320.4619, 526.2299
320.9440, 526.1089
321.4261, 526.6866
321.9082, 527.0946
322.3903, 526.5037
322.8724, 524.3112
323.3546, 521.5229
323.8367, 518.3411
324.3188, 514.7726
324.8009, 510.7914
325.2830, 506.0761
325.7651, 501.1908
326.2473, 496.5157
326.7294, 492.3138
327.2115, 488.0817
327.6936, 483.7655
328.1757, 479.4169
328.6578, 475.0603
329.1400, 469.9476
329.6221, 465.4630
330.1042, 462.1981
330.5863, 460.9503
331.0684, 459.5939
331.5505, 457.9037
332.0327, 456.1446
332.5148, 454.9283
332.9969, 454.3878
333.4790, 454.1943
333.9611, 454.3893
334.4432, 455.2751
334.9254, 455.1996
335.4075, 453.7242
335.8896, 451.6361
336.3717, 450.0927
336.8538, 449.4778
337.3359, 448.5311
337.8180, 447.1244
338.3001, 445.2607
338.7823, 441.8919
339.2644, 436.7646
339.7465, 430.7397
340.2286, 424.8259
340.7107, 419.3284
341.1928, 412.3733
341.6750, 403.4119
342.1571, 392.8832
342.6392, 382.8950
343.1213, 373.3878
343.6034, 364.2990
344.0855, 355.5708
344.5677, 347.2582
345.0498, 338.7203
345.5319, 329.7201
346.0140, 320.8391
346.4961, 313.2964
346.9782, 307.0838
347.4604, 301.2783
347.9425, 295.4329
348.4246, 289.5960
348.9067, 284.0332
349.3888, 278.6832
349.8709, 273.9680
350.3531, 270.7956
350.8352, 268.8076
351.3173, 266.6844
351.7994, 263.8393
352.2815, 260.4853
352.7636, 256.7181
353.2458, 252.5375
353.7279, 248.6737
354.2100, 246.0296
354.6921, 244.0791
355.1742, 241.9145
355.6563, 239.0830
356.1385, 236.0704
356.6206, 233.2276
357.1027, 230.5525
357.5848, 228.1115
358.0669, 225.9139
358.5490, 223.9549
359.0312, 222.3237
359.5133, 221.2574
359.9954, 219.9772
360.4775, 217.5021
360.9596, 214.4780
361.4417, 212.3098
361.9239, 212.3051
362.4060, 212.7179
362.8881, 212.5698
363.3702, 211.6505
363.8523, 210.7566
364.3344, 209.9072
364.8166, 209.3031
365.2987, 209.1728
365.7808, 210.1428
366.2629, 211.0237
366.7450, 211.5351
367.2271, 211.6677
367.7093, 211.5549
368.1914, 210.8894
368.6735, 210.1823
369.1556, 209.7615
369.6377, 209.6799
370.1198, 209.8507
370.6020, 210.5352
371.0841, 211.5052
371.5662, 211.9288
372.0483, 211.5740
372.5304, 210.9474
373.0125, 210.2678
373.4947, 209.6443
373.9768, 208.5975
374.4589, 206.7823
374.9410, 204.8081
375.4231, 203.8063
375.9052, 204.2177
376.3874, 204.3604
376.8695, 203.7479
377.3516, 202.3827
377.8337, 200.5329
378.3158, 197.8944
378.7979, 195.5491
379.2801, 194.7864
379.7622, 195.6754
380.2443, 196.5043
380.7264, 196.8752
381.2085, 197.0400
381.6906, 197.6673
382.1728, 198.7546
382.6549, 200.1056
383.1370, 201.7238
383.6191, 203.5194
384.1012, 205.0291
384.5833, 206.1525
385.0655, 207.2083
385.5476, 208.5616
386.0297, 210.1956
386.5118, 211.9859
386.9939, 213.7854
387.4760, 215.7608
387.9582, 218.3663
388.4403, 221.6394
388.9224, 224.7171
389.4045, 226.3891
389.8866, 227.5334
390.3687, 229.4521
390.8509, 233.2662
391.3330, 237.2090
391.8151, 239.8932
392.2972, 241.5999
392.7793, 243.5181
393.2614, 246.5890
393.7436, 249.8550
394.2257, 252.7352
394.7078, 255.1307
395.1899, 257.0571
395.6720, 257.9247
396.1541, 258.4253
396.6363, 259.6721
397.1184, 262.9827
397.6005, 266.1035
398.0826, 268.2646
398.5647, 269.3502
399.0468, 270.1207
399.5290, 270.6854
400.0111, 270.9377
400.4932, 270.7833
400.9753, 269.7072
401.4574, 268.9272
401.9395, 268.7274
402.4217, 268.9467
402.9038, 268.7576
403.3859, 267.6701
403.8680, 266.8955
404.3501, 267.1109
404.8322, 268.6528
405.3144, 270.0023
405.7965, 271.0981
406.2786, 272.0562
406.7607, 272.9584
407.2428, 273.7281
407.7249, 274.8571
408.2071, 276.4700
408.6892, 278.5663
409.1713, 281.0953
409.6534, 284.0535
410.1355, 287.5406
410.6176, 291.5841
411.0998, 296.2159
411.5819, 301.6058
412.0640, 307.9305
412.5461, 314.7987
413.0282, 321.5968
413.5103, 328.3980
413.9925, 335.7598
414.4746, 343.7110
414.9567, 352.6154
415.4388, 363.3779
415.9209, 376.3773
416.4030, 389.2437
416.8852, 399.7041
417.3673, 408.8866
417.8494, 418.6608
418.3315, 430.0374
418.8136, 442.0910
419.2957, 454.4613
419.7779, 467.0594
420.2600, 480.0788
420.7421, 493.2892
421.2242, 507.1090
421.7063, 521.5961
422.1884, 537.5756
422.6706, 553.1663
423.1527, 566.7243
423.6348, 579.8298
424.1169, 595.4789
424.5990, 616.4931
425.0811, 638.0256
425.5633, 658.4786
426.0454, 677.5438
426.5275, 697.6771
427.0096, 720.6259
427.4917, 743.4549
427.9738, 763.8683
428.4560, 781.4070
428.9381, 797.4614
429.4202, 812.5829
429.9023, 826.0292
430.3844, 836.4650
430.8665, 844.5759
431.3487, 847.4694
431.8308, 843.6790
432.3129, 833.2122
432.7950, 816.8379
433.2771, 793.9513
433.7592, 766.8349
434.2414, 737.1080
434.7235, 704.9631
435.2056, 672.5247
435.6877, 639.9229
436.1698, 607.9600
436.6519, 577.5477
437.1341, 548.7275
437.6162, 522.0657
438.0983, 498.0975
438.5804, 476.2284
439.0625, 455.3084
439.5446, 434.9408
440.0268, 416.1966
440.5089, 400.0597
440.9910, 386.1878
441.4731, 374.1220
441.9552, 364.5189
442.4373, 355.8126
442.9195, 346.7893
443.4016, 337.4336
443.8837, 328.8198
444.3658, 321.4345
444.8479, 314.9100
445.3300, 309.0358
445.8122, 303.5748
446.2943, 298.9226
446.7764, 295.4138
447.2585, 292.7422
447.7406, 290.1278
448.2227, 287.4151
448.7049, 284.8535
449.1870, 282.4314
449.6691, 280.1145
450.1512, 278.3136
450.6333, 277.2923
451.1154, 276.5294
451.5976, 275.4472
452.0797, 273.7977
452.5618, 272.7434
453.0439, 272.6174
453.5260, 273.1306
454.0081, 273.2995
454.4903, 273.0365
454.9724, 273.0200
455.4545, 273.6538
455.9366, 274.8788
456.4187, 276.4078
456.9008, 278.2623
457.3830, 280.1782
457.8651, 281.9822
458.3472, 283.5952
458.8293, 284.6111
459.3114, 284.4417
459.7935, 284.0905
460.2757, 285.1527
460.7578, 287.3217
461.2399, 289.0804
461.7220, 289.0070
462.2041, 288.3461
462.6862, 288.3908
463.1684, 289.5341
463.6505, 290.4539
464.1326, 290.4143
464.6147, 289.7711
465.0968, 288.9761
465.5789, 287.4342
466.0611, 286.5270
466.5432, 286.7840
467.0253, 288.1490
467.5074, 289.8258
467.9895, 291.7994
468.4716, 294.0163
468.9538, 296.4675
469.4359, 299.2827
469.9180, 301.9229
470.4001, 303.9645
470.8822, 306.1451
471.3643, 309.6830
471.8465, 314.9623
472.3286, 320.4408
472.8107, 325.5824
473.2928, 330.5299
473.7749, 336.7901
474.2570, 344.5308
474.7392, 352.5371
475.2213, 359.7589
475.7034, 366.3646
476.1855, 373.4279
476.6676, 380.9913
477.1497, 389.3101
477.6319, 398.9244
478.1140, 409.5739
478.5961, 420.2852
479.0782, 430.8843
479.5603, 441.1767
480.0424, 450.8825
480.5246, 460.0739
481.0067, 468.9795
481.4888, 478.0911
481.9709, 486.7949
482.4530, 494.8649
482.9352, 503.1860
483.4173, 508.5124
483.8994, 508.7266
484.3815, 505.3112
484.8636, 500.5328
485.3457, 495.0956
485.8279, 488.1913
486.3100, 479.1651
486.7921, 467.9684
487.2742, 456.9913
487.7563, 446.4793
488.2384, 435.8278
488.7206, 424.6463
489.2027, 412.4154
489.6848, 401.2002
490.1669, 391.1042
490.6490, 381.9490
491.1311, 373.1519
491.6133, 364.6899
492.0954, 357.3270
492.5775, 351.6618
493.0596, 347.1823
493.5417, 341.5408
494.0238, 334.7250
494.5060, 328.5769
494.9881, 324.9370
495.4702, 323.0161
495.9523, 320.6686
496.4344, 317.5099
496.9165, 314.4741
497.3987, 312.6499
497.8808, 311.5934
498.3629, 310.5066
498.8450, 308.7402
499.3271, 307.1021
499.8092, 306.4855
500.2914, 306.6318
500.7735, 306.1653
501.2556, 304.0257
501.7377, 301.4964
502.2198, 299.4124
502.7019, 298.2388
503.1841, 296.5023
503.6662, 293.1600
504.1483, 289.5209
504.6304, 287.2153
505.1125, 287.6082
505.5946, 287.1457
506.0768, 285.0089
506.5589, 281.5589
507.0410, 278.5380
507.5231, 275.9722
508.0052, 273.7603
508.4873, 271.7570
508.9695, 269.9837
509.4516, 268.9866
509.9337, 268.9327
510.4158, 268.9563
510.8979, 267.6699
511.3800, 265.4629
511.8622, 264.2561
512.3443, 265.0099
512.8264, 266.3270
513.3085, 266.0529
513.7906, 264.6547
514.2728, 263.8062
514.7549, 265.2344
515.2370, 267.1124
515.7191, 267.4800
516.2012, 266.0842
516.6833, 265.5910
517.1655, 267.9921
517.6476, 271.4356
518.1297, 274.3358
518.6118, 275.7142
519.0939, 277.3459
519.5760, 279.7738
520.0582, 282.6167
520.5403, 284.9886
521.0224, 286.1069
521.5045, 287.8207
521.9866, 290.8226
522.4688, 295.1222
522.9509, 298.8720
523.4330, 301.8867
523.9151, 304.8259
524.3972, 307.9113
524.8793, 311.1085
525.3615, 315.9686
525.8436, 323.1171
526.3257, 330.6954
526.8078, 335.6288
527.2899, 338.3863
527.7720, 341.0808
528.2542, 344.3817
528.7363, 348.1483
529.2184, 352.2142
529.7005, 356.5747
530.1826, 361.4044
530.6647, 367.1646
531.1469, 373.2100
531.6290, 379.1680
532.1111, 385.0212
532.5932, 390.4452
533.0753, 395.7183
533.5574, 400.3459
534.0396, 403.7277
534.5217, 404.0254
535.0038, 405.1711
535.4859, 408.4682
535.9680, 413.0660
536.4501, 416.2365
536.9323, 417.1702
537.4144, 418.0572
537.8965, 419.8105
538.3786, 422.4584
538.8607, 424.4110
539.3428, 425.6718
539.8250, 426.1605
540.3071, 425.3492
540.7892, 423.4310
541.2713, 422.2889
541.7534, 422.3870
542.2355, 422.8535
542.7177, 422.4595
543.1998, 421.4101
543.6819, 420.3686
544.1640, 419.8783
544.6461, 419.3846
545.1282, 418.3231
545.6104, 416.7581
546.0925, 415.0710
546.5746, 413.0712
547.0567, 411.2987
547.5388, 410.0734
548.0209, 409.4497
548.5031, 409.3856
548.9852, 410.2236
549.4673, 411.4473
549.9494, 412.5087
550.4315, 413.2363
550.9136, 414.0416
551.3958, 414.9655
551.8779, 415.9929
552.3600, 416.9793
552.8421, 417.7810
553.3242, 419.0595
553.8063, 421.2748
554.2885, 424.2794
554.7706, 426.7719
555.2527, 428.6869
555.7348, 430.7917
556.2169, 433.9607
556.6990, 437.8229
557.1812, 441.4228
557.6633, 444.5051
558.1454, 447.7251
558.6275, 451.8814
559.1096, 456.5839
559.5917, 461.2373
560.0739, 464.9004
560.5560, 469.0522
561.0381, 474.5196
561.5202, 481.1021
562.0023, 488.1026
562.4844, 495.4513
562.9666, 503.1069
563.4487, 510.9655
563.9308, 518.9193
564.4129, 527.4255
564.8950, 536.7454
565.3771, 546.3252
565.8593, 555.6931
566.3414, 564.6438
566.8235, 574.4133
567.3056, 585.3164
567.7877, 596.9635
568.2698, 609.0090
568.7520, 621.4940
569.2341, 633.2518
569.7162, 643.3595
570.1983, 652.9173
570.6804, 664.3924
571.1625, 677.5347
571.6447, 690.8591
572.1268, 702.7269
572.6089, 714.7310
573.0910, 728.7047
573.5731, 745.3415
574.0552, 761.0644
574.5374, 773.9202
575.0195, 785.4338
575.5016, 797.0823
575.9837, 809.7980
576.4658, 821.7770
576.9479, 833.1560
577.4301, 843.6907
577.9122, 852.8939
578.3943, 860.4212
578.8764, 867.4665
579.3585, 874.6549
579.8406, 881.6887
580.3228, 886.5884
580.8049, 889.3195
581.2870, 890.1171
581.7691, 889.1977
582.2512, 886.4988
582.7333, 881.7429
583.2155, 874.8866
583.6975, 866.1910
584.1796, 855.3165
584.6617, 842.7631
585.1439, 829.3371
585.6260, 815.5494
586.1081, 800.4384
586.5902, 782.7654
587.0723, 763.3454
587.5544, 744.1190
588.0366, 725.4519
588.5187, 706.7696
589.0008, 687.8372
589.4829, 668.6317
589.9650, 649.4456
590.4471, 630.2203
590.9293, 610.9634
591.4114, 591.5110
591.8935, 571.4072
592.3756, 553.9443
592.8577, 539.6202
593.3398, 526.4933
593.8220, 512.1790
594.3041, 496.9290
594.7862, 482.7879
595.2683, 470.2821
595.7504, 458.5257
596.2325, 445.7921
596.7147, 432.6499
597.1968, 420.7939
597.6789, 411.6408
598.1610, 403.3412
598.6431, 394.6620
599.1252, 385.7132
599.6074, 376.9191
600.0895, 367.8749
600.5716, 359.4074
601.0537, 351.9755
601.5358, 345.8765
602.0179, 339.9498
602.5001, 334.1540
602.9822, 328.5336
603.4643, 323.1544
603.9464, 318.0340
604.4285, 312.8177
604.9106, 307.2365
605.3928, 301.9203
605.8749, 297.9948
606.3570, 295.3343
606.8391, 292.5063
607.3212, 289.0201
607.8033, 285.2126
608.2855, 281.2769
608.7676, 277.3765
609.2497, 273.9707
609.7318, 271.4983
610.2139, 269.5228
610.6960, 267.9546
611.1782, 266.7520
611.6603, 265.2160
612.1424, 262.5311
612.6245, 259.8324
613.1066, 257.8699
613.5887, 257.0822
614.0709, 256.1065
614.5530, 254.7974
615.0351, 253.4275
615.5172, 252.4044
615.9993, 251.9632
616.4814, 250.6273
616.9636, 247.8443
617.4457, 244.5897
617.9278, 242.7228
618.4099, 242.1601
618.8920, 242.0074
619.3741, 242.0844
619.8563, 242.2046
620.3384, 242.1078
620.8205, 241.8079
621.3026, 241.3820
621.7847, 240.7122
622.2668, 240.0464
622.7490, 239.5866
623.2311, 239.3593
623.7132, 239.2125
624.1953, 239.4801
624.6774, 239.5637
625.1595, 238.9971
625.6417, 237.1189
626.1238, 235.8827
626.6059, 235.3388
627.0880, 235.4007
627.5701, 236.2481
628.0522, 238.0412
628.5344, 238.9638
629.0165, 238.3033
629.4986, 237.0658
629.9807, 237.5322
630.4628, 239.3519
630.9449, 240.6292
631.4271, 239.8855
631.9092, 238.4776
632.3913, 237.7081
632.8734, 237.5579
633.3555, 237.8586
633.8376, 238.6685
634.3198, 239.7823
634.8019, 241.3311
635.2840, 243.6008
635.7661, 244.7979
636.2482, 243.5108
636.7303, 242.1352
637.2125, 242.4202
637.6946, 245.1574
638.1767, 247.2599
638.6588, 248.4924
639.1409, 249.2800
639.6230, 250.1288
640.1052, 251.0433
640.5873, 251.9957
641.0694, 252.8968
641.5515, 253.9654
642.0336, 255.6730
642.5157, 257.8220
642.9979, 259.8693
643.4800, 261.2175
643.9621, 262.6195
