##NAMES=Hydroxylclinohumite
##RRUFFID=R060291
##IDEAL CHEMISTRY=Mg_9_(SiO_4_)_4_(OH)_2_
##LOCALITY=Koksha Valley, Badakshan Province, Afghanistan
##OWNER=RRUFF
##SOURCE=Herb Obodda
##DESCRIPTION=Deep red tabular crystal
##STATUS=The identification of this mineral has been made only by X-ray diffraction.
##URL=rruff.info/R060291
91.53320, 780.5197
92.01532, 797.0374
92.49744, 801.0969
92.97955, 798.2613
93.46167, 785.2191
93.94379, 768.2606
94.42590, 754.5395
94.90802, 740.5776
95.39014, 719.9298
95.87225, 691.2495
96.35437, 662.5945
96.83649, 635.9830
97.31860, 611.8920
97.80072, 591.1224
98.28284, 573.5576
98.76495, 558.3373
99.24707, 544.8687
99.72919, 535.6370
100.2113, 525.4416
100.6934, 512.2659
101.1755, 496.9554
101.6577, 481.3498
102.1398, 466.4001
102.6219, 451.1468
103.1040, 441.8126
103.5861, 440.5414
104.0682, 441.4774
104.5504, 442.0192
105.0325, 441.5295
105.5146, 440.3525
105.9967, 438.9855
106.4788, 437.8796
106.9609, 435.0439
107.4431, 428.4962
107.9252, 420.6006
108.4073, 415.0188
108.8894, 413.5100
109.3715, 413.3447
109.8536, 409.7408
110.3358, 402.4307
110.8179, 394.1090
111.3000, 385.4247
111.7821, 376.5243
112.2642, 368.9107
112.7463, 363.3983
113.2285, 359.4695
113.7106, 356.6880
114.1927, 355.1469
114.6748, 354.3538
115.1569, 353.6678
115.6390, 353.0032
116.1212, 352.6775
116.6033, 353.2023
117.0854, 353.9020
117.5675, 353.9815
118.0496, 352.9385
118.5317, 351.1418
119.0139, 350.3832
119.4960, 351.6818
119.9781, 353.0502
120.4602, 354.2415
120.9423, 355.2427
121.4244, 356.1644
121.9066, 357.1573
122.3887, 358.2999
122.8708, 358.2586
123.3529, 356.2822
123.8350, 354.0945
124.3171, 352.5068
124.7993, 351.5384
125.2814, 350.6564
125.7635, 349.1578
126.2456, 346.7690
126.7277, 345.7408
127.2098, 347.5385
127.6920, 350.0712
128.1741, 350.7551
128.6562, 348.7682
129.1383, 346.4445
129.6204, 347.2753
130.1025, 350.8788
130.5847, 353.9683
131.0668, 354.8755
131.5489, 354.1452
132.0310, 353.6593
132.5131, 353.8331
132.9952, 354.3686
133.4774, 354.9998
133.9595, 355.7188
134.4416, 356.4745
134.9237, 357.0822
135.4058, 357.4468
135.8879, 358.3822
136.3701, 360.8559
136.8522, 363.4431
137.3343, 365.2870
137.8164, 366.1941
138.2985, 366.6050
138.7806, 367.4015
139.2628, 369.4372
139.7449, 370.1823
140.2270, 367.9820
140.7091, 365.2617
141.1912, 364.4946
141.6733, 366.7897
142.1555, 371.0341
142.6376, 373.3773
143.1197, 370.8083
143.6018, 369.5759
144.0839, 371.1302
144.5660, 374.3616
145.0482, 377.6331
145.5303, 380.0884
146.0124, 381.6797
146.4945, 382.0939
146.9766, 380.0734
147.4587, 378.3759
147.9409, 378.3395
148.4230, 379.7328
148.9051, 381.4296
149.3872, 382.8824
149.8693, 383.9542
150.3514, 384.4214
150.8336, 383.4249
151.3157, 382.3467
151.7978, 382.6380
152.2799, 384.5050
152.7620, 386.4819
153.2441, 387.2717
153.7263, 387.4107
154.2084, 387.7907
154.6905, 389.3511
155.1726, 391.2573
155.6547, 391.4066
156.1368, 388.7430
156.6190, 386.1998
157.1011, 385.3253
157.5832, 385.6866
158.0653, 386.4979
158.5474, 387.5246
159.0295, 388.7057
159.5117, 389.1960
159.9938, 387.9400
160.4759, 387.0158
160.9580, 387.9592
161.4401, 390.0139
161.9222, 391.1346
162.4044, 388.9469
162.8865, 382.3719
163.3686, 378.8647
163.8507, 381.1298
164.3328, 383.8698
164.8149, 384.9989
165.2971, 384.3170
165.7792, 382.6531
166.2613, 380.8741
166.7434, 378.7469
167.2255, 377.3090
167.7076, 377.1281
168.1898, 377.1425
168.6719, 376.4275
169.1540, 374.8540
169.6361, 373.2322
170.1182, 372.7796
170.6003, 374.2173
171.0825, 375.0321
171.5646, 374.5166
172.0467, 373.5569
172.5288, 372.9773
173.0109, 372.9501
173.4930, 373.6885
173.9752, 376.1938
174.4573, 380.8703
174.9394, 384.3655
175.4215, 384.4782
175.9036, 382.7232
176.3857, 382.6283
176.8679, 385.6646
177.3500, 390.0371
177.8321, 393.4262
178.3142, 395.8593
178.7963, 397.6837
179.2784, 398.4641
179.7606, 398.4527
180.2427, 399.7457
180.7248, 403.8283
181.2069, 408.6864
181.6890, 412.5735
182.1711, 415.3632
182.6533, 417.6046
183.1354, 419.7981
183.6175, 421.9696
184.0996, 423.8921
184.5817, 425.8783
185.0638, 427.3452
185.5460, 427.8210
186.0281, 427.2157
186.5102, 425.8883
186.9923, 424.2413
187.4744, 422.1169
187.9565, 420.0856
188.4387, 418.0964
188.9208, 416.2733
189.4029, 414.7706
189.8850, 413.6149
190.3671, 412.6589
190.8492, 411.6649
191.3314, 411.0643
191.8135, 409.6305
192.2956, 405.8182
192.7777, 401.9675
193.2598, 400.3818
193.7419, 401.9318
194.2241, 405.4565
194.7062, 408.1595
195.1883, 410.1748
195.6704, 411.0239
196.1525, 410.0773
196.6346, 408.1542
197.1168, 405.9834
197.5989, 403.8456
198.0810, 401.9821
198.5631, 401.1800
199.0452, 402.7132
199.5273, 403.5583
200.0095, 402.8944
200.4916, 401.2812
200.9737, 399.4960
201.4558, 397.7661
201.9379, 396.2962
202.4200, 395.7346
202.9022, 396.3998
203.3843, 397.1744
203.8664, 398.1343
204.3485, 398.9732
204.8306, 398.6478
205.3127, 396.2618
205.7949, 392.9242
206.2770, 391.1712
206.7591, 391.6165
207.2412, 392.1351
207.7233, 391.4347
208.2054, 389.6799
208.6876, 387.8857
209.1697, 386.3719
209.6518, 385.1060
210.1339, 384.0684
210.6160, 383.3795
211.0981, 382.5835
211.5803, 381.1390
212.0624, 379.0462
212.5445, 377.2464
213.0266, 376.3065
213.5087, 375.7030
213.9908, 374.9674
214.4730, 374.0312
214.9551, 373.0095
215.4372, 372.0385
215.9193, 371.1266
216.4014, 370.1984
216.8836, 368.9554
217.3657, 367.8481
217.8478, 367.2852
218.3299, 367.3763
218.8120, 367.6885
219.2941, 367.6069
219.7763, 366.9843
220.2584, 366.4456
220.7405, 366.1014
221.2226, 365.8675
221.7047, 365.6098
222.1868, 365.3067
222.6690, 365.1908
223.1511, 365.8330
223.6332, 368.0703
224.1153, 369.0887
224.5974, 367.0682
225.0795, 364.9005
225.5617, 365.1760
226.0438, 368.4584
226.5259, 372.7412
227.0080, 374.2726
227.4901, 370.2495
227.9722, 368.6330
228.4544, 371.3991
228.9365, 375.2668
229.4186, 377.6158
229.9007, 377.7444
230.3828, 376.8534
230.8649, 377.0039
231.3471, 378.7830
231.8292, 380.8032
232.3113, 383.6394
232.7934, 386.3622
233.2755, 388.1304
233.7576, 388.7313
234.2398, 388.6796
234.7219, 388.7930
235.2040, 389.0525
235.6861, 389.5642
236.1682, 390.7162
236.6503, 391.9056
237.1325, 392.3585
237.6146, 391.9128
238.0967, 391.4113
238.5788, 392.2899
239.0609, 395.9464
239.5430, 397.5554
240.0252, 395.5798
240.5073, 392.1552
240.9894, 389.1325
241.4715, 386.9471
241.9536, 385.5549
242.4357, 385.0175
242.9179, 385.5212
243.4000, 386.1180
243.8821, 386.3561
244.3642, 386.8180
244.8463, 388.3911
245.3284, 391.3100
245.8106, 394.4656
246.2927, 396.6404
246.7748, 397.8387
247.2569, 398.3827
247.7390, 397.6490
248.2211, 396.5697
248.7033, 396.1777
249.1854, 396.6220
249.6675, 397.7951
250.1496, 400.0812
250.6317, 403.2761
251.1138, 405.7743
251.5960, 407.1514
252.0781, 407.7026
252.5602, 407.3748
253.0423, 405.9035
253.5244, 405.0387
254.0065, 406.8298
254.4887, 410.5157
254.9708, 414.2136
255.4529, 417.6831
255.9350, 420.8121
256.4171, 423.3541
256.8992, 425.2374
257.3813, 426.8341
257.8635, 428.4946
258.3456, 430.0440
258.8277, 431.0862
259.3098, 430.9603
259.7919, 430.5782
260.2740, 431.4216
260.7562, 433.7715
261.2383, 436.1183
261.7204, 437.8291
262.2025, 438.9620
262.6846, 439.4351
263.1667, 438.9966
263.6489, 438.1618
264.1310, 437.7160
264.6131, 437.7914
265.0952, 437.6778
265.5773, 436.5676
266.0594, 435.3078
266.5416, 434.7272
267.0237, 435.1023
267.5058, 436.0838
267.9879, 437.3679
268.4700, 439.0788
268.9521, 440.5162
269.4343, 441.2293
269.9164, 441.6827
270.3985, 442.3241
270.8806, 443.3063
271.3627, 444.0428
271.8448, 443.3834
272.3270, 440.8228
272.8091, 439.4906
273.2912, 441.4108
273.7733, 444.0215
274.2554, 445.7891
274.7375, 446.4608
275.2197, 446.7753
275.7018, 447.8032
276.1839, 449.8095
276.6660, 450.7600
277.1481, 449.0077
277.6302, 447.0751
278.1124, 446.0317
278.5945, 446.0225
279.0766, 446.8135
279.5587, 448.7555
280.0408, 452.1846
280.5229, 453.7821
281.0051, 451.5484
281.4872, 448.9341
281.9693, 447.1907
282.4514, 446.3297
282.9335, 445.8741
283.4156, 445.5564
283.8978, 445.3864
284.3799, 444.8689
284.8620, 443.3714
285.3441, 442.1620
285.8262, 441.8599
286.3083, 442.1888
286.7905, 442.5245
287.2726, 442.4369
287.7547, 441.9579
288.2368, 441.3542
288.7189, 439.9153
289.2010, 439.2638
289.6832, 440.7298
290.1653, 443.0616
290.6474, 444.2881
291.1295, 443.1300
291.6116, 440.2744
292.0938, 438.5109
292.5759, 438.4228
293.0580, 438.7248
293.5401, 439.5684
294.0222, 440.4707
294.5043, 440.7405
294.9865, 440.0398
295.4686, 438.9697
295.9507, 439.0422
296.4328, 440.9384
296.9149, 442.8324
297.3970, 444.6785
297.8792, 446.3239
298.3613, 447.4551
298.8434, 448.0284
299.3255, 448.5391
299.8076, 449.9677
300.2897, 453.1668
300.7719, 455.3102
301.2540, 456.2902
301.7361, 456.3550
302.2182, 455.2721
302.7003, 453.2047
303.1824, 450.9782
303.6646, 449.5787
304.1467, 449.1912
304.6288, 449.0082
305.1109, 450.4733
305.5930, 450.8910
306.0751, 447.8862
306.5573, 442.2988
307.0394, 437.2668
307.5215, 435.8601
308.0036, 438.3853
308.4857, 439.9567
308.9678, 440.6474
309.4500, 440.2448
309.9321, 437.2418
310.4142, 433.0905
310.8963, 430.6415
311.3784, 431.9920
311.8605, 436.6279
312.3427, 440.4630
312.8248, 443.3037
313.3069, 445.4879
313.7890, 446.4476
314.2711, 446.9970
314.7532, 448.2780
315.2354, 450.8802
315.7175, 454.2560
316.1996, 456.8698
316.6817, 459.0128
317.1638, 459.7625
317.6459, 458.1070
318.1281, 455.6924
318.6102, 453.9965
319.0923, 453.4785
319.5744, 453.5442
320.0565, 453.2815
320.5386, 452.7660
321.0208, 451.6934
321.5029, 449.6920
321.9850, 447.4937
322.4671, 445.4559
322.9492, 443.6609
323.4313, 442.0883
323.9135, 440.7789
324.3956, 439.8609
324.8777, 438.5364
325.3598, 436.1404
325.8419, 433.9463
326.3240, 432.4776
326.8062, 431.6380
327.2883, 431.0236
327.7704, 430.3286
328.2525, 429.5665
328.7346, 428.9524
329.2167, 428.8853
329.6989, 428.4995
330.1810, 427.6384
330.6631, 426.3263
331.1452, 424.4415
331.6273, 421.8078
332.1094, 418.9313
332.5916, 417.4742
333.0737, 418.3385
333.5558, 419.1547
334.0379, 419.6361
334.5200, 419.8252
335.0021, 419.5993
335.4843, 418.9431
335.9664, 418.2936
336.4485, 418.4550
336.9306, 419.7994
337.4127, 420.8392
337.8948, 421.3584
338.3770, 421.6030
338.8591, 421.3117
339.3412, 420.6771
339.8233, 420.6027
340.3055, 422.7604
340.7876, 427.6384
341.2697, 429.6362
341.7518, 424.9613
342.2339, 421.0138
342.7160, 421.3151
343.1982, 424.6901
343.6803, 428.0257
344.1624, 429.3582
344.6445, 428.9375
345.1266, 427.9072
345.6087, 425.8035
346.0909, 423.8378
346.5730, 422.2378
347.0551, 421.0345
347.5372, 420.3540
348.0193, 420.3098
348.5014, 420.5647
348.9836, 420.5341
349.4657, 420.2010
349.9478, 419.6363
350.4299, 418.2262
350.9120, 416.9782
351.3941, 416.8265
351.8763, 417.9205
352.3584, 419.3121
352.8405, 420.2292
353.3226, 420.6830
353.8047, 420.3214
354.2868, 418.5746
354.7690, 416.4869
355.2511, 414.5593
355.7332, 412.8363
356.2153, 411.4130
356.6974, 410.0743
357.1795, 409.0367
357.6617, 409.4104
358.1438, 412.0052
358.6259, 414.3413
359.1080, 414.9334
359.5901, 414.3825
360.0722, 413.5449
360.5544, 412.5948
361.0365, 411.6391
361.5186, 410.8076
362.0007, 410.1080
362.4828, 409.5138
362.9649, 409.1974
363.4471, 408.8694
363.9292, 408.1964
364.4113, 407.1113
364.8934, 405.8166
365.3755, 404.3189
365.8576, 402.6876
366.3398, 401.2853
366.8219, 400.1275
367.3040, 399.3382
367.7861, 399.2845
368.2682, 399.8755
368.7503, 400.0302
369.2325, 398.6242
369.7146, 396.7115
370.1967, 396.4400
370.6788, 398.2727
371.1609, 400.0003
371.6430, 399.8315
372.1252, 398.1538
372.6073, 396.2945
373.0894, 394.3927
373.5715, 392.3877
374.0536, 390.0583
374.5357, 387.5088
375.0179, 385.3123
375.5000, 383.7870
375.9821, 382.7997
376.4642, 382.0893
376.9463, 382.0087
377.4284, 381.3944
377.9106, 379.5969
378.3927, 377.0361
378.8748, 374.2870
379.3569, 371.4523
379.8390, 368.8620
380.3211, 367.1065
380.8033, 366.4458
381.2854, 365.0430
381.7675, 361.8646
382.2496, 358.5563
382.7317, 356.6783
383.2138, 356.1422
383.6960, 355.4652
384.1781, 353.4297
384.6602, 350.1769
385.1423, 347.7387
385.6244, 346.6424
386.1065, 345.5952
386.5887, 344.2405
387.0708, 342.6435
387.5529, 340.9103
388.0350, 339.0795
388.5171, 337.1930
388.9992, 335.3267
389.4814, 333.2688
389.9635, 331.6032
390.4456, 330.8341
390.9277, 330.1200
391.4098, 328.7498
391.8919, 326.6558
392.3741, 324.2315
392.8562, 321.8608
393.3383, 319.5233
393.8204, 317.3414
394.3025, 315.6024
394.7846, 313.7113
395.2668, 311.2393
395.7489, 308.4832
396.2310, 305.9503
396.7131, 303.9145
397.1952, 302.3768
397.6773, 301.3882
398.1595, 301.5022
398.6416, 301.2419
399.1237, 300.0720
399.6058, 298.7039
400.0879, 297.7383
400.5700, 297.3134
401.0522, 297.1619
401.5343, 296.9197
402.0164, 296.5180
402.4985, 296.4657
402.9806, 297.5844
403.4627, 298.2721
403.9449, 297.2975
404.4270, 295.2857
404.9091, 293.8683
405.3912, 294.1367
405.8733, 295.6891
406.3554, 297.5253
406.8376, 300.2099
407.3197, 301.7693
407.8018, 299.8433
408.2839, 297.1353
408.7660, 296.6621
409.2481, 299.4077
409.7303, 302.9042
410.2124, 304.5458
410.6945, 304.4686
411.1766, 304.9084
411.6587, 306.6850
412.1408, 308.6750
412.6230, 309.5404
413.1051, 309.4836
413.5872, 310.0623
414.0693, 312.8247
414.5514, 316.2956
415.0335, 317.8252
415.5157, 317.1025
415.9978, 316.2354
416.4799, 316.2871
416.9620, 317.3254
417.4441, 319.3137
417.9262, 323.0515
418.4084, 326.6787
418.8905, 328.7939
419.3726, 329.9626
419.8547, 331.6768
420.3368, 334.5014
420.8189, 337.8950
421.3011, 341.1452
421.7832, 344.4592
422.2653, 346.7760
422.7474, 346.6212
423.2295, 346.3391
423.7116, 348.3969
424.1938, 352.6797
424.6759, 356.9170
425.1580, 359.3361
425.6401, 360.0348
426.1222, 360.8969
426.6043, 362.1343
427.0865, 363.2590
427.5686, 364.1703
428.0507, 364.8904
428.5328, 365.8248
429.0149, 367.0817
429.4970, 367.6166
429.9792, 365.2863
430.4613, 357.5237
430.9434, 352.5187
431.4255, 352.5269
431.9076, 352.7998
432.3897, 350.4663
432.8719, 345.8546
433.3540, 340.9673
433.8361, 337.2764
434.3182, 334.7167
434.8003, 332.8760
435.2824, 332.6219
435.7646, 331.7521
436.2467, 329.3494
436.7288, 326.3206
437.2109, 323.4653
437.6930, 321.0239
438.1751, 319.2125
438.6573, 318.5887
439.1394, 319.2735
439.6215, 319.4012
440.1036, 318.1862
440.5857, 316.9527
441.0678, 316.6305
441.5500, 317.0394
442.0321, 317.4526
442.5142, 317.7807
442.9963, 317.7737
443.4784, 316.7640
443.9605, 314.6081
444.4427, 312.5946
444.9248, 311.7261
445.4069, 311.2035
445.8890, 309.5687
446.3711, 306.3301
446.8532, 303.1772
447.3354, 301.0877
447.8175, 299.7578
448.2996, 298.6924
448.7817, 297.8661
449.2638, 296.7378
449.7459, 294.4068
450.2281, 290.7749
450.7102, 288.4995
451.1923, 288.9752
451.6744, 289.6793
452.1565, 288.7973
452.6386, 286.7735
453.1208, 285.1572
453.6029, 284.7658
454.0850, 285.2386
454.5671, 285.5810
455.0492, 285.7147
455.5313, 285.8137
456.0135, 286.0519
456.4956, 286.1432
456.9777, 285.5274
457.4598, 284.3500
457.9419, 283.6406
458.4240, 284.5614
458.9062, 287.1503
459.3883, 288.5726
459.8704, 288.1285
460.3525, 287.2080
460.8346, 285.9527
461.3167, 284.4521
461.7989, 282.5126
462.2810, 280.0299
462.7631, 277.9385
463.2452, 278.0585
463.7273, 280.9044
464.2094, 282.8759
464.6916, 282.8099
465.1737, 282.4019
465.6558, 282.7642
466.1379, 283.6774
466.6200, 284.2205
467.1021, 283.8063
467.5843, 282.7322
468.0664, 281.4096
468.5485, 279.7381
469.0306, 278.5107
469.5127, 278.1154
469.9948, 278.3998
470.4770, 279.2546
470.9591, 280.9841
471.4412, 282.1238
471.9233, 280.9347
472.4054, 278.9072
472.8875, 279.2703
473.3697, 282.7364
473.8518, 286.3298
474.3339, 287.2254
474.8160, 285.4060
475.2981, 284.3990
475.7802, 284.2967
476.2624, 284.8784
476.7445, 286.5625
477.2266, 288.7798
477.7087, 290.5249
478.1908, 291.4126
478.6729, 291.6154
479.1551, 291.3568
479.6372, 290.0335
480.1193, 289.7116
480.6014, 290.9812
481.0835, 292.5766
481.5656, 294.2911
482.0478, 295.7442
482.5299, 296.0760
483.0120, 294.5190
483.4941, 291.8125
483.9762, 290.9071
484.4583, 292.7755
484.9405, 294.4921
485.4226, 295.8351
485.9047, 296.5962
486.3868, 296.1429
486.8689, 294.5783
487.3510, 293.3929
487.8332, 294.6001
488.3153, 297.4579
488.7974, 298.0341
489.2795, 295.3135
489.7616, 292.4650
490.2437, 291.5802
490.7259, 291.7798
491.2080, 291.8065
491.6901, 291.4352
492.1722, 290.8738
492.6543, 290.4113
493.1364, 289.8854
493.6186, 288.6207
494.1007, 286.2502
494.5828, 283.9034
495.0649, 282.9269
495.5470, 283.4703
496.0291, 284.0177
496.5113, 284.7315
496.9934, 285.2450
497.4755, 285.1274
497.9576, 284.6407
498.4397, 284.5240
498.9218, 285.1649
499.4040, 286.0634
499.8861, 286.0956
500.3682, 284.9418
500.8503, 283.4380
501.3324, 281.1284
501.8145, 278.8911
502.2967, 276.9830
502.7788, 275.5972
503.2609, 275.1530
503.7430, 276.1576
504.2251, 278.0679
504.7072, 278.6465
505.1894, 277.2025
505.6715, 276.0086
506.1536, 276.4142
506.6357, 276.7872
507.1178, 275.4996
507.5999, 272.4528
508.0821, 269.5544
508.5642, 268.2909
509.0463, 268.2610
509.5284, 268.3873
510.0105, 268.6880
510.4926, 268.7900
510.9748, 268.2321
511.4569, 267.3737
511.9390, 267.1053
512.4211, 267.9020
512.9032, 268.5038
513.3853, 268.0734
513.8674, 267.0930
514.3495, 266.2248
514.8317, 265.6139
515.3138, 265.6362
515.7959, 266.8434
516.2780, 269.3736
516.7601, 270.9896
517.2422, 271.1685
517.7244, 271.1839
518.2065, 271.3881
518.6886, 271.7225
519.1707, 272.0668
519.6528, 272.3778
520.1349, 272.6920
520.6171, 272.9432
521.0992, 272.9022
521.5813, 273.7485
522.0634, 276.7695
522.5455, 279.4192
523.0276, 280.2452
523.5098, 280.1163
523.9919, 280.7814
524.4740, 283.1841
524.9561, 286.2127
525.4382, 288.2466
525.9203, 289.2551
526.4025, 290.2428
526.8846, 291.1717
527.3667, 292.5045
527.8488, 294.9175
528.3309, 298.2278
528.8130, 301.3496
529.2952, 303.9099
529.7773, 306.1845
530.2594, 308.4561
530.7415, 310.6845
531.2236, 312.6222
531.7057, 314.0972
532.1879, 315.4097
532.6700, 317.1595
533.1521, 319.6792
533.6342, 321.9085
534.1163, 323.7295
534.5984, 325.3309
535.0806, 326.7358
535.5627, 328.0212
536.0448, 329.4503
536.5269, 331.2412
537.0090, 333.0263
537.4911, 333.5240
537.9733, 331.8520
538.4554, 330.8445
538.9375, 330.7016
539.4196, 331.3860
539.9017, 333.4007
540.3839, 336.3914
540.8660, 338.9787
541.3481, 339.9027
541.8302, 340.0401
542.3123, 341.4684
542.7944, 344.3281
543.2766, 347.2286
543.7587, 349.6133
544.2408, 352.2437
544.7229, 354.2140
545.2050, 357.0110
545.6871, 359.4556
546.1693, 361.6898
546.6514, 363.2014
547.1335, 363.7197
547.6156, 363.0912
548.0977, 360.5189
548.5798, 355.2451
549.0620, 348.0943
549.5441, 341.9020
550.0262, 338.2705
550.5083, 333.4514
550.9904, 326.6284
551.4725, 319.2066
551.9547, 311.9049
552.4368, 304.9800
552.9189, 298.6085
553.4010, 292.9731
553.8831, 288.0006
554.3652, 283.4952
554.8474, 279.4916
555.3295, 275.9264
555.8116, 273.0811
556.2937, 270.4742
556.7758, 267.7289
557.2579, 264.8589
557.7401, 262.2329
558.2222, 259.8634
558.7043, 257.9646
559.1864, 256.8099
559.6685, 256.4147
560.1506, 257.1201
560.6328, 259.6901
561.1149, 262.8887
561.5970, 263.8608
562.0791, 262.1262
562.5612, 260.2428
563.0433, 258.4843
563.5255, 256.9055
564.0076, 255.3225
564.4897, 253.9046
564.9718, 253.2053
565.4539, 253.5968
565.9360, 254.9078
566.4182, 256.6949
566.9003, 260.0728
567.3824, 261.7879
567.8645, 259.8979
568.3466, 257.9426
568.8287, 258.2845
569.3109, 260.6576
569.7930, 263.4192
570.2751, 265.8858
570.7572, 267.7690
571.2393, 268.0300
571.7214, 266.4729
572.2036, 265.6817
572.6857, 266.6913
573.1678, 268.5924
573.6499, 270.4606
574.1320, 272.2899
574.6141, 273.8481
575.0963, 275.1704
575.5784, 276.1075
576.0605, 275.8729
576.5426, 275.0444
577.0247, 275.8027
577.5068, 279.3004
577.9890, 283.8113
578.4711, 285.9579
578.9532, 284.1266
579.4353, 284.0490
579.9174, 286.7063
580.3995, 289.9011
580.8817, 292.9931
581.3638, 295.7577
581.8459, 297.9693
582.3280, 299.5133
582.8101, 300.5473
583.2922, 301.0947
583.7744, 301.0717
584.2565, 301.8091
584.7386, 303.7332
585.2207, 306.1232
585.7029, 309.1036
586.1850, 312.1496
586.6671, 313.7639
587.1492, 312.7259
587.6313, 311.3310
588.1135, 311.3944
588.5956, 312.3560
589.0777, 312.9695
589.5598, 312.9246
590.0419, 312.3881
