##NAMES=Hydroxylellestadite
##RRUFFID=R060769
##IDEAL CHEMISTRY=Ca_5_(SiO_4_)_1.5_(S^6+^O_4_)_1.5_(OH)
##LOCALITY=Crestmore, Riverside County, California, USA
##OWNER=RRUFF
##SOURCE=Michael Scott
##DESCRIPTION=Transparent tan-yellow prismatic crystals in blue calcite
##STATUS=The identification of this mineral is confirmed by single-crystal X-ray diffraction and chemical analysis.
##URL=rruff.info/R060769
##MEASURED CHEMISTRY=Ca_5.00_((SiO_4_)_1.23_(SO_4_)_1.09_(PO_4_)_0.68_)_Σ=3_((OH)_0.89_Cl_0.11_)_Σ=1_; OH estimated by difference and stoichiometry
123.933, 3516.843
124.415, 3577.909
124.898, 3625.017
125.380, 3667.614
125.862, 3706.228
126.344, 3743.579
126.826, 3784.042
127.308, 3824.339
127.790, 3857.477
128.272, 3878.302
128.755, 3892.919
129.237, 3911.372
129.719, 3933.696
130.201, 3959.234
130.683, 3989.898
131.165, 4024.529
131.647, 4056.052
132.129, 4075.888
132.611, 4088.222
133.094, 4116.896
133.576, 4164.845
134.058, 4222.496
134.540, 4275.193
135.022, 4322.403
135.504, 4372.125
135.986, 4430.987
136.468, 4499.756
136.951, 4563.110
137.433, 4619.138
137.915, 4669.168
138.397, 4720.752
138.879, 4777.146
139.361, 4827.723
139.843, 4866.387
140.325, 4892.746
140.807, 4907.245
141.290, 4906.015
141.772, 4889.556
142.254, 4881.399
142.736, 4882.353
143.218, 4890.902
143.700, 4906.805
144.182, 4936.937
144.664, 4961.919
145.146, 4975.077
145.629, 4971.185
146.111, 4973.288
146.593, 4985.940
147.075, 5003.120
147.557, 5012.461
148.039, 5010.334
148.521, 5004.021
149.003, 4995.729
149.486, 4977.020
149.968, 4968.016
150.450, 4976.720
150.932, 4998.275
151.414, 5009.027
151.896, 4998.881
152.378, 4985.353
152.860, 4977.986
153.342, 4980.527
153.825, 4986.355
154.307, 5001.383
154.789, 5025.534
155.271, 5033.058
155.753, 5003.107
156.235, 4962.052
156.717, 4933.441
157.199, 4925.581
157.682, 4927.053
158.164, 4935.159
158.646, 4949.857
159.128, 4969.105
159.610, 5002.903
160.092, 5038.486
160.574, 5057.713
161.056, 5039.309
161.538, 5012.761
162.020, 4992.193
162.503, 4978.782
162.985, 4973.372
163.467, 4985.903
163.949, 5008.070
164.431, 5018.519
164.913, 4993.370
165.395, 4960.111
165.878, 4941.149
166.360, 4952.491
166.842, 4966.870
167.324, 4969.829
167.806, 4962.378
168.288, 4949.730
168.770, 4927.353
169.252, 4903.939
169.734, 4889.249
170.217, 4887.617
170.699, 4895.575
171.181, 4914.896
171.663, 4945.431
172.145, 4973.438
172.627, 4987.102
173.109, 4990.979
173.591, 4992.968
174.073, 4991.990
174.556, 4992.851
175.038, 5003.508
175.520, 5025.965
176.002, 5048.458
176.484, 5056.342
176.966, 5054.345
177.448, 5056.129
177.930, 5075.433
178.413, 5102.078
178.895, 5118.644
179.377, 5121.582
179.859, 5117.623
180.341, 5110.127
180.823, 5100.750
181.305, 5099.024
181.787, 5121.862
182.269, 5157.907
182.751, 5175.480
183.234, 5160.071
183.716, 5132.860
184.198, 5132.351
184.680, 5158.135
185.162, 5191.322
185.644, 5222.244
186.126, 5249.159
186.609, 5264.979
187.091, 5262.989
187.573, 5250.243
188.055, 5237.839
188.537, 5223.719
189.019, 5229.566
189.501, 5236.712
189.983, 5256.688
190.465, 5273.548
190.947, 5287.462
191.430, 5289.604
191.912, 5306.741
192.394, 5298.735
192.876, 5318.115
193.358, 5320.619
193.840, 5306.078
194.322, 5292.589
194.804, 5287.309
195.287, 5290.112
195.769, 5298.729
196.251, 5315.958
196.733, 5334.012
197.215, 5334.614
197.697, 5314.980
198.179, 5301.689
198.661, 5315.154
199.143, 5356.581
199.626, 5381.920
200.108, 5384.688
200.590, 5372.950
201.072, 5364.313
201.554, 5357.902
202.036, 5357.922
202.518, 5370.179
203.000, 5396.724
203.482, 5416.831
203.965, 5426.595
204.447, 5428.323
204.929, 5432.332
205.411, 5440.405
205.893, 5445.296
206.375, 5437.757
206.857, 5413.021
207.339, 5399.458
207.822, 5404.444
208.304, 5425.755
208.786, 5446.281
209.268, 5470.666
209.750, 5486.248
210.232, 5475.074
210.714, 5426.031
211.196, 5390.964
211.678, 5384.948
212.161, 5408.246
212.643, 5426.545
213.125, 5440.583
213.607, 5448.869
214.089, 5446.228
214.571, 5424.686
215.053, 5413.605
215.536, 5426.386
216.018, 5468.152
216.500, 5485.365
216.982, 5466.540
217.464, 5433.520
217.946, 5419.445
218.428, 5431.069
218.910, 5446.685
219.392, 5459.629
219.874, 5469.157
220.357, 5479.859
220.839, 5496.746
221.321, 5511.501
221.803, 5504.848
222.285, 5462.850
222.767, 5425.661
223.249, 5411.014
223.731, 5428.059
224.214, 5442.544
224.696, 5454.225
225.178, 5463.627
225.660, 5471.664
226.142, 5474.744
226.624, 5482.047
227.106, 5500.065
227.588, 5540.190
228.070, 5563.980
228.553, 5563.896
229.035, 5547.008
229.517, 5539.056
229.999, 5545.307
230.481, 5552.888
230.963, 5554.244
231.445, 5544.901
231.927, 5538.515
232.410, 5534.456
232.892, 5533.767
233.374, 5543.478
233.856, 5573.098
234.338, 5601.088
234.820, 5613.032
235.302, 5599.539
235.784, 5588.433
236.266, 5581.219
236.749, 5578.233
237.231, 5583.243
237.713, 5602.696
238.195, 5622.867
238.677, 5632.980
239.159, 5626.604
239.641, 5622.943
240.123, 5625.767
240.605, 5634.792
241.088, 5639.829
241.570, 5637.420
242.052, 5634.759
242.534, 5637.808
243.016, 5648.087
243.498, 5661.135
243.980, 5677.315
244.462, 5696.571
244.945, 5712.023
245.427, 5719.092
245.909, 5726.265
246.391, 5743.026
246.873, 5777.903
247.355, 5805.667
247.837, 5819.347
248.319, 5817.841
248.801, 5820.155
249.284, 5827.102
249.766, 5837.184
250.248, 5850.239
250.730, 5872.276
251.212, 5886.117
251.694, 5885.631
252.176, 5869.392
252.658, 5858.356
253.141, 5851.672
253.623, 5851.501
254.105, 5861.906
254.587, 5889.770
255.069, 5914.449
255.551, 5929.248
256.033, 5932.295
256.515, 5941.055
256.997, 5956.490
257.480, 5976.575
257.962, 5999.888
258.444, 6028.313
258.926, 6055.497
259.408, 6079.298
259.890, 6099.019
260.372, 6119.793
260.854, 6142.885
261.336, 6165.643
261.819, 6186.333
262.301, 6207.189
262.783, 6219.360
263.265, 6215.704
263.747, 6191.877
264.229, 6186.357
264.711, 6208.735
265.194, 6239.255
265.676, 6245.850
266.158, 6219.603
266.640, 6194.816
267.122, 6183.609
267.604, 6187.584
268.086, 6192.707
268.568, 6199.028
269.050, 6206.725
269.533, 6217.393
270.015, 6233.893
270.497, 6244.710
270.979, 6243.560
271.461, 6228.704
271.943, 6220.319
272.425, 6219.774
272.907, 6223.957
273.389, 6229.409
273.872, 6237.222
274.354, 6241.324
274.836, 6237.398
275.318, 6224.511
275.800, 6217.646
276.282, 6218.078
276.764, 6222.188
277.246, 6225.188
277.728, 6227.206
278.211, 6226.766
278.693, 6223.428
279.175, 6217.112
279.657, 6205.377
280.139, 6185.400
280.621, 6165.414
281.103, 6160.270
281.585, 6171.230
282.068, 6181.899
282.550, 6187.089
283.032, 6186.718
283.514, 6176.524
283.996, 6153.283
284.478, 6128.806
284.960, 6126.708
285.442, 6147.579
285.924, 6156.634
286.407, 6128.486
286.889, 6070.490
287.371, 6036.936
287.853, 6030.795
288.335, 6039.212
288.817, 6050.101
289.299, 6062.995
289.781, 6068.738
290.263, 6059.788
290.746, 6039.800
291.228, 6023.759
291.710, 6012.090
292.192, 6002.699
292.674, 5990.801
293.156, 5977.668
293.638, 5971.612
294.121, 5982.530
294.603, 6003.108
295.085, 6013.943
295.567, 6014.374
296.049, 6009.735
296.531, 6003.347
297.013, 5996.268
297.495, 5992.331
297.977, 5989.150
298.460, 5991.305
298.942, 6013.109
299.424, 6056.837
299.906, 6098.107
300.388, 6107.134
300.870, 6094.067
301.352, 6086.140
301.834, 6102.395
302.316, 6126.726
302.798, 6135.850
303.281, 6128.731
303.763, 6119.169
304.245, 6114.167
304.727, 6115.263
305.209, 6125.688
305.691, 6157.819
306.173, 6193.375
306.655, 6213.723
307.138, 6219.089
307.620, 6218.196
308.102, 6212.139
308.584, 6205.183
309.066, 6203.394
309.548, 6215.117
310.030, 6228.724
310.512, 6235.723
310.995, 6236.492
311.477, 6235.213
311.959, 6234.013
312.441, 6232.274
312.923, 6229.303
313.405, 6228.063
313.887, 6222.828
314.369, 6207.122
314.851, 6182.375
315.334, 6161.635
315.816, 6156.829
316.298, 6155.962
316.780, 6148.714
317.262, 6125.021
317.744, 6101.606
318.226, 6084.157
318.708, 6072.154
319.190, 6062.381
319.673, 6052.174
320.155, 6044.847
320.637, 6042.789
321.119, 6055.674
321.601, 6063.197
322.083, 6058.042
322.565, 6042.791
323.047, 6028.328
323.530, 6015.670
324.012, 6004.897
324.494, 5996.021
324.976, 5988.894
325.458, 5983.697
325.940, 5985.035
326.422, 5989.044
326.904, 5983.741
327.387, 5964.257
327.869, 5938.483
328.351, 5908.287
328.833, 5857.266
329.315, 5828.924
329.797, 5839.584
330.279, 5871.269
330.761, 5883.378
331.243, 5865.245
331.725, 5840.288
332.208, 5815.207
332.690, 5786.663
333.172, 5768.170
333.654, 5768.745
334.136, 5774.508
334.618, 5758.546
335.100, 5707.007
335.582, 5661.154
336.065, 5636.413
336.547, 5636.611
337.029, 5633.858
337.511, 5627.460
337.993, 5618.638
338.475, 5608.738
338.957, 5597.814
339.439, 5585.249
339.922, 5569.983
340.404, 5552.132
340.886, 5539.665
341.368, 5536.034
341.850, 5529.213
342.332, 5502.322
342.814, 5454.012
343.296, 5409.477
343.778, 5373.758
344.261, 5347.289
344.743, 5333.432
345.225, 5333.557
345.707, 5336.667
346.189, 5332.779
346.671, 5322.665
347.153, 5311.327
347.635, 5300.078
348.117, 5287.897
348.600, 5270.909
349.082, 5249.210
349.564, 5228.344
350.046, 5212.288
350.528, 5200.183
351.010, 5191.064
351.492, 5185.259
351.974, 5181.114
352.457, 5176.430
352.939, 5171.524
353.421, 5167.974
353.903, 5172.294
354.385, 5176.821
354.867, 5169.326
355.349, 5143.994
355.831, 5118.336
356.314, 5107.322
356.796, 5107.383
357.278, 5109.990
357.760, 5118.865
358.242, 5123.688
358.724, 5113.277
359.206, 5082.995
359.688, 5054.645
360.170, 5033.831
360.652, 5023.365
361.135, 5027.438
361.617, 5070.568
362.099, 5109.187
362.581, 5117.399
363.063, 5090.376
363.545, 5071.059
364.027, 5080.255
364.509, 5099.868
364.991, 5112.248
365.474, 5105.516
365.956, 5099.670
366.438, 5102.691
366.920, 5114.452
367.402, 5117.593
367.884, 5091.441
368.366, 5068.074
368.849, 5069.381
369.331, 5130.955
369.813, 5171.695
370.295, 5177.023
370.777, 5154.434
371.259, 5142.320
371.741, 5145.794
372.223, 5153.708
372.705, 5159.944
373.188, 5160.761
373.670, 5168.541
374.152, 5185.214
374.634, 5207.975
375.116, 5232.009
375.598, 5261.432
376.080, 5281.413
376.562, 5280.420
377.044, 5254.025
377.527, 5246.783
378.009, 5262.770
378.491, 5290.298
378.973, 5313.552
379.455, 5332.415
379.937, 5351.635
380.419, 5373.882
380.901, 5398.298
381.384, 5420.849
381.866, 5441.332
382.348, 5461.558
382.830, 5480.397
383.312, 5499.499
383.794, 5527.053
384.276, 5566.815
384.758, 5614.994
385.240, 5668.324
385.723, 5725.174
386.205, 5776.790
386.687, 5804.032
387.169, 5823.202
387.651, 5864.684
388.133, 5945.865
388.615, 6029.729
389.097, 6076.004
389.579, 6095.523
390.062, 6123.326
390.544, 6187.111
391.026, 6262.906
391.508, 6330.822
391.990, 6386.511
392.472, 6440.213
392.954, 6490.865
393.436, 6544.051
393.918, 6607.744
394.401, 6698.632
394.883, 6789.288
395.365, 6868.488
395.847, 6935.754
396.329, 6996.458
396.811, 7053.070
397.293, 7103.279
397.776, 7144.270
398.258, 7158.737
398.740, 7182.629
399.222, 7226.778
399.704, 7289.154
400.186, 7343.259
400.668, 7387.511
401.150, 7424.868
401.632, 7456.309
402.115, 7476.622
402.597, 7501.631
403.079, 7536.806
403.561, 7575.813
404.043, 7600.566
404.525, 7607.759
405.007, 7608.500
405.489, 7606.666
405.971, 7601.940
406.454, 7596.203
406.936, 7587.220
407.418, 7581.375
407.900, 7591.350
408.382, 7617.748
408.864, 7641.051
409.346, 7653.763
409.828, 7657.847
410.310, 7658.975
410.793, 7656.758
411.275, 7657.484
411.757, 7671.368
412.239, 7693.727
412.721, 7709.100
413.203, 7709.852
413.685, 7706.100
414.167, 7711.964
414.650, 7726.026
415.132, 7740.619
415.614, 7751.512
416.096, 7759.840
416.578, 7764.851
417.060, 7762.621
417.542, 7768.312
418.024, 7804.401
418.507, 7854.707
418.989, 7889.295
419.471, 7873.567
419.953, 7855.835
420.435, 7864.392
420.917, 7903.836
421.399, 7945.490
421.881, 7984.475
422.363, 8019.685
422.845, 8049.259
423.328, 8071.704
423.810, 8090.556
424.292, 8104.396
424.774, 8114.067
425.256, 8127.281
425.738, 8151.261
426.220, 8172.381
426.703, 8182.366
427.185, 8169.550
427.667, 8169.461
428.149, 8189.731
428.631, 8219.636
429.113, 8234.694
429.595, 8229.397
430.077, 8222.620
430.559, 8220.661
431.042, 8223.472
431.524, 8232.111
432.006, 8248.939
432.488, 8265.104
432.970, 8269.046
433.452, 8261.174
433.934, 8251.352
434.416, 8239.537
434.898, 8229.342
435.381, 8233.372
435.863, 8251.039
436.345, 8265.277
436.827, 8260.963
437.309, 8244.135
437.791, 8226.200
438.273, 8207.552
438.755, 8192.020
439.237, 8181.391
439.720, 8176.571
440.202, 8179.906
440.684, 8200.225
441.166, 8223.919
441.648, 8240.247
442.130, 8248.038
442.612, 8252.997
443.094, 8252.447
443.577, 8252.478
444.059, 8259.437
444.541, 8276.109
445.023, 8298.948
445.505, 8329.209
445.987, 8366.262
446.469, 8402.632
446.951, 8427.042
447.434, 8459.371
447.916, 8509.572
448.398, 8585.639
448.880, 8664.679
449.362, 8747.370
449.844, 8832.950
450.326, 8918.959
450.808, 9001.647
451.290, 9094.595
451.772, 9200.668
452.255, 9320.149
452.737, 9452.515
453.219, 9597.264
453.701, 9754.063
454.183, 9923.853
454.665, 10106.940
455.147, 10295.500
455.629, 10485.230
456.112, 10680.450
456.594, 10882.030
457.076, 11092.410
457.558, 11318.670
458.040, 11596.740
458.522, 11885.870
459.004, 12111.130
459.486, 12255.320
459.969, 12374.150
460.451, 12525.000
460.933, 12683.130
461.415, 12803.800
461.897, 12849.500
462.379, 12867.340
462.861, 12893.380
463.343, 12924.610
463.825, 12917.010
464.308, 12838.070
464.790, 12722.060
465.272, 12593.210
465.754, 12455.860
466.236, 12306.310
466.718, 12125.980
467.200, 11932.200
467.682, 11766.550
468.164, 11650.400
468.647, 11539.220
469.129, 11419.800
469.611, 11293.460
470.093, 11159.300
470.575, 11015.300
471.057, 10866.360
471.539, 10712.060
472.021, 10548.900
472.504, 10402.300
472.986, 10283.660
473.468, 10180.980
473.950, 10052.900
474.432, 9898.545
474.914, 9736.481
475.396, 9582.316
475.878, 9430.970
476.361, 9256.658
476.843, 9051.248
477.325, 8852.141
477.807, 8706.475
478.289, 8597.522
478.771, 8485.125
479.253, 8347.180
479.735, 8202.044
480.217, 8063.054
480.699, 7929.847
481.182, 7805.325
481.664, 7696.787
482.146, 7592.563
482.628, 7480.819
483.110, 7350.833
483.592, 7228.030
484.074, 7120.578
484.556, 7023.772
485.039, 6932.075
485.521, 6848.841
486.003, 6764.321
486.485, 6673.715
486.967, 6576.697
487.449, 6486.802
487.931, 6402.076
488.413, 6327.125
488.896, 6266.485
489.378, 6225.394
489.860, 6182.211
490.342, 6132.383
490.824, 6081.693
491.306, 6049.827
491.788, 6038.847
492.270, 6022.476
492.752, 5980.667
493.234, 5920.968
493.717, 5877.460
494.199, 5850.917
494.681, 5832.117
495.163, 5810.440
495.645, 5789.281
496.127, 5776.161
496.609, 5775.753
497.091, 5781.355
497.574, 5786.492
498.056, 5792.358
498.538, 5802.780
499.020, 5820.003
499.502, 5842.539
499.984, 5876.605
500.466, 5932.469
500.948, 5958.702
501.431, 5909.583
501.913, 5836.519
502.395, 5795.633
502.877, 5826.300
503.359, 5851.956
503.841, 5858.574
504.323, 5849.953
504.805, 5849.576
505.287, 5861.575
505.770, 5875.068
506.252, 5884.194
506.734, 5887.560
507.216, 5892.927
507.698, 5899.579
508.180, 5909.687
508.662, 5930.332
509.144, 5960.761
509.626, 5983.142
510.109, 5990.032
510.591, 5986.563
511.073, 5977.159
511.555, 5963.514
512.037, 5963.147
512.519, 6002.834
513.001, 6058.178
513.484, 6091.842
513.966, 6093.266
514.448, 6096.095
514.930, 6132.078
515.412, 6182.488
515.894, 6219.519
516.376, 6216.254
516.858, 6213.994
517.340, 6231.184
517.822, 6265.963
518.305, 6297.067
518.787, 6305.322
519.269, 6321.469
519.751, 6364.400
520.233, 6460.756
520.715, 6523.450
521.197, 6540.304
521.679, 6533.872
522.161, 6534.806
522.644, 6543.681
523.126, 6558.259
523.608, 6577.616
524.090, 6602.406
524.572, 6640.094
525.054, 6691.389
525.536, 6737.777
526.018, 6760.620
526.500, 6767.304
526.983, 6782.863
527.465, 6811.908
527.947, 6840.835
528.429, 6852.219
528.911, 6853.470
529.393, 6858.837
529.875, 6875.863
530.357, 6897.456
530.840, 6925.903
531.322, 6958.022
531.804, 6975.521
532.286, 6958.313
532.768, 6934.372
533.250, 6920.296
533.732, 6925.187
534.214, 6923.053
534.696, 6907.791
535.179, 6886.621
535.661, 6868.325
536.143, 6856.317
536.625, 6840.306
537.107, 6817.298
537.589, 6788.780
538.071, 6762.740
538.554, 6739.080
539.036, 6717.195
539.518, 6698.471
540.000, 6681.764
540.482, 6659.169
540.964, 6629.411
541.446, 6598.079
541.928, 6571.822
542.410, 6548.595
542.893, 6522.633
543.375, 6488.465
543.857, 6454.474
544.339, 6430.561
544.821, 6414.000
545.303, 6396.434
545.785, 6366.328
546.267, 6339.493
546.750, 6327.430
547.232, 6334.156
547.714, 6339.879
548.196, 6342.694
548.678, 6341.516
549.160, 6334.620
549.642, 6306.475
550.124, 6297.806
550.606, 6322.707
551.089, 6366.116
551.571, 6381.341
552.053, 6357.098
552.535, 6342.130
553.017, 6363.561
553.499, 6415.514
553.981, 6438.626
554.463, 6429.342
554.945, 6420.005
555.428, 6447.460
555.910, 6498.613
556.392, 6538.573
556.874, 6559.056
557.356, 6571.062
557.838, 6582.488
558.320, 6593.895
558.802, 6606.466
559.284, 6611.074
559.767, 6625.269
560.249, 6666.632
560.731, 6733.296
561.213, 6788.100
561.695, 6812.306
562.177, 6828.785
562.659, 6850.680
563.141, 6880.683
563.623, 6911.595
564.106, 6946.575
564.588, 6979.661
565.070, 6999.536
565.552, 7000.568
566.034, 7009.981
566.516, 7037.020
566.998, 7075.560
567.481, 7102.773
567.963, 7118.463
568.445, 7134.243
568.927, 7158.153
569.409, 7187.622
569.891, 7218.312
570.373, 7250.728
570.855, 7277.384
571.337, 7286.213
571.820, 7287.514
572.302, 7295.959
572.784, 7321.801
573.266, 7347.033
573.748, 7366.614
574.230, 7379.657
574.712, 7384.637
575.194, 7368.758
575.677, 7356.994
576.159, 7357.542
576.641, 7370.675
577.123, 7389.932
577.605, 7425.943
578.087, 7453.212
578.569, 7452.650
579.051, 7420.198
579.533, 7380.823
580.016, 7329.896
580.498, 7286.167
580.980, 7290.447
581.462, 7334.898
581.944, 7363.363
582.426, 7354.426
582.908, 7320.530
583.390, 7269.807
583.872, 7206.987
584.355, 7155.143
584.837, 7145.952
585.319, 7141.194
585.801, 7105.422
586.283, 7029.615
586.765, 6960.671
587.247, 6913.557
587.729, 6881.933
588.211, 6860.753
588.694, 6877.998
589.176, 6866.797
589.658, 6808.059
590.140, 6725.584
590.622, 6671.632
591.104, 6653.955
591.586, 6642.052
592.068, 6627.953
592.550, 6611.544
593.033, 6588.764
593.515, 6558.732
593.997, 6535.344
594.479, 6537.303
594.961, 6552.258
595.443, 6547.352
595.925, 6515.124
596.407, 6488.688
596.890, 6497.276
597.372, 6529.220
597.854, 6568.181
598.336, 6612.503
598.818, 6658.938
599.300, 6704.965
599.782, 6752.022
600.264, 6803.914
600.747, 6868.770
601.229, 6930.637
601.711, 6982.893
602.193, 7024.704
602.675, 7078.907
603.157, 7153.063
603.639, 7224.146
604.121, 7267.005
604.604, 7281.315
605.086, 7320.928
605.568, 7395.114
606.050, 7479.348
606.532, 7539.538
607.014, 7581.225
607.496, 7622.707
607.978, 7674.980
608.460, 7724.656
608.943, 7747.442
609.425, 7754.741
609.907, 7784.716
610.389, 7882.969
610.871, 7984.615
611.353, 8046.888
611.835, 8058.826
612.317, 8107.514
612.799, 8224.996
613.282, 8365.268
613.764, 8505.380
614.246, 8650.157
614.728, 8776.259
615.210, 8869.721
615.692, 8963.209
616.174, 9112.256
616.656, 9318.701
617.138, 9523.278
617.621, 9709.141
618.103, 9884.154
618.585, 10055.630
619.067, 10226.580
619.549, 10411.920
620.031, 10645.460
620.513, 10881.330
620.995, 11072.510
621.477, 11216.080
621.960, 11341.780
622.442, 11461.240
622.924, 11566.980
623.406, 11653.300
623.888, 11717.910
624.370, 11764.500
624.852, 11794.920
625.334, 11807.080
625.817, 11797.490
626.299, 11763.950
626.781, 11715.490
627.263, 11649.220
627.745, 11573.100
628.227, 11511.720
628.709, 11464.310
629.191, 11410.130
629.674, 11341.990
630.156, 11258.420
630.638, 11150.420
631.120, 11019.390
631.602, 10884.990
632.084, 10756.910
632.566, 10633.490
633.048, 10514.540
633.531, 10404.450
634.013, 10287.990
634.495, 10150.700
634.977, 10008.960
635.459, 9880.047
635.941, 9767.477
636.423, 9662.334
636.905, 9553.479
637.387, 9456.397
637.870, 9416.177
638.352, 9438.308
638.834, 9476.949
639.316, 9515.155
639.798, 9556.600
640.280, 9615.604
640.762, 9690.523
641.244, 9766.379
641.726, 9846.065
