##NAMES=Hydroxykenomicrolite
##RRUFFID=R061058
##IDEAL CHEMISTRY=([box],Na,Sb^3+^)_2_Ta^5+^_2_O_6_(OH)
##LOCALITY=Mt. Vasin-Myl'k, Voron'ya Tundra, Russia
##OWNER=RRUFF
##SOURCE=Michael Scott
##DESCRIPTION=Grayish adamantine grains (orange under long wave ultraviolet light) intimately associated with simpsonite (bluish white in SW UV).
##STATUS=The identification of this mineral has been confirmed by single-crystal X-ray diffraction.
##URL=rruff.info/R061058
133.7897, 45817.29
134.2718, 47301.00
134.7539, 48811.70
135.2360, 50202.85
135.7182, 51474.70
136.2003, 52663.04
136.6824, 53826.82
137.1645, 54976.88
137.6466, 56062.95
138.1287, 57082.11
138.6109, 58039.05
139.0930, 58909.46
139.5751, 59678.22
140.0572, 60376.98
140.5393, 61036.14
141.0214, 61653.13
141.5036, 62248.77
141.9857, 62840.90
142.4678, 63434.66
142.9499, 63998.57
143.4320, 64513.88
143.9141, 64997.92
144.3963, 65476.64
144.8784, 65937.15
145.3605, 66412.31
145.8426, 66928.24
146.3247, 67512.29
146.8068, 68088.66
147.2890, 68659.80
147.7711, 69223.10
148.2532, 69741.90
148.7353, 70194.79
149.2174, 70617.68
149.6995, 71029.44
150.1817, 71491.42
150.6638, 71882.78
151.1459, 72198.62
151.6280, 72442.08
152.1101, 72578.63
152.5922, 72558.69
153.0744, 72449.48
153.5565, 72317.72
154.0386, 72172.33
154.5207, 72004.43
155.0028, 71817.72
155.4849, 71621.63
155.9671, 71372.88
156.4492, 71040.57
156.9313, 70654.10
157.4134, 70261.36
157.8955, 69835.70
158.3777, 69430.11
158.8598, 69070.88
159.3419, 68775.44
159.8240, 68497.69
160.3061, 68227.05
160.7882, 67961.91
161.2704, 67698.23
161.7525, 67409.60
162.2346, 67136.09
162.7167, 66906.84
163.1988, 66738.15
163.6809, 66598.87
164.1631, 66468.12
164.6452, 66350.17
165.1273, 66265.03
165.6094, 66259.77
166.0915, 66279.20
166.5736, 66269.13
167.0558, 66172.09
167.5379, 66070.03
168.0200, 66016.73
168.5021, 66010.20
168.9842, 66026.63
169.4663, 66064.55
169.9485, 66113.32
170.4306, 66157.59
170.9127, 66182.25
171.3948, 66204.16
171.8769, 66239.32
172.3590, 66288.89
172.8412, 66344.55
173.3233, 66389.51
173.8054, 66434.36
174.2875, 66501.80
174.7696, 66626.80
175.2517, 66772.86
175.7339, 66889.17
176.2160, 66969.17
176.6981, 67035.16
177.1802, 67124.95
177.6623, 67226.49
178.1444, 67293.37
178.6266, 67286.37
179.1087, 67228.31
179.5908, 67159.40
180.0729, 67079.11
180.5550, 67003.39
181.0371, 66971.81
181.5193, 66976.38
182.0014, 66959.88
182.4835, 66864.24
182.9656, 66714.63
183.4477, 66584.01
183.9298, 66492.35
184.4120, 66419.98
184.8941, 66336.35
185.3762, 66240.70
185.8583, 66132.51
186.3404, 66008.85
186.8225, 65871.43
187.3047, 65721.30
187.7868, 65555.06
188.2689, 65379.45
188.7510, 65210.93
189.2331, 65050.29
189.7152, 64895.08
190.1974, 64754.94
190.6795, 64627.80
191.1616, 64477.86
191.6437, 64293.98
192.1258, 64078.78
192.6080, 63840.13
193.0901, 63567.28
193.5722, 63302.19
194.0543, 63106.36
194.5364, 62981.88
195.0185, 62841.60
195.5007, 62646.37
195.9828, 62401.53
196.4649, 62185.00
196.9470, 62000.28
197.4291, 61826.18
197.9112, 61631.01
198.3934, 61412.78
198.8755, 61190.45
199.3576, 60969.32
199.8397, 60749.24
200.3218, 60531.92
200.8039, 60311.31
201.2861, 60102.59
201.7682, 59941.33
202.2503, 59838.13
202.7324, 59733.69
203.2145, 59595.84
203.6966, 59418.64
204.1788, 59252.64
204.6609, 59096.40
205.1430, 58956.44
205.6251, 58865.50
206.1072, 58849.15
206.5893, 58801.78
207.0715, 58642.43
207.5536, 58336.96
208.0357, 58105.06
208.5178, 57967.79
208.9999, 57908.57
209.4820, 57883.23
209.9642, 57905.84
210.4463, 57929.15
210.9284, 57920.84
211.4105, 57870.16
211.8926, 57829.34
212.3747, 57805.61
212.8569, 57794.95
213.3390, 57775.55
213.8211, 57737.14
214.3032, 57709.73
214.7853, 57712.23
215.2674, 57744.21
215.7496, 57810.81
216.2317, 57931.57
216.7138, 58092.79
217.1959, 58191.94
217.6780, 58189.45
218.1601, 58187.27
218.6423, 58278.63
219.1244, 58523.27
219.6065, 58710.05
220.0886, 58790.17
220.5707, 58772.05
221.0528, 58799.07
221.5350, 58884.41
222.0171, 58997.80
222.4992, 59113.45
222.9813, 59220.79
223.4634, 59353.39
223.9455, 59527.10
224.4277, 59744.36
224.9098, 59924.75
225.3919, 60055.90
225.8740, 60167.53
226.3561, 60291.35
226.8382, 60435.47
227.3204, 60572.52
227.8025, 60688.61
228.2846, 60780.19
228.7667, 60909.54
229.2488, 61103.96
229.7310, 61306.86
230.2131, 61453.95
230.6952, 61509.79
231.1773, 61574.16
231.6594, 61680.03
232.1415, 61836.74
232.6237, 61941.40
233.1058, 61957.10
233.5879, 61951.65
234.0700, 62012.19
234.5521, 62182.92
235.0342, 62340.02
235.5164, 62445.69
235.9985, 62488.61
236.4806, 62553.26
236.9627, 62648.81
237.4448, 62757.86
237.9269, 62859.26
238.4091, 62950.95
238.8912, 63036.76
239.3733, 63113.31
239.8554, 63174.42
240.3375, 63259.66
240.8196, 63385.83
241.3018, 63524.60
241.7839, 63637.89
242.2660, 63722.60
242.7481, 63786.76
243.2302, 63828.30
243.7123, 63840.22
244.1945, 63860.50
244.6766, 63889.13
245.1587, 63926.12
245.6408, 63973.30
246.1229, 64037.14
246.6050, 64099.76
247.0872, 64151.32
247.5693, 64182.54
248.0514, 64242.08
248.5335, 64342.61
249.0156, 64464.23
249.4977, 64572.41
249.9799, 64662.28
250.4620, 64746.66
250.9441, 64828.29
251.4262, 64905.42
251.9083, 64987.67
252.3904, 65078.30
252.8726, 65171.52
253.3547, 65253.95
253.8368, 65319.39
254.3189, 65386.79
254.8010, 65460.81
255.2831, 65538.12
255.7653, 65635.80
256.2474, 65754.52
256.7295, 65892.66
257.2116, 66045.78
257.6937, 66214.70
258.1758, 66396.14
258.6580, 66589.95
259.1401, 66802.13
259.6222, 67006.36
260.1043, 67200.04
260.5864, 67386.40
261.0685, 67553.59
261.5507, 67664.80
262.0328, 67842.12
262.5149, 68163.03
262.9970, 68685.36
263.4791, 69075.57
263.9612, 69299.91
264.4434, 69426.17
264.9255, 69568.41
265.4076, 69724.22
265.8897, 69901.78
266.3718, 70106.90
266.8539, 70339.10
267.3361, 70594.79
267.8182, 70883.36
268.3003, 71182.05
268.7824, 71458.92
269.2645, 71713.42
269.7466, 71943.34
270.2288, 72144.13
270.7109, 72309.58
271.1930, 72496.07
271.6751, 72715.30
272.1572, 72942.85
272.6393, 73140.52
273.1215, 73304.88
273.6036, 73454.23
274.0857, 73601.13
274.5678, 73747.58
275.0499, 73842.96
275.5320, 73867.61
276.0142, 73876.37
276.4963, 73969.52
276.9784, 74165.25
277.4605, 74334.13
277.9426, 74417.10
278.4247, 74416.21
278.9069, 74429.52
279.3890, 74457.63
279.8711, 74498.67
280.3532, 74556.82
280.8354, 74634.23
281.3175, 74703.09
281.7996, 74778.60
282.2817, 74850.79
282.7638, 74784.64
283.2459, 74552.21
283.7281, 74268.67
284.2102, 74091.39
284.6923, 74020.34
285.1744, 73939.96
285.6565, 73796.07
286.1386, 73603.53
286.6208, 73450.82
287.1029, 73344.83
287.5850, 73245.79
288.0671, 73109.02
288.5492, 72935.92
289.0313, 72741.86
289.5135, 72533.41
289.9956, 72308.03
290.4777, 72054.72
290.9598, 71772.01
291.4419, 71465.02
291.9240, 71130.83
292.4062, 70772.02
292.8883, 70412.23
293.3704, 70040.21
293.8525, 69677.16
294.3346, 69378.86
294.8167, 69150.81
295.2989, 68920.54
295.7810, 68609.98
296.2631, 68241.06
296.7452, 67871.59
297.2273, 67519.68
297.7094, 67183.79
298.1916, 66858.48
298.6737, 66546.31
299.1558, 66240.47
299.6379, 65932.30
300.1200, 65628.47
300.6021, 65334.00
301.0843, 65044.63
301.5664, 64774.33
302.0485, 64561.09
302.5306, 64395.62
303.0127, 64213.62
303.4948, 63940.43
303.9770, 63624.95
304.4591, 63336.54
304.9412, 63100.93
305.4233, 62894.59
305.9054, 62704.26
306.3875, 62527.94
306.8697, 62350.55
307.3518, 62154.22
307.8339, 61956.10
308.3160, 61778.53
308.7981, 61629.23
309.2802, 61497.23
309.7624, 61384.08
310.2445, 61285.57
310.7266, 61190.25
311.2087, 61102.53
311.6908, 61008.79
312.1729, 60891.34
312.6551, 60724.30
313.1372, 60576.29
313.6193, 60489.55
314.1014, 60450.91
314.5835, 60430.98
315.0656, 60409.35
315.5478, 60407.55
316.0299, 60445.49
316.5120, 60543.32
316.9941, 60635.89
317.4762, 60689.40
317.9583, 60721.49
318.4405, 60763.39
318.9226, 60831.43
319.4047, 60905.78
319.8868, 60972.80
320.3689, 61021.35
320.8510, 61095.96
321.3332, 61205.90
321.8153, 61348.02
322.2974, 61519.30
322.7795, 61744.84
323.2616, 61975.91
323.7437, 62188.76
324.2259, 62369.46
324.7080, 62592.75
325.1901, 62913.88
325.6722, 63264.08
326.1543, 63567.59
326.6364, 63748.72
327.1186, 63960.57
327.6007, 64243.41
328.0828, 64605.90
328.5649, 64944.61
329.0470, 65243.50
329.5291, 65529.76
330.0113, 65825.13
330.4934, 66129.91
330.9755, 66446.77
331.4576, 66782.74
331.9397, 67133.54
332.4218, 67475.42
332.9040, 67813.05
333.3861, 68137.84
333.8682, 68443.32
334.3503, 68729.87
334.8324, 69000.22
335.3145, 69245.41
335.7967, 69477.08
336.2788, 69751.92
336.7609, 70100.82
337.2430, 70431.91
337.7251, 70674.41
338.2072, 70815.42
338.6894, 70955.61
339.1715, 71099.82
339.6536, 71251.18
340.1357, 71416.45
340.6178, 71599.21
341.0999, 71784.77
341.5821, 71990.82
342.0642, 72212.86
342.5463, 72340.00
343.0284, 72348.43
343.5105, 72300.24
343.9926, 72300.13
344.4748, 72346.74
344.9569, 72376.03
345.4390, 72327.83
345.9211, 72230.61
346.4032, 72229.41
346.8853, 72340.64
347.3675, 72456.30
347.8496, 72425.59
348.3317, 72281.10
348.8138, 72159.13
349.2959, 72144.43
349.7780, 72175.87
350.2602, 72126.11
350.7423, 71994.60
351.2244, 71869.66
351.7065, 71845.61
352.1887, 71882.14
352.6708, 71901.32
353.1529, 71886.47
353.6350, 71835.34
354.1171, 71718.77
354.5992, 71548.34
355.0814, 71403.91
355.5635, 71372.04
356.0456, 71381.30
356.5277, 71348.44
357.0098, 71233.82
357.4919, 71104.14
357.9741, 71008.03
358.4562, 70931.69
358.9383, 70834.48
359.4204, 70680.91
359.9025, 70511.10
360.3846, 70347.16
360.8668, 70183.17
361.3489, 70050.15
361.8310, 69971.68
362.3131, 69931.48
362.7952, 69902.40
363.2773, 69923.93
363.7595, 69914.87
364.2416, 69839.63
364.7237, 69686.38
365.2058, 69508.18
365.6879, 69290.59
366.1700, 69062.44
366.6522, 68855.72
367.1343, 68674.53
367.6164, 68513.98
368.0985, 68376.23
368.5806, 68262.12
369.0627, 68151.37
369.5449, 68057.02
370.0270, 67956.23
370.5091, 67828.64
370.9912, 67654.08
371.4733, 67485.94
371.9554, 67325.95
372.4376, 67176.34
372.9197, 67059.66
373.4018, 67003.53
373.8839, 66934.45
374.3660, 66799.52
374.8481, 66577.33
375.3303, 66384.88
375.8124, 66232.07
376.2945, 66108.59
376.7766, 65997.18
377.2587, 65904.85
377.7408, 65791.27
378.2230, 65617.61
378.7051, 65388.64
379.1872, 65215.00
379.6693, 65109.75
380.1514, 65025.56
380.6335, 64893.62
381.1157, 64718.13
381.5978, 64563.34
382.0799, 64473.18
382.5620, 64415.32
383.0441, 64295.91
383.5262, 64112.33
384.0084, 63930.43
384.4905, 63816.71
384.9726, 63748.59
385.4547, 63673.95
385.9368, 63589.57
386.4189, 63476.83
386.9011, 63282.77
387.3832, 63025.29
387.8653, 62803.04
388.3474, 62718.81
388.8295, 62685.50
389.3116, 62600.64
389.7938, 62422.21
390.2759, 62251.93
390.7580, 62171.16
391.2401, 62144.84
391.7222, 62098.26
392.2043, 61981.45
392.6865, 61849.57
393.1686, 61733.13
393.6507, 61640.50
394.1328, 61542.84
394.6149, 61433.94
395.0970, 61314.25
395.5792, 61184.33
396.0613, 61005.32
396.5434, 60856.27
397.0255, 60769.01
397.5076, 60746.24
397.9897, 60704.07
398.4719, 60598.17
398.9540, 60497.26
399.4361, 60446.69
399.9182, 60531.68
400.4003, 60534.68
400.8824, 60367.53
401.3646, 60108.23
401.8467, 60064.34
402.3288, 60403.90
402.8109, 60671.99
403.2930, 60630.83
403.7751, 60179.61
404.2573, 59833.27
404.7394, 59611.49
405.2215, 59469.05
405.7036, 59344.32
406.1857, 59239.58
406.6678, 59137.93
407.1500, 59021.41
407.6321, 58899.84
408.1142, 58847.72
408.5963, 58873.31
409.0784, 58919.53
409.5605, 58941.54
410.0427, 58938.66
410.5248, 58903.45
411.0069, 58817.01
411.4890, 58717.59
411.9711, 58668.97
412.4532, 58667.57
412.9354, 58691.74
413.4175, 58752.65
413.8996, 58821.60
414.3817, 58847.98
414.8638, 58812.28
415.3459, 58775.11
415.8281, 58801.70
416.3102, 58864.05
416.7923, 58906.30
417.2744, 58866.53
417.7565, 58823.39
418.2386, 58832.97
418.7208, 58900.73
419.2029, 58976.40
419.6850, 59060.24
420.1671, 59132.29
420.6492, 59174.86
421.1313, 59160.64
421.6135, 59139.80
422.0956, 59119.22
422.5777, 59100.25
423.0598, 59089.02
423.5420, 59074.34
424.0241, 59077.19
424.5062, 59109.24
424.9883, 59195.63
425.4704, 59266.01
425.9525, 59313.71
426.4347, 59349.00
426.9168, 59393.33
427.3989, 59461.79
427.8810, 59509.52
428.3631, 59505.92
428.8452, 59446.57
429.3274, 59475.90
429.8095, 59630.64
430.2916, 59795.43
430.7737, 59822.52
431.2558, 59699.96
431.7379, 59657.30
432.2201, 59767.85
432.7022, 59968.34
433.1843, 60092.38
433.6664, 60139.13
434.1485, 60168.61
434.6306, 60216.69
435.1128, 60278.51
435.5949, 60339.29
436.0770, 60395.79
436.5591, 60457.30
437.0412, 60542.39
437.5233, 60640.68
438.0055, 60725.00
438.4876, 60765.23
438.9697, 60796.64
439.4518, 60863.49
439.9339, 60964.97
440.4160, 61044.74
440.8982, 61041.71
441.3803, 61012.94
441.8624, 61013.55
442.3445, 61052.73
442.8266, 61130.50
443.3087, 61271.48
443.7909, 61456.14
444.2730, 61619.21
444.7551, 61737.04
445.2372, 61838.53
445.7193, 61936.30
446.2014, 62032.10
446.6836, 62120.66
447.1657, 62156.32
447.6478, 62207.40
448.1299, 62366.47
448.6120, 62721.04
449.0941, 63030.66
449.5763, 63230.62
450.0584, 63332.73
450.5405, 63466.62
451.0226, 63639.70
451.5047, 63830.39
451.9868, 64029.13
452.4690, 64237.85
452.9511, 64441.21
453.4332, 64635.80
453.9153, 64827.31
454.3974, 65022.29
454.8795, 65222.11
455.3617, 65419.86
455.8438, 65622.49
456.3259, 65820.46
456.8080, 65977.94
457.2901, 66088.42
457.7722, 66225.48
458.2544, 66473.76
458.7365, 66792.37
459.2186, 67103.68
459.7007, 67401.75
460.1828, 67667.96
460.6649, 67856.67
461.1471, 67993.04
461.6292, 68165.83
462.1113, 68458.43
462.5934, 68777.37
463.0755, 69058.34
463.5576, 69286.14
464.0398, 69508.09
464.5219, 69727.85
465.0040, 69953.14
465.4861, 70193.81
465.9682, 70461.63
466.4503, 70732.80
466.9325, 71000.30
467.4146, 71263.88
467.8967, 71550.63
468.3788, 71866.59
468.8609, 72198.94
469.3430, 72541.30
469.8252, 72895.71
470.3073, 73254.52
470.7894, 73618.76
471.2715, 73985.87
471.7536, 74352.97
472.2357, 74721.24
472.7179, 75079.45
473.2000, 75397.38
473.6821, 75696.44
474.1642, 76105.12
474.6463, 76629.83
475.1284, 77197.10
475.6106, 77738.69
476.0927, 78269.75
476.5748, 78823.23
477.0569, 79409.02
477.5390, 80023.92
478.0211, 80678.82
478.5033, 81362.95
478.9854, 82044.50
479.4675, 82668.09
479.9496, 83298.33
480.4317, 84007.11
480.9138, 84805.70
481.3960, 85573.37
481.8781, 86217.34
482.3602, 86820.23
482.8423, 87458.30
483.3244, 88206.31
483.8065, 88935.66
484.2887, 89619.80
484.7708, 90260.49
485.2529, 90887.26
485.7350, 91565.43
486.2171, 92170.01
486.6992, 92644.70
487.1814, 92952.11
487.6635, 93242.09
488.1456, 93526.05
488.6277, 93781.01
489.1098, 93986.43
489.5919, 94150.60
490.0741, 94229.04
490.5562, 94204.47
491.0383, 94089.42
491.5204, 93935.41
492.0026, 93742.38
492.4847, 93485.39
492.9668, 93124.40
493.4489, 92686.37
493.9310, 92240.02
494.4131, 91797.45
494.8953, 91344.48
495.3774, 90873.29
495.8595, 90381.10
496.3416, 89882.84
496.8237, 89401.41
497.3058, 88892.87
497.7880, 88277.62
498.2701, 87579.98
498.7522, 86942.59
499.2343, 86469.86
499.7164, 86064.67
500.1985, 85655.98
500.6807, 85234.41
501.1628, 84821.15
501.6449, 84425.80
502.1270, 84037.27
502.6091, 83635.14
503.0912, 83204.22
503.5734, 82771.84
504.0555, 82325.54
504.5376, 81874.21
505.0197, 81501.30
505.5018, 81235.56
505.9839, 80997.98
506.4661, 80730.99
506.9482, 80427.23
507.4303, 80151.23
507.9124, 79912.86
508.3945, 79693.19
508.8766, 79462.82
509.3588, 79223.16
509.8409, 78995.30
510.3230, 78799.09
510.8051, 78615.03
511.2872, 78419.30
511.7693, 78209.90
512.2515, 77973.05
512.7336, 77666.85
513.2157, 77338.40
513.6978, 77045.77
514.1799, 76812.24
514.6620, 76586.95
515.1442, 76344.70
515.6263, 76090.70
516.1084, 75837.55
516.5905, 75574.51
517.0726, 75323.21
517.5547, 75108.76
518.0369, 74932.01
518.5190, 74709.96
519.0011, 74395.70
519.4832, 74075.27
519.9653, 73792.81
520.4474, 73549.40
520.9296, 73357.77
521.4117, 73257.30
521.8938, 73168.75
522.3759, 72914.26
522.8580, 72452.93
523.3401, 72092.40
523.8223, 71975.98
524.3044, 72026.37
524.7865, 71948.59
525.2686, 71742.11
525.7507, 71511.11
526.2328, 71325.77
526.7150, 71177.20
527.1971, 71043.82
527.6792, 70921.86
528.1613, 70814.68
528.6434, 70738.55
529.1255, 70675.12
529.6077, 70590.86
530.0898, 70421.55
530.5719, 70273.92
531.0540, 70231.49
531.5361, 70277.84
532.0182, 70271.34
532.5004, 70093.29
532.9825, 69913.96
533.4646, 69831.43
533.9467, 69914.19
534.4288, 69955.50
534.9109, 69940.42
535.3931, 69894.00
535.8752, 69844.37
536.3573, 69784.59
536.8394, 69742.45
537.3215, 69726.41
537.8036, 69731.30
538.2858, 69739.45
538.7679, 69751.86
539.2500, 69758.35
539.7321, 69743.70
540.2142, 69716.94
540.6964, 69712.63
541.1785, 69734.51
541.6606, 69763.82
542.1427, 69751.05
542.6248, 69736.24
543.1069, 69800.63
543.5891, 70052.44
544.0712, 70291.33
544.5533, 70348.85
545.0354, 70277.36
545.5175, 70235.83
545.9996, 70290.86
546.4818, 70384.81
546.9639, 70496.98
547.4460, 70630.49
547.9281, 70758.13
548.4102, 70870.92
548.8923, 70982.89
549.3745, 71105.52
549.8566, 71245.26
550.3387, 71379.34
550.8208, 71496.84
551.3029, 71614.50
551.7850, 71782.74
552.2672, 72012.77
552.7493, 72213.04
553.2314, 72328.50
553.7135, 72384.49
554.1956, 72477.80
554.6777, 72608.67
555.1599, 72763.16
555.6420, 72934.37
556.1241, 73118.70
556.6062, 73316.48
557.0883, 73536.56
557.5704, 73734.73
558.0526, 73843.31
558.5347, 73912.60
559.0168, 74026.52
559.4989, 74283.84
559.9810, 74522.31
560.4631, 74647.52
560.9453, 74675.47
561.4274, 74774.70
561.9095, 75036.18
562.3916, 75313.47
562.8737, 75541.02
563.3558, 75684.74
563.8380, 75886.23
564.3201, 76168.88
564.8022, 76478.98
565.2843, 76773.05
565.7664, 77057.59
566.2485, 77262.76
566.7307, 77348.09
567.2128, 77381.55
567.6949, 77510.14
568.1770, 77727.98
568.6591, 77975.08
569.1412, 78238.81
569.6234, 78504.24
570.1055, 78757.91
570.5876, 78997.97
571.0697, 79220.38
571.5518, 79400.60
572.0339, 79573.27
572.5161, 79769.25
572.9982, 79997.33
573.4803, 80245.30
573.9624, 80528.56
574.4445, 80826.80
574.9266, 81093.45
575.4088, 81284.31
575.8909, 81497.74
576.3730, 81755.68
576.8551, 82052.30
577.3372, 82358.70
577.8193, 82692.86
578.3015, 82987.18
578.7836, 83184.47
579.2657, 83284.02
579.7478, 83421.98
580.2299, 83600.03
580.7120, 83821.48
581.1942, 84136.73
581.6763, 84501.70
582.1584, 84773.70
582.6405, 84864.77
583.1226, 84919.77
583.6047, 85068.41
584.0869, 85293.41
584.5690, 85548.97
585.0511, 85896.09
585.5332, 86198.24
586.0153, 86337.90
586.4974, 86305.09
586.9796, 86357.93
587.4617, 86644.53
587.9438, 86955.77
588.4259, 87170.12
588.9080, 87218.77
589.3901, 87317.41
589.8723, 87505.23
590.3544, 87701.59
590.8365, 87769.00
591.3186, 87690.33
591.8007, 87633.55
592.2828, 87635.20
592.7650, 87690.70
593.2471, 87808.61
593.7292, 87983.37
594.2113, 88152.73
594.6934, 88307.30
595.1755, 88422.77
595.6577, 88438.11
596.1398, 88349.78
596.6219, 88295.47
597.1040, 88422.70
597.5862, 88592.17
598.0683, 88670.54
598.5504, 88558.80
599.0325, 88473.71
599.5146, 88466.52
599.9968, 88513.73
600.4789, 88583.45
600.9610, 88750.60
601.4431, 88810.84
601.9252, 88664.70
602.4073, 88377.14
602.8895, 88296.67
603.3716, 88475.15
603.8537, 88632.14
604.3358, 88576.89
604.8179, 88353.77
605.3000, 88205.27
605.7822, 88138.95
606.2643, 88110.31
606.7464, 88093.38
607.2285, 88080.32
607.7106, 88062.16
608.1927, 88049.50
608.6749, 88001.99
609.1570, 87864.38
609.6391, 87677.65
610.1212, 87516.91
610.6033, 87439.38
611.0854, 87352.60
611.5676, 87224.88
612.0497, 87059.55
612.5318, 86903.00
613.0139, 86757.21
613.4960, 86617.43
613.9781, 86491.04
614.4603, 86381.73
614.9424, 86232.31
615.4245, 86034.95
615.9066, 85826.85
616.3887, 85642.52
616.8708, 85478.68
617.3530, 85315.03
617.8351, 85152.43
618.3172, 84981.91
618.7993, 84773.84
619.2814, 84550.01
619.7635, 84355.56
620.2457, 84263.70
620.7278, 84157.52
621.2099, 83965.59
621.6920, 83699.86
622.1741, 83420.33
622.6563, 83095.98
623.1384, 82803.73
623.6205, 82593.47
624.1026, 82487.98
624.5847, 82305.75
625.0668, 82002.61
625.5490, 81687.30
626.0311, 81452.34
626.5132, 81301.13
626.9953, 81170.49
627.4774, 81062.34
627.9595, 80951.89
628.4417, 80799.07
628.9238, 80611.45
