##NAMES=Hydroxylellestadite
##RRUFFID=R060769
##IDEAL CHEMISTRY=Ca_5_(SiO_4_)_1.5_(S^6+^O_4_)_1.5_(OH)
##LOCALITY=Crestmore, Riverside County, California, USA
##OWNER=RRUFF
##SOURCE=Michael Scott
##DESCRIPTION=Transparent tan-yellow prismatic crystals in blue calcite
##STATUS=The identification of this mineral is confirmed by single-crystal X-ray diffraction and chemical analysis.
##URL=rruff.info/R060769
##MEASURED CHEMISTRY=Ca_5.00_((SiO_4_)_1.23_(SO_4_)_1.09_(PO_4_)_0.68_)_Σ=3_((OH)_0.89_Cl_0.11_)_Σ=1_; OH estimated by difference and stoichiometry
107.064, 269.863
107.546, 270.284
108.028, 269.925
108.511, 269.974
108.993, 273.449
109.475, 281.104
109.957, 288.997
110.439, 293.318
110.921, 296.497
111.403, 305.263
111.885, 322.816
112.368, 347.536
112.850, 374.424
113.332, 403.190
113.814, 434.763
114.296, 468.861
114.778, 505.810
115.260, 549.202
115.742, 614.224
116.224, 678.848
116.706, 711.244
117.189, 702.349
117.671, 669.816
118.153, 625.603
118.635, 567.476
119.117, 513.018
119.599, 467.755
120.081, 432.293
120.563, 409.814
121.046, 403.294
121.528, 407.675
122.010, 413.427
122.492, 416.613
122.974, 432.292
123.456, 463.865
123.938, 510.373
124.420, 572.882
124.902, 652.409
125.385, 747.779
125.867, 855.607
126.349, 981.248
126.831, 1112.545
127.313, 1257.918
127.795, 1403.939
128.277, 1531.064
128.760, 1622.222
129.242, 1684.253
129.724, 1761.751
130.206, 1878.363
130.688, 1984.360
131.170, 2084.080
131.652, 2163.577
132.134, 2199.247
132.616, 2169.393
133.098, 2074.000
133.581, 1973.838
134.063, 1868.745
134.545, 1758.357
135.027, 1635.653
135.509, 1506.107
135.991, 1381.486
136.473, 1270.205
136.955, 1170.174
137.438, 1101.949
137.920, 1078.877
138.402, 1071.969
138.884, 1072.973
139.366, 1080.528
139.848, 1096.106
140.330, 1121.131
140.812, 1156.219
141.294, 1199.685
141.777, 1247.602
142.259, 1304.676
142.741, 1376.980
143.223, 1462.785
143.705, 1552.586
144.187, 1636.841
144.669, 1714.198
145.151, 1789.977
145.633, 1867.128
146.116, 1940.694
146.598, 2007.191
147.080, 2066.284
147.562, 2121.035
148.044, 2176.402
148.526, 2236.388
149.008, 2280.504
149.490, 2309.788
149.973, 2323.515
150.455, 2318.945
150.937, 2295.903
151.419, 2260.910
151.901, 2219.452
152.383, 2167.400
152.865, 2124.734
153.347, 2096.267
153.829, 2076.261
154.312, 2060.151
154.794, 2047.176
155.276, 2034.920
155.758, 2019.585
156.240, 1999.905
156.722, 1983.757
157.204, 1971.924
157.686, 1964.385
158.169, 1961.514
158.651, 1963.548
159.133, 1969.343
159.615, 1976.389
160.097, 1983.329
160.579, 1999.180
161.061, 2035.279
161.543, 2079.783
162.025, 2113.468
162.508, 2131.147
162.990, 2138.801
163.472, 2140.732
163.954, 2136.660
164.436, 2136.220
164.918, 2146.081
165.400, 2161.490
165.882, 2171.838
166.365, 2172.847
166.847, 2172.298
167.329, 2180.041
167.811, 2195.657
168.293, 2212.787
168.775, 2230.478
169.257, 2247.815
169.739, 2262.243
170.221, 2273.250
170.704, 2281.049
171.186, 2284.998
171.668, 2285.241
172.150, 2286.551
172.632, 2293.308
173.114, 2303.308
173.596, 2309.180
174.078, 2308.426
174.561, 2304.704
175.043, 2301.482
175.525, 2298.742
176.007, 2296.332
176.489, 2293.261
176.971, 2290.203
177.453, 2290.203
177.935, 2295.379
178.417, 2301.623
178.900, 2303.845
179.382, 2302.554
179.864, 2304.124
180.346, 2314.597
180.828, 2331.955
181.310, 2345.723
181.792, 2351.801
182.274, 2357.262
182.757, 2367.890
183.239, 2383.202
183.721, 2399.571
184.203, 2415.001
184.685, 2429.604
185.167, 2444.467
185.649, 2461.603
186.131, 2476.246
186.613, 2483.642
187.096, 2484.988
187.578, 2487.481
188.060, 2496.411
188.542, 2510.820
189.024, 2525.148
189.506, 2539.497
189.988, 2552.721
190.470, 2565.656
190.952, 2577.584
191.435, 2585.844
191.917, 2585.267
192.399, 2577.991
192.881, 2577.853
193.363, 2589.632
193.845, 2603.842
194.327, 2615.159
194.809, 2623.987
195.292, 2631.930
195.774, 2640.987
196.256, 2650.461
196.738, 2655.237
197.220, 2649.986
197.702, 2647.482
198.184, 2654.877
198.666, 2670.200
199.148, 2688.168
199.631, 2710.275
200.113, 2733.691
200.595, 2742.797
201.077, 2727.840
201.559, 2712.626
202.041, 2708.602
202.523, 2713.524
203.005, 2722.763
203.488, 2736.632
203.970, 2752.868
204.452, 2762.486
204.934, 2764.096
205.416, 2760.491
205.898, 2749.680
206.380, 2735.628
206.862, 2725.415
207.344, 2722.946
207.827, 2726.986
208.309, 2735.404
208.791, 2753.464
209.273, 2765.438
209.755, 2759.529
210.237, 2744.700
210.719, 2734.246
211.201, 2734.175
211.684, 2742.320
212.166, 2756.458
212.648, 2784.122
213.130, 2800.294
213.612, 2783.780
214.094, 2754.417
214.576, 2736.449
215.058, 2741.564
215.540, 2760.584
216.023, 2776.845
216.505, 2789.815
216.987, 2801.533
217.469, 2812.378
217.951, 2822.719
218.433, 2832.915
218.915, 2843.215
219.397, 2853.198
219.880, 2863.044
220.362, 2873.864
220.844, 2880.442
221.326, 2877.154
221.808, 2870.573
222.290, 2864.740
222.772, 2859.828
223.254, 2859.414
223.736, 2871.538
224.219, 2899.218
224.701, 2919.267
225.183, 2918.553
225.665, 2910.733
226.147, 2905.335
226.629, 2904.000
227.111, 2904.792
227.593, 2906.381
228.076, 2908.791
228.558, 2910.487
229.040, 2909.430
229.522, 2908.870
230.004, 2911.193
230.486, 2916.599
230.968, 2924.139
231.450, 2934.222
231.932, 2946.545
232.415, 2956.794
232.897, 2962.644
233.379, 2967.845
233.861, 2975.807
234.343, 2986.327
234.825, 2996.546
235.307, 3006.306
235.789, 3014.703
236.271, 3016.207
236.754, 3004.323
237.236, 2994.412
237.718, 3001.443
238.200, 3021.680
238.682, 3038.494
239.164, 3041.656
239.646, 3035.437
240.128, 3029.246
240.611, 3021.252
241.093, 3019.298
241.575, 3034.811
242.057, 3061.341
242.539, 3082.614
243.021, 3087.693
243.503, 3085.863
243.985, 3093.326
244.467, 3112.455
244.950, 3131.035
245.432, 3140.858
245.914, 3144.199
246.396, 3144.548
246.878, 3138.000
247.360, 3132.185
247.842, 3136.699
248.324, 3151.810
248.807, 3168.006
249.289, 3179.785
249.771, 3189.269
250.253, 3201.277
250.735, 3216.823
251.217, 3233.900
251.699, 3252.038
252.181, 3270.833
252.663, 3287.955
253.146, 3301.223
253.628, 3312.982
254.110, 3328.708
254.592, 3351.555
255.074, 3371.017
255.556, 3377.850
256.038, 3376.809
256.520, 3381.147
257.003, 3395.795
257.485, 3416.584
257.967, 3438.073
258.449, 3462.002
258.931, 3480.326
259.413, 3486.167
259.895, 3486.240
260.377, 3490.625
260.859, 3501.786
261.341, 3517.032
261.824, 3533.192
262.306, 3549.998
262.788, 3569.482
263.270, 3597.146
263.752, 3624.778
264.234, 3643.331
264.716, 3652.046
265.198, 3658.062
265.681, 3668.154
266.163, 3683.045
266.645, 3695.140
267.127, 3697.392
267.609, 3702.866
268.091, 3723.587
268.573, 3756.334
269.055, 3786.658
269.538, 3803.863
270.020, 3808.622
270.502, 3813.534
270.984, 3812.799
271.466, 3818.210
271.948, 3837.901
272.430, 3866.315
272.912, 3893.345
273.394, 3913.627
273.877, 3928.167
274.359, 3940.376
274.841, 3949.167
275.323, 3956.790
275.805, 3957.657
276.287, 3959.691
276.769, 3974.380
277.251, 4005.488
277.733, 4043.307
278.216, 4069.201
278.698, 4073.304
279.180, 4081.255
279.662, 4093.665
280.144, 4108.989
280.626, 4126.533
281.108, 4145.903
281.590, 4166.841
282.073, 4189.754
282.555, 4216.512
283.037, 4237.766
283.519, 4249.515
284.001, 4259.623
284.483, 4269.561
284.965, 4280.524
285.447, 4294.446
285.930, 4313.661
286.412, 4337.722
286.894, 4359.090
287.376, 4377.744
287.858, 4393.242
288.340, 4405.700
288.822, 4415.009
289.304, 4420.223
289.786, 4419.799
290.268, 4416.926
290.751, 4419.829
291.233, 4429.425
291.715, 4443.257
292.197, 4463.244
292.679, 4485.544
293.161, 4507.021
293.643, 4526.888
294.125, 4545.042
294.608, 4561.095
295.090, 4574.950
295.572, 4587.744
296.054, 4597.343
296.536, 4608.027
297.018, 4623.593
297.500, 4644.215
297.982, 4666.228
298.465, 4686.110
298.947, 4704.857
299.429, 4728.638
299.911, 4763.496
300.393, 4793.515
300.875, 4795.501
301.357, 4777.499
301.839, 4776.300
302.321, 4822.182
302.804, 4885.361
303.286, 4920.713
303.768, 4923.553
304.250, 4921.772
304.732, 4932.144
305.214, 4953.409
305.696, 4978.656
306.178, 5017.612
306.660, 5051.866
307.143, 5066.948
307.625, 5066.001
308.107, 5060.281
308.589, 5052.966
309.071, 5046.703
309.553, 5050.214
310.035, 5070.567
310.517, 5086.026
311.000, 5087.617
311.482, 5081.881
311.964, 5077.369
312.446, 5076.567
312.928, 5078.818
313.410, 5084.179
313.892, 5097.631
314.374, 5100.021
314.857, 5079.941
315.339, 5057.542
315.821, 5049.384
316.303, 5054.782
316.785, 5060.384
317.267, 5053.743
317.749, 5034.022
318.231, 5019.514
318.713, 5011.364
319.195, 5006.811
319.678, 5009.583
320.160, 5014.800
320.642, 5013.562
321.124, 5000.349
321.606, 4979.523
322.088, 4965.333
322.570, 4959.690
323.052, 4958.121
323.535, 4964.578
324.017, 4971.565
324.499, 4973.015
324.981, 4967.166
325.463, 4955.353
325.945, 4936.954
326.427, 4909.675
326.909, 4888.950
327.392, 4880.138
327.874, 4875.271
328.356, 4871.146
328.838, 4867.460
329.320, 4864.422
329.802, 4864.200
330.284, 4865.162
330.766, 4859.745
331.248, 4845.490
331.731, 4830.320
332.213, 4821.126
332.695, 4813.949
333.177, 4801.291
333.659, 4777.823
334.141, 4751.734
334.623, 4731.471
335.105, 4716.998
335.587, 4706.757
336.070, 4702.422
336.552, 4700.341
337.034, 4694.530
337.516, 4685.672
337.998, 4671.805
338.480, 4646.646
338.962, 4616.899
339.444, 4596.253
339.927, 4588.703
340.409, 4585.171
340.891, 4574.615
341.373, 4555.042
341.855, 4538.555
342.337, 4531.054
342.819, 4522.514
343.301, 4500.098
343.784, 4467.673
344.266, 4445.059
344.748, 4449.138
345.230, 4475.852
345.712, 4481.152
346.194, 4439.520
346.676, 4407.465
347.158, 4399.937
347.640, 4407.301
348.122, 4419.646
348.605, 4432.699
349.087, 4441.296
349.569, 4434.122
350.051, 4401.714
350.533, 4373.711
351.015, 4345.539
351.497, 4325.772
351.979, 4324.766
352.462, 4339.790
352.944, 4356.253
353.426, 4364.331
353.908, 4363.683
354.390, 4345.425
354.872, 4293.009
355.354, 4247.022
355.836, 4224.817
356.319, 4219.425
356.801, 4221.008
357.283, 4229.125
357.765, 4237.005
358.247, 4234.600
358.729, 4221.472
359.211, 4203.414
359.693, 4177.935
360.175, 4151.761
360.658, 4133.869
361.140, 4125.731
361.622, 4118.868
362.104, 4108.052
362.586, 4095.534
363.068, 4086.419
363.550, 4082.005
364.032, 4078.647
364.514, 4071.970
364.997, 4061.895
365.479, 4056.298
365.961, 4063.964
366.443, 4069.030
366.925, 4056.321
367.407, 4030.961
367.889, 4011.406
368.371, 4008.886
368.853, 4018.701
369.336, 4022.941
369.818, 4015.090
370.300, 4009.664
370.782, 4009.310
371.264, 4010.997
371.746, 4011.307
372.228, 4009.617
372.711, 4008.288
373.193, 4010.713
373.675, 4018.094
374.157, 4023.748
374.639, 4028.143
375.121, 4030.255
375.603, 4028.200
376.085, 4023.525
376.567, 4019.658
377.049, 4019.096
377.532, 4020.183
378.014, 4017.536
378.496, 4008.851
378.978, 4003.101
379.460, 4002.023
379.942, 4006.264
380.424, 4020.833
380.906, 4048.747
381.389, 4070.263
381.871, 4066.411
382.353, 4042.535
382.835, 4016.846
383.317, 3988.276
383.799, 3969.184
384.281, 3980.192
384.763, 4016.205
385.246, 4043.483
385.728, 4052.353
386.210, 4053.173
386.692, 4047.144
387.174, 4038.226
387.656, 4044.819
388.138, 4080.268
388.620, 4134.614
389.102, 4171.107
389.585, 4169.212
390.067, 4177.325
390.549, 4211.835
391.031, 4252.853
391.513, 4277.194
391.995, 4281.278
392.477, 4282.432
392.959, 4302.204
393.441, 4344.792
393.924, 4378.946
394.406, 4394.990
394.888, 4411.836
395.370, 4433.486
395.852, 4460.561
396.334, 4495.208
396.816, 4540.894
397.298, 4588.524
397.780, 4616.488
398.263, 4619.822
398.745, 4622.369
399.227, 4619.074
399.709, 4625.805
400.191, 4669.174
400.673, 4751.076
401.155, 4809.167
401.638, 4784.006
402.120, 4707.478
402.602, 4660.349
403.084, 4654.527
403.566, 4657.857
404.048, 4645.205
404.530, 4620.603
405.012, 4606.501
405.494, 4617.291
405.977, 4625.819
406.459, 4614.017
406.941, 4589.370
407.423, 4568.702
407.905, 4558.580
408.387, 4555.505
408.869, 4553.674
409.351, 4555.926
409.833, 4553.172
410.316, 4540.127
410.798, 4526.725
411.280, 4520.733
411.762, 4520.721
412.244, 4519.049
412.726, 4509.024
413.208, 4492.770
413.690, 4485.122
414.172, 4493.895
414.655, 4497.988
415.137, 4482.123
415.619, 4465.109
416.101, 4469.934
416.583, 4502.809
417.065, 4537.272
417.547, 4545.030
418.029, 4529.039
418.512, 4515.898
418.994, 4510.870
419.476, 4505.679
419.958, 4488.243
420.440, 4463.829
420.922, 4451.305
421.404, 4465.288
421.886, 4484.718
422.368, 4492.974
422.851, 4491.551
423.333, 4487.945
423.815, 4486.186
424.297, 4482.395
424.779, 4466.423
425.261, 4421.238
425.743, 4398.166
426.225, 4417.544
426.708, 4447.778
427.190, 4467.215
427.672, 4472.842
428.154, 4468.471
428.636, 4455.536
429.118, 4435.381
429.600, 4423.442
430.082, 4428.022
430.565, 4429.197
431.047, 4421.715
431.529, 4409.681
432.011, 4396.521
432.493, 4383.253
432.975, 4371.369
433.457, 4365.606
433.939, 4364.954
434.421, 4353.734
434.904, 4323.589
435.386, 4294.076
435.868, 4282.258
436.350, 4283.127
436.832, 4283.084
437.314, 4280.396
437.796, 4274.136
438.278, 4261.330
438.760, 4243.698
439.243, 4228.098
439.725, 4217.402
440.207, 4209.694
440.689, 4201.146
441.171, 4188.138
441.653, 4182.967
442.135, 4194.381
442.617, 4207.021
443.099, 4211.462
443.582, 4207.054
444.064, 4194.935
444.546, 4174.006
445.028, 4148.332
445.510, 4139.480
445.992, 4155.723
446.474, 4174.611
446.957, 4196.564
447.439, 4216.049
447.921, 4224.773
448.403, 4222.425
448.885, 4224.167
449.367, 4246.006
449.849, 4283.398
450.331, 4316.237
450.813, 4340.878
451.296, 4368.224
451.778, 4403.546
452.260, 4447.782
452.742, 4503.773
453.224, 4579.352
453.706, 4656.639
454.188, 4724.590
454.670, 4787.807
455.152, 4853.635
455.635, 4924.060
456.117, 5003.169
456.599, 5098.459
457.081, 5216.741
457.563, 5318.301
458.045, 5399.076
458.527, 5470.158
459.009, 5536.957
459.491, 5596.917
459.974, 5644.010
460.456, 5675.019
460.938, 5693.144
461.420, 5702.895
461.902, 5702.980
462.384, 5700.978
462.866, 5705.733
463.348, 5700.593
463.831, 5670.876
464.313, 5620.810
464.795, 5570.044
465.277, 5533.154
465.759, 5498.141
466.241, 5447.572
466.723, 5382.057
467.205, 5311.560
467.687, 5237.368
468.170, 5163.571
468.652, 5100.059
469.134, 5051.257
469.616, 4998.953
470.098, 4938.413
470.580, 4874.862
471.062, 4812.718
471.544, 4752.121
472.026, 4689.365
472.509, 4621.465
472.991, 4549.973
473.473, 4487.892
473.955, 4447.331
474.437, 4395.122
474.919, 4313.938
475.401, 4228.766
475.883, 4161.705
476.366, 4115.264
476.848, 4072.916
477.330, 4024.400
477.812, 3969.410
478.294, 3904.996
478.776, 3828.283
479.258, 3754.816
479.740, 3693.443
480.223, 3641.902
480.705, 3594.356
481.187, 3552.840
481.669, 3511.008
482.151, 3467.178
482.633, 3421.389
483.115, 3371.686
483.597, 3318.759
484.079, 3269.848
484.561, 3232.916
485.044, 3208.076
485.526, 3180.086
486.008, 3141.210
486.490, 3108.382
486.972, 3084.744
487.454, 3068.495
487.936, 3060.805
488.418, 3061.227
488.901, 3058.649
489.383, 3036.743
489.865, 2997.867
490.347, 2969.634
490.829, 2956.855
491.311, 2947.677
491.793, 2933.650
492.275, 2917.846
492.758, 2906.885
493.240, 2905.151
493.722, 2903.005
494.204, 2894.433
494.686, 2881.747
495.168, 2867.914
495.650, 2853.841
496.132, 2842.375
496.614, 2837.281
497.097, 2839.314
497.579, 2839.420
498.061, 2832.148
498.543, 2829.337
499.025, 2842.512
499.507, 2858.689
499.989, 2857.888
500.471, 2834.063
500.953, 2806.344
501.436, 2798.423
501.918, 2810.031
502.400, 2825.409
502.882, 2848.877
503.364, 2866.177
503.846, 2862.129
504.328, 2845.744
504.810, 2835.442
505.293, 2838.608
505.775, 2842.345
506.257, 2833.985
506.739, 2821.456
507.221, 2822.621
507.703, 2841.844
508.185, 2866.212
508.667, 2882.135
509.150, 2889.243
509.632, 2892.666
510.114, 2885.836
510.596, 2883.134
511.078, 2892.755
511.560, 2906.757
512.042, 2914.895
512.524, 2914.055
513.006, 2909.474
513.489, 2904.620
513.971, 2900.010
514.453, 2904.864
514.935, 2923.382
515.417, 2943.494
515.899, 2957.435
516.381, 2967.441
516.863, 2977.404
517.346, 2984.400
517.828, 2996.949
518.310, 3028.917
518.792, 3066.168
519.274, 3082.581
519.756, 3073.996
520.238, 3059.432
520.720, 3056.564
521.202, 3065.321
521.685, 3078.876
522.167, 3101.243
522.649, 3123.791
523.131, 3145.213
523.613, 3166.128
524.095, 3188.066
524.577, 3211.089
525.059, 3232.909
525.541, 3252.317
526.024, 3268.904
526.506, 3279.403
526.988, 3281.902
527.470, 3286.663
527.952, 3302.192
528.434, 3322.808
528.916, 3333.346
529.398, 3325.967
529.880, 3325.999
530.363, 3351.911
530.845, 3382.717
531.327, 3394.927
531.809, 3387.750
532.291, 3375.248
532.773, 3367.702
533.255, 3364.125
533.737, 3360.078
534.219, 3358.790
534.702, 3350.699
535.184, 3324.225
535.666, 3298.434
536.148, 3291.964
536.630, 3302.694
537.112, 3307.440
537.594, 3287.895
538.076, 3255.304
538.559, 3228.027
539.041, 3205.769
539.523, 3182.135
540.005, 3153.733
540.487, 3123.218
540.969, 3094.607
541.451, 3067.457
541.933, 3044.022
542.416, 3030.366
542.898, 3014.789
543.380, 2987.422
543.862, 2952.685
544.344, 2921.073
544.826, 2898.144
545.308, 2879.817
545.790, 2859.750
546.273, 2838.393
546.755, 2810.800
547.237, 2764.478
547.719, 2727.579
548.201, 2727.361
548.683, 2750.969
549.165, 2762.299
549.647, 2745.196
550.129, 2721.953
550.612, 2708.758
551.094, 2700.732
551.576, 2684.191
552.058, 2656.013
552.540, 2632.039
553.022, 2631.058
553.504, 2654.375
553.986, 2667.996
554.468, 2660.727
554.951, 2656.375
555.433, 2659.256
555.915, 2667.014
556.397, 2680.455
556.879, 2698.628
557.361, 2710.317
557.843, 2697.060
558.325, 2670.310
558.807, 2668.919
559.290, 2697.140
559.772, 2722.723
560.254, 2727.320
560.736, 2719.658
561.218, 2720.532
561.700, 2730.779
562.182, 2745.503
562.664, 2774.319
563.146, 2799.023
563.629, 2797.995
564.111, 2779.301
564.593, 2770.210
565.075, 2787.396
565.557, 2819.363
566.039, 2840.434
566.521, 2848.708
567.003, 2855.070
567.486, 2860.972
567.968, 2865.208
568.450, 2866.371
568.932, 2865.248
569.414, 2864.311
569.896, 2860.570
570.378, 2861.390
570.860, 2873.200
571.343, 2893.132
571.825, 2917.713
572.307, 2945.592
572.789, 2970.794
573.271, 2987.419
573.753, 2995.371
574.235, 2995.817
574.717, 2975.909
575.200, 2965.775
575.682, 2975.601
576.164, 2994.696
576.646, 3015.606
577.128, 3036.084
577.610, 3050.418
578.092, 3050.910
578.574, 3043.604
579.056, 3041.656
579.539, 3045.147
580.021, 3044.762
580.503, 3035.839
580.985, 3021.228
581.467, 3006.464
581.949, 2991.635
582.431, 2976.238
582.913, 2959.726
583.395, 2943.154
583.878, 2927.561
584.360, 2912.255
584.842, 2897.008
585.324, 2882.117
585.806, 2862.776
586.288, 2829.968
586.770, 2784.394
587.252, 2740.455
587.734, 2697.998
588.217, 2661.978
588.699, 2641.185
589.181, 2629.064
589.663, 2602.633
590.145, 2546.213
590.627, 2500.109
591.109, 2485.537
591.591, 2481.456
592.073, 2463.776
592.556, 2432.813
593.038, 2406.123
593.520, 2397.309
594.002, 2400.075
594.484, 2392.153
594.966, 2368.087
595.448, 2353.589
595.930, 2358.448
596.413, 2369.454
596.895, 2375.454
597.377, 2377.995
597.859, 2384.961
598.341, 2404.582
598.823, 2423.451
599.305, 2429.329
599.787, 2428.469
600.269, 2432.719
600.752, 2445.169
601.234, 2462.483
601.716, 2482.132
602.198, 2503.948
602.680, 2521.168
603.162, 2530.339
603.644, 2540.450
604.127, 2555.013
604.609, 2570.538
605.091, 2584.952
605.573, 2597.785
606.055, 2606.728
606.537, 2604.686
607.019, 2601.931
607.501, 2613.958
607.983, 2637.640
608.466, 2656.218
608.948, 2662.466
609.430, 2666.976
609.912, 2686.964
610.394, 2727.499
610.876, 2758.522
611.358, 2766.760
611.840, 2780.518
612.322, 2810.133
612.805, 2848.508
613.287, 2884.040
613.769, 2914.047
614.251, 2953.291
614.733, 3016.294
615.215, 3095.692
615.697, 3179.470
616.179, 3266.078
616.661, 3350.976
617.144, 3431.468
617.626, 3507.688
618.108, 3577.610
618.590, 3630.953
619.072, 3703.887
619.554, 3821.001
620.036, 3930.821
620.518, 4008.423
621.000, 4062.656
621.483, 4108.697
621.965, 4151.267
622.447, 4193.167
622.929, 4239.636
623.411, 4287.769
623.893, 4331.288
624.375, 4370.583
624.857, 4391.312
625.340, 4381.703
625.822, 4350.075
626.304, 4320.875
626.786, 4299.168
627.268, 4270.689
627.750, 4227.596
628.232, 4184.993
