##NAMES=Hydroxylapatite
##RRUFFID=R050512
##IDEAL CHEMISTRY=Ca_5_(P^5+^O_4_)_3_OH
##LOCALITY=Moneta Island, Mayeguez, Puerto Rico, USA
##OWNER=RRUFF
##SOURCE=American Museum of Natural History
##DESCRIPTION=Pale pink consolidated powder
##STATUS=The identification of this mineral has been confirmed by X-ray diffraction and chemical analysis
##URL=rruff.info/R050512
##MEASURED CHEMISTRY=Ca_5.00_(PO_4_)_3_((OH)_0.67_F_0.33_)
92.37695, 660.4001
92.85907, 654.6002
93.34119, 656.0735
93.82330, 659.2545
94.30542, 660.4347
94.78754, 660.1553
95.26965, 659.4103
95.75177, 656.7742
96.23389, 651.4089
96.71600, 644.8349
97.19812, 638.8484
97.68024, 633.8496
98.16235, 629.4136
98.64447, 624.8764
99.12659, 619.9882
99.60870, 614.2957
100.0908, 609.7018
100.5729, 605.8679
101.0551, 602.1917
101.5372, 598.2273
102.0193, 594.0699
102.5014, 590.6887
102.9835, 588.7374
103.4656, 586.7963
103.9478, 584.4324
104.4299, 581.8329
104.9120, 579.4316
105.3941, 577.5767
105.8762, 576.2792
106.3583, 575.0693
106.8405, 573.5524
107.3226, 572.2216
107.8047, 571.3881
108.2868, 571.0661
108.7689, 571.0381
109.2510, 571.2603
109.7332, 571.7746
110.2153, 571.5211
110.6974, 569.3267
111.1795, 566.5225
111.6616, 565.3151
112.1437, 566.6349
112.6259, 568.6548
113.1080, 569.4999
113.5901, 569.2661
114.0722, 568.5121
114.5543, 567.1914
115.0364, 565.3533
115.5185, 564.2238
116.0007, 564.6462
116.4828, 565.4627
116.9649, 566.0441
117.4470, 566.2863
117.9291, 566.3182
118.4112, 566.2446
118.8934, 565.9046
119.3755, 565.8653
119.8576, 566.3867
120.3397, 567.0665
120.8218, 567.6223
121.3039, 567.9357
121.7861, 568.0372
122.2682, 568.0217
122.7503, 567.9485
123.2324, 567.6459
123.7145, 566.7553
124.1966, 565.6747
124.6788, 565.0267
125.1609, 565.2138
125.6430, 566.1027
126.1251, 566.5336
126.6072, 566.2330
127.0893, 565.8688
127.5715, 565.7131
128.0536, 565.7421
128.5357, 565.7509
129.0178, 565.4462
129.4999, 565.0000
129.9821, 565.2238
130.4642, 567.1339
130.9463, 569.2131
131.4284, 569.5850
131.9105, 567.8263
132.3926, 566.0544
132.8748, 566.2646
133.3569, 567.6235
133.8390, 568.6945
134.3211, 568.6561
134.8032, 567.8269
135.2853, 567.3171
135.7674, 567.3356
136.2496, 567.4282
136.7317, 567.5773
137.2138, 567.6502
137.6959, 567.3272
138.1780, 566.0840
138.6601, 563.7506
139.1423, 562.3285
139.6244, 563.2265
140.1065, 563.8995
140.5886, 562.7813
141.0707, 560.1897
141.5528, 557.8720
142.0350, 558.1956
142.5171, 563.1862
142.9992, 565.4645
143.4813, 563.3173
143.9634, 560.1785
144.4455, 558.2155
144.9277, 557.9918
145.4098, 558.6965
145.8919, 559.0385
146.3740, 558.7252
146.8561, 558.5610
147.3382, 558.7682
147.8204, 559.0776
148.3025, 559.1368
148.7846, 558.8013
149.2667, 558.2426
149.7488, 557.7782
150.2309, 557.3771
150.7131, 557.0931
151.1952, 557.0134
151.6773, 557.0830
152.1594, 557.1511
152.6415, 557.2426
153.1236, 557.2081
153.6058, 556.7731
154.0879, 555.7543
154.5700, 554.9051
155.0521, 555.1962
155.5342, 556.7105
156.0163, 557.5001
156.4985, 555.7363
156.9806, 553.4572
157.4627, 552.3507
157.9448, 552.9056
158.4269, 554.2971
158.9090, 555.4418
159.3912, 556.4526
159.8733, 556.8478
160.3554, 556.1937
160.8375, 555.1134
161.3196, 554.0195
161.8017, 553.0637
162.2839, 552.3793
162.7660, 552.4264
163.2481, 554.0915
163.7302, 555.3239
164.2123, 555.6735
164.6944, 555.4941
165.1766, 555.2217
165.6587, 555.1047
166.1408, 555.0997
166.6229, 554.9024
167.1050, 554.0335
167.5871, 553.4959
168.0693, 553.7483
168.5514, 554.4887
169.0335, 555.1317
169.5156, 555.2958
169.9977, 555.0022
170.4798, 554.6492
170.9620, 554.0024
171.4441, 553.5269
171.9262, 553.6751
172.4083, 554.2878
172.8904, 554.5911
173.3725, 553.8287
173.8547, 552.1826
174.3368, 551.3893
174.8189, 551.9992
175.3010, 553.0670
175.7831, 553.9665
176.2652, 554.6794
176.7474, 555.0984
177.2295, 554.8788
177.7116, 554.2923
178.1937, 554.0185
178.6758, 554.7233
179.1579, 555.6319
179.6401, 555.3940
180.1222, 553.5787
180.6043, 551.8790
181.0864, 551.3934
181.5685, 551.7203
182.0506, 552.3330
182.5328, 553.2419
183.0149, 554.2361
183.4970, 554.5958
183.9791, 553.9105
184.4612, 553.1892
184.9433, 552.9235
185.4255, 552.9327
185.9076, 552.8789
186.3897, 552.4631
186.8718, 551.7524
187.3539, 551.4954
187.8360, 552.2086
188.3182, 552.8661
188.8003, 553.0780
189.2824, 552.9999
189.7645, 553.0027
190.2466, 553.4310
190.7287, 554.3224
191.2109, 554.7510
191.6930, 554.2744
192.1751, 553.7670
192.6572, 553.4814
193.1393, 553.4045
193.6214, 553.4221
194.1036, 553.4532
194.5857, 553.5192
195.0678, 553.4053
195.5499, 552.7321
196.0320, 552.2539
196.5141, 552.6629
196.9963, 553.7438
197.4784, 554.4850
197.9605, 553.7949
198.4426, 551.3651
198.9247, 550.1418
199.4068, 550.9865
199.8890, 552.2521
200.3711, 552.9143
200.8532, 552.8818
201.3353, 552.5977
201.8174, 552.4960
202.2995, 552.5768
202.7817, 552.2704
203.2638, 550.9232
203.7459, 549.5437
204.2280, 549.2295
204.7101, 550.1361
205.1922, 551.2721
205.6744, 551.7761
206.1565, 551.7506
206.6386, 551.6259
207.1207, 551.4073
207.6028, 551.1673
208.0849, 551.0416
208.5671, 551.0847
209.0492, 551.0769
209.5313, 550.8269
210.0134, 550.3994
210.4955, 549.8941
210.9776, 549.2060
211.4598, 548.4805
211.9419, 548.0817
212.4240, 548.1576
212.9061, 548.2660
213.3882, 547.9838
213.8703, 547.5426
214.3525, 547.4134
214.8346, 548.1641
215.3167, 549.4088
215.7988, 549.6119
216.2809, 547.9857
216.7630, 546.5048
217.2451, 546.2693
217.7273, 546.7185
218.2094, 546.8348
218.6915, 545.8430
219.1736, 544.0023
219.6557, 542.8895
220.1378, 542.8242
220.6200, 543.2035
221.1021, 544.0760
221.5842, 543.1740
222.0663, 545.5381
222.5484, 546.7975
223.0305, 547.0117
223.5127, 543.0493
223.9948, 544.4799
224.4769, 543.7493
224.9590, 542.9301
225.4411, 545.1198
225.9232, 541.7649
226.4054, 543.9068
226.8875, 543.8545
227.3696, 544.8065
227.8517, 543.5839
228.3338, 543.0329
228.8159, 544.6572
229.2981, 545.0770
229.7802, 543.6041
230.2623, 544.6198
230.7444, 541.1890
231.2265, 541.6602
231.7086, 543.8148
232.1908, 542.4512
232.6729, 543.5067
233.1550, 543.6409
233.6371, 539.5880
234.1192, 542.8169
234.6013, 542.8967
235.0835, 539.7429
235.5656, 542.7222
236.0477, 540.0143
236.5298, 539.3364
237.0119, 540.1862
237.4940, 539.4434
237.9762, 541.2114
238.4583, 540.5606
238.9404, 539.6937
239.4225, 539.7698
239.9046, 537.1734
240.3867, 539.5353
240.8689, 538.5102
241.3510, 539.1687
241.8331, 540.2088
242.3152, 538.3270
242.7973, 539.5385
243.2794, 535.9529
243.7616, 536.3813
244.2437, 536.3774
244.7258, 538.9392
245.2079, 535.3770
245.6900, 535.6938
246.1721, 537.6624
246.6543, 537.3198
247.1364, 536.1572
247.6185, 535.5465
248.1006, 535.9344
248.5827, 537.0041
249.0648, 537.5652
249.5470, 537.0236
250.0291, 536.0100
250.5112, 535.4867
250.9933, 535.4999
251.4754, 535.6163
251.9576, 535.7219
252.4397, 535.7653
252.9218, 535.4683
253.4039, 534.5256
253.8860, 533.5090
254.3681, 533.0726
254.8503, 533.2090
255.3324, 533.4101
255.8145, 533.3761
256.2966, 533.1438
256.7787, 532.9184
257.2608, 532.8265
257.7430, 532.6155
258.2251, 531.9509
258.7072, 530.9232
259.1893, 530.1213
259.6714, 529.9295
260.1535, 530.2907
260.6357, 530.9622
261.1178, 532.3361
261.5999, 533.4446
262.0820, 533.8083
262.5641, 533.4866
263.0462, 532.6689
263.5284, 530.9297
264.0105, 528.5852
264.4926, 527.6270
264.9747, 529.0561
265.4568, 530.4975
265.9389, 530.6851
266.4211, 530.0335
266.9032, 529.3859
267.3853, 529.1946
267.8674, 529.4048
268.3495, 529.8057
268.8316, 530.5020
269.3138, 531.2416
269.7959, 532.2711
270.2780, 533.2156
270.7601, 533.4406
271.2422, 532.4500
271.7243, 530.6760
272.2065, 529.6000
272.6886, 529.6638
273.1707, 529.7252
273.6528, 529.4679
274.1349, 529.0367
274.6170, 528.5519
275.0992, 528.0423
275.5813, 527.6120
276.0634, 527.5340
276.5455, 527.9343
277.0276, 528.4837
277.5097, 529.4130
277.9919, 530.2905
278.4740, 530.6484
278.9561, 530.3247
279.4382, 529.6536
279.9203, 529.3511
280.4024, 529.9577
280.8846, 529.7338
281.3667, 527.3282
281.8488, 524.9115
282.3309, 524.4052
282.8130, 526.1608
283.2951, 528.7160
283.7773, 529.8947
284.2594, 529.1368
284.7415, 528.3365
285.2236, 527.2508
285.7057, 526.3571
286.1878, 525.9785
286.6700, 526.1293
287.1521, 526.5878
287.6342, 527.2055
288.1163, 528.1791
288.5984, 528.4810
289.0805, 527.3925
289.5627, 526.3262
290.0448, 525.9153
290.5269, 526.1359
291.0090, 526.6432
291.4911, 527.1857
291.9732, 527.7972
292.4554, 527.9852
292.9375, 527.4431
293.4196, 526.7897
293.9017, 526.0731
294.3838, 525.3991
294.8659, 524.9625
295.3481, 524.9426
295.8302, 525.2877
296.3123, 525.2884
296.7944, 524.5516
297.2765, 523.8773
297.7586, 523.6179
298.2408, 523.4811
298.7229, 522.9518
299.2050, 521.7240
299.6871, 520.0472
300.1692, 518.8848
300.6513, 518.4334
301.1335, 518.3491
301.6156, 518.9466
302.0977, 519.7567
302.5798, 520.2582
303.0619, 520.2474
303.5440, 519.9469
304.0262, 519.8445
304.5083, 520.3845
304.9904, 520.4244
305.4725, 519.3480
305.9546, 518.1744
306.4367, 517.9164
306.9189, 518.7257
307.4010, 519.7563
307.8831, 519.7529
308.3652, 518.0498
308.8473, 517.0400
309.3294, 517.1901
309.8116, 517.5231
310.2937, 517.3677
310.7758, 516.7465
311.2579, 516.2018
311.7400, 516.3543
312.2221, 517.4122
312.7043, 517.6415
313.1864, 516.4821
313.6685, 515.1779
314.1506, 514.0085
314.6327, 513.0876
315.1148, 512.5356
315.5970, 512.4572
316.0791, 512.8320
316.5612, 513.3729
317.0433, 514.7925
317.5254, 515.5923
318.0075, 515.0356
318.4897, 513.7416
318.9718, 512.5776
319.4539, 511.9805
319.9360, 511.8920
320.4181, 512.1435
320.9002, 513.4293
321.3824, 514.1624
321.8645, 513.9489
322.3466, 513.3067
322.8287, 512.7893
323.3108, 512.5692
323.7929, 512.3402
324.2751, 511.5009
324.7572, 509.2152
325.2393, 507.9767
325.7214, 508.3976
326.2035, 509.2474
326.6856, 509.8317
327.1678, 509.9907
327.6499, 509.8107
328.1320, 509.3237
328.6141, 508.3906
329.0962, 507.8535
329.5783, 507.6399
330.0605, 507.8233
330.5426, 509.0862
331.0247, 510.8482
331.5068, 511.5811
331.9889, 509.9131
332.4710, 506.0933
332.9532, 504.1982
333.4353, 506.5858
333.9174, 508.4230
334.3995, 508.5386
334.8816, 507.5989
335.3637, 506.5286
335.8459, 505.7879
336.3280, 505.3642
336.8101, 505.2705
337.2922, 505.9420
337.7743, 506.2949
338.2564, 505.9929
338.7386, 505.5108
339.2206, 505.3343
339.7028, 505.5717
340.1849, 505.8868
340.6670, 505.7130
341.1491, 504.7047
341.6312, 504.0779
342.1133, 504.2717
342.5955, 504.4346
343.0776, 503.9248
343.5597, 502.8532
344.0418, 501.8970
344.5239, 501.7600
345.0060, 502.5078
345.4882, 502.9162
345.9703, 502.9105
346.4524, 502.5971
346.9345, 501.8006
347.4166, 500.7282
347.8987, 499.6608
348.3809, 498.7224
348.8630, 498.0056
349.3451, 497.9672
349.8272, 499.2267
350.3093, 500.2157
350.7914, 500.8468
351.2736, 500.9995
351.7557, 500.2450
352.2378, 498.4542
352.7199, 496.5804
353.2020, 496.4663
353.6841, 498.9624
354.1663, 500.6106
354.6484, 500.5569
355.1305, 499.9402
355.6126, 499.1430
356.0947, 498.3272
356.5768, 497.7643
357.0590, 497.9605
357.5411, 498.9759
358.0232, 499.2075
358.5053, 497.9256
358.9874, 496.6354
359.4695, 495.9365
359.9517, 495.7068
360.4338, 495.6771
360.9159, 495.7934
361.3980, 495.9318
361.8801, 495.5924
362.3622, 494.3640
362.8444, 493.5855
363.3265, 494.1938
363.8086, 495.2477
364.2907, 495.6839
364.7728, 495.1025
365.2549, 494.3033
365.7371, 494.5781
366.2192, 496.1320
366.7013, 496.8248
367.1834, 495.2724
367.6655, 493.3919
368.1476, 492.5503
368.6298, 492.7974
369.1119, 493.4989
369.5940, 494.5257
370.0761, 495.7149
370.5582, 496.1972
371.0403, 495.6356
371.5225, 494.8345
372.0046, 494.2545
372.4867, 493.8640
372.9688, 493.6146
373.4509, 493.6922
373.9330, 493.7780
374.4152, 493.1940
374.8973, 491.8160
375.3794, 490.8450
375.8615, 491.1765
376.3436, 492.1591
376.8257, 492.8568
377.3079, 493.2428
377.7900, 493.1908
378.2721, 492.1987
378.7542, 490.5648
379.2363, 489.6556
379.7184, 490.0136
380.2006, 490.9612
380.6827, 491.9892
381.1648, 493.1438
381.6469, 493.2222
382.1290, 490.4703
382.6111, 486.9693
383.0933, 486.0069
383.5754, 488.0555
384.0575, 490.5312
384.5396, 491.4417
385.0217, 490.9098
385.5038, 490.5249
385.9860, 490.5246
386.4681, 490.5101
386.9502, 490.1216
387.4323, 489.4888
387.9144, 489.0714
388.3965, 489.1135
388.8787, 489.4673
389.3608, 489.7654
389.8429, 490.0120
390.3250, 490.2138
390.8071, 490.4355
391.2892, 490.5850
391.7714, 490.4574
392.2535, 490.0234
392.7356, 489.6328
393.2177, 489.7811
393.6998, 490.7045
394.1819, 490.8832
394.6641, 489.5154
395.1462, 488.1889
395.6283, 487.8035
396.1104, 488.2411
396.5925, 489.0141
397.0746, 489.8665
397.5568, 490.7117
398.0389, 491.0732
398.5210, 489.8790
399.0031, 489.4992
399.4852, 491.2594
399.9673, 493.4827
400.4495, 494.1636
400.9316, 492.7317
401.4137, 490.3907
401.8958, 488.8837
402.3779, 488.1857
402.8600, 488.4807
403.3422, 490.9537
403.8243, 493.2256
404.3064, 493.8058
404.7885, 493.0450
405.2706, 492.3060
405.7527, 492.6361
406.2349, 493.9057
406.7170, 495.1075
407.1991, 496.3482
407.6812, 497.3305
408.1633, 497.8059
408.6454, 498.0918
409.1276, 498.5696
409.6097, 499.3804
410.0918, 500.2866
410.5739, 501.0205
411.0560, 501.6337
411.5381, 501.7758
412.0203, 500.5981
412.5024, 499.6043
412.9845, 499.6466
413.4666, 500.6875
413.9487, 502.2412
414.4308, 504.6004
414.9130, 507.2763
415.3951, 508.0335
415.8772, 505.8667
416.3593, 504.2525
416.8414, 506.0158
417.3235, 509.2377
417.8057, 511.3104
418.2878, 511.2751
418.7699, 510.5974
419.2520, 510.6084
419.7341, 511.2540
420.2162, 512.0433
420.6984, 512.8831
421.1805, 513.7359
421.6626, 514.6172
422.1447, 515.5457
422.6268, 516.2158
423.1089, 516.2806
423.5911, 516.1271
424.0732, 516.3606
424.5553, 517.0477
425.0374, 517.6871
425.5195, 517.8792
426.0016, 517.6719
426.4838, 517.5362
426.9659, 517.3635
427.4480, 517.3720
427.9301, 518.0511
428.4122, 518.9568
428.8943, 519.0893
429.3765, 518.0391
429.8586, 516.3027
430.3407, 514.6898
430.8228, 513.0635
431.3049, 511.9535
431.7870, 511.9215
432.2692, 512.0001
432.7513, 511.4796
433.2334, 510.3589
433.7155, 509.0128
434.1976, 507.7164
434.6797, 506.4782
435.1619, 505.4007
435.6440, 504.9004
436.1261, 504.0657
436.6082, 502.5561
437.0903, 500.7112
437.5724, 498.7557
438.0546, 496.8105
438.5367, 495.1889
439.0188, 494.4599
439.5009, 494.8887
439.9830, 495.3531
440.4651, 496.0118
440.9473, 496.5351
441.4294, 496.7841
441.9115, 496.7656
442.3936, 496.5471
442.8757, 496.2056
443.3578, 495.6792
443.8400, 494.6640
444.3221, 492.8526
444.8042, 491.3203
445.2863, 490.6279
445.7684, 490.2955
446.2505, 489.9747
446.7327, 489.6068
447.2148, 489.1297
447.6969, 488.5073
448.1790, 487.7381
448.6611, 486.7906
449.1432, 485.6447
449.6254, 484.3514
450.1075, 482.4644
450.5896, 480.3589
451.0717, 479.3858
451.5538, 481.1948
452.0359, 483.3649
452.5181, 483.2190
453.0002, 481.0792
453.4823, 479.3331
453.9644, 479.2672
454.4465, 479.9887
454.9286, 479.3407
455.4108, 476.8624
455.8929, 474.7245
456.3750, 473.4428
456.8571, 472.7327
457.3392, 472.5241
457.8214, 472.7109
458.3035, 472.6113
458.7856, 471.4482
459.2677, 469.1940
459.7498, 468.3951
460.2319, 471.0356
460.7141, 472.6153
461.1962, 470.8187
461.6783, 467.5214
462.1604, 465.4778
462.6425, 465.7210
463.1246, 467.1270
463.6068, 467.8376
464.0889, 467.6891
464.5710, 467.2477
465.0531, 466.0500
465.5352, 465.0089
466.0173, 464.8636
466.4995, 465.2607
466.9816, 465.1563
467.4637, 463.6687
467.9458, 461.4344
468.4279, 460.6593
468.9100, 462.0646
469.3922, 463.0521
469.8743, 462.6206
470.3564, 461.6059
470.8385, 460.4586
471.3206, 459.2660
471.8027, 458.4058
472.2849, 458.4038
472.7670, 459.0079
473.2491, 459.2831
473.7312, 459.1389
474.2133, 458.6673
474.6954, 457.4344
475.1776, 455.9407
475.6597, 455.4762
476.1418, 457.0563
476.6239, 458.7169
477.1060, 458.9547
477.5881, 458.1564
478.0703, 457.4827
478.5524, 457.3406
479.0345, 457.3822
479.5166, 457.0634
479.9987, 456.2386
480.4808, 455.7642
480.9630, 456.1216
481.4451, 456.4844
481.9272, 456.1551
482.4093, 455.3051
482.8914, 454.6159
483.3735, 454.5132
483.8557, 454.8137
484.3378, 454.8545
484.8199, 454.3135
485.3020, 453.9664
485.7841, 454.1678
486.2662, 454.3327
486.7484, 453.8732
487.2305, 452.8206
487.7126, 451.7621
488.1947, 451.2406
488.6768, 451.2198
489.1589, 451.1131
489.6411, 450.8307
490.1232, 450.6028
490.6053, 450.5024
491.0874, 450.4858
491.5695, 450.5518
492.0516, 450.7148
492.5338, 450.7897
493.0159, 450.6093
493.4980, 450.1782
493.9801, 449.5020
494.4622, 448.4952
494.9443, 447.4134
495.4265, 446.2618
495.9086, 445.1743
496.3907, 444.6335
496.8728, 445.1294
497.3549, 445.8835
497.8370, 446.3582
498.3192, 446.5633
498.8013, 446.4807
499.2834, 446.0465
499.7655, 445.4782
500.2476, 445.1523
500.7297, 445.1871
501.2119, 445.0225
501.6940, 444.3156
502.1761, 443.6484
502.6582, 443.4174
503.1403, 443.5951
503.6224, 444.0549
504.1045, 444.7759
504.5866, 445.5464
505.0688, 445.5679
505.5509, 444.0387
506.0330, 443.0175
506.5151, 442.9826
506.9972, 443.1821
507.4793, 443.0409
507.9615, 442.5459
508.4436, 442.0683
508.9257, 441.9396
509.4078, 442.0966
509.8899, 442.1906
510.3720, 442.3143
510.8542, 442.1677
511.3363, 441.2679
511.8184, 440.2377
512.3005, 439.7455
512.7827, 439.9429
513.2648, 440.2927
513.7469, 440.5468
514.2290, 440.6364
514.7111, 440.2339
515.1932, 439.1722
515.6754, 438.2260
516.1575, 438.1199
516.6396, 438.6494
517.1217, 438.7929
517.6038, 438.0821
518.0859, 437.4881
518.5681, 437.5996
519.0502, 438.0815
519.5323, 438.4214
520.0144, 438.4718
520.4965, 438.2177
520.9786, 437.5458
521.4608, 436.2641
521.9429, 435.7675
522.4250, 436.5458
522.9071, 437.4375
523.3892, 438.3398
523.8713, 438.9955
524.3535, 438.9273
524.8356, 437.9522
525.3177, 436.6764
525.7998, 436.1156
526.2819, 436.3852
526.7640, 436.8142
527.2462, 437.8815
527.7283, 438.5301
528.2104, 437.9109
528.6925, 436.5124
529.1746, 435.4676
529.6567, 435.3402
530.1389, 435.6519
530.6210, 435.9454
531.1031, 436.1993
531.5852, 435.9464
532.0673, 434.7988
532.5494, 433.4890
533.0316, 433.1043
533.5137, 433.5773
533.9958, 433.6120
534.4779, 432.1531
534.9600, 430.8185
535.4421, 431.3022
535.9243, 433.0846
536.4064, 434.2164
536.8885, 433.7077
537.3706, 432.3332
537.8527, 431.7549
538.3348, 432.6668
538.8170, 432.9804
539.2991, 432.1978
539.7812, 431.3132
540.2633, 430.9533
540.7454, 430.9886
541.2275, 430.8847
541.7097, 430.2754
542.1918, 429.4539
542.6739, 429.2674
543.1560, 429.9846
543.6381, 430.4716
544.1202, 430.1641
544.6024, 429.8408
545.0845, 430.0998
545.5666, 430.8481
546.0487, 431.4633
546.5308, 431.5758
547.0129, 431.3823
547.4951, 431.2149
547.9772, 431.0684
548.4593, 430.6734
548.9414, 429.7913
549.4235, 428.7548
549.9056, 428.1942
550.3878, 428.1407
550.8699, 428.1885
551.3520, 428.4798
551.8341, 428.6801
552.3162, 428.3243
552.7983, 427.5834
553.2805, 427.1651
553.7626, 427.5193
554.2447, 428.3080
554.7268, 428.5016
555.2089, 427.3686
555.6910, 426.9555
556.1732, 427.7665
556.6553, 428.8256
557.1374, 429.7040
557.6195, 430.3055
558.1016, 430.5738
558.5837, 430.4225
559.0659, 429.9932
559.5480, 429.4559
560.0301, 428.6777
560.5122, 428.6682
560.9943, 430.4960
561.4764, 432.4531
561.9586, 432.7737
562.4407, 431.5465
562.9228, 430.2710
563.4049, 429.1548
563.8870, 428.4972
564.3691, 428.9516
564.8513, 430.2922
565.3334, 431.3072
565.8155, 431.4182
566.2976, 431.0031
566.7797, 430.7221
567.2618, 430.3934
567.7440, 430.7207
568.2261, 432.4809
568.7082, 434.1753
569.1903, 434.9516
569.6724, 434.9460
570.1545, 434.5296
570.6367, 433.8552
571.1188, 433.2902
571.6009, 433.7667
572.0830, 435.6674
572.5651, 437.1563
573.0472, 437.9417
573.5294, 438.3339
574.0115, 438.1652
574.4936, 437.7336
574.9757, 437.8367
575.4578, 439.0218
575.9399, 440.5786
576.4221, 441.8223
576.9042, 442.7500
577.3863, 443.2892
577.8684, 440.3220
578.3505, 443.1505
578.8326, 444.8298
579.3148, 445.4193
579.7969, 441.7879
580.2790, 443.5049
580.7611, 443.0162
581.2432, 442.3943
581.7253, 444.7368
582.2075, 441.4904
582.6896, 443.6962
583.1717, 443.6633
583.6538, 444.5902
584.1359, 443.2979
584.6180, 444.0522
585.1002, 443.1785
585.5823, 442.3770
586.0643, 442.0210
586.5464, 441.9418
587.0286, 441.9983
587.5107, 442.1752
587.9928, 442.1316
588.4749, 441.3486
