##NAMES=Hydroromarchite
##RRUFFID=R090060
##IDEAL CHEMISTRY=Sn^2+^_3_O_2_(OH)_2_
##LOCALITY=Hooggenoeg Fm., Barberton Greenstone Belt, South Africa
##OWNER=RRUFF
##SOURCE=Joe Zullo
##DESCRIPTION=Pale tan tetragonal single crystal
##STATUS=The identification of this mineral has been confirmed by single-crystal X-ray diffraction.
##URL=rruff.info/R090060
91.82715, 1987.111
92.30927, 1955.391
92.79138, 1961.766
93.27350, 1989.584
93.75562, 2014.555
94.23773, 2032.539
94.71985, 2047.113
95.20197, 2057.141
95.68408, 2061.842
96.16620, 2064.064
96.64832, 2067.744
97.13043, 2073.972
97.61255, 2081.621
98.09467, 2088.956
98.57678, 2095.519
99.05890, 2098.554
99.54102, 2103.035
100.0231, 2109.966
100.5052, 2119.346
100.9874, 2130.896
101.4695, 2144.370
101.9516, 2159.612
102.4337, 2176.488
102.9158, 2195.499
103.3979, 2217.233
103.8801, 2241.092
104.3622, 2265.879
104.8443, 2290.568
105.3264, 2315.234
105.8085, 2341.135
106.2906, 2367.325
106.7728, 2394.493
107.2549, 2422.929
107.7370, 2452.625
108.2191, 2483.765
108.7012, 2516.689
109.1833, 2551.502
109.6655, 2586.348
110.1476, 2619.768
110.6297, 2653.265
111.1118, 2689.891
111.5939, 2730.902
112.0760, 2773.077
112.5582, 2813.183
113.0403, 2851.164
113.5224, 2888.343
114.0045, 2924.523
114.4866, 2959.924
114.9688, 2996.102
115.4509, 3033.712
115.9330, 3072.120
116.4151, 3112.681
116.8972, 3155.170
117.3793, 3196.174
117.8615, 3230.868
118.3436, 3256.437
118.8257, 3281.864
119.3078, 3306.405
119.7899, 3332.278
120.2720, 3362.341
120.7542, 3397.621
121.2363, 3435.461
121.7184, 3468.599
122.2005, 3494.333
122.6826, 3517.217
123.1647, 3538.604
123.6468, 3557.125
124.1290, 3570.561
124.6111, 3577.638
125.0932, 3578.685
125.5753, 3576.480
126.0574, 3572.383
126.5395, 3564.787
127.0217, 3552.668
127.5038, 3536.256
127.9859, 3516.730
128.4680, 3493.860
128.9501, 3468.156
129.4323, 3443.485
129.9144, 3421.679
130.3965, 3399.896
130.8786, 3376.541
131.3607, 3352.479
131.8428, 3322.504
132.3250, 3284.219
132.8071, 3237.552
133.2892, 3179.934
133.7713, 3106.877
134.2534, 3021.624
134.7355, 2933.534
135.2177, 2840.143
135.6998, 2747.345
136.1819, 2655.431
136.6640, 2565.988
137.1461, 2483.275
137.6282, 2409.914
138.1104, 2345.996
138.5925, 2290.633
139.0746, 2248.872
139.5567, 2211.836
140.0388, 2176.102
140.5209, 2141.809
141.0031, 2110.971
141.4852, 2086.507
141.9673, 2071.366
142.4494, 2055.307
142.9315, 2035.484
143.4136, 2016.871
143.8958, 2003.191
144.3779, 1995.240
144.8600, 1990.234
145.3421, 1983.746
145.8242, 1974.498
146.3063, 1966.125
146.7885, 1958.020
147.2706, 1951.071
147.7527, 1946.995
148.2348, 1946.802
148.7169, 1948.156
149.1990, 1946.115
149.6812, 1940.421
150.1633, 1933.798
150.6454, 1925.761
151.1275, 1917.253
151.6096, 1911.637
152.0917, 1911.115
152.5739, 1913.356
153.0560, 1914.477
153.5381, 1914.371
154.0202, 1913.436
154.5023, 1911.478
154.9844, 1908.418
155.4665, 1906.141
155.9487, 1905.912
156.4308, 1906.547
156.9129, 1907.186
157.3950, 1907.610
157.8771, 1908.074
158.3592, 1909.003
158.8414, 1910.560
159.3235, 1912.183
159.8056, 1914.211
160.2877, 1916.028
160.7698, 1916.655
161.2519, 1915.541
161.7341, 1913.858
162.2162, 1915.235
162.6983, 1923.436
163.1804, 1929.750
163.6625, 1931.740
164.1446, 1931.594
164.6268, 1932.058
165.1089, 1934.736
165.5910, 1939.168
166.0731, 1942.452
166.5552, 1942.661
167.0373, 1943.819
167.5195, 1947.555
168.0016, 1952.846
168.4837, 1957.517
168.9658, 1959.958
169.4479, 1960.464
169.9300, 1963.121
170.4122, 1970.295
170.8943, 1976.904
171.3764, 1979.538
171.8585, 1979.063
172.3406, 1979.763
172.8227, 1985.170
173.3049, 1994.818
173.7870, 2002.667
174.2691, 2007.591
174.7512, 2011.566
175.2333, 2015.986
175.7154, 2020.914
176.1976, 2026.149
176.6797, 2031.541
177.1618, 2037.146
177.6439, 2042.982
178.1260, 2048.542
178.6081, 2054.531
179.0903, 2062.533
179.5724, 2073.355
180.0545, 2083.691
180.5366, 2090.944
181.0187, 2096.409
181.5008, 2101.954
181.9830, 2108.521
182.4651, 2115.763
182.9472, 2123.209
183.4293, 2133.285
183.9114, 2139.253
184.3935, 2136.965
184.8757, 2129.440
185.3578, 2121.781
185.8399, 2117.383
186.3220, 2115.884
186.8041, 2113.498
187.2862, 2110.338
187.7684, 2105.979
188.2505, 2099.450
188.7326, 2091.633
189.2147, 2084.138
189.6968, 2078.272
190.1789, 2074.057
190.6611, 2070.171
191.1432, 2065.389
191.6253, 2062.043
192.1074, 2061.524
192.5895, 2063.231
193.0716, 2065.482
193.5538, 2066.681
194.0359, 2066.460
194.5180, 2068.433
195.0001, 2072.949
195.4822, 2078.724
195.9643, 2084.939
196.4465, 2091.725
196.9286, 2099.951
197.4107, 2110.429
197.8928, 2123.462
198.3749, 2137.556
198.8570, 2151.560
199.3392, 2167.328
199.8213, 2186.244
200.3034, 2208.391
200.7855, 2232.523
201.2676, 2257.526
201.7497, 2283.626
202.2319, 2312.409
202.7140, 2343.704
203.1961, 2377.904
203.6782, 2415.768
204.1603, 2457.608
204.6424, 2501.563
205.1246, 2545.785
205.6067, 2590.929
206.0888, 2639.922
206.5709, 2695.286
207.0530, 2754.124
207.5351, 2812.840
208.0173, 2871.656
208.4994, 2929.661
208.9815, 2986.889
209.4636, 3043.001
209.9457, 3096.609
210.4278, 3146.223
210.9100, 3193.260
211.3921, 3241.347
211.8742, 3291.059
212.3563, 3340.087
212.8384, 3385.953
213.3205, 3430.257
213.8027, 3476.114
214.2848, 3525.271
214.7669, 3577.134
215.2490, 3628.571
215.7311, 3678.698
216.2132, 3730.131
216.6954, 3784.170
217.1775, 3839.989
217.6596, 3896.167
218.1417, 3951.152
218.6238, 4005.783
219.1059, 4064.897
219.5881, 4132.814
220.0702, 4199.860
220.5523, 4262.836
221.0344, 4322.934
221.5165, 4382.922
221.9986, 4444.717
222.4808, 4507.751
222.9629, 4566.730
223.4450, 4620.991
223.9271, 4670.710
224.4092, 4719.070
224.8913, 4762.802
225.3735, 4797.994
225.8556, 4823.239
226.3377, 4837.461
226.8198, 4828.144
227.3019, 4789.343
227.7840, 4731.953
228.2662, 4657.323
228.7483, 4565.298
229.2304, 4454.586
229.7125, 4323.007
230.1946, 4171.895
230.6767, 4018.655
231.1589, 3860.877
231.6410, 3703.907
232.1231, 3543.607
232.6052, 3384.846
233.0873, 3235.503
233.5694, 3100.267
234.0516, 2978.548
234.5337, 2867.890
235.0158, 2764.428
235.4979, 2672.661
235.9800, 2595.710
236.4621, 2531.669
236.9443, 2476.175
237.4264, 2427.468
237.9085, 2385.142
238.3906, 2347.241
238.8727, 2314.670
239.3548, 2284.558
239.8370, 2255.667
240.3191, 2228.555
240.8012, 2205.056
241.2833, 2186.552
241.7654, 2171.796
242.2475, 2156.927
242.7297, 2142.824
243.2118, 2127.353
243.6939, 2108.468
244.1760, 2087.357
244.6581, 2067.571
245.1402, 2050.592
245.6224, 2035.852
246.1045, 2021.894
246.5866, 2008.824
247.0687, 1996.187
247.5508, 1983.794
248.0329, 1971.683
248.5151, 1959.471
248.9972, 1945.913
249.4793, 1933.663
249.9614, 1927.058
250.4435, 1926.987
250.9256, 1926.191
251.4078, 1919.100
251.8899, 1907.384
252.3720, 1898.324
252.8541, 1894.561
253.3362, 1893.291
253.8183, 1891.360
254.3005, 1888.773
254.7826, 1886.259
255.2647, 1883.338
255.7468, 1880.533
256.2289, 1880.967
256.7110, 1887.325
257.1931, 1894.287
257.6753, 1897.490
258.1574, 1897.324
258.6395, 1896.258
259.1216, 1895.463
259.6037, 1894.963
260.0858, 1894.924
260.5680, 1895.663
261.0501, 1896.496
261.5322, 1897.602
262.0143, 1898.588
262.4964, 1898.275
262.9785, 1896.037
263.4607, 1891.910
263.9428, 1885.850
264.4249, 1876.828
264.9070, 1867.261
265.3891, 1857.755
265.8712, 1848.634
266.3534, 1840.569
266.8355, 1834.007
267.3176, 1828.806
267.7997, 1824.508
268.2818, 1822.129
268.7639, 1819.051
269.2461, 1813.992
269.7282, 1807.813
270.2103, 1801.845
270.6924, 1796.946
271.1745, 1792.558
271.6566, 1786.776
272.1388, 1778.485
272.6209, 1770.726
273.1030, 1764.325
273.5851, 1758.776
274.0672, 1753.453
274.5493, 1747.973
275.0315, 1742.867
275.5136, 1739.922
275.9957, 1741.675
276.4778, 1740.651
276.9599, 1733.444
277.4420, 1724.442
277.9242, 1717.656
278.4063, 1714.480
278.8884, 1713.468
279.3705, 1712.179
279.8526, 1711.304
280.3347, 1708.535
280.8169, 1701.514
281.2990, 1694.232
281.7811, 1690.305
282.2632, 1690.354
282.7453, 1691.480
283.2274, 1688.801
283.7096, 1679.107
284.1917, 1673.795
284.6738, 1677.142
285.1559, 1681.204
285.6380, 1681.172
286.1201, 1676.639
286.6023, 1670.393
287.0844, 1665.359
287.5665, 1661.576
288.0486, 1659.068
288.5307, 1658.752
289.0128, 1658.759
289.4950, 1658.569
289.9771, 1657.981
290.4592, 1656.770
290.9413, 1654.575
291.4234, 1651.249
291.9055, 1648.905
292.3877, 1648.669
292.8698, 1648.273
293.3519, 1646.606
293.8340, 1644.195
294.3161, 1642.346
294.7982, 1642.092
295.2804, 1643.245
295.7625, 1643.371
296.2446, 1641.887
296.7267, 1639.937
297.2088, 1637.801
297.6909, 1635.317
298.1731, 1631.763
298.6552, 1626.623
299.1373, 1620.941
299.6194, 1618.817
300.1015, 1625.726
300.5836, 1629.664
301.0658, 1627.869
301.5479, 1623.386
302.0300, 1619.096
302.5121, 1616.193
302.9942, 1614.666
303.4763, 1614.578
303.9585, 1617.463
304.4406, 1619.534
304.9227, 1621.283
305.4048, 1621.959
305.8869, 1620.342
306.3690, 1616.425
306.8512, 1611.989
307.3333, 1609.632
307.8154, 1610.651
308.2975, 1610.341
308.7796, 1607.604
309.2617, 1604.658
309.7439, 1602.657
310.2260, 1601.760
310.7081, 1601.750
311.1902, 1602.600
311.6723, 1604.625
312.1544, 1605.148
312.6366, 1603.869
313.1187, 1601.649
313.6008, 1597.471
314.0829, 1592.518
314.5650, 1589.522
315.0471, 1590.741
315.5293, 1595.728
316.0114, 1598.559
316.4935, 1597.778
316.9756, 1596.472
317.4577, 1595.279
317.9398, 1593.941
318.4220, 1591.554
318.9041, 1587.563
319.3862, 1583.100
319.8683, 1581.832
320.3504, 1588.720
320.8326, 1592.609
321.3147, 1590.959
321.7968, 1587.087
322.2789, 1584.320
322.7610, 1583.729
323.2431, 1583.871
323.7253, 1582.080
324.2074, 1575.813
324.6895, 1572.763
325.1716, 1575.210
325.6537, 1578.690
326.1358, 1580.251
326.6180, 1579.535
327.1001, 1577.972
327.5822, 1577.090
328.0643, 1577.063
328.5464, 1576.833
329.0285, 1576.179
329.5107, 1575.559
329.9928, 1575.494
330.4749, 1575.660
330.9570, 1575.178
331.4391, 1573.289
331.9212, 1570.132
332.4034, 1567.768
332.8855, 1566.470
333.3676, 1565.726
333.8497, 1566.172
334.3318, 1566.948
334.8139, 1566.696
335.2961, 1564.709
335.7782, 1561.767
336.2603, 1560.307
336.7424, 1562.439
337.2245, 1562.861
337.7066, 1560.155
338.1888, 1556.320
338.6709, 1552.943
339.1530, 1550.507
339.6351, 1548.752
340.1172, 1547.080
340.5993, 1544.631
341.0815, 1544.610
341.5636, 1549.911
342.0457, 1554.903
342.5278, 1556.462
343.0099, 1554.607
343.4920, 1551.027
343.9742, 1546.667
344.4563, 1541.287
344.9384, 1539.579
345.4205, 1547.379
345.9026, 1553.275
346.3847, 1552.826
346.8669, 1548.445
347.3490, 1544.767
347.8311, 1544.721
348.3132, 1547.251
348.7953, 1548.109
349.2774, 1546.166
349.7596, 1544.209
350.2417, 1542.759
350.7238, 1541.550
351.2059, 1540.334
351.6880, 1539.020
352.1701, 1537.671
352.6523, 1536.318
353.1344, 1534.773
353.6165, 1533.807
354.0986, 1534.640
354.5807, 1535.181
355.0628, 1533.959
355.5450, 1531.029
356.0271, 1527.700
356.5092, 1524.901
356.9913, 1522.617
357.4734, 1521.719
357.9555, 1523.509
358.4377, 1525.319
358.9198, 1525.791
359.4019, 1525.474
359.8840, 1525.702
360.3661, 1527.739
360.8482, 1530.504
361.3304, 1530.289
361.8125, 1525.326
362.2946, 1521.305
362.7767, 1520.785
363.2588, 1521.856
363.7409, 1522.922
364.2231, 1523.649
364.7052, 1523.444
365.1873, 1520.854
365.6694, 1515.441
366.1515, 1511.633
366.6336, 1511.735
367.1158, 1512.778
367.5979, 1512.279
368.0800, 1510.267
368.5621, 1508.916
369.0442, 1510.442
369.5263, 1514.147
370.0085, 1516.800
370.4906, 1518.264
370.9727, 1518.367
371.4548, 1516.349
371.9369, 1512.996
372.4190, 1510.015
372.9012, 1508.183
373.3833, 1507.002
373.8654, 1505.674
374.3475, 1504.140
374.8296, 1503.059
375.3117, 1503.050
375.7939, 1503.586
376.2760, 1504.096
376.7581, 1504.927
377.2402, 1504.682
377.7223, 1501.388
378.2044, 1495.871
378.6866, 1491.783
379.1687, 1490.309
379.6508, 1490.290
380.1329, 1490.651
380.6150, 1491.396
381.0971, 1491.466
381.5793, 1489.768
382.0614, 1487.495
382.5435, 1486.412
383.0256, 1486.745
383.5077, 1487.545
383.9898, 1488.500
384.4720, 1489.336
384.9541, 1488.714
385.4362, 1484.413
385.9183, 1480.631
386.4004, 1480.386
386.8825, 1482.911
387.3647, 1485.636
387.8468, 1487.500
388.3289, 1488.580
388.8110, 1488.932
389.2931, 1488.351
389.7752, 1487.682
390.2574, 1486.254
390.7395, 1485.197
391.2216, 1486.642
391.7037, 1490.911
392.1858, 1495.057
392.6679, 1495.472
393.1501, 1491.159
393.6322, 1487.900
394.1143, 1485.334
394.5964, 1484.014
395.0785, 1484.431
395.5606, 1486.401
396.0428, 1489.607
396.5249, 1494.060
397.0070, 1499.283
397.4891, 1502.819
397.9712, 1503.702
398.4533, 1503.958
398.9355, 1502.888
399.4176, 1501.707
399.8997, 1501.892
400.3818, 1503.834
400.8639, 1506.508
401.3460, 1508.463
401.8282, 1509.750
402.3103, 1510.073
402.7924, 1507.934
403.2745, 1506.299
403.7566, 1507.193
404.2387, 1510.008
404.7209, 1512.579
405.2030, 1513.120
405.6851, 1512.008
406.1672, 1512.200
406.6493, 1515.061
407.1314, 1517.277
407.6136, 1518.115
408.0957, 1517.977
408.5778, 1517.336
409.0599, 1516.363
409.5420, 1514.837
410.0241, 1512.253
410.5063, 1508.413
410.9884, 1504.638
411.4705, 1500.575
411.9526, 1497.143
412.4347, 1495.306
412.9168, 1494.770
413.3990, 1494.102
413.8811, 1492.719
414.3632, 1490.466
414.8453, 1486.237
415.3274, 1478.821
415.8095, 1472.446
416.2917, 1470.559
416.7738, 1470.746
417.2559, 1469.927
417.7380, 1467.215
418.2201, 1463.623
418.7022, 1459.461
419.1844, 1454.917
419.6665, 1452.172
420.1486, 1453.182
420.6307, 1454.498
421.1128, 1450.999
421.5949, 1442.695
422.0771, 1435.892
422.5592, 1434.423
423.0413, 1435.061
423.5234, 1433.013
424.0055, 1427.773
424.4876, 1422.527
424.9698, 1419.446
425.4519, 1418.502
425.9340, 1418.444
426.4161, 1421.024
426.8982, 1422.618
427.3803, 1420.822
427.8625, 1416.923
428.3446, 1413.584
428.8267, 1411.794
429.3088, 1410.938
429.7909, 1409.989
430.2730, 1408.833
430.7552, 1407.869
431.2373, 1407.693
431.7194, 1407.277
432.2015, 1406.180
432.6836, 1404.201
433.1657, 1400.670
433.6479, 1394.656
434.1300, 1386.584
434.6121, 1382.106
435.0942, 1385.121
435.5763, 1387.313
436.0584, 1386.677
436.5406, 1384.840
437.0227, 1384.076
437.5048, 1385.082
437.9869, 1386.181
438.4690, 1384.329
438.9511, 1378.013
439.4333, 1373.677
439.9154, 1372.643
440.3975, 1372.531
440.8796, 1372.801
441.3617, 1373.163
441.8438, 1373.282
442.3260, 1373.144
442.8081, 1372.465
443.2902, 1369.849
443.7723, 1363.965
444.2544, 1359.484
444.7365, 1358.947
445.2187, 1360.038
445.7008, 1360.828
446.1829, 1360.918
446.6650, 1361.046
447.1471, 1362.536
447.6292, 1364.874
448.1114, 1365.093
448.5935, 1362.350
449.0756, 1358.186
449.5577, 1352.563
450.0398, 1346.344
450.5219, 1342.437
451.0041, 1343.250
451.4862, 1345.537
451.9683, 1346.293
452.4504, 1345.691
452.9325, 1344.966
453.4146, 1344.717
453.8968, 1344.615
454.3789, 1343.908
454.8610, 1342.530
455.3431, 1340.985
455.8252, 1338.998
456.3073, 1337.121
456.7895, 1335.972
457.2716, 1335.623
457.7537, 1335.764
458.2358, 1336.260
458.7179, 1337.117
459.2000, 1337.101
459.6822, 1336.665
460.1643, 1335.012
460.6464, 1330.375
461.1285, 1324.882
461.6106, 1321.607
462.0927, 1321.664
462.5748, 1323.631
463.0569, 1325.380
463.5391, 1327.385
464.0212, 1327.783
464.5033, 1325.286
464.9854, 1322.488
465.4675, 1320.203
465.9496, 1318.619
466.4318, 1317.929
466.9139, 1318.494
467.3960, 1319.750
467.8781, 1319.945
468.3602, 1318.921
468.8423, 1317.239
469.3245, 1313.743
469.8066, 1310.470
470.2887, 1309.395
470.7708, 1310.755
471.2529, 1312.485
471.7350, 1313.157
472.2172, 1312.916
472.6993, 1312.262
473.1814, 1311.215
473.6635, 1309.803
474.1456, 1307.425
474.6277, 1304.729
475.1099, 1303.334
475.5920, 1304.396
476.0741, 1305.647
476.5562, 1305.650
477.0383, 1304.585
477.5204, 1302.690
478.0026, 1299.812
478.4847, 1297.074
478.9668, 1296.367
479.4489, 1298.364
479.9310, 1299.034
480.4131, 1297.029
480.8953, 1294.604
481.3774, 1293.348
481.8595, 1293.052
482.3416, 1292.701
482.8237, 1291.703
483.3058, 1290.190
483.7880, 1288.558
484.2701, 1286.215
484.7522, 1284.663
485.2343, 1285.078
485.7164, 1285.458
486.1985, 1283.558
486.6807, 1279.658
487.1628, 1276.484
487.6449, 1276.802
488.1270, 1280.288
488.6091, 1282.286
489.0912, 1282.229
489.5734, 1281.498
490.0555, 1280.141
490.5376, 1278.617
491.0197, 1277.632
491.5018, 1277.430
491.9839, 1276.968
492.4661, 1274.548
492.9482, 1270.525
493.4303, 1268.319
493.9124, 1269.043
494.3945, 1270.408
494.8766, 1270.766
495.3588, 1270.328
495.8409, 1269.533
496.3230, 1268.493
496.8051, 1267.119
497.2872, 1264.987
497.7693, 1262.384
498.2515, 1260.391
498.7336, 1259.450
499.2157, 1259.213
499.6978, 1259.257
500.1799, 1259.793
500.6620, 1259.794
501.1442, 1259.020
501.6263, 1257.854
502.1084, 1256.051
502.5905, 1254.038
503.0726, 1253.180
503.5547, 1254.493
504.0369, 1256.976
504.5190, 1257.062
505.0011, 1252.514
505.4832, 1249.048
505.9653, 1246.877
506.4474, 1245.823
506.9296, 1246.384
507.4117, 1248.131
507.8938, 1249.467
508.3759, 1248.916
508.8580, 1246.823
509.3401, 1245.203
509.8223, 1243.998
510.3044, 1243.376
510.7865, 1244.014
511.2686, 1244.919
511.7507, 1245.165
512.2328, 1244.579
512.7150, 1243.491
513.1971, 1241.660
513.6792, 1239.531
514.1613, 1238.487
514.6434, 1238.843
515.1255, 1239.668
515.6077, 1240.869
516.0898, 1241.973
516.5719, 1241.194
517.0540, 1236.766
517.5361, 1232.519
518.0182, 1229.799
518.5004, 1228.499
518.9825, 1228.948
519.4646, 1231.188
519.9467, 1233.516
520.4288, 1233.761
520.9109, 1231.447
521.3931, 1230.243
521.8752, 1231.678
522.3573, 1232.348
522.8394, 1229.877
523.3215, 1226.226
523.8036, 1224.734
524.2858, 1226.693
524.7679, 1229.820
525.2500, 1230.182
525.7321, 1227.060
526.2142, 1224.800
526.6964, 1224.203
527.1785, 1223.937
527.6606, 1223.485
528.1427, 1222.870
528.6248, 1222.217
529.1069, 1221.628
529.5891, 1220.932
530.0712, 1219.547
530.5533, 1217.567
531.0354, 1216.786
531.5175, 1218.232
531.9996, 1220.221
532.4818, 1220.844
532.9639, 1220.215
533.4460, 1218.853
533.9281, 1215.447
534.4102, 1212.529
534.8923, 1213.110
535.3745, 1216.036
535.8566, 1217.032
536.3387, 1213.900
536.8208, 1208.865
537.3029, 1206.609
537.7850, 1209.320
538.2672, 1210.287
538.7493, 1208.153
539.2314, 1205.656
539.7135, 1203.896
540.1956, 1203.104
540.6777, 1203.518
541.1599, 1205.444
541.6420, 1208.046
542.1241, 1209.218
542.6062, 1208.765
543.0883, 1207.515
543.5704, 1205.477
544.0526, 1202.739
544.5347, 1198.773
545.0168, 1193.934
545.4989, 1189.898
545.9810, 1188.156
546.4631, 1187.357
546.9453, 1184.810
547.4274, 1180.599
547.9095, 1178.405
548.3916, 1180.719
548.8737, 1184.606
549.3558, 1184.510
549.8380, 1179.944
550.3201, 1175.945
550.8022, 1173.535
551.2843, 1171.987
551.7664, 1171.066
552.2485, 1170.517
552.7307, 1169.598
553.2128, 1167.796
553.6949, 1165.710
554.1770, 1165.185
554.6591, 1168.419
555.1412, 1169.213
555.6234, 1165.789
556.1055, 1161.662
556.5876, 1158.404
557.0697, 1156.293
557.5518, 1155.448
558.0339, 1156.252
558.5161, 1157.841
558.9982, 1158.188
559.4803, 1157.146
559.9624, 1155.731
560.4445, 1153.895
560.9266, 1152.097
561.4088, 1150.835
561.8909, 1150.068
562.3730, 1149.243
562.8551, 1148.516
563.3372, 1147.385
563.8193, 1144.777
564.3015, 1141.078
564.7836, 1138.298
565.2657, 1137.380
565.7478, 1137.673
566.2299, 1138.110
566.7120, 1139.196
567.1942, 1139.023
567.6763, 1136.152
568.1584, 1133.357
568.6405, 1132.332
569.1226, 1132.656
569.6047, 1133.141
570.0869, 1133.178
570.5690, 1132.888
571.0511, 1132.654
571.5332, 1132.750
572.0153, 1131.777
572.4974, 1128.216
572.9796, 1124.946
573.4617, 1123.806
573.9438, 1124.162
574.4259, 1124.308
574.9080, 1123.688
575.3901, 1122.391
575.8723, 1119.769
576.3544, 1116.280
576.8365, 1114.847
577.3186, 1116.805
577.8007, 1119.449
578.2828, 1119.617
578.7650, 1117.137
579.2471, 1115.211
579.7292, 1114.192
580.2113, 1113.449
580.6934, 1113.044
581.1755, 1112.603
581.6577, 1111.321
582.1398, 1108.998
582.6219, 1106.575
583.1040, 1105.498
583.5861, 1106.072
584.0682, 1105.541
584.5504, 1102.517
585.0325, 1100.050
585.5146, 1099.508
585.9967, 1099.850
586.4788, 1099.601
586.9609, 1098.310
587.4431, 1097.163
587.9252, 1097.778
588.4073, 1099.541
588.8894, 1099.862
589.3715, 1098.214
