##NAMES=Hydroxylherderite
##RRUFFID=R060353
##IDEAL CHEMISTRY=CaBe(P^5+^O_4_)(OH)
##LOCALITY=Shigar Valley, northeast of Skardu, Baltistan, Pakistan
##OWNER=RRUFF
##SOURCE=Herb Obodda
##DESCRIPTION=Colorless equant crystal
##STATUS=The identification of this mineral has been confirmed by X-ray diffraction and chemical analysis
##URL=rruff.info/R060353
##MEASURED CHEMISTRY=(Ca_0.99_Mn_0.01_)_Σ=1_Be_1.00_P_1.00_O_4_((OH)_0.52_F_0.48_)_Σ=1_; trace amounts of Na; Be not measured but assumed by stoichiometry; OH estimated by charge balance
90.49219, 25.85876
90.97430, 26.07403
91.45642, 26.15144
91.93854, 25.93938
92.42065, 25.63379
92.90277, 25.55451
93.38489, 25.75571
93.86700, 26.02305
94.34912, 26.05543
94.83124, 25.89561
95.31335, 25.78901
95.79547, 25.87383
96.27759, 26.13268
96.75970, 26.59011
97.24182, 27.42654
97.72394, 28.24277
98.20605, 27.96882
98.68817, 26.47915
99.17029, 24.90141
99.65240, 24.02098
100.1345, 23.85173
100.6166, 24.24870
101.0988, 25.45967
101.5809, 27.30699
102.0630, 28.29753
102.5451, 28.28454
103.0272, 27.69303
103.5093, 26.85526
103.9915, 25.54519
104.4736, 24.60240
104.9557, 24.35352
105.4378, 24.95884
105.9199, 25.35832
106.4020, 25.48952
106.8842, 25.44794
107.3663, 25.40807
107.8484, 25.47638
108.3305, 25.42153
108.8126, 25.11582
109.2947, 24.06105
109.7769, 23.58616
110.2590, 24.11431
110.7411, 25.29789
111.2232, 26.04232
111.7053, 26.00686
112.1874, 25.75676
112.6696, 25.54447
113.1517, 25.37607
113.6338, 25.26566
114.1159, 25.26791
114.5980, 25.35953
115.0801, 25.37265
115.5623, 25.15204
116.0444, 24.89355
116.5265, 24.74913
117.0086, 24.84217
117.4907, 24.98094
117.9728, 25.08820
118.4550, 25.15970
118.9371, 25.26258
119.4192, 25.71579
119.9013, 26.15521
120.3834, 26.10788
120.8655, 24.55327
121.3477, 22.96541
121.8298, 22.51308
122.3119, 23.42814
122.7940, 24.66722
123.2761, 25.81222
123.7582, 26.75563
124.2404, 27.25809
124.7225, 26.62260
125.2046, 25.67074
125.6867, 25.46237
126.1688, 26.27129
126.6509, 27.54340
127.1331, 28.77560
127.6152, 29.97975
128.0973, 31.21475
128.5794, 32.45127
129.0615, 33.74656
129.5436, 35.21849
130.0258, 36.85078
130.5079, 38.71902
130.9900, 40.90511
131.4721, 43.39034
131.9542, 46.42063
132.4363, 50.29806
132.9185, 54.95917
133.4006, 59.97448
133.8827, 65.31338
134.3648, 70.86967
134.8469, 76.44477
135.3290, 81.89977
135.8112, 88.01379
136.2933, 95.58662
136.7754, 104.6775
137.2575, 114.7394
137.7396, 125.6717
138.2217, 137.2915
138.7039, 150.0123
139.1860, 163.9931
139.6681, 178.8638
140.1502, 194.4787
140.6323, 210.8157
141.1144, 227.4570
141.5966, 244.4200
142.0787, 261.7950
142.5608, 278.7883
143.0429, 295.6827
143.5250, 312.0066
144.0071, 326.3948
144.4893, 337.8607
144.9714, 348.7893
145.4535, 360.0184
145.9356, 371.5731
146.4177, 383.6207
146.8998, 396.3038
147.3820, 409.5257
147.8641, 423.3789
148.3462, 436.8226
148.8283, 451.6970
149.3104, 469.1885
149.7925, 490.3758
150.2747, 512.6843
150.7568, 535.6198
151.2389, 559.2125
151.7210, 584.0273
152.2031, 609.6605
152.6852, 636.4828
153.1674, 665.0234
153.6495, 699.0355
154.1316, 730.6114
154.6137, 757.9181
155.0958, 780.8652
155.5779, 803.7167
156.0601, 828.8545
156.5422, 853.3192
157.0243, 874.2731
157.5064, 888.6476
157.9885, 901.8649
158.4706, 915.2497
158.9528, 928.9070
159.4349, 942.5372
159.9170, 955.1285
160.3991, 967.9277
160.8812, 982.3766
161.3633, 997.7067
161.8455, 1015.721
162.3276, 1037.689
162.8097, 1063.876
163.2918, 1091.772
163.7739, 1120.390
164.2560, 1148.634
164.7382, 1169.413
165.2203, 1190.353
165.7024, 1211.130
166.1845, 1230.400
166.6666, 1248.568
167.1487, 1263.823
167.6309, 1278.638
168.1130, 1290.314
168.5951, 1292.789
169.0772, 1281.439
169.5593, 1261.124
170.0414, 1234.673
170.5236, 1199.934
171.0057, 1165.339
171.4878, 1135.071
171.9699, 1109.061
172.4520, 1087.872
172.9341, 1072.948
173.4163, 1062.177
173.8984, 1052.992
174.3805, 1044.235
174.8626, 1037.743
175.3447, 1035.738
175.8268, 1037.614
176.3090, 1040.699
176.7911, 1043.020
177.2732, 1045.337
177.7553, 1049.045
178.2374, 1055.341
178.7195, 1062.215
179.2017, 1066.976
179.6838, 1069.826
180.1659, 1072.224
180.6480, 1075.574
181.1301, 1079.357
181.6122, 1082.600
182.0944, 1086.009
182.5765, 1088.028
183.0586, 1084.976
183.5407, 1076.973
184.0228, 1068.231
184.5049, 1062.072
184.9871, 1058.215
185.4692, 1055.880
185.9513, 1054.454
186.4334, 1054.458
186.9155, 1057.753
187.3976, 1064.524
187.8798, 1072.228
188.3619, 1077.402
188.8440, 1080.730
189.3261, 1086.370
189.8082, 1096.806
190.2903, 1110.642
190.7725, 1122.863
191.2546, 1133.415
191.7367, 1143.476
192.2188, 1154.920
192.7009, 1167.732
193.1830, 1179.714
193.6652, 1190.393
194.1473, 1199.741
194.6294, 1207.638
195.1115, 1214.749
195.5936, 1218.316
196.0757, 1214.588
196.5579, 1203.516
197.0400, 1187.543
197.5221, 1165.641
198.0042, 1138.454
198.4863, 1114.002
198.9684, 1092.352
199.4506, 1073.547
199.9327, 1058.453
200.4148, 1047.243
200.8969, 1037.310
201.3790, 1026.998
201.8611, 1016.229
202.3433, 1008.945
202.8254, 1005.856
203.3075, 1005.055
203.7896, 1003.435
204.2717, 1000.800
204.7538, 998.2207
205.2360, 996.2209
205.7181, 994.8779
206.2002, 993.1848
206.6823, 990.8556
207.1644, 988.5081
207.6465, 987.4514
208.1287, 988.0295
208.6108, 988.7411
209.0929, 988.8660
209.5750, 988.2403
210.0571, 988.0420
210.5392, 988.4153
211.0214, 989.1293
211.5035, 989.7398
211.9856, 990.2949
212.4677, 990.6644
212.9498, 990.5438
213.4319, 989.5228
213.9140, 989.8253
214.3962, 991.7604
214.8783, 994.8396
215.3604, 998.0251
215.8425, 1001.542
216.3246, 1004.680
216.8067, 1007.199
217.2889, 1009.115
217.7710, 1010.015
218.2531, 1009.088
218.7352, 1007.521
219.2173, 1008.280
219.6994, 1012.095
220.1816, 1016.835
220.6637, 1022.033
221.1458, 1028.729
221.6279, 1032.724
222.1100, 1032.921
222.5921, 1030.840
223.0743, 1030.762
223.5564, 1034.351
224.0385, 1037.073
224.5206, 1036.525
225.0027, 1031.198
225.4848, 1026.750
225.9670, 1023.522
226.4491, 1021.190
226.9312, 1018.894
227.4133, 1016.768
227.8954, 1014.475
228.3775, 1011.664
228.8597, 1007.271
229.3418, 1004.906
229.8239, 1005.397
230.3060, 1007.678
230.7881, 1008.749
231.2702, 1007.869
231.7524, 1006.850
232.2345, 1006.509
232.7166, 1007.088
233.1987, 1007.748
233.6808, 1008.645
234.1629, 1009.577
234.6451, 1009.901
235.1272, 1008.929
235.6093, 1008.416
236.0914, 1009.300
236.5735, 1012.569
237.0556, 1015.067
237.5378, 1016.714
238.0199, 1017.663
238.5020, 1018.158
238.9841, 1017.713
239.4662, 1017.583
239.9483, 1018.407
240.4305, 1020.781
240.9126, 1022.657
241.3947, 1023.833
241.8768, 1024.555
242.3589, 1025.315
242.8410, 1025.552
243.3232, 1026.633
243.8053, 1029.331
244.2874, 1034.730
244.7695, 1039.094
245.2516, 1042.228
245.7337, 1044.434
246.2159, 1046.347
246.6980, 1047.868
247.1801, 1049.272
247.6622, 1050.578
248.1443, 1051.491
248.6264, 1053.242
249.1086, 1056.210
249.5907, 1059.856
250.0728, 1062.945
250.5549, 1064.773
251.0370, 1067.232
251.5191, 1071.208
252.0013, 1077.227
252.4834, 1082.912
252.9655, 1088.411
253.4476, 1093.412
253.9297, 1097.596
254.4118, 1101.938
254.8940, 1103.510
255.3761, 1100.512
255.8582, 1091.210
256.3403, 1084.288
256.8224, 1080.497
257.3046, 1078.509
257.7867, 1076.164
258.2688, 1073.047
258.7509, 1070.475
259.2330, 1069.207
259.7151, 1069.679
260.1973, 1068.832
260.6794, 1066.207
261.1615, 1062.766
261.6436, 1059.920
262.1257, 1057.750
262.6078, 1055.906
263.0900, 1054.114
263.5721, 1052.221
264.0542, 1051.770
264.5363, 1053.103
265.0184, 1055.430
265.5005, 1057.996
265.9827, 1061.067
266.4648, 1063.490
266.9469, 1064.856
267.4290, 1065.143
267.9111, 1064.943
268.3932, 1063.899
268.8754, 1062.911
269.3575, 1063.270
269.8396, 1065.545
270.3217, 1067.050
270.8038, 1066.815
271.2859, 1064.977
271.7681, 1064.227
272.2502, 1064.802
272.7323, 1065.985
273.2144, 1067.137
273.6965, 1068.308
274.1786, 1069.237
274.6608, 1069.876
275.1429, 1070.234
275.6250, 1070.344
276.1071, 1070.166
276.5892, 1069.869
277.0714, 1069.421
277.5535, 1068.730
278.0356, 1068.778
278.5177, 1069.874
278.9998, 1071.825
279.4819, 1073.859
279.9641, 1076.010
280.4462, 1078.242
280.9283, 1080.680
281.4104, 1083.330
281.8925, 1085.579
282.3746, 1087.328
282.8568, 1088.625
283.3389, 1089.234
283.8210, 1088.976
284.3031, 1089.351
284.7852, 1091.952
285.2673, 1096.581
285.7495, 1100.084
286.2316, 1101.683
286.7137, 1102.484
287.1958, 1105.051
287.6779, 1109.430
288.1600, 1113.703
288.6422, 1116.450
289.1243, 1117.917
289.6064, 1119.713
290.0885, 1121.989
290.5706, 1124.648
291.0527, 1127.723
291.5349, 1131.187
292.0170, 1134.517
292.4991, 1137.536
292.9812, 1140.224
293.4633, 1142.074
293.9454, 1142.847
294.4276, 1143.790
294.9097, 1146.986
295.3918, 1152.026
295.8739, 1156.706
296.3560, 1160.074
296.8381, 1162.284
297.3203, 1163.355
297.8024, 1163.191
298.2845, 1162.690
298.7666, 1162.592
299.2487, 1162.884
299.7308, 1163.556
300.2130, 1165.279
300.6951, 1167.125
301.1772, 1167.402
301.6593, 1166.123
302.1414, 1164.478
302.6235, 1163.508
303.1057, 1162.943
303.5878, 1162.269
304.0699, 1161.500
304.5520, 1160.402
305.0341, 1158.043
305.5162, 1154.675
305.9984, 1152.381
306.4805, 1154.131
306.9626, 1157.515
307.4447, 1159.074
307.9268, 1157.203
308.4089, 1154.104
308.8911, 1150.995
309.3732, 1148.063
309.8553, 1146.112
310.3374, 1146.379
310.8195, 1147.495
311.3016, 1147.995
311.7838, 1147.159
312.2659, 1146.564
312.7480, 1148.143
313.2301, 1150.858
313.7122, 1152.156
314.1943, 1148.246
314.6765, 1144.190
315.1586, 1143.973
315.6407, 1149.123
316.1228, 1154.706
316.6049, 1158.798
317.0870, 1161.719
317.5692, 1163.938
318.0513, 1164.411
318.5334, 1165.214
319.0155, 1167.664
319.4976, 1172.161
319.9797, 1176.138
320.4619, 1177.792
320.9440, 1178.799
321.4261, 1181.010
321.9082, 1186.309
322.3903, 1191.483
322.8724, 1195.421
323.3546, 1198.068
323.8367, 1200.818
324.3188, 1204.396
324.8009, 1207.971
325.2830, 1210.877
325.7651, 1211.787
326.2473, 1213.495
326.7294, 1217.265
327.2115, 1222.695
327.6936, 1226.478
328.1757, 1225.705
328.6578, 1225.218
329.1400, 1227.452
329.6221, 1235.422
330.1042, 1241.974
330.5863, 1246.291
331.0684, 1249.141
331.5505, 1252.684
332.0327, 1257.049
332.5148, 1261.945
332.9969, 1267.485
333.4790, 1274.198
333.9611, 1279.707
334.4432, 1283.587
334.9254, 1286.506
335.4075, 1289.873
335.8896, 1295.095
336.3717, 1297.963
336.8538, 1296.715
337.3359, 1290.943
337.8180, 1285.428
338.3001, 1280.336
338.7823, 1275.288
339.2644, 1270.068
339.7465, 1264.778
340.2286, 1258.634
340.7107, 1250.921
341.1928, 1242.037
341.6750, 1235.852
342.1571, 1232.775
342.6392, 1230.486
343.1213, 1226.943
343.6034, 1222.146
344.0855, 1217.559
344.5677, 1213.470
345.0498, 1209.706
345.5319, 1205.811
346.0140, 1201.764
346.4961, 1198.251
346.9782, 1196.163
347.4604, 1195.133
347.9425, 1193.290
348.4246, 1190.250
348.9067, 1187.003
349.3888, 1184.862
349.8709, 1183.757
350.3531, 1183.247
350.8352, 1183.581
351.3173, 1184.270
351.7994, 1184.401
352.2815, 1183.941
352.7636, 1182.976
353.2458, 1181.070
353.7279, 1178.717
354.2100, 1177.004
354.6921, 1176.726
355.1742, 1177.002
355.6563, 1176.907
356.1385, 1176.469
356.6206, 1176.057
357.1027, 1176.069
357.5848, 1176.185
358.0669, 1176.070
358.5490, 1175.826
359.0312, 1175.029
359.5133, 1172.764
359.9954, 1169.584
360.4775, 1167.188
360.9596, 1166.049
361.4417, 1166.190
361.9239, 1168.007
362.4060, 1172.399
362.8881, 1175.965
363.3702, 1177.181
363.8523, 1176.816
364.3344, 1176.045
364.8166, 1174.469
365.2987, 1173.195
365.7808, 1172.690
366.2629, 1173.017
366.7450, 1173.719
367.2271, 1175.458
367.7093, 1177.205
368.1914, 1178.053
368.6735, 1176.783
369.1556, 1175.900
369.6377, 1175.735
370.1198, 1176.252
370.6020, 1177.238
371.0841, 1179.467
371.5662, 1181.456
372.0483, 1182.343
372.5304, 1181.406
373.0125, 1180.715
373.4947, 1180.281
373.9768, 1180.124
374.4589, 1180.312
374.9410, 1180.936
375.4231, 1181.721
375.9052, 1182.626
376.3874, 1183.698
376.8695, 1184.471
377.3516, 1184.723
377.8337, 1185.067
378.3158, 1186.473
378.7979, 1189.124
379.2801, 1191.521
379.7622, 1193.295
380.2443, 1194.499
380.7264, 1195.558
381.2085, 1196.526
381.6906, 1196.864
382.1728, 1195.402
382.6549, 1192.561
383.1370, 1191.235
383.6191, 1192.157
384.1012, 1194.328
384.5833, 1196.381
385.0655, 1198.300
385.5476, 1199.959
386.0297, 1200.922
386.5118, 1201.692
386.9939, 1203.686
387.4760, 1207.291
387.9582, 1210.144
388.4403, 1208.791
388.9224, 1205.082
389.4045, 1202.865
389.8866, 1205.150
390.3687, 1208.599
390.8509, 1210.209
391.3330, 1210.117
391.8151, 1210.232
392.2972, 1212.416
392.7793, 1214.999
393.2614, 1216.272
393.7436, 1214.551
394.2257, 1213.205
394.7078, 1214.244
395.1899, 1216.805
395.6720, 1218.624
396.1541, 1218.067
396.6363, 1217.355
397.1184, 1217.644
397.6005, 1219.474
398.0826, 1221.017
398.5647, 1221.240
399.0468, 1221.300
399.5290, 1222.597
400.0111, 1227.592
400.4932, 1231.260
400.9753, 1232.026
401.4574, 1229.905
401.9395, 1229.438
402.4217, 1231.256
402.9038, 1234.030
403.3859, 1236.983
403.8680, 1240.346
404.3501, 1243.263
404.8322, 1245.372
405.3144, 1247.118
405.7965, 1249.796
406.2786, 1253.784
406.7607, 1257.479
407.2428, 1259.885
407.7249, 1260.943
408.2071, 1262.947
408.6892, 1266.008
409.1713, 1269.691
409.6534, 1273.821
410.1355, 1278.325
410.6176, 1282.023
411.0998, 1284.096
411.5819, 1285.480
412.0640, 1288.422
412.5461, 1292.867
413.0282, 1298.130
413.5103, 1304.342
413.9925, 1310.848
414.4746, 1316.178
414.9567, 1319.802
415.4388, 1323.100
415.9209, 1327.622
416.4030, 1332.975
416.8852, 1338.317
417.3673, 1342.475
417.8494, 1346.858
418.3315, 1352.870
418.8136, 1360.550
419.2957, 1368.641
419.7779, 1376.610
420.2600, 1384.516
420.7421, 1392.290
421.2242, 1399.581
421.7063, 1407.189
422.1884, 1415.521
422.6706, 1424.453
423.1527, 1433.813
423.6348, 1444.550
424.1169, 1454.817
424.5990, 1463.994
425.0811, 1472.232
425.5633, 1478.777
426.0454, 1484.120
426.5275, 1487.596
427.0096, 1488.341
427.4917, 1485.797
427.9738, 1481.302
428.4560, 1474.813
428.9381, 1466.341
429.4202, 1457.440
429.9023, 1448.119
430.3844, 1438.525
430.8665, 1428.449
431.3487, 1417.466
431.8308, 1408.375
432.3129, 1401.148
432.7950, 1396.241
433.2771, 1395.538
433.7592, 1399.180
434.2414, 1403.307
434.7235, 1405.447
435.2056, 1406.513
435.6877, 1410.700
436.1698, 1418.167
436.6519, 1426.381
437.1341, 1432.771
437.6162, 1437.825
438.0983, 1442.917
438.5804, 1448.216
439.0625, 1454.002
439.5446, 1460.531
440.0268, 1467.812
440.5089, 1475.863
440.9910, 1484.333
441.4731, 1493.798
441.9552, 1505.195
442.4373, 1518.808
442.9195, 1532.762
443.4016, 1545.988
443.8837, 1559.045
444.3658, 1572.608
444.8479, 1587.017
445.3300, 1601.833
445.8122, 1618.092
446.2943, 1635.246
446.7764, 1649.861
447.2585, 1661.925
447.7406, 1670.932
448.2227, 1676.669
448.7049, 1679.474
449.1870, 1678.435
449.6691, 1673.866
450.1512, 1665.282
450.6333, 1651.630
451.1154, 1630.918
451.5976, 1609.135
452.0797, 1587.887
452.5618, 1567.035
453.0439, 1545.369
453.5260, 1522.765
454.0081, 1501.003
454.4903, 1481.305
454.9724, 1463.833
455.4545, 1448.834
455.9366, 1436.844
456.4187, 1426.601
456.9008, 1415.871
457.3830, 1404.799
457.8651, 1395.646
458.3472, 1390.191
458.8293, 1386.976
459.3114, 1383.311
459.7935, 1379.208
460.2757, 1375.245
460.7578, 1371.370
461.2399, 1368.124
461.7220, 1366.463
462.2041, 1367.604
462.6862, 1368.671
463.1684, 1367.219
463.6505, 1364.240
464.1326, 1362.065
464.6147, 1362.712
465.0968, 1363.483
465.5789, 1362.542
466.0611, 1359.352
466.5432, 1357.648
467.0253, 1359.635
467.5074, 1362.628
467.9895, 1364.379
468.4716, 1364.159
468.9538, 1363.438
469.4359, 1361.905
469.9180, 1359.959
470.4001, 1358.904
470.8822, 1359.098
471.3643, 1359.620
471.8465, 1360.262
472.3286, 1361.111
472.8107, 1361.213
473.2928, 1360.297
473.7749, 1359.364
474.2570, 1359.970
474.7392, 1362.107
475.2213, 1363.047
475.7034, 1361.861
476.1855, 1359.562
476.6676, 1357.720
477.1497, 1356.414
477.6319, 1356.452
478.1140, 1359.537
478.5961, 1363.866
479.0782, 1366.262
479.5603, 1366.405
480.0424, 1366.012
480.5246, 1366.141
481.0067, 1366.687
481.4888, 1367.502
481.9709, 1368.552
482.4530, 1369.834
482.9352, 1371.759
483.4173, 1373.986
483.8994, 1375.446
484.3815, 1374.449
484.8636, 1373.691
485.3457, 1374.858
485.8279, 1378.966
486.3100, 1381.571
486.7921, 1380.918
487.2742, 1379.360
487.7563, 1379.029
488.2384, 1381.273
488.7206, 1382.324
489.2027, 1380.976
489.6848, 1378.267
490.1669, 1378.214
490.6490, 1381.650
491.1311, 1385.245
491.6133, 1387.331
492.0954, 1387.953
492.5775, 1388.646
493.0596, 1389.352
493.5417, 1390.407
494.0238, 1392.405
494.5060, 1395.150
494.9881, 1397.677
495.4702, 1399.635
495.9523, 1401.400
496.4344, 1403.148
496.9165, 1405.040
497.3987, 1407.674
497.8808, 1412.450
498.3629, 1417.507
498.8450, 1420.719
499.3271, 1421.861
499.8092, 1423.302
500.2914, 1425.996
500.7735, 1429.732
501.2556, 1434.378
501.7377, 1439.598
502.2198, 1445.997
502.7019, 1455.414
503.1841, 1466.226
503.6662, 1474.063
504.1483, 1474.590
504.6304, 1476.519
505.1125, 1482.967
505.5946, 1494.473
506.0768, 1503.325
506.5589, 1507.791
507.0410, 1512.120
507.5231, 1520.058
508.0052, 1532.151
508.4873, 1544.135
508.9695, 1555.291
509.4516, 1566.217
509.9337, 1577.373
510.4158, 1588.843
510.8979, 1602.223
511.3800, 1618.927
511.8622, 1637.895
512.3443, 1656.643
512.8264, 1675.102
513.3085, 1695.168
513.7906, 1718.484
514.2728, 1744.125
514.7549, 1771.002
515.2370, 1799.038
515.7191, 1827.882
516.2012, 1859.131
516.6833, 1890.569
517.1655, 1919.323
517.6476, 1947.025
518.1297, 1969.337
518.6118, 1986.834
519.0939, 1998.886
519.5760, 1998.991
520.0582, 1985.231
520.5403, 1959.943
521.0224, 1923.045
521.5045, 1870.305
521.9866, 1817.030
522.4688, 1760.373
522.9509, 1706.271
523.4330, 1661.225
523.9151, 1625.771
524.3972, 1596.496
524.8793, 1573.606
525.3615, 1556.017
525.8436, 1540.914
526.3257, 1528.247
526.8078, 1518.083
527.2899, 1511.161
527.7720, 1506.525
528.2542, 1502.143
528.7363, 1497.945
529.2184, 1494.277
529.7005, 1491.112
530.1826, 1488.816
530.6647, 1488.029
531.1469, 1489.663
531.6290, 1491.634
532.1111, 1492.928
532.5932, 1493.710
533.0753, 1494.312
533.5574, 1494.793
534.0396, 1495.139
534.5217, 1495.111
535.0038, 1494.646
535.4859, 1494.993
535.9680, 1496.867
536.4501, 1498.847
536.9323, 1500.136
537.4144, 1500.634
537.8965, 1500.668
538.3786, 1500.038
538.8607, 1499.240
539.3428, 1498.877
539.8250, 1498.925
540.3071, 1499.922
540.7892, 1502.339
541.2713, 1505.560
541.7534, 1507.719
542.2355, 1508.965
542.7177, 1510.786
543.1998, 1515.099
543.6819, 1520.271
544.1640, 1523.708
544.6461, 1525.189
545.1282, 1525.878
545.6104, 1525.409
546.0925, 1525.052
546.5746, 1526.337
547.0567, 1531.392
547.5388, 1535.734
548.0209, 1536.918
548.5031, 1536.329
548.9852, 1537.057
549.4673, 1541.182
549.9494, 1544.945
550.4315, 1547.165
550.9136, 1547.853
551.3958, 1549.441
551.8779, 1552.478
552.3600, 1555.502
552.8421, 1557.497
553.3242, 1558.327
553.8063, 1559.410
554.2885, 1560.783
554.7706, 1562.481
555.2527, 1565.287
555.7348, 1568.800
556.2169, 1570.326
556.6990, 1568.203
557.1812, 1564.794
557.6633, 1563.270
558.1454, 1563.335
558.6275, 1563.878
559.1096, 1564.021
559.5917, 1564.556
560.0739, 1566.460
560.5560, 1569.829
561.0381, 1572.818
561.5202, 1573.658
562.0023, 1574.429
562.4844, 1576.674
562.9666, 1581.354
563.4487, 1586.439
563.9308, 1591.885
564.4129, 1597.596
564.8950, 1603.485
565.3771, 1609.679
565.8593, 1615.483
566.3414, 1620.221
566.8235, 1624.465
567.3056, 1631.372
567.7877, 1641.180
568.2698, 1651.583
568.7520, 1661.387
569.2341, 1670.680
569.7162, 1679.929
570.1983, 1689.020
570.6804, 1698.930
571.1625, 1710.350
571.6447, 1723.153
572.1268, 1737.171
572.6089, 1752.817
573.0910, 1768.994
573.5731, 1784.944
574.0552, 1801.052
574.5374, 1818.347
575.0195, 1839.148
575.5016, 1859.036
575.9837, 1875.783
576.4658, 1889.651
576.9479, 1905.339
577.4301, 1925.046
577.9122, 1943.912
578.3943, 1959.868
578.8764, 1972.313
579.3585, 1984.951
579.8406, 1998.250
580.3228, 2010.696
580.8049, 2020.354
581.2870, 2027.318
581.7691, 2033.898
582.2512, 2040.038
582.7333, 2046.805
583.2155, 2056.482
583.6975, 2068.134
