##NAMES=Iimoriite-(Y)
##RRUFFID=R070457
##IDEAL CHEMISTRY=Y^3+^_2_(SiO_4_)(CO_3_)
##LOCALITY=I and L No. 4 claim, Bokan Mountain, Prince of Wales Island, Prince of Wales-Outer Ketchikan Borough, Alaska, USA
##OWNER=RRUFF
##SOURCE=Michael Scott
##DESCRIPTION=Colorless to tan unconsolidated grains and fragments
##STATUS=The identification of this mineral has been confirmed by single-crystal X-ray diffraction.
##URL=rruff.info/R070457
145.5055, 26363.92
145.9876, 27297.11
146.4697, 28236.54
146.9518, 29195.43
147.4340, 30134.25
147.9161, 31009.88
148.3982, 31832.32
148.8803, 32583.42
149.3624, 33263.48
149.8445, 33874.24
150.3266, 34415.86
150.8088, 34889.55
151.2909, 35295.32
151.7730, 35630.45
152.2551, 35903.43
152.7372, 36121.69
153.2193, 36282.08
153.7015, 36389.01
154.1836, 36440.80
154.6657, 36409.58
155.1478, 36374.21
155.6299, 36409.89
156.1120, 36508.84
156.5942, 36632.86
157.0763, 36755.07
157.5584, 36885.25
158.0405, 37060.22
158.5226, 37291.81
159.0047, 37564.28
159.4869, 37860.34
159.9690, 38178.88
160.4511, 38523.04
160.9332, 38884.45
161.4153, 39180.44
161.8974, 39298.07
162.3796, 39417.37
162.8617, 39534.54
163.3438, 39661.95
163.8259, 39793.69
164.3080, 39899.63
164.7901, 39949.71
165.2723, 39952.04
165.7544, 39967.00
166.2365, 40026.22
166.7186, 40075.25
167.2007, 40093.46
167.6828, 40082.37
168.1650, 40044.84
168.6471, 39974.64
169.1292, 39874.91
169.6113, 39790.09
170.0934, 39747.39
170.5755, 39698.62
171.0577, 39615.61
171.5398, 39505.11
172.0219, 39393.67
172.5040, 39296.35
172.9861, 39212.11
173.4682, 39155.16
173.9504, 39139.43
174.4325, 39137.02
174.9146, 39128.97
175.3967, 39119.73
175.8788, 39128.83
176.3609, 39181.64
176.8431, 39280.56
177.3252, 39353.26
177.8073, 39340.18
178.2894, 39351.12
178.7715, 39445.89
179.2536, 39604.12
179.7358, 39757.82
180.2179, 39837.94
180.7000, 39837.28
181.1821, 39887.02
181.6642, 40051.71
182.1463, 40211.65
182.6285, 40313.50
183.1106, 40374.30
183.5927, 40450.38
184.0748, 40602.90
184.5569, 40838.32
185.0390, 40995.36
185.5212, 40953.48
186.0033, 40941.14
186.4854, 41041.15
186.9675, 41230.00
187.4496, 41436.33
187.9317, 41606.89
188.4139, 41739.97
188.8960, 41878.70
189.3781, 42045.10
189.8602, 42194.51
190.3423, 42294.61
190.8244, 42366.11
191.3066, 42456.69
191.7887, 42607.35
192.2708, 42815.60
192.7529, 42987.01
193.2350, 43090.27
193.7171, 43186.06
194.1993, 43267.35
194.6814, 43352.71
195.1635, 43475.66
195.6456, 43664.34
196.1277, 43913.37
196.6098, 44133.99
197.0920, 44286.47
197.5741, 44451.54
198.0562, 44644.89
198.5383, 44864.08
199.0204, 45104.57
199.5025, 45368.75
199.9847, 45650.11
200.4668, 45892.66
200.9489, 46056.25
201.4310, 46223.03
201.9131, 46411.43
202.3952, 46610.16
202.8774, 46795.23
203.3595, 46950.75
203.8416, 47089.19
204.3237, 47269.14
204.8058, 47545.29
205.2879, 47801.89
205.7701, 48026.52
206.2522, 48222.45
206.7343, 48390.72
207.2164, 48529.75
207.6985, 48650.33
208.1806, 48790.54
208.6628, 48996.17
209.1449, 49160.03
209.6270, 49217.21
210.1091, 49249.54
210.5912, 49354.26
211.0733, 49572.73
211.5555, 49857.18
212.0376, 50094.18
212.5197, 50260.58
213.0018, 50404.96
213.4839, 50485.86
213.9660, 50568.68
214.4482, 50722.64
214.9303, 50967.70
215.4124, 51261.99
215.8945, 51522.43
216.3766, 51736.15
216.8587, 51933.51
217.3409, 52120.54
217.8230, 52291.47
218.3051, 52435.02
218.7872, 52551.16
219.2693, 52656.40
219.7514, 52773.27
220.2336, 52896.59
220.7157, 53046.60
221.1978, 53250.54
221.6799, 53456.96
222.1620, 53630.54
222.6441, 53768.36
223.1263, 53888.50
223.6084, 54010.86
224.0905, 54134.54
224.5726, 54266.54
225.0547, 54426.72
225.5368, 54578.32
226.0190, 54695.72
226.5011, 54782.80
226.9832, 54867.84
227.4653, 54983.91
227.9474, 55142.99
228.4296, 55247.37
228.9117, 55238.29
229.3938, 55233.59
229.8759, 55282.38
230.3580, 55375.39
230.8401, 55475.24
231.3223, 55550.95
231.8044, 55601.93
232.2865, 55673.91
232.7686, 55804.88
233.2507, 55916.84
233.7328, 55971.31
234.2150, 55993.10
234.6971, 56025.49
235.1792, 56093.92
235.6613, 56198.20
236.1434, 56338.85
236.6255, 56570.02
237.1077, 56775.60
237.5898, 56933.60
238.0719, 57055.47
238.5540, 57156.95
239.0361, 57244.77
239.5182, 57320.81
240.0004, 57392.95
240.4825, 57487.59
240.9646, 57533.45
241.4467, 57496.77
241.9288, 57425.77
242.4109, 57367.18
242.8931, 57338.52
243.3752, 57323.40
243.8573, 57292.39
244.3394, 57246.74
244.8215, 57182.08
245.3036, 57087.65
245.7858, 56984.43
246.2679, 56886.97
246.7500, 56798.31
247.2321, 56713.43
247.7142, 56629.45
248.1963, 56551.95
248.6785, 56453.02
249.1606, 56281.34
249.6427, 56126.96
250.1248, 56044.22
250.6069, 56030.28
251.0890, 56035.98
251.5712, 56020.84
252.0533, 55984.87
252.5354, 55926.03
253.0175, 55826.59
253.4996, 55718.91
253.9817, 55610.09
254.4639, 55503.47
254.9460, 55404.45
255.4281, 55317.03
255.9102, 55240.19
256.3923, 55173.20
256.8744, 55132.05
257.3565, 55075.92
257.8387, 54979.81
258.3208, 54861.45
258.8029, 54750.10
259.2850, 54658.04
259.7671, 54583.14
260.2492, 54527.01
260.7314, 54504.66
261.2135, 54462.85
261.6956, 54365.09
262.1777, 54245.96
262.6598, 54138.07
263.1419, 54050.92
263.6241, 53982.77
264.1062, 53937.82
264.5883, 53921.38
265.0704, 53894.90
265.5525, 53811.54
266.0346, 53736.84
266.5168, 53742.99
266.9989, 53847.79
267.4810, 53950.36
267.9631, 53952.61
268.4452, 53862.30
268.9273, 53778.73
269.4095, 53713.89
269.8916, 53672.59
270.3737, 53667.69
270.8558, 53696.05
271.3379, 53705.35
271.8200, 53641.15
272.3022, 53533.87
272.7843, 53471.18
273.2664, 53462.77
273.7485, 53498.57
274.2306, 53591.15
274.7127, 53724.32
275.1949, 53847.61
275.6770, 53939.55
276.1591, 54014.94
276.6412, 54095.60
277.1233, 54184.11
277.6054, 54259.72
278.0876, 54291.86
278.5697, 54301.80
279.0518, 54352.25
279.5339, 54451.94
280.0160, 54591.80
280.4981, 54791.81
280.9803, 55039.41
281.4624, 55255.79
281.9445, 55395.12
282.4266, 55485.55
282.9087, 55602.54
283.3908, 55763.76
283.8730, 55916.84
284.3551, 56014.50
284.8372, 56092.94
285.3193, 56243.84
285.8014, 56509.86
286.2835, 56801.63
286.7657, 56956.38
287.2478, 56925.04
287.7299, 56930.53
288.2120, 57020.07
288.6941, 57149.59
289.1762, 57280.10
289.6584, 57403.61
290.1405, 57522.09
290.6226, 57637.73
291.1047, 57749.62
291.5868, 57862.08
292.0689, 57988.92
292.5511, 58104.19
293.0332, 58189.56
293.5153, 58249.41
293.9974, 58302.68
294.4795, 58362.74
294.9616, 58428.22
295.4438, 58481.87
295.9259, 58508.15
296.4080, 58540.39
296.8901, 58588.88
297.3722, 58646.62
297.8543, 58698.72
298.3365, 58737.98
298.8186, 58776.82
299.3007, 58849.24
299.7828, 58991.82
300.2649, 59110.46
300.7470, 59192.78
301.2292, 59256.16
301.7113, 59296.26
302.1934, 59320.47
302.6755, 59367.89
303.1576, 59497.59
303.6397, 59736.81
304.1219, 59955.30
304.6040, 60162.15
305.0861, 60340.57
305.5682, 60471.76
306.0503, 60565.29
306.5324, 60647.82
307.0146, 60725.30
307.4967, 60806.05
307.9788, 60971.39
308.4609, 61308.15
308.9430, 61599.49
309.4251, 61737.73
309.9073, 61799.46
310.3894, 61893.97
310.8715, 62072.64
311.3536, 62295.02
311.8357, 62483.71
312.3178, 62626.85
312.8000, 62792.46
313.2821, 63041.61
313.7642, 63301.59
314.2463, 63506.27
314.7284, 63643.51
315.2105, 63764.28
315.6927, 63918.57
316.1748, 64097.53
316.6569, 64249.36
317.1390, 64367.97
317.6211, 64449.01
318.1032, 64498.84
318.5854, 64516.38
319.0675, 64475.73
319.5496, 64303.47
320.0317, 64090.63
320.5138, 63988.14
320.9959, 64015.03
321.4781, 64060.71
321.9602, 64051.38
322.4423, 63993.10
322.9244, 63928.11
323.4065, 63846.09
323.8886, 63768.49
324.3708, 63708.00
324.8529, 63662.49
325.3350, 63624.52
325.8171, 63589.66
326.2992, 63562.25
326.7813, 63560.45
327.2635, 63632.61
327.7456, 63639.43
328.2277, 63511.15
328.7098, 63325.35
329.1919, 63161.14
329.6740, 63039.34
330.1562, 62955.01
330.6383, 62911.71
331.1204, 62940.14
331.6025, 62884.82
332.0846, 62664.45
332.5667, 62447.86
333.0489, 62328.52
333.5310, 62291.68
334.0131, 62269.21
334.4952, 62213.62
334.9773, 62130.14
335.4594, 62054.74
335.9416, 61960.95
336.4237, 61912.07
336.9058, 61957.79
337.3879, 62035.85
337.8700, 62077.50
338.3521, 62057.28
338.8343, 61998.36
339.3164, 61927.78
339.7985, 61825.97
340.2806, 61776.67
340.7627, 61832.13
341.2448, 61908.73
341.7270, 61964.21
342.2091, 61996.02
342.6912, 62022.57
343.1733, 62051.91
343.6554, 62085.50
344.1375, 62137.18
344.6197, 62213.14
345.1018, 62295.09
345.5839, 62387.12
346.0660, 62475.97
346.5481, 62535.89
347.0302, 62544.59
347.5124, 62537.96
347.9945, 62571.28
348.4766, 62643.60
348.9587, 62680.25
349.4408, 62638.79
349.9229, 62556.79
350.4051, 62506.41
350.8872, 62505.25
351.3693, 62470.74
351.8514, 62349.55
352.3335, 62177.30
352.8156, 62016.18
353.2978, 61880.67
353.7799, 61744.79
354.2620, 61579.48
354.7441, 61379.31
355.2262, 61192.02
355.7083, 61057.27
356.1905, 60900.52
356.6726, 60644.02
357.1547, 60320.07
357.6368, 60036.87
358.1189, 59863.77
358.6010, 59771.23
359.0832, 59632.80
359.5653, 59400.48
360.0474, 59178.23
360.5295, 58983.03
361.0116, 58797.57
361.4937, 58593.95
361.9759, 58369.19
362.4580, 58159.29
362.9401, 58023.30
363.4222, 57996.82
363.9043, 57904.45
364.3864, 57661.52
364.8686, 57431.34
365.3507, 57287.48
365.8328, 57208.85
366.3149, 57132.19
366.7970, 57019.83
367.2791, 56879.38
367.7613, 56722.65
368.2434, 56523.13
368.7255, 56374.35
369.2076, 56370.15
369.6897, 56400.14
370.1718, 56354.97
370.6540, 56205.74
371.1361, 56030.78
371.6182, 55897.05
372.1003, 55798.07
372.5824, 55696.05
373.0645, 55582.80
373.5467, 55467.20
374.0288, 55361.96
374.5109, 55264.77
374.9930, 55157.13
375.4751, 55016.86
375.9572, 54875.39
376.4394, 54778.14
376.9215, 54719.87
377.4036, 54635.44
377.8857, 54477.48
378.3678, 54269.18
378.8499, 54108.56
379.3321, 54041.37
379.8142, 53952.20
380.2963, 53795.87
380.7784, 53611.30
381.2605, 53452.35
381.7426, 53332.21
382.2248, 53220.59
382.7069, 53077.21
383.1890, 52890.30
383.6711, 52719.03
384.1532, 52574.90
384.6353, 52432.98
385.1175, 52292.67
385.5996, 52145.68
386.0817, 51969.73
386.5638, 51744.75
387.0459, 51498.05
387.5280, 51332.85
388.0102, 51322.24
388.4923, 51233.68
388.9744, 50941.25
389.4565, 50602.93
389.9386, 50347.24
390.4207, 50194.72
390.9029, 50073.09
391.3850, 49910.77
391.8671, 49718.75
392.3492, 49584.76
392.8313, 49558.02
393.3134, 49507.80
393.7956, 49305.34
394.2777, 49005.12
394.7598, 48736.44
395.2419, 48551.27
395.7240, 48394.57
396.2061, 48210.79
396.6883, 48009.48
397.1704, 47843.67
397.6525, 47751.29
398.1346, 47683.47
398.6167, 47532.12
399.0988, 47271.23
399.5810, 47016.51
400.0631, 46773.98
400.5452, 46553.91
401.0273, 46375.85
401.5094, 46235.14
401.9915, 46097.13
402.4737, 45928.91
402.9558, 45731.88
403.4379, 45544.40
403.9200, 45337.88
404.4021, 45174.73
404.8842, 45090.09
405.3664, 45045.30
405.8485, 44998.05
406.3306, 44932.20
406.8127, 44845.38
407.2948, 44730.10
407.7769, 44579.07
408.2591, 44431.08
408.7412, 44282.80
409.2233, 44144.64
409.7054, 44024.69
410.1875, 43919.39
410.6696, 43819.93
411.1518, 43724.29
411.6339, 43629.67
412.1160, 43530.73
412.5981, 43428.16
413.0802, 43322.49
413.5623, 43214.78
414.0445, 43104.82
414.5266, 42993.40
415.0087, 42880.20
415.4908, 42766.39
415.9729, 42651.67
416.4550, 42536.89
416.9372, 42420.60
417.4193, 42302.31
417.9014, 42193.12
418.3835, 42109.38
418.8656, 42053.96
419.3477, 41948.85
419.8299, 41764.08
420.3120, 41571.52
420.7941, 41386.80
421.2762, 41212.59
421.7583, 41059.40
422.2404, 40930.79
422.7226, 40798.24
423.2047, 40603.41
423.6868, 40320.58
424.1689, 40047.46
424.6510, 39777.21
425.1331, 39527.65
425.6153, 39312.44
426.0974, 39126.48
426.5795, 38955.34
427.0616, 38791.80
427.5437, 38634.50
428.0258, 38475.48
428.5080, 38308.34
428.9901, 38164.45
429.4722, 38069.19
429.9543, 37995.34
430.4364, 37905.68
430.9185, 37793.14
431.4007, 37690.86
431.8828, 37621.56
432.3649, 37570.52
432.8470, 37513.64
433.3291, 37447.40
433.8112, 37379.55
434.2934, 37315.13
434.7755, 37254.77
435.2576, 37203.19
435.7397, 37177.25
436.2218, 37139.82
436.7039, 37067.48
437.1861, 36981.18
437.6682, 36910.73
438.1503, 36866.09
438.6324, 36833.61
439.1145, 36794.22
439.5966, 36747.29
440.0788, 36698.51
440.5609, 36656.04
441.0430, 36604.50
441.5251, 36519.46
442.0072, 36422.88
442.4893, 36361.73
442.9715, 36368.72
443.4536, 36401.65
443.9357, 36385.14
444.4178, 36314.76
444.8999, 36240.59
445.3820, 36175.33
445.8642, 36111.30
446.3463, 36041.90
446.8284, 35966.59
447.3105, 35884.95
447.7926, 35778.45
448.2747, 35676.23
448.7569, 35633.96
449.2390, 35644.05
449.7211, 35613.58
450.2032, 35475.74
450.6853, 35266.77
451.1674, 35121.73
451.6496, 35104.67
452.1317, 35060.75
452.6138, 34954.06
453.0959, 34828.72
453.5780, 34722.89
454.0602, 34642.19
454.5423, 34572.98
455.0244, 34505.70
455.5065, 34439.51
455.9886, 34350.25
456.4707, 34209.68
456.9529, 34089.25
457.4349, 34016.79
457.9171, 33967.72
458.3992, 33919.94
458.8813, 33868.69
459.3634, 33799.61
459.8455, 33676.94
460.3276, 33517.86
460.8098, 33415.59
461.2919, 33397.79
461.7740, 33392.39
462.2561, 33341.18
462.7382, 33252.91
463.2203, 33167.94
463.7025, 33103.45
464.1846, 33029.75
464.6667, 32920.89
465.1488, 32793.49
465.6309, 32681.69
466.1130, 32596.90
466.5952, 32525.62
467.0773, 32449.57
467.5594, 32368.83
468.0415, 32284.86
468.5236, 32165.98
469.0057, 32077.69
469.4879, 32064.36
469.9700, 32096.96
470.4521, 32130.17
470.9342, 32145.81
471.4163, 32131.45
471.8984, 32050.09
472.3806, 31890.19
472.8627, 31758.25
473.3448, 31678.04
473.8269, 31627.64
474.3090, 31598.63
474.7911, 31585.29
475.2733, 31560.34
475.7554, 31507.84
476.2375, 31442.79
476.7196, 31370.23
477.2017, 31295.22
477.6838, 31249.29
478.1660, 31251.76
478.6481, 31274.54
479.1302, 31265.30
479.6123, 31210.70
480.0944, 31151.49
480.5765, 31067.55
481.0587, 30996.29
481.5408, 30973.07
482.0229, 30984.47
482.5050, 30991.24
482.9871, 30970.28
483.4692, 30925.31
483.9514, 30861.39
484.4335, 30762.99
484.9156, 30688.25
485.3977, 30647.48
485.8798, 30634.61
486.3619, 30665.43
486.8441, 30730.20
487.3262, 30776.26
487.8083, 30753.93
488.2904, 30703.53
488.7725, 30706.87
489.2546, 30762.93
489.7368, 30774.55
490.2189, 30679.43
490.7010, 30533.64
491.1831, 30459.17
491.6652, 30480.17
492.1473, 30487.95
492.6295, 30449.04
493.1116, 30404.19
493.5937, 30394.05
494.0758, 30411.47
494.5579, 30414.25
495.0400, 30371.10
495.5222, 30299.87
496.0043, 30270.60
496.4864, 30312.00
496.9685, 30336.91
497.4506, 30307.97
497.9327, 30279.18
498.4149, 30296.08
498.8970, 30353.88
499.3791, 30404.15
499.8612, 30419.58
500.3433, 30405.43
500.8254, 30353.80
501.3076, 30262.12
501.7897, 30215.77
502.2718, 30273.90
502.7539, 30378.65
503.2360, 30411.69
503.7181, 30354.11
504.2003, 30309.47
504.6824, 30298.21
505.1645, 30306.52
505.6466, 30331.11
506.1287, 30365.57
506.6108, 30393.39
507.0930, 30403.08
507.5751, 30402.08
508.0572, 30418.18
508.5393, 30475.04
509.0214, 30498.92
509.5035, 30447.96
509.9857, 30392.42
510.4678, 30386.07
510.9499, 30419.39
511.4320, 30435.29
511.9141, 30383.07
512.3962, 30305.19
512.8784, 30287.09
513.3605, 30327.61
513.8426, 30345.20
514.3247, 30304.22
514.8068, 30233.50
515.2889, 30176.93
515.7711, 30134.43
516.2532, 30100.32
516.7353, 30089.10
517.2174, 30072.74
517.6995, 30027.49
518.1816, 29960.53
518.6638, 29887.63
519.1459, 29815.84
519.6280, 29757.28
520.1101, 29746.60
520.5922, 29815.41
521.0743, 29840.36
521.5565, 29767.42
522.0386, 29689.58
522.5207, 29652.38
523.0028, 29645.72
523.4849, 29638.69
523.9670, 29622.77
524.4492, 29593.60
524.9313, 29534.64
525.4134, 29452.95
525.8955, 29393.67
526.3776, 29372.08
526.8597, 29366.87
527.3419, 29361.68
527.8240, 29359.81
528.3061, 29312.13
528.7882, 29172.22
529.2703, 29037.18
529.7524, 28952.66
530.2346, 28899.04
530.7167, 28846.22
531.1988, 28782.62
531.6809, 28707.16
532.1630, 28617.82
532.6451, 28513.87
533.1273, 28398.83
533.6094, 28258.80
534.0915, 28129.07
534.5736, 28028.00
535.0557, 27945.78
535.5378, 27871.54
536.0200, 27806.62
536.5021, 27737.02
536.9842, 27643.96
537.4663, 27542.04
537.9484, 27464.76
538.4305, 27417.41
538.9127, 27367.10
539.3948, 27285.79
539.8769, 27178.37
540.3590, 27088.18
540.8411, 27054.31
541.3232, 26986.81
541.8054, 26840.44
542.2875, 26680.92
542.7696, 26563.86
543.2517, 26495.35
543.7338, 26449.73
544.2159, 26416.13
544.6981, 26385.91
545.1802, 26326.68
545.6623, 26233.59
546.1444, 26137.37
546.6265, 26047.16
547.1086, 25960.34
547.5908, 25868.95
548.0729, 25770.16
548.5550, 25690.95
549.0371, 25659.17
549.5192, 25632.33
550.0013, 25576.05
550.4835, 25493.26
550.9656, 25396.87
551.4477, 25291.34
551.9298, 25188.58
552.4119, 25113.86
552.8940, 25082.54
553.3762, 25036.11
553.8583, 24966.31
554.3404, 24888.32
554.8225, 24801.67
555.3046, 24712.19
555.7867, 24627.55
556.2689, 24548.54
556.7510, 24482.49
557.2331, 24447.71
557.7152, 24433.32
558.1973, 24402.04
558.6794, 24347.21
559.1616, 24273.09
559.6437, 24175.77
560.1258, 24058.83
560.6079, 23970.49
561.0900, 23937.41
561.5721, 23893.90
562.0543, 23808.94
562.5364, 23718.90
563.0185, 23668.60
563.5006, 23656.96
563.9827, 23637.28
564.4648, 23560.58
564.9470, 23448.42
565.4291, 23393.93
565.9112, 23413.01
566.3933, 23421.29
566.8754, 23391.16
567.3575, 23336.78
567.8397, 23269.18
568.3218, 23187.69
568.8039, 23121.83
569.2860, 23077.31
569.7681, 23054.35
570.2502, 23070.46
570.7324, 23108.29
571.2145, 23122.65
571.6966, 23094.83
572.1787, 23042.69
572.6608, 22994.67
573.1429, 22952.67
573.6251, 22905.20
574.1072, 22842.26
574.5893, 22785.50
575.0714, 22746.40
575.5535, 22716.60
576.0356, 22686.61
576.5178, 22655.80
576.9999, 22613.81
577.4820, 22543.85
577.9641, 22458.74
578.4462, 22388.22
578.9283, 22335.23
579.4105, 22284.47
579.8926, 22225.32
580.3747, 22161.61
580.8568, 22107.64
581.3389, 22094.94
581.8210, 22047.89
582.3032, 21924.40
582.7853, 21802.05
583.2674, 21746.69
583.7495, 21739.81
584.2316, 21712.72
584.7137, 21620.08
585.1959, 21503.46
585.6780, 21439.01
586.1601, 21424.41
586.6422, 21399.32
587.1243, 21354.12
587.6064, 21289.07
588.0886, 21196.20
588.5707, 21078.67
589.0528, 20976.72
589.5349, 20887.84
590.0170, 20818.41
590.4991, 20795.89
590.9813, 20781.29
591.4634, 20720.65
591.9455, 20610.67
592.4276, 20497.87
592.9097, 20424.18
593.3918, 20382.49
593.8740, 20339.29
594.3561, 20298.62
594.8382, 20240.68
595.3203, 20143.14
595.8024, 20039.05
596.2845, 19966.77
596.7667, 19924.06
597.2488, 19870.93
597.7309, 19786.83
598.2130, 19695.68
598.6951, 19608.22
599.1772, 19528.28
599.6594, 19470.35
600.1415, 19438.08
600.6236, 19404.05
601.1057, 19329.01
601.5878, 19209.33
602.0699, 19116.41
602.5521, 19076.96
603.0342, 19024.04
603.5163, 18922.72
603.9984, 18806.90
604.4805, 18711.15
604.9626, 18640.98
605.4448, 18577.57
605.9269, 18517.41
606.4090, 18453.97
606.8911, 18370.33
607.3732, 18272.30
607.8553, 18195.86
608.3375, 18161.19
608.8196, 18135.27
609.3017, 18055.89
609.7838, 17899.97
610.2659, 17768.63
610.7480, 17672.23
611.2302, 17589.72
611.7123, 17520.79
612.1944, 17459.35
612.6765, 17397.71
613.1586, 17333.53
613.6407, 17272.49
614.1229, 17220.46
614.6050, 17174.65
615.0871, 17129.63
615.5692, 17084.89
616.0513, 17037.92
616.5334, 16987.51
617.0156, 16933.98
617.4977, 16878.41
617.9798, 16821.37
618.4619, 16760.19
618.9440, 16690.96
619.4261, 16621.55
619.9083, 16552.54
620.3904, 16487.33
620.8725, 16431.77
621.3546, 16388.95
621.8367, 16350.90
622.3188, 16307.70
622.8010, 16262.53
623.2831, 16230.52
623.7652, 16214.61
624.2473, 16191.17
624.7294, 16145.01
625.2115, 16080.82
625.6937, 16011.16
626.1758, 15917.85
626.6579, 15849.96
627.1400, 15839.45
627.6221, 15825.82
628.1042, 15759.63
628.5864, 15662.65
629.0685, 15590.25
629.5506, 15568.82
630.0327, 15564.71
630.5148, 15535.61
630.9969, 15486.23
631.4791, 15439.94
631.9612, 15399.14
632.4433, 15366.28
632.9254, 15350.84
633.4075, 15341.66
633.8896, 15295.52
634.3718, 15161.17
634.8539, 15075.89
635.3360, 15088.69
635.8181, 15118.31
636.3002, 15115.49
636.7823, 15083.06
637.2645, 15040.86
637.7466, 14997.46
638.2287, 14952.41
638.7108, 14902.08
639.1929, 14848.28
639.6750, 14808.77
640.1572, 14789.57
640.6393, 14761.46
641.1214, 14701.15
