##NAMES=Iimoriite-(Y)
##RRUFFID=R070457
##IDEAL CHEMISTRY=Y^3+^_2_(SiO_4_)(CO_3_)
##LOCALITY=I and L No. 4 claim, Bokan Mountain, Prince of Wales Island, Prince of Wales-Outer Ketchikan Borough, Alaska, USA
##OWNER=RRUFF
##SOURCE=Michael Scott
##DESCRIPTION=Colorless to tan unconsolidated grains and fragments
##STATUS=The identification of this mineral has been confirmed by single-crystal X-ray diffraction.
##URL=rruff.info/R070457
137.6203, 2344.752
138.1024, 2424.855
138.5845, 2515.177
139.0667, 2602.290
139.5488, 2679.780
140.0309, 2745.350
140.5130, 2815.860
140.9951, 2890.558
141.4772, 2971.861
141.9594, 3068.846
142.4415, 3195.192
142.9236, 3312.882
143.4057, 3400.565
143.8878, 3444.362
144.3699, 3491.656
144.8521, 3548.267
145.3342, 3612.565
145.8163, 3667.937
146.2984, 3711.403
146.7805, 3749.407
147.2626, 3787.203
147.7448, 3821.135
148.2269, 3859.946
148.7090, 3906.960
149.1911, 3963.909
149.6732, 4013.928
150.1554, 4049.920
150.6375, 4082.596
151.1196, 4121.552
151.6017, 4165.922
152.0838, 4218.230
152.5659, 4283.445
153.0481, 4370.617
153.5302, 4440.962
154.0123, 4470.873
154.4944, 4487.479
154.9765, 4529.083
155.4586, 4630.017
155.9408, 4731.550
156.4229, 4814.848
156.9050, 4859.799
157.3871, 4862.537
157.8692, 4824.174
158.3513, 4766.625
158.8335, 4730.769
159.3156, 4736.734
159.7977, 4759.013
160.2798, 4785.793
160.7619, 4824.176
161.2440, 4854.076
161.7262, 4865.417
162.2083, 4862.602
162.6904, 4860.876
163.1725, 4870.094
163.6546, 4880.406
164.1367, 4884.441
164.6189, 4876.748
165.1010, 4865.585
165.5831, 4848.737
166.0652, 4827.827
166.5473, 4818.570
167.0294, 4836.570
167.5116, 4867.724
167.9937, 4897.043
168.4758, 4917.011
168.9579, 4934.670
169.4400, 4954.581
169.9221, 4976.771
170.4043, 4998.983
170.8864, 5020.013
171.3685, 5039.857
171.8506, 5059.027
172.3327, 5073.846
172.8148, 5089.898
173.2970, 5112.780
173.7791, 5143.234
174.2612, 5177.594
174.7433, 5217.898
175.2254, 5259.998
175.7076, 5294.504
176.1897, 5310.166
176.6718, 5317.709
177.1539, 5332.607
177.6360, 5358.401
178.1181, 5385.861
178.6003, 5402.831
179.0824, 5412.375
179.5645, 5426.011
180.0466, 5449.963
180.5287, 5483.157
181.0108, 5524.627
181.4930, 5577.411
181.9751, 5632.909
182.4572, 5677.393
182.9393, 5712.193
183.4214, 5745.401
183.9035, 5780.537
184.3857, 5818.188
184.8678, 5861.965
185.3499, 5914.758
185.8320, 5970.963
186.3141, 6022.357
186.7962, 6069.315
187.2784, 6104.838
187.7605, 6121.409
188.2426, 6120.863
188.7247, 6111.454
189.2068, 6091.291
189.6889, 6065.564
190.1711, 6047.429
190.6532, 6037.292
191.1353, 6031.960
191.6174, 6030.463
192.0995, 6032.366
192.5816, 6031.979
193.0638, 6024.737
193.5459, 6013.792
194.0280, 6014.962
194.5101, 6030.486
194.9922, 6048.860
195.4743, 6056.417
195.9565, 6053.155
196.4386, 6047.754
196.9207, 6038.402
197.4028, 6027.140
197.8849, 6036.140
198.3671, 6069.021
198.8492, 6113.570
199.3313, 6151.859
199.8134, 6182.719
200.2955, 6219.006
200.7776, 6270.243
201.2598, 6336.657
201.7419, 6391.079
202.2240, 6433.184
202.7061, 6464.510
203.1882, 6491.119
203.6703, 6516.033
204.1525, 6521.345
204.6346, 6494.364
205.1167, 6431.319
205.5988, 6367.996
206.0809, 6302.005
206.5630, 6238.700
207.0452, 6191.728
207.5273, 6165.537
208.0094, 6140.840
208.4915, 6104.014
208.9736, 6050.121
209.4557, 6016.687
209.9379, 6011.915
210.4200, 6024.025
210.9021, 6020.310
211.3842, 5993.297
211.8663, 5969.471
212.3484, 5964.883
212.8306, 5983.782
213.3127, 6003.355
213.7948, 6018.878
214.2769, 6035.090
214.7590, 6071.867
215.2411, 6138.456
215.7233, 6206.239
216.2054, 6252.374
216.6875, 6263.212
217.1696, 6298.539
217.6517, 6372.852
218.1338, 6475.942
218.6160, 6555.086
219.0981, 6597.709
219.5802, 6638.410
220.0623, 6700.601
220.5444, 6789.674
221.0265, 6885.254
221.5087, 6987.396
221.9908, 7095.591
222.4729, 7203.041
222.9550, 7313.590
223.4371, 7419.467
223.9192, 7517.363
224.4014, 7606.132
224.8835, 7685.505
225.3656, 7752.799
225.8477, 7809.494
226.3298, 7866.771
226.8119, 7932.643
227.2941, 7989.577
227.7762, 8025.526
228.2583, 8041.583
228.7404, 8031.535
229.2225, 7988.066
229.7046, 7913.031
230.1868, 7837.612
230.6689, 7752.642
231.1510, 7678.310
231.6331, 7633.801
232.1152, 7635.659
232.5974, 7635.217
233.0795, 7623.295
233.5616, 7600.133
234.0437, 7581.748
234.5258, 7563.976
235.0079, 7555.788
235.4901, 7565.503
235.9722, 7595.990
236.4543, 7640.097
236.9364, 7700.803
237.4185, 7778.741
237.9006, 7850.974
238.3828, 7920.548
238.8649, 7981.275
239.3470, 8027.020
239.8291, 8052.408
240.3112, 8072.175
240.7933, 8094.806
241.2755, 8122.192
241.7576, 8110.884
242.2397, 8049.959
242.7218, 7960.269
243.2039, 7861.872
243.6860, 7752.962
244.1682, 7637.226
244.6503, 7510.329
245.1324, 7369.444
245.6145, 7257.037
246.0966, 7186.032
246.5787, 7131.314
247.0609, 7065.022
247.5430, 6976.186
248.0251, 6896.574
248.5072, 6830.735
248.9893, 6778.742
249.4714, 6748.543
249.9536, 6752.512
250.4357, 6766.317
250.9178, 6761.352
251.3999, 6725.589
251.8820, 6695.072
252.3641, 6677.245
252.8463, 6672.553
253.3284, 6677.692
253.8105, 6699.195
254.2926, 6723.776
254.7747, 6735.682
255.2568, 6728.585
255.7390, 6721.697
256.2211, 6715.563
256.7032, 6709.055
257.1853, 6726.882
257.6674, 6783.712
258.1495, 6848.165
258.6317, 6880.169
259.1138, 6858.562
259.5959, 6853.958
260.0780, 6887.615
260.5601, 6961.704
261.0422, 7023.897
261.5244, 7073.037
262.0065, 7111.677
262.4886, 7139.515
262.9707, 7151.143
263.4528, 7166.759
263.9349, 7189.630
264.4171, 7220.023
264.8992, 7264.357
265.3813, 7329.668
265.8634, 7399.711
266.3455, 7458.750
266.8276, 7508.149
267.3098, 7544.332
267.7919, 7569.650
268.2740, 7583.528
268.7561, 7563.767
269.2382, 7496.703
269.7203, 7420.646
270.2025, 7372.042
270.6846, 7352.155
271.1667, 7357.655
271.6488, 7397.028
272.1309, 7466.215
272.6130, 7509.250
273.0952, 7516.741
273.5773, 7518.786
274.0594, 7544.783
274.5415, 7596.622
275.0236, 7660.566
275.5057, 7734.603
275.9879, 7818.257
276.4700, 7909.018
276.9521, 8008.530
277.4342, 8110.812
277.9163, 8208.693
278.3984, 8301.173
278.8806, 8400.121
279.3627, 8509.469
279.8448, 8626.787
280.3269, 8743.173
280.8090, 8857.723
281.2911, 8973.563
281.7733, 9090.903
282.2554, 9209.194
282.7375, 9344.991
283.2196, 9506.503
283.7017, 9685.621
284.1838, 9861.008
284.6660, 10035.87
285.1481, 10189.02
285.6302, 10295.44
286.1123, 10357.87
286.5944, 10426.79
287.0765, 10519.21
287.5587, 10618.68
288.0408, 10678.31
288.5229, 10696.55
289.0050, 10700.72
289.4871, 10704.59
289.9692, 10710.19
290.4514, 10733.25
290.9335, 10784.88
291.4156, 10845.35
291.8977, 10869.18
292.3798, 10857.42
292.8619, 10840.95
293.3441, 10851.17
293.8262, 10877.00
294.3083, 10875.86
294.7904, 10837.19
295.2726, 10776.40
295.7547, 10708.14
296.2368, 10635.01
296.7189, 10574.38
297.2010, 10540.99
297.6831, 10529.22
298.1653, 10522.84
298.6474, 10515.29
299.1295, 10523.65
299.6116, 10572.55
300.0937, 10657.74
300.5758, 10762.19
301.0580, 10871.79
301.5401, 10993.57
302.0222, 11143.54
302.5043, 11324.99
302.9864, 11524.24
303.4685, 11711.85
303.9507, 11901.87
304.4328, 12130.26
304.9149, 12433.75
305.3970, 12777.82
305.8791, 13127.97
306.3612, 13477.96
306.8434, 13834.29
307.3255, 14175.52
307.8076, 14522.33
308.2897, 14922.60
308.7718, 15432.48
309.2539, 15982.55
309.7361, 16505.19
310.2182, 16989.83
310.7003, 17492.33
311.1824, 18047.09
311.6645, 18639.38
312.1466, 19244.66
312.6288, 19870.72
313.1109, 20499.63
313.5930, 21127.26
314.0751, 21758.80
314.5572, 22385.59
315.0393, 23020.84
315.5215, 23644.48
316.0036, 24231.72
316.4857, 24786.50
316.9678, 25300.39
317.4499, 25780.28
317.9320, 26225.29
318.4142, 26619.18
318.8963, 26965.01
319.3784, 27251.70
319.8605, 27473.66
320.3426, 27586.84
320.8247, 27674.46
321.3069, 27766.22
321.7890, 27856.06
322.2711, 27903.07
322.7532, 27898.27
323.2353, 27845.75
323.7174, 27748.15
324.1996, 27630.16
324.6817, 27436.85
325.1638, 27157.10
325.6459, 26795.87
326.1280, 26373.72
326.6101, 25860.98
327.0923, 25310.87
327.5744, 24752.80
328.0565, 24201.47
328.5386, 23618.11
329.0207, 22987.07
329.5028, 22328.07
329.9850, 21668.69
330.4671, 20992.99
330.9492, 20334.79
331.4313, 19698.69
331.9134, 19079.57
332.3955, 18495.67
332.8777, 17939.82
333.3598, 17424.55
333.8419, 16950.72
334.3240, 16517.11
334.8061, 16124.63
335.2882, 15770.74
335.7704, 15454.13
336.2525, 15175.02
336.7346, 14929.89
337.2167, 14721.81
337.6988, 14559.59
338.1809, 14454.10
338.6631, 14353.86
339.1452, 14240.77
339.6273, 14117.25
340.1094, 14032.49
340.5915, 13985.42
341.0736, 13978.19
341.5558, 14019.77
342.0379, 14114.01
342.5200, 14220.10
343.0021, 14328.05
343.4842, 14443.31
343.9663, 14594.98
344.4485, 14785.45
344.9306, 14987.72
345.4127, 15168.53
345.8948, 15333.33
346.3769, 15531.46
346.8590, 15775.81
347.3412, 16046.22
347.8233, 16303.59
348.3054, 16547.35
348.7875, 16784.12
349.2696, 17020.79
349.7517, 17249.63
350.2339, 17462.81
350.7160, 17659.98
351.1981, 17831.65
351.6802, 17967.11
352.1623, 18067.43
352.6444, 18141.11
353.1266, 18203.54
353.6087, 18236.39
354.0908, 18205.62
354.5729, 18105.79
355.0550, 17975.33
355.5371, 17851.69
356.0193, 17719.82
356.5014, 17554.38
356.9835, 17343.09
357.4656, 17098.11
357.9477, 16825.01
358.4298, 16525.13
358.9120, 16210.51
359.3941, 15903.87
359.8762, 15582.16
360.3583, 15216.03
360.8404, 14738.73
361.3225, 14276.43
361.8047, 13891.08
362.2868, 13569.97
362.7689, 13254.08
363.2510, 12895.40
363.7331, 12550.16
364.2152, 12253.52
364.6974, 12019.86
365.1795, 11827.34
365.6616, 11676.65
366.1437, 11562.44
366.6258, 11472.13
367.1079, 11407.79
367.5901, 11363.68
368.0722, 11339.32
368.5543, 11339.88
369.0364, 11348.24
369.5185, 11353.56
370.0006, 11369.86
370.4828, 11416.54
370.9649, 11500.89
371.4470, 11607.59
371.9291, 11737.72
372.4112, 11893.71
372.8933, 12049.78
373.3755, 12185.13
373.8576, 12337.45
374.3397, 12545.63
374.8218, 12823.31
375.3039, 13115.33
375.7861, 13418.22
376.2682, 13726.41
376.7503, 14020.63
377.2324, 14288.44
377.7145, 14568.68
378.1967, 14891.75
378.6788, 15256.29
379.1609, 15645.78
379.6430, 16063.45
380.1251, 16499.86
380.6072, 16950.83
381.0894, 17415.68
381.5715, 17878.99
382.0536, 18318.65
382.5357, 18748.57
383.0178, 19221.85
383.4999, 19752.90
383.9821, 20297.43
384.4642, 20799.64
384.9463, 21272.43
385.4284, 21736.84
385.9105, 22229.13
386.3926, 22717.23
386.8748, 23148.84
387.3569, 23527.28
387.8390, 23869.39
388.3211, 24194.25
388.8032, 24494.17
389.2853, 24749.47
389.7675, 24978.58
390.2496, 25137.30
390.7317, 25170.95
391.2138, 25094.73
391.6959, 24973.30
392.1780, 24823.85
392.6602, 24653.13
393.1423, 24465.26
393.6244, 24251.63
394.1065, 24042.47
394.5886, 23840.19
395.0707, 23650.71
395.5529, 23483.23
396.0350, 23292.07
396.5171, 23164.28
396.9992, 23142.01
397.4813, 23240.63
397.9634, 23384.80
398.4456, 23540.69
398.9277, 23747.03
399.4098, 24044.06
399.8919, 24509.65
400.3740, 24982.57
400.8561, 25425.82
401.3383, 25840.71
401.8204, 26327.85
402.3025, 26918.81
402.7846, 27548.76
403.2667, 28179.50
403.7488, 28794.40
404.2310, 29441.40
404.7131, 30147.62
405.1952, 30875.40
405.6773, 31540.79
406.1594, 32131.78
406.6415, 32699.94
407.1237, 33289.60
407.6058, 33900.85
408.0879, 34404.76
408.5700, 34789.59
409.0521, 35096.86
409.5342, 35390.34
410.0164, 35665.04
410.4985, 35849.11
410.9806, 35908.73
411.4627, 35862.44
411.9448, 35750.89
412.4269, 35573.77
412.9091, 35353.77
413.3912, 35107.63
413.8733, 34836.58
414.3554, 34543.28
414.8375, 34224.21
415.3196, 33897.98
415.8018, 33570.10
416.2839, 33251.34
416.7660, 32964.36
417.2481, 32754.87
417.7302, 32572.02
418.2123, 32383.89
418.6945, 32196.59
419.1766, 31959.74
419.6587, 31658.31
420.1408, 31287.99
420.6229, 30847.12
421.1050, 30374.12
421.5872, 29796.96
422.0693, 29053.77
422.5514, 28149.57
423.0335, 27225.14
423.5156, 26277.51
423.9977, 25335.41
424.4799, 24400.63
424.9620, 23439.94
425.4441, 22554.81
425.9262, 21739.49
426.4083, 20996.84
426.8904, 20326.55
427.3726, 19724.35
427.8547, 19190.48
428.3368, 18730.40
428.8189, 18347.88
429.3010, 18002.95
429.7831, 17695.10
430.2653, 17423.65
430.7474, 17183.24
431.2295, 16974.01
431.7116, 16804.85
432.1937, 16681.76
432.6758, 16600.66
433.1580, 16553.61
433.6401, 16546.36
434.1222, 16531.00
434.6043, 16455.71
435.0864, 16333.14
435.5685, 16234.67
436.0507, 16172.11
436.5328, 16131.43
437.0149, 16106.74
437.4970, 16090.88
437.9791, 16055.65
438.4612, 15955.51
438.9434, 15839.92
439.4255, 15781.89
439.9076, 15787.25
440.3897, 15806.20
440.8718, 15797.79
441.3539, 15781.83
441.8361, 15783.84
442.3182, 15828.56
442.8003, 15878.72
443.2824, 15901.59
443.7645, 15909.40
444.2466, 15954.81
444.7288, 16080.67
445.2109, 16232.66
445.6930, 16375.93
446.1751, 16489.48
446.6572, 16631.15
447.1393, 16825.18
447.6215, 17048.33
448.1036, 17261.31
448.5857, 17454.11
449.0678, 17648.92
449.5499, 17849.51
450.0320, 18053.96
450.5142, 18276.71
450.9963, 18524.12
451.4784, 18782.86
451.9605, 19044.18
452.4426, 19317.23
452.9247, 19567.67
453.4069, 19793.20
453.8890, 19998.63
454.3711, 20185.92
454.8532, 20353.85
455.3353, 20526.03
455.8174, 20707.23
456.2996, 20900.53
456.7817, 21108.60
457.2638, 21327.92
457.7459, 21581.48
458.2281, 21907.46
458.7102, 22288.02
459.1923, 22685.93
459.6744, 23085.41
460.1565, 23497.32
460.6386, 23909.55
461.1208, 24334.20
461.6029, 24800.77
462.0850, 25368.79
462.5671, 25966.21
463.0492, 26515.52
463.5313, 26994.12
464.0135, 27485.22
464.4956, 28028.96
464.9777, 28607.69
465.4598, 29184.60
465.9419, 29760.07
466.4240, 30323.47
466.9062, 30876.35
467.3883, 31418.32
467.8704, 31908.74
468.3525, 32344.82
468.8346, 32731.26
469.3167, 33075.41
469.7989, 33382.33
470.2810, 33635.71
470.7631, 33856.84
471.2452, 34013.45
471.7273, 34034.84
472.2094, 33905.38
472.6916, 33691.02
473.1737, 33417.40
473.6558, 33083.89
474.1379, 32653.71
474.6200, 32114.99
475.1021, 31524.10
475.5843, 30928.27
476.0664, 30326.68
476.5485, 29705.56
477.0306, 29061.02
477.5127, 28409.70
477.9948, 27772.77
478.4770, 27151.29
478.9591, 26551.79
479.4412, 25993.57
479.9233, 25447.83
480.4054, 24875.51
480.8875, 24270.74
481.3697, 23692.78
481.8518, 23170.35
482.3339, 22699.23
482.8160, 22274.78
483.2981, 21911.58
483.7802, 21575.62
484.2624, 21265.53
484.7445, 20977.67
485.2266, 20709.34
485.7087, 20449.63
486.1908, 20217.52
486.6729, 20026.23
487.1551, 19884.00
487.6372, 19753.51
488.1193, 19620.40
488.6014, 19510.39
489.0835, 19451.01
489.5656, 19450.21
490.0478, 19480.67
490.5299, 19539.74
491.0120, 19626.50
491.4941, 19738.47
491.9762, 19880.95
492.4583, 20027.46
492.9405, 20152.29
493.4226, 20263.05
493.9047, 20400.83
494.3868, 20569.51
494.8689, 20765.97
495.3510, 21009.99
495.8332, 21283.74
496.3153, 21535.24
496.7974, 21729.29
497.2795, 21902.10
497.7616, 22085.10
498.2437, 22278.50
498.7259, 22474.79
499.2080, 22707.80
499.6901, 22921.54
500.1722, 23069.51
500.6543, 23136.16
501.1364, 23159.02
501.6186, 23152.29
502.1007, 23109.97
502.5828, 23024.03
503.0649, 22885.21
503.5470, 22710.30
504.0291, 22497.84
504.5113, 22248.10
504.9934, 21990.90
505.4755, 21707.94
505.9576, 21442.76
506.4397, 21218.95
506.9218, 21045.90
507.4040, 20884.40
507.8861, 20734.21
508.3682, 20593.44
508.8503, 20452.28
509.3324, 20309.34
509.8145, 20198.25
510.2967, 20134.81
510.7788, 20107.93
511.2609, 20089.40
511.7430, 20079.41
512.2252, 20086.17
512.7073, 20119.48
513.1894, 20172.38
513.6715, 20233.32
514.1536, 20299.70
514.6357, 20377.30
515.1179, 20481.80
515.6000, 20599.24
516.0821, 20705.36
516.5642, 20768.93
517.0463, 20841.70
517.5284, 20949.56
518.0106, 21090.09
518.4927, 21236.44
518.9748, 21393.74
519.4569, 21545.95
519.9390, 21680.43
520.4211, 21781.33
520.9033, 21901.93
521.3854, 22052.62
521.8675, 22216.31
522.3496, 22368.43
522.8317, 22507.65
523.3138, 22642.78
523.7960, 22773.13
524.2781, 22901.46
524.7602, 23029.58
525.2423, 23156.90
525.7244, 23298.08
526.2065, 23476.63
526.6887, 23678.68
527.1708, 23855.85
527.6529, 24001.58
528.1350, 24135.66
528.6171, 24276.29
529.0992, 24422.07
529.5814, 24568.14
530.0635, 24720.07
530.5456, 24864.88
531.0277, 24988.18
531.5098, 25094.78
531.9919, 25206.30
532.4741, 25348.01
532.9562, 25483.98
533.4383, 25593.46
533.9204, 25665.75
534.4025, 25738.93
534.8846, 25828.99
535.3668, 25916.34
535.8489, 25981.74
536.3310, 26026.33
536.8131, 26049.39
537.2952, 26043.78
537.7773, 26019.97
538.2595, 26013.63
538.7416, 26033.05
539.2237, 26041.75
539.7058, 26023.51
540.1879, 25980.08
540.6700, 25919.98
541.1522, 25841.70
541.6343, 25762.28
542.1164, 25702.48
542.5985, 25654.63
543.0806, 25602.05
543.5627, 25546.46
544.0449, 25470.69
544.5270, 25343.44
545.0091, 25181.78
545.4912, 25027.87
545.9733, 24941.03
546.4554, 24833.60
546.9376, 24642.28
547.4197, 24369.56
547.9018, 24096.63
548.3839, 23869.41
548.8660, 23635.52
549.3481, 23361.02
549.8303, 23015.86
550.3124, 22678.61
550.7945, 22341.88
551.2766, 22019.04
551.7587, 21728.54
552.2408, 21481.83
552.7230, 21231.38
553.2051, 20959.76
553.6872, 20676.57
554.1693, 20416.94
554.6514, 20179.87
555.1335, 19975.92
555.6157, 19829.31
556.0978, 19722.22
556.5799, 19598.11
557.0620, 19448.57
557.5441, 19318.64
558.0262, 19260.77
558.5084, 19249.50
558.9905, 19242.66
559.4726, 19227.45
559.9547, 19212.20
560.4368, 19195.80
560.9189, 19182.81
561.4011, 19185.03
561.8832, 19228.32
562.3653, 19267.97
562.8474, 19284.38
563.3295, 19271.87
563.8116, 19261.17
564.2938, 19234.63
564.7759, 19227.51
565.2580, 19272.03
565.7401, 19392.14
566.2222, 19486.01
566.7043, 19546.17
567.1865, 19579.67
567.6686, 19589.43
568.1507, 19575.44
568.6328, 19577.10
569.1149, 19616.84
569.5970, 19676.62
570.0792, 19722.98
570.5613, 19754.88
571.0434, 19764.76
571.5255, 19729.64
572.0076, 19678.52
572.4897, 19648.56
572.9719, 19649.59
573.4540, 19640.08
573.9361, 19591.87
574.4182, 19523.61
574.9003, 19455.49
575.3824, 19383.07
575.8646, 19321.74
576.3467, 19304.65
576.8288, 19302.39
577.3109, 19226.63
577.7930, 19027.69
578.2751, 18834.28
578.7573, 18689.77
579.2394, 18593.64
579.7215, 18498.50
580.2036, 18407.03
580.6857, 18304.84
581.1678, 18171.11
581.6500, 18012.72
582.1321, 17870.29
582.6142, 17750.93
583.0963, 17642.38
583.5784, 17531.58
584.0605, 17419.35
584.5427, 17305.05
585.0248, 17175.42
585.5069, 17057.16
585.9890, 16973.28
586.4711, 16918.88
586.9532, 16872.16
587.4354, 16838.89
587.9175, 16799.40
588.3996, 16736.76
588.8817, 16638.54
589.3638, 16571.97
589.8459, 16557.45
590.3281, 16558.32
590.8102, 16545.77
591.2923, 16512.20
591.7744, 16486.79
592.2565, 16469.88
592.7386, 16463.82
593.2208, 16479.88
593.7029, 16517.90
594.1850, 16544.34
594.6671, 16533.36
595.1492, 16512.34
595.6313, 16536.26
596.1135, 16602.86
596.5956, 16692.21
597.0777, 16810.47
597.5598, 16935.89
598.0419, 17045.87
598.5240, 17138.93
599.0062, 17220.33
599.4883, 17251.70
599.9704, 17294.91
600.4525, 17405.74
600.9346, 17673.65
601.4167, 17907.89
601.8989, 18071.14
602.3810, 18198.96
602.8631, 18365.55
603.3452, 18588.82
603.8273, 18807.40
604.3094, 18997.95
604.7916, 19171.60
605.2737, 19385.37
605.7558, 19643.56
606.2379, 19923.90
606.7200, 20236.81
607.2021, 20564.98
607.6843, 20846.80
608.1664, 21077.97
608.6485, 21304.95
609.1306, 21556.37
609.6127, 21834.10
610.0948, 22154.28
610.5770, 22551.67
611.0591, 22935.21
611.5412, 23245.69
612.0233, 23513.99
612.5054, 23802.19
612.9875, 24131.54
613.4697, 24470.23
613.9518, 24815.29
614.4339, 25162.47
614.9160, 25474.63
615.3981, 25732.97
615.8802, 25991.93
616.3624, 26289.99
616.8445, 26626.30
617.3266, 26941.21
617.8087, 27235.51
618.2908, 27503.67
618.7729, 27725.85
619.2551, 27917.63
619.7372, 28119.67
620.2193, 28345.49
620.7014, 28575.33
621.1835, 28807.57
621.6656, 29028.88
622.1478, 29219.73
622.6299, 29346.88
623.1120, 29468.43
623.5941, 29616.47
624.0762, 29782.87
624.5583, 29915.05
625.0405, 29980.83
625.5226, 30043.05
626.0047, 30131.04
626.4868, 30251.24
626.9689, 30321.25
627.4510, 30328.75
627.9332, 30315.33
628.4153, 30313.66
628.8974, 30322.47
629.3795, 30333.29
629.8616, 30346.77
630.3438, 30353.59
630.8259, 30355.00
631.3080, 30340.35
631.7901, 30284.27
632.2722, 30153.07
632.7543, 30005.76
633.2365, 29891.93
