##NAMES=Ilmenite
##RRUFFID=R060149
##IDEAL CHEMISTRY=Fe^2+^Ti^4+^O_3_
##LOCALITY=Faraday Property, Bancroft District, Ontario, Canada
##OWNER=RRUFF
##SOURCE=Marcus Origlieri
##DESCRIPTION=Black thick tabular crystal
##STATUS=The identification of this mineral has been confirmed by X-ray diffraction and chemical analysis
##URL=rruff.info/R060149
##MEASURED CHEMISTRY=Fe^2+^_0.96_Mn_0.07_Mg_0.01_Ti_0.98_O_3_
92.02539, 119.0160
92.50751, 123.3671
92.98962, 126.2872
93.47174, 124.7481
93.95386, 121.2617
94.43597, 117.1864
94.91809, 113.2030
95.40021, 109.3548
95.88232, 105.3248
96.36444, 100.9647
96.84656, 96.65117
97.32867, 92.37204
97.81078, 88.27117
98.29290, 84.61888
98.77502, 81.67612
99.25713, 79.48595
99.73925, 76.50980
100.2214, 71.98656
100.7035, 67.55442
101.1856, 63.79142
101.6677, 60.78502
102.1498, 58.43822
102.6320, 56.66839
103.1141, 55.65146
103.5962, 54.88252
104.0783, 54.44413
104.5604, 54.20208
105.0425, 54.16045
105.5247, 54.41532
106.0068, 54.50504
106.4889, 53.46539
106.9710, 51.19606
107.4531, 48.88820
107.9352, 47.07592
108.4173, 45.68245
108.8995, 44.25235
109.3816, 42.42940
109.8637, 40.66480
110.3458, 39.44667
110.8279, 38.88462
111.3100, 38.62363
111.7922, 38.24552
112.2743, 37.69819
112.7564, 37.20749
113.2385, 36.81047
113.7206, 36.50228
114.2027, 36.31142
114.6849, 36.26527
115.1670, 36.30338
115.6491, 36.21165
116.1312, 35.84497
116.6133, 35.50390
117.0954, 35.27245
117.5776, 35.09441
118.0597, 34.87629
118.5418, 34.54713
119.0239, 34.10365
119.5060, 33.71524
119.9881, 33.23379
120.4703, 32.92297
120.9524, 32.99510
121.4345, 33.38841
121.9166, 33.81266
122.3987, 33.99286
122.8808, 33.87773
123.3630, 33.82484
123.8451, 33.96026
124.3272, 34.09393
124.8093, 34.03304
125.2914, 33.73755
125.7735, 33.31046
126.2557, 32.75975
126.7378, 32.12092
127.2199, 31.64297
127.7020, 31.52854
128.1841, 31.66814
128.6662, 31.71337
129.1483, 31.57633
129.6305, 31.36446
130.1126, 31.18940
130.5947, 31.04255
131.0768, 30.84083
131.5589, 30.45184
132.0410, 29.83285
132.5232, 29.37928
133.0053, 29.30682
133.4874, 29.30202
133.9695, 29.20480
134.4516, 28.98593
134.9337, 28.73053
135.4159, 28.57607
135.8980, 28.60967
136.3801, 28.57967
136.8622, 28.43342
137.3443, 28.25015
137.8264, 28.09464
138.3086, 27.99175
138.7907, 27.92431
139.2728, 27.84783
139.7549, 27.77342
140.2370, 27.67529
140.7191, 27.58973
141.2013, 27.47326
141.6834, 27.23156
142.1655, 26.79232
142.6476, 26.22993
143.1297, 25.88458
143.6118, 25.87996
144.0939, 25.91088
144.5761, 25.86433
145.0582, 25.75152
145.5403, 25.62266
146.0224, 25.50318
146.5045, 25.39005
146.9866, 25.26877
147.4688, 25.08969
147.9509, 24.94348
148.4330, 24.95955
148.9151, 25.17050
149.3972, 25.33896
149.8793, 25.26669
150.3615, 25.07427
150.8436, 24.89544
151.3257, 24.76995
151.8078, 24.69136
152.2899, 24.66661
152.7720, 24.77107
153.2542, 24.78730
153.7363, 24.61457
154.2184, 24.31649
154.7005, 23.97342
155.1826, 23.60309
155.6647, 23.22194
156.1469, 23.01413
156.6290, 23.14945
157.1111, 23.31108
157.5932, 23.45696
158.0753, 23.56592
158.5574, 23.61062
159.0396, 23.55861
159.5217, 23.39422
160.0038, 23.27693
160.4859, 23.19211
160.9680, 23.15816
161.4501, 23.24800
161.9323, 23.42312
162.4144, 23.53725
162.8965, 23.41821
163.3786, 22.96742
163.8607, 22.72692
164.3428, 22.88622
164.8250, 23.10647
165.3071, 23.14603
165.7892, 22.96756
166.2713, 22.68246
166.7534, 22.39636
167.2355, 22.10226
167.7177, 21.87769
168.1998, 21.69385
168.6819, 21.59619
169.1640, 21.69965
169.6461, 22.07550
170.1282, 22.47388
170.6104, 22.59550
171.0925, 22.47791
171.5746, 22.21302
172.0567, 21.64849
172.5388, 20.94223
173.0209, 20.60574
173.5031, 20.93209
173.9852, 21.37999
174.4673, 21.42344
174.9494, 21.10251
175.4315, 20.79742
175.9136, 20.81387
176.3958, 21.13962
176.8779, 21.42167
177.3600, 21.70182
177.8421, 21.83246
178.3242, 21.64410
178.8063, 21.16596
179.2885, 20.66496
179.7706, 20.43102
180.2527, 20.52798
180.7348, 20.61798
181.2169, 20.65215
181.6990, 20.69275
182.1812, 20.78817
182.6633, 20.93897
183.1454, 21.09499
183.6275, 21.18176
184.1096, 21.15757
184.5917, 21.14895
185.0738, 21.13984
185.5560, 21.15367
186.0381, 21.22395
186.5202, 21.35264
187.0023, 21.49615
187.4844, 21.57962
187.9665, 21.56593
188.4487, 21.54293
188.9308, 21.52797
189.4129, 21.49624
189.8950, 21.40493
190.3771, 21.24187
190.8592, 21.06277
191.3414, 20.98221
191.8235, 21.06659
192.3056, 21.12456
192.7877, 21.05331
193.2698, 20.96752
193.7519, 21.05386
194.2341, 21.40196
194.7162, 21.86039
195.1983, 22.11411
195.6804, 22.15355
196.1625, 22.12364
196.6446, 22.03011
197.1268, 21.89828
197.6089, 21.79344
198.0910, 21.75512
198.5731, 21.72317
199.0552, 21.56531
199.5373, 21.23607
200.0195, 21.01532
200.5016, 21.11730
200.9837, 21.48373
201.4658, 21.80950
201.9479, 21.97332
202.4300, 22.09518
202.9122, 22.31879
203.3943, 22.65814
203.8764, 22.99802
204.3585, 23.21546
204.8406, 23.31207
205.3227, 23.49523
205.8048, 23.94799
206.2870, 24.40252
206.7691, 24.65932
207.2512, 24.69652
207.7333, 24.63774
208.2154, 24.56598
208.6975, 24.45546
209.1797, 24.48748
209.6618, 24.87871
210.1439, 25.29871
210.6260, 25.52848
211.1081, 25.54466
211.5902, 25.52967
212.0724, 25.75783
212.5545, 26.36247
213.0366, 26.79652
213.5187, 26.89965
214.0008, 26.92298
214.4829, 27.02173
214.9651, 27.22360
215.4472, 27.44844
215.9293, 27.56133
216.4114, 27.43881
216.8935, 27.46793
217.3756, 27.67625
217.8578, 27.98547
218.3399, 28.42725
218.8220, 28.97033
219.3041, 29.45272
219.7862, 29.59316
220.2683, 29.03701
220.7505, 28.83666
221.2326, 29.26792
221.7147, 29.84137
222.1968, 30.25933
222.6789, 30.42568
223.1610, 30.30550
223.6432, 29.81069
224.1253, 28.57893
224.6074, 27.73315
225.0895, 27.52363
225.5716, 27.55292
226.0537, 27.48366
226.5358, 27.23368
227.0180, 26.90850
227.5001, 26.66419
227.9822, 26.56167
228.4643, 26.33532
228.9464, 25.85886
229.4285, 25.30186
229.9107, 24.85295
230.3928, 24.55597
230.8749, 24.31990
231.3570, 24.01624
231.8391, 23.62839
232.3212, 23.34706
232.8034, 23.30380
233.2855, 23.34545
233.7676, 23.27193
234.2497, 23.03848
234.7318, 22.74475
235.2139, 22.48212
235.6961, 22.24771
236.1782, 22.04494
236.6603, 21.89853
237.1424, 21.77755
237.6245, 21.61009
238.1066, 21.35837
238.5888, 21.15659
239.0709, 21.19527
239.5530, 21.40180
240.0351, 21.55536
240.5172, 21.53735
240.9993, 21.42647
241.4815, 21.38579
241.9636, 21.45828
242.4457, 21.51175
242.9278, 21.44268
243.4099, 21.28544
243.8920, 21.09873
244.3742, 20.86102
244.8563, 20.61775
245.3384, 20.48813
245.8205, 20.51813
246.3026, 20.56063
246.7847, 20.52724
247.2668, 20.45132
247.7490, 20.38961
248.2311, 20.39697
248.7132, 20.42114
249.1953, 20.30453
249.6774, 19.94191
250.1595, 19.65660
250.6417, 19.72034
251.1238, 19.89725
251.6059, 19.84843
252.0880, 19.34347
252.5701, 18.61596
253.0522, 18.28037
253.5344, 18.56262
254.0165, 18.80664
254.4986, 18.85065
254.9807, 18.74503
255.4628, 18.50728
255.9449, 18.12411
256.4271, 17.69142
256.9092, 17.43531
257.3913, 17.42191
257.8734, 17.47692
258.3555, 17.64761
258.8376, 17.81631
259.3198, 17.85042
259.8019, 17.69629
260.2840, 17.45292
260.7661, 17.34123
261.2482, 17.48485
261.7303, 17.52183
262.2125, 17.35008
262.6946, 17.10842
263.1767, 16.88348
263.6588, 16.70868
264.1409, 16.61175
264.6230, 16.67311
265.1052, 17.09120
265.5873, 17.26673
266.0694, 16.99546
266.5515, 16.63154
267.0336, 16.45873
267.5157, 16.52952
267.9979, 16.66882
268.4800, 16.59491
268.9621, 16.11226
269.4442, 15.84946
269.9263, 15.90325
270.4084, 16.05892
270.8906, 16.23052
271.3727, 16.37907
271.8548, 16.45374
272.3369, 16.36861
272.8190, 16.01744
273.3011, 15.87294
273.7833, 16.11719
274.2654, 16.37478
274.7475, 16.43633
275.2296, 16.29728
275.7117, 16.06005
276.1938, 15.79879
276.6760, 15.46649
277.1581, 15.42675
277.6402, 15.95072
278.1223, 16.44641
278.6044, 16.63239
279.0865, 16.53741
279.5686, 16.33782
280.0508, 16.16512
280.5329, 16.01925
281.0150, 15.91456
281.4971, 15.77364
281.9792, 15.73996
282.4613, 15.94379
282.9435, 16.30308
283.4256, 16.64088
283.9077, 16.85168
284.3898, 16.93624
284.8719, 16.88150
285.3540, 16.54778
285.8362, 16.25415
286.3183, 16.10018
286.8004, 16.04232
287.2825, 15.99728
287.7646, 15.92180
288.2467, 15.83141
288.7289, 15.78113
289.2110, 15.84584
289.6931, 15.85629
290.1752, 15.73750
290.6573, 15.56184
291.1394, 15.43338
291.6216, 15.39322
292.1037, 15.40608
292.5858, 15.39951
293.0679, 15.35124
293.5500, 15.32705
294.0321, 15.39163
294.5143, 15.45843
294.9964, 15.40364
295.4785, 15.19458
295.9606, 14.94755
296.4427, 14.82294
296.9248, 14.85229
297.4070, 14.93368
297.8891, 15.18337
298.3712, 15.41272
298.8533, 15.41620
299.3354, 15.17487
299.8175, 14.87418
300.2997, 14.69666
300.7818, 14.66599
301.2639, 14.64194
301.7460, 14.60007
302.2281, 14.58342
302.7102, 14.65297
303.1924, 14.79419
303.6745, 14.90723
304.1566, 14.91916
304.6387, 14.82699
305.1208, 14.68816
305.6029, 14.33285
306.0851, 14.09525
306.5672, 14.24010
307.0493, 14.66385
307.5314, 15.02868
308.0135, 15.13983
308.4956, 15.04891
308.9778, 14.98228
309.4599, 14.93174
309.9420, 14.90911
310.4241, 14.96057
310.9062, 15.03955
311.3883, 15.03188
311.8705, 14.87273
312.3526, 14.66044
312.8347, 14.63183
313.3168, 14.85851
313.7989, 15.06330
314.2810, 15.20436
314.7632, 15.28930
315.2453, 15.31343
315.7274, 15.27244
316.2095, 15.21634
316.6916, 15.23034
317.1737, 15.35454
317.6559, 15.35922
318.1380, 15.06693
318.6201, 14.74181
319.1022, 14.63639
319.5843, 14.77946
320.0664, 15.04120
320.5485, 15.34269
321.0306, 15.68478
321.5128, 15.84191
321.9949, 15.68742
322.4770, 15.46215
322.9591, 15.28030
323.4412, 15.15660
323.9233, 15.11258
324.4055, 15.18591
324.8876, 15.34911
325.3697, 15.40250
325.8518, 15.23214
326.3339, 15.09326
326.8160, 15.09546
327.2982, 15.19884
327.7803, 15.32846
328.2624, 15.46099
328.7445, 15.57156
329.2266, 15.58175
329.7087, 15.42535
330.1909, 15.30344
330.6730, 15.23476
331.1551, 15.22745
331.6372, 15.33977
332.1193, 15.59164
332.6014, 15.83015
333.0836, 15.81542
333.5657, 15.41984
334.0478, 15.14193
334.5299, 15.11801
335.0120, 15.13976
335.4941, 14.99548
335.9763, 14.67980
336.4584, 14.39310
336.9405, 14.34268
337.4226, 14.55787
337.9047, 14.64036
338.3868, 14.40877
338.8690, 14.22997
339.3511, 14.37560
339.8332, 14.75078
340.3153, 15.03670
340.7974, 15.01794
341.2795, 14.75274
341.7617, 14.61350
342.2438, 14.77060
342.7259, 14.83436
343.2080, 14.57746
343.6901, 14.20653
344.1722, 14.05073
344.6544, 14.24900
345.1365, 14.66066
345.6186, 15.00241
346.1007, 15.37135
346.5828, 15.48944
347.0649, 15.09436
347.5471, 14.59837
348.0292, 14.39938
348.5113, 14.55554
348.9934, 14.80751
349.4755, 14.84362
349.9576, 14.60295
350.4398, 14.38250
350.9219, 13.99392
351.4040, 13.78638
351.8861, 14.08538
352.3682, 14.75772
352.8503, 15.39098
353.3325, 15.67051
353.8146, 15.61601
354.2967, 15.53396
354.7788, 15.32825
355.2609, 15.20453
355.7430, 15.22392
356.2252, 15.34721
356.7073, 15.55261
357.1894, 15.83246
357.6715, 16.11090
358.1536, 16.18348
358.6357, 15.76249
359.1179, 15.57878
359.5999, 15.86120
360.0821, 16.24306
360.5642, 16.39970
361.0463, 16.28226
361.5284, 16.09963
362.0105, 16.12795
362.4926, 16.45075
362.9748, 16.66139
363.4569, 16.71413
363.9390, 16.70628
364.4211, 16.61950
364.9032, 16.50073
365.3853, 16.45300
365.8675, 16.56471
366.3496, 16.81692
366.8317, 17.03489
367.3138, 17.30439
367.7959, 17.41400
368.2780, 17.17675
368.7602, 16.81184
369.2423, 16.62047
369.7244, 16.74112
370.2065, 16.97816
370.6886, 16.90544
371.1707, 16.33307
371.6529, 15.93288
372.1350, 16.02045
372.6171, 16.14080
373.0992, 15.93967
373.5813, 15.39759
374.0634, 14.81872
374.5456, 14.56075
375.0277, 14.64541
375.5098, 14.57563
375.9919, 14.17056
376.4740, 13.79245
376.9561, 13.63763
377.4383, 13.63727
377.9204, 13.62542
378.4025, 13.49892
378.8846, 13.30007
379.3667, 13.14722
379.8488, 13.05390
380.3310, 12.97227
380.8131, 12.91323
381.2952, 12.84249
381.7773, 12.69472
382.2594, 12.42878
382.7415, 12.19848
383.2237, 12.22414
383.7058, 12.50366
384.1879, 12.69244
384.6700, 12.65190
385.1521, 12.54867
385.6342, 12.54309
386.1164, 12.62928
386.5985, 12.70546
387.0806, 12.69531
387.5627, 12.63634
388.0448, 12.65288
388.5269, 12.80361
389.0091, 12.86288
389.4912, 12.50784
389.9733, 11.93617
390.4554, 11.59721
390.9375, 11.70284
391.4196, 11.96225
391.9018, 12.18181
392.3839, 12.35193
392.8660, 12.34482
393.3481, 12.00025
393.8302, 11.54547
394.3123, 11.45399
394.7945, 11.84366
395.2766, 12.17393
395.7587, 12.16683
396.2408, 11.97920
396.7229, 11.88391
397.2050, 11.94672
397.6872, 12.04532
398.1693, 12.04116
398.6514, 11.92254
399.1335, 11.83179
399.6156, 11.77809
400.0977, 11.75069
400.5798, 11.75772
401.0620, 11.78894
401.5441, 11.80949
402.0262, 11.80086
402.5083, 11.76213
402.9904, 11.68557
403.4725, 11.44363
403.9547, 11.32574
404.4368, 11.55924
404.9189, 11.88155
405.4010, 11.94114
405.8831, 11.63438
406.3652, 11.13125
406.8474, 10.63928
407.3295, 10.01582
407.8116, 9.880601
408.2937, 10.71976
408.7758, 11.55713
409.2579, 11.84252
409.7401, 11.62397
410.2222, 11.22072
410.7043, 10.83724
411.1864, 10.49050
411.6685, 10.31440
412.1506, 10.41714
412.6328, 10.57363
413.1149, 10.82385
413.5970, 11.07726
414.0791, 11.23231
414.5612, 11.25593
415.0433, 11.20525
415.5255, 11.18100
416.0076, 11.22192
416.4897, 11.15283
416.9718, 10.75098
417.4539, 10.41878
417.9360, 10.39346
418.4182, 10.62268
418.9003, 10.88276
419.3824, 11.01653
419.8645, 11.05125
420.3466, 11.11884
420.8287, 11.25512
421.3109, 11.34712
421.7930, 11.30136
422.2751, 11.20952
422.7572, 11.19713
423.2393, 11.32156
423.7214, 11.42103
424.2036, 11.23247
424.6857, 10.77499
425.1678, 10.56002
425.6499, 10.82971
426.1320, 11.21841
426.6141, 11.38924
427.0963, 11.36379
427.5784, 11.30211
428.0605, 11.25555
428.5426, 11.21955
429.0247, 11.17765
429.5068, 11.12627
429.9890, 11.11627
430.4711, 11.21775
430.9532, 11.37508
431.4353, 11.41282
431.9174, 11.25315
432.3995, 11.08866
432.8817, 11.00065
433.3638, 10.97886
433.8459, 11.01562
434.3280, 11.11500
434.8101, 11.23178
435.2922, 11.31173
435.7744, 11.35962
436.2565, 11.32980
436.7386, 11.10359
437.2207, 10.89245
437.7028, 10.87318
438.1849, 11.01708
438.6671, 11.17772
439.1492, 11.26387
439.6313, 11.27746
440.1134, 11.22592
440.5955, 10.93871
441.0776, 10.79872
441.5598, 10.93320
442.0418, 11.19164
442.5240, 11.45880
443.0061, 11.68777
443.4882, 11.83666
443.9703, 11.82457
444.4524, 11.59232
444.9345, 11.47785
445.4167, 11.63324
445.8988, 11.75760
446.3809, 11.74653
446.8630, 11.62416
447.3451, 11.42954
447.8272, 11.16136
448.3094, 10.89463
448.7915, 10.84580
449.2736, 11.10431
449.7557, 11.32510
450.2378, 11.42157
450.7199, 11.45155
451.2021, 11.45267
451.6842, 11.42878
452.1663, 11.35782
452.6484, 11.13840
453.1305, 10.83756
453.6126, 10.81776
454.0948, 11.24373
454.5769, 11.60750
455.0590, 11.39911
455.5411, 10.91040
456.0232, 10.66481
456.5053, 10.90714
456.9875, 11.24524
457.4696, 11.36363
457.9517, 11.29512
458.4338, 11.18312
458.9159, 11.06064
459.3980, 10.94139
459.8802, 10.83769
460.3623, 10.74205
460.8444, 10.70369
461.3265, 10.80945
461.8086, 10.92312
462.2907, 10.91381
462.7729, 10.78465
463.2550, 10.60774
463.7371, 10.40920
464.2192, 10.21633
464.7013, 10.18696
465.1834, 10.49627
465.6656, 10.73399
466.1477, 10.82782
466.6298, 10.83043
467.1119, 10.74138
467.5940, 10.58683
468.0761, 10.51454
468.5583, 10.74375
469.0404, 11.36802
469.5225, 11.69624
470.0046, 11.53506
470.4867, 11.27056
470.9688, 10.88091
471.4510, 10.49336
471.9331, 10.31420
472.4152, 10.45400
472.8973, 10.76073
473.3794, 10.97111
473.8615, 11.09162
474.3437, 11.08450
474.8258, 10.76709
475.3079, 10.46065
475.7900, 10.38431
476.2721, 10.51814
476.7542, 10.68406
477.2364, 10.79611
477.7185, 10.85961
478.2006, 10.88307
478.6827, 10.86335
479.1648, 10.82387
479.6469, 10.78948
480.1291, 10.73359
480.6112, 10.59350
481.0933, 10.31039
481.5754, 10.10146
482.0575, 10.13794
482.5396, 10.30945
483.0217, 10.40305
483.5038, 10.37401
483.9860, 10.33083
484.4681, 10.40110
484.9502, 10.58822
485.4323, 10.60554
485.9144, 10.20168
486.3965, 9.904929
486.8787, 10.07178
487.3608, 10.47850
487.8429, 10.67409
488.3250, 10.47887
488.8071, 10.13791
489.2892, 10.10780
489.7714, 10.61052
490.2535, 10.87674
490.7356, 10.74267
491.2177, 10.56555
491.6998, 10.52273
492.1819, 10.58938
492.6641, 10.65624
493.1462, 10.64934
493.6283, 10.60737
494.1104, 10.67369
494.5925, 10.94430
495.0746, 11.06125
495.5568, 10.63257
496.0389, 10.23592
496.5210, 10.44374
497.0031, 11.22659
497.4852, 11.82271
497.9673, 11.49076
498.4495, 10.57755
498.9316, 10.03173
499.4137, 9.915417
499.8958, 10.03620
500.3779, 10.47428
500.8600, 11.01607
501.3422, 11.20523
501.8243, 10.86673
502.3064, 10.50970
502.7885, 10.38969
503.2706, 10.42087
503.7527, 10.45789
504.2349, 10.46987
504.7170, 10.47441
505.1991, 10.49995
505.6812, 10.55011
506.1633, 10.50171
506.6454, 10.18566
507.1276, 9.969046
507.6097, 10.07520
508.0918, 10.34261
508.5739, 10.52948
509.0560, 10.54449
509.5381, 10.44080
510.0203, 10.26959
510.5024, 9.943837
510.9845, 9.849762
511.4666, 10.26569
511.9487, 10.63802
512.4308, 10.72639
512.9130, 10.61421
513.3951, 10.47943
513.8772, 10.39901
514.3593, 10.37894
514.8414, 10.49297
515.3235, 10.78775
515.8057, 10.84667
516.2878, 10.38602
516.7699, 9.843512
517.2520, 9.560841
517.7341, 9.526058
518.2162, 9.618183
518.6984, 9.869201
519.1805, 10.17258
519.6626, 10.40238
520.1447, 10.55743
520.6268, 10.65629
521.1089, 10.69381
521.5911, 10.69676
522.0732, 10.72543
522.5553, 10.78553
523.0374, 10.84862
523.5195, 10.98761
524.0016, 11.07372
524.4838, 10.88632
524.9659, 10.49401
525.4480, 10.27240
525.9301, 10.52859
526.4122, 11.12993
526.8943, 11.38433
527.3765, 10.93888
527.8586, 10.63881
528.3407, 10.64312
528.8228, 10.75113
529.3049, 10.80777
529.7870, 10.79271
530.2692, 10.77291
530.7513, 10.81855
531.2334, 10.91155
531.7155, 10.94926
532.1976, 10.93798
532.6797, 10.85553
533.1619, 10.54270
533.6440, 10.22762
534.1261, 10.20640
534.6082, 10.56611
535.0903, 10.86621
535.5724, 10.69543
536.0546, 10.28626
536.5367, 10.18167
537.0188, 10.46827
537.5009, 10.76296
537.9830, 10.75594
538.4651, 10.51895
538.9473, 10.46429
539.4294, 10.80042
539.9115, 11.03917
540.3936, 10.93586
540.8757, 10.71232
541.3578, 10.69639
541.8400, 10.92473
542.3221, 11.09481
542.8042, 10.84597
543.2863, 10.16481
543.7684, 9.901953
544.2505, 10.59033
544.7326, 11.06652
545.2147, 10.94700
545.6968, 10.58875
546.1790, 10.35764
546.6611, 10.35379
547.1432, 10.49825
547.6253, 10.80031
548.1074, 11.22973
548.5895, 11.40183
549.0717, 11.22424
549.5538, 10.95661
550.0359, 10.67509
550.5180, 10.42218
551.0001, 10.26430
551.4822, 10.20851
551.9644, 10.25966
552.4465, 10.55776
552.9286, 10.93902
553.4107, 10.99624
553.8928, 10.64306
554.3749, 10.28789
554.8571, 10.31581
555.3392, 10.71478
555.8213, 10.98588
556.3034, 11.07591
556.7855, 11.12397
557.2676, 11.14268
557.7498, 11.15050
558.2319, 11.16432
558.7140, 11.18927
559.1961, 11.22670
559.6782, 11.29305
560.1603, 11.38959
560.6425, 11.38232
561.1246, 11.19383
561.6067, 11.01231
562.0888, 10.85905
562.5709, 10.76018
563.0530, 10.75938
563.5352, 10.86984
564.0173, 11.00904
564.4994, 11.09502
564.9815, 11.15269
565.4636, 11.30525
565.9457, 11.60344
566.4279, 11.78629
566.9100, 11.62584
567.3921, 11.21490
567.8742, 10.90150
568.3563, 10.62195
568.8384, 10.54231
569.3206, 10.92234
569.8027, 11.43076
570.2848, 11.59226
570.7669, 11.37985
571.2490, 11.21308
571.7311, 11.48777
572.2133, 12.14325
572.6954, 12.50150
573.1775, 12.40728
573.6596, 12.20915
574.1417, 11.79261
574.6238, 11.40109
575.1060, 11.27516
575.5881, 11.42062
576.0702, 11.62966
576.5523, 11.75455
577.0344, 11.80301
577.5165, 11.79317
577.9987, 11.71341
578.4808, 11.62494
578.9629, 11.53642
579.4450, 11.46620
579.9271, 11.45508
580.4092, 11.51930
580.8914, 11.53013
581.3735, 11.35924
581.8556, 11.16033
582.3377, 11.10559
582.8198, 11.19423
583.3019, 11.34284
583.7841, 11.50934
584.2662, 11.69016
584.7483, 11.88286
585.2304, 12.22290
585.7125, 12.33923
586.1946, 12.06350
586.6768, 11.72801
587.1589, 11.48765
587.6410, 11.36494
588.1231, 11.36342
588.6052, 11.50318
