##NAMES=Inderborite
##RRUFFID=R060871
##IDEAL CHEMISTRY=CaMg[B_3_O_3_(OH)_5_]_2_&#183;6H_2_O
##LOCALITY=TL, Inder, Kazakhstan
##OWNER=RRUFF
##SOURCE=Michael Scott
##DESCRIPTION=Colorless well-formed prismatic crystals
##STATUS=The identification of this mineral has been confirmed by single-crystal X-ray diffraction.
##URL=rruff.info/R060871
131.6475, 3202.921
132.1296, 3217.549
132.6117, 3246.052
133.0938, 3278.252
133.5759, 3303.704
134.0581, 3325.102
134.5402, 3372.262
135.0223, 3449.614
135.5044, 3545.506
135.9865, 3641.984
136.4686, 3739.688
136.9507, 3831.120
137.4329, 3905.036
137.9150, 3956.240
138.3971, 4032.685
138.8792, 4146.334
139.3613, 4284.864
139.8434, 4402.569
140.3256, 4489.162
140.8077, 4579.534
141.2898, 4704.754
141.7719, 4880.186
142.2540, 5042.572
142.7361, 5175.179
143.2183, 5280.702
143.7004, 5408.009
144.1825, 5566.202
144.6646, 5737.034
145.1467, 5901.947
145.6288, 6073.292
146.1110, 6221.859
146.5931, 6341.858
147.0752, 6433.881
147.5573, 6497.828
148.0394, 6534.936
148.5215, 6543.224
149.0037, 6519.145
149.4858, 6438.223
149.9679, 6349.140
150.4500, 6262.804
150.9321, 6175.355
151.4142, 6099.852
151.8963, 6039.287
152.3785, 5991.227
152.8606, 5949.952
153.3427, 5925.578
153.8248, 5900.381
154.3069, 5866.996
154.7890, 5818.230
155.2712, 5769.591
155.7533, 5725.115
156.2354, 5683.611
156.7175, 5637.457
157.1996, 5579.293
157.6817, 5518.745
158.1639, 5461.828
158.6460, 5412.650
159.1281, 5363.978
159.6102, 5309.320
160.0923, 5249.327
160.5744, 5200.233
161.0566, 5175.242
161.5387, 5160.528
162.0208, 5142.547
162.5029, 5106.942
162.9850, 5074.702
163.4671, 5060.906
163.9493, 5068.782
164.4314, 5067.989
164.9135, 5038.804
165.3956, 4992.897
165.8777, 4947.118
166.3598, 4905.913
166.8419, 4869.256
167.3241, 4838.505
167.8062, 4815.261
168.2883, 4792.571
168.7704, 4764.508
169.2525, 4733.514
169.7346, 4704.715
170.2168, 4683.553
170.6989, 4665.096
171.1810, 4643.481
171.6631, 4614.867
172.1452, 4589.206
172.6273, 4576.169
173.1095, 4573.663
173.5916, 4573.457
174.0737, 4567.699
174.5558, 4561.657
175.0379, 4563.112
175.5201, 4574.830
176.0022, 4593.389
176.4843, 4619.517
176.9664, 4651.619
177.4485, 4678.203
177.9306, 4683.424
178.4128, 4676.618
178.8949, 4677.930
179.3770, 4697.167
179.8591, 4725.647
180.3412, 4751.369
180.8233, 4774.548
181.3055, 4793.972
181.7876, 4812.070
182.2697, 4826.435
182.7518, 4829.288
183.2339, 4805.486
183.7160, 4769.856
184.1981, 4761.920
184.6803, 4784.448
185.1624, 4814.279
185.6445, 4827.062
186.1266, 4824.254
186.6087, 4815.858
187.0908, 4799.709
187.5730, 4780.063
188.0551, 4775.001
188.5372, 4786.216
189.0193, 4807.755
189.5014, 4833.312
189.9835, 4862.993
190.4657, 4893.710
190.9478, 4928.196
191.4299, 4964.786
191.9120, 4987.717
192.3941, 4994.596
192.8762, 4990.486
193.3584, 4985.430
193.8405, 4979.920
194.3226, 4966.478
194.8047, 4938.220
195.2868, 4895.681
195.7689, 4852.987
196.2511, 4811.146
196.7332, 4769.667
197.2153, 4723.538
197.6974, 4670.055
198.1795, 4627.444
198.6616, 4612.090
199.1437, 4625.398
199.6259, 4639.001
200.1080, 4648.987
200.5901, 4656.751
201.0722, 4666.419
201.5543, 4677.608
202.0364, 4692.006
202.5186, 4709.332
203.0007, 4728.531
203.4828, 4758.736
203.9649, 4805.601
204.4470, 4865.409
204.9291, 4911.946
205.4113, 4941.152
205.8934, 4967.186
206.3755, 5008.558
206.8576, 5072.951
207.3397, 5116.121
207.8218, 5124.689
208.3040, 5100.738
208.7861, 5076.998
209.2682, 5055.497
209.7503, 5031.557
210.2324, 5000.307
210.7145, 4961.783
211.1967, 4917.687
211.6788, 4867.440
212.1609, 4810.949
212.6430, 4754.516
213.1251, 4696.761
213.6072, 4641.861
214.0893, 4593.947
214.5715, 4552.509
215.0536, 4519.277
215.5357, 4496.200
216.0178, 4484.114
216.4999, 4472.795
216.9820, 4460.986
217.4642, 4450.922
217.9463, 4446.534
218.4284, 4450.396
218.9105, 4453.866
219.3926, 4454.380
219.8747, 4451.817
220.3569, 4445.903
220.8390, 4433.658
221.3211, 4420.241
221.8032, 4414.351
222.2853, 4418.383
222.7674, 4425.803
223.2496, 4434.619
223.7317, 4445.303
224.2138, 4456.648
224.6959, 4469.154
225.1780, 4482.288
225.6601, 4495.369
226.1423, 4507.791
226.6244, 4521.052
227.1065, 4534.140
227.5886, 4542.059
228.0707, 4564.422
228.5528, 4612.558
229.0349, 4671.847
229.5171, 4703.196
229.9992, 4690.664
230.4813, 4675.294
230.9634, 4675.546
231.4455, 4700.048
231.9276, 4720.720
232.4098, 4735.080
232.8919, 4746.000
233.3740, 4761.095
233.8561, 4780.789
234.3382, 4804.114
234.8203, 4831.436
235.3025, 4865.242
235.7846, 4897.399
236.2667, 4926.304
236.7488, 4953.678
237.2309, 4984.768
237.7130, 5020.789
238.1952, 5058.487
238.6773, 5095.087
239.1594, 5124.831
239.6415, 5166.303
240.1236, 5226.496
240.6057, 5299.779
241.0879, 5363.233
241.5700, 5412.103
242.0521, 5456.592
242.5342, 5501.825
243.0163, 5547.903
243.4984, 5593.816
243.9805, 5635.579
244.4627, 5676.377
244.9448, 5734.293
245.4269, 5825.639
245.9090, 5912.681
246.3911, 5971.977
246.8732, 5986.373
247.3554, 6009.805
247.8375, 6055.776
248.3196, 6115.511
248.8017, 6141.630
249.2838, 6116.758
249.7659, 6081.210
250.2481, 6060.988
250.7302, 6069.337
251.2123, 6064.120
251.6944, 6039.881
252.1765, 5999.453
252.6586, 5955.462
253.1408, 5907.132
253.6229, 5856.909
254.1050, 5804.895
254.5871, 5749.010
255.0692, 5698.214
255.5513, 5654.390
256.0334, 5616.815
256.5156, 5578.812
256.9977, 5538.643
257.4798, 5500.199
257.9619, 5466.260
258.4440, 5437.710
258.9261, 5409.511
259.4083, 5378.047
259.8904, 5345.574
260.3725, 5329.093
260.8546, 5339.979
261.3367, 5347.613
261.8188, 5327.493
262.3010, 5265.096
262.7831, 5216.790
263.2652, 5190.248
263.7473, 5182.267
264.2294, 5177.635
264.7115, 5179.547
265.1937, 5178.843
265.6758, 5167.272
266.1579, 5140.533
266.6400, 5119.418
267.1221, 5106.972
267.6042, 5101.994
268.0864, 5099.397
268.5685, 5098.850
269.0506, 5101.653
269.5327, 5108.744
270.0148, 5120.354
270.4969, 5136.769
270.9791, 5161.771
271.4612, 5190.906
271.9433, 5203.676
272.4254, 5196.019
272.9075, 5183.714
273.3896, 5176.055
273.8718, 5172.899
274.3539, 5176.438
274.8360, 5188.820
275.3181, 5207.203
275.8002, 5223.965
276.2823, 5240.502
276.7645, 5250.025
277.2466, 5246.589
277.7287, 5228.982
278.2108, 5208.083
278.6929, 5183.089
279.1750, 5156.770
279.6572, 5136.406
280.1393, 5122.052
280.6214, 5112.958
281.1035, 5110.540
281.5856, 5114.850
282.0677, 5117.832
282.5498, 5120.048
283.0320, 5118.821
283.5141, 5102.559
283.9962, 5068.929
284.4783, 5043.114
284.9604, 5047.114
285.4425, 5078.829
285.9247, 5100.522
286.4068, 5105.727
286.8889, 5104.195
287.3710, 5119.060
287.8531, 5150.676
288.3352, 5173.996
288.8174, 5167.478
289.2995, 5136.552
289.7816, 5113.912
290.2637, 5103.033
290.7458, 5101.191
291.2279, 5108.803
291.7101, 5124.941
292.1922, 5136.987
292.6743, 5128.957
293.1564, 5109.576
293.6385, 5112.345
294.1206, 5144.475
294.6028, 5185.407
295.0849, 5209.182
295.5670, 5217.494
296.0491, 5219.896
296.5312, 5217.748
297.0133, 5213.952
297.4955, 5215.347
297.9776, 5222.877
298.4597, 5234.048
298.9418, 5245.960
299.4239, 5259.072
299.9060, 5274.712
300.3882, 5280.842
300.8703, 5293.333
301.3524, 5350.962
301.8345, 5462.584
302.3166, 5566.633
302.7987, 5591.760
303.2809, 5562.564
303.7630, 5538.827
304.2451, 5555.558
304.7272, 5588.966
305.2093, 5607.141
305.6914, 5607.535
306.1736, 5614.866
306.6557, 5655.288
307.1378, 5715.959
307.6199, 5774.358
308.1020, 5822.735
308.5841, 5864.732
309.0663, 5900.049
309.5484, 5929.409
310.0305, 5963.885
310.5126, 6014.959
310.9947, 6074.894
311.4768, 6133.133
311.9590, 6182.785
312.4411, 6232.129
312.9232, 6284.917
313.4053, 6341.459
313.8874, 6401.251
314.3695, 6469.342
314.8516, 6539.460
315.3337, 6605.846
315.8159, 6659.510
316.2980, 6715.599
316.7801, 6785.535
317.2622, 6866.300
317.7443, 6940.361
318.2264, 7003.963
318.7086, 7055.972
319.1907, 7094.601
319.6728, 7098.258
320.1549, 7113.761
320.6370, 7175.174
321.1191, 7265.049
321.6013, 7316.106
322.0834, 7283.232
322.5655, 7225.914
323.0476, 7174.760
323.5297, 7133.273
324.0118, 7098.758
324.4940, 7075.026
324.9761, 7058.292
325.4582, 7038.451
325.9403, 7028.883
326.4224, 7004.038
326.9045, 6951.444
327.3867, 6849.336
327.8688, 6757.914
328.3509, 6678.956
328.8330, 6611.502
329.3151, 6552.571
329.7972, 6507.380
330.2794, 6465.307
330.7615, 6424.108
331.2436, 6385.684
331.7257, 6341.459
332.2078, 6286.214
332.6899, 6227.940
333.1721, 6177.899
333.6542, 6139.338
334.1363, 6104.443
334.6184, 6070.831
335.1005, 6038.589
335.5826, 6011.369
336.0648, 5992.447
336.5469, 5974.629
337.0290, 5946.773
337.5111, 5900.932
337.9932, 5869.588
338.4753, 5866.018
338.9575, 5885.860
339.4396, 5884.037
339.9217, 5853.089
340.4038, 5818.350
340.8859, 5802.576
341.3680, 5807.435
341.8502, 5816.925
342.3323, 5830.687
342.8144, 5845.780
343.2965, 5848.747
343.7786, 5837.771
344.2607, 5829.696
344.7428, 5841.653
345.2249, 5871.234
345.7071, 5890.781
346.1892, 5894.241
346.6713, 5890.194
347.1534, 5893.771
347.6355, 5904.709
348.1176, 5918.564
348.5998, 5934.552
349.0819, 5951.282
349.5640, 5963.654
350.0461, 5969.591
350.5282, 5976.340
351.0103, 5993.638
351.4925, 6019.438
351.9746, 6047.490
352.4567, 6083.220
352.9388, 6115.697
353.4209, 6127.200
353.9030, 6115.740
354.3852, 6095.120
354.8673, 6072.164
355.3494, 6049.012
355.8315, 6029.450
356.3136, 6014.293
356.7957, 6004.210
357.2779, 6000.667
357.7600, 6003.717
358.2421, 6010.653
358.7242, 6025.240
359.2063, 6040.872
359.6884, 6050.520
360.1706, 6053.704
360.6527, 6048.658
361.1348, 6028.682
361.6169, 5996.912
362.0990, 5971.372
362.5811, 5962.583
363.0633, 5959.604
363.5454, 5955.160
364.0275, 5945.870
364.5096, 5937.719
364.9917, 5931.613
365.4738, 5927.599
365.9560, 5925.826
366.4381, 5933.635
366.9202, 5937.842
367.4023, 5930.868
367.8844, 5900.173
368.3665, 5885.190
368.8487, 5900.866
369.3308, 5930.179
369.8129, 5946.876
370.2950, 5940.161
370.7771, 5934.012
371.2592, 5932.707
371.7414, 5935.492
372.2235, 5949.132
372.7056, 5980.409
373.1877, 6016.283
373.6698, 6041.197
374.1519, 6047.692
374.6340, 6061.853
375.1161, 6092.825
375.5983, 6137.180
376.0804, 6163.433
376.5625, 6165.845
377.0446, 6163.405
377.5267, 6173.632
378.0089, 6199.173
378.4910, 6210.592
378.9731, 6198.618
379.4552, 6176.275
379.9373, 6180.719
380.4194, 6214.244
380.9016, 6243.534
381.3837, 6243.383
381.8658, 6219.759
382.3479, 6208.731
382.8300, 6215.831
383.3121, 6226.053
383.7943, 6215.112
384.2764, 6187.436
384.7585, 6163.659
385.2406, 6158.220
385.7227, 6161.862
386.2048, 6157.894
386.6870, 6145.658
387.1691, 6130.934
387.6512, 6114.602
388.1333, 6099.760
388.6154, 6092.170
389.0975, 6104.229
389.5797, 6115.491
390.0618, 6104.462
390.5439, 6074.456
391.0260, 6046.410
391.5081, 6028.201
391.9902, 6019.745
392.4724, 6023.243
392.9545, 6053.027
393.4366, 6072.544
393.9187, 6051.474
394.4008, 6007.927
394.8829, 5984.249
395.3651, 6013.893
395.8472, 6051.236
396.3293, 6075.473
396.8114, 6082.321
397.2935, 6082.386
397.7756, 6065.666
398.2578, 6046.361
398.7399, 6043.058
399.2220, 6076.852
399.7041, 6105.704
400.1862, 6121.520
400.6683, 6123.725
401.1505, 6121.189
401.6326, 6110.559
402.1147, 6098.332
402.5968, 6091.179
403.0789, 6097.484
403.5610, 6088.466
404.0432, 6052.371
404.5253, 5999.526
405.0074, 5974.206
405.4895, 5985.004
405.9716, 6000.564
406.4537, 5998.802
406.9358, 5977.178
407.4179, 5979.756
407.9001, 6018.008
408.3822, 6062.860
408.8643, 6057.742
409.3464, 6003.210
409.8285, 5960.903
410.3106, 5968.653
410.7928, 6009.852
411.2749, 6024.058
411.7570, 6008.771
412.2391, 5996.616
412.7212, 6029.117
413.2033, 6090.741
413.6855, 6138.272
414.1676, 6151.544
414.6497, 6152.352
415.1318, 6169.752
415.6139, 6199.669
416.0960, 6219.993
416.5782, 6202.313
417.0603, 6174.599
417.5424, 6168.838
418.0245, 6198.587
418.5066, 6229.843
418.9887, 6241.030
419.4709, 6240.444
419.9530, 6243.878
420.4351, 6266.144
420.9172, 6286.492
421.3993, 6291.409
421.8814, 6277.186
422.3636, 6272.069
422.8457, 6289.184
423.3278, 6315.179
423.8099, 6337.868
424.2920, 6363.803
424.7741, 6377.838
425.2563, 6372.990
425.7384, 6352.187
426.2205, 6336.502
426.7026, 6327.589
427.1847, 6321.683
427.6668, 6316.974
428.1490, 6313.204
428.6311, 6310.794
429.1132, 6308.896
429.5953, 6308.813
430.0774, 6316.508
430.5595, 6336.674
431.0417, 6344.552
431.5238, 6324.252
432.0059, 6278.920
432.4880, 6253.864
432.9701, 6252.073
433.4522, 6257.451
433.9344, 6252.338
434.4165, 6238.619
434.8986, 6230.610
435.3807, 6234.915
435.8628, 6243.266
436.3449, 6240.246
436.8270, 6227.033
437.3091, 6211.933
437.7913, 6199.829
438.2734, 6189.649
438.7555, 6179.725
439.2376, 6169.572
439.7197, 6160.630
440.2018, 6152.046
440.6840, 6145.586
441.1661, 6144.456
441.6482, 6157.681
442.1303, 6170.296
442.6124, 6171.119
443.0945, 6160.015
443.5767, 6152.425
444.0588, 6160.466
444.5409, 6170.584
445.0230, 6172.585
445.5051, 6155.926
445.9872, 6141.108
446.4694, 6132.726
446.9515, 6128.710
447.4336, 6122.478
447.9157, 6116.393
448.3978, 6105.419
448.8799, 6083.634
449.3621, 6041.045
449.8442, 6027.627
450.3263, 6057.316
450.8084, 6101.588
451.2905, 6125.035
451.7726, 6121.835
452.2548, 6118.294
452.7369, 6121.941
453.2190, 6129.604
453.7011, 6121.167
454.1832, 6092.744
454.6653, 6072.225
455.1475, 6091.199
455.6296, 6140.771
456.1117, 6164.650
456.5938, 6152.844
457.0759, 6124.124
457.5580, 6096.673
458.0402, 6072.748
458.5223, 6060.808
459.0044, 6077.974
459.4865, 6102.812
459.9686, 6106.438
460.4507, 6088.624
460.9329, 6068.403
461.4150, 6054.474
461.8971, 6047.620
462.3792, 6049.404
462.8613, 6067.561
463.3434, 6084.651
463.8256, 6092.533
464.3077, 6093.079
464.7898, 6091.487
465.2719, 6083.740
465.7540, 6078.771
466.2361, 6081.044
466.7183, 6092.900
467.2004, 6105.147
467.6825, 6118.285
468.1646, 6130.848
468.6467, 6141.301
469.1288, 6147.179
469.6109, 6154.969
470.0930, 6167.835
470.5752, 6183.738
471.0573, 6189.197
471.5394, 6178.748
472.0215, 6170.495
472.5036, 6177.356
472.9857, 6200.432
473.4679, 6220.715
473.9500, 6238.508
474.4321, 6250.055
474.9142, 6246.611
475.3963, 6229.789
475.8784, 6213.278
476.3606, 6200.161
476.8427, 6192.126
477.3248, 6190.736
477.8069, 6196.414
478.2890, 6213.846
478.7711, 6260.024
479.2533, 6315.837
479.7354, 6354.001
480.2175, 6364.481
480.6996, 6366.974
481.1817, 6369.844
481.6638, 6374.494
482.1460, 6383.691
482.6281, 6407.096
483.1102, 6427.244
483.5923, 6432.208
484.0744, 6419.830
484.5565, 6414.744
485.0387, 6422.504
485.5208, 6438.587
486.0029, 6460.193
486.4850, 6500.370
486.9671, 6526.328
487.4492, 6525.301
487.9314, 6511.243
488.4135, 6524.844
488.8956, 6584.013
489.3777, 6632.656
489.8598, 6643.714
490.3419, 6615.774
490.8241, 6614.040
491.3062, 6645.405
491.7883, 6682.763
492.2704, 6692.832
492.7525, 6678.864
493.2346, 6679.484
493.7168, 6708.906
494.1989, 6748.521
494.6810, 6764.753
495.1631, 6760.978
495.6452, 6757.046
496.1273, 6758.125
496.6095, 6768.777
497.0916, 6799.565
497.5737, 6852.754
498.0558, 6904.417
498.5379, 6941.571
499.0200, 6966.836
499.5021, 6982.642
499.9843, 6980.125
500.4664, 6978.710
500.9485, 6987.586
501.4306, 7003.855
501.9127, 7016.124
502.3948, 7015.659
502.8770, 7016.578
503.3591, 7028.187
503.8412, 7060.059
504.3233, 7068.812
504.8054, 7039.300
505.2875, 6998.801
505.7697, 6977.410
506.2518, 6981.701
506.7339, 6983.687
507.2160, 6976.923
507.6981, 6964.756
508.1802, 6959.280
508.6624, 6961.071
509.1445, 6964.739
509.6266, 6967.681
510.1087, 6970.020
510.5908, 6971.647
511.0729, 6972.454
511.5551, 6974.003
512.0372, 6982.066
512.5193, 6992.129
513.0014, 6992.733
513.4835, 6966.794
513.9656, 6945.002
514.4478, 6964.170
514.9299, 7012.497
515.4120, 7046.515
515.8941, 7027.786
516.3762, 7000.726
516.8583, 6994.163
517.3405, 7016.061
517.8226, 7038.007
518.3047, 7054.839
518.7868, 7068.295
519.2689, 7080.213
519.7510, 7093.563
520.2332, 7101.107
520.7153, 7096.970
521.1974, 7086.219
521.6795, 7091.170
522.1616, 7119.887
522.6437, 7146.060
523.1259, 7155.542
523.6080, 7147.801
524.0901, 7142.412
524.5722, 7139.021
525.0543, 7139.434
525.5364, 7148.222
526.0186, 7163.524
526.5007, 7175.444
526.9828, 7180.990
527.4649, 7182.354
527.9470, 7181.149
528.4291, 7177.955
528.9113, 7175.029
529.3934, 7173.315
529.8755, 7172.656
530.3576, 7175.302
530.8397, 7182.006
531.3218, 7181.681
531.8040, 7155.820
532.2861, 7126.913
532.7682, 7116.151
533.2503, 7144.447
533.7324, 7171.263
534.2145, 7195.455
534.6967, 7214.274
535.1788, 7220.058
535.6609, 7200.146
536.1430, 7185.727
536.6251, 7190.796
537.1072, 7216.809
537.5894, 7223.237
538.0715, 7203.257
538.5536, 7180.890
539.0357, 7182.289
539.5178, 7206.424
539.9999, 7217.519
540.4821, 7207.987
540.9642, 7188.596
541.4463, 7171.845
541.9284, 7158.392
542.4105, 7151.036
542.8926, 7158.597
543.3748, 7168.567
543.8569, 7164.696
544.3390, 7147.771
544.8210, 7129.255
545.3032, 7108.700
545.7853, 7093.364
546.2674, 7091.542
546.7495, 7114.080
547.2316, 7128.950
547.7137, 7119.465
548.1959, 7099.519
548.6780, 7089.188
549.1601, 7099.864
549.6422, 7108.907
550.1243, 7113.236
550.6064, 7113.069
551.0886, 7108.890
551.5707, 7098.028
552.0528, 7088.954
552.5349, 7087.606
553.0170, 7094.342
553.4991, 7098.691
553.9813, 7100.232
554.4634, 7100.134
554.9455, 7097.076
555.4276, 7092.776
555.9097, 7095.774
556.3918, 7112.205
556.8740, 7131.748
557.3561, 7138.892
557.8382, 7137.771
558.3203, 7141.959
558.8024, 7161.903
559.2845, 7187.741
559.7667, 7214.959
560.2488, 7243.364
560.7309, 7265.963
561.2130, 7273.406
561.6951, 7278.106
562.1772, 7289.619
562.6594, 7315.284
563.1415, 7339.778
563.6236, 7362.477
564.1057, 7383.484
564.5878, 7404.303
565.0699, 7427.244
565.5521, 7442.213
566.0342, 7441.075
566.5163, 7428.586
566.9984, 7437.705
567.4805, 7470.517
567.9626, 7507.614
568.4448, 7533.163
568.9269, 7551.475
569.4090, 7580.180
569.8911, 7623.244
570.3732, 7662.733
570.8553, 7669.626
571.3375, 7661.770
571.8196, 7670.543
572.3017, 7722.078
572.7838, 7777.340
573.2659, 7819.227
573.7480, 7848.217
574.2302, 7867.390
574.7123, 7859.080
575.1944, 7857.265
575.6765, 7879.945
576.1586, 7933.948
576.6407, 7977.613
577.1229, 8010.417
577.6050, 8034.271
578.0871, 8046.346
578.5692, 8038.886
579.0513, 8055.327
579.5334, 8107.396
580.0156, 8172.972
580.4977, 8211.042
580.9798, 8222.967
581.4619, 8232.924
581.9440, 8252.607
582.4261, 8274.521
582.9083, 8280.403
583.3904, 8272.730
583.8725, 8269.727
584.3546, 8286.094
584.8367, 8310.848
585.3188, 8334.305
585.8010, 8354.773
586.2831, 8374.963
586.7652, 8407.504
587.2473, 8434.875
587.7294, 8439.901
588.2115, 8397.364
588.6937, 8359.438
589.1758, 8327.256
589.6579, 8303.268
590.1400, 8296.085
590.6221, 8315.800
591.1042, 8328.980
591.5864, 8319.949
592.0685, 8292.913
592.5506, 8287.574
593.0327, 8306.586
593.5148, 8327.427
593.9969, 8328.276
594.4791, 8316.561
594.9612, 8317.293
595.4433, 8335.184
595.9254, 8353.584
596.4075, 8358.205
596.8896, 8352.408
597.3718, 8341.245
597.8539, 8312.165
598.3360, 8293.960
598.8181, 8310.073
599.3002, 8349.056
599.7823, 8376.731
600.2645, 8377.220
600.7466, 8373.381
601.2287, 8369.792
601.7108, 8365.640
602.1929, 8375.234
602.6750, 8405.976
603.1572, 8438.564
603.6393, 8459.742
604.1214, 8468.555
604.6035, 8473.721
605.0856, 8474.289
605.5677, 8475.406
606.0498, 8488.027
606.5319, 8508.502
607.0140, 8520.459
607.4962, 8513.956
607.9783, 8502.608
608.4604, 8496.604
608.9425, 8497.770
609.4246, 8512.054
609.9067, 8553.102
610.3889, 8599.543
610.8710, 8638.773
611.3531, 8669.578
611.8352, 8700.573
612.3173, 8734.358
612.7994, 8768.506
613.2816, 8802.269
613.7637, 8836.907
614.2458, 8868.006
614.7279, 8894.236
615.2100, 8918.872
615.6921, 8943.821
616.1743, 8968.622
616.6564, 9003.953
617.1385, 9052.139
617.6206, 9112.393
618.1027, 9196.032
618.5848, 9295.848
619.0670, 9377.478
619.5491, 9405.133
620.0312, 9414.979
620.5133, 9440.707
620.9954, 9483.422
621.4775, 9542.078
621.9597, 9637.361
622.4418, 9733.672
622.9239, 9803.831
623.4060, 9826.696
623.8881, 9865.479
624.3702, 9940.704
624.8524, 10025.80
625.3345, 10093.29
625.8166, 10134.80
626.2987, 10179.69
626.7808, 10230.50
627.2629, 10288.59
627.7451, 10362.59
628.2272, 10452.80
628.7093, 10533.86
629.1914, 10592.07
629.6735, 10635.53
