##NAMES=Inderite
##RRUFFID=R050195
##IDEAL CHEMISTRY=MgB_3_O_3_(OH)_5_&#183;5H_2_O
##LOCALITY=Boron, Kern County, California, USA
##OWNER=RRUFF
##SOURCE=Dave Bunk Minerals
##DESCRIPTION=Colorless prismatic crystal
##STATUS=The identification of this mineral has been confirmed by X-ray diffraction and chemical analysis
##URL=rruff.info/R050195
##MEASURED CHEMISTRY=Mg_1.00_B_3.00_O_3_(OH)_5_Â·5H_2_O ; Mg measured, only
92.81116, 0.0000000E+00
93.29327, 0.0000000E+00
93.77539, 10.86629
94.25751, 10.58046
94.73962, 10.68238
95.22174, 11.13001
95.70386, 11.77456
96.18597, 12.65567
96.66809, 13.69736
97.15021, 14.61315
97.63232, 15.36896
98.11444, 16.16327
98.59656, 17.23109
99.07867, 18.57705
99.56079, 20.14690
100.0429, 21.94527
100.5250, 23.96552
101.0071, 26.02958
101.4893, 28.04327
101.9714, 30.17324
102.4535, 32.72042
102.9356, 35.70325
103.4177, 39.10154
103.8998, 42.97972
104.3820, 47.64468
104.8641, 51.96215
105.3462, 55.80712
105.8283, 59.24601
106.3104, 62.93112
106.7925, 67.28677
107.2747, 71.39021
107.7568, 74.52928
108.2389, 76.30275
108.7210, 77.72266
109.2031, 78.68279
109.6852, 79.13860
110.1674, 80.16638
110.6495, 81.95141
111.1316, 84.23818
111.6137, 86.80296
112.0958, 90.11626
112.5779, 93.27921
113.0601, 96.03731
113.5422, 98.29391
114.0243, 100.7369
114.5064, 103.5328
114.9885, 106.5355
115.4706, 109.6038
115.9528, 112.6515
116.4349, 115.7870
116.9170, 118.9388
117.3991, 122.0146
117.8812, 125.5182
118.3633, 130.0155
118.8455, 135.0667
119.3276, 139.7890
119.8097, 143.3067
120.2918, 146.7272
120.7739, 150.8981
121.2560, 156.3693
121.7382, 161.9327
122.2203, 166.8201
122.7024, 171.1763
123.1845, 175.4857
123.6666, 179.8143
124.1487, 184.3002
124.6309, 189.1487
125.1130, 194.1147
125.5951, 199.6662
126.0772, 206.0758
126.5593, 213.3766
127.0414, 221.8640
127.5236, 232.4863
128.0057, 244.4337
128.4878, 256.3511
128.9699, 268.6967
129.4520, 280.1651
129.9341, 288.3878
130.4162, 293.3275
130.8984, 295.8695
131.3805, 295.9031
131.8626, 293.8700
132.3447, 292.0809
132.8268, 291.0018
133.3089, 290.8188
133.7911, 291.9445
134.2732, 293.6347
134.7553, 295.6658
135.2374, 298.6159
135.7195, 302.4988
136.2016, 306.2251
136.6838, 309.2835
137.1659, 311.6810
137.6480, 314.1928
138.1301, 316.9892
138.6122, 319.6857
139.0943, 321.7649
139.5765, 323.3228
140.0586, 323.9722
140.5407, 323.4597
141.0228, 321.6492
141.5049, 319.3970
141.9870, 316.7392
142.4692, 313.6249
142.9513, 309.9084
143.4334, 305.3559
143.9155, 300.5894
144.3976, 295.5958
144.8797, 289.4626
145.3619, 285.3611
145.8440, 283.7442
146.3261, 284.3366
146.8082, 285.9896
147.2903, 288.9479
147.7724, 292.6789
148.2546, 296.9981
148.7367, 302.8312
149.2188, 307.8629
149.7009, 312.1036
150.1830, 315.5396
150.6651, 317.2346
151.1473, 316.6540
151.6294, 314.6950
152.1115, 311.9958
152.5936, 307.7059
153.0757, 303.6146
153.5578, 299.7092
154.0400, 295.9810
154.5221, 293.2463
155.0042, 292.1231
155.4863, 291.7006
155.9684, 291.1828
156.4505, 290.1734
156.9327, 289.3285
157.4148, 288.7009
157.8969, 288.2579
158.3790, 288.3760
158.8611, 288.9401
159.3432, 290.1533
159.8254, 292.2389
160.3075, 294.9349
160.7896, 298.7694
161.2717, 304.2879
161.7538, 311.8406
162.2359, 319.2983
162.7181, 325.3815
163.2002, 331.0582
163.6823, 337.6698
164.1644, 346.0472
164.6465, 355.2304
165.1286, 364.9488
165.6108, 375.4591
166.0929, 385.4487
166.5750, 394.6762
167.0571, 403.0014
167.5392, 410.1668
168.0213, 417.4948
168.5035, 422.7743
168.9856, 424.1799
169.4677, 421.0359
169.9498, 415.2344
170.4319, 407.9755
170.9140, 399.0536
171.3962, 388.0182
171.8783, 372.9826
172.3604, 356.4590
172.8425, 340.9061
173.3246, 326.6973
173.8067, 313.5172
174.2889, 300.9541
174.7710, 289.0931
175.2531, 278.3637
175.7352, 269.0654
176.2173, 261.1298
176.6994, 254.6167
177.1816, 249.7128
177.6637, 245.8614
178.1458, 242.3313
178.6279, 239.2026
179.1100, 237.0597
179.5921, 236.6368
180.0743, 237.4082
180.5564, 238.3017
181.0385, 238.9060
181.5206, 239.8103
182.0027, 242.0581
182.4848, 245.5384
182.9670, 249.2546
183.4491, 252.8353
183.9312, 256.1459
184.4133, 258.7511
184.8954, 260.5762
185.3775, 261.6668
185.8596, 261.8913
186.3418, 261.2611
186.8239, 260.5318
187.3060, 260.2071
187.7881, 260.2738
188.2702, 260.7206
188.7523, 261.6642
189.2345, 262.9081
189.7166, 264.0323
190.1987, 265.0501
190.6808, 265.9520
191.1629, 266.7887
191.6451, 267.5433
192.1272, 268.0818
192.6093, 268.5440
193.0914, 268.7092
193.5735, 267.9442
194.0556, 266.2452
194.5378, 263.6174
195.0199, 259.9236
195.5020, 255.1992
195.9841, 250.0529
196.4662, 244.5473
196.9483, 238.7683
197.4305, 233.0360
197.9126, 227.3344
198.3947, 221.7677
198.8768, 216.6750
199.3589, 212.0501
199.8410, 207.3674
200.3232, 202.5254
200.8053, 197.5394
201.2874, 192.3311
201.7695, 186.9133
202.2516, 181.3232
202.7337, 175.3624
203.2159, 168.9634
203.6980, 163.2071
204.1801, 158.3898
204.6622, 154.4713
205.1443, 151.1548
205.6264, 148.5840
206.1086, 146.2803
206.5907, 143.5701
207.0728, 140.2739
207.5549, 137.6732
208.0370, 136.2462
208.5191, 135.9160
209.0013, 135.3613
209.4834, 134.5128
209.9655, 133.5726
210.4476, 132.6918
210.9297, 131.8099
211.4118, 131.2476
211.8940, 131.1329
212.3761, 131.4557
212.8582, 131.7952
213.3403, 132.1667
213.8224, 132.5356
214.3045, 132.8319
214.7867, 132.9952
215.2688, 133.2944
215.7509, 133.8794
216.2330, 134.7414
216.7151, 135.2171
217.1972, 135.0629
217.6794, 134.8538
218.1615, 135.3597
218.6436, 137.1055
219.1257, 138.1631
219.6078, 137.8233
220.0899, 136.0733
220.5721, 135.1826
221.0542, 135.5543
221.5363, 136.2905
222.0184, 136.3433
222.5005, 135.1618
222.9826, 134.6119
223.4648, 135.3083
223.9469, 137.2831
224.4290, 138.6737
224.9111, 139.3530
225.3932, 139.6153
225.8753, 139.6749
226.3575, 139.2638
226.8396, 139.2486
227.3217, 139.9518
227.8038, 141.3972
228.2859, 142.3620
228.7680, 142.5263
229.2502, 142.5751
229.7323, 143.2110
230.2144, 144.8432
230.6965, 146.2650
231.1786, 147.3394
231.6607, 148.0673
232.1429, 148.1055
232.6250, 146.8902
233.1071, 145.6136
233.5892, 145.4904
234.0713, 147.3657
234.5534, 148.6668
235.0356, 148.6913
235.5177, 147.5007
235.9998, 147.0393
236.4819, 147.6247
236.9640, 148.5842
237.4461, 149.3562
237.9283, 149.8250
238.4104, 150.3283
238.8925, 150.9031
239.3746, 151.5513
239.8567, 152.2673
240.3388, 153.0973
240.8210, 153.9454
241.3031, 154.7473
241.7852, 155.5275
242.2673, 156.1999
242.7494, 156.6895
243.2315, 157.0251
243.7137, 157.4960
244.1958, 158.0425
244.6779, 158.7998
245.1600, 159.9173
245.6421, 161.6748
246.1242, 163.2192
246.6064, 164.4799
247.0885, 165.4597
247.5706, 166.1681
248.0527, 166.5687
248.5348, 166.7419
249.0169, 166.7453
249.4990, 166.6300
249.9812, 166.2414
250.4633, 165.5745
250.9454, 164.6277
251.4275, 163.2751
251.9096, 161.0430
252.3917, 159.1133
252.8739, 158.3227
253.3560, 159.3524
253.8381, 159.8353
254.3202, 159.5041
254.8023, 158.5363
255.2844, 157.5515
255.7666, 156.4492
256.2487, 155.4944
256.7308, 154.8828
257.2129, 154.7954
257.6950, 154.5285
258.1772, 153.9731
258.6593, 153.2526
259.1414, 152.7129
259.6235, 152.4865
260.1056, 152.1941
260.5877, 151.6070
261.0699, 150.5658
261.5520, 149.7531
262.0341, 149.2008
262.5162, 148.8640
262.9983, 148.6689
263.4804, 148.6965
263.9626, 148.6897
264.4447, 148.5203
264.9268, 148.1282
265.4089, 147.8307
265.8910, 147.6078
266.3731, 147.4977
266.8553, 147.6039
267.3374, 148.0201
267.8195, 148.3970
268.3016, 148.5820
268.7837, 148.5499
269.2658, 148.5135
269.7480, 148.2992
270.2301, 148.3163
270.7122, 149.3828
271.1943, 151.8975
271.6764, 153.9563
272.1585, 154.6826
272.6407, 154.0747
273.1228, 154.2974
273.6049, 155.5997
274.0870, 157.2540
274.5691, 158.3894
275.0512, 158.8836
275.5334, 159.4225
276.0155, 160.1633
276.4976, 161.1000
276.9797, 162.2538
277.4618, 163.7279
277.9439, 165.1360
278.4260, 165.9697
278.9081, 166.1472
279.3903, 166.5631
279.8724, 167.4428
280.3545, 168.7139
280.8366, 170.1819
281.3187, 171.9281
281.8008, 173.5273
282.2830, 174.5076
282.7651, 174.8574
283.2472, 175.3352
283.7293, 176.0856
284.2114, 177.0461
284.6935, 178.0531
285.1757, 179.1205
285.6578, 180.1446
286.1399, 180.8955
286.6220, 181.4215
287.1041, 182.4412
287.5862, 184.1535
288.0684, 186.2482
288.5505, 187.9864
289.0326, 189.3716
289.5147, 190.9227
289.9968, 193.0017
290.4789, 195.5536
290.9611, 198.1529
291.4432, 200.7278
291.9253, 203.4884
292.4074, 206.8365
292.8895, 210.7472
293.3716, 214.6548
293.8538, 218.3039
294.3359, 221.7484
294.8180, 225.0849
295.3001, 228.2358
295.7822, 231.5388
296.2643, 235.5586
296.7465, 240.1403
297.2286, 244.6258
297.7107, 248.8566
298.1928, 252.8167
298.6749, 256.5076
299.1570, 259.9686
299.6392, 262.8742
300.1213, 265.0187
300.6034, 266.3434
301.0855, 266.5797
301.5676, 265.3691
302.0497, 263.1899
302.5319, 260.5693
303.0140, 257.5052
303.4961, 254.3516
303.9782, 251.4440
304.4603, 248.6191
304.9424, 245.3895
305.4246, 241.1833
305.9067, 237.0802
306.3888, 234.7130
306.8709, 233.7264
307.3530, 232.3339
307.8351, 228.2312
308.3173, 223.4999
308.7994, 220.9259
309.2815, 221.9787
309.7636, 223.3672
310.2457, 222.1474
310.7278, 219.1291
311.2100, 216.5243
311.6921, 215.5489
312.1742, 215.4654
312.6563, 215.8159
313.1384, 216.6823
313.6205, 217.3996
314.1027, 217.4267
314.5848, 217.0648
315.0669, 216.8371
315.5490, 217.5414
316.0311, 218.0151
316.5132, 217.3914
316.9954, 215.4991
317.4775, 213.5825
317.9596, 212.1633
318.4417, 211.0126
318.9238, 209.8551
319.4059, 208.8184
319.8881, 207.5630
320.3702, 205.7607
320.8523, 203.4326
321.3344, 201.4679
321.8165, 200.1953
322.2986, 199.3444
322.7808, 198.7099
323.2629, 198.0488
323.7450, 197.8192
324.2271, 198.4181
324.7092, 199.6475
325.1913, 200.5138
325.6735, 200.5867
326.1556, 200.4723
326.6377, 200.4694
327.1198, 200.6025
327.6019, 200.8555
328.0840, 201.6242
328.5662, 202.5285
329.0483, 202.6178
329.5304, 201.2973
330.0125, 199.7388
330.4946, 198.3782
330.9767, 197.5374
331.4589, 195.9885
331.9410, 193.4050
332.4231, 190.2519
332.9052, 187.1059
333.3873, 183.5123
333.8694, 180.5769
334.3516, 178.7155
334.8337, 177.9914
335.3158, 177.1799
335.7979, 176.0002
336.2800, 175.0613
336.7621, 175.0251
337.2443, 176.2343
337.7264, 177.4186
338.2085, 178.3599
338.6906, 179.1049
339.1727, 179.9787
339.6548, 181.0053
340.1370, 182.1130
340.6191, 183.1517
341.1012, 184.0087
341.5833, 185.6228
342.0654, 188.3391
342.5475, 191.5594
343.0297, 193.8495
343.5118, 195.1012
343.9939, 196.0963
344.4760, 197.1621
344.9581, 198.2860
345.4402, 199.5973
345.9224, 201.1846
346.4045, 202.6499
346.8866, 203.4050
347.3687, 203.4836
347.8508, 203.2135
348.3329, 202.6330
348.8151, 201.8143
349.2972, 200.8966
349.7793, 199.8766
350.2614, 198.9292
350.7435, 198.2019
351.2256, 197.6901
351.7078, 197.3951
352.1899, 197.4293
352.6720, 197.5584
353.1541, 197.3708
353.6362, 196.9290
354.1183, 196.6225
354.6005, 196.8919
355.0826, 197.4048
355.5647, 197.7266
356.0468, 197.8027
356.5289, 197.5986
357.0110, 196.7306
357.4932, 195.5356
357.9753, 194.8034
358.4574, 195.6109
358.9395, 196.6051
359.4216, 196.4977
359.9037, 195.0615
360.3859, 193.7768
360.8680, 193.9785
361.3501, 194.6679
361.8322, 194.6304
362.3143, 192.4847
362.7964, 190.4046
363.2786, 189.5030
363.7607, 189.6826
364.2428, 189.6994
364.7249, 188.8807
365.2070, 187.9103
365.6891, 187.2556
366.1713, 187.1030
366.6534, 187.1441
367.1355, 187.3706
367.6176, 187.7569
368.0997, 188.2308
368.5818, 189.0000
369.0640, 189.6742
369.5461, 190.0737
370.0282, 189.9981
370.5103, 190.1381
370.9924, 190.6201
371.4745, 191.2672
371.9567, 191.8229
372.4388, 191.9719
372.9209, 192.5041
373.4030, 193.7595
373.8851, 195.7693
374.3672, 197.2562
374.8494, 197.9916
375.3315, 198.5298
375.8136, 199.3216
376.2957, 200.4595
376.7778, 201.5127
377.2599, 202.2735
377.7421, 202.9731
378.2242, 204.5003
378.7063, 207.0348
379.1884, 209.5970
379.6705, 211.5956
380.1526, 213.0427
380.6348, 214.4781
381.1169, 216.0305
381.5990, 217.2924
382.0811, 217.3927
382.5632, 216.4158
383.0453, 215.7341
383.5275, 216.0141
384.0096, 216.9800
384.4917, 217.8412
384.9738, 218.5961
385.4559, 219.4034
385.9380, 220.5846
386.4202, 221.9424
386.9023, 222.9382
387.3844, 223.2902
387.8665, 223.4710
388.3486, 224.2209
388.8307, 225.3668
389.3129, 226.2146
389.7950, 225.7786
390.2771, 225.0934
390.7592, 225.4915
391.2413, 227.3779
391.7234, 229.1665
392.2056, 229.5359
392.6877, 229.1171
393.1698, 228.9050
393.6519, 229.8206
394.1340, 230.5923
394.6161, 230.4533
395.0983, 229.4070
395.5804, 228.2613
396.0625, 227.2258
396.5446, 226.2534
397.0267, 225.3094
397.5089, 224.3900
397.9910, 223.4955
398.4731, 222.7521
398.9552, 222.0509
399.4373, 221.0650
399.9194, 219.2941
400.4016, 217.6426
400.8837, 216.4544
401.3658, 215.8428
401.8479, 215.3083
402.3300, 214.6144
402.8121, 214.1441
403.2942, 214.4060
403.7763, 215.7685
404.2585, 217.1631
404.7406, 218.3245
405.2227, 219.3011
405.7048, 220.5010
406.1869, 221.8291
406.6690, 223.5663
407.1512, 226.0807
407.6333, 229.5029
408.1154, 232.5543
408.5975, 235.0052
409.0796, 237.1983
409.5617, 239.9812
410.0439, 243.3680
410.5260, 246.7073
411.0081, 249.2870
411.4902, 251.4678
411.9723, 255.0972
412.4544, 260.3259
412.9366, 265.9919
413.4187, 271.0694
413.9008, 275.7697
414.3829, 280.5957
414.8650, 285.6877
415.3471, 291.0581
415.8293, 296.8115
416.3114, 302.9020
416.7935, 308.8661
417.2756, 314.1860
417.7577, 319.3736
418.2398, 324.9559
418.7220, 331.1846
419.2041, 337.2904
419.6862, 343.1744
420.1683, 348.6718
420.6504, 353.3685
421.1325, 357.2425
421.6147, 360.3214
422.0968, 362.8507
422.5789, 364.8178
423.0610, 365.2892
423.5431, 363.3004
424.0252, 360.2104
424.5074, 356.8784
424.9895, 354.4095
425.4716, 350.4867
425.9537, 344.1655
426.4358, 336.3024
426.9179, 328.7703
427.4001, 321.4635
427.8822, 314.4958
428.3643, 307.8438
428.8464, 301.4630
429.3285, 295.7217
429.8106, 290.7214
430.2928, 286.2470
430.7749, 281.9728
431.2570, 277.8047
431.7391, 274.3859
432.2212, 271.9689
432.7033, 270.2944
433.1855, 268.4971
433.6676, 266.5289
434.1497, 264.8561
434.6318, 263.6268
435.1139, 262.8894
435.5960, 262.9947
436.0782, 264.0089
436.5603, 265.6359
437.0424, 267.6393
437.5245, 269.9691
438.0066, 272.4133
438.4887, 274.6609
438.9709, 277.1635
439.4530, 281.0610
439.9351, 286.1001
440.4172, 290.3812
440.8993, 292.5443
441.3814, 293.4072
441.8636, 293.8902
442.3457, 294.3228
442.8278, 293.8963
443.3099, 292.4003
443.7920, 289.6985
444.2741, 285.5305
444.7563, 279.1837
445.2384, 271.9844
445.7205, 264.0963
446.2026, 255.5451
446.6847, 247.4654
447.1668, 240.1565
447.6490, 233.4177
448.1311, 227.1270
448.6132, 221.4495
449.0953, 216.0533
449.5774, 210.9370
450.0595, 206.1316
450.5417, 201.7381
451.0238, 197.8227
451.5059, 194.2868
451.9880, 191.1580
452.4701, 188.4282
452.9522, 185.7739
453.4344, 183.0999
453.9165, 180.6304
454.3986, 178.6135
454.8807, 177.0634
455.3628, 175.4653
455.8449, 173.6498
456.3271, 171.8435
456.8092, 170.6559
457.2913, 170.0218
457.7734, 169.2048
458.2555, 167.4409
458.7376, 165.2737
459.2198, 163.8929
459.7019, 163.3681
460.1840, 163.2190
460.6661, 163.0760
461.1482, 163.0141
461.6303, 163.1863
462.1125, 163.8513
462.5946, 164.4755
463.0767, 164.5855
463.5588, 164.3240
464.0409, 164.0981
464.5230, 163.9344
465.0052, 163.9819
465.4873, 164.4044
465.9694, 165.2899
466.4515, 166.0975
466.9336, 166.7176
467.4157, 167.1781
467.8979, 167.5054
468.3800, 167.1887
468.8621, 167.3510
469.3442, 168.2144
469.8263, 169.6453
470.3084, 171.1576
470.7906, 172.7433
471.2727, 174.4101
471.7548, 176.1488
472.2369, 177.9539
472.7190, 179.9731
473.2011, 182.3632
473.6833, 184.7364
474.1654, 186.3926
474.6475, 187.2683
475.1296, 188.9672
475.6117, 192.0752
476.0938, 196.0052
476.5760, 199.1176
477.0581, 201.5150
477.5402, 204.3981
478.0223, 208.9758
478.5044, 214.4480
478.9865, 219.0891
479.4687, 222.6985
479.9508, 226.4655
480.4329, 231.4873
480.9150, 237.2924
481.3971, 243.1341
481.8792, 248.3681
482.3614, 254.0399
482.8435, 260.7669
483.3256, 268.4218
483.8077, 276.5642
484.2898, 285.0219
484.7719, 293.8365
485.2541, 302.8548
485.7362, 311.7083
486.2183, 321.9475
486.7004, 334.3994
487.1825, 348.0087
487.6646, 361.9019
488.1468, 375.6320
488.6289, 389.8839
489.1110, 405.0917
489.5931, 420.7680
490.0752, 435.8167
490.5573, 450.4088
491.0395, 464.0412
491.5216, 476.8973
492.0037, 489.0962
492.4858, 498.8531
492.9679, 506.2852
493.4500, 511.3630
493.9322, 514.3552
494.4143, 515.0945
494.8964, 512.3249
495.3785, 505.6364
495.8606, 495.4940
496.3427, 481.5316
496.8249, 464.4666
497.3070, 446.6545
497.7891, 429.3830
498.2712, 412.1858
498.7533, 394.5772
499.2354, 376.3806
499.7176, 359.0036
500.1997, 343.0703
500.6818, 328.4197
501.1639, 314.9604
501.6460, 302.5542
502.1281, 291.2715
502.6103, 282.0510
503.0924, 273.8703
503.5745, 264.7143
504.0566, 252.2367
504.5387, 241.0401
505.0208, 232.6247
505.5030, 227.1330
505.9851, 221.6171
506.4672, 215.9815
506.9493, 210.5042
507.4314, 205.3628
507.9135, 200.4657
508.3957, 196.0923
508.8778, 192.3564
509.3599, 188.9288
509.8420, 185.0943
510.3241, 180.8836
510.8062, 177.1903
511.2884, 174.5264
511.7705, 172.5501
512.2526, 170.5879
512.7347, 168.6251
513.2168, 166.5804
513.6989, 164.1244
514.1810, 161.6502
514.6631, 159.7445
515.1453, 158.5433
515.6274, 157.6301
516.1095, 157.0242
516.5916, 156.4311
517.0737, 155.4572
517.5558, 153.1602
518.0380, 151.2867
518.5201, 150.8043
519.0022, 151.3927
519.4843, 151.5005
519.9664, 150.3522
520.4485, 149.1303
520.9307, 148.3451
521.4128, 148.1544
521.8949, 147.7095
522.3770, 146.8192
522.8591, 145.8851
523.3412, 145.2928
523.8234, 145.0940
524.3055, 145.0766
524.7876, 145.2943
525.2697, 145.5873
525.7518, 145.5584
526.2339, 145.2100
526.7161, 144.8027
527.1982, 144.4248
527.6803, 144.0874
528.1624, 143.7485
528.6445, 143.4114
529.1266, 143.3074
529.6088, 143.8375
530.0909, 144.6378
530.5730, 145.1947
531.0551, 145.3873
531.5372, 145.3914
532.0193, 145.1728
532.5015, 144.8707
532.9836, 144.7041
533.4657, 144.7365
533.9478, 144.9168
534.4299, 145.4060
534.9120, 146.1299
535.3942, 146.4443
535.8763, 145.8984
536.3584, 145.3120
536.8405, 145.0148
537.3226, 145.0480
537.8047, 145.2409
538.2869, 145.6907
538.7690, 146.1660
539.2511, 146.3392
539.7332, 146.1632
540.2153, 146.1637
540.6974, 146.4571
541.1796, 146.9504
541.6617, 147.6283
542.1438, 148.4388
542.6259, 148.8902
543.1080, 148.2011
543.5901, 147.1879
544.0723, 147.4273
544.5544, 148.8620
545.0365, 150.1951
545.5186, 150.4357
546.0007, 150.1252
546.4828, 149.7779
546.9650, 149.4371
547.4471, 149.2266
547.9292, 149.0445
548.4113, 149.0674
548.8934, 149.5386
549.3755, 151.1762
549.8577, 152.5168
550.3398, 153.1117
550.8219, 153.1253
551.3040, 153.3855
551.7861, 153.8905
552.2682, 154.6570
552.7504, 155.7993
553.2325, 157.3792
553.7146, 158.5396
554.1967, 159.1834
554.6788, 159.7015
555.1609, 160.5088
555.6431, 161.5578
556.1252, 162.6270
556.6073, 163.7222
557.0894, 164.7108
557.5715, 165.1702
558.0536, 165.3379
558.5358, 165.9092
559.0179, 167.6105
559.5000, 169.5623
559.9821, 170.9328
560.4642, 171.8155
560.9464, 172.8242
561.4285, 174.3183
561.9106, 175.9720
562.3927, 177.5242
562.8748, 178.8237
563.3569, 180.4365
563.8391, 182.6203
564.3212, 185.0451
564.8033, 187.4724
565.2854, 190.0271
565.7675, 192.3225
566.2496, 194.2519
566.7318, 195.9737
567.2139, 197.7862
567.6960, 199.7018
568.1781, 201.7696
568.6602, 204.1181
569.1423, 206.6194
569.6245, 208.6351
570.1066, 210.1982
570.5887, 211.7023
571.0708, 213.2901
571.5529, 215.1064
572.0350, 217.4616
572.5172, 220.4971
572.9993, 223.5581
573.4814, 226.0636
573.9635, 228.3682
574.4456, 230.8708
574.9277, 234.2342
575.4099, 237.1963
575.8920, 239.0500
576.3741, 240.2321
576.8562, 241.9804
577.3383, 245.0484
577.8204, 247.9548
578.3026, 250.3615
578.7847, 252.2475
579.2668, 253.9784
579.7489, 255.5372
580.2310, 256.9812
580.7131, 258.2005
581.1953, 259.1988
581.6774, 260.7969
582.1595, 263.1665
582.6416, 265.5578
583.1237, 267.2044
583.6058, 268.1345
584.0880, 268.3921
584.5701, 267.8994
585.0522, 266.8730
585.5343, 265.5553
586.0164, 263.8654
586.4985, 261.6408
586.9807, 258.4898
587.4628, 255.0536
587.9449, 251.4678
588.4270, 247.7802
