##NAMES=Inesite
##RRUFFID=R090030
##IDEAL CHEMISTRY=Ca_2_Mn^2+^_7_Si_10_O_28_(OH)_2_&#183;5H_2_O
##LOCALITY=Hale Creek Mine, Mad River Ridge, Hale Creek, Trinity County, California
##OWNER=RRUFF
##SOURCE=James Shigley 
##DESCRIPTION=Clusters of pink slender chisel-shaped laths
##STATUS=The identification of this mineral has been confirmed by X-ray diffraction.
##URL=rruff.info/R090030
92.37695, 305.9598
92.85907, 304.9689
93.34119, 305.6482
93.82330, 305.5997
94.30542, 303.4490
94.78754, 299.0379
95.26965, 293.1382
95.75177, 287.0067
96.23389, 281.3494
96.71600, 275.6564
97.19812, 269.4525
97.68024, 262.5256
98.16235, 255.8529
98.64447, 250.9041
99.12659, 248.3399
99.60870, 245.0007
100.0908, 240.5152
100.5729, 235.7497
101.0551, 231.3492
101.5372, 227.5417
102.0193, 224.2851
102.5014, 221.6552
102.9835, 219.1429
103.4656, 217.7817
103.9478, 218.1294
104.4299, 219.7399
104.9120, 221.8233
105.3941, 223.7586
105.8762, 225.5222
106.3583, 227.5631
106.8405, 229.7182
107.3226, 232.1355
107.8047, 234.8062
108.2868, 237.7481
108.7689, 241.1342
109.2510, 245.0562
109.7332, 249.4979
110.2153, 255.0665
110.6974, 262.6839
111.1795, 271.2592
111.6616, 279.5239
112.1437, 287.5745
112.6259, 294.2320
113.1080, 299.0399
113.5901, 302.1185
114.0722, 302.1048
114.5543, 297.6032
115.0364, 288.7279
115.5185, 278.1408
116.0007, 264.8398
116.4828, 250.9603
116.9649, 237.3377
117.4470, 224.2063
117.9291, 211.8516
118.4112, 200.4993
118.8934, 190.0283
119.3755, 181.1667
119.8576, 174.1010
120.3397, 168.2204
120.8218, 163.1242
121.3039, 158.6433
121.7861, 154.7878
122.2682, 151.5582
122.7503, 149.5578
123.2324, 147.6313
123.7145, 145.5063
124.1966, 143.4346
124.6788, 141.7901
125.1609, 140.7766
125.6430, 140.3691
126.1251, 140.3578
126.6072, 140.7459
127.0893, 141.4023
127.5715, 142.3154
128.0536, 143.4698
128.5357, 144.8390
129.0178, 146.6116
129.4999, 148.6032
129.9821, 149.8965
130.4642, 150.2746
130.9463, 150.0460
131.4284, 149.5104
131.9105, 148.6821
132.3926, 147.5205
132.8748, 145.9599
133.3569, 144.0562
133.8390, 141.8342
134.3211, 139.1291
134.8032, 136.0916
135.2853, 133.1812
135.7674, 130.3714
136.2496, 127.7672
136.7317, 125.4141
137.2138, 123.2820
137.6959, 121.3124
138.1780, 119.4311
138.6601, 117.6243
139.1423, 116.0583
139.6244, 114.6612
140.1065, 113.5786
140.5886, 112.9215
141.0707, 112.6687
141.5528, 112.6993
142.0350, 112.9029
142.5171, 113.3916
142.9992, 113.7650
143.4813, 113.9316
143.9634, 114.0659
144.4455, 114.2524
144.9277, 114.5210
145.4098, 114.8960
145.8919, 115.4335
146.3740, 116.3077
146.8561, 117.0189
147.3382, 117.3939
147.8204, 117.6460
148.3025, 118.0623
148.7846, 118.7640
149.2667, 119.5951
149.7488, 120.2980
150.2309, 121.0003
150.7131, 121.3384
151.1952, 121.0918
151.6773, 120.3558
152.1594, 119.4132
152.6415, 118.2933
153.1236, 117.0693
153.6058, 115.9751
154.0879, 115.1695
154.5700, 114.0250
155.0521, 111.8148
155.5342, 108.4938
156.0163, 105.3364
156.4985, 103.0205
156.9806, 101.0089
157.4627, 98.81827
157.9448, 96.27504
158.4269, 93.79874
158.9090, 92.08807
159.3912, 91.48678
159.8733, 90.82034
160.3554, 89.66020
160.8375, 88.37349
161.3196, 87.30093
161.8017, 86.60664
162.2839, 86.14148
162.7660, 85.45322
163.2481, 84.22011
163.7302, 83.19348
164.2123, 82.42323
164.6944, 81.91961
165.1766, 81.72727
165.6587, 81.88334
166.1408, 82.33189
166.6229, 82.71069
167.1050, 82.74915
167.5871, 83.01089
168.0693, 83.81822
168.5514, 84.93832
169.0335, 85.91920
169.5156, 86.45377
169.9977, 86.57021
170.4798, 86.71997
170.9620, 86.77202
171.4441, 86.96779
171.9262, 87.48985
172.4083, 88.28427
172.8904, 89.11209
173.3725, 89.80960
173.8547, 90.37443
174.3368, 90.92932
174.8189, 91.54636
175.3010, 92.10816
175.7831, 92.56058
176.2652, 92.90581
176.7474, 93.04410
177.2295, 92.84245
177.7116, 92.36469
178.1937, 91.75526
178.6758, 90.99931
179.1579, 90.14186
179.6401, 89.24208
180.1222, 88.31011
180.6043, 87.31194
181.0864, 86.19382
181.5685, 85.00373
182.0506, 83.82111
182.5328, 82.65696
183.0149, 81.53027
183.4970, 80.46764
183.9791, 79.37327
184.4612, 78.53275
184.9433, 78.13576
185.4255, 78.02770
185.9076, 77.94247
186.3897, 77.70962
186.8718, 77.34412
187.3539, 77.01261
187.8360, 76.65571
188.3182, 76.40767
188.8003, 76.25249
189.2824, 76.23158
189.7645, 76.43742
190.2466, 76.98674
190.7287, 77.90498
191.2109, 78.59464
191.6930, 78.91705
192.1751, 79.15230
192.6572, 79.32433
193.1393, 79.47279
193.6214, 79.66444
194.1036, 79.96431
194.5857, 80.39461
195.0678, 80.76127
195.5499, 80.92162
196.0320, 81.15871
196.5141, 81.60032
196.9963, 82.24515
197.4784, 83.04354
197.9605, 83.97694
198.4426, 85.07751
198.9247, 86.00105
199.4068, 86.61426
199.8890, 87.16940
200.3711, 87.83025
200.8532, 88.61025
201.3353, 89.41866
201.8174, 90.16802
202.2995, 90.85617
202.7817, 91.61336
203.2638, 92.41907
203.7459, 93.31143
204.2280, 94.33801
204.7101, 95.51080
205.1922, 96.76366
205.6744, 98.05972
206.1565, 99.40067
206.6386, 100.7813
207.1207, 102.2824
207.6028, 103.7933
208.0849, 105.1010
208.5671, 106.1258
209.0492, 107.2171
209.5313, 108.7504
210.0134, 110.5663
210.4955, 112.3482
210.9776, 113.9227
211.4598, 115.3965
211.9419, 117.0315
212.4240, 118.8849
212.9061, 120.7725
213.3882, 122.6661
213.8703, 124.5126
214.3525, 126.2088
214.8346, 127.7330
215.3167, 129.0638
215.7988, 130.0558
216.2809, 130.4862
216.7630, 130.9114
217.2451, 131.7894
217.7273, 132.8138
218.2094, 133.4427
218.6915, 133.2780
219.1736, 132.4447
219.6557, 131.6885
220.1378, 131.0795
220.6200, 130.4702
221.1021, 129.8858
221.5842, 129.2652
222.0663, 128.4881
222.5484, 127.4409
223.0305, 126.1703
223.5127, 125.1261
223.9948, 124.4640
224.4769, 123.9021
224.9590, 123.4218
225.4411, 122.9953
225.9232, 122.6156
226.4054, 122.2952
226.8875, 122.0124
227.3696, 121.4645
227.8517, 120.2435
228.3338, 119.1827
228.8159, 118.5219
229.2981, 118.1459
229.7802, 117.8456
230.2623, 117.4871
230.7444, 117.0774
231.2265, 116.7040
231.7086, 116.1313
232.1908, 115.8413
232.6729, 116.0453
233.1550, 116.6204
233.6371, 117.3323
234.1192, 118.0457
234.6013, 118.7684
235.0835, 119.5641
235.5656, 120.2587
236.0477, 121.1962
236.5298, 122.6833
237.0119, 124.4952
237.4940, 126.1576
237.9762, 127.3932
238.4583, 128.2832
238.9404, 129.2187
239.4225, 130.5560
239.9046, 131.5482
240.3867, 131.8965
240.8689, 131.7017
241.3510, 131.1722
241.8331, 130.3558
242.3152, 129.3197
242.7973, 128.2657
243.2794, 127.1701
243.7616, 126.0995
244.2437, 125.0893
244.7258, 124.1337
245.2079, 123.2092
245.6900, 122.2914
246.1721, 121.4252
246.6543, 120.6747
247.1364, 120.0375
247.6185, 119.5031
248.1006, 119.1628
248.5827, 118.9463
249.0648, 118.5948
249.5470, 118.0072
250.0291, 117.2449
250.5112, 116.3376
250.9933, 115.2138
251.4754, 114.3318
251.9576, 114.0951
252.4397, 114.3607
252.9218, 114.4850
253.4039, 114.2598
253.8860, 113.8850
254.3681, 113.6353
254.8503, 113.5113
255.3324, 113.2646
255.8145, 112.5698
256.2966, 111.5578
256.7787, 110.9232
257.2608, 110.9466
257.7430, 111.1887
258.2251, 111.3166
258.7072, 111.3327
259.1893, 111.2495
259.6714, 110.9358
260.1535, 110.4756
260.6357, 110.3753
261.1178, 110.9301
261.5999, 111.5301
262.0820, 111.7185
262.5641, 111.6164
263.0462, 111.6008
263.5284, 112.0256
264.0105, 112.7882
264.4926, 113.2346
264.9747, 113.0000
265.4568, 112.9799
265.9389, 113.6234
266.4211, 114.7645
266.9032, 116.0568
267.3853, 117.2801
267.8674, 118.4891
268.3495, 119.9629
268.8316, 121.8835
269.3138, 123.8103
269.7959, 125.4724
270.2780, 127.0518
270.7601, 128.8149
271.2422, 130.8968
271.7243, 133.2641
272.2065, 135.7982
272.6886, 138.5636
273.1707, 141.3777
273.6528, 144.1885
274.1349, 147.0171
274.6170, 149.7964
275.0992, 152.4795
275.5813, 155.2415
276.0634, 158.5850
276.5455, 163.0887
277.0276, 167.0894
277.5097, 170.2686
277.9919, 172.9209
278.4740, 175.2835
278.9561, 177.4545
279.4382, 179.4274
279.9203, 181.2780
280.4024, 183.2866
280.8846, 184.4859
281.3667, 184.5278
281.8488, 184.0428
282.3309, 183.5374
282.8130, 183.1173
283.2951, 182.4626
283.7773, 180.9932
284.2594, 178.2155
284.7415, 175.8471
285.2236, 174.1373
285.7057, 172.6245
286.1878, 170.9521
286.6700, 169.1364
287.1521, 167.5081
287.6342, 166.4616
288.1163, 166.1153
288.5984, 165.9414
289.0805, 165.8685
289.5627, 166.0094
290.0448, 166.3016
290.5269, 166.8318
291.0090, 167.8407
291.4911, 169.6085
291.9732, 172.1980
292.4554, 174.6908
292.9375, 176.9795
293.4196, 179.2867
293.9017, 181.7655
294.3838, 184.3234
294.8659, 186.8136
295.3481, 189.1749
295.8302, 191.3750
296.3123, 192.8421
296.7944, 193.6238
297.2765, 193.5527
297.7586, 192.4924
298.2408, 190.5637
298.7229, 187.9231
299.2050, 184.6653
299.6871, 180.7946
300.1692, 176.3236
300.6513, 170.8009
301.1335, 165.1853
301.6156, 159.5459
302.0977, 153.9060
302.5798, 148.1086
303.0619, 142.1298
303.5440, 136.3243
304.0262, 131.3838
304.5083, 127.9675
304.9904, 124.5614
305.4725, 121.0480
305.9546, 117.5994
306.4367, 114.2801
306.9189, 111.1387
307.4010, 108.2511
307.8831, 105.7238
308.3652, 103.5925
308.8473, 101.7945
309.3294, 100.3521
309.8116, 99.14762
310.2937, 98.15831
310.7758, 97.35234
311.2579, 96.66417
311.7400, 96.02197
312.2221, 95.39261
312.7043, 95.03276
313.1864, 95.01355
313.6685, 95.14588
314.1506, 95.40773
314.6327, 95.76384
315.1148, 96.14273
315.5970, 96.47555
316.0791, 96.78286
316.5612, 97.35271
317.0433, 98.46925
317.5254, 99.53806
318.0075, 100.2996
318.4897, 100.9620
318.9718, 101.8834
319.4539, 103.2577
319.9360, 104.9167
320.4181, 106.3348
320.9002, 107.2408
321.3824, 108.2121
321.8645, 109.2786
322.3466, 110.4189
322.8287, 111.6125
323.3108, 112.8454
323.7929, 114.1445
324.2751, 115.5533
324.7572, 117.1781
325.2393, 118.7153
325.7214, 119.9461
326.2035, 121.2684
326.6856, 123.0518
327.1678, 125.2823
327.6499, 127.6016
328.1320, 129.6099
328.6141, 131.2114
329.0962, 132.9958
329.5783, 135.1806
330.0605, 137.3181
330.5426, 139.1962
331.0247, 140.8650
331.5068, 142.5144
331.9889, 144.3316
332.4710, 146.2744
332.9532, 147.6445
333.4353, 148.2090
333.9174, 148.4170
334.3995, 148.3434
334.8816, 147.9604
335.3637, 147.2049
335.8459, 146.0502
336.3280, 144.5261
336.8101, 142.7247
337.2922, 140.2497
337.7743, 138.0851
338.2564, 136.4609
338.7386, 135.0545
339.2206, 133.5757
339.7028, 131.9426
340.1849, 130.3098
340.6670, 128.8849
341.1491, 127.6416
341.6312, 126.7041
342.1133, 126.0975
342.5955, 125.7319
343.0776, 125.5763
343.5597, 125.6205
344.0418, 125.8616
344.5239, 126.3096
345.0060, 126.9707
345.4882, 127.7266
345.9703, 128.7879
346.4524, 129.7395
346.9345, 130.3603
347.4166, 130.8000
347.8987, 131.3557
348.3809, 132.2303
348.8630, 133.3126
349.3451, 134.1476
349.8272, 134.7865
350.3093, 135.0588
350.7914, 134.9278
351.2736, 134.4731
351.7557, 133.7672
352.2378, 132.8348
352.7199, 131.6668
353.2020, 130.2401
353.6841, 128.5196
354.1663, 126.6370
354.6484, 124.4666
355.1305, 122.2476
355.6126, 120.1390
356.0947, 118.1437
356.5768, 116.1472
357.0590, 114.0071
357.5411, 111.7271
358.0232, 109.5379
358.5053, 107.4447
358.9874, 105.4596
359.4695, 103.6140
359.9517, 101.8793
360.4338, 100.2053
360.9159, 98.55527
361.3980, 96.95139
361.8801, 95.40935
362.3622, 93.85453
362.8444, 92.55747
363.3265, 91.72692
363.8086, 91.12626
364.2907, 90.54424
364.7728, 89.92477
365.2549, 89.25198
365.7371, 88.43260
366.2192, 87.42254
366.7013, 86.65085
367.1834, 86.44429
367.6655, 86.33283
368.1476, 85.94872
368.6298, 85.28635
369.1119, 84.61044
369.5940, 84.14993
370.0761, 83.85076
370.5582, 83.44461
371.0403, 82.85498
371.5225, 82.25720
372.0046, 81.83286
372.4867, 81.49521
372.9688, 81.02518
373.4509, 80.23316
373.9330, 79.33163
374.4152, 78.68688
374.8973, 78.34162
375.3794, 77.91211
375.8615, 77.20254
376.3436, 76.28924
376.8257, 75.27688
377.3079, 74.13326
377.7900, 72.98767
378.2721, 71.88426
378.7542, 70.84258
379.2363, 69.94144
379.7184, 69.18091
380.2006, 68.60460
380.6827, 68.33837
381.1648, 68.37486
381.6469, 68.34624
382.1290, 68.15465
382.6111, 67.82114
383.0933, 67.31364
383.5754, 66.61550
384.0575, 65.96740
384.5396, 65.55958
385.0217, 65.38548
385.5038, 65.25084
385.9860, 65.15054
386.4681, 65.08978
386.9502, 65.17088
387.4323, 65.31649
387.9144, 65.24212
388.3965, 64.77613
388.8787, 64.06535
389.3608, 63.47691
389.8429, 62.96092
390.3250, 62.62278
390.8071, 62.61322
391.2892, 62.73714
391.7714, 62.80646
392.2535, 62.77108
392.7356, 62.57369
393.2177, 62.10889
393.6998, 61.27954
394.1819, 60.67393
394.6641, 60.41491
395.1462, 60.24442
395.6283, 60.02160
396.1104, 59.76328
396.5925, 59.55844
397.0746, 59.46438
397.5568, 59.47008
398.0389, 59.51361
398.5210, 59.57538
399.0031, 59.70160
399.4852, 59.95322
399.9673, 60.24720
400.4495, 60.51728
400.9316, 60.73536
401.4137, 60.87449
401.8958, 60.85003
402.3779, 60.46735
402.8600, 60.46746
403.3422, 61.08155
403.8243, 61.81530
404.3064, 62.51871
404.7885, 63.13076
405.2706, 63.56787
405.7527, 63.71772
406.2349, 63.64208
406.7170, 63.84977
407.1991, 64.63203
407.6812, 65.28215
408.1633, 65.63477
408.6454, 65.78219
409.1276, 65.83551
409.6097, 65.83511
410.0918, 65.72511
410.5739, 65.37188
411.0560, 64.71490
411.5381, 64.14706
412.0203, 63.77325
412.5024, 63.47417
412.9845, 63.13573
413.4666, 62.79218
413.9487, 62.61224
414.4308, 62.80443
414.9130, 63.26594
415.3951, 63.60620
415.8772, 63.79548
416.3593, 63.93496
416.8414, 63.97327
417.3235, 64.02535
417.8057, 64.26422
418.2878, 64.75673
418.7699, 65.39645
419.2520, 66.12344
419.7341, 66.92844
420.2162, 67.74710
420.6984, 68.63276
421.1805, 69.41735
421.6626, 69.84593
422.1447, 69.92628
422.6268, 69.99227
423.1089, 70.19589
423.5911, 70.44063
424.0732, 70.65856
424.5553, 70.84353
425.0374, 70.80370
425.5195, 70.35983
426.0016, 69.53628
426.4838, 68.66808
426.9659, 67.75677
427.4480, 66.80250
427.9301, 65.68527
428.4122, 64.53580
428.8943, 63.68195
429.3765, 63.26545
429.8586, 63.04422
430.3407, 62.59507
430.8228, 61.77975
431.3049, 61.02096
431.7870, 60.37114
432.2692, 59.74559
432.7513, 59.06848
433.2334, 58.35088
433.7155, 57.65418
434.1976, 57.02662
434.6797, 56.46957
435.1619, 55.99260
435.6440, 55.67724
436.1261, 55.34829
436.6082, 54.92089
437.0903, 54.48885
437.5724, 54.17061
438.0546, 54.00570
438.5367, 53.92006
439.0188, 53.75552
439.5009, 53.38937
439.9830, 53.34515
440.4651, 54.00017
440.9473, 54.65608
441.4294, 54.92188
441.9115, 54.90625
442.3936, 54.98896
442.8757, 55.48058
443.3578, 56.21897
443.8400, 56.60588
444.3221, 56.48955
444.8042, 56.40462
445.2863, 56.61987
445.7684, 56.91493
446.2505, 57.07673
446.7327, 57.05608
447.2148, 57.00389
447.6969, 57.11367
448.1790, 57.33088
448.6611, 57.31492
449.1432, 56.91628
449.6254, 56.46899
450.1075, 56.35520
450.5896, 56.44818
451.0717, 56.33422
451.5538, 55.75520
452.0359, 55.02890
452.5181, 54.49128
453.0002, 54.10755
453.4823, 53.60809
453.9644, 52.81427
454.4465, 51.89967
454.9286, 51.27256
455.4108, 50.98944
455.8929, 50.74899
456.3750, 50.48043
456.8571, 50.22276
457.3392, 50.02102
457.8214, 49.88005
458.3035, 49.76674
458.7856, 49.64839
459.2677, 49.52425
459.7498, 49.45874
460.2319, 49.51489
460.7141, 49.54742
461.1962, 49.49207
461.6783, 49.39559
462.1604, 49.30826
462.6425, 49.25208
463.1246, 49.25419
463.6068, 49.37711
464.0889, 49.69218
464.5710, 49.93696
465.0531, 50.03273
465.5352, 50.13537
466.0173, 50.32618
466.4995, 50.58805
466.9816, 50.86056
467.4637, 51.10680
467.9458, 51.33367
468.4279, 51.57426
468.9100, 51.85926
469.3922, 52.07965
469.8743, 52.12794
470.3564, 52.14590
470.8385, 52.26310
471.3206, 52.49693
471.8027, 52.72570
472.2849, 52.90737
472.7670, 53.01447
473.2491, 52.90028
473.7312, 52.48093
474.2133, 52.04375
474.6954, 51.79111
475.1776, 51.67557
475.6597, 51.60609
476.1418, 51.60650
476.6239, 51.60328
477.1060, 51.50142
477.5881, 51.35060
478.0703, 51.30254
478.5524, 51.41433
479.0345, 51.62243
479.5166, 51.82859
479.9987, 52.01160
480.4808, 52.31338
480.9630, 52.75730
481.4451, 53.30901
481.9272, 54.00384
482.4093, 54.79308
482.8914, 55.53319
483.3735, 56.13347
483.8557, 56.64699
484.3378, 57.26434
484.8199, 57.96064
485.3020, 58.81314
485.7841, 60.09032
486.2662, 61.33357
486.7484, 62.07631
487.2305, 62.35132
487.7126, 62.65044
488.1947, 63.50483
488.6768, 64.85358
489.1589, 65.70390
489.6411, 65.78045
490.1232, 65.77784
490.6053, 65.98396
491.0874, 66.21265
491.5695, 66.24307
492.0516, 66.00925
492.5338, 65.64359
493.0159, 65.32069
493.4980, 65.01353
493.9801, 64.46860
494.4622, 63.58693
494.9443, 62.58196
495.4265, 61.63688
495.9086, 60.71357
496.3907, 59.70370
496.8728, 58.56084
497.3549, 57.33736
497.8370, 56.08401
498.3192, 54.79366
498.8013, 53.38703
499.2834, 51.78426
499.7655, 50.20737
500.2476, 49.05037
500.7297, 48.47060
501.2119, 47.74255
501.6940, 46.61779
502.1761, 45.49939
502.6582, 44.65159
503.1403, 44.06414
503.6224, 43.63766
504.1045, 43.33276
504.5866, 43.07618
505.0688, 42.58297
505.5509, 41.49807
506.0330, 40.74251
506.5151, 40.68862
506.9972, 40.71216
507.4793, 40.28889
507.9615, 39.43768
508.4436, 38.58693
508.9257, 38.10823
509.4078, 37.93775
509.8899, 37.68482
510.3720, 37.25689
510.8542, 36.94888
511.3363, 37.01286
511.8184, 37.17522
512.3005, 37.16969
512.7827, 36.94291
513.2648, 36.61250
513.7469, 36.16984
514.2290, 35.69242
514.7111, 35.42950
515.1932, 35.44323
515.6754, 35.52572
516.1575, 35.54600
516.6396, 35.50361
517.1217, 35.41627
517.6038, 35.21874
518.0859, 35.05280
518.5681, 35.03035
519.0502, 35.06997
519.5323, 35.01144
520.0144, 34.81153
520.4965, 34.59642
520.9786, 34.52819
521.4608, 34.64265
521.9429, 34.68598
522.4250, 34.66594
522.9071, 34.57941
523.3892, 34.30102
523.8713, 33.99114
524.3535, 33.95447
524.8356, 34.31029
525.3177, 34.74766
525.7998, 34.67393
526.2819, 33.92972
526.7640, 33.47818
527.2462, 33.60412
527.7283, 33.80641
528.2104, 33.82034
528.6925, 33.72378
529.1746, 33.73422
529.6567, 34.02739
530.1389, 34.33564
530.6210, 34.21693
531.1031, 33.70216
531.5852, 33.34722
532.0673, 33.35650
532.5494, 33.51443
533.0316, 33.59502
533.5137, 33.60422
533.9958, 33.51895
534.4779, 33.19980
534.9600, 32.89585
535.4421, 32.82967
535.9243, 32.95338
536.4064, 33.09250
536.8885, 33.17027
537.3706, 33.18364
537.8527, 33.11884
538.3348, 32.89457
538.8170, 32.75550
539.2991, 32.76310
539.7812, 32.79418
540.2633, 32.73186
540.7454, 32.63023
541.2275, 32.65685
541.7097, 32.93200
542.1918, 33.34086
542.6739, 33.56832
543.1560, 33.54873
543.6381, 33.56083
544.1202, 33.67455
544.6024, 33.82387
545.0845, 34.02054
545.5666, 34.23478
546.0487, 34.33234
546.5308, 34.09200
547.0129, 33.77073
547.4951, 33.80135
547.9772, 34.17614
548.4593, 34.63881
548.9414, 35.16046
549.4235, 35.61924
549.9056, 35.70309
550.3878, 35.32350
550.8699, 35.16097
551.3520, 35.54898
551.8341, 36.04403
552.3162, 36.33191
552.7983, 36.39448
553.2805, 36.26458
553.7626, 35.93896
554.2447, 35.52281
554.7268, 35.33470
555.2089, 35.59606
555.6910, 35.69173
556.1732, 35.57131
556.6553, 35.33248
557.1374, 34.95143
557.6195, 34.49665
558.1016, 34.14430
558.5837, 34.03263
559.0659, 34.05060
559.5480, 33.92497
560.0301, 33.62922
560.5122, 33.35035
560.9943, 33.14916
561.4764, 32.97846
561.9586, 32.77211
562.4407, 32.53682
562.9228, 32.36732
563.4049, 32.36907
563.8870, 32.40491
564.3691, 32.30989
564.8513, 32.10564
565.3334, 31.91794
565.8155, 31.79519
566.2976, 31.74501
566.7797, 31.79200
567.2618, 32.01197
567.7440, 32.15260
568.2261, 32.18125
568.7082, 32.16073
569.1903, 32.07372
569.6724, 31.97063
570.1545, 31.97467
570.6367, 32.16087
571.1188, 32.40361
571.6009, 32.39394
572.0830, 32.02055
572.5651, 31.82509
573.0472, 32.05083
573.5294, 32.28588
574.0115, 32.22621
574.4936, 31.99224
574.9757, 31.93687
575.4578, 32.27633
575.9399, 32.75809
576.4221, 33.12777
576.9042, 33.39083
577.3863, 33.56648
577.8684, 33.63872
578.3505, 33.68385
578.8326, 33.77215
579.3148, 33.90520
579.7969, 34.13351
580.2790, 34.45851
580.7611, 34.87921
581.2432, 35.55224
581.7253, 36.27753
582.2075, 36.67991
582.6896, 36.64241
583.1717, 36.48101
583.6538, 36.63477
584.1359, 37.14743
584.6180, 37.66203
585.1002, 38.19390
585.5823, 38.71515
586.0643, 39.17078
586.5464, 39.62942
587.0286, 40.20219
587.5107, 40.93129
587.9928, 41.66705
588.4749, 42.26239
588.9570, 42.74476
589.4391, 43.21415
