##NAMES=Inesite
##RRUFFID=R070456
##IDEAL CHEMISTRY=Ca_2_Mn^2+^_7_Si_10_O_28_(OH)_2_&#183;5H_2_O
##LOCALITY=Fengjiashan mine (Daye Copper mine), Daye County, Huangshi Prefecture, Hubei Province, China
##OWNER=RRUFF
##SOURCE=Michael Scott
##DESCRIPTION=Fan-shaped cluster of pink laths associated with quartz and brown platy hubeite
##STATUS=The identification of this mineral is confirmed by single-crystal X-ray diffraction and chemical analysis.
##URL=rruff.info/R070456
##MEASURED CHEMISTRY=Ca_2.00_(Mn^2+^_6.03_Fe^2+^_0.93_Mg_0.04_)_Σ=7_Si_10.00_O_28_(OH)_2_·5H_2_O; (OH) estimated by charge balance; H_2_O by difference
127.1851, 1488.356
127.6672, 1555.129
128.1493, 1625.483
128.6314, 1695.801
129.1135, 1767.064
129.5956, 1829.512
130.0778, 1875.851
130.5599, 1921.586
131.0420, 1974.775
131.5241, 2033.759
132.0062, 2092.157
132.4883, 2146.622
132.9705, 2202.080
133.4526, 2219.448
133.9347, 2171.688
134.4168, 2116.088
134.8989, 2084.060
135.3810, 2076.658
135.8632, 2076.344
136.3453, 2065.030
136.8274, 2039.016
137.3095, 2018.292
137.7916, 2002.731
138.2737, 1991.991
138.7559, 1984.408
139.2380, 1980.230
139.7201, 1983.417
140.2022, 1999.129
140.6843, 2030.942
141.1664, 2063.965
141.6486, 2096.543
142.1307, 2130.927
142.6128, 2169.141
143.0949, 2211.574
143.5770, 2257.011
144.0591, 2305.134
144.5413, 2356.191
145.0234, 2406.685
145.5055, 2454.513
145.9876, 2502.174
146.4697, 2553.728
146.9518, 2610.847
147.4340, 2668.186
147.9161, 2718.289
148.3982, 2761.816
148.8803, 2805.545
149.3624, 2857.913
149.8445, 2910.553
150.3266, 2949.982
150.8088, 2974.334
151.2909, 2983.703
151.7730, 2970.543
152.2551, 2937.821
152.7372, 2910.788
153.2193, 2903.174
153.7015, 2908.167
154.1836, 2910.779
154.6657, 2909.615
155.1478, 2903.281
155.6299, 2886.671
156.1120, 2861.501
156.5942, 2842.277
157.0763, 2841.059
157.5584, 2852.483
158.0405, 2856.951
158.5226, 2846.763
159.0047, 2836.183
159.4869, 2837.833
159.9690, 2850.152
160.4511, 2863.411
160.9332, 2866.282
161.4153, 2856.411
161.8974, 2846.963
162.3796, 2861.946
162.8617, 2880.493
163.3438, 2890.951
163.8259, 2893.424
164.3080, 2889.016
164.7901, 2877.008
165.2723, 2858.175
165.7544, 2838.617
166.2365, 2819.386
166.7186, 2799.248
167.2007, 2776.338
167.6828, 2751.754
168.1650, 2729.569
168.6471, 2715.440
169.1292, 2709.017
169.6113, 2696.128
170.0934, 2669.542
170.5755, 2643.531
171.0577, 2625.831
171.5398, 2615.168
172.0219, 2605.315
172.5040, 2590.978
172.9861, 2571.982
173.4682, 2553.391
173.9504, 2526.092
174.4325, 2508.259
174.9146, 2512.288
175.3967, 2533.735
175.8788, 2557.213
176.3609, 2570.175
176.8431, 2572.113
177.3252, 2572.194
177.8073, 2562.964
178.2894, 2558.663
178.7715, 2570.302
179.2536, 2592.810
179.7358, 2610.669
180.2179, 2608.069
180.7000, 2583.338
181.1821, 2567.226
181.6642, 2569.216
182.1463, 2571.911
182.6285, 2571.824
183.1106, 2567.985
183.5927, 2559.296
184.0748, 2542.720
184.5569, 2517.563
185.0390, 2502.392
185.5212, 2509.466
186.0033, 2515.947
186.4854, 2515.529
186.9675, 2508.917
187.4496, 2499.505
187.9317, 2489.587
188.4139, 2479.215
188.8960, 2468.578
189.3781, 2456.434
189.8602, 2445.241
190.3423, 2436.439
190.8244, 2429.167
191.3066, 2420.620
191.7887, 2407.232
192.2708, 2389.382
192.7529, 2385.033
193.2350, 2415.204
193.7171, 2438.536
194.1993, 2440.691
194.6814, 2428.643
195.1635, 2416.677
195.6456, 2414.778
196.1277, 2422.147
196.6098, 2427.658
197.0920, 2431.884
197.5741, 2433.497
198.0562, 2428.120
198.5383, 2420.383
199.0204, 2418.820
199.5025, 2429.724
199.9847, 2450.529
200.4668, 2461.798
200.9489, 2446.653
201.4310, 2439.489
201.9131, 2447.145
202.3952, 2465.913
202.8774, 2490.808
203.3595, 2519.365
203.8416, 2550.586
204.3237, 2579.608
204.8058, 2609.230
205.2879, 2632.626
205.7701, 2646.002
206.2522, 2653.549
206.7343, 2658.785
207.2164, 2663.108
207.6985, 2669.097
208.1806, 2685.700
208.6628, 2725.226
209.1449, 2760.429
209.6270, 2787.868
210.1091, 2810.290
210.5912, 2829.528
211.0733, 2846.414
211.5555, 2863.004
212.0376, 2885.421
212.5197, 2928.532
213.0018, 2955.350
213.4839, 2949.001
213.9660, 2933.988
214.4482, 2934.875
214.9303, 2959.330
215.4124, 2995.039
215.8945, 3018.305
216.3766, 3024.049
216.8587, 3024.231
217.3409, 3018.911
217.8230, 3009.125
218.3051, 2995.588
218.7872, 2978.538
219.2693, 2957.859
219.7514, 2932.345
220.2336, 2895.948
220.7157, 2868.326
221.1978, 2855.964
221.6799, 2846.091
222.1620, 2831.792
222.6441, 2811.394
223.1263, 2785.831
223.6084, 2754.895
224.0905, 2713.583
224.5726, 2683.663
225.0547, 2677.456
225.5368, 2670.119
226.0190, 2643.098
226.5011, 2599.989
226.9832, 2561.129
227.4653, 2549.534
227.9474, 2571.773
228.4296, 2575.151
228.9117, 2539.501
229.3938, 2505.341
229.8759, 2490.939
230.3580, 2492.035
230.8401, 2492.815
231.3223, 2479.183
231.8044, 2451.012
232.2865, 2437.065
232.7686, 2453.586
233.2507, 2468.451
233.7328, 2473.690
234.2150, 2471.457
234.6971, 2466.269
235.1792, 2460.319
235.6613, 2454.455
236.1434, 2454.670
236.6255, 2468.608
237.1077, 2479.938
237.5898, 2482.025
238.0719, 2480.952
238.5540, 2485.223
239.0361, 2499.341
239.5182, 2520.128
240.0004, 2537.937
240.4825, 2551.365
240.9646, 2563.622
241.4467, 2580.790
241.9288, 2594.663
242.4109, 2592.677
242.8931, 2570.548
243.3752, 2543.498
243.8573, 2543.159
244.3394, 2587.962
244.8215, 2618.786
245.3036, 2621.432
245.7858, 2615.651
246.2679, 2616.345
246.7500, 2626.338
247.2321, 2636.893
247.7142, 2633.740
248.1963, 2609.661
248.6785, 2598.241
249.1606, 2610.693
249.6427, 2628.577
250.1248, 2646.045
250.6069, 2661.043
251.0890, 2671.465
251.5712, 2674.611
252.0533, 2669.995
252.5354, 2663.578
253.0175, 2651.513
253.4996, 2641.396
253.9817, 2638.418
254.4639, 2640.266
254.9460, 2640.390
255.4281, 2632.883
255.9102, 2619.169
256.3923, 2610.534
256.8744, 2611.346
257.3565, 2610.882
257.8387, 2602.913
258.3208, 2591.344
258.8029, 2583.566
259.2850, 2585.837
259.7671, 2591.525
260.2492, 2581.996
260.7314, 2549.270
261.2135, 2520.944
261.6956, 2508.124
262.1777, 2504.305
262.6598, 2503.570
263.1419, 2504.384
263.6241, 2506.795
264.1062, 2513.283
264.5883, 2525.712
265.0704, 2530.206
265.5525, 2512.967
266.0346, 2491.730
266.5168, 2480.656
266.9989, 2482.034
267.4810, 2490.461
267.9631, 2504.052
268.4452, 2522.243
268.9273, 2537.127
269.4095, 2545.644
269.8916, 2551.882
270.3737, 2558.888
270.8558, 2566.760
271.3379, 2576.912
271.8200, 2591.328
272.3022, 2608.729
272.7843, 2623.757
273.2664, 2632.660
273.7485, 2646.607
274.2306, 2682.725
274.7127, 2733.693
275.1949, 2774.211
275.6770, 2790.542
276.1591, 2794.640
276.6412, 2799.575
277.1233, 2805.339
277.6054, 2818.123
278.0876, 2847.615
278.5697, 2887.237
279.0518, 2916.503
279.5339, 2921.193
280.0160, 2926.367
280.4981, 2955.685
280.9803, 3004.810
281.4624, 3048.078
281.9445, 3073.121
282.4266, 3084.187
282.9087, 3093.086
283.3908, 3099.180
283.8730, 3104.681
284.3551, 3112.466
284.8372, 3120.058
285.3193, 3120.278
285.8014, 3109.051
286.2835, 3096.752
286.7657, 3103.431
287.2478, 3137.985
287.7299, 3160.614
288.2120, 3153.199
288.6941, 3138.146
289.1762, 3140.713
289.6584, 3164.409
290.1405, 3192.098
290.6226, 3205.756
291.1047, 3202.042
291.5868, 3202.701
292.0689, 3211.370
292.5511, 3220.791
293.0332, 3229.762
293.5153, 3236.465
293.9974, 3235.480
294.4795, 3221.370
294.9616, 3196.109
295.4438, 3183.911
295.9259, 3196.202
296.4080, 3207.542
296.8901, 3216.101
297.3722, 3219.239
297.8543, 3213.950
298.3365, 3198.870
298.8186, 3174.420
299.3007, 3141.291
299.7828, 3092.112
300.2649, 3045.249
300.7470, 2998.108
301.2292, 2955.576
301.7113, 2925.478
302.1934, 2907.728
302.6755, 2891.190
303.1576, 2861.188
303.6397, 2814.434
304.1219, 2766.872
304.6040, 2709.702
305.0861, 2659.792
305.5682, 2627.668
306.0503, 2610.219
306.5324, 2595.916
307.0146, 2575.613
307.4967, 2550.681
307.9788, 2532.031
308.4609, 2523.258
308.9430, 2515.973
309.4251, 2504.581
309.9073, 2493.279
310.3894, 2489.650
310.8715, 2499.457
311.3536, 2512.721
311.8357, 2509.456
312.3178, 2484.988
312.8000, 2464.559
313.2821, 2456.200
313.7642, 2455.784
314.2463, 2462.260
314.7284, 2476.073
315.2105, 2490.165
315.6927, 2496.417
316.1748, 2496.622
316.6569, 2503.862
317.1390, 2524.592
317.6211, 2546.724
318.1032, 2559.315
318.5854, 2563.195
319.0675, 2562.796
319.5496, 2553.980
320.0317, 2544.054
320.5138, 2545.931
320.9959, 2561.428
321.4781, 2578.730
321.9602, 2591.918
322.4423, 2599.552
322.9244, 2598.364
323.4065, 2576.905
323.8886, 2556.702
324.3708, 2556.213
324.8529, 2568.991
325.3350, 2572.944
325.8171, 2556.690
326.2992, 2527.419
326.7813, 2502.668
327.2635, 2479.593
327.7456, 2465.022
328.2277, 2467.531
328.7098, 2476.029
329.1919, 2476.055
329.6740, 2464.708
330.1562, 2452.413
330.6383, 2452.435
331.1204, 2468.940
331.6025, 2482.507
332.0846, 2494.646
332.5667, 2503.063
333.0489, 2503.155
333.5310, 2498.098
334.0131, 2496.863
334.4952, 2506.590
334.9773, 2525.333
335.4594, 2537.884
335.9416, 2534.868
336.4237, 2536.954
336.9058, 2548.298
337.3879, 2565.827
337.8700, 2587.317
338.3521, 2611.952
338.8343, 2636.692
339.3164, 2655.589
339.7985, 2665.940
340.2806, 2679.437
340.7627, 2697.408
341.2448, 2718.933
341.7270, 2745.400
342.2091, 2775.811
342.6912, 2805.504
343.1733, 2831.864
343.6554, 2854.621
344.1375, 2870.697
344.6197, 2876.061
345.1018, 2881.998
345.5839, 2898.497
346.0660, 2919.256
346.5481, 2932.693
347.0302, 2930.550
347.5124, 2924.952
347.9945, 2937.115
348.4766, 2966.428
348.9587, 2976.391
349.4408, 2944.553
349.9229, 2891.788
350.4051, 2853.619
350.8872, 2832.931
351.3693, 2814.723
351.8514, 2794.345
352.3335, 2771.814
352.8156, 2746.159
353.2978, 2717.048
353.7799, 2687.924
354.2620, 2663.037
354.7441, 2643.228
355.2262, 2619.696
355.7083, 2586.847
356.1905, 2555.042
356.6726, 2533.143
357.1547, 2518.186
357.6368, 2499.063
358.1189, 2467.809
358.6010, 2429.558
359.0832, 2406.086
359.5653, 2417.313
360.0474, 2419.104
360.5295, 2399.032
361.0116, 2372.557
361.4937, 2356.288
361.9759, 2353.954
362.4580, 2355.936
362.9401, 2348.539
363.4222, 2327.571
363.9043, 2313.683
364.3864, 2311.463
364.8686, 2312.077
365.3507, 2315.531
365.8328, 2319.169
366.3149, 2317.252
366.7970, 2303.835
367.2791, 2284.237
367.7613, 2276.444
368.2434, 2286.040
368.7255, 2293.432
369.2076, 2286.462
369.6897, 2276.754
370.1718, 2277.375
370.6540, 2292.523
371.1361, 2306.630
371.6182, 2299.950
372.1003, 2277.711
372.5824, 2272.866
373.0645, 2299.936
373.5467, 2330.235
374.0288, 2331.127
374.5109, 2307.889
374.9930, 2289.103
375.4751, 2282.664
375.9572, 2283.519
376.4394, 2291.103
376.9215, 2303.690
377.4036, 2307.695
377.8857, 2291.401
378.3678, 2262.408
378.8499, 2253.368
379.3321, 2282.044
379.8142, 2303.137
380.2963, 2302.050
380.7784, 2289.704
381.2605, 2278.567
381.7426, 2272.218
382.2248, 2268.563
382.7069, 2265.427
383.1890, 2263.958
383.6711, 2258.225
384.1532, 2248.755
384.6353, 2235.218
385.1175, 2213.163
385.5996, 2187.107
386.0817, 2165.657
386.5638, 2154.165
387.0459, 2151.038
387.5280, 2153.625
388.0102, 2171.502
388.4923, 2173.932
388.9744, 2143.626
389.4565, 2103.160
389.9386, 2066.725
390.4207, 2037.429
390.9029, 2018.924
391.3850, 2020.757
391.8671, 2038.937
392.3492, 2048.483
392.8313, 2047.620
393.3134, 2036.786
393.7956, 2010.066
394.2777, 1973.518
394.7598, 1941.840
395.2419, 1920.060
395.7240, 1903.486
396.2061, 1886.884
396.6883, 1871.334
397.1704, 1862.803
397.6525, 1865.121
398.1346, 1873.837
398.6167, 1880.352
399.0988, 1884.654
399.5810, 1887.393
400.0631, 1887.649
400.5452, 1887.019
401.0273, 1885.602
401.5094, 1884.170
401.9915, 1886.225
402.4737, 1895.617
402.9558, 1912.108
403.4379, 1923.655
403.9200, 1928.992
404.4021, 1930.585
404.8842, 1921.498
405.3664, 1911.709
405.8485, 1916.468
406.3306, 1940.867
406.8127, 1970.303
407.2948, 1980.741
407.7769, 1967.782
408.2591, 1957.818
408.7412, 1952.929
409.2233, 1951.836
409.7054, 1955.340
410.1875, 1962.274
410.6696, 1969.437
411.1518, 1979.505
411.6339, 1986.417
412.1160, 1973.525
412.5981, 1938.236
413.0802, 1912.057
413.5623, 1913.481
414.0445, 1930.573
414.5266, 1940.299
415.0087, 1941.080
415.4908, 1939.673
415.9729, 1928.899
416.4550, 1921.225
416.9372, 1943.116
417.4193, 1998.500
417.9014, 2052.231
418.3835, 2069.485
418.8656, 2047.908
419.3477, 2041.960
419.8299, 2063.658
420.3120, 2085.113
420.7941, 2096.427
421.2762, 2101.329
421.7583, 2104.447
422.2404, 2107.817
422.7226, 2115.298
423.2047, 2137.534
423.6868, 2187.827
424.1689, 2215.967
424.6510, 2199.510
425.1331, 2179.521
425.6153, 2176.462
426.0974, 2187.059
426.5795, 2196.868
427.0616, 2198.260
427.5437, 2192.075
428.0258, 2177.609
428.5080, 2151.853
428.9901, 2132.418
429.4722, 2132.786
429.9543, 2138.826
430.4364, 2131.802
430.9185, 2108.531
431.4007, 2085.174
431.8828, 2067.932
432.3649, 2056.364
432.8470, 2052.428
433.3291, 2056.415
433.8112, 2058.326
434.2934, 2049.390
434.7755, 2030.168
435.2576, 2012.451
435.7397, 2001.349
436.2218, 1985.748
436.7039, 1956.445
437.1861, 1922.567
437.6682, 1897.545
438.1503, 1885.627
438.6324, 1879.211
439.1145, 1866.491
439.5966, 1843.857
440.0788, 1829.196
440.5609, 1828.033
441.0430, 1829.839
441.5251, 1833.786
442.0072, 1837.616
442.4893, 1836.821
442.9715, 1827.427
443.4536, 1815.981
443.9357, 1815.321
444.4178, 1826.651
444.8999, 1835.284
445.3820, 1836.435
445.8642, 1833.946
446.3463, 1832.308
446.8284, 1831.481
447.3105, 1829.275
447.7926, 1826.504
448.2747, 1820.979
448.7569, 1807.456
449.2390, 1786.964
449.7211, 1769.904
450.2032, 1763.425
450.6853, 1764.127
451.1674, 1759.239
451.6496, 1744.892
452.1317, 1730.543
452.6138, 1717.566
453.0959, 1704.700
453.5780, 1690.645
454.0602, 1675.359
454.5423, 1659.645
455.0244, 1643.531
455.5065, 1627.296
455.9886, 1616.495
456.4707, 1616.390
456.9529, 1613.823
457.4349, 1603.161
457.9171, 1589.352
458.3992, 1578.436
458.8813, 1572.162
459.3634, 1565.450
459.8455, 1550.177
460.3276, 1529.329
460.8098, 1518.916
461.2919, 1523.613
461.7740, 1531.435
462.2561, 1533.960
462.7382, 1531.632
463.2203, 1526.539
463.7025, 1513.917
464.1846, 1503.649
464.6667, 1502.830
465.1488, 1507.797
465.6309, 1512.010
466.1130, 1513.328
466.5952, 1512.097
467.0773, 1508.896
467.5594, 1504.160
468.0415, 1495.666
468.5236, 1472.132
469.0057, 1456.945
469.4879, 1469.739
469.9700, 1495.624
470.4521, 1505.785
470.9342, 1484.999
471.4163, 1452.006
471.8984, 1442.101
472.3806, 1458.790
472.8627, 1469.905
473.3448, 1465.033
473.8269, 1458.393
474.3090, 1464.299
474.7911, 1479.320
475.2733, 1486.600
475.7554, 1473.620
476.2375, 1454.335
476.7196, 1443.631
477.2017, 1440.189
477.6838, 1434.551
478.1660, 1420.795
478.6481, 1407.525
479.1302, 1412.309
479.6123, 1448.664
480.0944, 1471.568
480.5765, 1471.940
481.0587, 1465.843
481.5408, 1460.889
482.0229, 1458.622
482.5050, 1459.819
482.9871, 1465.251
483.4692, 1473.427
483.9514, 1480.176
484.4335, 1485.392
484.9156, 1489.411
485.3977, 1492.876
485.8798, 1494.672
486.3619, 1491.183
486.8441, 1483.985
487.3262, 1482.165
487.8083, 1497.423
488.2904, 1518.345
488.7725, 1525.344
489.2546, 1518.455
489.7368, 1507.221
490.2189, 1492.955
490.7010, 1480.176
491.1831, 1480.974
491.6652, 1502.715
492.1473, 1514.308
492.6295, 1503.164
493.1116, 1486.136
493.5937, 1476.301
494.0758, 1473.611
494.5579, 1470.948
495.0400, 1463.143
495.5222, 1452.899
496.0043, 1451.385
496.4864, 1466.008
496.9685, 1474.181
497.4506, 1466.864
497.9327, 1457.053
498.4149, 1455.273
498.8970, 1460.580
499.3791, 1462.451
499.8612, 1450.789
500.3433, 1432.427
500.8254, 1419.746
501.3076, 1412.737
501.7897, 1412.157
502.2718, 1420.579
502.7539, 1433.596
503.2360, 1443.455
503.7181, 1451.153
504.2003, 1453.154
504.6824, 1440.905
505.1645, 1428.515
505.6466, 1430.234
506.1287, 1443.572
506.6108, 1456.247
507.0930, 1460.799
507.5751, 1458.235
508.0572, 1450.974
508.5393, 1434.771
509.0214, 1422.900
509.5035, 1417.685
509.9857, 1416.130
510.4678, 1416.644
510.9499, 1419.182
511.4320, 1424.554
511.9141, 1436.544
512.3962, 1449.493
512.8784, 1451.380
513.3605, 1442.438
513.8426, 1436.207
514.3247, 1438.354
514.8068, 1444.755
515.2889, 1449.124
515.7711, 1451.394
516.2532, 1452.846
516.7353, 1452.137
517.2174, 1451.969
517.6995, 1455.989
518.1816, 1462.156
518.6638, 1465.018
519.1459, 1461.649
519.6280, 1454.210
520.1101, 1446.376
520.5922, 1436.170
521.0743, 1431.479
521.5565, 1441.338
522.0386, 1449.067
522.5207, 1444.823
523.0028, 1431.951
523.4849, 1419.795
523.9670, 1411.486
524.4492, 1406.875
524.9313, 1405.660
525.4134, 1407.968
525.8955, 1416.714
526.3776, 1435.384
526.8597, 1451.623
527.3419, 1447.956
527.8240, 1420.092
528.3061, 1408.037
528.7882, 1429.844
529.2703, 1447.838
529.7524, 1439.688
530.2346, 1418.855
530.7167, 1408.494
531.1988, 1416.231
531.6809, 1430.264
532.1630, 1434.843
532.6451, 1429.182
533.1273, 1421.930
533.6094, 1411.919
534.0915, 1402.068
534.5736, 1392.099
535.0557, 1383.600
535.5378, 1379.042
536.0200, 1378.921
536.5021, 1382.871
536.9842, 1395.079
537.4663, 1410.051
537.9484, 1415.108
538.4305, 1408.393
538.9127, 1401.843
539.3948, 1405.786
539.8769, 1418.457
540.3590, 1424.443
540.8411, 1417.239
541.3232, 1411.826
541.8054, 1411.160
542.2875, 1412.063
542.7696, 1414.088
543.2517, 1415.619
543.7338, 1411.337
544.2159, 1394.953
544.6981, 1370.405
545.1802, 1351.210
545.6623, 1338.866
546.1444, 1323.656
546.6265, 1297.766
547.1086, 1271.191
547.5908, 1258.039
548.0729, 1259.171
548.5550, 1260.711
549.0371, 1257.390
549.5192, 1254.191
550.0013, 1256.136
550.4835, 1261.929
550.9656, 1266.928
551.4477, 1268.899
551.9298, 1269.456
552.4119, 1272.363
552.8940, 1280.322
553.3762, 1282.914
553.8583, 1276.223
554.3404, 1267.674
554.8225, 1257.411
555.3046, 1247.789
555.7867, 1243.295
556.2689, 1246.816
556.7510, 1252.088
557.2331, 1254.513
557.7152, 1253.643
558.1973, 1245.847
558.6794, 1229.240
559.1616, 1214.815
559.6437, 1213.362
560.1258, 1223.434
560.6079, 1225.381
561.0900, 1212.258
561.5721, 1201.258
562.0543, 1194.677
562.5364, 1192.636
563.0185, 1198.561
563.5006, 1210.551
563.9827, 1218.491
564.4648, 1211.695
564.9470, 1194.891
565.4291, 1187.570
565.9112, 1191.952
566.3933, 1196.505
566.8754, 1199.331
567.3575, 1198.909
567.8397, 1191.569
568.3218, 1177.040
568.8039, 1168.103
569.2860, 1174.448
569.7681, 1182.718
570.2502, 1179.552
570.7324, 1169.360
571.2145, 1166.272
571.6966, 1176.206
572.1787, 1190.563
572.6608, 1194.286
573.1429, 1183.224
573.6251, 1180.767
574.1072, 1197.093
574.5893, 1210.356
575.0714, 1208.578
575.5535, 1200.663
576.0356, 1201.063
576.5178, 1215.242
576.9999, 1228.181
577.4820, 1224.101
577.9641, 1211.200
578.4462, 1209.824
578.9283, 1222.025
579.4105, 1229.831
579.8926, 1219.437
580.3747, 1197.313
580.8568, 1187.344
581.3389, 1195.782
581.8210, 1208.800
582.3032, 1238.261
582.7853, 1262.173
583.2674, 1260.506
583.7495, 1239.793
584.2316, 1221.418
584.7137, 1217.117
585.1959, 1222.328
585.6780, 1229.870
586.1601, 1239.759
586.6422, 1256.132
587.1243, 1284.640
587.6064, 1308.258
588.0886, 1307.260
588.5707, 1284.079
589.0528, 1271.958
589.5349, 1275.323
590.0170, 1285.399
590.4991, 1307.292
590.9813, 1329.880
591.4634, 1337.002
591.9455, 1328.100
592.4276, 1319.369
592.9097, 1326.033
593.3918, 1344.676
593.8740, 1357.366
594.3561, 1360.540
594.8382, 1370.171
595.3203, 1396.262
595.8024, 1426.365
596.2845, 1448.671
596.7667, 1463.399
597.2488, 1473.493
597.7309, 1473.906
598.2130, 1475.422
598.6951, 1489.982
599.1772, 1511.442
599.6594, 1524.087
600.1415, 1522.956
600.6236, 1519.172
601.1057, 1527.767
601.5878, 1549.770
602.0699, 1566.068
602.5521, 1573.681
603.0342, 1579.960
603.5163, 1587.386
603.9984, 1594.674
604.4805, 1600.548
604.9626, 1604.808
605.4448, 1608.123
605.9269, 1609.941
606.4090, 1611.591
606.8911, 1614.712
607.3732, 1619.270
607.8553, 1625.175
608.3375, 1632.649
608.8196, 1639.739
609.3017, 1642.902
609.7838, 1641.152
610.2659, 1638.805
610.7480, 1629.742
611.2302, 1626.850
611.7123, 1639.598
612.1944, 1659.139
612.6765, 1672.635
613.1586, 1676.331
613.6407, 1677.631
614.1229, 1680.914
614.6050, 1686.427
615.0871, 1695.009
615.5692, 1706.654
616.0513, 1721.362
616.5334, 1740.931
617.0156, 1759.932
617.4977, 1763.901
617.9798, 1736.191
