##NAMES=Inesite
##RRUFFID=R070456
##IDEAL CHEMISTRY=Ca_2_Mn^2+^_7_Si_10_O_28_(OH)_2_&#183;5H_2_O
##LOCALITY=Fengjiashan mine (Daye Copper mine), Daye County, Huangshi Prefecture, Hubei Province, China
##OWNER=RRUFF
##SOURCE=Michael Scott
##DESCRIPTION=Fan-shaped cluster of pink laths associated with quartz and brown platy hubeite
##STATUS=The identification of this mineral is confirmed by single-crystal X-ray diffraction and chemical analysis.
##URL=rruff.info/R070456
##MEASURED CHEMISTRY=Ca_2.00_(Mn^2+^_6.03_Fe^2+^_0.93_Mg_0.04_)_Σ=7_Si_10.00_O_28_(OH)_2_·5H_2_O; (OH) estimated by charge balance; H_2_O by difference
144.3699, 3975.972
144.8521, 4017.403
145.3342, 4065.735
145.8163, 4113.812
146.2984, 4168.714
146.7805, 4216.690
147.2626, 4248.610
147.7448, 4258.908
148.2269, 4260.478
148.7090, 4248.008
149.1911, 4218.248
149.6732, 4210.954
150.1554, 4237.026
150.6375, 4280.625
151.1196, 4324.800
151.6017, 4384.445
152.0838, 4431.057
152.5659, 4454.960
153.0481, 4447.549
153.5302, 4448.654
154.0123, 4461.751
154.4944, 4484.154
154.9765, 4512.073
155.4586, 4553.156
155.9408, 4593.026
156.4229, 4625.642
156.9050, 4626.551
157.3871, 4610.202
157.8692, 4602.333
158.3513, 4600.717
158.8335, 4595.345
159.3156, 4583.243
159.7977, 4567.911
160.2798, 4550.724
160.7619, 4527.693
161.2440, 4509.375
161.7262, 4504.374
162.2083, 4508.281
162.6904, 4504.955
163.1725, 4478.983
163.6546, 4448.530
164.1367, 4427.208
164.6189, 4427.761
165.1010, 4428.934
165.5831, 4418.209
166.0652, 4397.106
166.5473, 4379.525
167.0294, 4374.820
167.5116, 4376.696
167.9937, 4378.601
168.4758, 4379.405
168.9579, 4378.341
169.4400, 4371.583
169.9221, 4358.790
170.4043, 4352.092
170.8864, 4363.189
171.3685, 4385.133
171.8506, 4407.038
172.3327, 4427.903
172.8148, 4444.302
173.2970, 4450.117
173.7791, 4443.488
174.2612, 4437.745
174.7433, 4447.539
175.2254, 4467.355
175.7076, 4484.308
176.1897, 4492.327
176.6718, 4493.602
177.1539, 4490.299
177.6360, 4481.893
178.1181, 4471.845
178.6003, 4461.039
179.0824, 4450.649
179.5645, 4445.776
180.0466, 4455.311
180.5287, 4471.692
181.0108, 4480.124
181.4930, 4478.207
181.9751, 4468.199
182.4572, 4450.253
182.9393, 4425.050
183.4214, 4400.182
183.9035, 4380.019
184.3857, 4364.270
184.8678, 4352.207
185.3499, 4344.487
185.8320, 4339.467
186.3141, 4334.156
186.7962, 4328.465
187.2784, 4324.027
187.7605, 4321.176
188.2426, 4320.280
188.7247, 4324.065
189.2068, 4336.197
189.6889, 4351.946
190.1711, 4359.722
190.6532, 4359.378
191.1353, 4352.051
191.6174, 4332.039
192.0995, 4301.540
192.5816, 4284.130
193.0638, 4294.847
193.5459, 4324.740
194.0280, 4333.922
194.5101, 4320.372
194.9922, 4295.691
195.4743, 4267.744
195.9565, 4236.762
196.4386, 4217.306
196.9207, 4219.352
197.4028, 4240.350
197.8849, 4253.365
198.3671, 4256.620
198.8492, 4256.972
199.3313, 4263.816
199.8134, 4277.605
200.2955, 4294.234
200.7776, 4314.012
201.2598, 4336.989
201.7419, 4354.375
202.2240, 4365.354
202.7061, 4372.144
203.1882, 4374.233
203.6703, 4367.722
204.1525, 4374.575
204.6346, 4414.053
205.1167, 4492.873
205.5988, 4539.263
206.0809, 4542.460
206.5630, 4523.323
207.0452, 4527.087
207.5273, 4560.648
208.0094, 4594.679
208.4915, 4613.394
208.9736, 4612.924
209.4557, 4618.700
209.9379, 4632.005
210.4200, 4651.958
210.9021, 4676.962
211.3842, 4708.196
211.8663, 4741.846
212.3484, 4777.320
212.8306, 4816.860
213.3127, 4848.946
213.7948, 4872.986
214.2769, 4889.202
214.7590, 4897.825
215.2411, 4897.904
215.7233, 4892.227
216.2054, 4881.275
216.6875, 4862.847
217.1696, 4846.334
217.6517, 4832.182
218.1338, 4820.396
218.6160, 4812.493
219.0981, 4811.516
219.5802, 4809.063
220.0623, 4797.921
220.5444, 4772.651
221.0265, 4754.017
221.5087, 4747.976
221.9908, 4751.512
222.4729, 4741.567
222.9550, 4709.265
223.4371, 4676.207
223.9192, 4660.685
224.4014, 4675.712
224.8835, 4676.549
225.3656, 4649.705
225.8477, 4599.054
226.3298, 4574.324
226.8119, 4589.782
227.2941, 4612.843
227.7762, 4616.070
228.2583, 4588.231
228.7404, 4564.723
229.2225, 4552.180
229.7046, 4549.899
230.1868, 4544.999
230.6689, 4536.475
231.1510, 4526.351
231.6331, 4515.410
232.1152, 4500.207
232.5974, 4491.142
233.0795, 4489.417
233.5616, 4495.148
234.0437, 4510.375
234.5258, 4544.064
235.0079, 4578.606
235.4901, 4596.530
235.9722, 4587.262
236.4543, 4582.865
236.9364, 4593.134
237.4185, 4618.794
237.9006, 4627.395
238.3828, 4606.468
238.8649, 4580.902
239.3470, 4575.793
239.8291, 4602.120
240.3112, 4629.123
240.7933, 4653.730
241.2755, 4676.594
241.7576, 4681.579
242.2397, 4653.614
242.7218, 4621.822
243.2039, 4619.020
243.6860, 4666.322
244.1682, 4703.078
244.6503, 4714.999
245.1324, 4700.887
245.6145, 4682.690
246.0966, 4652.241
246.5787, 4625.651
247.0609, 4621.969
247.5430, 4653.792
248.0251, 4684.906
248.5072, 4709.192
248.9893, 4726.585
249.4714, 4734.791
249.9536, 4729.140
250.4357, 4718.726
250.9178, 4712.624
251.3999, 4708.695
251.8820, 4713.992
252.3641, 4735.702
252.8463, 4776.221
253.3284, 4795.002
253.8105, 4783.529
254.2926, 4759.147
254.7747, 4740.502
255.2568, 4729.086
255.7390, 4720.498
256.2211, 4714.894
256.7032, 4712.755
257.1853, 4706.042
257.6674, 4691.557
258.1495, 4676.231
258.6317, 4669.763
259.1138, 4679.423
259.5959, 4680.561
260.0780, 4664.627
260.5601, 4630.490
261.0422, 4604.293
261.5244, 4588.814
262.0065, 4577.642
262.4886, 4562.313
262.9707, 4537.353
263.4528, 4522.817
263.9349, 4525.799
264.4171, 4546.743
264.8992, 4565.115
265.3813, 4583.832
265.8634, 4596.234
266.3455, 4591.882
266.8276, 4563.030
267.3098, 4542.224
267.7919, 4539.823
268.2740, 4555.159
268.7561, 4560.015
269.2382, 4547.185
269.7203, 4536.268
270.2025, 4552.548
270.6846, 4605.417
271.1667, 4647.291
271.6488, 4665.867
272.1309, 4662.622
272.6130, 4657.463
273.0952, 4648.378
273.5773, 4641.834
274.0594, 4643.713
274.5415, 4654.026
275.0236, 4673.876
275.5057, 4710.065
275.9879, 4757.748
276.4700, 4776.874
276.9521, 4760.258
277.4342, 4735.923
277.9163, 4730.083
278.3984, 4744.076
278.8806, 4763.859
279.3627, 4787.556
279.8448, 4814.484
280.3269, 4844.035
280.8090, 4877.917
281.2911, 4907.391
281.7733, 4924.024
282.2554, 4927.485
282.7375, 4926.564
283.2196, 4920.626
283.7017, 4912.339
284.1838, 4911.821
284.6660, 4919.742
285.1481, 4930.933
285.6302, 4942.284
286.1123, 4953.719
286.5944, 4963.214
287.0765, 4968.860
287.5587, 4973.627
288.0408, 4987.753
288.5229, 5012.166
289.0050, 5034.853
289.4871, 5043.284
289.9692, 5040.302
290.4514, 5043.592
290.9335, 5058.250
291.4156, 5078.482
291.8977, 5092.585
292.3798, 5100.735
292.8619, 5106.289
293.3441, 5112.134
293.8262, 5117.426
294.3083, 5117.573
294.7904, 5109.253
295.2726, 5100.283
295.7547, 5107.338
296.2368, 5128.328
296.7189, 5145.455
297.2010, 5145.676
297.6831, 5133.298
298.1653, 5117.515
298.6474, 5098.651
299.1295, 5079.065
299.6116, 5067.157
300.0937, 5059.437
300.5758, 5039.232
301.0580, 4983.026
301.5401, 4911.389
302.0222, 4858.987
302.5043, 4832.973
302.9864, 4816.542
303.4685, 4796.337
303.9507, 4772.367
304.4328, 4745.206
304.9149, 4709.769
305.3970, 4673.749
305.8791, 4647.451
306.3612, 4633.410
306.8434, 4621.074
307.3255, 4596.763
307.8076, 4567.859
308.2897, 4548.852
308.7718, 4557.620
309.2539, 4573.150
309.7361, 4574.143
310.2182, 4557.767
310.7003, 4543.153
311.1824, 4545.167
311.6645, 4556.937
312.1466, 4568.123
312.6288, 4571.809
313.1109, 4575.610
313.5930, 4584.695
314.0751, 4599.407
314.5572, 4616.129
315.0393, 4637.939
315.5215, 4659.167
316.0036, 4673.441
316.4857, 4669.326
316.9678, 4666.366
317.4499, 4673.581
317.9320, 4690.770
318.4142, 4711.540
318.8963, 4736.662
319.3784, 4762.694
319.8605, 4787.131
320.3426, 4816.607
320.8247, 4836.763
321.3069, 4836.479
321.7890, 4819.594
322.2711, 4810.577
322.7532, 4814.930
323.2353, 4828.993
323.7174, 4850.823
324.1996, 4903.352
324.6817, 4936.231
325.1638, 4928.087
325.6459, 4891.086
326.1280, 4870.340
326.6101, 4879.395
327.0923, 4898.872
327.5744, 4920.883
328.0565, 4953.514
328.5386, 4976.409
329.0207, 4982.379
329.5028, 4979.029
329.9850, 4983.291
330.4671, 4990.592
330.9492, 5010.826
331.4313, 5051.708
331.9134, 5130.127
332.3955, 5184.500
332.8777, 5205.571
333.3598, 5206.992
333.8419, 5209.158
334.3240, 5206.592
334.8061, 5214.108
335.2882, 5239.897
335.7704, 5288.479
336.2525, 5321.451
336.7346, 5330.523
337.2167, 5333.728
337.6988, 5354.540
338.1809, 5399.326
338.6631, 5440.966
339.1452, 5470.213
339.6273, 5488.614
340.1094, 5516.420
340.5915, 5555.968
341.0736, 5599.915
341.5558, 5641.479
342.0379, 5681.487
342.5200, 5717.132
343.0021, 5748.738
343.4842, 5775.603
343.9663, 5795.330
344.4485, 5807.341
344.9306, 5815.968
345.4127, 5829.156
345.8948, 5844.760
346.3769, 5841.829
346.8590, 5814.320
347.3412, 5771.549
347.8233, 5728.069
348.3054, 5684.324
348.7875, 5643.839
349.2696, 5608.306
349.7517, 5578.277
350.2339, 5555.872
350.7160, 5543.544
351.1981, 5531.380
351.6802, 5507.812
352.1623, 5473.875
352.6444, 5433.472
353.1266, 5383.724
353.6087, 5330.569
354.0908, 5282.826
354.5729, 5240.936
355.0550, 5204.077
355.5371, 5174.323
356.0193, 5148.821
356.5014, 5122.939
356.9835, 5091.850
357.4656, 5062.145
357.9477, 5038.297
358.4298, 5020.566
358.9120, 5009.608
359.3941, 5010.342
359.8762, 5016.444
360.3583, 5021.334
360.8404, 5020.739
361.3225, 5020.749
361.8047, 5027.875
362.2868, 5039.435
362.7689, 5042.910
363.2510, 5021.699
363.7331, 4998.131
364.2152, 4986.993
364.6974, 4997.075
365.1795, 5010.232
365.6616, 5025.385
366.1437, 5040.812
366.6258, 5052.484
367.1079, 5057.277
367.5901, 5060.408
368.0722, 5064.571
368.5543, 5072.948
369.0364, 5075.261
369.5185, 5064.254
370.0006, 5049.489
370.4828, 5044.373
370.9649, 5058.616
371.4470, 5070.686
371.9291, 5075.059
372.4112, 5070.699
372.8933, 5068.074
373.3755, 5068.433
373.8576, 5069.035
374.3397, 5066.864
374.8218, 5060.197
375.3039, 5054.443
375.7861, 5049.655
376.2682, 5046.193
376.7503, 5048.359
377.2324, 5059.198
377.7145, 5067.248
378.1967, 5061.012
378.6788, 5038.669
379.1609, 5028.019
379.6430, 5036.660
380.1251, 5052.919
380.6072, 5049.866
381.0894, 5026.830
381.5715, 5001.136
382.0536, 4981.632
382.5357, 4967.434
383.0178, 4955.015
383.4999, 4944.403
383.9821, 4934.467
384.4642, 4923.487
384.9463, 4911.591
385.4284, 4900.306
385.9105, 4887.265
386.3926, 4875.824
386.8748, 4876.692
387.3569, 4889.507
387.8390, 4894.670
388.3211, 4866.284
388.8032, 4820.985
389.2853, 4787.531
389.7675, 4780.531
390.2496, 4780.923
390.7317, 4773.249
391.2138, 4759.527
391.6959, 4748.265
392.1780, 4753.438
392.6602, 4757.823
393.1423, 4746.835
393.6244, 4715.272
394.1065, 4674.639
394.5886, 4618.212
395.0707, 4556.719
395.5529, 4509.863
396.0350, 4489.521
396.5171, 4479.836
396.9992, 4476.988
397.4813, 4482.971
397.9634, 4483.884
398.4456, 4464.156
398.9277, 4443.992
399.4098, 4444.148
399.8919, 4492.677
400.3740, 4531.978
400.8561, 4550.445
401.3383, 4549.277
401.8204, 4553.461
402.3025, 4564.487
402.7846, 4579.389
403.2667, 4598.074
403.7488, 4626.616
404.2310, 4643.036
404.7131, 4641.726
405.1952, 4629.626
405.6773, 4624.962
406.1594, 4629.679
406.6415, 4635.650
407.1237, 4638.043
407.6058, 4636.432
408.0879, 4641.104
408.5700, 4653.635
409.0521, 4668.150
409.5342, 4677.268
410.0164, 4681.012
410.4985, 4681.439
410.9806, 4680.677
411.4627, 4676.479
411.9448, 4656.120
412.4269, 4619.512
412.9091, 4591.875
413.3912, 4606.796
413.8733, 4646.336
414.3554, 4669.325
414.8375, 4660.146
415.3196, 4642.908
415.8018, 4641.682
416.2839, 4654.140
416.7660, 4672.490
417.2481, 4699.392
417.7302, 4725.793
418.2123, 4741.365
418.6945, 4742.563
419.1766, 4745.269
419.6587, 4760.485
420.1408, 4782.157
420.6229, 4801.863
421.1050, 4808.149
421.5872, 4820.003
422.0693, 4856.592
422.5514, 4916.603
423.0335, 4947.197
423.5156, 4908.167
423.9977, 4854.000
424.4799, 4819.912
424.9620, 4827.849
425.4441, 4834.764
425.9262, 4839.759
426.4083, 4842.384
426.8904, 4841.533
427.3726, 4835.999
427.8547, 4828.438
428.3368, 4820.870
428.8189, 4815.325
429.3010, 4798.421
429.7831, 4761.500
430.2653, 4724.140
430.7474, 4715.356
431.2295, 4742.876
431.7116, 4763.595
432.1937, 4764.624
432.6758, 4750.491
433.1580, 4744.807
433.6401, 4749.611
434.1222, 4747.890
434.6043, 4714.079
435.0864, 4657.125
435.5685, 4630.104
436.0507, 4646.673
436.5328, 4681.088
437.0149, 4701.266
437.4970, 4707.853
437.9791, 4703.427
438.4612, 4675.918
438.9434, 4643.751
439.4255, 4635.460
439.9076, 4653.475
440.3897, 4673.934
440.8718, 4680.063
441.3539, 4677.350
441.8361, 4672.412
442.3182, 4657.600
442.8003, 4651.200
443.2824, 4672.781
443.7645, 4714.424
444.2466, 4741.148
444.7288, 4729.205
445.2109, 4706.410
445.6930, 4687.565
446.1751, 4672.705
446.6572, 4665.277
447.1393, 4672.555
447.6215, 4685.857
448.1036, 4691.386
448.5857, 4683.528
449.0678, 4674.461
449.5499, 4668.327
450.0320, 4665.506
450.5142, 4652.755
450.9963, 4624.817
451.4784, 4594.249
451.9605, 4571.030
452.4426, 4556.120
452.9247, 4543.924
453.4069, 4533.998
453.8890, 4525.959
454.3711, 4519.974
454.8532, 4516.272
455.3353, 4510.710
455.8174, 4499.458
456.2996, 4483.813
456.7817, 4470.839
457.2638, 4460.432
457.7459, 4453.263
458.2281, 4451.250
458.7102, 4453.027
459.1923, 4455.291
459.6744, 4459.336
460.1565, 4460.962
460.6386, 4453.755
461.1208, 4439.291
461.6029, 4424.607
462.0850, 4417.744
462.5671, 4410.651
463.0492, 4393.173
463.5313, 4357.333
464.0135, 4332.324
464.4956, 4338.143
464.9777, 4361.458
465.4598, 4383.489
465.9419, 4409.313
466.4240, 4423.278
466.9062, 4413.960
467.3883, 4380.736
467.8704, 4357.565
468.3525, 4354.589
468.8346, 4355.365
469.3167, 4349.539
469.7989, 4326.410
470.2810, 4317.108
470.7631, 4326.299
471.2452, 4347.748
471.7273, 4370.134
472.2094, 4396.186
472.6916, 4415.154
473.1737, 4423.793
473.6558, 4422.343
474.1379, 4407.489
474.6200, 4375.430
475.1021, 4348.028
475.5843, 4355.676
476.0664, 4391.299
476.5485, 4410.074
477.0306, 4396.547
477.5127, 4371.801
477.9948, 4367.501
478.4770, 4380.185
478.9591, 4394.753
479.4412, 4401.293
479.9233, 4405.352
480.4054, 4412.639
480.8875, 4423.415
481.3697, 4437.817
481.8518, 4465.497
482.3339, 4493.238
482.8160, 4505.900
483.2981, 4479.636
483.7802, 4456.778
484.2624, 4453.931
484.7445, 4467.142
485.2266, 4481.040
485.7087, 4495.812
486.1908, 4508.256
486.6729, 4516.235
487.1551, 4517.529
487.6372, 4521.332
488.1193, 4530.507
488.6014, 4540.210
489.0835, 4545.271
489.5656, 4545.557
490.0478, 4541.567
490.5299, 4532.497
491.0120, 4519.392
491.4941, 4505.898
491.9762, 4491.057
492.4583, 4480.730
492.9405, 4482.374
493.4226, 4493.554
493.9047, 4496.938
494.3868, 4490.463
494.8689, 4479.797
495.3510, 4466.937
495.8332, 4454.707
496.3153, 4452.193
496.7974, 4473.849
497.2795, 4498.275
497.7616, 4497.701
498.2437, 4476.212
498.7259, 4458.324
499.2080, 4464.131
499.6901, 4475.886
500.1722, 4477.755
500.6543, 4462.692
501.1364, 4450.126
501.6186, 4452.275
502.1007, 4459.305
502.5828, 4457.243
503.0649, 4426.333
503.5470, 4405.004
504.0291, 4405.439
504.5113, 4426.058
504.9934, 4443.110
505.4755, 4459.298
505.9576, 4468.598
506.4397, 4464.543
506.9218, 4439.809
507.4040, 4429.951
507.8861, 4438.845
508.3682, 4458.073
508.8503, 4478.615
509.3324, 4500.768
509.8145, 4510.355
510.2967, 4495.293
510.7788, 4467.805
511.2609, 4467.340
511.7430, 4492.073
512.2252, 4506.802
512.7073, 4462.812
513.1894, 4397.675
513.6715, 4378.824
514.1536, 4425.810
514.6357, 4482.122
515.1179, 4511.527
515.6000, 4519.424
516.0821, 4514.420
516.5642, 4478.870
517.0463, 4451.068
517.5284, 4454.562
518.0106, 4485.718
518.4927, 4508.704
518.9748, 4518.442
519.4569, 4515.550
519.9390, 4497.328
520.4211, 4448.104
520.9033, 4419.228
521.3854, 4419.779
521.8675, 4434.263
522.3496, 4440.580
522.8317, 4433.200
523.3138, 4436.230
523.7960, 4461.338
524.2781, 4499.841
524.7602, 4509.802
525.2423, 4488.806
525.7244, 4464.992
526.2065, 4455.400
526.6887, 4458.393
527.1708, 4470.548
527.6529, 4493.381
528.1350, 4514.235
528.6171, 4515.823
529.0992, 4506.134
529.5814, 4501.750
530.0635, 4512.134
530.5456, 4526.033
531.0277, 4536.905
531.5098, 4544.547
531.9919, 4548.740
532.4741, 4535.824
532.9562, 4529.838
533.4383, 4549.276
533.9204, 4606.854
534.4025, 4646.972
534.8846, 4646.431
535.3668, 4632.985
535.8489, 4632.147
536.3310, 4650.673
536.8131, 4670.720
537.2952, 4694.480
537.7773, 4717.744
538.2595, 4724.914
538.7416, 4711.756
539.2237, 4699.456
539.7058, 4698.038
540.1879, 4706.504
540.6700, 4718.169
541.1522, 4733.692
541.6343, 4746.198
542.1164, 4743.894
542.5985, 4733.002
543.0806, 4731.982
543.5627, 4749.774
544.0449, 4766.958
544.5270, 4764.914
545.0091, 4747.445
545.4912, 4723.285
545.9733, 4689.987
546.4554, 4656.531
546.9376, 4629.867
547.4197, 4610.247
547.9018, 4586.113
548.3839, 4550.723
548.8660, 4512.652
549.3481, 4477.575
549.8303, 4451.409
550.3124, 4417.732
550.7945, 4363.617
551.2766, 4310.105
551.7587, 4292.994
552.2408, 4327.754
552.7230, 4350.210
553.2051, 4340.771
553.6872, 4307.708
554.1693, 4283.913
554.6514, 4269.498
555.1335, 4262.329
555.6157, 4262.795
556.0978, 4269.352
556.5799, 4280.422
557.0620, 4296.979
557.5441, 4308.054
558.0262, 4294.688
558.5084, 4270.483
558.9905, 4258.518
559.4726, 4275.571
559.9547, 4294.584
560.4368, 4301.092
560.9189, 4297.636
561.4011, 4291.408
561.8832, 4270.194
562.3653, 4232.962
562.8474, 4267.542
563.3295, 4287.546
563.8116, 4293.758
564.2938, 4244.869
564.7759, 4267.132
565.2580, 4260.880
565.7401, 4253.459
566.2222, 4285.736
566.7043, 4244.861
567.1865, 4276.509
567.6686, 4279.207
568.1507, 4295.154
568.6328, 4282.411
569.1149, 4278.529
569.5970, 4303.348
570.0792, 4312.275
570.5613, 4296.229
571.0434, 4313.019
571.5255, 4271.141
572.0076, 4280.745
572.4897, 4312.560
572.9719, 4297.957
573.4540, 4315.271
573.9361, 4320.430
574.4182, 4270.344
574.9003, 4316.333
575.3824, 4320.772
575.8646, 4282.551
576.3467, 4325.248
576.8288, 4292.907
577.3109, 4287.351
577.7930, 4301.950
578.2751, 4295.538
578.7573, 4322.253
579.2394, 4317.054
579.7215, 4309.003
580.2036, 4313.396
580.6857, 4282.527
581.1678, 4317.077
581.6500, 4306.940
582.1321, 4319.016
582.6142, 4336.127
583.0963, 4314.686
583.5784, 4334.059
584.0605, 4290.139
584.5427, 4299.179
585.0248, 4302.516
585.5069, 4339.703
585.9890, 4296.092
586.4711, 4303.660
586.9532, 4333.019
587.4354, 4344.905
587.9175, 4366.522
588.3996, 4386.358
588.8817, 4404.119
589.3638, 4419.252
589.8459, 4425.630
590.3281, 4434.625
590.8102, 4457.317
591.2923, 4501.747
591.7744, 4533.400
592.2565, 4547.511
592.7386, 4550.377
593.2208, 4550.063
593.7029, 4546.558
594.1850, 4549.764
594.6671, 4566.847
595.1492, 4590.451
595.6313, 4603.385
596.1135, 4607.484
596.5956, 4615.464
597.0777, 4640.141
597.5598, 4670.657
598.0419, 4696.307
598.5240, 4716.193
599.0062, 4731.927
599.4883, 4741.912
599.9704, 4749.594
600.4525, 4758.070
600.9346, 4768.161
601.4167, 4778.540
601.8989, 4790.513
602.3810, 4802.060
602.8631, 4808.501
603.3452, 4804.114
603.8273, 4808.497
604.3094, 4831.662
604.7916, 4867.991
605.2737, 4886.115
605.7558, 4885.363
606.2379, 4874.533
606.7200, 4850.563
607.2021, 4821.476
607.6843, 4811.599
608.1664, 4823.330
608.6485, 4842.211
609.1306, 4866.167
609.6127, 4886.140
610.0948, 4888.583
610.5770, 4854.754
611.0591, 4828.195
611.5412, 4836.027
612.0233, 4863.055
612.5054, 4881.238
612.9875, 4873.217
613.4697, 4869.028
613.9518, 4875.728
614.4339, 4892.157
614.9160, 4912.437
615.3981, 4943.600
615.8802, 4962.885
616.3624, 4947.206
616.8445, 4896.207
617.3266, 4888.437
617.8087, 4929.063
618.2908, 4982.414
618.7729, 5015.520
619.2551, 5032.847
619.7372, 5043.918
620.2193, 5047.370
620.7014, 5054.612
621.1835, 5080.069
621.6656, 5115.963
622.1478, 5148.748
622.6299, 5172.116
623.1120, 5192.711
623.5941, 5212.440
624.0762, 5231.386
624.5583, 5249.331
625.0405, 5263.754
625.5226, 5279.844
626.0047, 5296.235
626.4868, 5310.949
626.9689, 5352.666
627.4510, 5432.480
627.9332, 5511.146
628.4153, 5546.088
628.8974, 5542.289
629.3795, 5559.284
629.8616, 5604.995
630.3438, 5667.073
630.8259, 5737.166
631.3080, 5811.788
631.7901, 5883.172
632.2722, 5949.058
632.7543, 6010.449
633.2365, 6059.991
633.7186, 6105.224
634.2007, 6165.928
634.6828, 6260.018
635.1649, 6360.504
