##NAMES=Inyoite
##RRUFFID=R040161
##IDEAL CHEMISTRY=CaB_3_O_3_(OH)_5_&#183;4H_2_O
##LOCALITY=Kramer deposit, Boron, Kern County, California, USA
##OWNER=RRUFF
##SOURCE=University of Arizona Mineral Museum
##DESCRIPTION=Group of colorless indistinct rounded crystals
##STATUS=The identification of this mineral has been confirmed by X-ray diffraction and chemical analysis
##URL=rruff.info/R040161
##MEASURED CHEMISTRY=Ca_1.00_B_3.00_O_3_(OH)_5_Â·4H_2_O
82.45007, 21.04454
82.93219, 20.08706
83.41431, 21.35437
83.89642, 23.63829
84.37854, 25.39427
84.86066, 26.24652
85.34277, 26.47355
85.82489, 26.33643
86.30701, 25.61267
86.78912, 25.15160
87.27124, 26.04845
87.75336, 27.27324
88.23547, 27.33973
88.71759, 24.93554
89.19971, 20.98476
89.68182, 19.16961
90.16394, 21.15431
90.64606, 23.27007
91.12817, 24.54259
91.61029, 25.02863
92.09241, 24.84484
92.57452, 23.86035
93.05664, 22.05783
93.53876, 21.13116
94.02087, 21.94790
94.50299, 22.91312
94.98511, 23.86671
95.46722, 24.61347
95.94934, 24.77261
96.43146, 23.71000
96.91357, 20.67333
97.39569, 19.99212
97.87781, 23.74848
98.35992, 27.68793
98.84204, 29.50839
99.32416, 29.00353
99.80627, 27.49649
100.2884, 26.63009
100.7705, 26.91965
101.2526, 26.49372
101.7347, 24.50050
102.2169, 22.32776
102.6990, 21.24627
103.1811, 21.55051
103.6632, 22.46119
104.1453, 22.69415
104.6274, 21.72491
105.1096, 21.42604
105.5917, 21.83884
106.0738, 23.07132
106.5559, 25.80100
107.0380, 30.62571
107.5201, 35.74800
108.0023, 37.15678
108.4844, 34.11201
108.9665, 31.45339
109.4486, 30.79867
109.9307, 31.78714
110.4128, 33.60328
110.8950, 36.28598
111.3771, 39.30267
111.8592, 41.91912
112.3413, 44.34028
112.8234, 45.83579
113.3055, 45.53801
113.7877, 43.62382
114.2698, 41.61281
114.7519, 39.34406
115.2340, 37.84563
115.7161, 38.27131
116.1982, 41.01182
116.6804, 44.92059
117.1625, 49.24814
117.6446, 54.13882
118.1267, 58.42311
118.6088, 60.54591
119.0909, 62.33549
119.5731, 65.28896
120.0552, 69.84039
120.5373, 75.55349
121.0194, 81.68928
121.5015, 87.97868
121.9836, 95.53660
122.4658, 104.7911
122.9479, 115.3476
123.4300, 127.4069
123.9121, 141.5032
124.3942, 156.0453
124.8763, 166.9775
125.3585, 172.8278
125.8406, 177.3762
126.3227, 179.4678
126.8048, 181.6523
127.2869, 187.1334
127.7690, 197.7641
128.2512, 212.3023
128.7333, 225.3792
129.2154, 236.3552
129.6975, 246.4178
130.1796, 255.1462
130.6617, 263.2555
131.1439, 271.4709
131.6260, 280.1696
132.1081, 289.4387
132.5902, 299.9793
133.0723, 313.3486
133.5544, 326.4803
134.0366, 338.8146
134.5187, 350.4754
135.0008, 361.9589
135.4829, 373.6630
135.9650, 385.4884
136.4471, 394.9809
136.9293, 396.8895
137.4114, 401.9789
137.8935, 414.6914
138.3756, 433.3616
138.8577, 453.7777
139.3398, 472.8440
139.8220, 490.5628
140.3041, 510.5707
140.7862, 533.0439
141.2683, 557.0043
141.7504, 579.6529
142.2325, 602.5821
142.7147, 631.1844
143.1968, 670.3232
143.6789, 720.3353
144.1610, 771.1060
144.6431, 818.7582
145.1252, 870.0221
145.6074, 929.1645
146.0895, 995.9216
146.5716, 1067.620
147.0537, 1144.158
147.5358, 1225.121
148.0179, 1297.868
148.5001, 1363.989
148.9822, 1420.990
149.4643, 1468.356
149.9464, 1506.088
150.4285, 1531.459
150.9106, 1540.353
151.3928, 1532.723
151.8749, 1520.682
152.3570, 1502.611
152.8391, 1481.734
153.3212, 1459.318
153.8033, 1435.358
154.2855, 1413.883
154.7676, 1397.984
155.2497, 1387.365
155.7318, 1380.877
156.2139, 1379.339
156.6960, 1381.400
157.1782, 1386.052
157.6603, 1393.450
158.1424, 1402.035
158.6245, 1411.449
159.1066, 1421.197
159.5887, 1429.931
160.0709, 1434.225
160.5530, 1438.432
161.0351, 1449.623
161.5172, 1469.252
161.9993, 1490.807
162.4814, 1508.018
162.9636, 1523.700
163.4457, 1543.954
163.9278, 1567.006
164.4099, 1596.892
164.8920, 1642.192
165.3741, 1705.895
165.8563, 1776.668
166.3384, 1847.787
166.8205, 1920.689
167.3026, 1998.769
167.7847, 2085.784
168.2668, 2178.406
168.7490, 2270.651
169.2311, 2364.674
169.7132, 2454.023
170.1953, 2533.971
170.6774, 2607.842
171.1595, 2681.011
171.6417, 2759.396
172.1238, 2837.217
172.6059, 2900.158
173.0880, 2947.000
173.5701, 2979.875
174.0522, 2994.651
174.5344, 2999.262
175.0165, 3004.847
175.4986, 3018.198
175.9807, 3035.248
176.4628, 3045.786
176.9449, 3051.521
177.4271, 3046.267
177.9092, 3023.760
178.3913, 2991.706
178.8734, 2961.866
179.3555, 2942.991
179.8376, 2926.824
180.3197, 2887.789
180.8019, 2816.885
181.2840, 2737.169
181.7661, 2657.449
182.2482, 2574.504
182.7303, 2483.460
183.2124, 2380.053
183.6946, 2269.933
184.1767, 2168.029
184.6588, 2072.488
185.1409, 1991.318
185.6230, 1932.522
186.1051, 1884.809
186.5873, 1833.445
187.0694, 1770.209
187.5515, 1703.494
188.0336, 1655.386
188.5157, 1636.628
188.9978, 1619.866
189.4800, 1600.839
189.9621, 1579.826
190.4442, 1556.386
190.9263, 1530.284
191.4084, 1502.960
191.8905, 1478.139
192.3727, 1457.598
192.8548, 1436.305
193.3369, 1415.029
193.8190, 1391.950
194.3011, 1363.432
194.7832, 1327.883
195.2654, 1290.805
195.7475, 1265.312
196.2296, 1259.568
196.7117, 1250.049
197.1938, 1232.991
197.6759, 1211.924
198.1581, 1188.341
198.6402, 1162.914
199.1223, 1138.715
199.6044, 1122.061
200.0865, 1117.375
200.5686, 1111.713
201.0508, 1103.300
201.5329, 1094.007
202.0150, 1084.594
202.4971, 1075.451
202.9792, 1067.830
203.4613, 1063.844
203.9435, 1064.535
204.4256, 1066.821
204.9077, 1073.065
205.3898, 1078.878
205.8719, 1082.042
206.3540, 1081.795
206.8362, 1077.820
207.3183, 1068.765
207.8004, 1051.662
208.2825, 1037.208
208.7646, 1029.508
209.2467, 1021.052
209.7289, 1006.613
210.2110, 986.1837
210.6931, 964.0027
211.1752, 944.7451
211.6573, 928.8106
212.1395, 914.8901
212.6216, 904.2326
213.1037, 894.4266
213.5858, 884.1968
214.0679, 873.6810
214.5500, 863.8925
215.0322, 855.8210
215.5143, 849.5817
215.9964, 844.5325
216.4785, 842.5970
216.9606, 840.0331
217.4427, 835.8870
217.9249, 829.9104
218.4070, 821.3784
218.8891, 808.2010
219.3712, 789.9573
219.8533, 782.5544
220.3354, 801.4109
220.8176, 816.5705
221.2997, 817.4881
221.7818, 808.4204
222.2639, 799.0934
222.7460, 796.5524
223.2281, 799.9236
223.7103, 799.9798
224.1924, 792.4371
224.6745, 786.0687
225.1566, 784.4406
225.6387, 784.7858
226.1208, 781.9864
226.6030, 772.4299
227.0851, 759.0901
227.5672, 755.0381
228.0493, 771.1299
228.5314, 782.0782
229.0135, 779.7128
229.4957, 771.6660
229.9778, 766.6044
230.4599, 768.4465
230.9420, 774.9929
231.4241, 781.2047
231.9062, 788.2577
232.3884, 792.6246
232.8705, 792.7319
233.3526, 791.0273
233.8347, 789.7849
234.3168, 789.7231
234.7989, 789.6526
235.2811, 786.8939
235.7632, 778.6354
236.2453, 774.5308
236.7274, 778.6838
237.2095, 784.3889
237.6916, 787.1918
238.1738, 786.2693
238.6559, 783.8422
239.1380, 782.7951
239.6201, 783.8300
240.1022, 783.6053
240.5843, 782.9499
241.0665, 780.2454
241.5486, 773.0761
242.0307, 762.3051
242.5128, 751.9699
242.9949, 745.9852
243.4770, 744.6334
243.9592, 744.2048
244.4413, 744.3995
244.9234, 745.9680
245.4055, 750.8035
245.8876, 757.4456
246.3697, 762.1425
246.8519, 761.0646
247.3340, 755.2546
247.8161, 754.4089
248.2982, 762.4080
248.7803, 770.4527
249.2624, 775.1547
249.7446, 777.9224
250.2267, 781.2718
250.7088, 786.9837
251.1909, 793.7137
251.6730, 796.9393
252.1551, 793.6426
252.6373, 793.1115
253.1194, 802.0889
253.6015, 813.5289
254.0836, 818.8914
254.5657, 814.1339
255.0478, 805.9529
255.5300, 805.0675
256.0121, 812.8660
256.4942, 822.7935
256.9763, 837.1943
257.4584, 850.5971
257.9406, 858.8607
258.4227, 861.0389
258.9048, 859.4847
259.3869, 854.9719
259.8690, 847.2277
260.3511, 842.9504
260.8333, 845.7587
261.3154, 850.5071
261.7975, 853.5891
262.2796, 854.8989
262.7617, 855.9585
263.2438, 858.8400
263.7260, 862.8172
264.2081, 863.0474
264.6902, 856.4690
265.1723, 850.0486
265.6544, 849.8569
266.1365, 854.1821
266.6187, 857.3915
267.1008, 855.9661
267.5829, 851.7868
268.0650, 848.3452
268.5471, 845.3361
269.0292, 844.3370
269.5114, 849.1638
269.9935, 856.5674
270.4756, 860.7983
270.9577, 858.6598
271.4398, 854.1520
271.9219, 851.2002
272.4041, 849.8047
272.8862, 850.0076
273.3683, 852.1300
273.8504, 855.8824
274.3325, 860.8463
274.8146, 868.7238
275.2968, 874.6854
275.7789, 873.3868
276.2610, 866.8117
276.7431, 863.6982
277.2252, 868.6185
277.7073, 876.3381
278.1895, 878.1446
278.6716, 873.6016
279.1537, 867.2212
279.6358, 858.7998
280.1179, 849.9886
280.6000, 843.2515
281.0822, 838.9409
281.5643, 837.8278
282.0464, 842.5551
282.5285, 853.8737
283.0106, 861.0653
283.4927, 861.9054
283.9749, 858.7486
284.4570, 851.5291
284.9391, 840.9532
285.4212, 832.8562
285.9033, 833.0455
286.3854, 841.3088
286.8676, 844.1989
287.3497, 837.7126
287.8318, 830.2764
288.3139, 825.5377
288.7960, 823.1171
289.2781, 821.6888
289.7603, 820.6544
290.2424, 819.8246
290.7245, 818.4036
291.2066, 815.5446
291.6887, 813.1769
292.1708, 812.2740
292.6530, 811.7759
293.1351, 809.9178
293.6172, 806.1279
294.0993, 802.0569
294.5814, 800.7675
295.0635, 804.6129
295.5457, 806.8643
296.0278, 808.4386
296.5099, 807.9116
296.9920, 802.0919
297.4741, 791.9464
297.9562, 783.2996
298.4384, 782.4584
298.9205, 790.5977
299.4026, 798.5887
299.8847, 808.5225
300.3668, 816.2429
300.8489, 818.1036
301.3311, 816.6442
301.8131, 817.3018
302.2953, 823.9653
302.7774, 835.2965
303.2595, 844.2866
303.7416, 848.2742
304.2237, 853.8539
304.7058, 865.0245
305.1880, 877.1693
305.6701, 884.2340
306.1522, 883.7936
306.6343, 881.3450
307.1164, 886.6967
307.5985, 902.3177
308.0807, 916.4585
308.5628, 923.5621
309.0449, 931.0264
309.5270, 944.4694
310.0091, 963.9312
310.4912, 983.1338
310.9734, 996.0627
311.4555, 1003.340
311.9376, 1011.379
312.4197, 1020.214
312.9018, 1030.495
313.3839, 1043.194
313.8661, 1057.551
314.3482, 1071.413
314.8303, 1082.397
315.3124, 1092.921
315.7945, 1107.177
316.2766, 1125.316
316.7588, 1146.313
317.2409, 1172.129
317.7230, 1199.498
318.2051, 1222.998
318.6872, 1241.349
319.1693, 1256.640
319.6515, 1267.793
320.1336, 1276.241
320.6157, 1289.292
321.0978, 1310.780
321.5799, 1335.633
322.0620, 1355.379
322.5442, 1368.922
323.0263, 1384.646
323.5084, 1409.076
323.9905, 1435.316
324.4726, 1452.927
324.9547, 1460.279
325.4369, 1466.515
325.9190, 1481.902
326.4011, 1507.714
326.8832, 1522.402
327.3653, 1522.974
327.8474, 1515.803
328.3296, 1500.315
328.8117, 1479.507
329.2938, 1461.249
329.7759, 1450.468
330.2580, 1445.052
330.7401, 1435.782
331.2223, 1418.335
331.7044, 1402.303
332.1865, 1390.639
332.6686, 1379.925
333.1507, 1365.049
333.6328, 1344.933
334.1150, 1324.812
334.5971, 1313.145
335.0792, 1314.791
335.5613, 1311.864
336.0434, 1299.294
336.5255, 1287.193
337.0077, 1280.422
337.4898, 1278.869
337.9719, 1279.864
338.4540, 1280.767
338.9361, 1282.265
339.4182, 1291.170
339.9004, 1313.183
340.3825, 1334.315
340.8646, 1348.583
341.3467, 1360.430
341.8288, 1375.680
342.3109, 1396.864
342.7931, 1420.751
343.2752, 1441.787
343.7573, 1459.122
344.2394, 1480.046
344.7215, 1508.508
345.2036, 1539.725
345.6858, 1571.403
346.1679, 1603.270
346.6500, 1631.870
347.1321, 1653.169
347.6142, 1669.552
348.0963, 1686.823
348.5785, 1704.548
349.0606, 1726.549
349.5427, 1762.860
350.0248, 1806.826
350.5069, 1837.370
350.9890, 1842.564
351.4712, 1839.646
351.9533, 1844.075
352.4354, 1853.689
352.9175, 1856.932
353.3996, 1848.415
353.8817, 1830.126
354.3639, 1805.389
354.8460, 1770.057
355.3281, 1738.568
355.8102, 1718.252
356.2923, 1701.638
356.7744, 1680.926
357.2566, 1654.198
357.7387, 1622.467
358.2208, 1585.457
358.7029, 1540.228
359.1850, 1506.729
359.6671, 1493.377
360.1493, 1481.631
360.6314, 1462.015
361.1135, 1437.526
361.5956, 1416.140
362.0777, 1402.653
362.5598, 1395.023
363.0420, 1385.394
363.5241, 1369.622
364.0062, 1358.807
364.4883, 1354.563
364.9704, 1354.942
365.4525, 1360.992
365.9347, 1371.849
366.4168, 1380.627
366.8989, 1375.854
367.3810, 1355.963
367.8631, 1348.839
368.3452, 1364.330
368.8274, 1382.710
369.3095, 1394.349
369.7916, 1400.929
370.2737, 1406.946
370.7558, 1415.344
371.2379, 1423.705
371.7201, 1426.251
372.2022, 1422.031
372.6843, 1421.429
373.1664, 1432.135
373.6485, 1446.959
374.1306, 1454.127
374.6128, 1450.839
375.0949, 1448.746
375.5770, 1457.217
376.0591, 1470.575
376.5412, 1476.854
377.0233, 1473.179
377.5055, 1465.826
377.9876, 1460.965
378.4697, 1458.952
378.9518, 1455.586
379.4339, 1445.458
379.9160, 1438.803
380.3982, 1444.444
380.8803, 1458.944
381.3624, 1472.044
381.8445, 1477.985
382.3266, 1479.474
382.8087, 1484.901
383.2909, 1500.588
383.7730, 1511.864
384.2551, 1515.460
384.7372, 1516.504
385.2193, 1518.104
385.7014, 1521.349
386.1836, 1527.467
386.6657, 1540.290
387.1478, 1560.882
387.6299, 1566.555
388.1120, 1547.635
388.5941, 1523.848
389.0763, 1496.486
389.5584, 1469.902
390.0405, 1451.684
390.5226, 1446.494
391.0047, 1446.155
391.4868, 1437.833
391.9690, 1421.005
392.4511, 1401.418
392.9332, 1380.155
393.4153, 1356.870
393.8974, 1329.272
394.3795, 1297.448
394.8617, 1271.257
395.3438, 1260.438
395.8259, 1256.656
396.3080, 1245.326
396.7901, 1224.901
397.2722, 1202.601
397.7544, 1181.278
398.2365, 1162.505
398.7186, 1151.759
399.2007, 1151.974
399.6828, 1156.742
400.1649, 1165.604
400.6471, 1176.938
401.1292, 1188.682
401.6113, 1200.231
402.0934, 1210.502
402.5755, 1217.859
403.0576, 1221.165
403.5398, 1224.779
404.0219, 1226.418
404.5040, 1230.437
404.9861, 1242.968
405.4682, 1259.883
405.9503, 1270.395
406.4325, 1266.699
406.9146, 1253.830
407.3967, 1250.160
407.8788, 1260.590
408.3609, 1270.303
408.8430, 1278.411
409.3252, 1283.520
409.8073, 1284.750
410.2894, 1281.878
410.7715, 1274.523
411.2536, 1258.652
411.7357, 1236.865
412.2179, 1224.597
412.7000, 1226.892
413.1821, 1229.054
413.6642, 1218.243
414.1463, 1200.205
414.6284, 1186.502
415.1106, 1182.060
415.5927, 1179.003
416.0748, 1170.542
416.5569, 1158.621
417.0390, 1150.520
417.5211, 1149.822
418.0033, 1149.668
418.4854, 1138.577
418.9675, 1111.096
419.4496, 1091.542
419.9317, 1090.054
420.4138, 1089.196
420.8960, 1074.275
421.3781, 1048.833
421.8602, 1027.487
422.3423, 1020.237
422.8244, 1022.952
423.3065, 1017.330
423.7887, 993.7211
424.2708, 976.8563
424.7529, 974.1021
425.2350, 975.2066
425.7171, 971.5213
426.1992, 962.0343
426.6814, 952.1550
427.1635, 947.6061
427.6456, 947.8101
428.1277, 946.4830
428.6098, 944.0145
429.0919, 939.1970
429.5741, 928.2014
430.0562, 915.3360
430.5383, 907.9283
431.0204, 910.3085
431.5025, 912.8006
431.9846, 905.1492
432.4668, 890.5658
432.9489, 880.9231
433.4310, 879.8332
433.9131, 882.4805
434.3952, 883.5623
434.8773, 882.8804
435.3595, 882.5791
435.8416, 884.1730
436.3237, 884.9086
436.8058, 882.0983
437.2879, 877.0200
437.7701, 872.7685
438.2522, 870.8736
438.7343, 871.1547
439.2164, 873.3749
439.6985, 879.6583
440.1806, 884.0564
440.6628, 885.0594
441.1449, 885.5629
441.6270, 887.8206
442.1091, 891.4793
442.5912, 894.4445
443.0733, 894.9773
443.5555, 893.6385
444.0376, 892.5747
444.5197, 891.8978
445.0018, 891.1909
445.4839, 891.3134
445.9660, 890.7505
446.4482, 886.5364
446.9303, 877.4463
447.4124, 871.7453
447.8945, 879.5797
448.3766, 893.4041
448.8587, 895.3503
449.3409, 882.2589
449.8230, 868.6933
450.3051, 866.0700
450.7872, 873.5273
451.2693, 879.8036
451.7514, 883.5222
452.2336, 887.7476
452.7157, 895.3605
453.1978, 903.3947
453.6799, 906.8281
454.1620, 904.4915
454.6441, 900.6052
455.1263, 900.8255
455.6084, 906.1411
456.0905, 909.9471
456.5726, 908.1024
457.0547, 909.0134
457.5368, 917.9387
458.0190, 930.6899
458.5011, 940.4550
458.9832, 944.2025
459.4653, 944.8162
459.9474, 944.1657
460.4295, 942.1227
460.9117, 948.5753
461.3938, 970.2607
461.8759, 994.4407
462.3580, 1011.074
462.8401, 1020.795
463.3222, 1025.840
463.8044, 1021.514
464.2865, 1016.957
464.7686, 1022.465
465.2507, 1035.436
465.7328, 1045.187
466.2149, 1046.993
466.6971, 1043.464
467.1792, 1039.455
467.6613, 1034.312
468.1434, 1030.099
468.6255, 1028.403
469.1076, 1026.242
469.5898, 1021.931
470.0719, 1015.526
470.5540, 1007.659
471.0361, 998.5294
471.5182, 988.6541
472.0003, 978.9955
472.4825, 968.8289
472.9646, 961.0474
473.4467, 958.6953
473.9288, 957.2753
474.4109, 954.3864
474.8930, 949.7793
475.3752, 943.6375
475.8573, 933.3421
476.3394, 922.6628
476.8215, 919.5946
477.3036, 924.3847
477.7857, 927.7663
478.2679, 924.9514
478.7500, 917.9448
479.2321, 911.0329
479.7142, 902.9990
480.1963, 897.9756
480.6784, 900.5997
481.1606, 903.9902
481.6427, 900.7709
482.1248, 891.4015
482.6069, 882.1290
483.0890, 877.6600
483.5711, 877.1027
484.0533, 875.2935
484.5354, 870.4579
485.0175, 867.3415
485.4996, 866.8430
485.9817, 867.9238
486.4638, 871.2330
486.9460, 876.0906
487.4281, 878.4556
487.9102, 872.4526
488.3923, 861.6535
488.8744, 857.3098
489.3565, 860.2477
489.8387, 865.5909
490.3208, 872.7288
490.8029, 879.7856
491.2850, 882.9630
491.7671, 881.1594
492.2492, 878.7906
492.7314, 876.8241
493.2135, 875.3583
493.6956, 874.0316
494.1777, 873.0798
494.6598, 873.8672
495.1419, 877.4705
495.6241, 883.6849
496.1062, 891.3893
496.5883, 902.6313
497.0704, 912.4254
497.5525, 921.2173
498.0346, 927.8597
498.5168, 928.0873
498.9989, 923.4555
499.4810, 924.2181
499.9631, 943.6586
500.4452, 975.1008
500.9273, 990.5497
501.4095, 985.5260
501.8916, 983.7935
502.3737, 999.5853
502.8558, 1022.400
503.3379, 1034.538
503.8200, 1032.653
504.3022, 1032.824
504.7843, 1044.483
505.2664, 1059.376
505.7485, 1068.453
506.2306, 1071.008
506.7127, 1068.879
507.1949, 1062.316
507.6770, 1053.439
508.1591, 1051.658
508.6412, 1062.843
509.1233, 1072.844
509.6054, 1081.966
510.0876, 1088.893
510.5697, 1093.063
511.0518, 1094.167
511.5339, 1091.240
512.0161, 1081.380
512.4982, 1068.410
512.9803, 1063.088
513.4624, 1066.294
513.9445, 1072.369
514.4266, 1081.374
514.9088, 1090.619
515.3909, 1096.481
515.8730, 1098.751
516.3551, 1100.732
516.8372, 1104.123
517.3193, 1107.155
517.8015, 1106.737
518.2836, 1104.099
518.7657, 1104.592
519.2478, 1111.308
519.7299, 1121.690
520.2120, 1129.845
520.6942, 1136.380
521.1763, 1139.338
521.6584, 1135.258
522.1405, 1131.278
522.6226, 1131.580
523.1047, 1135.173
523.5869, 1138.842
524.0690, 1140.953
524.5511, 1142.207
525.0332, 1144.501
525.5153, 1147.809
525.9974, 1147.638
526.4796, 1141.919
526.9617, 1133.998
527.4438, 1125.326
527.9259, 1116.351
528.4080, 1113.809
528.8901, 1124.518
529.3723, 1136.123
529.8544, 1144.959
530.3365, 1148.742
530.8186, 1140.404
531.3007, 1117.979
531.7828, 1093.834
532.2650, 1086.591
532.7471, 1100.528
533.2292, 1104.393
533.7113, 1087.690
534.1934, 1072.680
534.6755, 1068.089
535.1577, 1068.417
535.6398, 1066.157
536.1219, 1059.122
536.6040, 1049.629
537.0861, 1038.919
537.5682, 1027.472
538.0504, 1016.529
538.5325, 1006.110
539.0146, 997.7632
539.4967, 993.7625
539.9788, 992.7534
540.4609, 988.0923
540.9431, 977.4946
541.4252, 966.7670
541.9073, 955.1004
542.3894, 945.1017
542.8715, 940.7321
543.3536, 941.2297
543.8358, 940.8403
544.3179, 934.2051
544.8000, 923.7315
545.2821, 920.8083
545.7642, 928.7495
546.2463, 935.1894
546.7285, 937.5687
547.2106, 936.7411
547.6927, 931.5687
548.1748, 922.7051
548.6569, 916.2614
549.1390, 915.8871
549.6211, 918.6127
550.1032, 921.7414
550.5853, 925.1957
551.0674, 929.0063
551.5496, 933.2522
552.0317, 937.7299
552.5138, 942.1802
552.9959, 946.7822
553.4780, 950.7703
553.9601, 952.9185
554.4423, 955.8668
554.9244, 961.7380
555.4065, 968.7822
555.8886, 973.1185
556.3707, 973.1861
556.8528, 974.8406
557.3350, 987.8925
557.8171, 1010.377
558.2992, 1025.856
558.7813, 1031.752
559.2634, 1034.022
559.7455, 1036.017
560.2277, 1037.294
560.7098, 1036.756
561.1919, 1034.005
561.6740, 1030.133
562.1561, 1022.991
562.6382, 1016.413
563.1204, 1014.826
563.6025, 1018.257
564.0846, 1024.276
564.5667, 1031.935
565.0488, 1039.413
565.5309, 1038.325
566.0131, 1022.841
566.4952, 1013.548
566.9773, 1019.750
567.4594, 1028.672
567.9415, 1031.463
568.4236, 1029.451
568.9058, 1030.512
569.3879, 1041.103
569.8700, 1053.402
570.3521, 1059.790
570.8342, 1061.263
571.3163, 1060.143
571.7985, 1056.776
572.2806, 1054.694
572.7627, 1058.595
573.2448, 1069.353
573.7269, 1077.958
574.2090, 1083.111
574.6912, 1087.886
575.1733, 1093.847
575.6554, 1099.401
576.1375, 1101.062
576.6196, 1098.755
577.1017, 1099.218
577.5839, 1112.167
