##NAMES=Inyoite
##RRUFFID=R040161
##IDEAL CHEMISTRY=CaB_3_O_3_(OH)_5_&#183;4H_2_O
##LOCALITY=Kramer deposit, Boron, Kern County, California, USA
##OWNER=RRUFF
##SOURCE=University of Arizona Mineral Museum
##DESCRIPTION=Group of colorless indistinct rounded crystals
##STATUS=The identification of this mineral has been confirmed by X-ray diffraction and chemical analysis
##URL=rruff.info/R040161
##MEASURED CHEMISTRY=Ca_1.00_B_3.00_O_3_(OH)_5_Â·4H_2_O
123.1454, 179.7629
123.6275, 188.8223
124.1096, 201.1354
124.5917, 216.6545
125.0739, 235.1839
125.5560, 258.5172
126.0381, 284.5537
126.5202, 309.2809
127.0023, 330.4234
127.4844, 351.3885
127.9666, 378.7088
128.4487, 412.3161
128.9308, 446.8751
129.4129, 476.4014
129.8950, 502.1977
130.3772, 529.5702
130.8593, 562.1187
131.3414, 597.5384
131.8235, 627.3210
132.3056, 650.5616
132.7877, 670.8785
133.2699, 692.8118
133.7520, 716.5933
134.2341, 738.6686
134.7162, 755.5684
135.1983, 767.3437
135.6804, 785.3502
136.1626, 810.1897
136.6447, 840.1270
137.1268, 872.1367
137.6089, 905.9668
138.0910, 941.9517
138.5731, 979.9454
139.0553, 1020.954
139.5374, 1061.064
140.0195, 1098.976
140.5016, 1135.933
140.9837, 1176.447
141.4658, 1225.373
141.9480, 1270.847
142.4301, 1302.687
142.9122, 1311.236
143.3943, 1326.512
143.8764, 1352.494
144.3585, 1388.827
144.8407, 1430.314
145.3228, 1475.130
145.8049, 1526.261
146.2870, 1586.657
146.7691, 1662.306
147.2512, 1738.439
147.7334, 1814.019
148.2155, 1892.396
148.6976, 1958.172
149.1797, 2006.858
149.6618, 2044.305
150.1439, 2077.899
150.6261, 2116.128
151.1082, 2142.496
151.5903, 2151.144
152.0724, 2135.476
152.5545, 2116.721
153.0366, 2088.907
153.5188, 2059.308
154.0009, 2042.297
154.4830, 2045.499
154.9651, 2057.387
155.4472, 2073.376
155.9293, 2096.397
156.4115, 2118.143
156.8936, 2137.615
157.3757, 2154.748
157.8578, 2169.684
158.3399, 2185.042
158.8221, 2196.695
159.3042, 2202.125
159.7863, 2200.371
160.2684, 2192.643
160.7505, 2176.206
161.2326, 2152.154
161.7148, 2130.104
162.1969, 2111.063
162.6790, 2097.054
163.1611, 2090.201
163.6432, 2086.304
164.1253, 2093.427
164.6075, 2117.514
165.0896, 2158.840
165.5717, 2208.468
166.0538, 2265.065
166.5359, 2326.278
167.0180, 2388.793
167.5002, 2443.658
167.9823, 2504.523
168.4644, 2586.082
168.9465, 2692.329
169.4286, 2798.962
169.9107, 2893.848
170.3929, 2975.847
170.8750, 3045.013
171.3571, 3096.824
171.8392, 3136.896
172.3213, 3169.769
172.8034, 3194.475
173.2856, 3215.911
173.7677, 3243.669
174.2498, 3273.545
174.7319, 3290.750
175.2140, 3278.525
175.6961, 3249.914
176.1783, 3224.132
176.6604, 3204.498
177.1425, 3189.498
177.6246, 3180.098
178.1067, 3175.383
178.5888, 3168.729
179.0710, 3159.212
179.5531, 3144.399
180.0352, 3117.578
180.5173, 3072.968
180.9994, 3020.148
181.4815, 2975.014
181.9637, 2937.039
182.4458, 2902.230
182.9279, 2864.236
183.4100, 2825.521
183.8921, 2795.104
184.3742, 2778.996
184.8564, 2771.259
185.3385, 2757.266
185.8206, 2736.264
186.3027, 2716.698
186.7848, 2706.398
187.2669, 2704.971
187.7491, 2709.007
188.2312, 2720.249
188.7133, 2736.111
189.1954, 2748.254
189.6775, 2756.950
190.1596, 2760.239
190.6418, 2753.794
191.1239, 2737.831
191.6060, 2720.792
192.0881, 2709.702
192.5702, 2702.592
193.0524, 2682.771
193.5345, 2650.535
194.0166, 2605.151
194.4987, 2541.306
194.9808, 2457.748
195.4629, 2374.288
195.9451, 2302.709
196.4272, 2241.806
196.9093, 2175.412
197.3914, 2099.292
197.8735, 2023.527
198.3556, 1970.070
198.8378, 1942.128
199.3199, 1917.082
199.8020, 1882.030
200.2841, 1836.332
200.7662, 1794.001
201.2483, 1754.349
201.7305, 1719.863
202.2126, 1699.227
202.6947, 1695.805
203.1768, 1693.674
203.6589, 1681.447
204.1410, 1656.966
204.6232, 1639.299
205.1053, 1632.798
205.5874, 1633.026
206.0695, 1625.567
206.5516, 1609.836
207.0337, 1587.948
207.5159, 1560.452
207.9980, 1527.251
208.4801, 1491.034
208.9622, 1450.725
209.4443, 1407.695
209.9264, 1368.794
210.4086, 1334.800
210.8907, 1303.246
211.3728, 1272.597
211.8549, 1242.288
212.3370, 1213.770
212.8191, 1186.301
213.3013, 1160.509
213.7834, 1140.531
214.2655, 1129.019
214.7476, 1118.998
215.2297, 1104.115
215.7118, 1081.888
216.1940, 1061.173
216.6761, 1043.208
217.1582, 1027.923
217.6403, 1016.129
218.1224, 1009.181
218.6045, 1004.085
219.0867, 997.8527
219.5688, 989.5636
220.0509, 982.4406
220.5330, 977.4955
221.0151, 974.7084
221.4972, 972.2146
221.9794, 971.1371
222.4615, 969.0824
222.9436, 962.7922
223.4257, 949.1427
223.9078, 937.6077
224.3899, 930.7182
224.8721, 928.6948
225.3542, 927.4583
225.8363, 928.1765
226.3184, 928.5697
226.8005, 925.0400
227.2827, 913.3505
227.7648, 906.0657
228.2469, 908.0710
228.7290, 921.2915
229.2111, 928.3574
229.6932, 925.9152
230.1754, 919.9567
230.6575, 918.5941
231.1396, 924.8546
231.6217, 930.4003
232.1038, 933.0160
232.5859, 932.3752
233.0681, 930.3394
233.5502, 925.8181
234.0323, 920.6954
234.5144, 917.7401
234.9965, 917.9443
235.4786, 918.6984
235.9608, 919.3207
236.4429, 919.8054
236.9250, 919.9948
237.4071, 918.9352
237.8892, 918.1796
238.3713, 921.0657
238.8535, 932.4706
239.3356, 939.2789
239.8177, 936.0530
240.2998, 919.1625
240.7819, 905.9555
241.2640, 896.1225
241.7462, 889.9352
242.2283, 888.5480
242.7104, 895.9896
243.1925, 901.5460
243.6746, 900.5912
244.1567, 889.5631
244.6389, 884.2853
245.1210, 886.0270
245.6031, 892.7241
246.0852, 901.5514
246.5673, 915.4948
247.0494, 926.4207
247.5316, 930.2861
248.0137, 923.4634
248.4958, 922.1768
248.9779, 928.8225
249.4600, 939.6783
249.9421, 947.6249
250.4243, 951.3398
250.9064, 954.6226
251.3885, 958.9869
251.8706, 965.1047
252.3527, 969.7816
252.8348, 971.3169
253.3170, 972.4425
253.7991, 979.3244
254.2812, 996.0750
254.7633, 1010.543
255.2454, 1017.365
255.7275, 1013.737
256.2097, 1012.648
256.6918, 1014.661
257.1739, 1018.834
257.6560, 1023.308
258.1381, 1027.385
258.6202, 1033.320
259.1024, 1043.974
259.5845, 1062.897
260.0666, 1070.459
260.5487, 1062.014
261.0308, 1045.708
261.5129, 1035.833
261.9951, 1033.525
262.4772, 1035.198
262.9593, 1040.856
263.4414, 1052.399
263.9235, 1058.377
264.4056, 1056.197
264.8878, 1050.932
265.3699, 1052.408
265.8520, 1063.513
266.3341, 1073.166
266.8162, 1077.106
267.2983, 1074.700
267.7805, 1069.470
268.2626, 1059.020
268.7447, 1048.485
269.2268, 1048.220
269.7089, 1061.281
270.1910, 1073.660
270.6732, 1080.452
271.1553, 1081.384
271.6374, 1078.065
272.1195, 1069.007
272.6016, 1057.865
273.0837, 1050.335
273.5659, 1046.413
274.0480, 1045.903
274.5301, 1050.624
275.0122, 1060.912
275.4943, 1064.854
275.9764, 1060.441
276.4586, 1053.461
276.9407, 1053.529
277.4228, 1061.590
277.9049, 1068.430
278.3870, 1069.531
278.8691, 1065.235
279.3513, 1063.913
279.8334, 1066.402
280.3155, 1069.706
280.7976, 1069.677
281.2798, 1066.206
281.7619, 1061.949
282.2440, 1057.769
282.7261, 1053.626
283.2082, 1048.760
283.6903, 1042.770
284.1725, 1037.530
284.6546, 1036.536
285.1367, 1039.577
285.6188, 1040.764
286.1009, 1036.082
286.5830, 1027.673
287.0652, 1026.112
287.5473, 1032.421
288.0294, 1039.556
288.5115, 1039.109
288.9936, 1031.875
289.4757, 1024.443
289.9579, 1018.201
290.4400, 1013.509
290.9221, 1012.342
291.4042, 1015.023
291.8863, 1017.206
292.3684, 1013.119
292.8506, 1004.299
293.3327, 997.4042
293.8148, 995.1736
294.2969, 995.7379
294.7790, 995.7590
295.2611, 995.2333
295.7433, 994.1653
296.2254, 991.7278
296.7075, 988.6366
297.1896, 986.9702
297.6717, 987.4446
298.1538, 989.4907
298.6360, 992.4460
299.1181, 996.3094
299.6002, 1000.743
300.0823, 1007.732
300.5644, 1014.901
301.0465, 1016.912
301.5287, 1007.835
302.0108, 998.7334
302.4929, 1003.846
302.9750, 1021.307
303.4571, 1040.109
303.9392, 1054.428
304.4214, 1065.242
304.9035, 1074.141
305.3856, 1081.310
305.8677, 1086.613
306.3498, 1087.834
306.8319, 1086.378
307.3141, 1087.257
307.7962, 1094.228
308.2783, 1104.573
308.7604, 1115.803
309.2425, 1127.118
309.7246, 1139.447
310.2068, 1156.260
310.6889, 1174.951
311.1710, 1188.985
311.6531, 1187.533
312.1352, 1184.915
312.6173, 1193.001
313.0995, 1217.258
313.5816, 1241.468
314.0637, 1257.643
314.5458, 1268.616
315.0279, 1279.886
315.5100, 1291.598
315.9922, 1305.636
316.4743, 1323.292
316.9564, 1345.211
317.4385, 1368.695
317.9206, 1395.216
318.4027, 1422.235
318.8849, 1446.206
319.3670, 1462.599
319.8491, 1478.926
320.3312, 1498.958
320.8133, 1524.184
321.2954, 1546.046
321.7776, 1557.928
322.2597, 1567.693
322.7418, 1583.721
323.2239, 1617.548
323.7060, 1647.436
324.1881, 1666.797
324.6703, 1674.512
325.1524, 1683.684
325.6345, 1699.786
326.1166, 1715.131
326.5987, 1723.615
327.0808, 1717.202
327.5630, 1713.408
328.0451, 1716.938
328.5272, 1727.144
329.0093, 1729.726
329.4914, 1721.175
329.9735, 1708.190
330.4557, 1695.249
330.9378, 1684.821
331.4199, 1669.494
331.9020, 1643.906
332.3841, 1612.110
332.8662, 1594.874
333.3484, 1598.924
333.8305, 1607.586
334.3126, 1611.663
334.7947, 1608.890
335.2768, 1608.288
335.7589, 1610.155
336.2411, 1614.517
336.7232, 1621.916
337.2053, 1632.989
337.6874, 1645.090
338.1695, 1656.556
338.6516, 1666.824
339.1338, 1680.612
339.6159, 1698.183
340.0980, 1718.822
340.5801, 1741.013
341.0622, 1765.038
341.5443, 1790.646
342.0265, 1818.852
342.5086, 1849.117
342.9907, 1878.155
343.4728, 1905.045
343.9549, 1933.370
344.4370, 1969.605
344.9192, 2012.477
345.4013, 2051.301
345.8834, 2077.946
346.3655, 2098.568
346.8476, 2128.785
347.3297, 2168.629
347.8119, 2212.739
348.2940, 2260.377
348.7761, 2308.663
349.2582, 2348.204
349.7403, 2377.568
350.2225, 2396.827
350.7046, 2401.547
351.1867, 2393.566
351.6688, 2386.740
352.1509, 2398.870
352.6331, 2416.543
353.1152, 2418.595
353.5973, 2396.123
354.0794, 2364.881
354.5615, 2338.969
355.0436, 2315.867
355.5258, 2287.896
356.0079, 2244.926
356.4900, 2198.520
356.9721, 2158.430
357.4542, 2126.501
357.9363, 2099.708
358.4185, 2080.813
358.9006, 2065.440
359.3827, 2046.028
359.8648, 2013.765
360.3469, 1981.349
360.8290, 1954.780
361.3112, 1934.619
361.7933, 1919.618
362.2754, 1912.404
362.7575, 1908.835
363.2396, 1904.391
363.7217, 1896.980
364.2039, 1889.737
364.6860, 1882.349
365.1681, 1874.803
365.6502, 1871.378
366.1323, 1870.329
366.6144, 1874.813
367.0966, 1887.205
367.5787, 1921.223
368.0608, 1946.089
368.5429, 1955.208
369.0250, 1952.203
369.5071, 1955.252
369.9893, 1965.401
370.4714, 1980.287
370.9535, 2000.357
371.4356, 2032.458
371.9177, 2053.296
372.3998, 2059.524
372.8820, 2055.891
373.3641, 2051.603
373.8462, 2044.816
374.3283, 2042.267
374.8104, 2049.003
375.2925, 2066.554
375.7747, 2075.324
376.2568, 2073.667
376.7389, 2066.645
377.2210, 2059.355
377.7031, 2051.495
378.1852, 2047.866
378.6674, 2050.552
379.1495, 2058.586
379.6316, 2068.859
380.1137, 2081.538
380.5958, 2094.178
381.0779, 2103.262
381.5601, 2109.889
382.0422, 2118.854
382.5243, 2131.870
383.0064, 2147.186
383.4885, 2161.865
383.9706, 2176.211
384.4528, 2191.403
384.9349, 2210.230
385.4170, 2230.057
385.8991, 2247.766
386.3812, 2264.000
386.8633, 2274.988
387.3455, 2277.642
387.8276, 2272.472
388.3097, 2260.551
388.7918, 2238.805
389.2739, 2212.878
389.7560, 2187.450
390.2382, 2163.087
390.7203, 2136.709
391.2024, 2106.514
391.6845, 2073.576
392.1666, 2038.710
392.6487, 1999.127
393.1309, 1960.738
393.6130, 1925.067
394.0951, 1892.215
394.5772, 1864.574
395.0593, 1849.389
395.5414, 1835.366
396.0236, 1815.557
396.5057, 1774.232
396.9878, 1744.532
397.4699, 1735.668
397.9520, 1741.616
398.4341, 1743.239
398.9163, 1731.498
399.3984, 1724.860
399.8805, 1731.733
400.3626, 1759.585
400.8447, 1778.251
401.3268, 1782.782
401.8090, 1781.758
402.2911, 1787.412
402.7732, 1801.407
403.2553, 1817.480
403.7374, 1833.409
404.2195, 1849.469
404.7017, 1872.790
405.1838, 1906.925
405.6659, 1938.934
406.1480, 1955.964
406.6301, 1957.936
407.1122, 1957.404
407.5944, 1956.115
408.0765, 1954.119
408.5586, 1951.495
409.0407, 1948.237
409.5228, 1944.561
410.0049, 1942.644
410.4871, 1940.513
410.9692, 1930.896
411.4513, 1911.368
411.9334, 1891.068
412.4155, 1883.679
412.8976, 1884.309
413.3798, 1879.232
413.8619, 1856.103
414.3440, 1827.557
414.8261, 1806.015
415.3082, 1791.721
415.7903, 1780.931
416.2725, 1776.317
416.7546, 1771.804
417.2367, 1760.210
417.7188, 1734.237
418.2009, 1706.581
418.6830, 1684.232
419.1652, 1665.308
419.6473, 1643.768
420.1294, 1615.319
420.6115, 1585.213
421.0937, 1555.296
421.5758, 1524.596
422.0579, 1498.038
422.5400, 1476.338
423.0221, 1459.070
423.5042, 1445.195
423.9864, 1438.818
424.4685, 1431.284
424.9506, 1419.929
425.4327, 1404.465
425.9148, 1390.661
426.3969, 1378.177
426.8791, 1367.735
427.3612, 1360.789
427.8433, 1359.138
428.3254, 1355.235
428.8075, 1347.376
429.2896, 1336.817
429.7718, 1328.042
430.2539, 1321.287
430.7360, 1314.958
431.2181, 1307.015
431.7002, 1297.855
432.1823, 1294.032
432.6645, 1296.740
433.1466, 1301.890
433.6287, 1304.549
434.1108, 1304.911
434.5929, 1303.881
435.0750, 1302.439
435.5572, 1299.560
436.0393, 1291.352
436.5214, 1278.173
437.0035, 1267.586
437.4856, 1267.873
437.9677, 1273.811
438.4499, 1278.029
438.9320, 1277.528
439.4141, 1276.796
439.8962, 1280.727
440.3783, 1287.069
440.8604, 1290.126
441.3426, 1284.094
441.8247, 1276.516
442.3068, 1271.272
442.7889, 1268.809
443.2710, 1268.615
443.7531, 1270.829
444.2353, 1275.138
444.7174, 1281.238
445.1995, 1297.345
445.6816, 1306.071
446.1637, 1297.669
446.6458, 1274.974
447.1280, 1269.119
447.6101, 1295.279
448.0922, 1321.589
448.5743, 1328.830
449.0564, 1306.582
449.5385, 1293.243
450.0207, 1291.367
450.5028, 1297.391
450.9849, 1305.750
451.4670, 1316.922
451.9491, 1327.653
452.4312, 1336.924
452.9134, 1344.710
453.3955, 1350.281
453.8776, 1353.155
454.3597, 1357.082
454.8418, 1367.984
455.3239, 1383.710
455.8061, 1393.718
456.2882, 1392.104
456.7703, 1389.455
457.2524, 1402.471
457.7345, 1428.239
458.2166, 1455.308
458.6988, 1477.865
459.1809, 1497.455
459.6630, 1514.894
460.1451, 1530.216
460.6272, 1545.151
461.1093, 1556.829
461.5915, 1569.900
462.0736, 1589.974
462.5557, 1628.457
463.0378, 1664.907
463.5199, 1692.016
464.0020, 1710.126
464.4842, 1723.715
464.9663, 1732.327
465.4484, 1737.436
465.9305, 1739.952
466.4126, 1741.193
466.8947, 1737.359
467.3769, 1723.457
467.8590, 1706.688
468.3411, 1700.323
468.8232, 1713.706
469.3053, 1718.405
469.7874, 1703.271
470.2696, 1669.907
470.7517, 1649.337
471.2338, 1644.668
471.7159, 1643.345
472.1980, 1633.144
472.6801, 1614.354
473.1623, 1602.486
473.6444, 1601.866
474.1265, 1604.694
474.6086, 1595.651
475.0907, 1576.653
475.5728, 1560.102
476.0550, 1553.007
476.5371, 1552.366
477.0192, 1555.343
477.5013, 1561.929
477.9834, 1566.221
478.4655, 1562.833
478.9477, 1554.651
479.4298, 1545.267
479.9119, 1532.888
480.3940, 1523.030
480.8761, 1521.253
481.3582, 1524.682
481.8404, 1525.079
482.3225, 1514.143
482.8046, 1504.203
483.2867, 1501.448
483.7688, 1508.655
484.2509, 1515.229
484.7331, 1519.159
485.2152, 1522.637
485.6973, 1528.758
486.1794, 1546.408
486.6615, 1550.421
487.1436, 1530.083
487.6258, 1493.085
488.1079, 1477.252
488.5900, 1487.914
489.0721, 1505.407
489.5542, 1521.330
490.0363, 1535.808
490.5185, 1543.831
491.0006, 1544.714
491.4827, 1540.764
491.9648, 1530.430
492.4470, 1515.987
492.9291, 1510.753
493.4112, 1523.321
493.8933, 1544.141
494.3754, 1559.158
494.8575, 1569.098
495.3397, 1577.620
495.8218, 1588.767
496.3039, 1599.131
496.7860, 1603.088
497.2681, 1597.137
497.7502, 1595.722
498.2324, 1612.673
498.7145, 1637.047
499.1966, 1654.293
499.6787, 1646.524
500.1608, 1644.529
500.6429, 1661.122
501.1251, 1695.108
501.6072, 1724.410
502.0893, 1748.638
502.5714, 1767.244
503.0535, 1779.661
503.5356, 1784.073
504.0178, 1786.131
504.4999, 1783.838
504.9820, 1781.005
505.4641, 1784.523
505.9462, 1796.034
506.4283, 1805.071
506.9105, 1807.378
507.3926, 1805.150
507.8747, 1807.958
508.3568, 1816.110
508.8389, 1823.780
509.3210, 1826.591
509.8032, 1825.660
510.2853, 1822.997
510.7674, 1817.855
511.2495, 1815.281
511.7316, 1824.188
512.2137, 1839.331
512.6959, 1849.912
513.1780, 1846.091
513.6601, 1840.765
514.1422, 1843.733
514.6243, 1853.664
515.1064, 1860.894
515.5886, 1853.999
516.0707, 1848.606
516.5528, 1856.269
517.0349, 1891.345
517.5170, 1912.556
517.9991, 1901.548
518.4813, 1880.077
518.9634, 1876.336
519.4455, 1903.204
519.9276, 1925.823
520.4097, 1937.430
520.8918, 1938.896
521.3740, 1935.263
521.8561, 1924.133
522.3382, 1915.842
522.8203, 1919.799
523.3024, 1934.971
523.7845, 1943.645
524.2667, 1944.188
524.7488, 1940.823
525.2309, 1937.853
525.7130, 1935.192
526.1951, 1932.415
526.6772, 1927.495
527.1594, 1924.143
527.6415, 1930.101
528.1236, 1942.721
528.6057, 1950.458
529.0878, 1943.359
529.5699, 1930.971
530.0521, 1920.352
530.5342, 1912.753
531.0163, 1904.967
531.4984, 1897.520
531.9805, 1888.623
532.4626, 1876.361
532.9448, 1857.710
533.4269, 1838.911
533.9090, 1820.011
534.3911, 1801.400
534.8732, 1785.798
535.3553, 1775.325
535.8375, 1763.442
536.3196, 1745.851
536.8017, 1721.709
537.2838, 1705.944
537.7659, 1700.038
538.2480, 1697.141
538.7302, 1691.411
539.2123, 1682.627
539.6944, 1668.667
540.1765, 1646.705
540.6586, 1623.719
541.1407, 1610.133
541.6229, 1603.835
542.1050, 1596.991
542.5871, 1586.694
543.0692, 1573.111
543.5513, 1552.838
544.0334, 1526.061
544.5156, 1507.189
544.9977, 1511.011
545.4798, 1520.905
545.9619, 1523.219
546.4440, 1503.779
546.9261, 1493.971
547.4083, 1507.586
547.8904, 1531.658
548.3725, 1542.301
548.8546, 1531.400
549.3367, 1520.426
549.8188, 1514.012
550.3010, 1511.975
550.7831, 1513.054
551.2652, 1518.420
551.7473, 1522.999
552.2294, 1520.192
552.7115, 1511.466
553.1937, 1513.691
553.6758, 1530.129
554.1579, 1549.499
554.6400, 1557.164
555.1221, 1556.366
555.6042, 1556.196
556.0864, 1559.606
556.5685, 1565.373
557.0506, 1573.259
557.5327, 1582.741
558.0148, 1591.758
558.4969, 1602.677
558.9791, 1610.294
559.4612, 1608.367
559.9433, 1592.646
560.4254, 1586.509
560.9075, 1604.045
561.3896, 1627.488
561.8718, 1641.113
562.3539, 1637.320
562.8360, 1636.524
563.3181, 1640.327
563.8002, 1647.949
564.2823, 1659.430
564.7645, 1676.687
565.2466, 1688.614
565.7287, 1689.119
566.2108, 1680.520
566.6929, 1672.856
567.1750, 1666.096
567.6572, 1662.381
568.1393, 1662.755
568.6214, 1667.667
569.1035, 1679.637
569.5856, 1701.020
570.0677, 1721.764
570.5499, 1733.050
571.0320, 1738.489
571.5141, 1743.900
571.9962, 1753.854
572.4783, 1761.761
572.9604, 1762.135
573.4426, 1757.048
573.9247, 1757.297
574.4068, 1767.672
574.8889, 1781.025
575.3710, 1794.978
575.8531, 1809.461
576.3353, 1824.068
576.8174, 1838.968
577.2995, 1853.530
577.7816, 1867.685
578.2637, 1881.523
578.7458, 1892.995
579.2280, 1901.360
579.7101, 1908.044
580.1922, 1914.768
580.6743, 1921.762
581.1564, 1930.333
581.6385, 1943.512
582.1207, 1957.332
582.6028, 1964.657
583.0849, 1966.457
583.5670, 1970.812
584.0491, 1982.228
584.5313, 1998.258
585.0134, 2018.250
585.4955, 2044.348
585.9776, 2066.774
586.4597, 2075.746
586.9418, 2082.767
587.4240, 2101.056
587.9061, 2139.224
588.3882, 2175.854
588.8703, 2208.965
589.3524, 2238.999
589.8345, 2265.931
590.3167, 2287.920
590.7988, 2314.315
591.2809, 2351.016
591.7630, 2395.502
592.2451, 2430.410
592.7272, 2455.169
593.2094, 2484.281
593.6915, 2532.372
594.1736, 2592.878
594.6557, 2653.040
595.1378, 2708.512
595.6199, 2768.426
596.1021, 2836.825
596.5842, 2914.427
597.0663, 3002.617
597.5485, 3105.713
598.0306, 3214.144
598.5127, 3326.177
598.9948, 3441.236
599.4769, 3558.187
599.9590, 3670.455
600.4412, 3793.694
600.9233, 3930.217
601.4054, 4080.152
601.8875, 4251.433
602.3696, 4445.183
602.8517, 4654.985
603.3339, 4869.123
603.8160, 5089.873
604.2981, 5327.322
604.7802, 5581.300
605.2623, 5849.531
605.7444, 6115.156
606.2266, 6391.215
606.7087, 6700.283
607.1908, 7085.703
607.6729, 7478.131
608.1550, 7809.503
608.6371, 8100.833
609.1193, 8431.944
609.6014, 8866.390
610.0835, 9319.163
610.5656, 9749.300
611.0477, 10155.08
611.5298, 10532.53
612.0120, 10872.61
612.4941, 11190.71
612.9762, 11504.71
613.4583, 11841.05
613.9404, 12077.11
614.4225, 12207.26
614.9047, 12233.46
615.3868, 12155.41
615.8689, 11973.89
616.3510, 11707.78
616.8331, 11357.93
617.3152, 10934.12
617.7974, 10420.66
618.2795, 9837.785
