##NAMES=Inyoite
##RRUFFID=R050157
##IDEAL CHEMISTRY=CaB_3_O_3_(OH)_5_&#183;4H_2_O
##LOCALITY=Sijes, Salta, Argentina
##OWNER=RRUFF
##SOURCE=Jim McGlasson
##DESCRIPTION=Group of colorless tabular crystals
##STATUS=The identification of this mineral has been confirmed by X-ray diffraction and chemical analysis
##URL=rruff.info/R050157
##MEASURED CHEMISTRY=(Ca_0.986_H_0.014_)(B_0.995_Si_0.005_)_3_O_3_(OH)_5_ Â·4H_2_O
130.878, 1.012e+004
131.7140, 10330.00
132.5500, 10370.00
133.3870, 10330.00
134.2230, 10250.00
135.0590, 10150.00
135.8950, 10010.00
136.7300, 9932.000
137.5660, 10040.00
138.4020, 10170.00
139.2370, 10450.00
140.0720, 10530.00
140.9080, 10830.00
141.7430, 11070.00
142.5780, 11210.00
143.4130, 11200.00
144.2480, 11180.00
145.0830, 11440.00
145.9170, 11520.00
146.7520, 11900.00
147.5860, 12450.00
148.4210, 13150.00
149.2550, 14050.00
150.0890, 14790.00
150.9230, 15310.00
151.7570, 15360.00
152.5910, 14790.00
153.4250, 14200.00
154.2590, 13780.00
155.0920, 13490.00
155.9260, 13140.00
156.7590, 13190.00
157.5930, 13440.00
158.4260, 13260.00
159.2590, 13190.00
160.0920, 13330.00
160.9250, 13340.00
161.7580, 13080.00
162.5910, 12770.00
163.4230, 12670.00
164.2560, 12590.00
165.0880, 12460.00
165.9210, 12580.00
166.7530, 12630.00
167.5850, 13130.00
168.4170, 13280.00
169.2490, 13630.00
170.0810, 14200.00
170.9130, 14660.00
171.7440, 14800.00
172.5760, 15200.00
173.4070, 15740.00
174.2390, 16080.00
175.0700, 16200.00
175.9010, 16150.00
176.7320, 16630.00
177.5630, 16980.00
178.3940, 16870.00
179.2250, 17240.00
180.0560, 17730.00
180.8860, 17590.00
181.7170, 17560.00
182.5470, 17400.00
183.3770, 17270.00
184.2080, 16940.00
185.0380, 16640.00
185.8680, 16480.00
186.6980, 16730.00
187.5270, 16720.00
188.3570, 16950.00
189.1870, 16970.00
190.0160, 17257.88
190.8460, 17810.00
191.6750, 17920.00
192.5040, 18160.00
193.3330, 18218.93
194.1620, 18080.00
194.9910, 17930.00
195.8200, 17560.00
196.6490, 16970.00
197.4780, 16360.00
198.3060, 15910.00
199.1350, 15490.00
199.9630, 15220.00
200.7910, 14917.78
201.6190, 14660.00
202.4480, 14500.00
203.2760, 14320.00
204.1030, 14170.00
204.9310, 14130.00
205.7590, 14180.00
206.5860, 14180.00
207.4140, 14000.00
208.2410, 13630.00
209.0690, 13610.00
209.8960, 13600.00
210.7230, 13260.00
211.5500, 13230.00
212.3770, 12900.00
213.2040, 12830.00
214.0300, 12690.00
214.8570, 12640.00
215.6840, 12460.00
216.5100, 12560.00
217.3360, 12420.00
218.1630, 12390.00
218.9890, 12480.00
219.8150, 12340.00
220.6410, 12300.00
221.4670, 12250.00
222.2920, 12370.00
223.1180, 12230.00
223.9430, 12320.00
224.7690, 12270.00
225.5940, 12400.00
226.4200, 12180.00
227.2450, 12270.00
228.0700, 12160.00
228.8950, 12340.00
229.7200, 12170.00
230.5440, 12250.00
231.3690, 12220.00
232.1940, 12260.00
233.0180, 12340.00
233.8430, 12280.00
234.6670, 12330.00
235.4910, 12280.00
236.3150, 12240.00
237.1390, 12370.00
237.9630, 12260.00
238.7870, 12490.00
239.6110, 12340.00
240.4340, 12220.00
241.2580, 12510.00
242.0810, 12480.00
242.9050, 12370.00
243.7280, 12400.00
244.5510, 12500.00
245.3740, 12520.00
246.1970, 12540.00
247.0200, 12550.00
247.8430, 12617.27
248.6660, 12710.00
249.4880, 12760.00
250.3110, 12840.00
251.1330, 12920.00
251.9550, 12970.00
252.7770, 13100.00
253.6000, 13190.00
254.4220, 13220.00
255.2430, 13360.00
256.0650, 13520.00
256.8870, 13580.00
257.7090, 13610.00
258.5300, 13600.00
259.3520, 13660.00
260.1730, 13640.00
260.9940, 13860.00
261.8150, 13590.00
262.6360, 13570.00
263.4570, 13790.00
264.2780, 13740.00
265.0990, 13670.00
265.9200, 13660.00
266.7400, 13590.00
267.5610, 13540.00
268.3810, 13620.00
269.2010, 13530.00
270.0210, 13470.00
270.8420, 13530.00
271.6620, 13460.00
272.4810, 13510.00
273.3010, 13500.00
274.1210, 13570.00
274.9410, 13430.00
275.7600, 13380.00
276.5790, 13360.00
277.3990, 13270.00
278.2180, 13190.00
279.0370, 13230.00
279.8560, 13350.00
280.6750, 13240.00
281.4940, 13290.00
282.3130, 13220.00
283.1310, 13340.00
283.9500, 13360.00
284.7680, 13250.00
285.5870, 13240.00
286.4050, 13210.00
287.2230, 13280.00
288.0410, 13230.00
288.8590, 13290.00
289.6770, 13340.00
290.4950, 13240.00
291.3130, 13170.00
292.1300, 13310.00
292.9480, 13190.00
293.7650, 13220.00
294.5830, 13180.00
295.4000, 13320.00
296.2170, 13120.00
297.0340, 13280.00
297.8510, 13240.00
298.6680, 13190.00
299.4850, 13340.00
300.3010, 13300.00
301.1180, 13500.00
301.9340, 13360.00
302.7510, 13390.00
303.5670, 13580.00
304.3830, 13390.00
305.1990, 13510.00
306.0150, 13640.00
306.8310, 13650.00
307.6470, 13719.01
308.4630, 13670.00
309.2780, 13760.00
310.0940, 13760.00
310.9090, 13780.00
311.7250, 13842.04
312.5400, 13870.00
313.3550, 13930.00
314.1700, 13980.00
314.9850, 14010.00
315.8000, 14140.00
316.6150, 14222.23
317.4290, 14260.00
318.2440, 14500.00
319.0580, 14580.00
319.8730, 14800.00
320.6870, 14770.00
321.5010, 14760.00
322.3150, 14950.00
323.1290, 15210.00
323.9430, 15130.00
324.7570, 15330.00
325.5710, 15450.00
326.3840, 15660.00
327.1980, 15580.00
328.0110, 15530.00
328.8250, 15560.00
329.6380, 15560.00
330.4510, 15490.00
331.2640, 15440.00
332.0770, 15300.00
332.8900, 15340.00
333.7030, 15110.00
334.5150, 14870.00
335.3280, 15090.00
336.1410, 14900.00
336.9530, 14700.00
337.7650, 14770.00
338.5770, 14610.00
339.3900, 14790.00
340.2020, 14580.00
341.0140, 14520.00
341.8250, 14760.00
342.6370, 14520.00
343.4490, 14680.00
344.2600, 14620.00
345.0720, 14830.00
345.8830, 14830.00
346.6940, 14700.00
347.5060, 14970.00
348.3170, 14920.00
349.1280, 15050.00
349.9390, 14960.00
350.7490, 15150.00
351.5600, 15250.00
352.3710, 15330.00
353.1810, 15250.00
353.9920, 15130.00
354.8020, 15330.00
355.6120, 15350.00
356.4220, 15150.00
357.2320, 15360.00
358.0420, 15420.00
358.8520, 15330.00
359.6620, 15200.00
360.4720, 15280.00
361.2810, 15340.00
362.0910, 15380.00
362.9000, 15402.49
363.7090, 15310.00
364.5190, 15370.00
365.3280, 15510.00
366.1370, 15420.00
366.9460, 15570.00
367.7550, 15750.00
368.5630, 15890.00
369.3720, 15930.00
370.1800, 16095.66
370.9890, 16220.00
371.7970, 16250.00
372.6060, 16370.00
373.4140, 16270.00
374.2220, 16340.00
375.0300, 16620.00
375.8380, 16470.00
376.6460, 16600.00
377.4530, 16720.00
378.2610, 16710.00
379.0680, 16768.84
379.8760, 16630.00
380.6830, 16760.00
381.4900, 16900.00
382.2980, 16890.00
383.1050, 17180.00
383.9120, 17330.00
384.7180, 17550.00
385.5250, 17580.00
386.3320, 17770.00
387.1380, 18140.00
387.9450, 18230.00
388.7510, 18020.00
389.5580, 18250.00
390.3640, 18190.00
391.1700, 18260.00
391.9760, 18130.00
392.7820, 18040.00
393.5880, 17960.00
394.3940, 17770.00
395.1990, 17450.00
396.0050, 17280.00
396.8100, 17260.00
397.6160, 17180.00
398.4210, 16820.00
399.2260, 16710.00
400.0310, 16910.00
400.8360, 16840.00
401.6410, 16940.00
402.4460, 16986.91
403.2510, 16940.00
404.0550, 17070.00
404.8600, 17090.00
405.6640, 17160.00
406.4690, 17110.00
407.2730, 17135.04
408.0770, 17250.00
408.8810, 17190.00
409.6850, 17050.00
410.4890, 17220.00
411.2930, 16850.00
412.0960, 16710.00
412.9000, 16770.00
413.7040, 16730.00
414.5070, 16640.00
415.3100, 16430.00
416.1140, 16410.00
416.9170, 16252.53
417.7200, 16210.00
418.5230, 16070.00
419.3260, 16020.00
420.1280, 16060.00
420.9310, 15920.00
421.7340, 15760.00
422.5360, 15880.00
423.3380, 15810.00
424.1410, 15680.00
424.9430, 15500.00
425.7450, 15590.00
426.5470, 15680.00
427.3490, 15560.00
428.1510, 15649.53
428.9530, 15600.00
429.7540, 15610.00
430.5560, 15560.00
431.3570, 15400.00
432.1590, 15540.00
432.9600, 15690.00
433.7610, 15450.00
434.5620, 15570.00
435.3630, 15440.00
436.1640, 15680.00
436.9650, 15550.00
437.7660, 15420.00
438.5670, 15530.00
439.3670, 15488.42
440.1680, 15700.00
440.9680, 15620.00
441.7680, 15710.00
442.5680, 15810.00
443.3680, 15750.00
444.1680, 15670.00
444.9680, 15820.00
445.7680, 15930.00
446.5680, 15840.00
447.3680, 15780.00
448.1670, 15940.00
448.9670, 16130.00
449.7660, 16180.00
450.5650, 16269.46
451.3640, 16140.00
452.1630, 16360.00
452.9620, 16400.00
453.7610, 16490.00
454.5600, 16600.00
455.3590, 16780.00
456.1570, 16910.00
456.9560, 16950.00
457.7540, 17120.00
458.5530, 17550.00
459.3510, 17980.00
460.1490, 18170.00
460.9470, 18570.00
461.7450, 19020.00
462.5430, 19650.00
463.3410, 19790.00
464.1380, 20000.00
464.9360, 20290.00
465.7340, 20240.00
466.5310, 19700.00
467.3280, 19220.00
468.1260, 19070.00
468.9230, 18690.00
469.7200, 18250.00
470.5170, 17870.00
471.3140, 17710.00
472.1100, 17490.00
472.9070, 17320.00
473.7040, 17250.00
474.5000, 17200.00
475.2970, 17010.00
476.0930, 17020.00
476.8890, 16830.00
477.6850, 16830.00
478.4810, 16850.00
479.2770, 16680.00
480.0730, 16690.00
480.8690, 16590.00
481.6650, 16592.16
482.4600, 16750.00
483.2560, 16660.00
484.0510, 16780.00
484.8460, 16880.00
485.6420, 16690.00
486.4370, 16720.00
487.2320, 16850.00
488.0270, 16850.00
488.8220, 16810.00
489.6160, 16856.74
490.4110, 16790.00
491.2060, 16860.00
492.0000, 16830.00
492.7940, 16860.00
493.5890, 16930.00
494.3830, 17010.00
495.1770, 17070.00
495.9710, 17122.69
496.7650, 17330.00
497.5590, 17150.00
498.3530, 17210.00
499.1460, 17090.00
499.9400, 17360.00
500.7330, 17490.00
501.5270, 17420.00
502.3200, 17420.00
503.1130, 17410.00
503.9060, 17520.00
504.6990, 17480.00
505.4920, 17430.00
506.2850, 17490.00
507.0780, 17430.00
507.8710, 17510.00
508.6630, 17420.00
509.4560, 17390.00
510.2480, 17430.00
511.0400, 17480.00
511.8330, 17350.00
512.6250, 17290.00
513.4170, 17410.00
514.2090, 17590.00
515.0000, 17340.00
515.7920, 17400.00
516.5840, 17550.00
517.3750, 17570.00
518.1670, 17450.00
518.9580, 17470.00
519.7500, 17530.00
520.5410, 17458.63
521.3320, 17550.00
522.1230, 17490.00
522.9140, 17530.00
523.7050, 17710.00
524.4960, 17520.00
525.2860, 17390.00
526.0770, 17650.00
526.8670, 17610.00
527.6580, 17550.00
528.4480, 17430.00
529.2380, 17530.00
530.0280, 17431.73
530.8180, 17450.00
531.6080, 17410.00
532.3980, 17510.00
533.1880, 17610.00
533.9770, 17420.00
534.7670, 17290.00
535.5570, 17450.00
536.3460, 17310.00
537.1350, 17310.00
537.9240, 17140.00
538.7140, 17250.00
539.5030, 17310.00
540.2920, 16960.00
541.0800, 17190.00
541.8690, 17010.00
542.6580, 17010.00
543.4460, 17000.00
544.2350, 16920.00
545.0230, 16969.16
545.8120, 16970.00
546.6000, 16970.00
547.3880, 16940.00
548.1760, 16820.00
548.9640, 16760.00
549.7520, 16820.00
550.5400, 16930.00
551.3270, 16740.00
552.1150, 16770.00
552.9020, 16810.00
553.6900, 16700.00
554.4770, 16760.00
555.2640, 16840.00
556.0510, 16840.00
556.8380, 16930.00
557.6250, 16820.00
558.4120, 16760.00
559.1990, 16980.00
559.9860, 16910.00
560.7720, 16750.00
561.5590, 16810.00
562.3450, 17010.00
563.1310, 17150.00
563.9180, 17030.00
564.7040, 17010.00
565.4900, 17080.00
566.2760, 17130.00
567.0620, 17050.00
567.8470, 17160.00
568.6330, 17160.00
569.4190, 17330.00
570.2040, 17230.00
570.9900, 17270.00
571.7750, 17270.00
572.5600, 17460.00
573.3450, 17490.00
574.1310, 17589.21
574.9150, 17540.00
575.7000, 17730.00
576.4850, 17720.00
577.2700, 17690.00
578.0540, 17900.00
578.8390, 17850.00
579.6230, 17880.00
580.4080, 17840.00
581.1920, 18010.00
581.9760, 18040.00
582.7600, 18110.00
583.5440, 18070.00
584.3280, 18190.00
585.1120, 18330.00
585.8960, 18280.00
586.6790, 18180.00
587.4630, 18460.00
588.2460, 18580.00
589.0300, 18510.00
589.8130, 18450.00
590.5960, 18570.00
591.3790, 18710.00
592.1620, 18900.00
592.9450, 18970.00
593.7280, 19069.65
594.5110, 19170.00
595.2930, 19150.00
596.0760, 19290.00
596.8580, 19250.00
597.6410, 19490.00
598.4230, 19870.00
599.2050, 19840.00
599.9870, 19920.00
600.7690, 20440.00
601.5510, 20790.00
602.3330, 21070.00
603.1150, 21310.00
603.8960, 21920.00
604.6780, 22650.00
605.4590, 23180.00
606.2410, 24057.19
607.0220, 24530.00
607.8030, 25820.00
608.5840, 26500.00
609.3650, 27450.00
610.1460, 29090.00
610.9270, 30910.00
611.7080, 32550.00
612.4890, 33380.00
613.2690, 34700.00
614.0500, 35375.97
614.8300, 35670.00
615.6100, 36140.00
616.3910, 35210.00
617.1710, 34670.00
617.9510, 33020.00
618.7310, 30530.00
619.5110, 28680.00
620.2910, 27560.00
621.0700, 26300.00
621.8500, 24700.00
622.6290, 23560.00
623.4090, 22680.00
624.1880, 22290.00
624.9670, 21630.00
625.7460, 21060.00
626.5260, 20550.00
627.3050, 20153.10
628.0830, 19755.45
628.8620, 19540.00
629.6410, 19270.00
630.4200, 19037.51
631.1980, 19140.00
631.9770, 18730.00
632.7550, 18800.00
633.5330, 18810.00
634.3110, 18710.00
635.0890, 18570.00
635.8670, 18440.00
636.6450, 18510.00
637.4230, 18180.00
638.2010, 18470.00
638.9790, 18430.00
639.7560, 18370.00
640.5340, 18160.00
641.3110, 18190.00
642.0880, 18000.00
642.8660, 18080.00
643.6430, 18150.00
644.4200, 18320.00
645.1970, 17970.00
645.9730, 18010.00
646.7500, 18040.00
647.5270, 18480.00
648.3030, 18241.07
649.0800, 18270.00
649.8560, 17970.00
650.6330, 18230.00
651.4090, 18080.00
652.1850, 17950.00
652.9610, 18080.00
653.7370, 18080.00
654.5130, 18120.00
655.2890, 18103.84
656.0640, 17940.00
656.8400, 18020.00
657.6160, 17870.00
658.3910, 17840.00
659.1660, 17970.00
659.9420, 18110.00
660.7170, 18020.00
661.4920, 18010.00
662.2670, 17910.00
663.0420, 17920.00
663.8170, 17915.05
664.5910, 17960.00
665.3660, 17970.00
666.1410, 18000.00
666.9150, 18070.00
667.6890, 17930.00
668.4640, 17860.00
669.2380, 18170.00
670.0120, 17980.00
670.7860, 17990.00
671.5600, 17940.00
672.3340, 18150.00
673.1080, 18100.00
673.8810, 18040.00
674.6550, 17820.00
675.4280, 17980.00
676.2020, 18170.00
676.9750, 17970.00
677.7480, 18020.00
678.5210, 18040.00
679.2940, 17990.00
680.0670, 18160.00
680.8400, 17990.00
681.6130, 18000.00
682.3860, 18050.00
683.1580, 18230.00
683.9310, 18040.00
684.7030, 18040.00
685.4760, 18170.00
686.2480, 18080.00
687.0200, 18190.00
687.7920, 18260.00
688.5640, 18140.00
689.3360, 18010.00
690.1080, 18260.00
690.8800, 18080.00
691.6510, 18170.00
692.4230, 18160.00
693.1940, 18220.00
693.9660, 18256.94
694.7370, 18120.00
695.5080, 18290.00
696.2790, 18260.00
697.0500, 18190.00
697.8210, 18250.00
698.5920, 18300.00
699.3630, 18380.00
700.1340, 18350.00
700.9040, 18280.00
701.6750, 18360.00
702.4450, 18480.00
703.2160, 18410.00
703.9860, 18300.00
704.7560, 18400.00
705.5260, 18530.00
706.2960, 18430.00
707.0660, 18500.00
707.8360, 18590.00
708.6050, 18630.00
709.3750, 18650.00
710.1450, 18704.40
710.9140, 18740.00
711.6830, 18780.00
712.4530, 18670.00
713.2220, 18720.00
713.9910, 18750.00
714.7600, 18870.00
715.5290, 19060.00
716.2980, 18990.00
717.0670, 18950.00
717.8350, 19180.00
718.6040, 19240.00
719.3720, 19510.00
720.1410, 19565.14
720.9090, 19550.00
721.6770, 19750.00
722.4460, 19770.00
723.2140, 19930.00
723.9820, 20290.00
724.7490, 20570.00
725.5170, 20860.00
726.2850, 21020.00
727.0530, 21450.00
727.8200, 21810.00
728.5880, 21940.00
729.3550, 22070.00
730.1220, 22290.00
730.8890, 22540.00
731.6560, 22340.00
732.4240, 21930.00
733.1900, 21450.00
733.9570, 21460.00
734.7240, 21160.00
735.4910, 20570.00
736.2570, 20260.00
737.0240, 20100.00
737.7900, 19850.00
738.5570, 19640.00
739.3230, 19610.00
740.0890, 19350.00
740.8550, 19390.00
741.6210, 19230.00
742.3870, 19150.00
743.1530, 19080.00
743.9180, 18949.62
744.6840, 18900.00
745.4490, 18780.00
746.2150, 18820.00
746.9800, 18840.00
747.7460, 18820.00
748.5110, 18770.00
749.2760, 18830.00
750.0410, 18790.00
750.8060, 18850.00
751.5710, 18810.00
752.3350, 18810.18
753.1000, 18760.00
753.8650, 18760.00
754.6290, 18810.00
755.3940, 18730.00
756.1580, 18670.00
756.9220, 18730.00
757.6860, 18780.00
758.4500, 18670.00
759.2140, 18460.00
759.9780, 18730.00
760.7420, 18610.00
761.5060, 18760.00
762.2690, 18540.00
763.0330, 18720.00
763.7960, 18930.00
764.5600, 18860.00
765.3230, 18931.06
766.0860, 18897.19
766.8490, 18860.00
767.6120, 18770.00
768.3750, 18750.00
769.1380, 18720.00
769.9010, 18820.00
770.6640, 18720.00
771.4260, 18820.00
772.1890, 18550.00
772.9510, 18700.00
773.7140, 18690.00
774.4760, 18510.00
775.2380, 18740.00
776.0000, 18620.00
776.7620, 18680.00
777.5240, 18710.00
778.2860, 18640.00
779.0470, 18610.00
779.8090, 18639.66
780.5710, 18680.00
781.3320, 18690.00
782.0940, 18580.00
782.8550, 18600.00
783.6160, 18500.00
784.3770, 18520.00
785.1380, 18510.00
785.8990, 18620.00
786.6600, 18640.00
787.4210, 18620.00
788.1820, 18540.00
788.9420, 18540.00
789.7030, 18510.00
790.4630, 18470.00
791.2230, 18490.00
791.9840, 18410.00
792.7440, 18480.00
793.5040, 18520.00
794.2640, 18600.00
795.0240, 18520.00
795.7840, 18490.00
796.5440, 18520.00
797.3030, 18740.00
798.0630, 18740.00
798.8220, 18700.00
799.5820, 18650.00
800.3410, 18730.00
801.1000, 18800.00
801.8590, 18830.00
802.6180, 18960.00
803.3770, 19090.00
804.1360, 18970.00
804.8950, 19130.00
805.6540, 19100.00
806.4120, 19350.00
807.1710, 19020.00
807.9300, 19240.00
808.6880, 19160.00
809.4460, 19020.00
810.2040, 19080.00
810.9630, 19090.00
811.7210, 19120.00
812.4790, 18970.00
813.2360, 19060.00
813.9940, 18910.00
814.7520, 18930.00
815.5090, 18900.00
816.2670, 19020.00
817.0240, 18790.00
817.7820, 18770.00
818.5390, 18930.00
819.2960, 19030.00
820.0530, 18937.85
820.8100, 18998.37
821.5670, 18840.00
822.3240, 18860.00
823.0810, 18980.00
823.8380, 18780.00
824.5940, 18750.00
825.3510, 18830.00
826.1070, 18990.00
826.8630, 18750.00
827.6200, 19160.00
828.3760, 18890.00
829.1320, 18910.00
829.8880, 18830.00
830.6440, 18870.00
831.4000, 18790.00
832.1550, 18930.00
832.9110, 18810.00
833.6660, 18910.00
834.4220, 18800.00
835.1770, 19010.00
835.9330, 18800.00
836.6880, 18900.00
837.4430, 18850.00
838.1980, 19010.00
838.9530, 18830.00
839.7080, 18900.00
840.4630, 18740.00
841.2170, 19120.00
841.9720, 18980.00
842.7270, 19060.00
843.4810, 19000.00
844.2350, 19020.00
844.9900, 18870.00
845.7440, 19010.00
846.4980, 18920.00
847.2520, 19100.00
848.0060, 18900.00
848.7600, 19140.00
849.5140, 18950.00
850.2670, 19200.00
851.0210, 19040.00
851.7740, 19020.00
852.5280, 19240.00
853.2810, 19010.00
854.0340, 19000.00
854.7880, 19320.00
855.5410, 19050.00
856.2940, 19240.00
857.0470, 19120.00
857.7990, 19250.00
858.5520, 19300.00
859.3050, 19330.00
860.0570, 19240.00
860.8100, 19280.00
861.5620, 19290.00
862.3150, 19450.00
863.0670, 19220.00
863.8190, 19460.00
864.5710, 19620.00
865.3230, 19300.00
866.0750, 19550.00
866.8270, 19390.00
867.5790, 19500.00
868.3300, 19630.00
869.0820, 19410.00
869.8330, 19510.00
870.5850, 19540.00
871.3360, 19710.00
872.0870, 19631.33
872.8380, 19678.66
873.5890, 19500.00
874.3400, 19590.00
875.0910, 19530.00
875.8420, 19350.00
876.5930, 19490.00
877.3440, 19530.00
878.0940, 19580.00
878.8450, 19620.00
879.5950, 19570.00
880.3450, 19680.00
881.0950, 19620.00
881.8460, 19500.00
882.5960, 19480.00
883.3460, 19640.00
884.0950, 19640.00
884.8450, 19600.00
885.5950, 19682.18
886.3450, 19655.40
887.0940, 19710.00
887.8440, 19630.00
888.5930, 19590.00
889.3420, 19490.00
890.0910, 19557.73
890.8410, 19550.57
891.5900, 19670.00
892.3390, 19670.00
893.0870, 19650.00
893.8360, 19760.00
894.5850, 19820.00
895.3340, 19850.00
896.0820, 19620.00
896.8300, 19980.00
897.5790, 19830.00
898.3270, 20030.00
899.0750, 19740.00
899.8230, 20030.00
900.5710, 20010.00
901.3190, 19910.00
902.0670, 19970.00
902.8150, 20020.00
903.5630, 20080.00
904.3100, 20080.00
905.0580, 20110.00
905.8050, 20050.00
906.5530, 20113.76
907.3000, 20470.00
908.0470, 20210.00
908.7940, 20460.00
909.5410, 20540.00
910.2880, 20410.00
911.0350, 20390.00
911.7820, 20480.00
912.5280, 20580.00
913.2750, 20600.00
914.0220, 20530.00
914.7680, 20631.92
915.5140, 20580.00
916.2610, 20720.00
917.0070, 20670.00
917.7530, 20670.00
918.4990, 20560.00
919.2450, 20630.00
919.9910, 20580.00
920.7360, 20740.00
921.4820, 20660.00
922.2280, 20720.00
922.9730, 20800.00
923.7190, 20970.00
924.4640, 20830.00
925.2090, 21010.00
925.9540, 21100.00
926.6990, 21070.00
927.4440, 20910.00
928.1890, 21120.00
928.9340, 21330.00
929.6790, 21130.00
930.4240, 21210.00
931.1680, 21060.00
931.9130, 21090.00
932.6570, 21150.00
933.4020, 21180.00
934.1460, 21130.00
934.8900, 21170.00
935.6340, 20980.00
936.3780, 21340.00
937.1220, 21210.00
937.8660, 21020.00
938.6100, 21330.00
939.3530, 21270.00
940.0970, 21070.00
940.8400, 21160.00
941.5840, 21250.00
942.3270, 21150.00
