##NAMES=Inyoite
##RRUFFID=R050157
##IDEAL CHEMISTRY=CaB_3_O_3_(OH)_5_&#183;4H_2_O
##LOCALITY=Sijes, Salta, Argentina
##OWNER=RRUFF
##SOURCE=Jim McGlasson
##DESCRIPTION=Group of colorless tabular crystals
##STATUS=The identification of this mineral has been confirmed by X-ray diffraction and chemical analysis
##URL=rruff.info/R050157
##MEASURED CHEMISTRY=(Ca_0.986_H_0.014_)(B_0.995_Si_0.005_)_3_O_3_(OH)_5_ Â·4H_2_O
93.26398, 0.0000000E+00
93.74609, 15.81266
94.22821, 15.11955
94.71033, 15.61244
95.19244, 17.01760
95.67456, 18.34423
96.15668, 19.07210
96.63879, 19.41633
97.12091, 20.09009
97.60303, 21.11296
98.08514, 22.40283
98.56726, 23.89927
99.04938, 25.61401
99.53149, 27.34064
100.0136, 28.81453
100.4957, 30.01541
100.9778, 31.80797
101.4600, 34.27085
101.9421, 37.28291
102.4242, 40.54158
102.9063, 44.13060
103.3884, 47.80484
103.8705, 51.34946
104.3527, 54.71372
104.8348, 58.24359
105.3169, 62.10278
105.7990, 66.19797
106.2811, 70.14018
106.7632, 73.91023
107.2454, 77.51086
107.7275, 80.87320
108.2096, 83.85062
108.6917, 86.84865
109.1738, 89.79621
109.6559, 92.65147
110.1381, 96.09511
110.6202, 100.2841
111.1023, 105.0313
111.5844, 110.1540
112.0665, 115.6740
112.5486, 121.6093
113.0308, 128.1325
113.5129, 135.5499
113.9950, 142.6470
114.4771, 148.6948
114.9592, 154.4050
115.4413, 160.9012
115.9235, 169.0237
116.4056, 177.5318
116.8877, 185.7124
117.3698, 193.3887
117.8519, 201.2619
118.3340, 209.7941
118.8162, 218.7342
119.2983, 227.4451
119.7804, 235.6323
120.2625, 243.6267
120.7446, 251.5984
121.2267, 259.5668
121.7089, 267.6587
122.1910, 276.2236
122.6731, 285.1014
123.1552, 293.5448
123.6373, 300.7861
124.1194, 307.3813
124.6016, 314.1463
125.0837, 321.2250
125.5658, 328.5191
126.0479, 335.9257
126.5300, 343.4435
127.0121, 351.0436
127.4943, 358.3060
127.9764, 365.5664
128.4585, 373.8216
128.9406, 383.4396
129.4227, 394.2329
129.9048, 405.8907
130.3869, 418.4391
130.8691, 431.6452
131.3512, 446.1324
131.8333, 459.9962
132.3154, 469.9190
132.7975, 476.4408
133.2796, 480.5378
133.7618, 482.9525
134.2439, 483.4972
134.7260, 483.2388
135.2081, 483.5915
135.6902, 484.5479
136.1723, 486.1676
136.6545, 488.2911
137.1366, 490.9032
137.6187, 494.8854
138.1008, 500.3410
138.5829, 507.0937
139.0650, 515.0210
139.5472, 524.2641
140.0293, 534.1550
140.5114, 545.0311
140.9935, 557.7550
141.4756, 567.6625
141.9577, 574.3651
142.4399, 578.0967
142.9220, 579.4940
143.4041, 577.6439
143.8862, 575.0240
144.3683, 573.1736
144.8504, 571.7623
145.3326, 571.8615
145.8147, 573.5963
146.2968, 576.9670
146.7789, 581.7348
147.2610, 587.9946
147.7431, 595.5856
148.2253, 604.6041
148.7074, 616.2770
149.1895, 627.6686
149.6716, 638.7845
150.1537, 650.0037
150.6358, 658.0253
151.1180, 661.7004
151.6001, 662.6802
152.0822, 662.6212
152.5643, 659.9075
153.0464, 657.7350
153.5285, 656.6276
154.0107, 656.5795
154.4928, 657.6223
154.9749, 659.6527
155.4570, 662.7794
155.9391, 667.1248
156.4212, 674.9695
156.9034, 682.1133
157.3855, 687.1610
157.8676, 689.5467
158.3497, 691.0850
158.8318, 693.0931
159.3139, 694.4068
159.7961, 693.0565
160.2782, 687.7369
160.7603, 680.2967
161.2424, 671.2781
161.7245, 659.8909
162.2066, 648.9354
162.6888, 639.3615
163.1709, 630.8740
163.6530, 622.8325
164.1351, 613.7669
164.6172, 605.7800
165.0993, 600.2761
165.5815, 597.8766
166.0636, 597.3199
166.5457, 598.1770
167.0278, 600.3765
167.5099, 603.7331
167.9920, 609.4460
168.4742, 615.6563
168.9563, 620.6200
169.4384, 623.1635
169.9205, 625.3630
170.4026, 628.9714
170.8847, 633.6262
171.3669, 637.7052
171.8490, 640.3116
172.3311, 641.7971
172.8132, 642.5218
173.2953, 642.1795
173.7774, 641.5711
174.2596, 641.3700
174.7417, 641.5558
175.2238, 641.9628
175.7059, 642.7698
176.1880, 643.6777
176.6701, 644.1325
177.1523, 643.1076
177.6344, 642.1478
178.1165, 643.6783
178.5986, 647.5849
179.0807, 651.4033
179.5628, 652.1179
180.0450, 651.1716
180.5271, 651.9489
181.0092, 656.4753
181.4913, 663.0453
181.9734, 668.8008
182.4555, 673.7115
182.9377, 678.4820
183.4198, 683.4870
183.9019, 688.8745
184.3840, 695.0559
184.8661, 702.4739
185.3482, 710.7493
185.8304, 719.4949
186.3125, 728.7577
186.7946, 737.7243
187.2767, 745.9753
187.7588, 753.4237
188.2409, 759.0311
188.7231, 761.4476
189.2052, 761.6459
189.6873, 763.3141
190.1694, 766.6713
190.6515, 770.5826
191.1336, 774.4856
191.6158, 778.2479
192.0979, 779.7833
192.5800, 777.4364
193.0621, 771.7714
193.5442, 766.7491
194.0263, 762.7086
194.5085, 758.0813
194.9906, 750.3504
195.4727, 739.5195
195.9548, 727.9735
196.4369, 716.7773
196.9190, 705.8843
197.4012, 694.2363
197.8833, 681.3538
198.3654, 668.7760
198.8475, 659.8790
199.3296, 654.9224
199.8117, 650.1854
200.2939, 643.4578
200.7760, 634.7070
201.2581, 628.3246
201.7402, 624.8441
202.2223, 623.0197
202.7044, 620.6012
203.1866, 617.4069
203.6687, 614.7796
204.1508, 613.9045
204.6329, 615.1104
205.1150, 614.3597
205.5971, 611.2892
206.0793, 606.6644
206.5614, 601.7296
207.0435, 596.4192
207.5256, 591.2512
208.0077, 586.7750
208.4898, 583.3094
208.9720, 578.3792
209.4541, 571.5611
209.9362, 563.6262
210.4183, 556.0120
210.9004, 548.6570
211.3825, 541.9344
211.8647, 536.1199
212.3468, 531.4576
212.8289, 526.4560
213.3110, 520.7407
213.7931, 514.9052
214.2752, 510.4888
214.7574, 507.8476
215.2395, 505.6715
215.7216, 503.3553
216.2037, 500.8290
216.6858, 498.5163
217.1679, 496.4269
217.6500, 494.5471
218.1322, 492.8955
218.6143, 491.5252
219.0964, 490.2474
219.5785, 488.9880
220.0606, 487.6733
220.5427, 486.5838
221.0249, 485.8295
221.5070, 485.2530
221.9891, 484.5248
222.4712, 483.6669
222.9533, 482.5949
223.4354, 481.1606
223.9176, 478.9232
224.3997, 477.5325
224.8818, 477.1463
225.3639, 477.5209
225.8460, 478.2270
226.3281, 479.7130
226.8103, 480.7542
227.2924, 480.7039
227.7745, 479.0367
228.2566, 477.6855
228.7387, 476.6292
229.2208, 475.8986
229.7030, 475.6483
230.1851, 476.1771
230.6672, 476.7084
231.1493, 476.8755
231.6314, 476.4155
232.1135, 476.3716
232.5957, 477.0913
233.0778, 478.0807
233.5599, 478.1566
234.0420, 476.6962
234.5241, 475.3222
235.0062, 474.6427
235.4884, 474.7405
235.9705, 475.3434
236.4526, 476.7972
236.9347, 478.6000
237.4168, 479.6948
237.8989, 479.7299
238.3811, 479.6007
238.8632, 479.6166
239.3453, 479.8013
239.8274, 480.0633
240.3095, 480.4893
240.7916, 480.9499
241.2738, 481.1180
241.7559, 480.5360
242.2380, 480.4307
242.7201, 481.4673
243.2022, 484.3329
243.6843, 485.9691
244.1665, 485.7891
244.6486, 484.7497
245.1307, 484.5157
245.6128, 485.4606
246.0949, 486.5870
246.5770, 487.5396
247.0592, 488.1776
247.5413, 489.2477
248.0234, 491.0589
248.5055, 493.0768
248.9876, 494.4188
249.4697, 494.8206
249.9519, 495.0221
250.4340, 495.0802
250.9161, 494.8062
251.3982, 495.4599
251.8803, 497.4984
252.3624, 500.0957
252.8446, 502.0548
253.3267, 503.1035
253.8088, 504.1002
254.2909, 505.3391
254.7730, 506.9086
255.2551, 508.0396
255.7373, 508.4902
256.2194, 508.7496
256.7015, 509.4748
257.1836, 511.0380
257.6657, 512.2091
258.1478, 512.4528
258.6299, 511.6537
259.1121, 511.7874
259.5942, 513.2121
260.0763, 515.1418
260.5584, 516.8623
261.0405, 518.4580
261.5226, 519.5598
262.0048, 519.9477
262.4869, 519.6387
262.9690, 519.5214
263.4511, 519.4908
263.9332, 519.8253
264.4153, 520.9747
264.8975, 523.4280
265.3796, 525.2698
265.8617, 526.0922
266.3438, 525.9735
266.8259, 525.6094
267.3080, 524.7438
267.7902, 524.1230
268.2723, 524.6241
268.7544, 526.7356
269.2365, 528.0764
269.7186, 528.0202
270.2007, 526.8874
270.6829, 526.4994
271.1650, 527.0328
271.6471, 527.8754
272.1292, 528.5244
272.6113, 528.8932
273.0934, 529.5759
273.5756, 530.8533
274.0577, 532.3914
274.5398, 532.9539
275.0219, 532.3054
275.5040, 531.3618
275.9861, 530.5461
276.4683, 529.7948
276.9504, 529.6936
277.4325, 530.3846
277.9146, 531.6725
278.3967, 533.2576
278.8788, 535.2648
279.3610, 536.9421
279.8431, 537.9579
280.3252, 538.3249
280.8073, 537.5901
281.2894, 535.3314
281.7715, 532.6147
282.2537, 531.5263
282.7358, 532.1771
283.2179, 533.4155
283.7000, 535.2633
284.1821, 537.6268
284.6642, 537.9940
285.1464, 535.9001
285.6285, 532.8128
286.1106, 530.8577
286.5927, 530.0283
287.0748, 529.6207
287.5569, 529.3021
288.0391, 529.1124
288.5212, 529.5494
289.0033, 530.7571
289.4854, 531.9470
289.9675, 531.8703
290.4496, 530.6551
290.9318, 529.8270
291.4139, 530.3274
291.8960, 531.6172
292.3781, 531.7260
292.8602, 530.5643
293.3423, 529.1757
293.8245, 528.5598
294.3066, 528.6161
294.7887, 528.9014
295.2708, 529.4630
295.7529, 530.0529
296.2350, 530.0637
296.7172, 529.4959
297.1993, 528.8061
297.6814, 528.2068
298.1635, 527.7634
298.6456, 527.7083
299.1277, 528.2355
299.6099, 529.0180
300.0920, 529.5119
300.5741, 529.7711
301.0562, 530.0930
301.5383, 530.8732
302.0204, 531.8498
302.5026, 532.4906
302.9847, 532.6299
303.4668, 532.5686
303.9489, 532.4083
304.4310, 532.2642
304.9131, 532.5590
305.3953, 533.9701
305.8774, 535.8022
306.3595, 537.0383
306.8416, 537.3850
307.3237, 537.6961
307.8058, 538.9410
308.2880, 540.7181
308.7701, 542.1288
309.2522, 542.3779
309.7343, 542.2731
310.2164, 542.5762
310.6985, 543.3874
311.1807, 544.3137
311.6628, 544.8287
312.1449, 545.3502
312.6270, 546.4885
313.1091, 549.5037
313.5912, 552.4566
314.0734, 553.9845
314.5555, 554.0455
315.0376, 553.9651
315.5197, 553.9275
316.0018, 554.2945
316.4839, 555.4383
316.9661, 558.3406
317.4482, 561.2320
317.9303, 563.2135
318.4124, 564.4138
318.8945, 565.7778
319.3766, 567.5146
319.8588, 569.6136
320.3409, 572.0922
320.8230, 575.7579
321.3051, 578.7611
321.7872, 580.0731
322.2693, 580.2477
322.7515, 580.9818
323.2336, 583.4657
323.7157, 586.0147
324.1978, 587.7426
324.6799, 587.9001
325.1620, 588.4818
325.6442, 589.9919
326.1263, 592.0645
326.6084, 594.0497
327.0905, 596.3191
327.5726, 598.0980
328.0547, 598.9503
328.5369, 598.3508
329.0190, 598.5156
329.5011, 600.4695
329.9832, 602.7697
330.4653, 603.7362
330.9474, 601.5344
331.4296, 600.2957
331.9117, 601.1279
332.3938, 604.1616
332.8759, 606.5841
333.3580, 608.3740
333.8401, 609.6141
334.3223, 610.2342
334.8044, 609.5939
335.2865, 609.6455
335.7686, 610.7562
336.2507, 612.7706
336.7328, 614.7751
337.2150, 616.6690
337.6971, 618.7334
338.1792, 621.2529
338.6613, 624.3860
339.1434, 627.0872
339.6255, 628.9395
340.1077, 630.5977
340.5898, 633.9659
341.0719, 639.4733
341.5540, 644.6476
342.0361, 647.7609
342.5182, 648.6913
343.0003, 651.6872
343.4825, 657.2621
343.9646, 663.6740
344.4467, 667.9643
344.9288, 670.0646
345.4109, 673.2220
345.8930, 679.0875
346.3752, 686.9242
346.8573, 693.4648
347.3394, 698.7076
347.8215, 703.1594
348.3036, 707.0152
348.7857, 710.4137
349.2679, 714.1498
349.7500, 718.7789
350.2321, 723.4645
350.7142, 726.6125
351.1963, 728.2762
351.6784, 729.0926
352.1606, 729.1580
352.6427, 728.7350
353.1248, 728.4634
353.6069, 728.6448
354.0890, 728.4435
354.5711, 727.2012
355.0533, 724.9017
355.5354, 721.4280
356.0175, 715.5154
356.4996, 709.0582
356.9817, 704.2038
357.4638, 701.2834
357.9460, 698.5031
358.4281, 694.3545
358.9102, 689.5709
359.3923, 685.2874
359.8744, 682.3762
360.3565, 679.7313
360.8387, 676.6007
361.3208, 673.0143
361.8029, 669.7383
362.2850, 666.9012
362.7671, 664.6340
363.2492, 663.0652
363.7314, 662.7170
364.2135, 662.4731
364.6956, 661.6994
365.1777, 660.7084
365.6598, 660.4860
366.1419, 661.3030
366.6241, 662.9327
367.1062, 665.4860
367.5883, 669.9130
368.0704, 673.1774
368.5525, 674.0256
369.0346, 673.7156
369.5168, 674.2102
369.9989, 675.7170
370.4810, 677.8920
370.9631, 680.9713
371.4452, 685.1720
371.9273, 688.5071
372.4095, 690.5565
372.8916, 692.0461
373.3737, 693.6096
373.8558, 695.4016
374.3379, 696.9806
374.8200, 698.4338
375.3022, 699.6650
375.7843, 700.0635
376.2664, 699.4759
376.7485, 698.4106
377.2306, 697.0932
377.7127, 695.4725
378.1949, 693.9001
378.6770, 692.3274
379.1591, 690.9477
379.6412, 690.1417
380.1233, 689.9232
380.6054, 690.1763
381.0876, 690.9831
381.5697, 692.2675
382.0518, 693.4637
382.5339, 694.5085
383.0160, 695.7646
383.4981, 697.7602
383.9803, 700.3715
384.4624, 702.8513
384.9445, 704.9090
385.4266, 706.7601
385.9087, 709.0599
386.3908, 711.7009
386.8730, 713.7828
387.3551, 714.6340
387.8372, 714.5005
388.3193, 713.8925
388.8014, 713.0056
389.2835, 711.3190
389.7657, 707.8414
390.2478, 703.1524
390.7299, 698.6784
391.2120, 695.7692
391.6941, 692.9460
392.1762, 688.8883
392.6584, 683.4948
393.1405, 677.9830
393.6226, 672.9227
394.1047, 668.1137
394.5868, 663.4095
395.0689, 658.3796
395.5511, 653.8231
396.0332, 650.3192
396.5153, 647.6642
396.9974, 644.7560
397.4795, 640.1250
397.9616, 636.0197
398.4438, 633.7810
398.9259, 634.9096
399.4080, 635.4980
399.8901, 634.6889
400.3722, 633.2037
400.8543, 632.3654
401.3365, 632.0162
401.8186, 632.5218
402.3007, 634.3240
402.7828, 637.6849
403.2649, 639.9692
403.7470, 640.5729
404.2292, 640.7468
404.7113, 641.5950
405.1934, 643.2811
405.6755, 645.1833
406.1576, 647.2794
406.6397, 649.4880
407.1219, 651.6341
407.6040, 653.8549
408.0861, 655.4465
408.5682, 655.5544
409.0503, 654.2081
409.5324, 654.0715
410.0146, 655.5278
410.4967, 657.4024
410.9788, 657.9060
411.4609, 657.1699
411.9430, 656.5037
412.4251, 656.6041
412.9073, 657.0478
413.3894, 656.9095
413.8715, 656.1959
414.3536, 655.1522
414.8357, 653.9846
415.3178, 652.6191
415.8000, 650.8908
416.2821, 648.6134
416.7642, 646.2288
417.2463, 644.1964
417.7284, 642.3879
418.2105, 640.5185
418.6927, 638.6651
419.1748, 636.5294
419.6569, 633.6844
420.1390, 629.9706
420.6211, 626.4924
421.1032, 623.6796
421.5854, 621.3436
422.0675, 619.2728
422.5496, 617.5067
423.0317, 615.8818
423.5138, 614.3290
423.9959, 612.8684
424.4781, 611.5349
424.9602, 610.4124
425.4423, 609.3808
425.9244, 608.4099
426.4065, 607.7761
426.8886, 606.6369
427.3708, 604.3759
427.8529, 601.8486
428.3350, 600.4223
428.8171, 600.5792
429.2992, 600.9542
429.7813, 601.2520
430.2635, 601.4713
430.7456, 601.7122
431.2277, 602.1289
431.7098, 602.2253
432.1919, 601.2654
432.6740, 599.0904
433.1562, 598.0349
433.6383, 598.7181
434.1204, 600.1763
434.6025, 600.5107
435.0846, 599.7372
435.5667, 598.5225
436.0489, 596.6991
436.5310, 594.6819
437.0131, 593.9150
437.4952, 594.4752
437.9773, 595.4655
438.4594, 596.0681
438.9415, 596.4625
439.4236, 597.0744
439.9058, 598.3917
440.3879, 599.5494
440.8700, 599.3402
441.3521, 598.1751
441.8342, 597.4906
442.3163, 598.1783
442.7985, 599.5891
443.2806, 601.4903
443.7627, 604.0897
444.2448, 605.9754
444.7269, 605.5568
445.2090, 604.4161
445.6912, 604.4286
446.1733, 607.8370
446.6554, 610.5813
447.1375, 610.8482
447.6196, 608.9360
448.1017, 608.5212
448.5839, 610.8869
449.0660, 613.9384
449.5481, 616.7089
450.0302, 619.0648
450.5123, 621.4786
450.9944, 623.9753
451.4766, 626.5046
451.9587, 628.9438
452.4408, 631.2525
452.9229, 633.6555
453.4050, 636.2939
453.8871, 639.1201
454.3693, 641.7183
454.8514, 643.9297
455.3335, 646.6651
455.8156, 651.1443
456.2977, 657.1160
456.7798, 662.0989
457.2620, 665.4033
457.7441, 668.6329
458.2262, 674.6523
458.7083, 682.8970
459.1904, 691.1121
459.6725, 697.3883
460.1547, 703.2377
460.6368, 711.0866
461.1189, 720.9464
461.6010, 730.7713
462.0831, 739.2209
462.5652, 746.8240
463.0474, 754.1360
463.5295, 761.9250
464.0116, 768.5526
464.4937, 773.1765
464.9758, 776.0464
465.4579, 777.4880
465.9401, 777.9763
466.4222, 776.7756
466.9043, 773.2008
467.3864, 766.9319
467.8685, 760.5371
468.3506, 754.3036
468.8328, 748.0294
469.3149, 741.5804
469.7970, 735.0031
470.2791, 728.1105
470.7612, 720.4734
471.2433, 712.6415
471.7255, 706.0792
472.2076, 700.8135
472.6897, 696.7487
473.1718, 694.2744
473.6539, 693.4002
474.1360, 690.6495
474.6182, 685.4953
475.1003, 680.3966
475.5824, 678.6417
476.0645, 679.7412
476.5466, 679.0623
477.0287, 675.0231
477.5109, 669.9438
477.9930, 667.7502
478.4751, 667.9678
478.9572, 668.3297
479.4393, 667.4510
479.9214, 666.0275
480.4036, 664.9668
480.8857, 664.3127
481.3678, 663.6407
481.8499, 662.2731
482.3320, 660.8690
482.8141, 660.2152
483.2963, 661.1578
483.7784, 662.0334
484.2605, 662.1565
484.7426, 661.7218
485.2247, 661.2063
485.7068, 660.7223
486.1890, 660.1910
486.6711, 659.5319
487.1532, 658.6716
487.6353, 658.1028
488.1174, 658.2097
488.5995, 658.3072
489.0817, 657.7025
489.5638, 655.6988
490.0459, 654.7643
490.5280, 655.3372
491.0101, 656.9851
491.4922, 658.9457
491.9744, 661.4623
492.4565, 663.0248
492.9386, 662.4247
493.4207, 660.1270
493.9028, 659.4297
494.3849, 660.4317
494.8671, 661.9799
495.3492, 663.0968
495.8313, 663.9153
496.3134, 664.8607
496.7955, 666.1121
497.2776, 667.3241
497.7598, 667.7053
498.2419, 667.7135
498.7240, 668.4747
499.2061, 671.2951
499.6882, 674.5272
500.1703, 677.0732
500.6525, 678.8866
501.1346, 680.3236
501.6167, 680.8689
502.0988, 681.5080
502.5809, 683.0142
503.0630, 686.5023
503.5452, 689.3531
504.0273, 690.8407
504.5094, 691.5524
504.9915, 692.4394
505.4736, 693.5199
505.9557, 694.7540
506.4379, 696.3222
506.9200, 698.1588
507.4021, 699.0049
507.8842, 698.5071
508.3663, 697.8448
508.8484, 698.1412
509.3306, 699.4389
509.8127, 699.2192
510.2948, 696.9318
510.7769, 694.2029
511.2590, 693.5750
511.7411, 694.7302
512.2233, 695.8994
512.7054, 696.5582
513.1875, 696.7985
513.6696, 696.5227
514.1517, 695.8464
514.6339, 695.3937
515.1160, 695.9481
515.5981, 696.6993
516.0802, 696.6205
516.5623, 695.2841
517.0444, 694.7523
517.5266, 697.6935
518.0087, 701.2576
518.4908, 702.3346
518.9729, 697.0235
519.4550, 692.7159
519.9371, 691.1330
520.4193, 691.8536
520.9014, 692.9665
521.3835, 695.1826
521.8656, 696.8816
522.3477, 697.3084
522.8298, 696.2438
523.3120, 695.7872
523.7941, 696.2207
524.2762, 696.7028
524.7583, 696.1953
525.2404, 694.6368
525.7225, 693.8831
526.2047, 694.4323
526.6868, 695.4668
527.1689, 695.3139
527.6510, 694.1892
528.1331, 693.4721
528.6152, 694.2578
529.0974, 695.6326
529.5795, 696.3863
530.0616, 696.5272
530.5437, 696.2628
531.0258, 695.4959
531.5079, 694.5240
531.9901, 693.6960
532.4722, 693.3044
532.9543, 692.4352
533.4364, 690.3988
533.9185, 687.7855
534.4006, 685.3535
534.8828, 683.6591
535.3649, 681.7182
535.8470, 679.2067
536.3291, 676.2341
536.8112, 673.6281
537.2933, 671.6899
537.7755, 669.6406
538.2576, 667.0803
538.7397, 663.8856
539.2218, 660.9310
539.7039, 658.2596
540.1860, 655.7898
540.6682, 653.4731
541.1503, 651.3226
541.6324, 649.4883
542.1145, 648.2263
542.5966, 646.8987
543.0787, 644.1544
543.5609, 640.3851
544.0430, 637.0400
544.5251, 634.7043
545.0072, 633.2507
545.4893, 632.9352
545.9714, 633.6620
546.4536, 634.2439
546.9357, 634.2222
547.4178, 633.6902
547.8999, 632.5804
548.3820, 630.3707
548.8641, 628.7680
549.3463, 628.5628
549.8284, 628.9850
550.3105, 629.0027
550.7926, 628.0277
551.2747, 627.5009
551.7568, 627.7396
552.2390, 628.5759
552.7211, 629.3871
553.2032, 630.2966
553.6853, 630.8160
554.1674, 630.5154
554.6495, 629.4808
555.1317, 629.0106
555.6138, 629.1801
556.0959, 629.4557
556.5780, 628.9808
557.0601, 628.2112
557.5422, 628.5194
558.0244, 630.4625
558.5065, 632.7704
558.9886, 634.3893
559.4707, 635.4071
559.9528, 635.9602
560.4349, 635.4932
560.9171, 635.1377
561.3992, 635.4968
561.8813, 636.5204
562.3634, 637.7697
562.8455, 639.2904
563.3276, 640.8686
563.8098, 642.4209
564.2919, 643.9250
564.7740, 645.4094
565.2561, 646.9821
565.7382, 648.4114
566.2203, 649.4279
566.7025, 649.8932
567.1846, 650.5467
567.6667, 651.5744
568.1488, 652.7316
568.6309, 653.3623
569.1130, 653.5089
569.5952, 653.9455
570.0773, 655.2852
570.5594, 657.0106
571.0415, 658.0257
571.5236, 658.4343
572.0057, 659.0865
572.4879, 660.8085
572.9700, 662.9601
573.4521, 664.8607
573.9342, 666.3828
574.4163, 667.9686
574.8984, 669.9182
575.3806, 671.9837
575.8627, 673.9361
576.3448, 675.3818
576.8269, 677.0984
577.3090, 679.6254
577.7911, 682.4125
578.2733, 684.1619
578.7554, 684.1934
579.2375, 684.4670
579.7196, 685.6018
580.2017, 687.5146
580.6838, 689.3692
581.1660, 691.1313
581.6481, 692.9973
582.1302, 695.2534
582.6123, 697.7598
583.0944, 699.7518
583.5765, 701.1211
584.0587, 702.5547
584.5408, 704.9882
585.0229, 707.8975
585.5050, 710.3700
585.9871, 711.9926
586.4692, 713.3539
586.9513, 714.4041
587.4334, 715.4970
587.9155, 717.3455
588.3976, 720.4321
588.8798, 724.0455
589.3619, 728.4987
