##NAMES=Iodargyrite
##RRUFFID=R080017
##IDEAL CHEMISTRY=Ag^1+^I^1-^
##LOCALITY=Broken Hill, New South Wales, Australia
##OWNER=RRUFF
##SOURCE=Michael Scott
##DESCRIPTION=Lemon-yellow prismatic hexagonal crystals
##STATUS=The identification of this mineral has been confirmed by single-crystal X-ray diffraction.
##URL=rruff.info/R080017
103.5307, 462.0151
104.0128, 479.5194
104.4949, 496.2859
104.9771, 512.3861
105.4592, 527.8966
105.9413, 543.1293
106.4234, 556.2801
106.9055, 571.4126
107.3876, 590.4559
107.8698, 618.4871
108.3519, 642.8577
108.8340, 663.6403
109.3161, 680.9133
109.7982, 694.0718
110.2803, 701.1285
110.7624, 705.4630
111.2446, 708.8742
111.7267, 713.4431
112.2088, 714.9200
112.6909, 712.1130
113.1730, 705.1590
113.6551, 697.4282
114.1373, 688.9464
114.6194, 680.1344
115.1015, 671.2278
115.5836, 664.3065
116.0657, 655.5243
116.5478, 642.5446
117.0300, 624.6509
117.5121, 608.4318
117.9942, 597.4263
118.4763, 589.1736
118.9584, 580.5382
119.4405, 567.1761
119.9227, 555.0756
120.4048, 549.1400
120.8869, 551.2631
121.3690, 553.1810
121.8511, 548.5809
122.3332, 540.0245
122.8154, 532.9028
123.2975, 531.6249
123.7796, 532.4758
124.2617, 531.3094
124.7438, 526.5162
125.2259, 521.6621
125.7081, 520.7672
126.1902, 522.7983
126.6723, 522.1108
127.1544, 517.1830
127.6365, 510.9011
128.1186, 504.6753
128.6008, 498.8078
129.0829, 493.2194
129.5650, 487.7110
130.0471, 482.2952
130.5292, 477.3654
131.0113, 474.1396
131.4935, 471.9675
131.9756, 467.9056
132.4577, 460.2291
132.9398, 450.4925
133.4219, 443.8725
133.9040, 440.6859
134.3862, 437.6532
134.8683, 430.8050
135.3504, 420.2051
135.8325, 410.1731
136.3146, 402.0350
136.7967, 395.6836
137.2789, 390.0538
137.7610, 385.3382
138.2431, 380.7574
138.7252, 375.0558
139.2073, 367.9876
139.6894, 360.9034
140.1716, 354.1010
140.6537, 347.4620
141.1358, 341.7307
141.6179, 337.2042
142.1000, 333.1631
142.5821, 328.2630
143.0643, 322.0867
143.5464, 315.8630
144.0285, 309.9174
144.5106, 304.0807
144.9927, 299.1377
145.4748, 295.7397
145.9570, 293.1490
146.4391, 289.3483
146.9212, 283.5810
147.4033, 277.4900
147.8854, 271.7134
148.3675, 266.0455
148.8497, 261.0698
149.3318, 257.2567
149.8139, 254.3273
150.2960, 250.8537
150.7781, 245.5876
151.2602, 240.6992
151.7424, 237.4085
152.2245, 238.4794
152.7066, 237.9771
153.1887, 234.5023
153.6708, 228.4117
154.1529, 223.8171
154.6351, 221.3557
155.1172, 220.1853
155.5993, 219.7278
156.0814, 221.7917
156.5635, 222.6425
157.0456, 221.0663
157.5278, 217.0702
158.0099, 213.2823
158.4920, 210.3499
158.9741, 207.7629
159.4562, 205.0553
159.9383, 201.5017
160.4205, 198.3718
160.9026, 196.5090
161.3847, 196.0568
161.8668, 194.8603
162.3489, 191.4547
162.8310, 187.1212
163.3132, 183.3510
163.7953, 180.7667
164.2774, 178.7718
164.7595, 177.3690
165.2416, 176.7032
165.7237, 175.4600
166.2059, 171.9596
166.6880, 167.6055
167.1701, 164.5346
167.6522, 164.8515
168.1343, 166.0142
168.6164, 166.2015
169.0986, 165.0745
169.5807, 163.6250
170.0628, 162.5624
170.5449, 161.6562
171.0270, 160.4616
171.5091, 158.2983
171.9913, 155.9693
172.4734, 154.3547
172.9555, 153.7473
173.4376, 153.2558
173.9197, 152.1234
174.4018, 150.4959
174.8840, 148.7702
175.3661, 147.1113
175.8482, 145.5214
176.3303, 143.9026
176.8124, 142.0520
177.2945, 140.6166
177.7767, 140.6268
178.2588, 141.7854
178.7409, 142.8659
179.2230, 143.5629
179.7051, 143.5956
180.1872, 142.2453
180.6694, 138.9530
181.1515, 135.0312
181.6336, 131.9121
182.1157, 129.6308
182.5978, 128.4557
183.0799, 129.3694
183.5621, 131.5884
184.0442, 132.9436
184.5263, 132.8979
185.0084, 131.9867
185.4905, 130.6157
185.9726, 128.8393
186.4547, 127.8508
186.9369, 129.5338
187.4190, 133.0867
187.9011, 134.9064
188.3832, 133.6613
188.8653, 130.8371
189.3474, 129.8003
189.8296, 130.5932
190.3117, 131.7585
190.7938, 132.0697
191.2759, 131.6319
191.7580, 131.2353
192.2401, 130.9713
192.7223, 130.9060
193.2044, 131.4745
193.6865, 132.7960
194.1686, 133.8551
194.6507, 133.5081
195.1328, 131.8248
195.6150, 130.2279
196.0971, 129.0098
196.5792, 128.1387
197.0613, 127.4714
197.5434, 126.9849
198.0255, 126.8031
198.5077, 127.2415
198.9898, 128.3370
199.4719, 129.0950
199.9540, 129.0776
200.4361, 128.5152
200.9182, 128.8482
201.4004, 130.3285
201.8825, 131.9349
202.3646, 132.4502
202.8467, 131.6937
203.3288, 131.4079
203.8109, 132.3767
204.2931, 134.3183
204.7752, 134.4976
205.2573, 132.3342
205.7394, 129.8017
206.2215, 129.2792
206.7036, 131.2949
207.1858, 132.4987
207.6679, 131.7198
208.1500, 129.1499
208.6321, 127.9386
209.1142, 128.5863
209.5963, 129.6519
210.0785, 129.4015
210.5606, 127.3567
211.0427, 125.8396
211.5248, 125.7004
212.0069, 126.8844
212.4890, 126.6576
212.9712, 124.2331
213.4533, 121.6079
213.9354, 121.2963
214.4175, 124.2218
214.8996, 126.6430
215.3817, 127.5862
215.8639, 127.0413
216.3460, 126.6670
216.8281, 126.5402
217.3102, 126.4789
217.7923, 126.2177
218.2744, 125.5493
218.7566, 125.2363
219.2387, 125.6570
219.7208, 126.8480
220.2029, 127.2392
220.6850, 126.4959
221.1671, 125.3445
221.6493, 124.5698
222.1314, 124.2288
222.6135, 124.1368
223.0956, 124.3804
223.5777, 124.9939
224.0598, 125.2246
224.5420, 125.2585
225.0241, 124.7125
225.5062, 122.8782
225.9883, 118.6035
226.4704, 115.5537
226.9525, 115.0092
227.4347, 117.1118
227.9168, 117.8889
228.3989, 116.6452
228.8810, 114.8202
229.3631, 113.9134
229.8452, 114.2127
230.3274, 114.8694
230.8095, 115.8811
231.2916, 117.2793
231.7737, 118.1642
232.2558, 118.4475
232.7379, 118.3124
233.2201, 117.8741
233.7022, 116.8767
234.1843, 116.0906
234.6664, 115.7654
235.1485, 115.9133
235.6306, 115.8105
236.1128, 115.5156
236.5949, 114.9067
237.0770, 113.7407
237.5591, 111.3771
238.0412, 109.7236
238.5233, 109.3568
239.0055, 110.2762
239.4876, 110.7602
239.9697, 110.5707
240.4518, 110.2106
240.9339, 110.1793
241.4160, 110.8667
241.8982, 111.0926
242.3803, 110.4399
242.8624, 108.9464
243.3445, 108.1058
243.8266, 108.2579
244.3087, 108.6679
244.7909, 108.7190
245.2730, 108.2013
245.7551, 107.7114
246.2372, 107.1229
246.7193, 106.5056
247.2014, 107.0755
247.6836, 110.1253
248.1657, 112.7910
248.6478, 112.5129
249.1299, 107.1520
249.6120, 103.5930
250.0941, 103.4212
250.5762, 106.0731
251.0584, 106.8431
251.5405, 104.6006
252.0226, 101.9846
252.5047, 100.9102
252.9868, 102.0697
253.4689, 103.1740
253.9511, 104.2433
254.4332, 105.1273
254.9153, 104.7014
255.3974, 101.8866
255.8795, 99.43187
256.3617, 99.40820
256.8438, 103.3089
257.3259, 105.6380
257.8080, 105.3609
258.2901, 103.2485
258.7722, 102.4476
259.2544, 103.7766
259.7365, 105.0347
260.2186, 104.7939
260.7007, 102.2214
261.1828, 100.7284
261.6649, 100.9164
262.1471, 102.1632
262.6292, 102.4596
263.1113, 101.1867
263.5934, 100.2132
264.0755, 100.7588
264.5576, 103.5880
265.0398, 105.1934
265.5219, 105.3533
266.0040, 104.3505
266.4861, 102.4802
266.9682, 99.07155
267.4503, 96.51186
267.9325, 96.22453
268.4146, 98.83015
268.8967, 100.8228
269.3788, 102.1418
269.8609, 102.9089
270.3430, 103.2904
270.8252, 103.2540
271.3073, 102.9371
271.7894, 102.2830
272.2715, 101.2291
272.7536, 100.4945
273.2357, 100.0986
273.7179, 100.0016
274.2000, 100.2802
274.6821, 101.0781
275.1642, 101.5814
275.6463, 101.3443
276.1284, 100.3639
276.6106, 99.87329
277.0927, 99.93396
277.5748, 100.3503
278.0569, 101.1618
278.5390, 102.5162
279.0211, 102.9951
279.5032, 101.6784
279.9854, 98.89687
280.4675, 97.59639
280.9496, 97.95624
281.4317, 99.19606
281.9138, 100.9435
282.3959, 103.2574
282.8781, 104.4516
283.3602, 103.7180
283.8423, 101.5792
284.3244, 100.2976
284.8065, 99.93792
285.2886, 99.96604
285.7708, 99.86720
286.2529, 99.66405
286.7350, 99.85007
287.2171, 100.6918
287.6992, 101.8758
288.1813, 102.4540
288.6635, 102.4011
289.1456, 102.2624
289.6277, 102.6136
290.1098, 103.3351
290.5919, 103.6224
291.0740, 103.3378
291.5562, 102.5790
292.0383, 101.1582
292.5204, 99.12078
293.0025, 97.68923
293.4846, 98.40208
293.9667, 100.4825
294.4489, 101.0166
294.9310, 99.34142
295.4131, 96.86836
295.8952, 95.43346
296.3773, 94.98295
296.8594, 95.10622
297.3416, 95.98589
297.8237, 97.23763
298.3058, 97.82273
298.7879, 97.54774
299.2700, 97.24619
299.7521, 98.07849
300.2343, 99.74472
300.7164, 101.2459
301.1985, 102.1530
301.6806, 102.5975
302.1627, 102.6566
302.6448, 102.3075
303.1270, 101.9485
303.6091, 102.4403
304.0912, 103.1827
304.5733, 102.9496
305.0554, 99.78252
305.5375, 96.17707
306.0197, 95.33798
306.5018, 97.12737
306.9839, 99.09801
307.4660, 99.31236
307.9481, 98.59006
308.4302, 98.08788
308.9124, 98.25230
309.3945, 98.68227
309.8766, 99.22047
310.3587, 99.81300
310.8408, 100.1453
311.3229, 99.28748
311.8051, 98.40069
312.2872, 98.90793
312.7693, 102.3469
313.2514, 105.1972
313.7335, 104.7725
314.2156, 102.0029
314.6978, 99.61674
315.1799, 98.97960
315.6620, 99.13023
316.1441, 99.48396
316.6262, 100.0542
317.1083, 100.5137
317.5905, 100.6786
318.0726, 100.6428
318.5547, 100.5714
319.0368, 100.5819
319.5189, 100.5210
320.0010, 100.2111
320.4832, 99.52524
320.9653, 99.17339
321.4474, 99.65894
321.9295, 100.4843
322.4116, 101.0674
322.8937, 101.1480
323.3759, 101.1011
323.8580, 100.9146
324.3401, 100.5745
324.8222, 100.5561
325.3043, 101.4388
325.7864, 102.3952
326.2686, 102.7874
326.7507, 101.9803
327.2328, 101.2425
327.7149, 100.6249
328.1970, 100.1583
328.6791, 100.0942
329.1613, 100.7432
329.6434, 101.5468
330.1255, 102.2353
330.6076, 102.9177
331.0897, 103.3276
331.5718, 103.4555
332.0540, 103.3060
332.5361, 102.8556
333.0182, 101.7372
333.5003, 100.7927
333.9824, 100.3608
334.4645, 100.5215
334.9467, 101.0018
335.4288, 102.1092
335.9109, 103.3152
336.3930, 103.6849
336.8751, 102.9290
337.3572, 102.0259
337.8394, 101.2999
338.3215, 100.7804
338.8036, 99.79880
339.2857, 98.06380
339.7678, 96.37091
340.2499, 95.64064
340.7321, 96.02702
341.2142, 96.51105
341.6963, 96.78943
342.1784, 96.99336
342.6605, 97.87675
343.1426, 99.56651
343.6248, 101.3017
344.1069, 102.4166
344.5890, 102.9246
345.0711, 103.4963
345.5532, 104.3318
346.0353, 105.1243
346.5175, 105.0831
346.9996, 104.2193
347.4817, 103.2985
347.9638, 102.4514
348.4459, 101.8736
348.9280, 102.6463
349.4102, 105.1556
349.8923, 107.6988
350.3744, 107.6170
350.8565, 105.5208
351.3386, 103.7765
351.8207, 104.1309
352.3029, 105.3420
352.7850, 105.1521
353.2671, 103.5141
353.7492, 101.8435
354.2313, 101.2567
354.7134, 101.4948
355.1956, 102.1387
355.6777, 103.4114
356.1598, 104.6810
356.6419, 105.3333
357.1240, 105.4440
357.6061, 105.4165
358.0883, 105.4933
358.5704, 105.5541
359.0525, 105.4565
359.5346, 105.0817
360.0167, 104.7221
360.4988, 104.3962
360.9810, 104.2068
361.4631, 104.3879
361.9452, 106.0624
362.4273, 107.3624
362.9094, 106.9337
363.3915, 104.1772
363.8737, 101.8173
364.3558, 100.8625
364.8379, 100.7572
365.3200, 100.8619
365.8021, 101.2728
366.2842, 101.6419
366.7664, 101.5711
367.2485, 101.0470
367.7306, 101.4789
368.2127, 104.7668
368.6948, 107.9850
369.1769, 109.2160
369.6591, 105.6306
370.1412, 103.4838
370.6233, 103.8972
371.1054, 106.0867
371.5875, 107.0398
372.0696, 105.8709
372.5518, 104.5315
373.0339, 103.8475
373.5160, 104.1156
373.9981, 104.1825
374.4802, 103.9718
374.9623, 103.6208
375.4445, 103.3881
375.9266, 103.3814
376.4087, 103.1484
376.8908, 102.2973
377.3729, 100.8778
377.8550, 100.8369
378.3372, 102.5561
378.8193, 104.6378
379.3014, 105.5371
379.7835, 105.1914
380.2656, 105.3420
380.7477, 106.6438
381.2299, 108.3452
381.7120, 108.2795
382.1941, 106.4117
382.6762, 104.4694
383.1583, 103.8595
383.6404, 104.1901
384.1226, 103.7415
384.6047, 102.1052
385.0868, 100.5612
385.5689, 101.1010
386.0510, 103.2327
386.5331, 105.1067
387.0153, 105.8548
387.4974, 105.8411
387.9795, 105.4336
388.4616, 104.6438
388.9437, 103.8734
389.4258, 103.2453
389.9080, 102.8794
390.3901, 102.9916
390.8722, 103.9757
391.3543, 105.0647
391.8364, 105.8071
392.3185, 106.2084
392.8007, 106.3153
393.2828, 106.0499
393.7649, 105.5606
394.2470, 104.7999
394.7291, 103.4212
395.2112, 102.7272
395.6934, 103.5837
396.1755, 105.3212
396.6576, 106.9384
397.1397, 108.9589
397.6218, 110.0971
398.1039, 109.5105
398.5861, 106.9734
399.0682, 105.1452
399.5503, 104.4880
400.0324, 104.5143
400.5145, 104.8811
400.9966, 106.1334
401.4788, 106.9505
401.9609, 107.0001
402.4430, 106.5271
402.9251, 106.5259
403.4072, 107.3718
403.8893, 108.1197
404.3714, 108.2107
404.8535, 107.3110
405.3357, 107.2754
405.8178, 108.5296
406.2999, 110.0805
406.7820, 110.3916
407.2641, 109.2584
407.7462, 108.0291
408.2284, 106.9059
408.7105, 106.0168
409.1926, 106.0411
409.6747, 107.0583
410.1568, 108.4021
410.6389, 109.6910
411.1211, 110.8707
411.6032, 111.7318
412.0853, 112.3098
412.5674, 112.4120
413.0495, 111.5117
413.5316, 109.7725
414.0138, 108.0593
414.4959, 106.4819
414.9780, 105.3395
415.4601, 105.3938
415.9422, 106.7589
416.4243, 108.0700
416.9065, 108.0277
417.3886, 107.2587
417.8707, 106.6858
418.3528, 106.4801
418.8349, 106.7115
419.3170, 107.5946
419.7992, 109.0266
420.2813, 110.4678
420.7634, 112.5405
421.2455, 113.9955
421.7276, 113.7081
422.2097, 110.3742
422.6919, 108.0345
423.1740, 108.8417
423.6561, 110.9876
424.1382, 111.7162
424.6203, 107.9420
425.1024, 105.3729
425.5846, 106.2647
426.0667, 110.9183
426.5488, 113.3578
427.0309, 112.3381
427.5130, 110.2232
427.9951, 108.5113
428.4773, 106.9310
428.9594, 106.4546
429.4415, 107.7080
429.9236, 109.8420
430.4057, 110.5936
430.8878, 109.5773
431.3700, 108.3561
431.8521, 107.7295
432.3342, 107.6984
432.8163, 106.6860
433.2984, 104.3634
433.7805, 102.2035
434.2627, 102.1331
434.7448, 103.9596
435.2269, 105.8146
435.7090, 107.4505
436.1911, 108.6257
436.6732, 108.6057
437.1554, 107.5132
437.6375, 106.3308
438.1196, 105.5074
438.6017, 105.0771
439.0838, 105.1930
439.5659, 105.9469
440.0481, 106.8335
440.5302, 107.4567
441.0123, 107.9216
441.4944, 108.4047
441.9765, 108.9129
442.4586, 109.5168
442.9408, 110.4904
443.4229, 111.7299
443.9050, 112.4713
444.3871, 111.9445
444.8692, 111.1066
445.3513, 110.5896
445.8335, 110.6808
446.3156, 110.7634
446.7977, 111.0136
447.2798, 111.1432
447.7619, 110.6221
448.2440, 107.9896
448.7262, 106.2792
449.2083, 106.5680
449.6904, 109.0040
450.1725, 110.3727
450.6546, 110.1904
451.1367, 109.5291
451.6189, 109.2457
452.1010, 109.5852
452.5831, 109.3882
453.0652, 108.3153
453.5473, 106.8755
454.0294, 106.1660
454.5116, 106.2209
454.9937, 106.7458
455.4758, 107.8928
455.9579, 109.4736
456.4400, 110.4135
456.9221, 110.6866
457.4043, 110.6294
457.8864, 110.7127
458.3685, 110.7474
458.8506, 110.0260
459.3327, 107.8875
459.8148, 105.7487
460.2970, 105.4977
460.7791, 106.7123
461.2612, 108.0087
461.7433, 108.6513
462.2254, 109.0170
462.7076, 109.4282
463.1897, 109.9307
463.6718, 110.3315
464.1539, 110.6656
464.6360, 110.7906
465.1181, 110.5554
465.6003, 109.0067
466.0824, 108.0873
466.5645, 108.8785
467.0466, 110.8408
467.5287, 111.8997
468.0108, 110.9245
468.4930, 109.8155
468.9751, 109.2860
469.4572, 109.5667
469.9393, 109.5201
470.4214, 108.7221
470.9035, 107.9844
471.3857, 108.3698
471.8678, 110.4351
472.3499, 111.8380
472.8320, 112.0748
473.3141, 111.4288
473.7962, 110.7621
474.2784, 110.0345
474.7605, 109.5813
475.2426, 109.7946
475.7247, 110.5302
476.2068, 110.7683
476.6889, 110.3812
477.1711, 110.0970
477.6532, 111.0717
478.1353, 112.8289
478.6174, 114.0533
479.0995, 114.2408
479.5816, 113.7967
480.0638, 112.7714
480.5459, 111.3843
481.0280, 110.4787
481.5101, 110.6475
481.9922, 111.4128
482.4743, 112.6163
482.9565, 114.4089
483.4386, 115.6367
483.9207, 115.9045
484.4028, 115.3331
484.8849, 114.0366
485.3670, 110.1576
485.8492, 107.6712
486.3313, 108.2956
486.8134, 111.2782
487.2955, 112.6936
487.7776, 111.4977
488.2597, 109.9574
488.7419, 108.8502
489.2240, 108.1556
489.7061, 108.1207
490.1882, 109.0258
490.6703, 110.1790
491.1524, 110.8842
491.6346, 111.1361
492.1167, 110.8679
492.5988, 109.7849
493.0809, 108.4395
493.5630, 108.3089
494.0451, 109.3665
494.5273, 110.8319
495.0094, 112.4658
495.4915, 114.1460
495.9736, 115.8179
496.4557, 117.5111
496.9378, 118.4897
497.4200, 117.5157
497.9021, 115.5302
498.3842, 113.9870
498.8663, 113.4089
499.3484, 113.2360
499.8305, 113.1894
500.3127, 113.2755
500.7948, 113.5080
501.2769, 114.2358
501.7590, 114.8210
502.2411, 114.8717
502.7232, 114.2648
503.2054, 113.8426
503.6875, 113.7444
504.1696, 113.8587
504.6517, 114.1184
505.1338, 114.6357
505.6159, 115.1114
506.0981, 115.6028
506.5802, 116.0049
507.0623, 116.0271
507.5444, 115.5522
508.0265, 115.0856
508.5086, 114.9642
508.9908, 115.0682
509.4729, 114.1860
509.9550, 112.1922
510.4371, 110.2249
510.9192, 109.0243
511.4013, 108.6550
511.8835, 109.7420
512.3655, 112.8690
512.8477, 115.8797
513.3298, 115.7780
513.8119, 113.5837
514.2940, 111.7196
514.7761, 111.4047
515.2582, 111.7547
515.7404, 112.2017
516.2225, 112.7358
516.7046, 113.3722
517.1867, 114.8214
517.6688, 115.8875
518.1509, 115.5506
518.6331, 112.6724
519.1152, 110.8471
519.5973, 111.7221
520.0794, 113.5538
520.5615, 114.0826
521.0436, 111.9560
521.5258, 110.6264
522.0079, 110.7019
522.4900, 111.9963
522.9721, 113.9802
523.4542, 117.2487
523.9363, 119.3562
524.4185, 118.3213
524.9006, 114.1684
525.3827, 111.8344
525.8648, 111.4661
526.3469, 112.0875
526.8290, 113.0530
527.3112, 114.1959
527.7933, 114.8623
528.2754, 114.8114
528.7575, 114.3968
529.2396, 113.7488
529.7217, 113.0400
530.2039, 112.7837
530.6860, 114.1718
531.1681, 115.4047
531.6502, 114.5818
532.1323, 111.6917
532.6144, 110.0086
533.0966, 112.2365
533.5787, 115.2084
534.0608, 116.6818
534.5429, 115.2535
535.0250, 114.0206
535.5071, 113.2583
535.9893, 112.8203
536.4714, 112.5071
536.9535, 112.2069
537.4356, 112.2934
537.9177, 113.1095
538.3998, 114.4239
538.8820, 114.5766
539.3641, 113.3214
539.8462, 112.0462
540.3283, 111.8185
540.8104, 112.4404
541.2925, 112.1637
541.7747, 110.7114
542.2568, 109.7442
542.7389, 111.9147
543.2210, 115.9185
543.7031, 118.7052
544.1852, 119.3529
544.6674, 118.6017
545.1495, 115.6705
545.6316, 111.7674
546.1137, 109.9122
546.5958, 114.1369
547.0779, 118.5007
547.5601, 119.3541
548.0422, 116.4087
548.5243, 114.3486
549.0064, 114.8337
549.4885, 116.0366
549.9706, 116.8545
550.4528, 117.2575
550.9349, 117.2569
551.4170, 116.5845
551.8991, 115.7171
552.3812, 115.4453
552.8633, 115.9825
553.3455, 116.2156
553.8276, 115.7672
554.3097, 114.8919
554.7918, 114.2802
555.2739, 113.9417
555.7560, 114.1022
556.2382, 115.6282
556.7203, 117.6214
557.2024, 117.6282
557.6845, 115.4779
558.1666, 113.6173
558.6487, 114.9435
559.1309, 117.4558
559.6130, 118.3957
560.0951, 116.0600
560.5772, 114.0867
561.0593, 114.8852
561.5414, 117.1212
562.0236, 118.4253
562.5057, 117.2368
562.9878, 116.0945
563.4699, 115.5909
563.9520, 115.7098
564.4341, 116.4192
564.9163, 118.7945
565.3984, 120.2280
565.8805, 118.8018
566.3626, 113.5547
566.8447, 111.7141
567.3268, 114.0158
567.8090, 117.5763
568.2911, 119.2542
568.7732, 119.2158
569.2553, 118.7084
569.7374, 117.7693
570.2195, 116.9257
570.7017, 117.1240
571.1838, 118.0637
571.6659, 118.7865
572.1480, 118.4854
572.6301, 118.0225
573.1122, 118.3777
573.5944, 119.4162
574.0765, 119.8680
574.5586, 118.4072
575.0407, 116.7552
575.5228, 115.9095
576.0049, 116.0902
576.4871, 116.8424
576.9692, 119.0631
577.4513, 121.2462
577.9334, 121.9349
578.4155, 120.5018
578.8976, 118.9613
579.3798, 117.3404
579.8619, 115.9055
580.3440, 115.4774
580.8261, 116.1277
581.3082, 116.8968
581.7903, 117.6716
582.2725, 118.1850
582.7546, 117.1331
583.2367, 114.6672
583.7188, 112.7905
584.2009, 113.3391
584.6830, 115.2234
585.1652, 117.2560
585.6473, 119.3986
586.1294, 120.9240
586.6115, 121.2508
587.0936, 120.8286
587.5757, 120.1208
588.0579, 118.2308
588.5400, 117.2608
589.0221, 118.5265
589.5042, 120.8985
589.9863, 121.7131
590.4684, 119.8972
590.9506, 118.2517
591.4327, 117.5493
591.9148, 117.6705
592.3969, 117.5329
592.8790, 117.0760
593.3611, 116.6248
593.8433, 116.3633
594.3254, 116.2865
594.8075, 116.4546
595.2896, 116.9140
595.7717, 117.1874
596.2538, 116.1450
596.7360, 114.7152
597.2181, 114.8406
597.7002, 117.9560
598.1823, 120.6683
598.6644, 120.1654
599.1465, 117.7996
599.6287, 115.8843
600.1108, 114.9533
600.5929, 114.8210
601.0750, 116.0393
601.5571, 118.3249
