##NAMES=Iodargyrite
##RRUFFID=R061056
##IDEAL CHEMISTRY=Ag^1+^I^1-^
##LOCALITY=Capitana, Chile
##OWNER=RRUFF
##SOURCE=Bob Jenkins
##DESCRIPTION=Transparent colorless prismatic crystals
##STATUS=The identification of this mineral has been confirmed by single-crystal X-ray diffraction.
##URL=rruff.info/R061056
8.813672e+001, 4.966971e+002
8.861884e+001, 5.053801e+002
8.910095e+001, 5.125591e+002
8.958307e+001, 5.188053e+002
9.006519e+001, 5.254186e+002
9.054730e+001, 5.325019e+002
9.102942e+001, 5.407654e+002
9.151154e+001, 5.495742e+002
9.199365e+001, 5.595429e+002
9.247577e+001, 5.703086e+002
9.295789e+001, 5.789618e+002
9.344000e+001, 5.812207e+002
9.392212e+001, 5.790393e+002
9.440424e+001, 5.797554e+002
9.488635e+001, 5.862867e+002
9.536847e+001, 5.967243e+002
9.585059e+001, 6.072464e+002
9.633270e+001, 6.179086e+002
9.681482e+001, 6.278695e+002
9.729694e+001, 6.357228e+002
9.777905e+001, 6.415574e+002
9.826117e+001, 6.478544e+002
9.874329e+001, 6.545433e+002
9.922540e+001, 6.619021e+002
9.970752e+001, 6.735044e+002
1.001896e+002, 6.904481e+002
1.006718e+002, 7.086710e+002
1.011539e+002, 7.229968e+002
1.016360e+002, 7.330206e+002
1.021181e+002, 7.411761e+002
1.026002e+002, 7.474885e+002
1.030823e+002, 7.512770e+002
1.035645e+002, 7.575659e+002
1.040466e+002, 7.669979e+002
1.045287e+002, 7.785109e+002
1.050108e+002, 7.903495e+002
1.054929e+002, 8.018699e+002
1.059750e+002, 8.146091e+002
1.064572e+002, 8.296229e+002
1.069393e+002, 8.513810e+002
1.074214e+002, 8.673040e+002
1.079035e+002, 8.739850e+002
1.083856e+002, 8.745306e+002
1.088677e+002, 8.794870e+002
1.093499e+002, 8.943410e+002
1.098320e+002, 9.096552e+002
1.103141e+002, 9.214008e+002
1.107962e+002, 9.252081e+002
1.112783e+002, 9.305980e+002
1.117604e+002, 9.401289e+002
1.122426e+002, 9.529653e+002
1.127247e+002, 9.625792e+002
1.132068e+002, 9.649833e+002
1.136889e+002, 9.654615e+002
1.141710e+002, 9.676191e+002
1.146531e+002, 9.741671e+002
1.151353e+002, 9.806107e+002
1.156174e+002, 9.854540e+002
1.160995e+002, 9.886392e+002
1.165816e+002, 9.921127e+002
1.170637e+002, 9.975870e+002
1.175458e+002, 1.003358e+003
1.180280e+002, 1.007638e+003
1.185101e+002, 1.010526e+003
1.189922e+002, 1.011030e+003
1.194743e+002, 1.008180e+003
1.199564e+002, 1.001701e+003
1.204385e+002, 9.934044e+002
1.209207e+002, 9.813514e+002
1.214028e+002, 9.683239e+002
1.218849e+002, 9.592831e+002
1.223670e+002, 9.599414e+002
1.228491e+002, 9.642477e+002
1.233312e+002, 9.655637e+002
1.238134e+002, 9.624625e+002
1.242955e+002, 9.589699e+002
1.247776e+002, 9.598489e+002
1.252597e+002, 9.638226e+002
1.257418e+002, 9.666202e+002
1.262239e+002, 9.647354e+002
1.267061e+002, 9.599432e+002
1.271882e+002, 9.559969e+002
1.276703e+002, 9.540435e+002
1.281524e+002, 9.518380e+002
1.286345e+002, 9.451027e+002
1.291166e+002, 9.342624e+002
1.295988e+002, 9.239081e+002
1.300809e+002, 9.161525e+002
1.305630e+002, 9.113753e+002
1.310451e+002, 9.120289e+002
1.315272e+002, 9.215165e+002
1.320093e+002, 9.343073e+002
1.324915e+002, 9.368309e+002
1.329736e+002, 9.283132e+002
1.334557e+002, 9.158860e+002
1.339378e+002, 9.051193e+002
1.344199e+002, 8.959546e+002
1.349020e+002, 8.879079e+002
1.353842e+002, 8.807860e+002
1.358663e+002, 8.747526e+002
1.363484e+002, 8.702238e+002
1.368305e+002, 8.674896e+002
1.373126e+002, 8.654074e+002
1.377947e+002, 8.624673e+002
1.382769e+002, 8.582235e+002
1.387590e+002, 8.556024e+002
1.392411e+002, 8.574040e+002
1.397232e+002, 8.637855e+002
1.402053e+002, 8.598969e+002
1.406874e+002, 8.415592e+002
1.411696e+002, 8.183226e+002
1.416517e+002, 8.038091e+002
1.421338e+002, 8.019980e+002
1.426159e+002, 7.998050e+002
1.430980e+002, 7.931301e+002
1.435801e+002, 7.809458e+002
1.440623e+002, 7.695178e+002
1.445444e+002, 7.586107e+002
1.450265e+002, 7.486361e+002
1.455086e+002, 7.406901e+002
1.459907e+002, 7.364243e+002
1.464728e+002, 7.319432e+002
1.469550e+002, 7.257582e+002
1.474371e+002, 7.166418e+002
1.479192e+002, 7.087853e+002
1.484013e+002, 7.033995e+002
1.488834e+002, 6.991732e+002
1.493655e+002, 6.930470e+002
1.498477e+002, 6.804542e+002
1.503298e+002, 6.699186e+002
1.508119e+002, 6.651287e+002
1.512940e+002, 6.754901e+002
1.517761e+002, 6.777140e+002
1.522583e+002, 6.663629e+002
1.527404e+002, 6.458188e+002
1.532225e+002, 6.282925e+002
1.537046e+002, 6.138304e+002
1.541867e+002, 6.033801e+002
1.546688e+002, 5.976030e+002
1.551510e+002, 6.027894e+002
1.556331e+002, 6.048997e+002
1.561152e+002, 5.999083e+002
1.565973e+002, 5.895618e+002
1.570794e+002, 5.808138e+002
1.575615e+002, 5.791475e+002
1.580437e+002, 5.770490e+002
1.585258e+002, 5.697993e+002
1.590079e+002, 5.476333e+002
1.594900e+002, 5.293242e+002
1.599721e+002, 5.216188e+002
1.604542e+002, 5.230648e+002
1.609364e+002, 5.252478e+002
1.614185e+002, 5.272523e+002
1.619006e+002, 5.277377e+002
1.623827e+002, 5.256259e+002
1.628648e+002, 5.179525e+002
1.633469e+002, 5.099496e+002
1.638291e+002, 5.052401e+002
1.643112e+002, 5.033123e+002
1.647933e+002, 4.984361e+002
1.652754e+002, 4.832152e+002
1.657575e+002, 4.651906e+002
1.662396e+002, 4.522875e+002
1.667218e+002, 4.514974e+002
1.672039e+002, 4.535658e+002
1.676860e+002, 4.532826e+002
1.681681e+002, 4.505903e+002
1.686502e+002, 4.463477e+002
1.691323e+002, 4.409922e+002
1.696145e+002, 4.344790e+002
1.700966e+002, 4.267657e+002
1.705787e+002, 4.144328e+002
1.710608e+002, 4.029400e+002
1.715429e+002, 3.980844e+002
1.720250e+002, 4.001952e+002
1.725072e+002, 4.033836e+002
1.729893e+002, 4.031235e+002
1.734714e+002, 4.007532e+002
1.739535e+002, 3.987449e+002
1.744356e+002, 3.995982e+002
1.749177e+002, 4.007725e+002
1.753999e+002, 3.987761e+002
1.758820e+002, 3.932094e+002
1.763641e+002, 3.870067e+002
1.768462e+002, 3.822551e+002
1.773283e+002, 3.788231e+002
1.778104e+002, 3.763676e+002
1.782926e+002, 3.753810e+002
1.787747e+002, 3.751084e+002
1.792568e+002, 3.746488e+002
1.797389e+002, 3.740923e+002
1.802210e+002, 3.724908e+002
1.807031e+002, 3.687599e+002
1.811853e+002, 3.630932e+002
1.816674e+002, 3.562179e+002
1.821495e+002, 3.456447e+002
1.826316e+002, 3.342840e+002
1.831137e+002, 3.307906e+002
1.835958e+002, 3.369792e+002
1.840780e+002, 3.453224e+002
1.845601e+002, 3.450089e+002
1.850422e+002, 3.372818e+002
1.855243e+002, 3.303382e+002
1.860064e+002, 3.297733e+002
1.864885e+002, 3.337358e+002
1.869707e+002, 3.356864e+002
1.874528e+002, 3.351281e+002
1.879349e+002, 3.328434e+002
1.884170e+002, 3.293036e+002
1.888991e+002, 3.246120e+002
1.893812e+002, 3.205872e+002
1.898634e+002, 3.182637e+002
1.903455e+002, 3.174863e+002
1.908276e+002, 3.173574e+002
1.913097e+002, 3.179994e+002
1.917918e+002, 3.188729e+002
1.922739e+002, 3.187549e+002
1.927561e+002, 3.175826e+002
1.932382e+002, 3.169050e+002
1.937203e+002, 3.184886e+002
1.942024e+002, 3.220112e+002
1.946845e+002, 3.228687e+002
1.951666e+002, 3.202341e+002
1.956488e+002, 3.155820e+002
1.961309e+002, 3.110432e+002
1.966130e+002, 3.063417e+002
1.970951e+002, 3.036632e+002
1.975772e+002, 3.054131e+002
1.980593e+002, 3.116712e+002
1.985415e+002, 3.155069e+002
1.990236e+002, 3.161384e+002
1.995057e+002, 3.144996e+002
1.999878e+002, 3.114767e+002
2.004699e+002, 3.062142e+002
2.009520e+002, 3.038265e+002
2.014342e+002, 3.098128e+002
2.019163e+002, 3.254652e+002
2.023984e+002, 3.330093e+002
2.028805e+002, 3.285085e+002
2.033626e+002, 3.177132e+002
2.038447e+002, 3.165323e+002
2.043269e+002, 3.279355e+002
2.048090e+002, 3.382765e+002
2.052911e+002, 3.380449e+002
2.057732e+002, 3.250060e+002
2.062553e+002, 3.168759e+002
2.067374e+002, 3.160223e+002
2.072196e+002, 3.198775e+002
2.077017e+002, 3.216801e+002
2.081838e+002, 3.212678e+002
2.086659e+002, 3.192452e+002
2.091480e+002, 3.153419e+002
2.096301e+002, 3.086963e+002
2.101123e+002, 3.040688e+002
2.105944e+002, 3.021077e+002
2.110765e+002, 3.020922e+002
2.115586e+002, 3.019799e+002
2.120407e+002, 3.016187e+002
2.125228e+002, 3.015059e+002
2.130050e+002, 3.016458e+002
2.134871e+002, 3.015735e+002
2.139692e+002, 3.039132e+002
2.144513e+002, 3.106917e+002
2.149334e+002, 3.192651e+002
2.154155e+002, 3.210533e+002
2.158977e+002, 3.128766e+002
2.163798e+002, 3.041314e+002
2.168619e+002, 3.002076e+002
2.173440e+002, 3.029302e+002
2.178261e+002, 3.048785e+002
2.183082e+002, 3.060042e+002
2.187904e+002, 3.060574e+002
2.192725e+002, 3.037228e+002
2.197546e+002, 2.972258e+002
2.202367e+002, 2.915521e+002
2.207188e+002, 2.898268e+002
2.212009e+002, 2.943568e+002
2.216831e+002, 2.962895e+002
2.221652e+002, 2.936891e+002
2.226473e+002, 2.888033e+002
2.231294e+002, 2.889708e+002
2.236115e+002, 2.979364e+002
2.240936e+002, 3.057811e+002
2.245758e+002, 3.069243e+002
2.250579e+002, 2.966854e+002
2.255400e+002, 2.915383e+002
2.260221e+002, 2.934238e+002
2.265042e+002, 3.001425e+002
2.269863e+002, 3.060694e+002
2.274685e+002, 3.127739e+002
2.279506e+002, 3.163426e+002
2.284327e+002, 3.140010e+002
2.289148e+002, 3.005814e+002
2.293969e+002, 2.933282e+002
2.298790e+002, 2.940168e+002
2.303612e+002, 3.004376e+002
2.308433e+002, 3.078914e+002
2.313254e+002, 3.203634e+002
2.318075e+002, 3.279133e+002
2.322896e+002, 3.250633e+002
2.327717e+002, 3.055131e+002
2.332539e+002, 2.909550e+002
2.337360e+002, 2.822302e+002
2.342181e+002, 2.784058e+002
2.347002e+002, 2.777480e+002
2.351823e+002, 2.816455e+002
2.356644e+002, 2.866476e+002
2.361466e+002, 2.918678e+002
2.366287e+002, 2.985477e+002
2.371108e+002, 3.017376e+002
2.375929e+002, 2.991785e+002
2.380750e+002, 2.940295e+002
2.385571e+002, 2.931636e+002
2.390393e+002, 2.995758e+002
2.395214e+002, 3.055696e+002
2.400035e+002, 3.086360e+002
2.404856e+002, 3.088771e+002
2.409677e+002, 3.054702e+002
2.414498e+002, 2.950598e+002
2.419320e+002, 2.827635e+002
2.424141e+002, 2.782513e+002
2.428962e+002, 2.870354e+002
2.433783e+002, 2.946169e+002
2.438604e+002, 2.954510e+002
2.443425e+002, 2.868745e+002
2.448247e+002, 2.813790e+002
2.453068e+002, 2.794538e+002
2.457889e+002, 2.803028e+002
2.462710e+002, 2.832990e+002
2.467531e+002, 2.914900e+002
2.472352e+002, 2.964747e+002
2.477174e+002, 2.940424e+002
2.481995e+002, 2.813344e+002
2.486816e+002, 2.762484e+002
2.491637e+002, 2.829080e+002
2.496458e+002, 2.940864e+002
2.501279e+002, 2.989755e+002
2.506101e+002, 2.932805e+002
2.510922e+002, 2.895350e+002
2.515743e+002, 2.923779e+002
2.520564e+002, 3.033459e+002
2.525385e+002, 3.088380e+002
2.530206e+002, 3.065147e+002
2.535028e+002, 3.008438e+002
2.539849e+002, 2.972231e+002
2.544670e+002, 2.961578e+002
2.549491e+002, 2.960421e+002
2.554312e+002, 2.973246e+002
2.559133e+002, 3.002677e+002
2.563955e+002, 2.990701e+002
2.568776e+002, 2.905626e+002
2.573597e+002, 2.814456e+002
2.578418e+002, 2.796511e+002
2.583239e+002, 2.893693e+002
2.588061e+002, 2.964608e+002
2.592882e+002, 2.981378e+002
2.597703e+002, 2.944279e+002
2.602524e+002, 2.876797e+002
2.607345e+002, 2.751737e+002
2.612166e+002, 2.633622e+002
2.616988e+002, 2.580262e+002
2.621809e+002, 2.605274e+002
2.626630e+002, 2.662061e+002
2.631451e+002, 2.760143e+002
2.636272e+002, 2.890647e+002
2.641093e+002, 2.956265e+002
2.645915e+002, 2.929089e+002
2.650736e+002, 2.887401e+002
2.655557e+002, 2.902022e+002
2.660378e+002, 2.999237e+002
2.665199e+002, 3.055883e+002
2.670020e+002, 3.041189e+002
2.674842e+002, 2.972460e+002
2.679663e+002, 2.944825e+002
2.684484e+002, 2.978187e+002
2.689305e+002, 3.006974e+002
2.694126e+002, 2.972878e+002
2.698947e+002, 2.849886e+002
2.703769e+002, 2.780622e+002
2.708590e+002, 2.793442e+002
2.713411e+002, 2.861342e+002
2.718232e+002, 2.896348e+002
2.723053e+002, 2.890127e+002
2.727874e+002, 2.876348e+002
2.732696e+002, 2.874568e+002
2.737517e+002, 2.886707e+002
2.742338e+002, 2.903041e+002
2.747159e+002, 2.933306e+002
2.751980e+002, 2.957549e+002
2.756801e+002, 2.907769e+002
2.761623e+002, 2.759799e+002
2.766444e+002, 2.646073e+002
2.771265e+002, 2.660762e+002
2.776086e+002, 2.818445e+002
2.780907e+002, 2.895527e+002
2.785728e+002, 2.861468e+002
2.790550e+002, 2.786212e+002
2.795371e+002, 2.808703e+002
2.800192e+002, 2.943602e+002
2.805013e+002, 3.056558e+002
2.809834e+002, 3.076032e+002
2.814655e+002, 3.004754e+002
2.819477e+002, 2.952565e+002
2.824298e+002, 2.922808e+002
2.829119e+002, 2.904577e+002
2.833940e+002, 2.882691e+002
2.838761e+002, 2.856902e+002
2.843582e+002, 2.836116e+002
2.848404e+002, 2.818521e+002
2.853225e+002, 2.807283e+002
2.858046e+002, 2.833345e+002
2.862867e+002, 2.905144e+002
2.867688e+002, 2.973106e+002
2.872509e+002, 2.969326e+002
2.877331e+002, 2.899272e+002
2.882152e+002, 2.839040e+002
2.886973e+002, 2.810651e+002
2.891794e+002, 2.809825e+002
2.896615e+002, 2.829167e+002
2.901436e+002, 2.870446e+002
2.906258e+002, 2.913006e+002
2.911079e+002, 2.945097e+002
2.915900e+002, 2.964893e+002
2.920721e+002, 2.959161e+002
2.925542e+002, 2.914010e+002
2.930363e+002, 2.851233e+002
2.935185e+002, 2.812127e+002
2.940006e+002, 2.796544e+002
2.944827e+002, 2.800571e+002
2.949648e+002, 2.829917e+002
2.954469e+002, 2.877454e+002
2.959290e+002, 2.923802e+002
2.964112e+002, 2.972554e+002
2.968933e+002, 3.006990e+002
2.973754e+002, 2.987186e+002
2.978575e+002, 2.921487e+002
2.983396e+002, 2.860810e+002
2.988217e+002, 2.848742e+002
2.993039e+002, 2.863988e+002
2.997860e+002, 2.863527e+002
3.002681e+002, 2.838879e+002
3.007502e+002, 2.806794e+002
3.012323e+002, 2.775228e+002
3.017144e+002, 2.749525e+002
3.021966e+002, 2.749331e+002
3.026787e+002, 2.818478e+002
3.031608e+002, 2.906279e+002
3.036429e+002, 2.943561e+002
3.041250e+002, 2.921899e+002
3.046071e+002, 2.869308e+002
3.050893e+002, 2.764820e+002
3.055714e+002, 2.647306e+002
3.060535e+002, 2.601556e+002
3.065356e+002, 2.731088e+002
3.070177e+002, 2.909802e+002
3.074998e+002, 3.020317e+002
3.079820e+002, 3.060023e+002
3.084641e+002, 3.061169e+002
3.089462e+002, 3.021985e+002
3.094283e+002, 2.964618e+002
3.099104e+002, 2.919674e+002
3.103925e+002, 2.910326e+002
3.108747e+002, 2.908318e+002
3.113568e+002, 2.889873e+002
3.118389e+002, 2.858385e+002
3.123210e+002, 2.839138e+002
3.128031e+002, 2.852977e+002
3.132852e+002, 2.882413e+002
3.137674e+002, 2.911812e+002
3.142495e+002, 2.944437e+002
3.147316e+002, 2.965977e+002
3.152137e+002, 2.956579e+002
3.156958e+002, 2.926968e+002
3.161779e+002, 2.913198e+002
3.166601e+002, 2.956223e+002
3.171422e+002, 3.003439e+002
3.176243e+002, 3.015282e+002
3.181064e+002, 2.960856e+002
3.185885e+002, 2.921085e+002
3.190706e+002, 2.938104e+002
3.195528e+002, 2.987408e+002
3.200349e+002, 3.021568e+002
3.205170e+002, 3.004830e+002
3.209991e+002, 2.988378e+002
3.214812e+002, 3.002126e+002
3.219633e+002, 3.064679e+002
3.224455e+002, 3.097339e+002
3.229276e+002, 3.072847e+002
3.234097e+002, 3.014248e+002
3.238918e+002, 2.949853e+002
3.243739e+002, 2.846468e+002
3.248560e+002, 2.774548e+002
3.253382e+002, 2.769892e+002
3.258203e+002, 2.843973e+002
3.263024e+002, 2.880058e+002
3.267845e+002, 2.822870e+002
3.272666e+002, 2.750435e+002
3.277487e+002, 2.724616e+002
3.282309e+002, 2.764049e+002
3.287130e+002, 2.830290e+002
3.291951e+002, 2.951815e+002
3.296772e+002, 3.116387e+002
3.301593e+002, 3.199176e+002
3.306414e+002, 3.155618e+002
3.311236e+002, 3.071913e+002
3.316057e+002, 2.991374e+002
3.320878e+002, 2.905403e+002
3.325699e+002, 2.836236e+002
3.330520e+002, 2.774811e+002
3.335341e+002, 2.732563e+002
3.340163e+002, 2.752411e+002
3.344984e+002, 2.884216e+002
3.349805e+002, 2.993883e+002
3.354626e+002, 3.013188e+002
3.359447e+002, 2.902922e+002
3.364268e+002, 2.859343e+002
3.369090e+002, 2.907774e+002
3.373911e+002, 2.996459e+002
3.378732e+002, 3.043521e+002
3.383553e+002, 3.041724e+002
3.388374e+002, 3.023033e+002
3.393195e+002, 2.991248e+002
3.398017e+002, 2.947547e+002
3.402838e+002, 2.914994e+002
3.407659e+002, 2.889792e+002
3.412480e+002, 2.885431e+002
3.417301e+002, 2.933631e+002
3.422122e+002, 3.040313e+002
3.426944e+002, 3.102512e+002
3.431765e+002, 3.078212e+002
3.436586e+002, 3.002061e+002
3.441407e+002, 3.010838e+002
3.446228e+002, 3.113493e+002
3.451049e+002, 3.196468e+002
3.455871e+002, 3.134738e+002
3.460692e+002, 2.956076e+002
3.465513e+002, 2.865995e+002
3.470334e+002, 2.910768e+002
3.475155e+002, 3.013442e+002
3.479977e+002, 3.053429e+002
3.484798e+002, 3.035348e+002
3.489619e+002, 2.994467e+002
3.494440e+002, 2.919947e+002
3.499261e+002, 2.840797e+002
3.504082e+002, 2.840630e+002
3.508904e+002, 2.935528e+002
3.513725e+002, 3.035564e+002
3.518546e+002, 3.031711e+002
3.523367e+002, 2.956932e+002
3.528188e+002, 2.898229e+002
3.533009e+002, 2.920371e+002
3.537831e+002, 2.964448e+002
3.542652e+002, 2.948062e+002
3.547473e+002, 2.874367e+002
3.552294e+002, 2.813565e+002
3.557115e+002, 2.839114e+002
3.561936e+002, 2.901367e+002
3.566758e+002, 2.933154e+002
3.571579e+002, 2.891595e+002
3.576400e+002, 2.844215e+002
3.581221e+002, 2.839173e+002
3.586042e+002, 2.869023e+002
3.590863e+002, 2.906568e+002
3.595685e+002, 2.957696e+002
3.600506e+002, 2.999425e+002
3.605327e+002, 3.010541e+002
3.610148e+002, 2.975689e+002
3.614969e+002, 2.942176e+002
3.619790e+002, 2.935486e+002
3.624612e+002, 2.942181e+002
3.629433e+002, 2.939370e+002
3.634254e+002, 2.905014e+002
3.639075e+002, 2.873060e+002
3.643896e+002, 2.855988e+002
3.648717e+002, 2.855125e+002
3.653539e+002, 2.865959e+002
3.658360e+002, 2.898708e+002
3.663181e+002, 2.937387e+002
3.668002e+002, 2.968080e+002
3.672823e+002, 3.021641e+002
3.677644e+002, 3.031507e+002
3.682466e+002, 2.939616e+002
3.687287e+002, 2.762928e+002
3.692108e+002, 2.698760e+002
3.696929e+002, 2.851801e+002
3.701750e+002, 3.025478e+002
3.706571e+002, 3.117305e+002
3.711393e+002, 3.065995e+002
3.716214e+002, 3.042769e+002
3.721035e+002, 3.068930e+002
3.725856e+002, 3.117283e+002
3.730677e+002, 3.126024e+002
3.735498e+002, 3.087052e+002
3.740320e+002, 3.022567e+002
3.745141e+002, 2.920765e+002
3.749962e+002, 2.766819e+002
3.754783e+002, 2.722997e+002
3.759604e+002, 2.832256e+002
3.764425e+002, 2.981862e+002
3.769247e+002, 3.029268e+002
3.774068e+002, 2.957243e+002
3.778889e+002, 2.886304e+002
3.783710e+002, 2.841612e+002
3.788531e+002, 2.822115e+002
3.793352e+002, 2.828757e+002
3.798174e+002, 2.864411e+002
3.802995e+002, 2.906107e+002
3.807816e+002, 2.949664e+002
3.812637e+002, 2.990425e+002
3.817458e+002, 2.975399e+002
3.822279e+002, 2.878462e+002
3.827101e+002, 2.762069e+002
3.831922e+002, 2.742088e+002
3.836743e+002, 2.804439e+002
3.841564e+002, 2.852796e+002
3.846385e+002, 2.809682e+002
3.851206e+002, 2.721507e+002
3.856028e+002, 2.683503e+002
3.860849e+002, 2.701968e+002
3.865670e+002, 2.744425e+002
3.870491e+002, 2.807846e+002
3.875312e+002, 2.871722e+002
3.880133e+002, 2.895295e+002
3.884955e+002, 2.842585e+002
3.889776e+002, 2.761000e+002
3.894597e+002, 2.677047e+002
3.899418e+002, 2.595630e+002
3.904239e+002, 2.546369e+002
3.909060e+002, 2.551144e+002
3.913882e+002, 2.593997e+002
3.918703e+002, 2.667605e+002
3.923524e+002, 2.794614e+002
3.928345e+002, 2.901794e+002
3.933166e+002, 2.941060e+002
3.937987e+002, 2.936375e+002
3.942809e+002, 2.935362e+002
3.947630e+002, 2.963763e+002
3.952451e+002, 2.990702e+002
3.957272e+002, 2.996019e+002
3.962093e+002, 2.971347e+002
3.966914e+002, 2.969831e+002
3.971736e+002, 3.056395e+002
3.976557e+002, 3.144919e+002
3.981378e+002, 3.156216e+002
3.986199e+002, 2.958244e+002
3.991020e+002, 2.823078e+002
3.995841e+002, 2.808794e+002
4.000663e+002, 2.896725e+002
4.005484e+002, 2.963867e+002
4.010305e+002, 3.014053e+002
4.015126e+002, 3.039366e+002
4.019947e+002, 3.032863e+002
4.024768e+002, 2.978875e+002
4.029590e+002, 2.929571e+002
4.034411e+002, 2.881831e+002
4.039232e+002, 2.841131e+002
4.044053e+002, 2.819586e+002
4.048874e+002, 2.823316e+002
4.053695e+002, 2.826653e+002
4.058517e+002, 2.813217e+002
4.063338e+002, 2.786693e+002
4.068159e+002, 2.813215e+002
4.072980e+002, 2.907426e+002
4.077801e+002, 3.004008e+002
4.082622e+002, 3.030670e+002
4.087444e+002, 2.991042e+002
4.092265e+002, 2.965356e+002
4.097086e+002, 2.974728e+002
4.101907e+002, 2.997944e+002
4.106728e+002, 2.992197e+002
4.111549e+002, 2.959003e+002
4.116371e+002, 2.914878e+002
4.121192e+002, 2.856104e+002
4.126013e+002, 2.795804e+002
4.130834e+002, 2.762789e+002
4.135655e+002, 2.759908e+002
4.140476e+002, 2.780864e+002
4.145298e+002, 2.853055e+002
