##NAMES=Iquiqueite
##RRUFFID=R060822
##IDEAL CHEMISTRY=K_3_Na_4_Mg(Cr^6+^O_4_)B_24_O_39_(OH)&#183;12H_2_O
##LOCALITY=Salar de Miraje, Pampa de Tamanigal, Atacama, Chile
##OWNER=RRUFF
##SOURCE=Michael Scott
##DESCRIPTION=Transparent pale yellow crystals imbedded in nitratine
##STATUS=The identification of this mineral has been confirmed only by single crystal X-ray diffraction.
##URL=rruff.info/R060822
157.6094, 100.3528
158.0915, 100.5513
158.5736, 100.0559
159.0558, 99.45723
159.5379, 99.39639
160.0200, 100.0721
160.5021, 101.0671
160.9842, 101.5944
161.4663, 101.4543
161.9485, 101.5838
162.4306, 102.3651
162.9127, 103.5410
163.3948, 104.6281
163.8769, 105.4553
164.3590, 106.1509
164.8412, 106.9020
165.3233, 107.7046
165.8054, 108.5751
166.2875, 109.4874
166.7696, 110.4582
167.2517, 111.6018
167.7339, 113.1210
168.2160, 114.7015
168.6981, 115.9558
169.1802, 116.8009
169.6623, 117.6181
170.1444, 118.8309
170.6266, 120.5077
171.1087, 122.1340
171.5908, 123.4292
172.0729, 124.6850
172.5550, 126.0900
173.0371, 127.6962
173.5193, 129.4662
174.0014, 131.4099
174.4835, 133.6756
174.9656, 135.7739
175.4477, 137.5102
175.9298, 139.1343
176.4120, 140.8537
176.8941, 142.7552
177.3762, 144.7962
177.8583, 146.8439
178.3404, 148.9503
178.8225, 150.9995
179.3047, 152.9690
179.7868, 154.8925
180.2689, 156.8793
180.7510, 158.9832
181.2331, 161.1187
181.7152, 162.8387
182.1973, 163.7028
182.6795, 164.6628
183.1616, 166.1624
183.6437, 167.8431
184.1258, 169.1041
184.6079, 169.6035
185.0900, 169.3987
185.5722, 168.8150
186.0543, 167.9515
186.5364, 166.7218
187.0185, 164.9810
187.5006, 162.8277
187.9827, 160.5373
188.4649, 158.3340
188.9470, 156.0875
189.4291, 153.3716
189.9112, 149.9543
190.3933, 146.2937
190.8754, 142.6893
191.3576, 139.1199
191.8397, 135.4734
192.3218, 131.4653
192.8039, 127.3937
193.2860, 123.8802
193.7681, 121.3056
194.2503, 119.0334
194.7324, 116.3502
195.2145, 113.1717
195.6966, 110.0779
196.1787, 107.4484
196.6608, 105.0772
197.1430, 102.7475
197.6251, 100.3634
198.1072, 98.02107
198.5893, 95.92054
199.0714, 94.14893
199.5535, 92.36962
200.0357, 90.28539
200.5178, 88.15752
200.9999, 86.31103
201.4820, 84.93887
201.9641, 83.86388
202.4462, 82.57633
202.9284, 80.87179
203.4105, 79.28773
203.8926, 78.03416
204.3747, 76.94921
204.8568, 75.82282
205.3389, 74.53611
205.8211, 73.13754
206.3032, 71.87093
206.7853, 70.76806
207.2674, 69.77638
207.7495, 68.92620
208.2316, 68.16319
208.7138, 67.41805
209.1959, 66.65250
209.6780, 65.86576
210.1601, 65.07515
210.6422, 64.19923
211.1243, 63.40759
211.6065, 62.78257
212.0886, 62.25598
212.5707, 61.71019
213.0528, 61.06531
213.5349, 60.34188
214.0170, 59.76063
214.4992, 59.48087
214.9813, 59.15907
215.4634, 58.70462
215.9455, 58.14216
216.4276, 57.49883
216.9097, 56.76653
217.3918, 55.98044
217.8740, 55.49922
218.3561, 55.58068
218.8382, 55.62769
219.3203, 55.37227
219.8024, 54.89182
220.2845, 54.43535
220.7667, 54.16747
221.2488, 54.03947
221.7309, 53.77630
222.2130, 53.20922
222.6951, 52.68589
223.1772, 52.42492
223.6594, 52.37742
224.1415, 52.30391
224.6236, 52.05381
225.1057, 51.68164
225.5878, 51.38779
226.0699, 51.17706
226.5521, 51.03363
227.0342, 50.98350
227.5163, 51.01558
227.9984, 51.01416
228.4805, 50.90976
228.9626, 50.73544
229.4448, 50.55876
229.9269, 50.36090
230.4090, 50.19687
230.8911, 50.15005
231.3732, 50.22169
231.8553, 50.23243
232.3375, 50.03254
232.8196, 49.76507
233.3017, 49.60498
233.7838, 49.58998
234.2659, 49.65001
234.7480, 49.72176
235.2302, 49.80494
235.7123, 49.90718
236.1944, 50.16243
236.6765, 50.36232
237.1586, 50.25842
237.6407, 49.75697
238.1229, 49.20660
238.6050, 49.02536
239.0871, 49.26084
239.5692, 49.61534
240.0513, 50.20697
240.5334, 50.77739
241.0156, 51.14850
241.4977, 51.27732
241.9798, 51.25444
242.4619, 51.15723
242.9440, 50.94307
243.4261, 50.81835
243.9083, 50.86098
244.3904, 50.97270
244.8725, 51.13507
245.3546, 51.33282
245.8367, 51.49284
246.3188, 51.52967
246.8010, 51.45488
247.2831, 51.20730
247.7652, 50.60567
248.2473, 49.97026
248.7294, 49.48725
249.2115, 49.18702
249.6937, 48.99096
250.1758, 48.82316
250.6579, 48.73743
251.1400, 48.52333
251.6221, 48.16374
252.1042, 47.70646
252.5863, 47.13054
253.0685, 46.45658
253.5506, 45.77827
254.0327, 45.18737
254.5148, 44.66052
254.9969, 44.32201
255.4790, 44.40000
255.9612, 44.44409
256.4433, 44.11837
256.9254, 43.46761
257.4075, 42.83153
257.8896, 42.59444
258.3718, 42.86737
258.8539, 43.05883
259.3360, 43.19593
259.8181, 43.24926
260.3002, 43.16778
260.7823, 42.97547
261.2645, 42.76658
261.7466, 42.64461
262.2287, 42.64721
262.7108, 42.43615
263.1929, 41.65977
263.6750, 41.04048
264.1572, 41.05676
264.6393, 41.57556
265.1214, 42.05949
265.6035, 42.06142
266.0856, 41.56073
266.5677, 41.24325
267.0499, 41.20756
267.5320, 41.21032
268.0141, 41.14319
268.4962, 41.02523
268.9783, 40.92924
269.4604, 40.90172
269.9425, 40.94160
270.4247, 41.03448
270.9068, 41.29055
271.3889, 41.47431
271.8710, 41.45528
272.3531, 41.29231
272.8352, 41.10753
273.3174, 40.94323
273.7995, 40.83587
274.2816, 40.98212
274.7637, 41.67088
275.2458, 42.22814
275.7279, 42.44085
276.2101, 42.37703
276.6922, 42.11616
277.1743, 41.63332
277.6564, 41.09157
278.1385, 41.01423
278.6206, 41.63107
279.1028, 42.16766
279.5849, 42.41929
280.0670, 42.44537
280.5491, 42.30247
281.0312, 41.97213
281.5133, 41.59685
281.9955, 41.49742
282.4776, 41.76071
282.9597, 41.92306
283.4418, 41.76964
283.9239, 41.47285
284.4060, 41.28794
284.8882, 41.27654
285.3703, 41.40758
285.8524, 41.69592
286.3345, 42.16130
286.8166, 42.54587
287.2987, 42.80619
287.7809, 42.95197
288.2630, 42.95547
288.7451, 42.79926
289.2272, 42.62251
289.7093, 42.57629
290.1914, 42.65354
290.6736, 42.75102
291.1557, 42.88098
291.6378, 43.00998
292.1199, 43.09910
292.6020, 43.14378
293.0841, 43.17028
293.5663, 43.18106
294.0484, 43.18818
294.5305, 43.24786
295.0126, 43.36579
295.4947, 43.53849
295.9768, 43.77036
296.4590, 44.05964
296.9411, 44.38990
297.4232, 44.78808
297.9053, 45.20776
298.3874, 45.52665
298.8695, 45.72170
299.3517, 45.83615
299.8338, 45.80194
300.3159, 45.66002
300.7980, 45.72545
301.2801, 46.26386
301.7622, 47.00419
302.2444, 47.37995
302.7265, 47.26793
303.2086, 47.10081
303.6907, 47.08987
304.1728, 47.21782
304.6549, 47.44597
305.1371, 47.82121
305.6192, 48.20790
306.1013, 48.43120
306.5834, 48.50275
307.0655, 48.42045
307.5476, 48.02897
308.0298, 47.49017
308.5119, 47.19338
308.9940, 47.25700
309.4761, 47.48187
309.9582, 47.66273
310.4403, 47.80797
310.9225, 47.98319
311.4046, 48.29097
311.8867, 48.61552
312.3688, 48.74041
312.8509, 48.61279
313.3330, 48.45884
313.8152, 48.50908
314.2973, 48.69722
314.7794, 48.80585
315.2615, 48.73655
315.7436, 48.60114
316.2257, 48.51834
316.7079, 48.49179
317.1900, 48.47936
317.6721, 48.49999
318.1542, 48.50085
318.6363, 48.36623
319.1184, 48.04400
319.6006, 47.63777
320.0827, 47.21325
320.5648, 46.76963
321.0469, 46.28444
321.5290, 45.67855
322.0111, 45.08825
322.4933, 44.79025
322.9754, 44.92200
323.4575, 44.92648
323.9396, 44.36592
324.4217, 43.42328
324.9038, 42.67510
325.3860, 42.31378
325.8681, 42.13349
326.3502, 41.86304
326.8323, 41.49996
327.3144, 41.16772
327.7965, 40.93064
328.2787, 40.74600
328.7608, 40.54801
329.2429, 40.32754
329.7250, 40.09007
330.2071, 39.81312
330.6892, 39.51114
331.1714, 39.28108
331.6535, 39.29810
332.1356, 39.30278
332.6177, 38.89153
333.0998, 38.04806
333.5819, 37.40300
334.0641, 37.51326
334.5462, 38.17056
335.0283, 38.47393
335.5104, 38.16730
335.9925, 37.72828
336.4746, 37.44025
336.9568, 37.28044
337.4389, 37.14625
337.9210, 36.97679
338.4031, 36.82047
338.8852, 36.81328
339.3673, 37.06581
339.8495, 37.18830
340.3315, 36.92954
340.8137, 36.44323
341.2958, 36.01854
341.7779, 35.73392
342.2600, 35.56015
342.7421, 35.48471
343.2242, 35.51627
343.7064, 35.53879
344.1885, 35.54457
344.6706, 35.52390
345.1527, 35.42330
345.6348, 35.23714
346.1169, 35.12384
346.5991, 35.28041
347.0812, 35.71832
347.5633, 35.92339
348.0454, 35.74490
348.5275, 35.45958
349.0096, 35.20992
349.4918, 35.00721
349.9739, 34.86164
350.4560, 34.78675
350.9381, 34.77021
351.4202, 34.74780
351.9023, 34.62596
352.3845, 34.60381
352.8666, 34.85336
353.3487, 35.22876
353.8308, 35.45662
354.3129, 35.42421
354.7950, 35.23447
355.2772, 35.07154
355.7593, 34.89073
356.2414, 34.83881
356.7235, 35.04871
357.2056, 35.33001
357.6877, 35.49302
358.1699, 35.50534
358.6520, 35.44842
359.1341, 35.39602
359.6162, 35.33459
360.0983, 35.38471
360.5804, 35.69708
361.0626, 35.97376
361.5447, 36.00167
362.0268, 35.83848
362.5089, 35.70829
362.9910, 35.77124
363.4731, 36.00401
363.9553, 36.18924
364.4374, 36.32736
364.9195, 36.42388
365.4016, 36.43457
365.8837, 36.41708
366.3658, 36.46268
366.8480, 36.60892
367.3301, 36.79691
367.8122, 36.89741
368.2943, 36.83454
368.7764, 36.79639
369.2585, 36.76888
369.7407, 36.77314
370.2228, 36.82761
370.7049, 36.93331
371.1870, 37.08434
371.6691, 37.30028
372.1512, 37.62730
372.6334, 37.72688
373.1155, 37.37361
373.5976, 37.03006
374.0797, 36.82307
374.5618, 36.76030
375.0439, 36.84441
375.5261, 37.10538
376.0082, 37.47459
376.4903, 37.59691
376.9724, 37.27875
377.4545, 36.97306
377.9366, 36.68191
378.4188, 36.47140
378.9009, 36.44876
379.3830, 36.64299
379.8651, 36.90303
380.3472, 36.95304
380.8293, 36.68316
381.3115, 36.56892
381.7936, 36.81182
382.2757, 37.08892
382.7578, 37.24260
383.2399, 37.26692
383.7220, 37.23727
384.2042, 37.18410
384.6863, 37.11562
385.1684, 37.16544
385.6505, 37.43974
386.1326, 37.68459
386.6147, 37.75581
387.0969, 37.74219
387.5790, 37.78490
388.0611, 37.94808
388.5432, 38.19436
389.0253, 38.47012
389.5074, 38.78722
389.9896, 39.08621
390.4717, 39.34711
390.9538, 39.58031
391.4359, 39.77207
391.9180, 39.91782
392.4001, 40.09189
392.8823, 40.40151
393.3644, 40.81268
393.8465, 41.09337
394.3286, 41.11203
394.8107, 41.15014
395.2928, 41.46766
395.7750, 42.00207
396.2571, 42.54130
396.7392, 42.99798
397.2213, 43.41695
397.7034, 43.87893
398.1855, 44.38896
398.6677, 44.86215
399.1498, 45.20240
399.6319, 45.49040
400.1140, 45.91896
400.5961, 46.60689
401.0782, 47.24191
401.5604, 47.54446
402.0425, 47.64310
402.5246, 47.96095
403.0067, 48.68739
403.4888, 49.52429
403.9709, 49.96575
404.4531, 49.95657
404.9352, 50.12144
405.4173, 50.77131
405.8994, 51.52507
406.3815, 51.93676
406.8636, 51.99854
407.3458, 52.09862
407.8279, 52.56379
408.3100, 53.36852
408.7921, 54.02254
409.2742, 54.40524
409.7563, 54.78969
410.2385, 55.32251
410.7206, 55.91548
411.2027, 56.40612
411.6848, 56.72567
412.1669, 56.91344
412.6490, 57.04296
413.1311, 57.05102
413.6133, 57.10772
414.0954, 57.45923
414.5775, 57.68071
415.0596, 57.38329
415.5417, 56.58951
416.0238, 55.66022
416.5060, 54.94247
416.9881, 54.44997
417.4702, 53.74247
417.9523, 52.72391
418.4344, 51.57654
418.9165, 50.18339
419.3987, 48.73006
419.8808, 47.47657
420.3629, 46.55437
420.8450, 45.81268
421.3271, 44.93945
421.8092, 43.86194
422.2914, 42.84443
422.7735, 41.81634
423.2556, 40.92430
423.7377, 40.33582
424.2198, 40.01796
424.7019, 39.72161
425.1841, 39.16868
425.6662, 38.40181
426.1483, 37.92960
426.6304, 37.97578
427.1125, 37.95604
427.5946, 37.50132
428.0768, 36.84417
428.5589, 36.34171
429.0410, 36.14589
429.5231, 36.08171
430.0052, 35.92796
430.4873, 35.68223
430.9695, 35.47002
431.4516, 35.38261
431.9337, 35.28757
432.4158, 34.98856
432.8979, 34.48152
433.3800, 34.10585
433.8622, 34.12309
434.3443, 34.34883
434.8264, 34.48047
435.3085, 34.49087
435.7906, 34.37181
436.2727, 34.05653
436.7549, 33.59336
437.2370, 33.23192
437.7191, 32.97356
438.2012, 32.82560
438.6833, 32.84203
439.1654, 32.97199
439.6476, 33.09884
440.1297, 33.18333
440.6118, 33.22761
441.0939, 33.23631
441.5760, 33.21594
442.0581, 33.13432
442.5403, 32.92837
443.0224, 32.70548
443.5045, 32.51657
443.9866, 32.38268
444.4687, 32.35514
444.9508, 32.49226
445.4330, 32.77050
445.9151, 32.92961
446.3972, 32.78572
446.8793, 32.74002
447.3614, 32.93334
447.8435, 33.22050
448.3257, 33.46099
448.8078, 33.60256
449.2899, 33.63826
449.7720, 33.51313
450.2541, 33.12488
450.7362, 32.93531
451.2184, 33.16317
451.7005, 33.39016
452.1826, 33.41596
452.6647, 33.30448
453.1468, 33.24199
453.6289, 33.35831
454.1111, 33.57619
454.5932, 33.66448
455.0753, 33.55910
455.5574, 33.51884
456.0395, 33.66940
456.5216, 33.89944
457.0038, 34.14836
457.4859, 34.40925
457.9680, 34.62868
458.4501, 34.75485
458.9322, 34.80532
459.4143, 34.81085
459.8965, 34.72290
460.3786, 34.73619
460.8607, 35.14043
461.3428, 35.77405
461.8249, 36.21264
462.3070, 36.26905
462.7892, 36.21855
463.2713, 36.27901
463.7534, 36.41138
464.2355, 36.46811
464.7176, 36.39229
465.1997, 36.21926
465.6819, 35.96664
466.1640, 35.56098
466.6461, 35.36417
467.1282, 35.56940
467.6103, 35.88938
468.0924, 36.07857
468.5746, 36.14006
469.0567, 36.24251
469.5388, 36.52770
470.0209, 36.94618
470.5030, 37.15808
470.9851, 36.84818
471.4673, 36.71383
471.9494, 36.94096
472.4315, 37.32293
472.9136, 37.66059
473.3957, 37.90107
473.8778, 38.10836
474.3600, 38.34126
474.8421, 38.58612
475.3242, 38.96147
475.8063, 39.69167
476.2884, 40.31631
476.7705, 40.62806
477.2527, 40.74571
477.7348, 40.87815
478.2169, 41.12658
478.6990, 41.40515
479.1811, 41.57523
479.6632, 41.63195
480.1454, 41.62322
480.6275, 41.52731
481.1096, 41.39696
481.5917, 41.34497
482.0738, 41.34299
482.5559, 41.14292
483.0380, 40.50023
483.5201, 39.63679
484.0023, 38.89086
484.4844, 38.27618
484.9665, 37.74115
485.4486, 37.27129
485.9307, 36.85908
486.4128, 36.47666
486.8950, 36.14821
487.3771, 35.79951
487.8592, 35.40041
488.3413, 34.96847
488.8234, 34.49641
489.3055, 33.98809
489.7877, 33.52924
490.2698, 33.20753
490.7519, 33.02672
491.2340, 32.89411
491.7161, 32.89704
492.1982, 32.83935
492.6804, 32.57292
493.1625, 32.23538
493.6446, 32.04267
494.1267, 32.07069
494.6088, 32.19376
495.0909, 32.20619
495.5731, 32.07388
496.0552, 31.93878
496.5373, 31.79270
497.0194, 31.65157
497.5015, 31.50023
497.9836, 31.36055
498.4658, 31.28726
498.9479, 31.33238
499.4300, 31.41775
499.9121, 31.36191
500.3942, 31.13079
500.8763, 30.97593
501.3585, 31.04264
501.8406, 31.14990
502.3227, 31.11412
502.8048, 30.93715
503.2869, 30.78259
503.7690, 30.79929
504.2512, 30.85554
504.7333, 30.71291
505.2154, 30.35810
505.6975, 30.01893
506.1796, 29.79350
506.6617, 29.70034
507.1439, 29.80784
507.6260, 30.26843
508.1081, 30.61786
508.5902, 30.69558
509.0723, 30.61677
509.5544, 30.47551
510.0366, 30.30417
510.5187, 30.16114
511.0008, 30.11354
511.4829, 30.16078
511.9650, 30.10658
512.4471, 29.83272
512.9293, 29.59748
513.4114, 29.43261
513.8935, 29.34005
514.3756, 29.33682
514.8577, 29.42095
515.3398, 29.53350
515.8220, 29.61514
516.3041, 29.67030
516.7862, 29.63584
517.2683, 29.39072
517.7504, 29.21623
518.2325, 29.30346
518.7147, 29.52488
519.1968, 29.66445
519.6789, 29.64002
520.1610, 29.53071
520.6431, 29.36779
521.1252, 29.17119
521.6074, 29.12962
522.0895, 29.34934
522.5716, 29.61282
523.0537, 29.65171
523.5358, 29.50020
524.0179, 29.40515
524.5001, 29.42650
524.9822, 29.50026
525.4643, 29.64157
525.9464, 29.80250
526.4285, 29.82655
526.9106, 29.63324
527.3928, 29.35200
527.8749, 29.22538
528.3570, 29.32910
528.8391, 29.42009
529.3212, 29.46903
529.8033, 29.53251
530.2855, 29.70208
530.7676, 29.91266
531.2497, 29.98658
531.7318, 29.80211
532.2139, 29.48807
532.6960, 29.39972
533.1782, 29.62847
533.6603, 29.82288
534.1424, 29.94815
534.6245, 30.00385
535.1066, 29.93546
535.5887, 29.77775
536.0709, 29.67525
536.5530, 29.76302
537.0351, 29.93450
537.5172, 29.96677
537.9993, 29.85081
538.4814, 29.79611
538.9636, 29.94013
539.4457, 30.14365
539.9278, 30.17124
540.4099, 30.00229
540.8920, 29.81547
541.3741, 29.54692
541.8563, 29.35720
542.3384, 29.51991
542.8205, 29.96772
543.3026, 30.26630
543.7847, 30.11800
544.2668, 29.66187
544.7490, 29.40594
545.2311, 29.56945
545.7132, 29.63786
546.1953, 29.49664
546.6774, 29.33851
547.1595, 29.35853
547.6417, 29.51876
548.1238, 29.58148
548.6059, 29.31280
549.0880, 28.84830
549.5701, 28.77184
550.0522, 29.25875
550.5344, 29.68168
551.0165, 29.79412
551.4986, 29.80371
551.9807, 29.87543
552.4628, 30.01839
552.9449, 30.09838
553.4271, 29.95231
553.9092, 29.72445
554.3913, 29.68957
554.8734, 29.86156
555.3555, 30.05221
555.8376, 30.18805
556.3198, 30.25571
556.8019, 30.19804
557.2840, 29.94283
557.7661, 29.76520
558.2482, 29.77180
558.7303, 29.84015
559.2125, 29.86344
559.6946, 29.83780
560.1767, 29.83405
560.6588, 29.91948
561.1409, 30.03106
561.6230, 29.86845
562.1052, 29.07083
562.5873, 28.62417
563.0694, 28.89245
563.5515, 29.28612
564.0336, 29.38469
564.5157, 29.19156
564.9979, 28.96347
565.4800, 28.85860
565.9621, 28.85672
566.4442, 28.94451
566.9263, 29.14907
567.4084, 29.25479
567.8906, 29.14502
568.3727, 28.92392
568.8548, 28.72377
569.3369, 28.54403
569.8190, 28.38948
570.3011, 28.26252
570.7833, 28.16268
571.2654, 28.07061
571.7475, 27.99925
572.2296, 28.02938
572.7117, 28.22304
573.1938, 28.48483
573.6760, 28.58324
574.1581, 28.40594
574.6402, 28.26322
575.1223, 28.20438
575.6044, 28.13302
576.0865, 27.94461
576.5687, 27.69545
577.0508, 27.53492
577.5329, 27.55531
578.0150, 27.68393
578.4971, 27.76232
578.9792, 27.77583
579.4614, 27.82243
579.9435, 27.95781
580.4256, 28.08882
580.9077, 28.17522
581.3898, 28.20625
581.8719, 28.14245
582.3541, 27.87365
582.8362, 27.59215
583.3183, 27.49932
583.8004, 27.55697
584.2825, 27.63696
584.7646, 27.70630
585.2468, 27.73989
585.7289, 27.68824
586.2110, 27.52027
586.6931, 27.46243
587.1752, 27.56047
587.6573, 27.71117
588.1394, 27.93867
588.6215, 28.17059
589.1036, 28.28022
589.5858, 28.23079
590.0679, 28.14539
590.5500, 28.22687
591.0321, 28.50704
591.5142, 28.60175
591.9963, 28.37881
592.4785, 28.16266
592.9606, 28.06503
593.4427, 28.06725
593.9248, 28.16257
594.4069, 28.36717
594.8890, 28.57822
595.3712, 28.77325
595.8533, 28.91101
596.3354, 28.83364
596.8175, 28.50855
597.2996, 28.25893
597.7817, 28.34387
598.2639, 28.69530
598.7460, 28.94421
599.2281, 29.05543
599.7102, 29.12995
600.1923, 29.20961
600.6744, 29.23935
601.1566, 29.10904
601.6387, 28.85845
602.1208, 28.68554
602.6029, 28.76074
603.0850, 29.00349
603.5671, 29.07445
604.0493, 28.87693
604.5314, 28.76649
605.0135, 28.87707
605.4956, 29.05927
605.9777, 29.26784
606.4598, 29.47508
606.9420, 29.57362
607.4241, 29.41413
607.9062, 29.18530
608.3883, 29.09608
608.8704, 29.13758
609.3525, 29.29067
609.8347, 29.57595
610.3168, 29.87213
610.7989, 30.01239
611.2810, 29.96877
611.7631, 29.88385
612.2452, 29.59180
612.7274, 29.43892
613.2095, 29.61286
613.6916, 30.00688
614.1737, 30.52892
614.6558, 31.12321
615.1379, 31.60479
615.6201, 31.63773
616.1022, 31.20096
616.5843, 31.09373
617.0664, 31.49691
617.5485, 31.90964
618.0306, 32.09565
618.5128, 32.16092
618.9949, 32.21280
619.4770, 32.25644
619.9591, 32.34740
620.4412, 32.61458
620.9233, 32.90528
621.4055, 32.90776
621.8876, 32.63186
622.3697, 32.45839
622.8518, 32.62733
623.3339, 33.04434
623.8160, 33.43513
624.2982, 33.80706
624.7803, 34.13655
625.2624, 34.41933
625.7445, 34.66554
626.2266, 34.84612
626.7087, 34.99706
627.1909, 35.20891
627.6730, 35.54253
628.1551, 35.89062
628.6372, 36.06329
629.1193, 36.05761
629.6014, 35.99906
630.0836, 35.89712
630.5657, 35.76140
631.0478, 35.51595
631.5299, 35.24087
632.0120, 35.16770
632.4941, 35.51191
632.9763, 35.79881
633.4584, 35.74528
633.9405, 35.50576
634.4226, 35.26805
634.9047, 35.08085
635.3868, 34.99361
635.8690, 35.07521
636.3511, 35.27766
636.8332, 35.25790
637.3153, 34.85497
637.7974, 34.49047
638.2795, 34.22285
638.7617, 34.00128
639.2438, 33.79329
639.7259, 33.59767
640.2080, 33.43814
640.6901, 33.38667
641.1722, 33.31203
641.6544, 32.96597
642.1365, 32.37676
642.6186, 31.83521
643.1007, 31.43109
643.5828, 31.07647
644.0649, 30.64916
644.5471, 30.14341
645.0292, 29.82890
645.5113, 29.85663
645.9934, 29.89830
646.4755, 29.88330
646.9576, 29.79284
647.4398, 29.56683
647.9219, 29.21884
648.4040, 28.88386
648.8861, 28.68176
649.3682, 28.60821
649.8503, 28.67586
650.3325, 28.98092
650.8146, 29.15901
651.2967, 29.00765
651.7788, 28.75016
652.2609, 28.55073
652.7430, 28.41993
653.2252, 28.38124
653.7073, 28.50470
654.1894, 28.67289
