##NAMES=Iranite
##RRUFFID=R060781
##IDEAL CHEMISTRY=Pb^2+^_10_Cu^2+^(Cr^6+^O_4_)_6_(SiO_4_)_2_(OH)_2_
##LOCALITY=Chapacase mine, Sierra Cerillos district, Tocopilla, Chile
##OWNER=RRUFF
##SOURCE=Michael Scott
##DESCRIPTION=Corroded aggregate of orange platy crystals associated with red wulfenite; structure type sample.
##STATUS=The identification of this mineral is confirmed by single-crystal X-ray diffraction and chemical analysis.
##URL=rruff.info/R060781
##MEASURED CHEMISTRY=Cu_1.00_Pb_10.00_((Cr_0.99_[box]_0.01_)_Σ=1_(O_3.82_(OH)_0.18_)_Σ=4_)_6_(Si_1.00_O_4_)_2_(OH)_2_
116.6693, 2482.153
117.1515, 2721.650
117.6336, 2958.796
118.1157, 3173.587
118.5978, 3387.609
119.0799, 3611.612
119.5620, 3843.710
120.0442, 4090.390
120.5263, 4370.098
121.0084, 4668.264
121.4905, 4960.461
121.9726, 5227.872
122.4547, 5486.002
122.9369, 5754.776
123.4190, 6035.230
123.9011, 6320.180
124.3832, 6608.180
124.8653, 6897.386
125.3474, 7171.660
125.8296, 7407.775
126.3117, 7623.456
126.7938, 7862.629
127.2759, 8143.131
127.7580, 8442.887
128.2401, 8717.949
128.7223, 8969.397
129.2044, 9211.266
129.6865, 9447.090
130.1686, 9679.536
130.6507, 9922.487
131.1328, 10197.08
131.6149, 10491.06
132.0971, 10717.62
132.5792, 10867.32
133.0613, 10990.71
133.5434, 11161.76
134.0255, 11384.22
134.5076, 11600.08
134.9898, 11780.79
135.4719, 11923.83
135.9540, 12072.45
136.4361, 12230.87
136.9182, 12392.52
137.4003, 12539.35
137.8825, 12674.46
138.3646, 12789.97
138.8467, 12874.42
139.3288, 12910.71
139.8109, 12974.82
140.2930, 13088.78
140.7752, 13241.67
141.2573, 13349.09
141.7394, 13389.14
142.2215, 13408.23
142.7036, 13442.62
143.1857, 13487.62
143.6679, 13547.74
144.1500, 13550.18
144.6321, 13559.46
145.1142, 13555.24
145.5963, 13530.28
146.0784, 13496.23
146.5606, 13469.06
147.0427, 13469.35
147.5248, 13455.06
148.0069, 13416.23
148.4890, 13351.19
148.9711, 13268.00
149.4533, 13146.68
149.9354, 13007.99
150.4175, 12898.66
150.8996, 12825.63
151.3817, 12776.61
151.8638, 12747.78
152.3460, 12771.43
152.8281, 12775.67
153.3102, 12755.37
153.7923, 12711.08
154.2744, 12644.69
154.7565, 12544.79
155.2386, 12430.43
155.7208, 12312.94
156.2029, 12155.18
156.6850, 12033.00
157.1671, 11986.27
157.6492, 12015.89
158.1313, 12021.73
158.6135, 11956.05
159.0956, 11856.73
159.5777, 11764.69
160.0598, 11685.48
160.5419, 11621.85
161.0240, 11580.49
161.5062, 11567.06
161.9883, 11546.55
162.4704, 11501.22
162.9525, 11438.29
163.4346, 11370.35
163.9167, 11296.13
164.3989, 11222.57
164.8810, 11157.45
165.3631, 11106.79
165.8452, 11052.81
166.3273, 10986.19
166.8094, 10907.55
167.2916, 10820.13
167.7737, 10707.25
168.2558, 10592.51
168.7379, 10504.70
169.2200, 10467.04
169.7021, 10437.53
170.1843, 10377.68
170.6664, 10291.58
171.1485, 10205.19
171.6306, 10139.71
172.1127, 10085.20
172.5948, 10026.14
173.0770, 9946.055
173.5591, 9864.631
174.0412, 9811.421
174.5233, 9787.396
175.0054, 9760.629
175.4875, 9697.543
175.9697, 9608.732
176.4518, 9522.577
176.9339, 9445.131
177.4160, 9379.435
177.8981, 9339.879
178.3802, 9331.591
178.8624, 9323.053
179.3445, 9266.232
179.8266, 9171.890
180.3087, 9092.070
180.7908, 9076.386
181.2729, 9096.304
181.7551, 9073.110
182.2372, 8989.552
182.7193, 8882.698
183.2014, 8808.198
183.6835, 8763.782
184.1656, 8729.477
184.6478, 8699.605
185.1299, 8670.560
185.6120, 8622.633
186.0941, 8543.806
186.5762, 8454.148
187.0583, 8398.256
187.5405, 8377.783
188.0226, 8364.435
188.5047, 8334.622
188.9868, 8290.002
189.4689, 8245.885
189.9510, 8204.437
190.4332, 8166.635
190.9153, 8137.842
191.3974, 8120.189
191.8795, 8101.672
192.3616, 8068.722
192.8437, 8020.816
193.3259, 7971.101
193.8080, 7922.992
194.2901, 7876.399
194.7722, 7825.006
195.2543, 7764.729
195.7364, 7711.148
196.2186, 7689.773
196.7007, 7703.658
197.1828, 7719.563
197.6649, 7728.718
198.1470, 7731.348
198.6291, 7714.244
199.1112, 7672.776
199.5934, 7618.720
200.0755, 7569.251
200.5576, 7522.772
201.0397, 7488.098
201.5218, 7476.504
202.0039, 7492.108
202.4861, 7488.979
202.9682, 7459.191
203.4503, 7414.637
203.9324, 7386.128
204.4145, 7378.113
204.8966, 7372.192
205.3788, 7356.677
205.8609, 7329.380
206.3430, 7304.635
206.8251, 7284.206
207.3072, 7267.058
207.7893, 7248.117
208.2715, 7225.191
208.7536, 7205.960
209.2357, 7198.442
209.7178, 7207.814
210.1999, 7209.855
210.6820, 7198.633
211.1642, 7138.906
211.6463, 7176.538
212.1284, 7194.030
212.6105, 7192.481
213.0926, 7114.005
213.5747, 7135.519
214.0569, 7117.359
214.5390, 7097.848
215.0211, 7134.251
215.5032, 7068.433
215.9853, 7104.525
216.4674, 7100.335
216.9496, 7114.997
217.4317, 7089.741
217.9138, 7077.189
218.3959, 7105.138
218.8780, 7111.105
219.3601, 7082.363
219.8423, 7099.918
220.3244, 7035.551
220.8065, 7043.608
221.2886, 7083.076
221.7707, 7057.783
222.2528, 7077.501
222.7349, 7080.471
223.2171, 7006.313
223.6992, 7067.069
224.1813, 7069.889
224.6634, 7013.213
225.1455, 7070.212
225.6276, 7022.349
226.1098, 7012.302
226.5919, 7030.786
227.0740, 7020.111
227.5561, 7056.145
228.0382, 7047.741
228.5203, 7012.684
229.0025, 7034.474
229.4846, 7059.229
229.9667, 7070.476
230.4488, 7061.418
230.9309, 7055.061
231.4130, 7054.609
231.8952, 7056.315
232.3773, 7047.025
232.8594, 7014.764
233.3415, 6987.647
233.8236, 6982.169
234.3057, 7014.379
234.7879, 7033.381
235.2700, 7035.496
235.7521, 7022.821
236.2342, 7001.804
236.7163, 6959.322
237.1984, 6925.426
237.6806, 6921.273
238.1627, 6968.219
238.6448, 6999.644
239.1269, 7005.512
239.6090, 6989.823
240.0911, 6978.725
240.5733, 6975.203
241.0554, 6972.713
241.5375, 6963.675
242.0196, 6932.083
242.5017, 6928.845
242.9838, 6976.644
243.4660, 7067.690
243.9481, 7107.796
244.4302, 7068.733
244.9123, 7010.929
245.3944, 6983.702
245.8765, 7009.432
246.3586, 7021.283
246.8408, 7006.675
247.3229, 6966.745
247.8050, 6927.322
248.2871, 6878.083
248.7692, 6840.755
249.2513, 6839.219
249.7335, 6897.133
250.2156, 6941.531
250.6977, 6956.435
251.1798, 6941.434
251.6619, 6932.496
252.1440, 6932.911
252.6262, 6935.761
253.1083, 6933.188
253.5904, 6919.742
254.0725, 6912.636
254.5546, 6917.130
255.0367, 6933.941
255.5189, 6948.163
256.0010, 6961.140
256.4831, 6970.258
256.9652, 6972.021
257.4473, 6964.397
257.9294, 6953.328
258.4116, 6934.707
258.8937, 6906.129
259.3758, 6910.626
259.8579, 6966.507
260.3400, 7034.035
260.8221, 7060.052
261.3043, 7024.187
261.7864, 6999.688
262.2685, 7012.690
262.7506, 7067.655
263.2327, 7099.634
263.7148, 7101.227
264.1970, 7089.701
264.6791, 7086.807
265.1612, 7093.369
265.6433, 7106.570
266.1254, 7126.694
266.6075, 7153.844
267.0897, 7184.259
267.5718, 7222.650
268.0539, 7257.473
268.5360, 7264.788
269.0181, 7232.968
269.5002, 7216.291
269.9824, 7242.521
270.4645, 7315.243
270.9466, 7353.666
271.4287, 7344.332
271.9108, 7321.856
272.3929, 7341.773
272.8751, 7412.345
273.3572, 7483.844
273.8393, 7537.870
274.3214, 7574.071
274.8035, 7606.382
275.2856, 7634.561
275.7678, 7659.766
276.2499, 7681.278
276.7320, 7697.998
277.2141, 7719.339
277.6962, 7750.778
278.1783, 7792.425
278.6604, 7832.663
279.1425, 7872.423
279.6247, 7909.498
280.1068, 7934.119
280.5889, 7944.542
281.0710, 7970.458
281.5531, 8035.146
282.0352, 8134.569
282.5174, 8209.688
282.9995, 8255.117
283.4816, 8289.202
283.9637, 8341.206
284.4458, 8410.933
284.9279, 8471.848
285.4101, 8505.188
285.8922, 8516.371
286.3743, 8539.981
286.8564, 8576.885
287.3385, 8623.866
287.8206, 8677.199
288.3028, 8736.860
288.7849, 8800.467
289.2670, 8873.016
289.7491, 8949.670
290.2312, 9009.121
290.7133, 9047.563
291.1955, 9080.887
291.6776, 9122.804
292.1597, 9174.932
292.6418, 9245.155
293.1239, 9361.905
293.6060, 9499.208
294.0882, 9579.805
294.5703, 9594.683
295.0524, 9594.557
295.5345, 9635.870
296.0166, 9711.161
296.4987, 9793.760
296.9809, 9882.908
297.4630, 9968.061
297.9451, 10022.93
298.4272, 10043.50
298.9093, 10058.44
299.3914, 10104.90
299.8736, 10169.77
300.3557, 10217.10
300.8378, 10204.45
301.3199, 10176.39
301.8020, 10200.07
302.2841, 10282.75
302.7663, 10367.22
303.2484, 10396.57
303.7305, 10392.28
304.2126, 10396.10
304.6947, 10417.70
305.1768, 10460.92
305.6590, 10545.12
306.1411, 10675.57
306.6232, 10784.81
307.1053, 10799.86
307.5874, 10767.45
308.0695, 10759.46
308.5517, 10794.22
309.0338, 10872.08
309.5159, 11016.03
309.9980, 11229.30
310.4801, 11420.57
310.9622, 11506.74
311.4444, 11548.74
311.9265, 11623.11
312.4086, 11767.70
312.8907, 11944.11
313.3728, 12136.14
313.8549, 12343.16
314.3371, 12558.41
314.8192, 12761.71
315.3013, 12976.77
315.7834, 13224.17
316.2655, 13530.12
316.7477, 13851.19
317.2298, 14171.33
317.7119, 14490.16
318.1940, 14820.40
318.6761, 15146.36
319.1582, 15491.70
319.6404, 15875.13
320.1225, 16348.52
320.6046, 16811.66
321.0867, 17226.46
321.5688, 17596.06
322.0509, 17997.45
322.5330, 18447.77
323.0151, 18930.76
323.4973, 19439.28
323.9794, 20013.92
324.4615, 20568.59
324.9436, 21081.78
325.4257, 21556.91
325.9078, 22049.20
326.3900, 22535.39
326.8721, 23050.61
327.3542, 23619.31
327.8363, 24273.44
328.3184, 24938.43
328.8005, 25641.10
329.2827, 26358.07
329.7648, 26985.43
330.2469, 27470.73
330.7290, 27927.67
331.2111, 28412.17
331.6932, 28958.67
332.1754, 29475.04
332.6575, 29966.56
333.1396, 30422.30
333.6217, 30815.32
334.1038, 31130.05
334.5859, 31412.56
335.0681, 31691.52
335.5502, 31981.59
336.0323, 32215.81
336.5144, 32378.77
336.9965, 32493.90
337.4786, 32625.02
337.9608, 32778.02
338.4429, 32918.16
338.9250, 33016.45
339.4071, 33066.67
339.8892, 33152.27
340.3713, 33284.51
340.8535, 33438.03
341.3356, 33566.56
341.8177, 33670.62
342.2998, 33763.95
342.7819, 33865.40
343.2640, 33968.38
343.7462, 34024.74
344.2283, 34034.30
344.7104, 33999.01
345.1925, 33919.24
345.6746, 33795.76
346.1567, 33637.63
346.6389, 33450.41
347.1210, 33231.24
347.6031, 32954.95
348.0852, 32618.54
348.5673, 32264.38
349.0494, 31920.70
349.5316, 31596.21
350.0137, 31309.13
350.4958, 31075.59
350.9779, 30883.08
351.4600, 30724.74
351.9421, 30600.32
352.4243, 30469.71
352.9064, 30295.78
353.3885, 30096.90
353.8706, 29902.71
354.3527, 29756.03
354.8348, 29592.25
355.3170, 29350.33
355.7991, 29036.64
356.2812, 28701.46
356.7633, 28389.97
357.2454, 28064.63
357.7275, 27687.38
358.2097, 27223.01
358.6918, 26731.13
359.1739, 26216.20
359.6560, 25690.24
360.1381, 25213.43
360.6202, 24800.39
361.1024, 24448.95
361.5845, 24161.90
362.0666, 23981.51
362.5487, 23802.33
363.0308, 23588.42
363.5129, 23356.95
363.9951, 23157.22
364.4772, 23016.74
364.9593, 22897.00
365.4414, 22777.98
365.9235, 22623.48
366.4056, 22534.73
366.8878, 22562.71
367.3698, 22651.45
367.8520, 22703.41
368.3341, 22696.26
368.8162, 22678.24
369.2983, 22668.77
369.7804, 22681.83
370.2625, 22650.14
370.7447, 22574.65
371.2268, 22453.45
371.7089, 22274.59
372.1910, 22014.96
372.6731, 21748.98
373.1552, 21500.34
373.6374, 21267.21
374.1195, 21013.73
374.6016, 20722.39
375.0837, 20439.98
375.5658, 20215.21
376.0479, 20049.51
376.5301, 19915.16
377.0122, 19809.26
377.4943, 19727.73
377.9764, 19652.74
378.4585, 19581.43
378.9406, 19531.22
379.4228, 19538.20
379.9049, 19589.57
380.3870, 19596.98
380.8691, 19531.17
381.3512, 19430.02
381.8333, 19349.22
382.3155, 19208.42
382.7976, 19059.96
383.2797, 18904.24
383.7618, 18719.46
384.2439, 18572.20
384.7260, 18409.90
385.2082, 18246.96
385.6903, 18104.97
386.1724, 17924.42
386.6545, 17782.10
387.1366, 17624.53
387.6187, 17473.93
388.1009, 17308.18
388.5830, 17147.13
389.0651, 17001.21
389.5472, 16846.91
390.0293, 16679.46
390.5114, 16529.30
390.9936, 16348.20
391.4757, 16194.25
391.9578, 16052.03
392.4399, 15885.32
392.9220, 15735.45
393.4041, 15579.16
393.8863, 15393.73
394.3684, 15258.97
394.8505, 15102.31
395.3326, 14923.15
395.8147, 14786.67
396.2968, 14610.61
396.7790, 14448.65
397.2611, 14297.34
397.7432, 14134.96
398.2253, 13990.04
398.7074, 13828.30
399.1895, 13665.04
399.6717, 13508.33
400.1538, 13333.05
400.6359, 13192.27
401.1180, 13027.91
401.6001, 12875.28
402.0822, 12725.29
402.5644, 12554.96
403.0465, 12296.56
403.5286, 12053.77
404.0107, 11818.36
404.4928, 11578.09
404.9749, 11333.20
405.4571, 11082.67
405.9392, 10812.57
406.4213, 10531.80
406.9034, 10306.06
407.3855, 10144.98
407.8676, 10001.08
408.3498, 9821.253
408.8319, 9611.605
409.3140, 9412.882
409.7961, 9238.382
410.2782, 9080.609
410.7603, 8920.832
411.2425, 8758.785
411.7246, 8613.607
412.2067, 8509.361
412.6888, 8427.851
413.1709, 8339.279
413.6530, 8233.014
414.1351, 8123.260
414.6172, 8018.773
415.0994, 7920.748
415.5815, 7826.423
416.0636, 7727.042
416.5457, 7636.203
417.0278, 7565.390
417.5099, 7521.900
417.9921, 7481.386
418.4742, 7430.118
418.9563, 7376.364
419.4384, 7332.481
419.9205, 7322.775
420.4026, 7304.184
420.8848, 7257.339
421.3669, 7176.847
421.8490, 7102.868
422.3311, 7035.191
422.8132, 6978.582
423.2953, 6937.278
423.7775, 6924.993
424.2596, 6909.104
424.7417, 6885.626
425.2238, 6855.436
425.7059, 6823.094
426.1880, 6786.653
426.6702, 6751.335
427.1523, 6720.716
427.6344, 6696.215
428.1165, 6671.118
428.5986, 6645.500
429.0807, 6618.797
429.5629, 6586.849
430.0450, 6548.167
430.5271, 6515.853
431.0092, 6496.615
431.4913, 6489.559
431.9734, 6494.062
432.4556, 6513.768
432.9377, 6527.583
433.4198, 6503.825
433.9019, 6450.425
434.3840, 6401.122
434.8661, 6375.777
435.3483, 6357.005
435.8304, 6312.308
436.3125, 6244.310
436.7946, 6184.510
437.2767, 6163.098
437.7589, 6161.078
438.2410, 6153.085
438.7231, 6126.702
439.2052, 6103.044
439.6873, 6106.155
440.1694, 6124.050
440.6516, 6123.746
441.1337, 6064.382
441.6158, 6002.928
442.0979, 5974.442
442.5800, 5995.041
443.0621, 6011.055
443.5443, 6008.589
444.0264, 5995.667
444.5085, 5983.079
444.9906, 5971.833
445.4727, 5961.227
445.9548, 5952.924
446.4370, 5947.324
446.9191, 5934.136
447.4012, 5907.773
447.8833, 5879.601
448.3654, 5857.582
448.8475, 5840.880
449.3297, 5833.846
449.8118, 5843.596
450.2939, 5860.261
450.7760, 5849.374
451.2581, 5805.721
451.7402, 5761.197
452.2224, 5735.134
452.7045, 5725.902
453.1866, 5714.561
453.6687, 5662.819
454.1508, 5703.729
454.6329, 5724.214
455.1151, 5725.372
455.5972, 5649.318
456.0793, 5672.968
456.5614, 5656.661
457.0435, 5638.716
457.5256, 5676.399
458.0077, 5611.576
458.4898, 5648.376
458.9720, 5644.609
459.4541, 5659.410
459.9362, 5634.007
460.4183, 5621.021
460.9004, 5648.252
461.3825, 5653.215
461.8647, 5623.183
462.3468, 5639.164
462.8289, 5572.936
463.3110, 5578.847
463.7931, 5615.883
464.2752, 5587.873
464.7574, 5604.588
465.2395, 5604.270
465.7216, 5526.540
466.2037, 5583.437
466.6858, 5582.112
467.1679, 5521.005
467.6501, 5573.289
468.1322, 5520.424
468.6143, 5505.091
469.0964, 5518.003
469.5785, 5501.471
470.0606, 5531.361
470.5428, 5516.528
471.0249, 5497.701
471.5070, 5496.311
471.9891, 5445.508
472.4712, 5488.533
472.9533, 5505.030
473.4355, 5534.463
473.9176, 5570.609
474.3997, 5590.163
474.8818, 5590.950
475.3639, 5587.881
475.8460, 5595.283
476.3282, 5609.960
476.8103, 5625.078
477.2924, 5638.800
477.7745, 5651.490
478.2566, 5664.359
478.7387, 5676.875
479.2209, 5685.880
479.7030, 5677.518
480.1851, 5672.478
480.6672, 5690.070
481.1493, 5752.037
481.6314, 5797.497
482.1136, 5793.483
482.5957, 5764.146
483.0778, 5751.997
483.5599, 5771.470
484.0420, 5800.028
484.5241, 5838.981
485.0063, 5891.201
485.4884, 5917.058
485.9705, 5900.943
486.4526, 5875.246
486.9347, 5868.916
487.4168, 5892.768
487.8990, 5897.929
488.3811, 5875.032
488.8632, 5832.046
489.3453, 5783.685
489.8274, 5726.789
490.3095, 5690.498
490.7917, 5708.108
491.2738, 5764.167
491.7559, 5781.806
492.2380, 5753.640
492.7201, 5716.229
493.2022, 5718.922
493.6844, 5743.941
494.1665, 5745.741
494.6486, 5690.036
495.1307, 5618.943
495.6128, 5571.014
496.0949, 5543.322
496.5771, 5521.894
497.0592, 5504.296
497.5413, 5486.303
498.0234, 5465.443
498.5055, 5442.737
498.9876, 5413.056
499.4698, 5369.316
499.9519, 5318.434
500.4340, 5271.796
500.9161, 5242.206
501.3982, 5204.099
501.8803, 5143.043
502.3624, 5057.851
502.8445, 5003.815
503.3267, 4995.947
503.8088, 5000.666
504.2909, 4991.683
504.7730, 4964.056
505.2551, 4945.138
505.7372, 4941.684
506.2194, 4944.094
506.7015, 4931.743
507.1836, 4904.669
507.6657, 4869.710
508.1478, 4818.584
508.6299, 4762.368
509.1121, 4741.707
509.5942, 4759.545
510.0763, 4781.396
510.5584, 4775.552
511.0405, 4751.742
511.5226, 4725.981
512.0048, 4694.854
512.4869, 4673.700
512.9690, 4684.699
513.4511, 4717.466
513.9332, 4736.905
514.4153, 4715.949
514.8975, 4687.284
515.3796, 4668.542
515.8617, 4664.002
516.3438, 4661.633
516.8259, 4662.596
517.3080, 4663.489
517.7902, 4660.011
518.2723, 4644.746
518.7544, 4637.012
519.2365, 4644.696
519.7186, 4663.507
520.2007, 4664.088
520.6829, 4638.969
521.1650, 4593.544
521.6471, 4624.628
522.1292, 4643.262
522.6113, 4650.052
523.0934, 4613.118
523.5756, 4629.892
524.0577, 4623.460
524.5398, 4614.925
525.0219, 4635.824
525.5040, 4599.070
525.9861, 4617.083
526.4683, 4611.550
526.9504, 4615.045
527.4325, 4595.196
527.9146, 4580.986
528.3967, 4587.722
528.8788, 4580.996
529.3610, 4553.791
529.8431, 4550.730
530.3252, 4501.192
530.8073, 4490.183
531.2894, 4475.997
531.7715, 4477.872
532.2537, 4479.771
532.7358, 4476.380
533.2179, 4467.686
533.7000, 4461.226
534.1821, 4460.439
534.6642, 4457.243
535.1464, 4446.523
535.6285, 4427.442
536.1106, 4402.842
536.5927, 4369.436
537.0748, 4335.503
537.5569, 4315.973
538.0391, 4310.678
538.5212, 4310.487
539.0033, 4317.542
539.4854, 4325.126
539.9675, 4314.431
540.4496, 4286.202
540.9318, 4258.421
541.4139, 4247.041
541.8960, 4243.607
542.3781, 4237.202
542.8602, 4224.981
543.3423, 4210.855
543.8245, 4192.158
544.3066, 4153.492
544.7887, 4173.322
545.2708, 4181.904
545.7529, 4179.842
546.2350, 4135.259
546.7172, 4145.582
547.1993, 4133.902
547.6814, 4121.320
548.1635, 4139.373
548.6456, 4100.973
549.1277, 4118.542
549.6099, 4113.766
550.0920, 4119.218
550.5741, 4102.528
551.0562, 4092.677
551.5383, 4104.974
552.0204, 4105.008
552.5026, 4085.768
552.9847, 4091.870
553.4668, 4052.697
553.9489, 4053.253
554.4310, 4070.949
554.9131, 4052.825
555.3953, 4059.329
555.8774, 4056.455
556.3595, 4010.947
556.8416, 4039.582
557.3237, 4036.153
557.8058, 3999.801
558.2880, 4025.894
558.7701, 3994.081
559.2522, 3982.937
559.7343, 3987.348
560.2164, 3975.544
560.6985, 3989.306
561.1807, 3978.436
561.6628, 3965.368
562.1449, 3961.903
562.6270, 3931.224
563.1091, 3951.032
563.5912, 3973.724
564.0734, 4010.370
564.5555, 4022.041
565.0376, 4006.743
565.5197, 3996.885
566.0018, 4008.687
566.4839, 4029.461
566.9661, 4019.428
567.4482, 3981.038
567.9303, 3952.356
568.4124, 3977.806
568.8945, 4022.371
569.3766, 4034.690
569.8587, 4001.395
570.3408, 3965.126
570.8229, 3949.043
571.3051, 3947.612
571.7872, 3953.477
572.2693, 3981.320
572.7514, 3998.532
573.2335, 3994.454
573.7156, 3970.861
574.1978, 3940.356
574.6799, 3883.130
575.1620, 3843.263
575.6441, 3845.223
576.1262, 3901.050
576.6083, 3937.862
577.0905, 3953.182
577.5726, 3953.022
578.0547, 3938.208
578.5368, 3909.224
579.0189, 3888.304
579.5010, 3880.044
579.9832, 3882.925
580.4653, 3901.645
580.9474, 3932.065
581.4295, 3954.336
581.9116, 3947.144
582.3937, 3932.045
582.8759, 3933.323
583.3580, 3953.239
583.8401, 3969.315
584.3222, 3967.393
584.8043, 3957.890
585.2864, 3949.914
585.7686, 3949.325
586.2507, 3945.215
586.7328, 3931.627
587.2149, 3914.536
587.6970, 3905.293
588.1791, 3903.129
588.6613, 3911.080
589.1434, 3935.854
589.6255, 3974.771
590.1076, 3989.189
590.5897, 3974.967
591.0718, 3956.529
591.5540, 3955.477
592.0361, 3967.549
592.5182, 3971.732
593.0003, 3962.969
593.4824, 3956.073
593.9645, 3973.786
594.4467, 4005.057
594.9288, 4027.453
595.4109, 4024.823
595.8930, 4016.128
596.3751, 4011.715
596.8572, 4010.807
597.3394, 4009.094
597.8215, 4005.516
598.3036, 4000.614
598.7857, 3991.292
599.2678, 3968.904
599.7499, 3972.791
600.2321, 4023.319
600.7142, 4079.563
601.1963, 4095.854
601.6784, 4062.310
602.1605, 4036.519
602.6426, 4027.402
603.1248, 4031.064
603.6069, 4043.400
604.0890, 4063.551
604.5711, 4078.077
605.0532, 4077.959
605.5353, 4069.045
606.0175, 4057.220
606.4996, 4043.026
606.9817, 4034.660
607.4638, 4036.092
607.9459, 4046.932
608.4280, 4069.099
608.9102, 4113.458
