##NAMES=Iranite
##RRUFFID=R060781
##IDEAL CHEMISTRY=Pb^2+^_10_Cu^2+^(Cr^6+^O_4_)_6_(SiO_4_)_2_(OH)_2_
##LOCALITY=Chapacase mine, Sierra Cerillos district, Tocopilla, Chile
##OWNER=RRUFF
##SOURCE=Michael Scott
##DESCRIPTION=Corroded aggregate of orange platy crystals associated with red wulfenite; structure type sample.
##STATUS=The identification of this mineral is confirmed by single-crystal X-ray diffraction and chemical analysis.
##URL=rruff.info/R060781
##MEASURED CHEMISTRY=Cu_1.00_Pb_10.00_((Cr_0.99_[box]_0.01_)_Σ=1_(O_3.82_(OH)_0.18_)_Σ=4_)_6_(Si_1.00_O_4_)_2_(OH)_2_
87.59052, 6621.415
88.07263, 7247.981
88.55475, 7850.123
89.03687, 8517.969
89.51898, 9275.592
90.00110, 10102.49
90.48322, 10966.66
90.96533, 11851.43
91.44745, 12754.01
91.92957, 13715.98
92.41168, 14760.43
92.89380, 15844.73
93.37592, 16951.60
93.85803, 18083.34
94.34015, 19250.79
94.82227, 20474.35
95.30438, 21763.63
95.78650, 23091.88
96.26862, 24462.60
96.75073, 25864.23
97.23285, 27284.47
97.71497, 28719.07
98.19708, 30178.31
98.67920, 31699.03
99.16132, 33356.41
99.64343, 34936.71
100.1255, 36419.39
100.6077, 37798.72
101.0898, 38929.31
101.5719, 39342.08
102.0540, 39310.20
102.5361, 39124.59
103.0182, 38812.69
103.5004, 38350.93
103.9825, 37707.38
104.4646, 36881.68
104.9467, 35924.40
105.4288, 34815.24
105.9109, 33603.70
106.3931, 32335.90
106.8752, 30984.82
107.3573, 29582.13
107.8394, 28262.16
108.3215, 27004.43
108.8036, 25851.24
109.2858, 24847.31
109.7679, 23960.34
110.2500, 23096.95
110.7321, 22148.87
111.2142, 21049.38
111.6964, 20102.91
112.1785, 19316.27
112.6606, 18644.27
113.1427, 18091.76
113.6248, 17648.28
114.1069, 17280.19
114.5891, 16931.88
115.0712, 16636.84
115.5533, 16316.14
116.0354, 15979.51
116.5175, 15615.75
116.9996, 15177.73
117.4818, 14631.98
117.9639, 13945.70
118.4460, 13851.53
118.9281, 13713.21
119.4102, 13533.48
119.8923, 13167.66
120.3745, 13057.90
120.8566, 12855.21
121.3387, 12655.32
121.8208, 12601.37
122.3029, 12298.10
122.7850, 12255.74
123.2672, 12118.85
123.7493, 12035.29
124.2314, 11858.14
124.7135, 11718.93
125.1956, 11687.12
125.6777, 11606.56
126.1599, 11445.42
126.6420, 11406.19
127.1241, 11168.39
127.6062, 11211.91
128.0883, 11283.03
128.5704, 11350.29
129.0526, 11362.15
129.5347, 11321.81
130.0168, 11257.12
130.4989, 11182.36
130.9810, 11093.59
131.4631, 11021.59
131.9453, 10980.56
132.4274, 10951.25
132.9095, 10936.77
133.3916, 10934.96
133.8737, 10921.40
134.3558, 10846.50
134.8380, 10648.92
135.3201, 10503.21
135.8022, 10448.16
136.2843, 10434.35
136.7664, 10415.29
137.2485, 10368.28
137.7307, 10307.18
138.2128, 10288.07
138.6949, 10374.79
139.1770, 10437.79
139.6591, 10443.34
140.1412, 10412.42
140.6234, 10382.20
141.1055, 10376.88
141.5876, 10396.56
142.0697, 10423.62
142.5518, 10469.19
143.0339, 10510.88
143.5161, 10535.43
143.9982, 10543.86
144.4803, 10547.67
144.9624, 10555.55
145.4445, 10568.11
145.9266, 10586.47
146.4088, 10610.06
146.8909, 10639.74
147.3730, 10678.12
147.8551, 10726.84
148.3372, 10778.83
148.8193, 10826.08
149.3015, 10869.16
149.7836, 10912.77
150.2657, 10961.51
150.7478, 11012.40
151.2299, 11058.67
151.7120, 11101.25
152.1942, 11134.22
152.6763, 11154.13
153.1584, 11160.96
153.6405, 11159.48
154.1226, 11153.30
154.6047, 11142.42
155.0869, 11124.25
155.5690, 11094.25
156.0511, 11058.14
156.5332, 11019.11
157.0153, 10977.87
157.4974, 10933.06
157.9796, 10884.85
158.4617, 10837.37
158.9438, 10773.30
159.4259, 10690.36
159.9080, 10591.28
160.3901, 10473.15
160.8723, 10333.24
161.3544, 10182.40
161.8365, 10054.46
162.3186, 9970.458
162.8007, 9884.328
163.2828, 9793.984
163.7650, 9696.256
164.2471, 9584.846
164.7292, 9454.840
165.2113, 9308.974
165.6934, 9182.447
166.1755, 9118.843
166.6577, 9029.407
167.1398, 8866.046
167.6219, 8656.753
168.1040, 8464.890
168.5861, 8345.028
169.0682, 8305.270
169.5504, 8235.020
170.0325, 8115.025
170.5146, 7988.070
170.9967, 7874.884
171.4788, 7776.488
171.9609, 7683.000
172.4431, 7583.750
172.9252, 7476.717
173.4073, 7378.263
173.8894, 7298.510
174.3715, 7222.027
174.8536, 7134.889
175.3358, 7034.439
175.8179, 6928.080
176.3000, 6819.719
176.7821, 6707.589
177.2642, 6614.399
177.7463, 6560.637
178.2285, 6525.475
178.7106, 6473.415
179.1927, 6392.799
179.6748, 6302.195
180.1569, 6225.795
180.6390, 6162.869
181.1212, 6102.863
181.6033, 6035.050
182.0854, 5964.136
182.5675, 5912.201
183.0496, 5895.391
183.5317, 5889.303
184.0139, 5866.607
184.4960, 5825.602
184.9781, 5779.585
185.4602, 5740.030
185.9423, 5707.123
186.4244, 5667.871
186.9066, 5606.978
187.3887, 5546.238
187.8708, 5503.475
188.3529, 5482.907
188.8350, 5473.408
189.3171, 5464.877
189.7993, 5459.711
190.2814, 5445.922
190.7635, 5420.798
191.2456, 5386.145
191.7277, 5338.537
192.2098, 5275.675
192.6920, 5208.391
193.1741, 5157.410
193.6562, 5127.742
194.1383, 5106.231
194.6204, 5099.332
195.1025, 5093.995
195.5847, 5076.851
196.0668, 5041.319
196.5489, 4991.709
197.0310, 4939.957
197.5131, 4871.025
197.9952, 4821.718
198.4774, 4814.388
198.9595, 4824.633
199.4416, 4819.330
199.9237, 4777.271
200.4058, 4706.384
200.8879, 4660.437
201.3701, 4672.856
201.8522, 4663.223
202.3343, 4653.040
202.8164, 4636.854
203.2985, 4615.090
203.7806, 4565.357
204.2628, 4556.083
204.7449, 4533.256
205.2270, 4511.693
205.7091, 4513.544
206.1912, 4477.644
206.6733, 4482.949
207.1555, 4474.458
207.6376, 4475.049
208.1197, 4461.986
208.6018, 4455.624
209.0839, 4466.715
209.5660, 4471.091
210.0482, 4463.829
210.5303, 4476.261
211.0124, 4463.332
211.4945, 4473.293
211.9766, 4490.724
212.4588, 4503.389
212.9409, 4510.162
213.4230, 4513.537
213.9051, 4513.109
214.3872, 4509.521
214.8693, 4507.119
215.3515, 4509.356
215.8336, 4516.968
216.3157, 4529.798
216.7978, 4559.326
217.2799, 4587.348
217.7620, 4591.633
218.2442, 4569.271
218.7263, 4547.088
219.2084, 4555.017
219.6905, 4592.846
220.1726, 4625.425
220.6547, 4644.909
221.1369, 4644.715
221.6190, 4682.662
222.1011, 4712.709
222.5832, 4735.280
223.0653, 4727.985
223.5474, 4759.255
224.0296, 4775.075
224.5117, 4790.257
224.9938, 4826.956
225.4759, 4824.005
225.9580, 4860.362
226.4401, 4881.028
226.9223, 4908.880
227.4044, 4921.177
227.8865, 4938.277
228.3686, 4970.933
228.8507, 4962.258
229.3328, 4977.080
229.8150, 5006.992
230.2971, 5040.175
230.7792, 5072.143
231.2613, 5101.359
231.7434, 5114.531
232.2255, 5096.735
232.7077, 5056.366
233.1898, 5020.822
233.6719, 4993.572
234.1540, 4972.143
234.6361, 4953.222
235.1182, 4937.040
235.6004, 4925.250
236.0825, 4924.139
236.5646, 4930.417
237.0467, 4925.490
237.5288, 4902.970
238.0109, 4873.360
238.4931, 4840.284
238.9752, 4805.605
239.4573, 4777.812
239.9394, 4768.824
240.4215, 4776.071
240.9036, 4772.216
241.3858, 4751.205
241.8679, 4721.436
242.3500, 4686.833
242.8321, 4648.307
243.3142, 4608.305
243.7963, 4566.840
244.2785, 4524.089
244.7606, 4487.464
245.2427, 4458.262
245.7248, 4435.472
246.2069, 4422.556
246.6890, 4416.972
247.1712, 4408.346
247.6533, 4384.456
248.1354, 4344.423
248.6175, 4313.554
249.0996, 4300.774
249.5817, 4290.403
250.0639, 4271.768
250.5460, 4247.340
251.0281, 4229.138
251.5102, 4232.358
251.9923, 4259.563
252.4744, 4275.244
252.9566, 4268.722
253.4387, 4258.484
253.9208, 4250.311
254.4029, 4244.912
254.8850, 4241.615
255.3671, 4237.607
255.8493, 4231.607
256.3314, 4237.947
256.8135, 4280.939
257.2956, 4316.025
257.7777, 4319.303
258.2598, 4296.673
258.7419, 4272.869
259.2241, 4273.020
259.7062, 4300.376
260.1883, 4316.071
260.6704, 4310.630
261.1525, 4300.459
261.6346, 4281.868
262.1168, 4261.262
262.5989, 4254.844
263.0810, 4282.939
263.5631, 4350.021
264.0452, 4395.211
264.5273, 4385.558
265.0095, 4381.930
265.4916, 4412.793
265.9737, 4468.996
266.4558, 4521.301
266.9379, 4529.390
267.4200, 4581.552
267.9022, 4625.819
268.3843, 4662.606
268.8664, 4669.524
269.3485, 4715.011
269.8306, 4745.040
270.3127, 4774.437
270.7949, 4825.356
271.2770, 4836.621
271.7591, 4887.192
272.2412, 4922.074
272.7233, 4964.136
273.2054, 4990.648
273.6876, 5021.969
274.1697, 5068.841
274.6518, 5107.097
275.1339, 5131.820
275.6160, 5174.338
276.0981, 5185.060
276.5803, 5223.689
277.0624, 5274.354
277.5445, 5299.856
278.0266, 5342.661
278.5087, 5387.710
278.9908, 5465.183
279.4730, 5527.142
279.9551, 5552.668
280.4372, 5583.730
280.9193, 5626.427
281.4014, 5680.981
281.8835, 5748.624
282.3657, 5832.514
282.8478, 5927.945
283.3299, 6004.857
283.8120, 6041.910
284.2941, 6084.156
284.7762, 6139.410
285.2584, 6204.680
285.7405, 6276.127
286.2226, 6352.366
286.7047, 6431.311
287.1868, 6506.821
287.6689, 6575.827
288.1511, 6644.268
288.6332, 6705.377
289.1153, 6768.679
289.5974, 6849.042
290.0795, 6954.359
290.5616, 7072.532
291.0438, 7164.409
291.5259, 7200.837
292.0080, 7254.775
292.4901, 7339.304
292.9722, 7442.551
293.4543, 7555.875
293.9365, 7675.790
294.4186, 7797.494
294.9007, 7910.208
295.3828, 8010.827
295.8649, 8108.146
296.3470, 8198.897
296.8292, 8289.802
297.3113, 8386.392
297.7934, 8490.943
298.2755, 8599.795
298.7576, 8705.253
299.2397, 8802.279
299.7219, 8908.642
300.2040, 9043.546
300.6861, 9175.387
301.1682, 9276.812
301.6503, 9343.896
302.1324, 9401.434
302.6146, 9485.515
303.0967, 9609.664
303.5788, 9718.426
304.0609, 9803.304
304.5430, 9877.892
305.0251, 9946.468
305.5073, 10010.76
305.9894, 10072.62
306.4715, 10133.22
306.9536, 10191.26
307.4357, 10254.00
307.9178, 10313.58
308.4000, 10384.54
308.8821, 10480.54
309.3642, 10596.83
309.8463, 10713.27
310.3284, 10803.17
310.8105, 10863.57
311.2927, 10970.15
311.7748, 11151.67
312.2569, 11356.86
312.7390, 11567.40
313.2211, 11785.94
313.7032, 12024.38
314.1854, 12288.41
314.6675, 12578.40
315.1496, 12892.41
315.6317, 13209.52
316.1138, 13584.12
316.5959, 14035.88
317.0781, 14551.62
317.5602, 15106.46
318.0423, 15688.51
318.5244, 16299.25
319.0065, 16941.15
319.4886, 17604.83
319.9708, 18321.36
320.4529, 19083.64
320.9350, 19901.01
321.4171, 20786.51
321.8992, 21761.03
322.3813, 22792.57
322.8635, 23806.92
323.3456, 24782.30
323.8277, 25820.58
324.3098, 26988.46
324.7919, 28220.99
325.2740, 29464.63
325.7562, 30697.48
326.2383, 31957.50
326.7204, 33304.64
327.2025, 34740.19
327.6846, 36209.41
328.1667, 37677.31
328.6489, 39186.37
329.1310, 40759.96
329.6131, 42398.69
330.0952, 44099.04
330.5773, 45901.54
331.0594, 47797.86
331.5416, 49575.37
332.0237, 51169.66
332.5058, 52655.17
332.9879, 54156.02
333.4700, 55662.30
333.9521, 57008.05
334.4343, 58091.57
334.9164, 58940.69
335.3985, 59635.23
335.8806, 60172.84
336.3628, 60582.29
336.8449, 60899.44
337.3270, 61125.33
337.8091, 61236.85
338.2912, 61126.21
338.7733, 60923.89
339.2555, 60849.93
339.7376, 60924.85
340.2197, 61086.08
340.7018, 61299.02
341.1839, 61566.11
341.6660, 61900.67
342.1482, 62358.33
342.6303, 62850.63
343.1124, 63301.36
343.5945, 63709.71
344.0766, 64090.98
344.5587, 64488.45
345.0409, 64843.10
345.5230, 65029.99
346.0051, 65039.78
346.4872, 64894.11
346.9693, 64579.08
347.4514, 64111.57
347.9336, 63543.34
348.4157, 62869.05
348.8978, 62136.68
349.3799, 61446.13
349.8620, 60791.98
350.3441, 60175.29
350.8263, 59616.31
351.3084, 59089.06
351.7905, 58554.17
352.2726, 57995.51
352.7547, 57437.17
353.2368, 56931.78
353.7190, 56536.77
354.2011, 56006.10
354.6832, 55296.86
355.1653, 54453.35
355.6474, 53519.24
356.1295, 52499.99
356.6117, 51365.48
357.0938, 50074.97
357.5759, 48600.72
358.0580, 47097.50
358.5401, 45532.61
359.0222, 43972.25
359.5044, 42426.88
359.9865, 40915.53
360.4686, 39442.24
360.9507, 38024.42
361.4328, 36657.86
361.9149, 35377.34
362.3971, 34141.57
362.8792, 33020.58
363.3613, 32054.44
363.8434, 31214.99
364.3255, 30453.70
364.8076, 29745.90
365.2898, 29107.90
365.7719, 28601.11
366.2540, 28263.76
366.7361, 28021.94
367.2182, 27906.71
367.7003, 27856.28
368.1825, 27825.83
368.6646, 27799.29
369.1467, 27773.83
369.6288, 27758.69
370.1109, 27792.86
370.5930, 27724.43
371.0752, 27512.76
371.5573, 27233.17
372.0394, 26918.39
372.5215, 26573.26
373.0036, 26191.52
373.4857, 25751.63
373.9679, 25252.58
374.4500, 24783.88
374.9321, 24322.89
375.4142, 23926.60
375.8963, 23612.37
376.3784, 23375.98
376.8606, 23205.77
377.3427, 23098.53
377.8248, 23050.88
378.3069, 23062.02
378.7890, 23150.04
379.2711, 23251.16
379.7533, 23364.87
380.2354, 23466.31
380.7175, 23530.31
381.1996, 23558.32
381.6817, 23526.81
382.1638, 23404.77
382.6460, 23192.60
383.1281, 22917.79
383.6102, 22551.50
384.0923, 22157.08
384.5744, 21804.46
385.0565, 21490.21
385.5387, 21239.19
386.0208, 21071.62
386.5029, 20977.03
386.9850, 20941.90
387.4671, 20978.16
387.9492, 21032.47
388.4314, 21058.70
388.9135, 21058.99
389.3956, 21012.98
389.8777, 20917.41
390.3598, 20772.93
390.8419, 20566.54
391.3241, 20301.73
391.8062, 20017.55
392.2883, 19732.17
392.7704, 19450.48
393.2525, 19203.27
393.7346, 18995.29
394.2168, 18814.92
394.6989, 18653.52
395.1810, 18516.14
395.6631, 18415.27
396.1452, 18359.65
396.6273, 18335.93
397.1095, 18309.42
397.5916, 18307.18
398.0737, 18265.18
398.5558, 18166.41
399.0379, 18034.41
399.5201, 17901.23
400.0022, 17770.11
400.4843, 17607.32
400.9664, 17370.31
401.4485, 17053.87
401.9306, 16676.02
402.4128, 16198.97
402.8949, 15700.58
403.3770, 15216.61
403.8591, 14744.29
404.3412, 14266.31
404.8233, 13770.46
405.3055, 13255.42
405.7876, 12737.09
406.2697, 12206.54
406.7518, 11682.61
407.2339, 11156.26
407.7160, 10641.87
408.1982, 10155.07
408.6803, 9704.087
409.1624, 9284.015
409.6445, 8894.276
410.1266, 8539.678
410.6087, 8196.231
411.0909, 7861.871
411.5730, 7538.282
412.0551, 7222.362
412.5372, 6915.052
413.0193, 6631.921
413.5014, 6394.866
413.9836, 6194.637
414.4657, 5991.325
414.9478, 5773.296
415.4299, 5567.773
415.9120, 5398.588
416.3941, 5259.230
416.8763, 5135.469
417.3584, 5038.286
417.8405, 4944.718
418.3226, 4825.175
418.8047, 4680.286
419.2868, 4543.496
419.7690, 4431.193
420.2511, 4341.878
420.7332, 4265.752
421.2153, 4214.847
421.6974, 4158.782
422.1795, 4079.050
422.6617, 3988.527
423.1438, 3909.095
423.6259, 3848.079
424.1080, 3796.932
424.5901, 3743.132
425.0722, 3684.248
425.5544, 3628.953
426.0365, 3575.204
426.5186, 3526.493
427.0007, 3488.285
427.4828, 3458.667
427.9649, 3430.063
428.4471, 3397.228
428.9292, 3360.075
429.4113, 3313.433
429.8934, 3241.491
430.3755, 3177.182
430.8576, 3129.815
431.3398, 3092.735
431.8219, 3057.866
432.3040, 3021.949
432.7861, 2983.407
433.2682, 2937.175
433.7503, 2879.267
434.2325, 2826.884
434.7146, 2782.155
435.1967, 2744.113
435.6788, 2718.951
436.1609, 2704.425
436.6430, 2682.014
437.1252, 2629.458
437.6073, 2554.303
438.0894, 2495.990
438.5715, 2460.508
439.0536, 2433.607
439.5357, 2406.197
440.0179, 2379.975
440.5000, 2344.477
440.9821, 2339.886
441.4642, 2327.906
441.9463, 2308.963
442.4284, 2260.664
442.9106, 2251.438
443.3927, 2227.274
443.8748, 2202.988
444.3569, 2200.729
444.8390, 2159.332
445.3211, 2157.755
445.8033, 2140.995
446.2854, 2131.932
446.7675, 2107.830
447.2496, 2089.041
447.7317, 2086.321
448.2138, 2075.498
448.6960, 2051.648
449.1781, 2046.111
449.6602, 2009.286
450.1423, 2000.876
450.6244, 2005.018
451.1065, 1984.510
451.5887, 1981.812
452.0708, 1973.039
452.5529, 1934.835
453.0350, 1949.215
453.5171, 1941.588
453.9992, 1911.348
454.4814, 1925.477
454.9635, 1899.448
455.4456, 1888.448
455.9277, 1888.885
456.4098, 1878.444
456.8919, 1886.471
457.3741, 1877.709
457.8562, 1870.277
458.3383, 1839.581
458.8204, 1850.667
459.3025, 1853.853
459.7846, 1849.563
460.2668, 1815.405
460.7489, 1819.815
461.2310, 1808.770
461.7131, 1797.090
462.1952, 1806.928
462.6773, 1777.115
463.1595, 1786.611
463.6416, 1780.416
464.1237, 1781.403
464.6058, 1766.838
465.0879, 1757.077
465.5700, 1745.761
466.0522, 1725.620
466.5343, 1716.345
467.0164, 1720.936
467.4985, 1732.957
467.9806, 1747.977
468.4627, 1766.658
468.9449, 1776.771
469.4270, 1774.917
469.9091, 1769.513
470.3912, 1761.070
470.8733, 1751.832
471.3554, 1744.625
471.8376, 1740.747
472.3197, 1740.341
472.8018, 1744.173
473.2839, 1754.745
473.7660, 1764.201
474.2481, 1770.941
474.7303, 1777.420
475.2124, 1783.176
475.6945, 1789.426
476.1766, 1800.572
476.6587, 1822.584
477.1408, 1853.152
477.6230, 1879.785
478.1051, 1885.422
478.5872, 1916.798
479.0693, 1940.276
479.5514, 1956.276
480.0335, 1942.411
480.5157, 1967.114
480.9978, 1976.360
481.4799, 1984.971
481.9620, 2015.100
482.4441, 2005.578
482.9262, 2035.366
483.4084, 2049.464
483.8905, 2070.742
484.3726, 2076.469
484.8547, 2086.999
485.3368, 2113.084
485.8189, 2111.302
486.3011, 2118.254
486.7832, 2123.433
487.2653, 2125.031
487.7474, 2122.100
488.2295, 2114.274
488.7116, 2099.991
489.1938, 2069.965
489.6759, 2044.770
490.1580, 2029.266
490.6401, 2017.059
491.1222, 2002.773
491.6043, 1985.103
492.0865, 1965.317
492.5686, 1944.460
493.0507, 1922.626
493.5328, 1899.644
494.0149, 1876.036
494.4970, 1850.486
494.9792, 1820.440
495.4613, 1788.595
495.9434, 1760.281
496.4255, 1739.742
496.9076, 1719.388
497.3897, 1688.317
497.8719, 1647.136
498.3540, 1606.635
498.8361, 1568.340
499.3182, 1534.328
499.8003, 1508.604
500.2824, 1491.002
500.7646, 1474.797
501.2467, 1459.281
501.7288, 1443.614
502.2109, 1429.790
502.6930, 1416.399
503.1751, 1393.528
503.6573, 1351.823
504.1394, 1296.540
504.6215, 1258.475
505.1036, 1253.842
505.5857, 1245.858
506.0678, 1224.037
506.5500, 1200.499
507.0321, 1187.990
507.5142, 1188.894
507.9963, 1196.115
508.4784, 1204.183
508.9605, 1214.036
509.4427, 1211.655
509.9248, 1186.073
510.4069, 1161.899
510.8890, 1152.967
511.3711, 1150.795
511.8532, 1139.474
512.3353, 1109.287
512.8174, 1076.854
513.2996, 1062.852
513.7817, 1066.211
514.2638, 1075.501
514.7459, 1092.906
515.2280, 1107.195
515.7101, 1098.930
516.1923, 1068.711
516.6744, 1048.199
517.1565, 1050.296
517.6386, 1060.321
518.1207, 1067.175
518.6028, 1070.475
519.0850, 1072.837
519.5671, 1075.577
520.0492, 1078.835
520.5313, 1083.095
521.0134, 1088.446
521.4955, 1094.815
521.9777, 1104.104
522.4598, 1113.104
522.9419, 1118.167
523.4240, 1119.675
523.9061, 1121.876
524.3882, 1129.865
524.8704, 1142.567
525.3525, 1148.420
525.8346, 1142.880
526.3167, 1138.818
526.7988, 1144.141
527.2809, 1152.408
527.7631, 1128.031
528.2452, 1140.833
528.7273, 1145.734
529.2094, 1143.159
529.6915, 1110.718
530.1736, 1116.844
530.6558, 1107.513
531.1379, 1097.549
531.6200, 1109.103
532.1021, 1081.006
532.5842, 1092.218
533.0663, 1087.739
533.5485, 1090.440
534.0306, 1077.592
534.5127, 1069.547
534.9948, 1077.057
535.4769, 1075.954
535.9590, 1061.403
536.4412, 1047.057
536.9233, 1011.023
537.4054, 983.0013
537.8875, 970.1442
538.3696, 958.0664
538.8517, 937.9737
539.3339, 913.5679
539.8160, 894.7074
540.2981, 887.5759
540.7802, 887.5599
541.2623, 888.6448
541.7444, 891.7953
542.2266, 885.1925
542.7087, 857.9605
543.1908, 826.6292
543.6729, 811.5240
544.1550, 813.0764
544.6371, 813.4639
545.1193, 803.7736
545.6014, 791.9517
546.0835, 786.7920
546.5656, 788.0424
547.0477, 791.1190
547.5298, 794.2634
548.0120, 795.8700
548.4941, 790.3990
548.9762, 764.2252
549.4583, 748.7265
549.9404, 755.9556
550.4225, 765.8035
550.9047, 760.4331
551.3868, 740.2568
551.8689, 719.0680
552.3510, 708.0822
552.8331, 705.9142
553.3152, 705.9005
553.7974, 710.6033
554.2795, 711.5302
554.7616, 699.5536
555.2437, 685.2851
555.7258, 680.5992
556.2079, 688.3806
556.6901, 695.3034
557.1722, 691.6378
557.6543, 681.9959
558.1364, 673.4435
558.6185, 666.8365
559.1006, 666.0793
559.5828, 676.4695
560.0649, 695.6307
560.5470, 704.4781
561.0291, 697.5142
561.5112, 688.8577
561.9933, 678.4369
562.4755, 669.4370
562.9576, 668.0860
563.4397, 674.1811
563.9218, 677.5216
564.4039, 664.2930
564.8860, 634.5165
565.3682, 620.9899
565.8503, 633.2813
566.3324, 647.7919
566.8145, 661.4484
567.2966, 670.2266
567.7787, 667.0315
568.2609, 648.3482
568.7430, 627.9879
569.2251, 617.5242
569.7072, 614.3290
570.1893, 609.8763
570.6714, 602.0459
571.1536, 598.9316
571.6357, 611.0130
572.1178, 635.9726
572.5999, 643.9207
573.0820, 618.7065
573.5641, 596.7831
574.0463, 592.3565
574.5284, 596.7989
575.0105, 598.2676
575.4926, 593.9697
575.9747, 590.1027
576.4568, 595.4060
576.9390, 610.9133
577.4211, 618.3547
577.9032, 614.6333
578.3853, 606.6236
578.8674, 591.5906
579.3495, 576.1524
579.8317, 570.1207
