##NAMES=Iriginite
##RRUFFID=R060269
##IDEAL CHEMISTRY=(U^6+^O_2_)Mo^6+^_2_O_7_&#183;3H_2_O
##LOCALITY=Hervey's Range Deposit, 55 kilometers west of Townsville, Queensland, Australia
##OWNER=RRUFF
##SOURCE=Michael Scott
##DESCRIPTION=Tan colored radial group of acicular prismatic crystals
##STATUS=The identification of this mineral is confirmed by single-crystal X-ray diffraction and chemical analysis.
##URL=rruff.info/R060269
##MEASURED CHEMISTRY=(UO_2_)Mo^6+^_2_O_7_Â·3H_2_O
90.01007, 0.0000000E+00
90.49219, 14.35322
90.97430, 13.80942
91.45642, 13.61652
91.93854, 14.23880
92.42065, 15.07547
92.90277, 15.12443
93.38489, 14.20125
93.86700, 13.05253
94.34912, 12.61396
94.83124, 12.78802
95.31335, 13.03084
95.79547, 12.88247
96.27759, 12.49057
96.75970, 12.51470
97.24182, 13.16774
97.72394, 14.12650
98.20605, 14.70527
98.68817, 14.87950
99.17029, 14.88031
99.65240, 14.91733
100.1345, 15.00562
100.6166, 14.83987
101.0988, 14.12917
101.5809, 13.03393
102.0630, 13.02249
102.5451, 14.47345
103.0272, 16.33396
103.5093, 17.50605
103.9915, 17.89523
104.4736, 17.79575
104.9557, 17.13264
105.4378, 15.73105
105.9199, 14.75862
106.4020, 14.33871
106.8842, 14.28176
107.3663, 14.26214
107.8484, 14.31842
108.3305, 14.36775
108.8126, 14.38569
109.2947, 14.39418
109.7769, 14.33410
110.2590, 14.11526
110.7411, 13.81148
111.2232, 13.65801
111.7053, 13.86931
112.1874, 14.08355
112.6696, 14.13673
113.1517, 13.49028
113.6338, 13.24506
114.1159, 13.89532
114.5980, 15.26933
115.0801, 16.15319
115.5623, 15.78148
116.0444, 15.03583
116.5265, 14.59953
117.0086, 14.87554
117.4907, 15.28877
117.9728, 15.74381
118.4550, 16.24204
118.9371, 16.44765
119.4192, 15.94450
119.9013, 15.12087
120.3834, 14.47935
120.8655, 14.25033
121.3477, 14.25905
121.8298, 14.36070
122.3119, 14.51976
122.7940, 14.90020
123.2761, 16.07132
123.7582, 17.59161
124.2404, 18.47794
124.7225, 17.25414
125.2046, 15.43157
125.6867, 15.05949
126.1688, 16.81405
126.6509, 19.11904
127.1331, 20.09668
127.6152, 20.01024
128.0973, 20.16844
128.5794, 21.95882
129.0615, 24.67340
129.5436, 26.52321
130.0258, 26.75350
130.5079, 26.34529
130.9900, 26.94740
131.4721, 28.55418
131.9542, 30.83489
132.4363, 33.68188
132.9185, 37.03913
133.4006, 40.47611
133.8827, 43.66147
134.3648, 46.85096
134.8469, 51.29823
135.3290, 57.12452
135.8112, 63.70584
136.2933, 70.14476
136.7754, 76.41207
137.2575, 83.40683
137.7396, 91.48055
138.2217, 100.4874
138.7039, 110.4150
139.1860, 121.4888
139.6681, 133.1580
140.1502, 144.8657
140.6323, 156.4924
141.1144, 168.1727
141.5966, 180.0497
142.0787, 192.1690
142.5608, 204.1023
143.0429, 216.1590
143.5250, 227.8361
144.0071, 237.5627
144.4893, 243.7289
144.9714, 250.4248
145.4535, 259.4680
145.9356, 272.1000
146.4177, 284.7449
146.8998, 296.8532
147.3820, 308.8925
147.8641, 323.4811
148.3462, 342.2148
148.8283, 361.8092
149.3104, 380.6774
149.7925, 396.5762
150.2747, 414.5703
150.7568, 435.8055
151.2389, 459.9194
151.7210, 482.5104
152.2031, 502.0460
152.6852, 520.7670
153.1674, 540.2835
153.6495, 563.5558
154.1316, 584.4069
154.6137, 601.0264
155.0958, 613.3191
155.5779, 626.2508
156.0601, 641.6931
156.5422, 657.4697
157.0243, 671.5361
157.5064, 681.1443
157.9885, 691.2342
158.4706, 703.2872
158.9528, 717.5434
159.4349, 732.3392
159.9170, 747.6796
160.3991, 763.2077
160.8812, 778.5107
161.3633, 791.6250
161.8455, 805.9664
162.3276, 823.5441
162.8097, 844.8803
163.2918, 866.5784
163.7739, 885.9907
164.2560, 903.9223
164.7382, 917.4328
165.2203, 934.8641
165.7024, 953.0001
166.1845, 969.2930
166.6666, 984.2081
167.1487, 995.1448
167.6309, 999.1588
168.1130, 998.3645
168.5951, 997.1234
169.0772, 999.9260
169.5593, 1001.940
170.0414, 998.7991
170.5236, 988.8022
171.0057, 975.9597
171.4878, 962.0489
171.9699, 947.3019
172.4520, 932.7476
172.9341, 918.6989
173.4163, 905.0806
173.8984, 891.8041
174.3805, 878.7043
174.8626, 866.0480
175.3447, 853.6927
175.8268, 841.6512
176.3090, 830.0071
176.7911, 818.0517
177.2732, 806.7183
177.7553, 797.6293
178.2374, 791.2231
178.7195, 787.1035
179.2017, 785.3366
179.6838, 785.7294
180.1659, 786.7267
180.6480, 787.4378
181.1301, 787.8483
181.6122, 787.8363
182.0944, 786.7267
182.5765, 785.6395
183.0586, 786.7504
183.5407, 790.0132
184.0228, 793.9039
184.5049, 796.9919
184.9871, 799.5438
185.4692, 802.4006
185.9513, 805.9518
186.4334, 809.9440
186.9155, 814.0002
187.3976, 818.1240
187.8798, 822.0728
188.3619, 825.2344
188.8440, 827.8281
189.3261, 831.0953
189.8082, 835.9418
190.2903, 841.7969
190.7725, 846.2741
191.2546, 849.1356
191.7367, 852.1776
192.2188, 857.9118
192.7009, 866.2407
193.1830, 874.4394
193.6652, 881.2432
194.1473, 887.0021
194.6294, 893.5820
195.1115, 901.0959
195.5936, 909.0421
196.0757, 916.8152
196.5579, 924.4117
197.0400, 932.0010
197.5221, 940.3017
198.0042, 949.1002
198.4863, 955.1485
198.9684, 957.9879
199.4506, 959.0436
199.9327, 960.8978
200.4148, 963.9125
200.8969, 964.6680
201.3790, 961.4193
201.8611, 954.0681
202.3433, 945.5243
202.8254, 935.3815
203.3075, 924.6224
203.7896, 915.1321
204.2717, 907.0416
204.7538, 899.1933
205.2360, 891.1934
205.7181, 883.0558
206.2002, 874.4407
206.6823, 865.0396
207.1644, 855.5251
207.6465, 846.8385
208.1287, 838.7903
208.6108, 832.5035
209.0929, 829.1408
209.5750, 829.5346
210.0571, 828.3312
210.5392, 825.2440
211.0214, 820.8367
211.5035, 815.9163
211.9856, 810.0517
212.4677, 805.0319
212.9498, 801.7816
213.4319, 800.6645
213.9140, 799.8582
214.3962, 799.1663
214.8783, 798.8816
215.3604, 799.8834
215.8425, 802.7620
216.3246, 805.5773
216.8067, 807.3663
217.2889, 807.7051
217.7710, 808.4356
218.2531, 809.9180
218.7352, 811.6085
219.2173, 811.9769
219.6994, 809.9948
220.1816, 808.6346
220.6637, 809.5284
221.1458, 813.9173
221.6279, 816.9255
222.1100, 818.0001
222.5921, 817.8796
223.0743, 818.3810
223.5564, 819.2720
224.0385, 821.2370
224.5206, 824.7343
225.0027, 830.5124
225.4848, 835.9327
225.9670, 840.6638
226.4491, 845.0745
226.9312, 850.1868
227.4133, 855.9532
227.8954, 862.4554
228.3775, 869.5703
228.8597, 877.3610
229.3418, 885.8328
229.8239, 894.9011
230.3060, 904.6598
230.7881, 915.0781
231.2702, 926.1544
231.7524, 938.0599
232.2345, 950.9025
232.7166, 965.7545
233.1987, 979.4332
233.6808, 991.5361
234.1629, 1002.504
234.6451, 1013.583
235.1272, 1024.098
235.6093, 1035.651
236.0914, 1049.496
236.5735, 1068.386
237.0556, 1083.207
237.5378, 1092.532
238.0199, 1098.265
238.5020, 1105.131
238.9841, 1113.812
239.4662, 1122.780
239.9483, 1131.757
240.4305, 1141.891
240.9126, 1148.974
241.3947, 1151.712
241.8768, 1151.785
242.3589, 1153.401
242.8410, 1157.466
243.3232, 1161.623
243.8053, 1164.892
244.2874, 1167.122
244.7695, 1168.782
245.2516, 1169.828
245.7337, 1170.330
246.2159, 1170.696
246.6980, 1172.168
247.1801, 1171.561
247.6622, 1167.415
248.1443, 1158.589
248.6264, 1149.424
249.1086, 1140.101
249.5907, 1130.316
250.0728, 1119.341
250.5549, 1106.649
251.0370, 1093.640
251.5191, 1080.636
252.0013, 1067.492
252.4834, 1055.186
252.9655, 1044.072
253.4476, 1033.666
253.9297, 1023.038
254.4118, 1011.750
254.8940, 1001.243
255.3761, 992.2990
255.8582, 985.4965
256.3403, 977.7673
256.8224, 968.9332
257.3046, 959.3193
257.7867, 949.4885
258.2688, 938.9050
258.7509, 929.1090
259.2330, 920.9065
259.7151, 914.5973
260.1973, 907.9338
260.6794, 901.1594
261.1615, 893.9608
261.6436, 885.9638
262.1257, 876.8129
262.6078, 867.5801
263.0900, 858.6998
263.5721, 850.1406
264.0542, 841.3375
264.5363, 831.8650
265.0184, 822.5322
265.5005, 814.0684
265.9827, 806.6579
266.4648, 799.7327
266.9469, 793.0479
267.4290, 786.5983
267.9111, 781.5321
268.3932, 778.4044
268.8754, 775.8489
269.3575, 772.4129
269.8396, 767.9949
270.3217, 762.8663
270.8038, 756.6132
271.2859, 749.3381
271.7681, 744.1845
272.2502, 741.5498
272.7323, 740.2161
273.2144, 739.2365
273.6965, 738.7284
274.1786, 737.8734
274.6608, 736.2224
275.1429, 734.0099
275.6250, 732.9703
276.1071, 733.3145
276.5892, 734.2292
277.0714, 735.0334
277.5535, 735.7219
278.0356, 736.3697
278.5177, 736.8222
278.9998, 737.2917
279.4819, 738.7089
279.9641, 741.2006
280.4462, 744.2014
280.9283, 747.5090
281.4104, 751.1255
281.8925, 754.1451
282.3746, 756.0491
282.8568, 757.5583
283.3389, 761.1647
283.8210, 767.1613
284.3031, 772.9530
284.7852, 775.8743
285.2673, 776.1599
285.7495, 778.9756
286.2316, 785.6342
286.7137, 794.1017
287.1958, 799.8682
287.6779, 802.8344
288.1600, 805.8343
288.6422, 810.8154
289.1243, 817.5467
289.6064, 824.1918
290.0885, 830.9058
290.5706, 836.9536
291.0527, 840.6693
291.5349, 842.2087
292.0170, 843.7750
292.4991, 846.2117
292.9812, 849.6104
293.4633, 854.6115
293.9454, 861.6180
294.4276, 868.8279
294.9097, 873.2493
295.3918, 875.4413
295.8739, 878.2509
296.3560, 884.2015
296.8381, 891.6259
297.3203, 896.0037
297.8024, 896.9638
298.2845, 897.2980
298.7666, 900.1257
299.2487, 904.7488
299.7308, 909.1276
300.2130, 912.8036
300.6951, 915.5785
301.1772, 917.0120
301.6593, 917.1131
302.1414, 916.5135
302.6235, 915.7239
303.1057, 914.6426
303.5878, 913.0457
304.0699, 910.4185
304.5520, 907.5878
305.0341, 905.8737
305.5162, 905.1075
305.9984, 903.7426
306.4805, 900.1956
306.9626, 895.4835
307.4447, 891.1912
307.9268, 888.3419
308.4089, 885.1405
308.8911, 879.9929
309.3732, 873.1036
309.8553, 865.3390
310.3374, 855.8660
310.8195, 846.3591
311.3016, 838.8605
311.7838, 834.6887
312.2659, 830.6845
312.7480, 824.8531
313.2301, 817.6896
313.7122, 810.3004
314.1943, 802.8977
314.6765, 795.5947
315.1586, 788.3779
315.6407, 781.1756
316.1228, 774.4033
316.6049, 768.6501
317.0870, 763.4381
317.5692, 758.0667
318.0513, 751.3461
318.5334, 745.0895
319.0155, 740.3793
319.4976, 737.4408
319.9797, 734.6071
320.4619, 730.8176
320.9440, 726.9861
321.4261, 724.1818
321.9082, 724.3965
322.3903, 723.9539
322.8724, 721.0204
323.3546, 715.4944
323.8367, 711.4412
324.3188, 710.4502
324.8009, 710.7833
325.2830, 711.1226
325.7651, 711.6265
326.2473, 711.8023
326.7294, 711.3609
327.2115, 710.4210
327.6936, 709.8487
328.1757, 710.3215
328.6578, 710.7328
329.1400, 710.5092
329.6221, 708.2064
330.1042, 707.2282
330.5863, 708.0965
331.0684, 710.3137
331.5505, 712.4366
332.0327, 714.6682
332.5148, 716.5624
332.9969, 717.9061
333.4790, 718.4708
333.9611, 718.9875
334.4432, 719.3124
334.9254, 719.6661
335.4075, 720.4206
335.8896, 721.6490
336.3717, 723.1837
336.8538, 725.2941
337.3359, 728.2072
337.8180, 729.3121
338.3001, 728.0858
338.7823, 725.8736
339.2644, 724.1279
339.7465, 722.8837
340.2286, 721.9874
340.7107, 721.7564
341.1928, 721.9132
341.6750, 720.2264
342.1571, 716.1866
342.6392, 712.0943
343.1213, 710.1863
343.6034, 710.5156
344.0855, 710.0558
344.5677, 708.2227
345.0498, 705.4026
345.5319, 702.2455
346.0140, 698.7188
346.4961, 695.7820
346.9782, 694.6340
347.4604, 694.7909
347.9425, 693.7264
348.4246, 690.9163
348.9067, 687.7189
349.3888, 685.8645
349.8709, 685.2887
350.3531, 685.6055
350.8352, 687.4385
351.3173, 689.8563
351.7994, 690.9153
352.2815, 690.4693
352.7636, 689.6075
353.2458, 688.7774
353.7279, 688.3121
354.2100, 688.9730
354.6921, 692.5338
355.1742, 696.3277
355.6563, 696.6129
356.1385, 693.7859
356.6206, 692.0432
357.1027, 695.7545
357.5848, 701.6066
358.0669, 705.6270
358.5490, 705.6954
359.0312, 705.2700
359.5133, 706.5787
359.9954, 709.1878
360.4775, 711.7647
360.9596, 713.8313
361.4417, 715.5311
361.9239, 716.8254
362.4060, 717.3885
362.8881, 718.4836
363.3702, 721.5461
363.8523, 725.2557
364.3344, 727.5898
364.8166, 726.2115
365.2987, 724.9462
365.7808, 725.6324
366.2629, 728.6964
366.7450, 730.8099
367.2271, 730.5523
367.7093, 729.5787
368.1914, 729.3443
368.6735, 730.7281
369.1556, 732.0488
369.6377, 733.3195
370.1198, 734.4767
370.6020, 734.7134
371.0841, 732.6591
371.5662, 730.9566
372.0483, 731.1672
372.5304, 734.9646
373.0125, 737.4930
373.4947, 738.2228
373.9768, 737.7582
374.4589, 737.3621
374.9410, 736.6698
375.4231, 736.8344
375.9052, 738.8965
376.3874, 743.4344
376.8695, 745.0326
377.3516, 742.8539
377.8337, 739.1744
378.3158, 736.8972
378.7979, 736.2610
379.2801, 735.1966
379.7622, 733.1438
380.2443, 730.2197
380.7264, 726.6236
381.2085, 722.2629
381.6906, 717.9797
382.1728, 714.7804
382.6549, 712.4084
383.1370, 709.3851
383.6191, 705.2784
384.1012, 700.6748
384.5833, 696.3285
385.0655, 692.2410
385.5476, 688.4532
386.0297, 684.8356
386.5118, 681.5143
386.9939, 678.5901
387.4760, 676.0696
387.9582, 674.1116
388.4403, 673.3541
388.9224, 673.2415
389.4045, 672.6287
389.8866, 670.0367
390.3687, 667.4269
390.8509, 666.4308
391.3330, 667.0032
391.8151, 668.4999
392.2972, 672.1201
392.7793, 675.7455
393.2614, 677.1857
393.7436, 674.1144
394.2257, 671.2692
394.7078, 670.7272
395.1899, 671.9498
395.6720, 673.5222
396.1541, 675.6518
396.6363, 677.5182
397.1184, 678.4916
397.6005, 677.9118
398.0826, 678.3474
398.5647, 681.5137
399.0468, 685.4519
399.5290, 687.7869
400.0111, 686.1624
400.4932, 685.2929
400.9753, 685.9206
401.4574, 688.0530
401.9395, 691.1962
402.4217, 696.4359
402.9038, 701.5593
403.3859, 704.9395
403.8680, 705.5571
404.3501, 706.8868
404.8322, 709.4069
405.3144, 712.6517
405.7965, 715.2830
406.2786, 717.1511
406.7607, 718.9498
407.2428, 721.0480
407.7249, 723.4716
408.2071, 725.6363
408.6892, 727.6016
409.1713, 729.1698
409.6534, 729.5729
410.1355, 728.9213
410.6176, 729.5515
411.0998, 732.8917
411.5819, 737.4847
412.0640, 739.6578
412.5461, 739.4642
413.0282, 738.7095
413.5103, 738.2969
413.9925, 738.3717
414.4746, 739.5873
414.9567, 742.5699
415.4388, 745.1639
415.9209, 744.5615
416.4030, 741.7838
416.8852, 739.3479
417.3673, 738.8834
417.8494, 739.0775
418.3315, 738.9803
418.8136, 738.5369
419.2957, 737.6921
419.7779, 736.1625
420.2600, 734.3254
420.7421, 732.5848
421.2242, 731.0398
421.7063, 729.6170
422.1884, 728.7354
422.6706, 728.0698
423.1527, 726.3445
423.6348, 721.8570
424.1169, 717.4105
424.5990, 714.4042
425.0811, 713.9869
425.5633, 712.6728
426.0454, 709.9163
426.5275, 706.4039
427.0096, 702.9696
427.4917, 700.0000
427.9738, 696.5240
428.4560, 692.0486
428.9381, 686.6201
429.4202, 682.2687
429.9023, 679.3587
430.3844, 676.9295
430.8665, 674.1923
431.3487, 670.9381
431.8308, 668.7107
432.3129, 667.8553
432.7950, 667.7945
433.2771, 667.2657
433.7592, 666.2335
434.2414, 665.6127
434.7235, 665.9705
435.2056, 667.0980
435.6877, 668.1234
436.1698, 669.0134
436.6519, 670.0999
437.1341, 671.9666
437.6162, 674.2834
438.0983, 676.2552
438.5804, 677.7019
439.0625, 678.6668
439.5446, 678.5345
440.0268, 677.7741
440.5089, 678.0871
440.9910, 680.8356
441.4731, 684.8886
441.9552, 689.7090
442.4373, 695.4822
442.9195, 700.3152
443.4016, 702.4363
443.8837, 703.3331
444.3658, 704.8131
444.8479, 707.6418
445.3300, 710.9043
445.8122, 714.2087
446.2943, 717.6016
446.7764, 721.7900
447.2585, 727.2745
447.7406, 733.2648
448.2227, 739.4797
448.7049, 746.3283
449.1870, 752.5046
449.6691, 758.0352
450.1512, 762.8513
450.6333, 766.5778
451.1154, 768.5564
451.5976, 770.9365
452.0797, 774.3983
452.5618, 778.8556
453.0439, 782.9342
453.5260, 786.5544
454.0081, 789.8049
454.4903, 792.6010
454.9724, 794.9285
455.4545, 797.4637
455.9366, 800.3193
456.4187, 803.3014
456.9008, 805.7889
457.3830, 807.9334
457.8651, 810.6055
458.3472, 815.0851
458.8293, 820.1373
459.3114, 823.4920
459.7935, 825.1158
460.2757, 826.1759
460.7578, 828.0137
461.2399, 829.7209
461.7220, 829.8591
462.2041, 827.1406
462.6862, 824.3328
463.1684, 823.8709
463.6505, 824.6982
464.1326, 824.3820
464.6147, 821.1037
465.0968, 817.1107
465.5789, 813.8153
466.0611, 811.5491
466.5432, 808.1031
467.0253, 801.5022
467.5074, 794.3767
467.9895, 788.9574
468.4716, 786.6489
468.9538, 784.3091
469.4359, 781.6198
469.9180, 778.7927
470.4001, 776.3073
470.8822, 773.4338
471.3643, 772.2955
471.8465, 774.2582
472.3286, 779.7299
472.8107, 784.0626
473.2928, 786.9905
473.7749, 789.3560
474.2570, 791.8066
474.7392, 794.3517
475.2213, 797.4810
475.7034, 801.2407
476.1855, 805.7204
476.6676, 811.0817
477.1497, 817.3484
477.6319, 824.4579
478.1140, 833.7415
478.5961, 843.4703
479.0782, 850.1667
479.5603, 853.3858
480.0424, 856.5688
480.5246, 862.1512
481.0067, 869.5565
481.4888, 878.0406
481.9709, 888.9276
482.4530, 899.1033
482.9352, 906.4007
483.4173, 911.5842
483.8994, 917.0752
484.3815, 924.9550
484.8636, 932.3046
485.3457, 937.6939
485.8279, 940.7760
486.3100, 942.9530
486.7921, 945.5259
487.2742, 946.5715
487.7563, 944.1895
488.2384, 936.0770
488.7206, 928.5561
489.2027, 923.1039
489.6848, 918.6438
490.1669, 911.3255
490.6490, 900.8643
491.1311, 888.6002
491.6133, 874.2697
492.0954, 857.8922
492.5775, 845.3904
493.0596, 837.6512
493.5417, 830.3268
494.0238, 818.1370
494.5060, 802.0182
494.9881, 786.3649
495.4702, 772.2574
495.9523, 759.3599
496.4344, 747.6797
496.9165, 737.0740
497.3987, 727.0541
497.8808, 716.6869
498.3629, 707.0486
498.8450, 699.4481
499.3271, 693.9766
499.8092, 688.8929
500.2914, 683.1627
500.7735, 677.3776
501.2556, 671.9473
501.7377, 667.5128
502.2198, 662.8740
502.7019, 657.2703
503.1841, 651.2203
503.6662, 646.0989
504.1483, 641.9539
504.6304, 638.7532
505.1125, 636.8627
505.5946, 636.4579
506.0768, 635.0214
506.5589, 631.9335
507.0410, 628.7651
507.5231, 627.1304
508.0052, 627.4662
508.4873, 626.3760
508.9695, 623.1451
509.4516, 618.9170
509.9337, 615.6898
510.4158, 613.4403
510.8979, 611.7737
511.3800, 610.7631
511.8622, 610.1188
512.3443, 609.2195
512.8264, 608.0726
513.3085, 606.7403
513.7906, 604.9260
514.2728, 603.0833
514.7549, 601.9485
515.2370, 601.9563
515.7191, 601.7751
516.2012, 600.1896
516.6833, 597.9639
517.1655, 596.2445
517.6476, 596.0780
518.1297, 595.8167
518.6118, 594.6150
519.0939, 592.5984
519.5760, 591.2841
520.0582, 591.4951
520.5403, 591.9160
521.0224, 592.1401
521.5045, 592.5383
521.9866, 591.4489
522.4688, 587.7891
522.9509, 583.8254
523.4330, 582.7206
523.9151, 585.1525
524.3972, 586.5680
524.8793, 585.5616
525.3615, 583.2870
525.8436, 583.3065
526.3257, 585.5710
526.8078, 586.9159
527.2899, 584.5153
527.7720, 580.0331
528.2542, 577.2172
528.7363, 576.2567
529.2184, 576.2615
529.7005, 577.0088
530.1826, 578.1092
530.6647, 579.1299
531.1469, 580.4296
531.6290, 580.8064
532.1111, 578.5636
532.5932, 574.9724
533.0753, 572.6331
533.5574, 573.9552
534.0396, 575.0338
534.5217, 573.9998
535.0038, 570.6166
535.4859, 568.8502
535.9680, 569.9089
536.4501, 571.5001
536.9323, 572.4065
537.4144, 572.6633
537.8965, 571.9984
538.3786, 569.9694
538.8607, 567.6140
539.3428, 566.7058
539.8250, 567.3620
540.3071, 567.7919
540.7892, 567.3710
541.2713, 566.4967
541.7534, 566.1878
542.2355, 566.3998
542.7177, 566.6289
543.1998, 566.4475
543.6819, 566.1226
544.1640, 566.1231
544.6461, 566.4994
545.1282, 566.8454
545.6104, 566.8511
546.0925, 566.6735
546.5746, 566.4904
547.0567, 566.4068
547.5388, 566.2385
548.0209, 565.8824
548.5031, 565.3982
548.9852, 564.9122
549.4673, 564.0385
549.9494, 563.6029
550.4315, 563.9667
550.9136, 565.1254
551.3958, 566.0734
551.8779, 567.1205
552.3600, 567.4368
552.8421, 565.7761
553.3242, 561.6325
553.8063, 561.0075
554.2885, 565.1597
554.7706, 570.0634
555.2527, 569.4294
555.7348, 564.2121
556.2169, 560.3526
556.6990, 559.7635
557.1812, 561.2742
557.6633, 564.7064
558.1454, 569.2306
558.6275, 571.7294
559.1096, 567.8426
559.5917, 562.9477
560.0739, 561.9462
560.5560, 565.2252
561.0381, 568.1149
561.5202, 568.2824
562.0023, 567.5706
562.4844, 567.3519
562.9666, 568.5737
563.4487, 569.1263
563.9308, 568.2431
564.4129, 566.9132
564.8950, 566.6923
565.3771, 568.0133
565.8593, 569.4510
566.3414, 570.6537
566.8235, 571.7227
567.3056, 573.3683
567.7877, 575.7047
568.2698, 577.6884
568.7520, 578.7165
569.2341, 578.8877
569.7162, 578.5715
570.1983, 577.7783
570.6804, 576.5938
571.1625, 574.2029
571.6447, 571.7154
572.1268, 571.2313
572.6089, 574.3692
573.0910, 577.1716
573.5731, 576.0315
574.0552, 573.0000
574.5374, 571.6374
575.0195, 574.9727
575.5016, 578.2871
575.9837, 580.0854
576.4658, 580.4033
576.9479, 580.3519
577.4301, 579.5229
577.9122, 578.8637
578.3943, 578.8322
578.8764, 579.5656
579.3585, 580.1210
579.8406, 580.3729
580.3228, 580.7234
580.8049, 581.6303
581.2870, 583.0612
581.7691, 584.6525
582.2512, 586.4272
582.7333, 588.0911
583.2155, 589.0984
583.6975, 589.5909
584.1796, 590.0798
584.6617, 591.0693
