##NAMES=Isocubanite
##RRUFFID=R090050
##IDEAL CHEMISTRY=Cu^1+^Fe^2+^Fe^3+^S^2-^_3_
##LOCALITY=Henderson #2 mine, Chibougamau, Quebec, Canada
##OWNER=RRUFF
##SOURCE=Lloyd Twaites LT1378
##DESCRIPTION=The sample was obtained by heating cubanite, R061068. It was heated first at T = 200°C for a day, followed by T = 160°C for five weeks.
##STATUS=The identification of this mineral is confirmed by single-crystal X-ray diffraction and chemical analysis.
##URL=rruff.info/R090050
##MEASURED CHEMISTRY=Cu_1.00_Fe_2.00_S_3.00_
89.78156, 0.0000000E+00
90.26367, 31.59290
90.74579, 30.89739
91.22791, 31.37988
91.71002, 32.87520
92.19214, 33.91041
92.67426, 32.75264
93.15638, 30.12535
93.63850, 27.95918
94.12061, 26.79921
94.60273, 26.52861
95.08485, 27.19510
95.56696, 28.92497
96.04908, 30.69693
96.53120, 31.27115
97.01331, 30.67820
97.49543, 29.72287
97.97755, 28.25952
98.45966, 26.39189
98.94178, 26.14669
99.42390, 28.09241
99.90602, 30.85489
100.3881, 31.59589
100.8703, 29.76465
101.3524, 27.86798
101.8345, 27.37426
102.3166, 28.77915
102.7987, 29.41707
103.2808, 28.80924
103.7630, 27.31183
104.2451, 26.57780
104.7272, 27.04785
105.2093, 27.68982
105.6914, 27.77648
106.1735, 26.76816
106.6557, 26.12154
107.1378, 25.97351
107.6199, 26.32481
108.1020, 27.20469
108.5841, 29.70787
109.0662, 32.16899
109.5484, 33.12725
110.0305, 29.94687
110.5126, 27.89018
110.9947, 28.40425
111.4768, 32.32233
111.9590, 35.01521
112.4411, 35.06436
112.9232, 33.91784
113.4053, 33.43700
113.8874, 33.48555
114.3695, 34.61974
114.8517, 37.39974
115.3338, 42.79430
115.8159, 47.48706
116.2980, 50.18242
116.7801, 51.50854
117.2622, 52.83097
117.7444, 53.23946
118.2265, 54.67210
118.7086, 58.57513
119.1907, 66.44462
119.6728, 75.09302
120.1549, 82.79473
120.6371, 89.78946
121.1192, 97.08053
121.6013, 104.9897
122.0834, 113.5183
122.5655, 122.6375
123.0476, 132.3700
123.5298, 142.6624
124.0119, 153.6887
124.4940, 165.4038
124.9761, 177.2175
125.4582, 188.7097
125.9404, 199.8866
126.4225, 210.6558
126.9046, 220.6072
127.3867, 230.2432
127.8688, 240.2063
128.3509, 250.4654
128.8331, 261.3567
129.3152, 273.2335
129.7973, 286.1178
130.2794, 299.7857
130.7615, 314.5385
131.2436, 330.0752
131.7258, 345.0005
132.2079, 359.0764
132.6900, 373.0860
133.1721, 388.2553
133.6542, 404.5292
134.1364, 421.3973
134.6185, 439.1484
135.1006, 457.7919
135.5827, 475.4135
136.0648, 491.8857
136.5469, 507.4384
137.0291, 522.7990
137.5112, 538.0411
137.9933, 552.3632
138.4754, 565.4968
138.9575, 577.3534
139.4396, 587.7410
139.9218, 596.0987
140.4039, 602.9311
140.8860, 610.6002
141.3681, 619.3568
141.8502, 628.4245
142.3323, 636.9883
142.8145, 645.0527
143.2966, 652.8253
143.7787, 659.7556
144.2608, 665.9540
144.7429, 674.3980
145.2250, 686.2886
145.7072, 699.4558
146.1893, 711.8914
146.6714, 722.9871
147.1535, 734.2076
147.6356, 745.4203
148.1178, 756.3037
148.5999, 769.0891
149.0820, 785.3488
149.5641, 802.8072
150.0462, 818.6279
150.5283, 831.1132
151.0105, 843.4539
151.4926, 848.8011
151.9747, 854.2025
152.4568, 858.6912
152.9389, 862.2064
153.4210, 864.8397
153.9032, 866.7515
154.3853, 868.2435
154.8674, 868.7807
155.3495, 868.0950
155.8316, 865.7528
156.3137, 863.2094
156.7959, 860.1446
157.2780, 857.0411
157.7601, 854.8347
158.2422, 853.7522
158.7243, 853.5135
159.2065, 854.0684
159.6886, 855.9985
160.1707, 857.6224
160.6528, 857.8860
161.1349, 857.3864
161.6170, 857.7274
162.0992, 861.5367
162.5813, 865.1290
163.0634, 865.8626
163.5455, 860.7916
164.0276, 856.0201
164.5097, 854.3571
164.9919, 855.2917
165.4740, 856.8848
165.9561, 858.9485
166.4382, 860.9015
166.9203, 862.1771
167.4024, 861.4543
167.8846, 861.2128
168.3667, 863.8139
168.8488, 868.7628
169.3309, 872.8417
169.8130, 873.6569
170.2952, 872.6155
170.7773, 871.4301
171.2594, 869.9462
171.7415, 869.0641
172.2236, 870.1642
172.7057, 873.0803
173.1879, 875.4628
173.6700, 874.9623
174.1521, 872.8037
174.6342, 871.0709
175.1163, 870.5123
175.5984, 870.7578
176.0806, 871.6837
176.5627, 873.2968
177.0448, 874.7186
177.5269, 875.4606
178.0090, 875.4451
178.4911, 874.4930
178.9733, 870.9633
179.4554, 866.9452
179.9375, 866.3752
180.4196, 869.5921
180.9017, 873.3547
181.3838, 874.1693
181.8660, 872.6540
182.3481, 870.9993
182.8302, 870.3508
183.3123, 870.2906
183.7944, 869.7227
184.2766, 868.5226
184.7587, 867.3775
185.2408, 867.3239
185.7229, 868.1915
186.2050, 868.9160
186.6871, 868.7061
187.1693, 867.8787
187.6514, 867.6152
188.1335, 867.9867
188.6156, 868.7760
189.0977, 869.8735
189.5798, 871.2379
190.0620, 872.3665
190.5441, 872.9141
191.0262, 872.9430
191.5083, 873.0393
191.9904, 873.3505
192.4725, 873.4525
192.9547, 872.0953
193.4368, 869.1959
193.9189, 867.1747
194.4010, 867.9973
194.8831, 871.4364
195.3652, 873.7259
195.8474, 874.4047
196.3295, 874.1995
196.8116, 874.4168
197.2937, 875.0612
197.7758, 876.0544
198.2579, 877.8220
198.7401, 880.4105
199.2222, 881.3528
199.7043, 880.0776
200.1864, 877.4967
200.6685, 875.5895
201.1507, 874.4191
201.6328, 873.6329
202.1149, 872.7862
202.5970, 871.7406
203.0791, 872.2053
203.5612, 874.8793
204.0434, 878.7175
204.5255, 880.6960
205.0076, 880.4114
205.4897, 879.6895
205.9718, 879.7733
206.4539, 880.9084
206.9361, 881.4240
207.4182, 881.1524
207.9003, 880.1904
208.3824, 878.6124
208.8645, 876.0681
209.3466, 873.8277
209.8288, 872.4991
210.3109, 871.9823
210.7930, 873.0225
211.2751, 876.5051
211.7572, 881.3809
212.2393, 883.6360
212.7215, 882.3502
213.2036, 880.4169
213.6857, 879.6066
214.1678, 880.1378
214.6499, 881.0731
215.1320, 882.4960
215.6142, 884.2486
216.0963, 885.6843
216.5784, 886.8702
217.0605, 887.6033
217.5426, 887.6979
218.0247, 886.9999
218.5069, 886.0331
218.9890, 884.4245
219.4711, 882.5693
219.9532, 882.5487
220.4353, 885.4268
220.9175, 888.4044
221.3996, 889.5791
221.8817, 888.0193
222.3638, 887.0687
222.8459, 887.0328
223.3280, 887.8505
223.8102, 889.3707
224.2923, 892.3646
224.7744, 894.9153
225.2565, 895.4480
225.7386, 892.3875
226.2207, 891.2347
226.7029, 893.4248
227.1850, 898.0436
227.6671, 900.0921
228.1492, 898.2015
228.6313, 895.6856
229.1134, 894.6885
229.5956, 896.2944
230.0777, 896.9258
230.5598, 895.9109
231.0419, 893.6675
231.5240, 892.2296
232.0062, 891.8799
232.4883, 891.9700
232.9704, 892.1351
233.4525, 892.3650
233.9346, 892.6939
234.4167, 893.0139
234.8989, 893.4212
235.3810, 894.3929
235.8631, 896.1609
236.3452, 898.1910
236.8273, 900.3925
237.3094, 903.6184
237.7916, 905.0128
238.2737, 903.4946
238.7558, 899.9584
239.2379, 898.2448
239.7200, 899.2663
240.2021, 900.8568
240.6843, 901.8796
241.1664, 902.0783
241.6485, 902.2715
242.1306, 902.5159
242.6127, 902.7957
243.0948, 903.0565
243.5770, 903.4789
244.0591, 903.6729
244.5412, 903.3855
245.0233, 902.2807
245.5054, 901.4822
245.9876, 900.9962
246.4697, 900.8625
246.9518, 901.2669
247.4339, 902.6531
247.9160, 903.9208
248.3981, 904.3353
248.8803, 902.9189
249.3624, 903.1071
249.8445, 905.9308
250.3266, 910.1262
250.8087, 912.0389
251.2908, 910.2413
251.7730, 908.3985
252.2551, 908.2559
252.7372, 910.6336
253.2193, 912.5611
253.7014, 913.8843
254.1835, 914.8043
254.6657, 915.8610
255.1478, 917.4951
255.6299, 918.4925
256.1120, 918.1185
256.5941, 915.6169
257.0763, 914.1867
257.5584, 913.9318
258.0405, 914.6824
258.5226, 916.3339
259.0047, 919.6722
259.4868, 922.3226
259.9690, 923.0354
260.4511, 921.0977
260.9332, 920.6126
261.4153, 922.1702
261.8974, 924.6569
262.3795, 926.0255
262.8617, 925.6414
263.3438, 925.7095
263.8259, 927.3155
264.3080, 930.8644
264.7901, 932.8030
265.2722, 932.5267
265.7544, 931.3499
266.2365, 931.1647
266.7186, 932.2011
267.2007, 933.5197
267.6828, 934.9326
268.1649, 936.4828
268.6471, 937.6913
269.1292, 938.5823
269.6113, 939.1386
270.0934, 938.9133
270.5755, 937.2817
271.0576, 937.3712
271.5398, 940.6633
272.0219, 947.0528
272.5040, 951.6415
272.9861, 954.0873
273.4682, 955.3782
273.9503, 956.2712
274.4325, 956.5946
274.9146, 957.4625
275.3967, 959.2403
275.8788, 961.8270
276.3610, 964.3237
276.8431, 966.6761
277.3252, 969.0284
277.8073, 971.6532
278.2894, 974.6238
278.7715, 976.9950
279.2537, 978.2586
279.7358, 978.8852
280.2179, 980.9852
280.7000, 984.7874
281.1821, 989.1202
281.6642, 992.7411
282.1464, 995.6404
282.6285, 1000.128
283.1106, 1007.003
283.5927, 1015.343
284.0748, 1023.099
284.5569, 1030.386
285.0391, 1036.134
285.5212, 1038.786
286.0033, 1038.657
286.4854, 1040.030
286.9675, 1044.190
287.4496, 1048.907
287.9318, 1049.643
288.4139, 1046.340
288.8960, 1041.244
289.3781, 1035.618
289.8602, 1029.317
290.3423, 1021.347
290.8245, 1011.329
291.3066, 1000.386
291.7887, 989.9265
292.2708, 979.9823
292.7529, 971.2264
293.2350, 964.1249
293.7172, 958.5279
294.1993, 954.3878
294.6814, 951.7967
295.1635, 950.0333
295.6456, 948.6495
296.1277, 947.4755
296.6099, 945.8030
297.0920, 942.5276
297.5741, 938.7088
298.0562, 936.6484
298.5383, 936.4730
299.0204, 936.9967
299.5026, 937.2365
299.9847, 937.2745
300.4668, 937.3289
300.9489, 937.2800
301.4311, 937.4108
301.9132, 938.6431
302.3953, 940.9192
302.8774, 942.3713
303.3595, 940.1442
303.8416, 936.2619
304.3238, 934.3285
304.8059, 936.7106
305.2880, 940.3796
305.7701, 942.2997
306.2522, 942.6934
306.7343, 942.8070
307.2165, 943.8242
307.6986, 944.9183
308.1807, 944.8381
308.6628, 942.2679
309.1449, 940.0809
309.6270, 941.1815
310.1092, 944.6530
310.5913, 947.5319
311.0734, 946.9914
311.5555, 945.7796
312.0376, 946.5496
312.5197, 950.5305
313.0019, 954.4468
313.4840, 957.0269
313.9661, 958.2451
314.4482, 958.0928
314.9303, 955.1178
315.4124, 951.8226
315.8946, 949.7379
316.3767, 949.1494
316.8588, 949.2381
317.3409, 950.5007
317.8230, 952.0328
318.3051, 952.6376
318.7873, 950.7316
319.2694, 948.9103
319.7515, 948.6099
320.2336, 950.0583
320.7157, 950.6908
321.1978, 949.2776
321.6800, 946.9548
322.1621, 944.7469
322.6442, 942.4299
323.1263, 940.6727
323.6084, 939.6428
324.0905, 939.3289
324.5727, 939.5381
325.0548, 940.8831
325.5369, 942.3406
326.0190, 943.2931
326.5012, 943.5063
326.9833, 943.4507
327.4654, 943.0085
327.9475, 942.2889
328.4296, 941.7204
328.9117, 941.1332
329.3939, 940.8465
329.8760, 941.0087
330.3581, 941.9055
330.8402, 942.6805
331.3223, 943.0447
331.8044, 943.3431
332.2866, 944.4022
332.7687, 947.1604
333.2508, 949.2327
333.7329, 949.7167
334.2150, 948.2211
334.6971, 946.9631
335.1793, 946.0862
335.6614, 945.2961
336.1435, 944.0328
336.6256, 941.7306
337.1077, 940.5295
337.5898, 941.3036
338.0720, 943.9542
338.5541, 946.0062
339.0362, 947.4302
339.5183, 948.4416
340.0004, 949.1375
340.4825, 949.4834
340.9647, 949.9714
341.4468, 950.9033
341.9289, 951.9250
342.4110, 951.2795
342.8931, 948.5592
343.3752, 946.8060
343.8574, 949.1813
344.3395, 955.3078
344.8216, 958.9277
345.3037, 958.8860
345.7858, 957.1136
346.2679, 956.9525
346.7501, 958.2979
347.2322, 959.6483
347.7143, 960.0316
348.1964, 959.7767
348.6785, 960.1809
349.1607, 961.4444
349.6428, 962.4694
350.1249, 961.5867
350.6070, 959.3781
351.0891, 957.6583
351.5713, 957.8388
352.0534, 958.6434
352.5355, 958.0070
353.0176, 955.9891
353.4997, 953.8151
353.9818, 952.0773
354.4640, 950.9026
354.9461, 950.5556
355.4282, 951.6514
355.9103, 952.9257
356.3924, 953.1889
356.8745, 952.6471
357.3567, 952.1052
357.8388, 952.4443
358.3209, 952.7521
358.8030, 951.9081
359.2851, 948.9666
359.7672, 946.9538
360.2494, 948.7919
360.7315, 952.5939
361.2136, 954.8507
361.6957, 952.4623
362.1778, 949.6747
362.6599, 948.6793
363.1421, 949.8475
363.6242, 951.2460
364.1063, 953.0909
364.5884, 954.5526
365.0705, 954.7667
365.5526, 951.5496
366.0348, 949.1584
366.5169, 949.0293
366.9990, 951.0135
367.4811, 952.3779
367.9632, 952.4569
368.4453, 952.1239
368.9275, 951.8624
369.4096, 951.4492
369.8917, 951.4373
370.3738, 952.1751
370.8559, 953.3116
371.3380, 953.7859
371.8202, 952.8171
372.3023, 952.2736
372.7844, 953.2504
373.2665, 956.6598
373.7487, 957.7100
374.2308, 955.4150
374.7129, 951.7631
375.1950, 949.1855
375.6771, 947.5652
376.1592, 947.5692
376.6414, 950.3111
377.1235, 955.2404
377.6056, 956.3135
378.0877, 952.6036
378.5698, 948.1359
379.0519, 946.4392
379.5341, 947.5429
380.0162, 949.2145
380.4983, 951.5719
380.9804, 953.7020
381.4625, 952.6680
381.9446, 948.5362
382.4268, 945.0780
382.9089, 945.0304
383.3910, 947.5172
383.8731, 949.8981
384.3552, 952.0448
384.8373, 953.6355
385.3195, 954.3369
385.8016, 954.1808
386.2837, 953.2595
386.7658, 950.3381
387.2479, 947.3054
387.7300, 946.7604
388.2122, 948.6472
388.6943, 951.3077
389.1764, 954.7466
389.6585, 957.8293
390.1406, 958.8385
390.6227, 955.8612
391.1049, 952.7697
391.5870, 952.1580
392.0691, 953.5157
392.5512, 955.3083
393.0333, 957.9952
393.5154, 960.0837
393.9976, 960.2903
394.4797, 957.7614
394.9618, 955.7291
395.4439, 955.5651
395.9260, 956.3948
396.4081, 957.0517
396.8903, 957.6290
397.3724, 957.6859
397.8545, 956.8613
398.3366, 955.1115
398.8188, 953.7335
399.3009, 952.7191
399.7830, 952.1693
400.2651, 952.1290
400.7472, 952.2960
401.2293, 953.5141
401.7115, 956.8028
402.1936, 961.0813
402.6757, 962.8080
403.1578, 960.3075
403.6399, 958.1406
404.1220, 958.7059
404.6042, 962.8757
405.0863, 964.4243
405.5684, 962.5451
406.0505, 959.3154
406.5326, 957.3373
407.0147, 956.7089
407.4969, 956.6107
407.9790, 956.9258
408.4611, 957.5828
408.9432, 958.3357
409.4253, 959.1983
409.9074, 960.0292
410.3896, 960.7832
410.8717, 961.4370
411.3538, 961.8409
411.8359, 961.9182
412.3180, 961.8732
412.8001, 962.1664
413.2823, 962.6403
413.7644, 962.6879
414.2465, 961.5393
414.7286, 959.9698
415.2107, 958.8950
415.6928, 958.3613
416.1750, 958.3551
416.6571, 959.2020
417.1392, 960.4730
417.6213, 961.6238
418.1034, 962.4968
418.5855, 963.1610
419.0677, 963.6357
419.5498, 963.9302
420.0319, 964.0538
420.5140, 963.3280
420.9961, 962.9230
421.4782, 963.8268
421.9604, 967.0510
422.4425, 969.2015
422.9246, 968.6707
423.4067, 966.8788
423.8889, 965.7648
424.3710, 965.9828
424.8531, 966.4670
425.3352, 967.1291
425.8173, 967.9711
426.2994, 968.5271
426.7816, 968.6745
427.2637, 968.6535
427.7458, 968.6282
428.2279, 968.6723
428.7100, 968.4708
429.1921, 967.7819
429.6743, 966.9797
430.1564, 967.0756
430.6385, 968.2950
431.1206, 969.5534
431.6027, 970.5848
432.0848, 971.3724
432.5670, 971.0405
433.0491, 969.3304
433.5312, 967.5692
434.0133, 967.5281
434.4954, 968.8987
434.9775, 969.5140
435.4597, 968.6135
435.9418, 966.9857
436.4239, 965.6133
436.9060, 964.6027
437.3881, 964.5419
437.8702, 966.8422
438.3524, 969.9482
438.8345, 971.3633
439.3166, 970.5901
439.7987, 969.6827
440.2808, 970.8519
440.7629, 972.8400
441.2451, 973.6817
441.7272, 970.7388
442.2093, 968.1073
442.6914, 968.6012
443.1735, 971.7233
443.6556, 974.0393
444.1378, 973.8121
444.6199, 972.7252
445.1020, 971.8038
445.5841, 971.2533
446.0662, 970.8033
446.5483, 970.3993
447.0305, 970.0998
447.5126, 969.9787
447.9947, 969.6094
448.4768, 969.9610
448.9590, 971.6382
449.4411, 974.6779
449.9232, 976.5243
450.4053, 976.8561
450.8874, 976.4538
451.3695, 975.6144
451.8517, 973.9714
452.3338, 973.6074
452.8159, 975.2004
453.2980, 977.5707
453.7801, 978.0212
454.2622, 976.3888
454.7444, 975.1268
455.2265, 975.4740
455.7086, 977.1225
456.1907, 979.1448
456.6728, 981.6602
457.1549, 983.3400
457.6371, 982.2664
458.1192, 979.4666
458.6013, 977.4482
459.0834, 977.0629
459.5655, 977.2591
460.0476, 977.0988
460.5298, 976.6236
461.0119, 975.9716
461.4940, 974.8422
461.9761, 973.8052
462.4582, 973.3708
462.9403, 973.6095
463.4225, 973.9630
463.9046, 973.8480
464.3867, 973.8819
464.8688, 974.6501
465.3509, 977.6417
465.8330, 979.8697
466.3152, 980.3598
466.7973, 979.5374
467.2794, 978.9339
467.7615, 978.9761
468.2436, 978.9158
468.7257, 978.3337
469.2079, 976.9065
469.6900, 976.5842
470.1721, 978.1740
470.6542, 979.9772
471.1363, 979.8124
471.6184, 976.7895
472.1006, 975.5101
472.5827, 977.4803
473.0648, 981.2800
473.5469, 982.4269
474.0291, 980.7590
474.5112, 978.3887
474.9933, 976.0486
475.4754, 973.9285
475.9575, 972.7451
476.4396, 972.4962
476.9218, 973.4191
477.4039, 976.9659
477.8860, 981.8622
478.3681, 985.0147
478.8502, 984.6798
479.3323, 983.1302
479.8145, 982.0998
480.2966, 981.6170
480.7787, 981.8224
481.2608, 983.5242
481.7429, 985.3939
482.2250, 986.5666
482.7072, 986.9220
483.1893, 986.6725
483.6714, 984.8986
484.1535, 982.9973
484.6356, 982.3719
485.1177, 984.9063
485.5999, 986.8436
486.0820, 987.2557
486.5641, 986.5857
487.0462, 986.4832
487.5283, 987.6018
488.0104, 988.4447
488.4926, 988.3976
488.9747, 987.3445
489.4568, 986.0781
489.9389, 984.3448
490.4210, 982.8782
490.9031, 982.6221
491.3853, 983.6290
491.8674, 984.8654
492.3495, 986.2384
492.8316, 987.5577
493.3137, 988.4929
493.7958, 989.0334
494.2780, 989.0627
494.7601, 987.7026
495.2422, 985.9789
495.7243, 986.2160
496.2064, 988.5892
496.6885, 991.0555
497.1707, 992.1066
497.6528, 992.2287
498.1349, 992.0079
498.6170, 991.0007
499.0992, 990.5834
499.5813, 992.3575
500.0634, 995.3242
500.5455, 997.0527
501.0276, 995.1959
501.5097, 993.3334
501.9919, 993.2488
502.4740, 995.4605
502.9561, 996.5541
503.4382, 995.0219
503.9203, 993.1982
504.4024, 992.7938
504.8846, 995.1030
505.3667, 996.1125
505.8488, 995.0766
506.3309, 992.9384
506.8130, 991.7495
507.2951, 991.6773
507.7773, 991.8364
508.2594, 991.9470
508.7415, 992.0258
509.2236, 992.0547
509.7057, 992.0051
510.1878, 992.2913
510.6700, 993.5559
511.1521, 995.4515
511.6342, 997.0755
512.1163, 998.3858
512.5984, 998.9996
513.0806, 997.6373
513.5627, 995.2994
514.0448, 994.0777
514.5269, 996.5847
515.0090, 999.1116
515.4911, 998.7567
515.9733, 995.9052
516.4554, 993.3929
516.9375, 992.4357
517.4196, 992.0292
517.9017, 991.5292
518.3839, 990.5541
518.8660, 990.2191
519.3481, 991.2120
519.8302, 992.6410
520.3123, 993.5173
520.7944, 993.3429
521.2766, 993.6283
521.7587, 995.0779
522.2408, 997.1116
522.7229, 997.1996
523.2050, 994.8401
523.6871, 992.4630
524.1693, 991.2173
524.6514, 991.0888
525.1335, 991.6168
525.6156, 992.8441
526.0977, 994.5114
526.5798, 996.9985
527.0620, 999.7819
527.5441, 1001.105
528.0262, 1000.060
528.5083, 998.4188
528.9904, 998.1155
529.4725, 998.6957
529.9547, 999.0752
530.4368, 997.8104
530.9189, 996.8646
531.4010, 998.0422
531.8831, 1001.333
532.3652, 1003.674
532.8474, 1003.307
533.3295, 1002.220
533.8116, 1001.708
534.2937, 1002.656
534.7758, 1002.897
535.2579, 1001.762
535.7401, 1000.222
536.2222, 999.8253
536.7043, 1001.326
537.1864, 1002.210
537.6685, 1001.764
538.1506, 1000.337
538.6328, 999.5419
539.1149, 999.4594
539.5970, 999.5390
540.0791, 999.2839
540.5612, 998.8674
541.0433, 999.3494
541.5255, 1000.865
542.0076, 1002.262
542.4897, 1001.932
542.9718, 1000.703
543.4539, 1000.299
543.9360, 1001.492
544.4182, 1003.076
544.9003, 1004.269
545.3824, 1005.119
545.8645, 1005.739
546.3466, 1005.543
546.8287, 1005.680
547.3109, 1007.221
547.7930, 1010.218
548.2751, 1011.751
548.7572, 1009.924
549.2393, 1007.649
549.7214, 1006.516
550.2036, 1007.173
550.6857, 1007.578
551.1678, 1007.817
551.6499, 1007.743
552.1320, 1006.798
552.6141, 1004.656
553.0963, 1003.980
553.5784, 1006.039
554.0605, 1009.413
554.5426, 1009.996
555.0247, 1007.943
555.5068, 1005.992
555.9890, 1006.294
556.4711, 1007.622
556.9532, 1007.423
557.4353, 1005.605
557.9174, 1004.366
558.3995, 1006.680
558.8817, 1009.864
559.3638, 1010.738
559.8459, 1007.180
560.3281, 1004.035
560.8102, 1003.143
561.2923, 1003.930
561.7744, 1005.518
562.2565, 1009.875
562.7386, 1012.639
563.2208, 1012.035
563.7029, 1008.730
564.1850, 1007.409
564.6671, 1008.898
565.1492, 1010.946
565.6313, 1012.634
566.1135, 1013.967
566.5956, 1014.691
567.0777, 1014.748
567.5598, 1014.377
568.0419, 1013.740
568.5240, 1012.861
569.0062, 1011.820
569.4883, 1010.583
569.9704, 1009.318
570.4525, 1007.890
570.9346, 1006.585
571.4167, 1006.189
571.8989, 1007.562
572.3810, 1009.535
572.8631, 1011.636
573.3452, 1013.747
573.8273, 1015.327
574.3094, 1015.927
574.7916, 1016.120
575.2737, 1016.223
575.7558, 1016.348
576.2379, 1016.092
576.7200, 1015.184
577.2021, 1014.116
577.6843, 1013.265
578.1664, 1012.569
578.6485, 1012.219
579.1306, 1012.087
579.6127, 1012.458
580.0948, 1014.600
580.5770, 1018.511
581.0591, 1020.882
581.5412, 1019.694
582.0233, 1016.479
582.5054, 1014.354
582.9875, 1013.278
