##NAMES=Isocubanite
##RRUFFID=R090050
##IDEAL CHEMISTRY=Cu^1+^Fe^2+^Fe^3+^S^2-^_3_
##LOCALITY=Henderson #2 mine, Chibougamau, Quebec, Canada
##OWNER=RRUFF
##SOURCE=Lloyd Twaites LT1378
##DESCRIPTION=The sample was obtained by heating cubanite, R061068. It was heated first at T = 200°C for a day, followed by T = 160°C for five weeks.
##STATUS=The identification of this mineral is confirmed by single-crystal X-ray diffraction and chemical analysis.
##URL=rruff.info/R090050
##MEASURED CHEMISTRY=Cu_1.00_Fe_2.00_S_3.00_
92.02539, 1036.410
92.50751, 1076.000
92.98962, 1102.231
93.47174, 1085.328
93.95386, 1051.465
94.43597, 1017.392
94.91809, 991.8267
95.40021, 972.8715
95.88232, 950.5233
96.36444, 923.4721
96.84656, 895.0167
97.32867, 865.2787
97.81078, 835.6256
98.29290, 808.2287
98.77502, 784.6752
99.25713, 764.4612
99.73925, 741.6503
100.2214, 713.3712
100.7035, 685.7575
101.1856, 660.8221
101.6677, 638.8717
102.1498, 619.7244
102.6320, 603.1296
103.1141, 588.8342
103.5962, 578.6160
104.0783, 574.0404
104.5604, 572.6698
105.0425, 572.7313
105.5247, 574.1916
106.0068, 574.9749
106.4889, 571.4916
106.9710, 564.2633
107.4531, 553.7123
107.9352, 539.3122
108.4173, 521.4074
108.8995, 501.2694
109.3816, 475.3789
109.8637, 450.5624
110.3458, 433.9658
110.8279, 427.0612
111.3100, 425.3194
111.7922, 424.2041
112.2743, 424.3768
112.7564, 422.9594
113.2385, 417.1427
113.7206, 410.3911
114.2027, 405.7492
114.6849, 404.6830
115.1670, 406.3495
115.6491, 407.9971
116.1312, 412.5179
116.6133, 413.2504
117.0954, 407.6080
117.5776, 397.7615
118.0597, 386.4626
118.5418, 375.2218
119.0239, 363.9589
119.5060, 357.8804
119.9881, 358.4361
120.4703, 361.5343
120.9524, 367.6358
121.4345, 375.6070
121.9166, 381.8267
122.3987, 382.5675
122.8808, 376.6881
123.3630, 371.6617
123.8451, 368.8086
124.3272, 366.1268
124.8093, 361.0039
125.2914, 352.5985
125.7735, 344.2946
126.2557, 341.4205
126.7378, 342.7454
127.2199, 342.5603
127.7020, 336.7549
128.1841, 327.4400
128.6662, 321.6171
129.1483, 321.7909
129.6305, 324.2813
130.1126, 326.7872
130.5947, 329.1252
131.0768, 330.2007
131.5589, 329.0099
132.0410, 325.4268
132.5232, 320.5999
133.0053, 312.3711
133.4874, 304.4515
133.9695, 298.5897
134.4516, 295.1856
134.9337, 293.8069
135.4159, 293.8553
135.8980, 295.6937
136.3801, 298.5258
136.8622, 304.4631
137.3443, 310.1117
137.8264, 312.4450
138.3086, 310.3512
138.7907, 305.0428
139.2728, 299.8686
139.7549, 292.7512
140.2370, 288.2249
140.7191, 289.3536
141.2013, 292.8524
141.6834, 293.6291
142.1655, 288.7581
142.6476, 279.6022
143.1297, 272.3623
143.6118, 267.5034
144.0939, 263.5796
144.5761, 259.9962
145.0582, 256.8472
145.5403, 254.6303
146.0224, 254.1274
146.5045, 254.6801
146.9866, 254.1377
147.4688, 250.8278
147.9509, 247.7168
148.4330, 248.0877
148.9151, 252.4309
149.3972, 257.2033
149.8793, 261.9021
150.3615, 265.4404
150.8436, 265.7455
151.3257, 260.4224
151.8078, 252.2102
152.2899, 247.8556
152.7720, 250.0660
153.2542, 251.3433
153.7363, 247.4653
154.2184, 240.9725
154.7005, 235.7306
155.1826, 234.4194
155.6647, 236.6179
156.1469, 238.0201
156.6290, 237.5927
157.1111, 237.3171
157.5932, 237.6423
158.0753, 238.5303
158.5574, 240.0112
159.0396, 242.4965
159.5217, 246.5172
160.0038, 246.3577
160.4859, 236.8162
160.9680, 228.3317
161.4501, 226.3027
161.9323, 230.1135
162.4144, 235.2190
162.8965, 237.0362
163.3786, 234.7843
163.8607, 231.7783
164.3428, 226.3279
164.8250, 221.3318
165.3071, 219.2282
165.7892, 220.3128
166.2713, 222.7378
166.7534, 224.6800
167.2355, 226.2090
167.7177, 226.3922
168.1998, 223.1531
168.6819, 219.1941
169.1640, 218.3311
169.6461, 221.7379
170.1282, 226.7904
170.6104, 230.8340
171.0925, 234.0045
171.5746, 235.9623
172.0567, 236.6017
172.5388, 235.9203
173.0209, 233.5088
173.5031, 227.8511
173.9852, 222.5110
174.4673, 220.8382
174.9494, 222.5108
175.4315, 224.4936
175.9136, 224.4272
176.3958, 222.3974
176.8779, 221.0121
177.3600, 221.7437
177.8421, 222.2507
178.3242, 221.1155
178.8063, 218.3300
179.2885, 214.8688
179.7706, 211.4161
180.2527, 207.7049
180.7348, 205.2113
181.2169, 203.3348
181.6990, 203.1553
182.1812, 206.5311
182.6633, 213.2090
183.1454, 220.2961
183.6275, 223.4864
184.1096, 220.3502
184.5917, 218.2912
185.0738, 217.6790
185.5560, 217.7245
186.0381, 218.3429
186.5202, 219.3403
187.0023, 219.9592
187.4844, 218.8523
187.9665, 214.3691
188.4487, 210.6618
188.9308, 208.2222
189.4129, 206.3003
189.8950, 204.0821
190.3771, 201.3193
190.8592, 198.5361
191.3414, 196.7115
191.8235, 195.3876
192.3056, 195.9420
192.7877, 201.0881
193.2698, 207.4971
193.7519, 210.2657
194.2341, 207.2891
194.7162, 201.4053
195.1983, 198.3062
195.6804, 198.1286
196.1625, 198.8758
196.6446, 201.5362
197.1268, 204.7063
197.6089, 204.6216
198.0910, 198.7541
198.5731, 191.0901
199.0552, 188.3534
199.5373, 191.2793
200.0195, 194.1032
200.5016, 192.8777
200.9837, 188.5212
201.4658, 185.6793
201.9479, 185.5679
202.4300, 187.9312
202.9122, 193.3820
203.3943, 202.4668
203.8764, 209.3414
204.3585, 207.3600
204.8406, 196.5928
205.3227, 188.9896
205.8048, 189.2965
206.2870, 192.6404
206.7691, 195.9490
207.2512, 198.8437
207.7333, 201.7225
208.2154, 206.2669
208.6975, 213.6313
209.1797, 215.7170
209.6618, 204.2351
210.1439, 191.6502
210.6260, 184.6906
211.1081, 184.5026
211.5902, 187.9873
212.0724, 191.8709
212.5545, 196.9849
213.0366, 199.7651
213.5187, 198.2197
214.0008, 195.7368
214.4829, 193.9025
214.9651, 193.2218
215.4472, 193.7075
215.9293, 195.9742
216.4114, 203.0264
216.8935, 205.2652
217.3756, 199.2891
217.8578, 191.7752
218.3399, 187.0784
218.8220, 186.2402
219.3041, 187.5706
219.7862, 188.4342
220.2683, 187.4602
220.7505, 188.9510
221.2326, 196.5294
221.7147, 204.0819
222.1968, 206.1871
222.6789, 201.8235
223.1610, 194.6630
223.6432, 189.9936
224.1253, 188.5378
224.6074, 188.7722
225.0895, 193.5419
225.5716, 198.4239
226.0537, 198.1572
226.5358, 191.7210
227.0180, 184.2423
227.5001, 183.1925
227.9822, 191.0549
228.4643, 197.8994
228.9464, 204.9769
229.4285, 209.9191
229.9107, 208.8353
230.3928, 200.7009
230.8749, 190.5993
231.3570, 184.9040
231.8391, 183.8125
232.3212, 184.1947
232.8034, 186.5341
233.2855, 189.7531
233.7676, 192.8655
234.2497, 195.8550
234.7318, 197.7861
235.2139, 196.3070
235.6961, 191.9368
236.1782, 189.6885
236.6603, 192.3964
237.1424, 197.5078
237.6245, 201.0361
238.1066, 202.2010
238.5888, 202.8233
239.0709, 205.3689
239.5530, 209.0309
240.0351, 210.8727
240.5172, 208.4682
240.9993, 203.8742
241.4815, 201.1517
241.9636, 201.0525
242.4457, 201.4777
242.9278, 200.5373
243.4099, 198.9250
243.8920, 198.1772
244.3742, 199.9025
244.8563, 202.7861
245.3384, 203.5138
245.8205, 201.0738
246.3026, 198.7419
246.7847, 198.2016
247.2668, 198.9793
247.7490, 200.6138
248.2311, 203.8896
248.7132, 207.4020
249.1953, 207.2380
249.6774, 201.3888
250.1595, 195.8807
250.6417, 193.3630
251.1238, 192.6095
251.6059, 192.3150
252.0880, 192.1990
252.5701, 191.7959
253.0522, 189.5286
253.5344, 183.6741
254.0165, 179.4452
254.4986, 178.8528
254.9807, 180.2527
255.4628, 182.3598
255.9449, 184.8910
256.4271, 186.8279
256.9092, 185.0634
257.3913, 175.7230
257.8734, 170.2549
258.3555, 173.0307
258.8376, 178.9793
259.3198, 183.6116
259.8019, 185.1692
260.2840, 184.6472
260.7661, 183.9745
261.2482, 182.8311
261.7303, 182.1845
262.2125, 182.7193
262.6946, 183.3763
263.1767, 183.4883
263.6588, 182.7935
264.1409, 181.1178
264.6230, 177.7187
265.1052, 170.0803
265.5873, 165.8433
266.0694, 165.0114
266.5515, 167.2278
267.0336, 174.3478
267.5157, 185.8563
267.9979, 197.0443
268.4800, 200.3733
268.9621, 190.9131
269.4442, 183.9957
269.9263, 180.1254
270.4084, 177.8694
270.8906, 176.6208
271.3727, 176.1428
271.8548, 176.2549
272.3369, 176.7354
272.8190, 177.5210
273.3011, 178.9613
273.7833, 181.2708
274.2654, 183.9094
274.7475, 187.2109
275.2296, 190.7852
275.7117, 193.3040
276.1938, 193.2622
276.6760, 190.0650
277.1581, 187.9368
277.6402, 187.9031
278.1223, 187.7297
278.6044, 185.9671
279.0865, 183.0096
279.5686, 180.3313
280.0508, 179.0772
280.5329, 179.2580
281.0150, 180.3757
281.4971, 184.0484
281.9792, 186.8391
282.4613, 186.9695
282.9435, 185.1551
283.4256, 183.2116
283.9077, 182.3195
284.3898, 182.3209
284.8719, 181.8531
285.3540, 179.2352
285.8362, 178.0705
286.3183, 180.9678
286.8004, 185.8166
287.2825, 188.6833
287.7646, 187.4178
288.2467, 183.1793
288.7289, 179.9619
289.2110, 178.5047
289.6931, 177.0723
290.1752, 175.4010
290.6573, 173.6140
291.1394, 171.9523
291.6216, 170.5220
292.1037, 169.0896
292.5858, 166.8751
293.0679, 161.3404
293.5500, 159.9929
294.0321, 168.6431
294.5143, 179.6637
294.9964, 183.7322
295.4785, 178.3789
295.9606, 169.2180
296.4427, 164.0412
296.9248, 164.3835
297.4070, 164.5010
297.8891, 164.3098
298.3712, 163.7576
298.8533, 162.3103
299.3354, 160.0319
299.8175, 158.3816
300.2997, 159.0989
300.7818, 162.7215
301.2639, 165.0495
301.7460, 164.9086
302.2281, 164.4063
302.7102, 164.9320
303.1924, 166.5149
303.6745, 168.6628
304.1566, 171.5246
304.6387, 174.7802
305.1208, 174.6777
305.6029, 168.1042
306.0851, 161.5317
306.5672, 157.8112
307.0493, 156.7308
307.5314, 157.3432
308.0135, 159.3195
308.4956, 162.4418
308.9778, 165.7499
309.4599, 171.0400
309.9420, 174.3594
310.4241, 174.0076
310.9062, 170.8419
311.3883, 165.6091
311.8705, 157.9963
312.3526, 150.4585
312.8347, 149.2704
313.3168, 156.8773
313.7989, 163.7896
314.2810, 168.5459
314.7632, 171.4457
315.2453, 172.3768
315.7274, 171.2042
316.2095, 169.6091
316.6916, 170.3072
317.1737, 174.3829
317.6559, 175.7168
318.1380, 170.8863
318.6201, 164.8514
319.1022, 162.8504
319.5843, 165.3615
320.0664, 168.2339
320.5485, 167.4879
321.0306, 162.7364
321.5128, 158.8968
321.9949, 155.3099
322.4770, 153.1166
322.9591, 153.2957
323.4412, 155.6458
323.9233, 159.5504
324.4055, 165.4414
324.8876, 172.3722
325.3697, 173.7896
325.8518, 165.1348
326.3339, 156.8428
326.8160, 152.9642
327.2982, 152.3053
327.7803, 152.1196
328.2624, 151.1277
328.7445, 149.8978
329.2266, 150.0526
329.7087, 152.1681
330.1909, 154.3867
330.6730, 157.1467
331.1551, 159.5492
331.6372, 159.6864
332.1193, 156.9556
332.6014, 154.1476
333.0836, 155.9081
333.5657, 165.4074
334.0478, 169.5769
334.5299, 162.0220
335.0120, 152.8750
335.4941, 152.4906
335.9763, 161.1427
336.4584, 168.8305
336.9405, 165.4016
337.4226, 149.4719
337.9047, 139.3130
338.3868, 137.1877
338.8690, 137.8342
339.3511, 138.1994
339.8332, 138.9282
340.3153, 143.5929
340.7974, 155.6187
341.2795, 172.5922
341.7617, 178.1924
342.2438, 161.2521
342.7259, 147.9062
343.2080, 145.7773
343.6901, 150.4179
344.1722, 156.1334
344.6544, 160.6785
345.1365, 162.9956
345.6186, 160.6641
346.1007, 147.3495
346.5828, 139.0445
347.0649, 138.6454
347.5471, 141.7042
348.0292, 145.3687
348.5113, 148.6579
348.9934, 150.6394
349.4755, 149.8408
349.9576, 145.0054
350.4398, 142.6954
350.9219, 145.6747
351.4040, 148.2744
351.8861, 146.2302
352.3682, 140.8890
352.8503, 137.1345
353.3325, 138.9851
353.8146, 145.9395
354.2967, 150.1103
354.7788, 148.4774
355.2609, 147.5166
355.7430, 150.0428
356.2252, 153.6755
356.7073, 154.6057
357.1894, 150.9794
357.6715, 144.7876
358.1536, 140.9544
358.6357, 140.2815
359.1179, 141.0750
359.5999, 144.7218
360.0821, 148.7637
360.5642, 151.9711
361.0463, 153.7434
361.5284, 152.9424
362.0105, 146.9101
362.4926, 132.1505
362.9748, 125.9886
363.4569, 137.6047
363.9390, 148.6650
364.4211, 149.9646
364.9032, 143.6926
365.3853, 137.6035
365.8675, 137.8356
366.3496, 143.5299
366.8317, 146.4064
367.3138, 144.4140
367.7959, 141.9818
368.2780, 139.7058
368.7602, 137.6980
369.2423, 136.0940
369.7244, 134.9733
370.2065, 134.0955
370.6886, 132.7580
371.1707, 130.1813
371.6529, 129.2043
372.1350, 130.6653
372.6171, 133.4022
373.0992, 137.4746
373.5813, 142.5226
374.0634, 146.9062
374.5456, 148.9731
375.0277, 148.6791
375.5098, 146.8906
375.9919, 141.1908
376.4740, 136.7607
376.9561, 137.6441
377.4383, 141.5940
377.9204, 143.2177
378.4025, 138.1784
378.8846, 129.4132
379.3667, 125.3112
379.8488, 127.2007
380.3310, 130.3900
380.8131, 133.9006
381.2952, 137.3073
381.7773, 140.4718
382.2594, 143.6077
382.7415, 145.3339
383.2237, 143.5170
383.7058, 138.1790
384.1879, 132.8478
384.6700, 126.9950
385.1521, 123.0173
385.6342, 123.2501
386.1164, 127.4601
386.5985, 132.3225
387.0806, 136.6721
387.5627, 140.2647
388.0448, 142.6656
388.5269, 143.9674
389.0091, 143.5961
389.4912, 139.5120
389.9733, 133.4202
390.4554, 129.1373
390.9375, 127.9820
391.4196, 128.4058
391.9018, 129.3230
392.3839, 130.7019
392.8660, 132.2993
393.3481, 134.2822
393.8302, 136.1474
394.3123, 136.8662
394.7945, 136.1228
395.2766, 135.4023
395.7587, 135.7237
396.2408, 136.3362
396.7229, 135.6905
397.2050, 133.3210
397.6872, 130.7717
398.1693, 129.8078
398.6514, 130.6046
399.1335, 131.1812
399.6156, 132.2380
400.0977, 132.4215
400.5798, 130.0137
401.0620, 125.5931
401.5441, 121.8672
402.0262, 120.7402
402.5083, 121.4551
402.9904, 120.1669
403.4725, 112.8896
403.9547, 108.8165
404.4368, 113.3576
404.9189, 120.6607
405.4010, 122.1078
405.8831, 115.2954
406.3652, 106.5086
406.8474, 105.1991
407.3295, 114.6531
407.8116, 122.4453
408.2937, 130.0253
408.7758, 134.9164
409.2579, 135.1256
409.7401, 131.2896
410.2222, 125.0592
410.7043, 116.9519
411.1864, 107.8110
411.6685, 104.8164
412.1506, 114.6960
412.6328, 122.7435
413.1149, 128.1552
413.5970, 130.0815
414.0791, 125.6306
414.5612, 114.2564
415.0433, 102.4847
415.5255, 101.7054
416.0076, 116.1349
416.4897, 126.9877
416.9718, 131.9023
417.4539, 133.9475
417.9360, 133.5471
418.4182, 131.2712
418.9003, 128.2828
419.3824, 125.1127
419.8645, 121.9316
420.3466, 119.4576
420.8287, 117.8129
421.3109, 116.6766
421.7930, 114.9197
422.2751, 113.9644
422.7572, 116.4268
423.2393, 123.8441
423.7214, 130.8488
424.2036, 129.9782
424.6857, 121.6467
425.1678, 117.0992
425.6499, 121.1674
426.1320, 126.8330
426.6141, 127.2038
427.0963, 122.9131
427.5784, 118.7874
428.0605, 116.7694
428.5426, 116.1661
429.0247, 115.6079
429.5068, 114.9246
429.9890, 116.0135
430.4711, 120.9120
430.9532, 128.3723
431.4353, 134.2278
431.9174, 139.2723
432.3995, 141.5183
432.8817, 137.8385
433.3638, 130.8376
433.8459, 126.0294
434.3280, 125.2021
434.8101, 126.5892
435.2922, 128.1386
435.7744, 130.1999
436.2565, 130.6658
436.7386, 127.9622
437.2207, 124.8401
437.7028, 123.3743
438.1849, 123.3556
438.6671, 123.2579
439.1492, 121.9906
439.6313, 119.8608
440.1134, 118.7085
440.5955, 118.9339
441.0776, 119.6748
441.5598, 121.5924
442.0418, 123.6049
442.5240, 124.0355
443.0061, 122.7029
443.4882, 121.7407
443.9703, 124.7739
444.4524, 133.9599
444.9345, 136.9954
445.4167, 128.3530
445.8988, 118.9214
446.3809, 109.6696
446.8630, 102.8100
447.3451, 102.6306
447.8272, 112.8679
448.3094, 128.1848
448.7915, 134.6874
449.2736, 129.6654
449.7557, 123.5140
450.2378, 117.8844
450.7199, 112.5916
451.2021, 105.9943
451.6842, 98.38763
452.1663, 94.87755
452.6484, 102.4262
453.1305, 118.1441
453.6126, 129.2337
454.0948, 134.5656
454.5769, 135.9535
455.0590, 131.4030
455.5411, 124.1221
456.0232, 119.9706
456.5053, 121.8762
456.9875, 125.0132
457.4696, 125.4266
457.9517, 123.5692
458.4338, 121.5014
458.9159, 119.8839
459.3980, 118.3561
459.8802, 115.7856
460.3623, 111.7469
460.8444, 110.2580
461.3265, 114.3680
461.8086, 119.7437
462.2907, 123.0749
462.7729, 124.0054
463.2550, 122.3913
463.7371, 117.3801
464.2192, 110.1781
464.7013, 107.7394
465.1834, 117.2276
465.6656, 122.0350
466.1477, 114.5862
466.6298, 103.9398
467.1119, 100.7372
467.5940, 107.0090
468.0761, 116.2070
468.5583, 120.6245
469.0404, 119.6849
469.5225, 117.8332
470.0046, 112.7262
470.4867, 109.1534
470.9688, 109.1161
471.4510, 111.5083
471.9331, 115.0733
472.4152, 119.4968
472.8973, 122.9800
473.3794, 120.9248
473.8615, 111.2237
474.3437, 105.0047
474.8258, 107.1321
475.3079, 111.2032
475.7900, 113.2515
476.2721, 113.4538
476.7542, 114.2730
477.2364, 119.6882
477.7185, 126.2656
478.2006, 124.6742
478.6827, 113.3425
479.1648, 103.1811
479.6469, 100.4384
480.1291, 102.1979
480.6112, 102.7014
481.0933, 100.7148
481.5754, 100.2709
482.0575, 105.3324
482.5396, 112.8852
483.0217, 116.8959
483.5038, 116.0563
483.9860, 114.2063
484.4681, 115.4096
484.9502, 119.7803
485.4323, 120.7093
485.9144, 114.8574
486.3965, 109.3377
486.8787, 107.2559
487.3608, 107.5950
487.8429, 108.1525
488.3250, 108.0434
488.8071, 108.3495
489.2892, 111.3911
489.7714, 120.1588
490.2535, 124.1928
490.7356, 119.3778
491.2177, 114.4705
491.6998, 115.1621
492.1819, 119.5190
492.6641, 121.8222
493.1462, 118.1368
493.6283, 110.6836
494.1104, 105.7788
494.5925, 103.6712
495.0746, 103.4765
495.5568, 106.9766
496.0389, 110.9597
496.5210, 113.0660
497.0031, 113.1932
497.4852, 113.0415
497.9673, 113.1365
498.4495, 113.8936
498.9316, 117.4378
499.4137, 124.8745
499.8958, 130.1559
500.3779, 128.5356
500.8600, 122.7679
501.3422, 118.6972
501.8243, 117.0293
502.3064, 116.1489
502.7885, 114.8235
503.2706, 113.8338
503.7527, 115.2205
504.2349, 119.4644
504.7170, 123.5420
505.1991, 124.1733
505.6812, 121.0949
506.1633, 120.0549
506.6454, 124.4956
507.1276, 126.9422
507.6097, 122.7536
508.0918, 115.3371
508.5739, 109.6885
509.0560, 107.7137
509.5381, 108.6325
510.0203, 112.1128
510.5024, 120.6763
510.9845, 123.1343
511.4666, 110.4127
511.9487, 100.5762
512.4308, 103.8001
512.9130, 114.7794
513.3951, 122.3209
513.8772, 120.3703
514.3593, 113.4134
514.8414, 109.2757
515.3235, 108.1706
515.8057, 108.1861
516.2878, 109.2555
516.7699, 111.0323
517.2520, 113.1583
517.7341, 115.6432
518.2162, 118.5839
518.6984, 123.7951
519.1805, 128.4861
519.6626, 128.4951
520.1447, 124.0416
520.6268, 118.7687
521.1089, 114.0603
521.5911, 109.9660
522.0732, 106.6994
522.5553, 104.0593
523.0374, 102.5007
523.5195, 103.6286
524.0016, 104.8148
524.4838, 102.8154
524.9659, 98.21143
525.4480, 94.73669
525.9301, 95.16246
526.4122, 98.83975
526.8943, 102.5879
527.3765, 107.8830
527.8586, 110.9382
528.3407, 109.4247
528.8228, 107.0903
529.3049, 107.4061
529.7870, 110.4261
530.2692, 113.2667
530.7513, 113.0794
531.2334, 110.4927
531.7155, 109.4497
532.1976, 110.8346
532.6797, 111.7043
533.1619, 109.8495
533.6440, 107.3236
534.1261, 106.0717
534.6082, 106.3887
535.0903, 107.9225
535.5724, 112.3415
536.0546, 117.4399
536.5367, 116.8304
537.0188, 109.1675
537.5009, 104.0052
537.9830, 110.0106
538.4651, 124.5180
538.9473, 132.1371
539.4294, 129.0776
539.9115, 124.6336
540.3936, 119.5931
540.8757, 115.4148
541.3578, 114.9290
541.8400, 118.1795
542.3221, 121.1087
542.8042, 119.0687
543.2863, 111.9158
543.7684, 108.7896
544.2505, 114.7707
544.7326, 118.7781
545.2147, 117.2505
545.6968, 113.4518
546.1790, 110.9357
546.6611, 110.6125
547.1432, 111.0842
547.6253, 110.9321
548.1074, 110.2172
548.5895, 109.5321
549.0717, 108.5880
549.5538, 108.3463
550.0359, 110.3007
550.5180, 113.0968
551.0001, 114.6994
551.4822, 114.5945
551.9644, 113.7113
552.4465, 111.7643
552.9286, 109.6159
553.4107, 109.0615
553.8928, 110.4575
554.3749, 113.3446
554.8571, 118.2580
555.3392, 124.9818
555.8213, 125.7329
556.3034, 113.9090
556.7855, 105.0736
557.2676, 105.6276
557.7498, 110.1532
558.2319, 111.9578
558.7140, 109.6186
559.1961, 106.5853
559.6782, 106.7182
560.1603, 110.0514
560.6425, 113.1513
561.1246, 116.4621
561.6067, 118.7788
562.0888, 119.4280
562.5709, 119.1808
563.0530, 119.0852
563.5352, 119.4193
564.0173, 119.0229
564.4994, 115.6178
564.9815, 110.6289
565.4636, 109.5342
565.9457, 113.6709
566.4279, 117.2331
566.9100, 115.3861
567.3921, 110.0588
567.8742, 108.3510
568.3563, 112.7209
568.8384, 116.5773
569.3206, 117.6686
569.8027, 117.0395
570.2848, 115.7868
570.7669, 114.1642
571.2490, 112.0074
571.7311, 109.0132
572.2133, 105.3720
572.6954, 103.3269
573.1775, 104.1184
573.6596, 104.8704
574.1417, 105.0409
574.6238, 105.1382
575.1060, 105.8194
575.5881, 107.0357
576.0702, 107.8789
576.5523, 106.7196
577.0344, 104.6533
577.5165, 106.7521
577.9987, 114.4838
578.4808, 119.8300
578.9629, 117.8445
579.4450, 112.5591
579.9271, 109.9129
580.4092, 110.4275
580.8914, 110.4817
581.3735, 108.1397
581.8556, 105.0071
582.3377, 102.3681
582.8198, 100.5184
583.3019, 100.1243
583.7841, 101.6457
584.2662, 104.7268
584.7483, 108.6051
585.2304, 117.5335
585.7125, 119.9080
