##NAMES=Isokite
##RRUFFID=R070526
##IDEAL CHEMISTRY=CaMgP^5+^O_4_F
##LOCALITY=Kjorrestad, near Bamle, Norway
##OWNER=RRUFF
##SOURCE=University of Arizona Mineral Museum
##DESCRIPTION=Colorless crystals, associated with wagnerite, R050519.
##STATUS=The identification of this mineral is confirmed by single-crystal X-ray diffraction and chemical analysis.
##URL=rruff.info/R070526
##MEASURED CHEMISTRY=Ca_1.00_Mg_1.00_(P_1.00_O_4_)(F_0.80_(OH)_0.20_)_Σ=1_ ; = light phase. The gray phase is wagnerite: Mg_2.00_(P_1.00_O_4_)(F_0.80_(OH)_0.20_)_Σ=1_ 
154.6658, 1450.047
155.1479, 1448.208
155.6300, 1444.209
156.1121, 1431.494
156.5943, 1422.884
157.0764, 1426.784
157.5585, 1441.286
158.0406, 1457.963
158.5227, 1473.572
159.0048, 1487.126
159.4870, 1495.814
159.9691, 1488.418
160.4512, 1478.157
160.9333, 1471.836
161.4154, 1469.496
161.8975, 1472.982
162.3797, 1487.622
162.8618, 1507.427
163.3439, 1515.955
163.8260, 1505.974
164.3081, 1492.093
164.7902, 1484.530
165.2724, 1483.146
165.7545, 1485.127
166.2366, 1490.591
166.7187, 1498.146
167.2008, 1504.576
167.6829, 1509.286
168.1651, 1513.406
168.6472, 1517.780
169.1293, 1522.437
169.6114, 1527.857
170.0935, 1537.202
170.5756, 1546.423
171.0578, 1548.318
171.5399, 1537.791
172.0220, 1524.095
172.5041, 1516.380
172.9862, 1514.731
173.4683, 1516.459
173.9505, 1522.414
174.4326, 1530.196
174.9147, 1536.830
175.3968, 1542.082
175.8789, 1545.396
176.3610, 1544.102
176.8432, 1536.932
177.3253, 1533.871
177.8074, 1546.168
178.2895, 1563.163
178.7716, 1572.236
179.2537, 1569.100
179.7359, 1559.287
180.2180, 1547.512
180.7001, 1532.531
181.1822, 1522.236
181.6643, 1524.959
182.1464, 1532.671
182.6286, 1537.171
183.1107, 1535.038
183.5928, 1531.616
184.0749, 1535.362
184.5570, 1548.298
185.0391, 1558.433
185.5213, 1556.828
186.0034, 1551.503
186.4855, 1550.240
186.9676, 1556.657
187.4497, 1564.114
187.9318, 1561.917
188.4140, 1547.333
188.8961, 1536.206
189.3782, 1538.502
189.8603, 1545.152
190.3424, 1548.478
190.8245, 1545.874
191.3067, 1541.431
191.7888, 1541.511
192.2709, 1547.800
192.7530, 1550.704
193.2351, 1543.001
193.7172, 1532.612
194.1994, 1525.318
194.6815, 1522.657
195.1636, 1522.937
195.6457, 1524.719
196.1278, 1528.478
196.6099, 1531.388
197.0921, 1532.034
197.5742, 1531.855
198.0563, 1532.033
198.5384, 1532.934
199.0205, 1533.316
199.5026, 1530.729
199.9848, 1524.215
200.4669, 1520.409
200.9490, 1523.859
201.4311, 1529.038
201.9132, 1532.732
202.3953, 1534.286
202.8775, 1534.594
203.3596, 1534.529
203.8417, 1534.095
204.3238, 1533.100
204.8059, 1525.800
205.2880, 1521.943
205.7702, 1531.460
206.2523, 1555.165
206.7344, 1578.395
207.2165, 1585.275
207.6986, 1574.464
208.1807, 1562.349
208.6629, 1547.915
209.1450, 1535.751
209.6271, 1529.925
210.1092, 1530.266
210.5913, 1531.538
211.0734, 1526.135
211.5556, 1513.527
212.0377, 1511.730
212.5198, 1534.916
213.0019, 1558.535
213.4840, 1567.972
213.9661, 1563.766
214.4483, 1555.624
214.9304, 1550.129
215.4125, 1547.259
215.8946, 1546.530
216.3767, 1549.539
216.8589, 1553.105
217.3410, 1555.335
217.8231, 1556.491
218.3052, 1557.820
218.7873, 1560.365
219.2694, 1563.976
219.7516, 1567.406
220.2337, 1571.018
220.7158, 1573.856
221.1979, 1575.353
221.6800, 1575.782
222.1621, 1575.892
222.6443, 1575.736
223.1264, 1575.560
223.6085, 1576.356
224.0906, 1578.021
224.5727, 1580.998
225.0548, 1590.695
225.5370, 1601.575
226.0191, 1602.090
226.5012, 1580.354
226.9833, 1546.346
227.4654, 1526.878
227.9475, 1526.141
228.4297, 1530.853
228.9118, 1536.461
229.3939, 1542.600
229.8760, 1549.029
230.3581, 1556.784
230.8402, 1563.681
231.3224, 1565.204
231.8045, 1560.021
232.2866, 1554.019
232.7687, 1549.271
233.2508, 1545.375
233.7329, 1541.951
234.2151, 1538.779
234.6972, 1536.255
235.1793, 1534.556
235.6614, 1533.488
236.1435, 1534.780
236.6256, 1543.418
237.1078, 1552.534
237.5899, 1554.434
238.0720, 1546.526
238.5541, 1535.735
239.0362, 1526.276
239.5183, 1518.205
240.0005, 1518.031
240.4826, 1535.958
240.9647, 1556.329
241.4468, 1561.767
241.9289, 1549.685
242.4110, 1534.100
242.8932, 1522.010
243.3753, 1513.897
243.8574, 1514.569
244.3395, 1530.975
244.8216, 1549.398
245.3037, 1553.099
245.7859, 1542.022
246.2680, 1534.245
246.7501, 1544.912
247.2322, 1566.299
247.7143, 1575.368
248.1964, 1564.180
248.6786, 1548.827
249.1607, 1546.507
249.6428, 1554.996
250.1249, 1562.132
250.6070, 1563.132
251.0891, 1560.377
251.5713, 1558.207
252.0534, 1541.870
252.5355, 1561.594
253.0176, 1572.802
253.4997, 1575.950
253.9818, 1546.901
254.4640, 1559.428
254.9461, 1555.293
255.4282, 1550.475
255.9103, 1568.854
256.3924, 1544.488
256.8745, 1562.499
257.3567, 1563.594
257.8388, 1572.431
258.3209, 1564.503
258.8030, 1561.753
259.2851, 1575.773
259.7672, 1580.508
260.2494, 1570.650
260.7315, 1579.979
261.2136, 1555.028
261.6957, 1560.158
262.1778, 1578.267
262.6599, 1569.252
263.1421, 1578.888
263.6242, 1581.420
264.1063, 1551.672
264.5884, 1578.063
265.0705, 1580.176
265.5526, 1557.360
266.0348, 1581.827
266.5169, 1562.448
266.9990, 1558.720
267.4811, 1566.769
267.9632, 1562.540
268.4453, 1577.670
268.9275, 1574.150
269.4096, 1568.964
269.8917, 1571.050
270.3738, 1552.530
270.8559, 1572.237
271.3380, 1565.832
271.8202, 1572.407
272.3023, 1581.923
272.7844, 1568.913
273.2665, 1579.752
273.7486, 1553.607
274.2307, 1558.407
274.7129, 1559.875
275.1950, 1581.123
275.6771, 1555.158
276.1592, 1559.099
276.6413, 1575.773
277.1234, 1574.630
277.6056, 1580.937
278.0877, 1565.190
278.5698, 1570.161
279.0519, 1569.421
279.5340, 1588.413
280.0161, 1591.828
280.4983, 1576.456
280.9804, 1561.163
281.4625, 1581.576
281.9446, 1568.147
282.4267, 1572.975
282.9088, 1558.947
283.3910, 1561.200
283.8731, 1563.195
284.3552, 1573.535
284.8373, 1558.569
285.3194, 1576.430
285.8015, 1580.136
286.2837, 1592.310
286.7658, 1599.249
287.2479, 1595.689
287.7300, 1590.618
288.2121, 1589.811
288.6942, 1593.207
289.1764, 1596.141
289.6585, 1593.618
290.1406, 1585.284
290.6227, 1577.333
291.1048, 1568.496
291.5869, 1561.530
292.0691, 1556.921
292.5512, 1554.970
293.0333, 1556.271
293.5154, 1561.615
293.9975, 1570.377
294.4796, 1581.790
294.9618, 1600.249
295.4439, 1611.810
295.9260, 1605.296
296.4081, 1590.358
296.8902, 1579.093
297.3723, 1575.858
297.8545, 1577.364
298.3366, 1580.885
298.8187, 1586.868
299.3008, 1589.386
299.7829, 1582.246
300.2650, 1573.096
300.7472, 1572.188
301.2293, 1582.473
301.7114, 1590.491
302.1935, 1581.364
302.6756, 1560.595
303.1577, 1552.674
303.6399, 1568.034
304.1220, 1589.527
304.6041, 1596.032
305.0862, 1588.243
305.5683, 1581.532
306.0504, 1580.670
306.5326, 1583.728
307.0147, 1590.068
307.4968, 1600.003
307.9789, 1606.323
308.4610, 1599.864
308.9431, 1581.600
309.4253, 1574.921
309.9074, 1592.464
310.3895, 1611.402
310.8716, 1615.738
311.3537, 1607.981
311.8358, 1599.393
312.3180, 1595.997
312.8001, 1597.171
313.2822, 1600.422
313.7643, 1613.361
314.2464, 1618.926
314.7285, 1606.768
315.2107, 1587.258
315.6928, 1574.442
316.1749, 1573.312
316.6570, 1579.640
317.1391, 1586.343
317.6212, 1594.763
318.1034, 1600.757
318.5855, 1603.931
319.0676, 1605.177
319.5497, 1603.324
320.0318, 1599.370
320.5139, 1597.428
320.9961, 1602.196
321.4782, 1614.567
321.9603, 1623.867
322.4424, 1628.951
322.9245, 1631.899
323.4066, 1633.569
323.8888, 1633.478
324.3709, 1629.726
324.8530, 1620.081
325.3351, 1608.050
325.8172, 1606.196
326.2993, 1621.130
326.7815, 1633.473
327.2636, 1638.330
327.7457, 1639.011
328.2278, 1638.520
328.7099, 1637.723
329.1920, 1635.188
329.6742, 1627.144
330.1563, 1612.961
330.6384, 1604.702
331.1205, 1607.084
331.6026, 1613.834
332.0847, 1621.531
332.5669, 1629.700
333.0490, 1636.052
333.5311, 1638.600
334.0132, 1638.439
334.4953, 1638.638
334.9774, 1639.951
335.4596, 1639.578
335.9417, 1632.055
336.4238, 1621.146
336.9059, 1617.169
337.3880, 1626.678
337.8702, 1639.887
338.3523, 1652.085
338.8344, 1662.241
339.3165, 1663.054
339.7986, 1647.562
340.2808, 1623.984
340.7629, 1614.123
341.2450, 1621.217
341.7271, 1631.796
342.2092, 1645.822
342.6913, 1659.935
343.1735, 1671.077
343.6556, 1678.309
344.1377, 1678.633
344.6198, 1666.110
345.1019, 1633.081
345.5840, 1617.621
346.0662, 1633.061
346.5483, 1652.449
347.0304, 1664.013
347.5125, 1666.540
347.9946, 1660.456
348.4767, 1644.438
348.9589, 1621.198
349.4410, 1611.456
349.9231, 1632.323
350.4052, 1646.418
350.8873, 1643.005
351.3694, 1632.642
351.8516, 1626.590
352.3337, 1628.872
352.8158, 1636.597
353.2979, 1646.108
353.7800, 1658.396
354.2621, 1668.707
354.7443, 1681.051
355.2264, 1687.434
355.7085, 1678.335
356.1906, 1656.855
356.6727, 1638.822
357.1548, 1639.358
357.6370, 1653.261
358.1191, 1658.640
358.6012, 1652.266
359.0833, 1644.749
359.5654, 1641.147
360.0475, 1640.689
360.5297, 1642.903
361.0118, 1649.159
361.4939, 1655.991
361.9760, 1660.443
362.4581, 1662.659
362.9402, 1663.873
363.4224, 1665.148
363.9045, 1664.773
364.3866, 1658.494
364.8687, 1644.477
365.3508, 1633.878
365.8329, 1630.902
366.3151, 1632.269
366.7972, 1634.828
367.2793, 1637.936
367.7614, 1640.689
368.2435, 1642.271
368.7256, 1642.612
369.2078, 1642.550
369.6899, 1640.006
370.1720, 1639.278
370.6541, 1643.459
371.1362, 1650.519
371.6183, 1656.561
372.1005, 1659.624
372.5826, 1660.768
373.0647, 1662.754
373.5468, 1666.331
374.0289, 1669.493
374.5110, 1673.408
374.9932, 1676.036
375.4753, 1675.568
375.9574, 1671.997
376.4395, 1666.990
376.9216, 1661.723
377.4037, 1656.190
377.8859, 1651.486
378.3680, 1646.574
378.8501, 1644.126
379.3322, 1647.235
379.8143, 1652.962
380.2964, 1656.105
380.7786, 1654.120
381.2607, 1649.482
381.7428, 1646.390
382.2249, 1644.969
382.7070, 1638.955
383.1891, 1621.229
383.6713, 1602.574
384.1534, 1598.111
384.6355, 1609.662
385.1176, 1622.544
385.5997, 1632.512
386.0818, 1639.472
386.5640, 1642.296
387.0461, 1640.793
387.5282, 1638.528
388.0103, 1638.303
388.4924, 1640.202
388.9745, 1643.362
389.4567, 1653.694
389.9388, 1659.028
390.4209, 1649.919
390.9030, 1632.783
391.3851, 1619.452
391.8672, 1615.246
392.3494, 1617.046
392.8315, 1618.398
393.3136, 1618.841
393.7957, 1619.671
394.2778, 1623.031
394.7599, 1625.088
395.2421, 1621.821
395.7242, 1614.292
396.2063, 1607.863
396.6884, 1607.684
397.1705, 1612.796
397.6526, 1614.929
398.1348, 1612.502
398.6169, 1609.735
399.0990, 1605.619
399.5811, 1603.034
400.0632, 1607.632
400.5453, 1623.442
401.0275, 1637.245
401.5096, 1629.684
401.9917, 1603.914
402.4738, 1591.062
402.9559, 1603.712
403.4380, 1622.398
403.9202, 1623.621
404.4023, 1609.108
404.8844, 1599.596
405.3665, 1604.295
405.8486, 1613.565
406.3307, 1617.628
406.8129, 1616.751
407.2950, 1617.147
407.7771, 1623.338
408.2592, 1633.040
408.7413, 1636.144
409.2234, 1625.668
409.7056, 1618.217
410.1877, 1617.648
410.6698, 1620.231
411.1519, 1622.924
411.6340, 1624.711
412.1161, 1624.855
412.5983, 1621.202
413.0804, 1612.150
413.5625, 1612.178
414.0446, 1635.334
414.5267, 1653.573
415.0089, 1654.813
415.4910, 1646.441
415.9731, 1641.850
416.4552, 1648.138
416.9373, 1657.882
417.4194, 1655.590
417.9016, 1638.773
418.3837, 1632.008
418.8658, 1649.122
419.3479, 1671.686
419.8300, 1682.657
420.3121, 1682.091
420.7943, 1679.515
421.2764, 1677.158
421.7585, 1676.294
422.2406, 1680.755
422.7227, 1690.678
423.2048, 1697.051
423.6870, 1691.752
424.1691, 1678.713
424.6512, 1676.739
425.1333, 1701.966
425.6154, 1717.054
426.0975, 1703.750
426.5797, 1678.606
427.0618, 1664.237
427.5439, 1665.693
428.0260, 1669.609
428.5081, 1658.010
428.9902, 1625.605
429.4724, 1607.562
429.9545, 1620.477
430.4366, 1630.342
430.9187, 1623.634
431.4008, 1606.631
431.8829, 1590.099
432.3651, 1578.615
432.8472, 1572.409
433.3293, 1574.148
433.8114, 1585.771
434.2935, 1592.563
434.7756, 1589.876
435.2578, 1582.393
435.7399, 1571.818
436.2220, 1558.954
436.7041, 1550.263
437.1862, 1552.983
437.6683, 1559.761
438.1505, 1558.761
438.6326, 1549.802
439.1147, 1542.167
439.5968, 1541.556
440.0789, 1545.857
440.5610, 1547.724
441.0432, 1544.227
441.5253, 1543.380
442.0074, 1549.891
442.4895, 1558.302
442.9716, 1563.086
443.4537, 1563.132
443.9359, 1559.514
444.4180, 1552.249
444.9001, 1540.863
445.3822, 1536.911
445.8643, 1551.204
446.3464, 1560.845
446.8286, 1556.315
447.3107, 1546.047
447.7928, 1541.977
448.2749, 1548.515
448.7570, 1556.576
449.2391, 1552.230
449.7213, 1535.518
450.2034, 1526.278
450.6855, 1530.875
451.1676, 1538.112
451.6497, 1540.859
452.1318, 1539.454
452.6140, 1534.266
453.0961, 1519.527
453.5782, 1505.708
454.0603, 1503.787
454.5424, 1511.387
455.0245, 1518.927
455.5067, 1522.704
455.9888, 1524.099
456.4709, 1525.630
456.9530, 1527.835
457.4351, 1528.800
457.9172, 1526.583
458.3994, 1524.681
458.8815, 1526.228
459.3636, 1530.321
459.8457, 1533.834
460.3278, 1534.850
460.8099, 1533.486
461.2921, 1529.824
461.7742, 1522.091
462.2563, 1515.908
462.7384, 1514.118
463.2205, 1512.917
463.7026, 1508.294
464.1848, 1500.395
464.6669, 1494.864
465.1490, 1498.630
465.6311, 1507.322
466.1132, 1508.355
466.5953, 1500.046
467.0775, 1493.296
467.5596, 1496.517
468.0417, 1504.977
468.5238, 1504.902
469.0059, 1490.170
469.4880, 1478.381
469.9702, 1479.536
470.4523, 1485.181
470.9344, 1482.442
471.4165, 1470.064
471.8986, 1459.857
472.3807, 1464.384
472.8629, 1483.695
473.3450, 1494.456
473.8271, 1489.215
474.3092, 1483.187
474.7913, 1477.698
475.2734, 1473.364
475.7556, 1471.365
476.2377, 1471.911
476.7198, 1472.198
477.2019, 1467.242
477.6840, 1457.688
478.1661, 1454.749
478.6483, 1462.104
479.1304, 1470.580
479.6125, 1474.282
480.0946, 1474.644
480.5767, 1474.160
481.0588, 1472.658
481.5410, 1471.272
482.0231, 1469.781
482.5052, 1469.061
482.9873, 1472.639
483.4694, 1481.749
483.9515, 1489.690
484.4337, 1487.493
484.9158, 1472.368
485.3979, 1464.294
485.8800, 1471.391
486.3621, 1475.531
486.8442, 1466.349
487.3264, 1450.941
487.8085, 1440.745
488.2906, 1440.338
488.7727, 1444.741
489.2548, 1447.270
489.7369, 1447.938
490.2191, 1446.090
490.7012, 1438.160
491.1833, 1432.363
491.6654, 1437.427
492.1475, 1448.384
492.6296, 1451.866
493.1118, 1437.605
493.5939, 1421.677
494.0760, 1419.206
494.5581, 1427.036
495.0402, 1434.981
495.5223, 1440.265
496.0045, 1442.346
496.4866, 1439.296
496.9687, 1428.418
497.4508, 1425.596
497.9329, 1436.725
498.4150, 1449.260
498.8972, 1461.775
499.3793, 1470.698
499.8614, 1468.596
500.3435, 1452.048
500.8256, 1430.699
501.3077, 1421.562
501.7899, 1426.851
502.2720, 1431.002
502.7541, 1432.754
503.2362, 1432.987
503.7184, 1431.082
504.2005, 1428.163
504.6826, 1427.067
505.1647, 1428.241
505.6468, 1432.213
506.1289, 1442.281
506.6111, 1456.021
507.0932, 1465.308
507.5753, 1467.792
508.0574, 1463.970
508.5395, 1452.777
509.0216, 1431.324
509.5038, 1419.075
509.9859, 1421.779
510.4680, 1427.040
510.9501, 1431.189
511.4322, 1433.853
511.9143, 1434.625
512.3964, 1433.366
512.8785, 1431.899
513.3607, 1434.662
513.8428, 1442.992
514.3249, 1442.861
514.8070, 1425.779
515.2891, 1410.420
515.7712, 1408.314
516.2534, 1415.400
516.7355, 1424.037
517.2176, 1435.714
517.6997, 1442.706
518.1818, 1433.508
518.6639, 1415.075
519.1461, 1405.932
519.6282, 1411.005
520.1103, 1421.904
520.5924, 1431.467
521.0745, 1440.572
521.5566, 1436.956
522.0388, 1400.560
522.5209, 1376.557
523.0030, 1387.967
523.4851, 1415.034
523.9672, 1433.496
524.4493, 1436.061
524.9315, 1430.607
525.4136, 1425.845
525.8957, 1421.599
526.3778, 1411.452
526.8599, 1389.229
527.3420, 1374.116
527.8242, 1383.614
528.3063, 1405.411
528.7884, 1420.804
529.2705, 1427.139
529.7526, 1428.247
530.2347, 1421.822
530.7169, 1413.117
531.1990, 1411.770
531.6811, 1418.408
532.1632, 1423.448
532.6453, 1418.171
533.1274, 1404.390
533.6096, 1398.478
534.0917, 1408.031
534.5738, 1415.408
535.0559, 1417.569
535.5380, 1417.657
536.0201, 1418.940
536.5023, 1421.339
536.9844, 1421.428
537.4665, 1413.357
537.9486, 1401.868
538.4307, 1401.971
538.9128, 1415.390
539.3950, 1425.194
539.8771, 1423.624
540.3592, 1415.323
540.8413, 1406.507
541.3234, 1395.290
541.8055, 1391.818
542.2877, 1407.103
542.7698, 1423.610
543.2519, 1425.666
543.7340, 1416.393
544.2161, 1408.124
544.6982, 1407.540
545.1804, 1411.338
545.6625, 1411.619
546.1446, 1405.937
546.6267, 1404.411
547.1088, 1414.500
547.5909, 1422.329
548.0731, 1417.902
548.5552, 1405.728
549.0373, 1398.092
549.5194, 1402.177
550.0015, 1408.618
550.4836, 1406.710
550.9658, 1399.211
551.4479, 1396.474
551.9300, 1401.521
552.4121, 1408.213
552.8942, 1409.680
553.3763, 1405.311
553.8585, 1405.364
554.3406, 1417.061
554.8227, 1423.859
555.3048, 1416.117
555.7869, 1403.768
556.2690, 1399.711
556.7512, 1406.316
557.2333, 1414.115
557.7154, 1412.479
558.1975, 1403.146
558.6796, 1397.766
559.1617, 1397.784
559.6439, 1396.758
560.1260, 1390.299
560.6081, 1381.840
561.0902, 1377.531
561.5723, 1378.643
562.0544, 1379.359
562.5366, 1377.610
563.0187, 1374.854
563.5008, 1370.774
563.9829, 1366.645
564.4650, 1367.023
564.9471, 1374.981
565.4293, 1386.743
565.9114, 1392.822
566.3935, 1391.846
566.8756, 1388.861
567.3577, 1378.707
567.8398, 1371.804
568.3220, 1374.339
568.8041, 1384.184
569.2862, 1396.187
569.7683, 1411.463
570.2504, 1423.089
570.7325, 1422.372
571.2147, 1412.449
571.6968, 1402.710
572.1789, 1395.457
572.6610, 1387.019
573.1431, 1371.873
573.6252, 1350.070
574.1074, 1343.815
574.5895, 1369.861
575.0716, 1389.631
575.5537, 1393.507
576.0358, 1389.370
576.5179, 1382.978
577.0001, 1376.383
577.4822, 1371.990
577.9643, 1372.361
578.4464, 1376.317
578.9285, 1381.918
579.4106, 1389.928
579.8928, 1391.766
580.3749, 1381.012
580.8570, 1365.756
581.3391, 1359.745
581.8212, 1364.146
582.3033, 1366.475
582.7855, 1362.605
583.2676, 1358.533
583.7497, 1357.505
584.2318, 1359.192
584.7140, 1363.112
585.1961, 1368.985
585.6782, 1374.577
586.1603, 1375.455
586.6425, 1370.935
587.1246, 1371.057
587.6067, 1379.958
588.0888, 1386.821
588.5709, 1381.496
589.0530, 1371.956
589.5352, 1372.092
590.0173, 1388.854
590.4994, 1399.167
590.9815, 1385.240
591.4636, 1362.645
591.9457, 1351.282
592.4279, 1351.714
592.9100, 1353.137
593.3921, 1348.530
593.8742, 1340.478
594.3563, 1336.384
594.8384, 1336.522
595.3206, 1340.027
595.8027, 1355.367
596.2848, 1366.176
596.7669, 1357.803
597.2490, 1338.308
597.7311, 1330.392
598.2133, 1349.107
598.6954, 1369.879
599.1775, 1365.034
599.6596, 1345.136
600.1417, 1341.291
600.6238, 1359.877
601.1060, 1376.467
601.5881, 1367.182
602.0702, 1335.689
602.5523, 1324.307
603.0344, 1355.546
603.5165, 1377.089
603.9987, 1379.995
604.4808, 1374.667
604.9629, 1365.799
605.4450, 1355.959
605.9271, 1350.672
606.4092, 1355.143
606.8914, 1364.279
607.3735, 1372.666
607.8556, 1379.591
608.3377, 1378.475
608.8198, 1366.157
609.3019, 1349.826
609.7841, 1337.029
610.2662, 1327.974
610.7483, 1320.207
611.2304, 1312.881
611.7125, 1307.737
612.1946, 1306.183
612.6768, 1306.512
613.1589, 1307.954
613.6410, 1309.759
614.1231, 1309.248
614.6052, 1301.616
615.0873, 1290.690
615.5695, 1289.456
616.0516, 1298.584
616.5337, 1304.088
617.0158, 1300.112
617.4979, 1291.452
617.9800, 1283.885
618.4622, 1276.950
618.9443, 1274.279
619.4264, 1277.896
619.9085, 1283.724
620.3906, 1293.128
620.8727, 1302.298
621.3549, 1305.787
621.8370, 1302.237
622.3191, 1295.091
622.8012, 1286.031
623.2833, 1276.055
623.7654, 1270.697
624.2476, 1270.081
624.7297, 1274.103
625.2118, 1286.423
625.6939, 1300.187
626.1760, 1302.701
626.6581, 1292.465
627.1403, 1283.604
627.6224, 1274.531
628.1045, 1270.805
628.5866, 1283.328
629.0687, 1301.517
629.5508, 1304.208
630.0330, 1284.697
630.5151, 1261.178
630.9972, 1258.394
631.4793, 1274.203
631.9614, 1280.951
632.4435, 1275.375
632.9257, 1271.582
633.4078, 1278.602
633.8899, 1289.421
634.3720, 1290.627
634.8541, 1279.357
635.3362, 1272.934
635.8184, 1276.415
636.3005, 1284.142
636.7826, 1297.998
637.2647, 1312.087
637.7468, 1313.484
638.2289, 1297.567
638.7111, 1277.054
639.1932, 1269.547
639.6753, 1274.346
640.1574, 1275.969
640.6395, 1272.555
641.1216, 1271.354
641.6038, 1279.441
642.0859, 1289.502
642.5680, 1287.531
643.0501, 1270.302
643.5322, 1255.953
644.0143, 1248.857
644.4965, 1245.137
644.9786, 1242.500
645.4607, 1241.124
645.9428, 1243.005
646.4249, 1248.741
646.9070, 1253.551
647.3892, 1248.573
