##NAMES=Ixiolite
##RRUFFID=R070495
##IDEAL CHEMISTRY=(Ta^5+^,Mn^2+^,Nb^5+^)O_2_
##LOCALITY=Alto Ligonha pegmatite, Alto Ligonha District, Zambezia Province, Mozambique
##OWNER=RRUFF
##SOURCE=Michael Scott
##DESCRIPTION=Black submetallic grain
##STATUS=The identification of this mineral has been confirmed by single-crystal X-ray diffraction.
##URL=rruff.info/R070495
144.0591, 2378.499
144.5413, 2466.371
145.0234, 2557.059
145.5055, 2652.715
145.9876, 2748.599
146.4697, 2837.914
146.9518, 2919.299
147.4340, 2998.695
147.9161, 3087.044
148.3982, 3182.793
148.8803, 3264.726
149.3624, 3326.149
149.8445, 3371.291
150.3267, 3407.117
150.8088, 3435.118
151.2909, 3452.465
151.7730, 3448.933
152.2551, 3428.969
152.7372, 3415.893
153.2194, 3432.010
153.7015, 3460.733
154.1836, 3459.628
154.6657, 3410.860
155.1478, 3355.213
155.6299, 3330.147
156.1121, 3330.636
156.5942, 3334.524
157.0763, 3325.182
157.5584, 3309.653
158.0405, 3315.565
158.5226, 3360.882
159.0048, 3406.137
159.4869, 3412.892
159.9690, 3389.613
160.4511, 3377.458
160.9332, 3405.673
161.4153, 3460.443
161.8975, 3497.185
162.3796, 3535.496
162.8617, 3560.427
163.3438, 3558.064
163.8259, 3534.377
164.3080, 3514.247
164.7902, 3520.104
165.2723, 3548.504
165.7544, 3564.496
166.2365, 3563.509
166.7186, 3552.778
167.2007, 3532.247
167.6829, 3505.252
168.1650, 3482.426
168.6471, 3478.003
169.1292, 3491.083
169.6113, 3486.061
170.0934, 3444.544
170.5756, 3403.080
171.0577, 3379.814
171.5398, 3372.163
172.0219, 3367.543
172.5040, 3353.714
172.9861, 3330.097
173.4683, 3316.251
173.9504, 3326.538
174.4325, 3332.668
174.9146, 3316.413
175.3967, 3283.510
175.8788, 3254.877
176.3610, 3251.177
176.8431, 3274.060
177.3252, 3288.333
177.8073, 3281.171
178.2894, 3276.384
178.7715, 3287.688
179.2537, 3310.286
179.7358, 3328.072
180.2179, 3323.984
180.7000, 3295.900
181.1821, 3279.580
181.6642, 3289.477
182.1464, 3298.980
182.6285, 3298.434
183.1106, 3289.676
183.5927, 3280.089
184.0748, 3276.144
184.5569, 3278.178
185.0391, 3279.009
185.5212, 3277.464
186.0033, 3275.774
186.4854, 3272.502
186.9675, 3269.378
187.4496, 3270.430
187.9318, 3280.099
188.4139, 3298.753
188.8960, 3312.877
189.3781, 3320.855
189.8602, 3325.332
190.3423, 3326.877
190.8245, 3325.389
191.3066, 3319.728
191.7887, 3307.380
192.2708, 3288.352
192.7529, 3279.813
193.2350, 3299.235
193.7172, 3312.448
194.1993, 3305.385
194.6814, 3285.121
195.1635, 3266.625
195.6456, 3260.614
196.1277, 3266.630
196.6099, 3275.133
197.0920, 3294.365
197.5741, 3307.815
198.0562, 3311.279
198.5383, 3306.404
199.0204, 3295.192
199.5026, 3277.579
199.9847, 3255.179
200.4668, 3244.553
200.9489, 3259.526
201.4310, 3273.056
201.9131, 3278.785
202.3953, 3280.144
202.8774, 3284.182
203.3595, 3295.988
203.8416, 3312.709
204.3237, 3316.875
204.8058, 3290.906
205.2880, 3271.013
205.7701, 3269.034
206.2522, 3274.802
206.7343, 3272.879
207.2164, 3254.212
207.6985, 3224.418
208.1807, 3206.213
208.6628, 3203.708
209.1449, 3209.449
209.6270, 3232.561
210.1091, 3259.748
210.5912, 3274.068
211.0734, 3267.187
211.5555, 3246.909
212.0376, 3236.250
212.5197, 3246.077
213.0018, 3250.950
213.4839, 3242.858
213.9661, 3231.476
214.4482, 3227.349
214.9303, 3234.485
215.4124, 3248.108
215.8945, 3257.362
216.3766, 3258.433
216.8587, 3261.076
217.3409, 3269.165
217.8230, 3277.134
218.3051, 3279.091
218.7872, 3273.589
219.2693, 3265.227
219.7514, 3262.522
220.2336, 3271.415
220.7157, 3274.485
221.1978, 3266.549
221.6799, 3256.830
222.1620, 3251.930
222.6441, 3253.162
223.1263, 3257.651
223.6084, 3261.559
224.0905, 3264.789
224.5726, 3267.719
225.0547, 3273.132
225.5368, 3276.252
226.0190, 3273.471
226.5011, 3264.967
226.9832, 3253.849
227.4653, 3242.029
227.9474, 3226.618
228.4296, 3223.328
228.9117, 3244.736
229.3938, 3266.381
229.8759, 3277.281
230.3580, 3277.940
230.8401, 3275.112
231.3223, 3275.162
231.8044, 3278.702
232.2865, 3277.825
232.7686, 3268.664
233.2507, 3258.489
233.7328, 3247.765
234.2150, 3237.646
234.6971, 3229.852
235.1792, 3225.395
235.6613, 3224.290
236.1434, 3227.214
236.6255, 3238.177
237.1077, 3249.038
237.5898, 3258.318
238.0719, 3266.069
238.5540, 3272.852
239.0361, 3279.102
239.5182, 3284.438
240.0004, 3286.997
240.4825, 3285.170
240.9646, 3282.730
241.4467, 3278.373
241.9288, 3274.719
242.4109, 3277.309
242.8931, 3289.810
243.3752, 3303.559
243.8573, 3295.173
244.3394, 3247.516
244.8215, 3213.618
245.3036, 3209.745
245.7858, 3218.542
246.2679, 3225.813
246.7500, 3227.089
247.2321, 3226.290
247.7142, 3231.744
248.1963, 3248.872
248.6785, 3253.614
249.1606, 3225.532
249.6427, 3195.533
250.1248, 3184.282
250.6069, 3194.771
251.0890, 3212.200
251.5712, 3220.600
252.0533, 3218.732
252.5354, 3219.473
253.0175, 3230.442
253.4996, 3238.693
253.9817, 3234.619
254.4639, 3219.847
254.9460, 3205.375
255.4281, 3201.518
255.9102, 3207.238
256.3923, 3208.014
256.8745, 3196.729
257.3566, 3189.469
257.8387, 3199.836
258.3208, 3221.223
258.8029, 3235.825
259.2850, 3229.208
259.7672, 3208.547
260.2493, 3196.574
260.7314, 3195.895
261.2135, 3198.262
261.6956, 3201.458
262.1777, 3204.271
262.6599, 3204.084
263.1420, 3196.737
263.6241, 3189.007
264.1062, 3194.295
264.5883, 3216.019
265.0704, 3232.196
265.5526, 3226.512
266.0347, 3211.771
266.5168, 3204.216
266.9989, 3209.959
267.4810, 3216.094
267.9631, 3207.091
268.4453, 3184.120
268.9274, 3168.542
269.4095, 3170.414
269.8916, 3181.438
270.3737, 3188.828
270.8558, 3191.599
271.3380, 3195.185
271.8201, 3206.325
272.3022, 3221.230
272.7843, 3226.593
273.2664, 3216.441
273.7485, 3201.330
274.2307, 3194.994
274.7128, 3197.091
275.1949, 3196.982
275.6770, 3185.704
276.1591, 3172.167
276.6412, 3171.629
277.1234, 3187.345
277.6055, 3205.590
278.0876, 3213.978
278.5697, 3212.766
279.0518, 3210.080
279.5339, 3206.782
280.0161, 3202.162
280.4982, 3191.991
280.9803, 3177.696
281.4624, 3171.325
281.9445, 3183.668
282.4266, 3211.483
282.9088, 3228.785
283.3909, 3233.250
283.8730, 3231.051
284.3551, 3219.165
284.8372, 3202.573
285.3193, 3193.481
285.8015, 3199.074
286.2836, 3212.830
286.7657, 3215.251
287.2478, 3194.412
287.7299, 3179.840
288.2120, 3184.060
288.6942, 3193.061
289.1763, 3187.336
289.6584, 3161.529
290.1405, 3130.312
290.6226, 3116.867
291.1047, 3135.465
291.5869, 3139.967
292.0690, 3111.373
292.5511, 3084.065
293.0332, 3086.324
293.5153, 3116.928
293.9974, 3151.138
294.4796, 3164.151
294.9617, 3153.340
295.4438, 3145.606
295.9259, 3145.808
296.4080, 3143.939
296.8901, 3135.052
297.3723, 3121.420
297.8544, 3107.960
298.3365, 3097.646
298.8186, 3090.116
299.3007, 3083.651
299.7828, 3078.008
300.2650, 3073.927
300.7471, 3073.493
301.2292, 3073.716
301.7113, 3071.741
302.1934, 3066.495
302.6755, 3058.140
303.1577, 3044.298
303.6398, 3019.161
304.1219, 3007.051
304.6040, 3028.115
305.0861, 3051.442
305.5682, 3056.354
306.0504, 3041.183
306.5325, 3020.833
307.0146, 3007.410
307.4967, 3000.923
307.9788, 3000.814
308.4609, 3016.457
308.9431, 3026.265
309.4252, 3013.654
309.9073, 2984.981
310.3894, 2959.359
310.8715, 2947.239
311.3536, 2944.811
311.8358, 2945.181
312.3179, 2949.696
312.8000, 2952.085
313.2821, 2944.352
313.7642, 2933.191
314.2463, 2929.533
314.7285, 2939.500
315.2106, 2951.671
315.6927, 2958.348
316.1748, 2959.172
316.6569, 2949.251
317.1390, 2919.893
317.6212, 2886.014
318.1033, 2875.103
318.5854, 2892.784
319.0675, 2909.223
319.5496, 2910.299
320.0317, 2903.345
320.5139, 2901.492
320.9960, 2908.057
321.4781, 2915.919
321.9602, 2915.559
322.4423, 2904.866
322.9244, 2902.317
323.4066, 2920.309
323.8887, 2937.925
324.3708, 2936.865
324.8529, 2919.329
325.3350, 2901.335
325.8171, 2894.276
326.2993, 2897.356
326.7814, 2901.128
327.2635, 2908.798
327.7456, 2913.441
328.2277, 2911.554
328.7098, 2905.960
329.1920, 2901.250
329.6741, 2899.403
330.1562, 2898.076
330.6383, 2891.865
331.1204, 2875.667
331.6025, 2863.183
332.0847, 2859.143
332.5668, 2855.249
333.0489, 2843.031
333.5310, 2823.136
334.0131, 2805.026
334.4952, 2799.493
334.9774, 2807.719
335.4595, 2815.116
335.9416, 2822.442
336.4237, 2828.042
336.9058, 2828.116
337.3879, 2826.323
337.8701, 2830.200
338.3522, 2845.795
338.8343, 2867.505
339.3164, 2882.760
339.7985, 2893.838
340.2806, 2891.655
340.7627, 2855.625
341.2448, 2813.321
341.7270, 2792.250
342.2091, 2799.942
342.6912, 2814.929
343.1733, 2815.649
343.6554, 2804.497
344.1375, 2802.131
344.6197, 2817.029
345.1018, 2835.769
345.5839, 2846.321
346.0660, 2849.217
346.5481, 2846.698
347.0302, 2835.285
347.5124, 2820.830
347.9945, 2811.970
348.4766, 2809.429
348.9587, 2806.492
349.4408, 2796.024
349.9229, 2781.091
350.4051, 2778.392
350.8872, 2805.563
351.3693, 2826.220
351.8514, 2816.209
352.3335, 2788.305
352.8156, 2769.631
353.2978, 2771.421
353.7799, 2787.366
354.2620, 2806.045
354.7441, 2840.148
355.2262, 2853.734
355.7083, 2828.277
356.1905, 2794.674
356.6726, 2776.592
357.1547, 2776.492
357.6368, 2783.932
358.1189, 2789.075
358.6010, 2791.572
359.0832, 2797.403
359.5653, 2813.195
360.0474, 2825.343
360.5295, 2830.868
361.0116, 2830.175
361.4937, 2822.835
361.9759, 2807.828
362.4580, 2790.191
362.9401, 2782.127
363.4222, 2788.255
363.9043, 2791.077
364.3864, 2779.895
364.8686, 2769.176
365.3507, 2771.434
365.8328, 2787.319
366.3149, 2802.719
366.7970, 2804.455
367.2791, 2795.104
367.7613, 2788.651
368.2434, 2786.588
368.7255, 2786.652
369.2076, 2789.646
369.6897, 2793.614
370.1718, 2793.425
370.6540, 2782.847
371.1361, 2771.370
371.6182, 2769.189
372.1003, 2775.344
372.5824, 2782.740
373.0645, 2789.715
373.5467, 2794.547
374.0288, 2791.677
374.5109, 2775.211
374.9930, 2766.874
375.4751, 2776.795
375.9572, 2795.669
376.4394, 2814.830
376.9215, 2831.904
377.4036, 2843.677
377.8857, 2846.313
378.3678, 2838.720
378.8499, 2829.738
379.3321, 2815.182
379.8142, 2803.785
380.2963, 2801.612
380.7784, 2804.810
381.2605, 2806.494
381.7426, 2803.101
382.2248, 2795.388
382.7069, 2783.842
383.1890, 2759.407
383.6711, 2749.783
384.1532, 2770.812
384.6353, 2796.370
385.1175, 2807.821
385.5996, 2803.299
386.0817, 2793.339
386.5638, 2784.976
387.0459, 2778.556
387.5280, 2779.941
388.0102, 2796.016
388.4923, 2808.045
388.9744, 2799.762
389.4565, 2781.826
389.9386, 2773.736
390.4207, 2785.765
390.9029, 2803.647
391.3850, 2813.029
391.8671, 2814.539
392.3492, 2813.256
392.8313, 2809.805
393.3134, 2805.828
393.7956, 2804.565
394.2777, 2806.666
394.7598, 2806.955
395.2419, 2803.431
395.7240, 2797.903
396.2061, 2789.842
396.6883, 2780.222
397.1704, 2775.892
397.6525, 2783.409
398.1346, 2802.052
398.6167, 2816.826
399.0988, 2831.877
399.5810, 2838.967
400.0631, 2829.232
400.5452, 2812.779
401.0273, 2803.249
401.5094, 2805.375
401.9915, 2812.644
402.4737, 2813.594
402.9558, 2803.270
403.4379, 2801.560
403.9200, 2819.327
404.4021, 2836.146
404.8842, 2844.377
405.3664, 2843.942
405.8485, 2836.529
406.3306, 2818.858
406.8127, 2797.858
407.2948, 2794.610
407.7769, 2814.451
408.2591, 2831.341
408.7412, 2829.855
409.2233, 2822.798
409.7054, 2826.760
410.1875, 2846.465
410.6696, 2861.177
411.1518, 2852.828
411.6339, 2831.101
412.1160, 2817.820
412.5981, 2817.259
413.0802, 2821.953
413.5623, 2826.324
414.0445, 2830.262
414.5266, 2831.823
415.0087, 2832.264
415.4908, 2829.149
415.9729, 2818.514
416.4550, 2803.650
416.9372, 2790.539
417.4193, 2781.638
417.9014, 2777.288
418.3835, 2778.513
418.8656, 2789.308
419.3477, 2798.435
419.8299, 2806.306
420.3120, 2812.415
420.7941, 2820.303
421.2762, 2826.954
421.7583, 2821.865
422.2404, 2791.772
422.7226, 2745.991
423.2047, 2728.996
423.6868, 2756.576
424.1689, 2778.414
424.6510, 2771.462
425.1331, 2753.540
425.6153, 2741.446
426.0974, 2738.864
426.5795, 2737.112
427.0616, 2723.130
427.5437, 2703.926
428.0258, 2707.578
428.5080, 2744.718
428.9901, 2781.390
429.4722, 2784.036
429.9543, 2756.811
430.4364, 2739.168
430.9185, 2739.372
431.4007, 2743.990
431.8828, 2748.066
432.3649, 2750.627
432.8470, 2749.458
433.3291, 2743.503
433.8112, 2735.276
434.2934, 2729.646
434.7755, 2729.397
435.2576, 2725.508
435.7397, 2710.710
436.2218, 2699.109
436.7039, 2701.955
437.1861, 2715.412
437.6682, 2727.201
438.1503, 2728.840
438.6324, 2723.194
439.1145, 2719.486
439.5966, 2717.870
440.0788, 2717.974
440.5609, 2724.521
441.0430, 2729.761
441.5251, 2724.396
442.0072, 2707.446
442.4893, 2694.553
442.9715, 2703.114
443.4536, 2722.547
443.9357, 2724.741
444.4178, 2704.954
444.8999, 2684.063
445.3820, 2676.570
445.8642, 2680.131
446.3463, 2681.138
446.8284, 2677.197
447.3105, 2673.543
447.7926, 2672.020
448.2747, 2672.055
448.7569, 2672.579
449.2390, 2673.344
449.7211, 2675.602
450.2032, 2681.732
450.6853, 2693.683
451.1674, 2698.699
451.6496, 2695.058
452.1317, 2686.836
452.6138, 2669.368
453.0959, 2649.654
453.5780, 2639.131
454.0602, 2643.368
454.5423, 2655.162
455.0244, 2664.214
455.5065, 2670.795
455.9886, 2671.898
456.4707, 2663.411
456.9529, 2653.044
457.4350, 2646.389
457.9171, 2643.021
458.3992, 2640.367
458.8813, 2635.228
459.3634, 2631.687
459.8456, 2637.263
460.3277, 2650.387
460.8098, 2657.964
461.2919, 2652.161
461.7740, 2640.489
462.2561, 2639.972
462.7383, 2657.704
463.2204, 2669.415
463.7025, 2668.101
464.1846, 2663.650
464.6667, 2664.925
465.1488, 2670.929
465.6310, 2674.463
466.1131, 2670.270
466.5952, 2659.445
467.0773, 2645.993
467.5594, 2622.074
468.0415, 2610.413
468.5237, 2626.090
469.0058, 2646.770
469.4879, 2652.867
469.9700, 2642.744
470.4521, 2632.137
470.9342, 2635.673
471.4164, 2648.245
471.8985, 2653.761
472.3806, 2650.998
472.8627, 2644.398
473.3448, 2634.302
473.8269, 2622.773
474.3091, 2615.588
474.7912, 2616.346
475.2733, 2614.773
475.7554, 2602.801
476.2375, 2587.942
476.7196, 2581.542
477.2018, 2585.113
477.6839, 2590.387
478.1660, 2588.743
478.6481, 2580.104
479.1302, 2580.537
479.6123, 2606.141
480.0945, 2622.073
480.5766, 2614.581
481.0587, 2598.012
481.5408, 2590.031
482.0229, 2594.991
482.5050, 2600.368
482.9872, 2588.381
483.4693, 2560.765
483.9514, 2545.413
484.4335, 2544.910
484.9156, 2554.540
485.3977, 2584.946
485.8799, 2621.604
486.3620, 2635.376
486.8441, 2609.219
487.3262, 2579.522
487.8083, 2569.449
488.2904, 2572.262
488.7726, 2575.030
489.2547, 2574.644
489.7368, 2572.148
490.2189, 2567.722
490.7010, 2560.614
491.1831, 2560.612
491.6653, 2579.824
492.1474, 2591.399
492.6295, 2579.886
493.1116, 2558.688
493.5937, 2546.259
494.0758, 2548.821
494.5580, 2556.827
495.0401, 2557.510
495.5222, 2550.447
496.0043, 2545.562
496.4864, 2546.592
496.9685, 2544.692
497.4507, 2528.905
497.9328, 2507.726
498.4149, 2497.998
498.8970, 2506.944
499.3791, 2522.604
499.8612, 2541.412
500.3434, 2559.690
500.8255, 2566.814
501.3076, 2559.767
501.7897, 2546.558
502.2718, 2534.525
502.7539, 2523.301
503.2361, 2518.283
503.7182, 2522.627
504.2003, 2528.648
504.6824, 2536.238
505.1645, 2543.071
505.6466, 2545.365
506.1288, 2542.142
506.6109, 2537.829
507.0930, 2539.707
507.5751, 2548.426
508.0572, 2550.728
508.5393, 2545.305
509.0215, 2534.803
509.5036, 2513.499
509.9857, 2489.986
510.4678, 2480.511
510.9499, 2495.533
511.4320, 2510.309
511.9142, 2501.994
512.3963, 2481.100
512.8784, 2474.313
513.3605, 2487.453
513.8427, 2501.280
514.3248, 2495.827
514.8069, 2470.658
515.2890, 2460.053
515.7711, 2477.284
516.2532, 2491.025
516.7354, 2492.988
517.2175, 2488.120
517.6996, 2479.839
518.1817, 2470.099
518.6638, 2463.921
519.1459, 2470.076
519.6281, 2487.285
520.1102, 2494.164
520.5923, 2487.211
521.0744, 2477.203
521.5565, 2466.410
522.0386, 2456.793
522.5208, 2451.202
523.0029, 2450.155
523.4850, 2452.496
523.9671, 2463.241
524.4492, 2474.714
524.9313, 2472.682
525.4135, 2456.304
525.8956, 2439.033
526.3777, 2430.726
526.8598, 2430.199
527.3419, 2429.862
527.8240, 2429.553
528.3062, 2429.671
528.7883, 2431.419
529.2704, 2432.777
529.7525, 2431.521
530.2346, 2427.919
530.7167, 2424.586
531.1989, 2423.540
531.6810, 2424.266
532.1631, 2426.203
532.6452, 2430.215
533.1273, 2430.157
533.6094, 2422.597
534.0916, 2410.646
534.5737, 2396.818
535.0558, 2379.726
535.5379, 2370.873
536.0200, 2379.400
536.5021, 2392.755
536.9843, 2401.127
537.4664, 2404.513
537.9485, 2405.484
538.4306, 2405.221
538.9127, 2404.336
539.3948, 2404.581
539.8770, 2407.889
540.3591, 2407.632
540.8412, 2400.406
541.3233, 2392.704
541.8054, 2386.045
542.2875, 2381.384
542.7697, 2380.715
543.2518, 2386.192
543.7339, 2393.428
544.2160, 2398.345
544.6981, 2400.709
545.1802, 2398.156
545.6624, 2388.963
546.1445, 2379.066
546.6266, 2375.186
547.1087, 2377.558
547.5908, 2375.532
548.0729, 2356.499
548.5551, 2347.594
549.0372, 2368.834
549.5193, 2401.344
550.0014, 2420.160
550.4835, 2419.212
550.9656, 2409.194
551.4478, 2401.148
551.9299, 2394.930
552.4120, 2386.325
552.8941, 2372.990
553.3762, 2362.142
553.8583, 2355.000
554.3405, 2353.015
554.8226, 2359.151
555.3047, 2374.427
555.7868, 2392.946
556.2689, 2422.177
556.7510, 2447.333
557.2332, 2442.707
557.7153, 2411.306
558.1974, 2382.762
558.6795, 2374.203
559.1616, 2381.357
559.6437, 2392.704
560.1259, 2418.308
560.6080, 2429.770
561.0901, 2418.137
561.5722, 2402.093
562.0543, 2389.235
562.5364, 2381.062
563.0186, 2378.782
563.5007, 2384.592
563.9828, 2393.284
564.4649, 2398.541
564.9470, 2400.288
565.4291, 2396.287
565.9113, 2383.551
566.3934, 2372.197
566.8755, 2373.815
567.3576, 2388.502
567.8397, 2397.187
568.3218, 2393.386
568.8040, 2391.113
569.2861, 2397.705
569.7682, 2407.482
570.2503, 2414.476
570.7324, 2416.815
571.2145, 2413.622
571.6967, 2401.639
572.1788, 2382.706
572.6609, 2373.962
573.1430, 2378.307
573.6251, 2385.304
574.1072, 2396.242
574.5894, 2404.729
575.0715, 2400.561
575.5536, 2381.902
576.0357, 2370.458
576.5178, 2381.531
576.9999, 2398.576
577.4821, 2405.104
577.9642, 2402.666
578.4463, 2400.357
578.9284, 2402.530
579.4105, 2406.453
579.8926, 2406.789
580.3748, 2402.244
580.8569, 2398.230
581.3390, 2392.232
581.8211, 2389.488
582.3032, 2394.714
582.7853, 2403.719
583.2675, 2409.459
583.7496, 2409.304
584.2317, 2407.552
584.7138, 2408.522
585.1959, 2410.734
585.6780, 2408.593
586.1602, 2401.235
586.6422, 2398.647
587.1243, 2410.445
587.6064, 2431.545
588.0886, 2438.773
588.5707, 2416.665
589.0528, 2401.612
589.5349, 2397.895
590.0170, 2399.250
590.4991, 2403.303
590.9813, 2408.405
591.4634, 2412.201
591.9455, 2413.883
592.4276, 2412.281
592.9097, 2402.047
593.3918, 2383.729
593.8740, 2374.861
594.3561, 2382.257
594.8382, 2393.080
595.3203, 2394.835
595.8024, 2387.991
596.2845, 2384.490
596.7667, 2383.521
597.2488, 2386.935
597.7309, 2400.851
598.2130, 2416.563
598.6951, 2421.962
599.1772, 2416.396
599.6594, 2410.782
600.1415, 2415.946
600.6236, 2428.492
601.1057, 2432.056
601.5878, 2423.665
602.0699, 2418.603
602.5521, 2423.074
603.0342, 2431.399
603.5163, 2438.891
603.9984, 2445.445
604.4805, 2446.937
604.9626, 2436.351
605.4448, 2426.204
605.9269, 2425.424
606.4090, 2431.064
606.8911, 2438.869
607.3732, 2446.969
607.8553, 2450.689
608.3375, 2441.607
608.8196, 2419.610
609.3017, 2413.719
609.7838, 2435.563
610.2659, 2452.218
610.7480, 2449.676
611.2302, 2437.790
611.7123, 2424.261
612.1944, 2409.651
612.6765, 2397.387
613.1586, 2385.311
613.6407, 2378.978
614.1229, 2389.925
614.6050, 2412.290
615.0871, 2426.083
615.5692, 2422.583
616.0513, 2411.120
616.5334, 2407.014
617.0156, 2412.731
617.4977, 2411.890
617.9798, 2394.781
618.4619, 2383.538
618.9440, 2391.241
619.4261, 2405.965
619.9083, 2410.297
620.3904, 2399.610
620.8725, 2394.112
621.3546, 2413.442
621.8367, 2441.582
622.3188, 2456.340
622.8010, 2457.255
623.2831, 2450.364
623.7652, 2437.703
624.2473, 2423.469
624.7294, 2416.126
625.2115, 2418.276
625.6937, 2419.664
626.1758, 2417.909
626.6579, 2417.993
627.1400, 2425.284
627.6221, 2434.244
628.1042, 2435.924
628.5864, 2427.417
629.0685, 2416.746
629.5506, 2406.482
630.0327, 2399.272
630.5148, 2401.295
630.9969, 2412.323
631.4791, 2426.018
631.9612, 2439.855
632.4433, 2451.606
632.9254, 2455.341
633.4075, 2445.227
633.8896, 2441.167
634.3718, 2448.785
634.8539, 2456.235
635.3360, 2458.933
635.8181, 2458.146
636.3002, 2455.772
636.7823, 2452.032
637.2645, 2449.353
637.7466, 2451.429
638.2287, 2455.495
638.7108, 2454.563
639.1929, 2448.495
639.6750, 2444.999
640.1572, 2449.178
640.6393, 2456.821
641.1214, 2457.581
641.6035, 2446.847
