##NAMES=Ixiolite
##RRUFFID=R070495
##IDEAL CHEMISTRY=(Ta^5+^,Mn^2+^,Nb^5+^)O_2_
##LOCALITY=Alto Ligonha pegmatite, Alto Ligonha District, Zambezia Province, Mozambique
##OWNER=RRUFF
##SOURCE=Michael Scott
##DESCRIPTION=Black submetallic grain
##STATUS=The identification of this mineral has been confirmed by single-crystal X-ray diffraction.
##URL=rruff.info/R070495
151.6020, 1341.596
152.0841, 1413.327
152.5662, 1459.380
153.0484, 1434.702
153.5305, 1411.575
154.0126, 1433.050
154.4947, 1575.233
154.9768, 1686.908
155.4589, 1735.089
155.9411, 1719.070
156.4232, 1694.923
156.9053, 1658.395
157.3874, 1615.773
157.8695, 1578.507
158.3516, 1564.591
158.8338, 1555.337
159.3159, 1544.301
159.7980, 1530.427
160.2801, 1519.626
160.7622, 1512.040
161.2443, 1508.736
161.7265, 1511.229
162.2086, 1530.296
162.6907, 1547.687
163.1728, 1553.278
163.6549, 1542.352
164.1370, 1528.717
164.6192, 1513.698
165.1013, 1499.677
165.5834, 1492.182
166.0655, 1502.435
166.5476, 1515.400
167.0297, 1518.207
167.5119, 1501.365
167.9940, 1483.938
168.4761, 1476.369
168.9582, 1477.479
169.4403, 1482.511
169.9224, 1493.746
170.4046, 1505.721
170.8867, 1512.012
171.3688, 1504.390
171.8509, 1495.503
172.3330, 1496.944
172.8151, 1508.010
173.2973, 1520.047
173.7794, 1529.875
174.2615, 1536.243
174.7436, 1536.942
175.2257, 1525.923
175.7078, 1511.480
176.1900, 1502.507
176.6721, 1499.356
177.1542, 1499.897
177.6363, 1505.365
178.1184, 1513.506
178.6005, 1518.578
179.0827, 1514.676
179.5648, 1506.766
180.0469, 1503.200
180.5290, 1504.912
181.0111, 1509.074
181.4932, 1512.981
181.9754, 1516.720
182.4575, 1520.593
182.9396, 1525.885
183.4217, 1531.442
183.9038, 1534.353
184.3859, 1533.806
184.8681, 1531.280
185.3502, 1527.799
185.8323, 1523.519
186.3144, 1521.054
186.7965, 1523.712
187.2786, 1530.069
187.7608, 1534.388
188.2429, 1535.080
188.7250, 1533.657
189.2071, 1532.569
189.6892, 1531.766
190.1713, 1532.349
190.6535, 1535.414
191.1356, 1540.832
191.6177, 1547.595
192.0998, 1556.477
192.5819, 1566.201
193.0640, 1573.421
193.5462, 1578.429
194.0283, 1579.327
194.5104, 1572.096
194.9925, 1556.891
195.4746, 1543.137
195.9567, 1532.566
196.4389, 1525.510
196.9210, 1525.674
197.4031, 1534.773
197.8852, 1545.563
198.3673, 1546.992
198.8494, 1537.851
199.3316, 1533.872
199.8137, 1544.313
200.2958, 1568.640
200.7779, 1581.101
201.2600, 1579.223
201.7421, 1570.681
202.2243, 1567.594
202.7064, 1571.240
203.1885, 1573.392
203.6706, 1569.002
204.1527, 1556.857
204.6348, 1549.877
205.1170, 1548.711
205.5991, 1551.840
206.0812, 1558.281
206.5633, 1570.296
207.0454, 1577.532
207.5275, 1571.804
208.0097, 1549.077
208.4918, 1536.985
208.9739, 1539.965
209.4560, 1551.922
209.9381, 1555.878
210.4202, 1548.292
210.9024, 1542.130
211.3845, 1547.413
211.8666, 1569.616
212.3487, 1580.049
212.8308, 1571.222
213.3129, 1550.225
213.7951, 1545.801
214.2772, 1565.190
214.7593, 1586.773
215.2414, 1594.928
215.7235, 1584.901
216.2056, 1577.014
216.6878, 1574.186
217.1699, 1575.513
217.6520, 1575.837
218.1341, 1574.681
218.6162, 1573.213
219.0983, 1572.200
219.5805, 1571.480
220.0626, 1571.617
220.5447, 1573.030
221.0268, 1575.542
221.5089, 1576.867
221.9910, 1575.497
222.4732, 1574.899
222.9553, 1580.004
223.4374, 1597.726
223.9195, 1604.621
224.4016, 1591.461
224.8837, 1558.131
225.3659, 1540.130
225.8480, 1542.139
226.3301, 1554.090
226.8122, 1566.976
227.2943, 1583.280
227.7764, 1595.064
228.2586, 1599.308
228.7407, 1595.248
229.2228, 1593.174
229.7049, 1593.400
230.1870, 1595.202
230.6691, 1598.770
231.1513, 1608.435
231.6334, 1611.176
232.1155, 1599.334
232.5976, 1568.295
233.0797, 1557.598
233.5618, 1578.677
234.0440, 1610.938
234.5261, 1626.659
235.0082, 1616.641
235.4903, 1606.096
235.9724, 1602.509
236.4545, 1608.243
236.9367, 1609.922
237.4188, 1605.224
237.9009, 1598.173
238.3830, 1595.018
238.8651, 1597.819
239.3472, 1601.012
239.8294, 1603.083
240.3115, 1604.086
240.7936, 1603.275
241.2757, 1598.883
241.7578, 1593.586
242.2399, 1592.169
242.7221, 1596.035
243.2042, 1601.407
243.6863, 1607.624
244.1684, 1616.017
244.6505, 1620.723
245.1326, 1620.537
245.6148, 1617.256
246.0969, 1614.456
246.5790, 1613.548
247.0611, 1610.851
247.5432, 1604.129
248.0253, 1590.239
248.5075, 1581.416
248.9896, 1578.084
249.4717, 1579.661
249.9538, 1585.994
250.4359, 1601.430
250.9180, 1614.492
251.4002, 1620.197
251.8823, 1616.064
252.3644, 1611.449
252.8465, 1605.347
253.3286, 1599.193
253.8107, 1596.333
254.2929, 1597.854
254.7750, 1600.731
255.2571, 1603.755
255.7392, 1606.719
256.2213, 1610.580
256.7035, 1616.514
257.1856, 1622.883
257.6677, 1625.766
258.1498, 1624.574
258.6319, 1621.083
259.1140, 1614.827
259.5962, 1602.221
260.0783, 1597.732
260.5604, 1604.459
261.0425, 1618.048
261.5246, 1627.540
262.0067, 1633.239
262.4889, 1634.560
262.9710, 1629.128
263.4531, 1612.315
263.9352, 1605.672
264.4173, 1614.054
264.8994, 1630.690
265.3816, 1637.765
265.8637, 1631.583
266.3458, 1624.567
266.8279, 1623.156
267.3100, 1629.217
267.7921, 1632.868
268.2743, 1632.444
268.7564, 1630.315
269.2385, 1633.237
269.7206, 1643.218
270.2027, 1652.419
270.6848, 1655.937
271.1670, 1652.289
271.6491, 1651.602
272.1312, 1655.717
272.6133, 1661.736
273.0954, 1661.619
273.5775, 1652.864
274.0597, 1646.731
274.5418, 1651.108
275.0239, 1668.093
275.5060, 1678.573
275.9881, 1680.673
276.4702, 1677.221
276.9524, 1673.089
277.4345, 1667.797
277.9166, 1664.492
278.3987, 1665.708
278.8808, 1671.743
279.3629, 1676.711
279.8451, 1680.705
280.3272, 1683.060
280.8093, 1679.884
281.2914, 1669.690
281.7735, 1664.688
282.2556, 1676.679
282.7378, 1704.981
283.2199, 1715.737
283.7020, 1702.532
284.1841, 1680.351
284.6662, 1679.447
285.1483, 1701.232
285.6305, 1718.214
286.1126, 1711.958
286.5947, 1685.572
287.0768, 1668.585
287.5589, 1663.451
288.0410, 1665.062
288.5232, 1666.194
289.0053, 1666.888
289.4874, 1668.026
289.9695, 1669.380
290.4516, 1671.378
290.9337, 1677.166
291.4159, 1688.080
291.8980, 1698.813
292.3801, 1701.208
292.8622, 1696.104
293.3443, 1690.411
293.8264, 1688.981
294.3086, 1689.617
294.7907, 1684.691
295.2728, 1672.966
295.7549, 1660.509
296.2370, 1655.267
296.7191, 1656.023
297.2013, 1657.667
297.6834, 1656.344
298.1655, 1654.518
298.6476, 1658.398
299.1297, 1668.761
299.6118, 1679.611
300.0940, 1686.623
300.5761, 1689.331
301.0582, 1686.138
301.5403, 1667.330
302.0224, 1645.532
302.5045, 1642.961
302.9867, 1660.972
303.4688, 1680.422
303.9509, 1683.562
304.4330, 1675.767
304.9151, 1668.097
305.3972, 1662.882
305.8794, 1661.449
306.3615, 1668.564
306.8436, 1684.178
307.3257, 1696.375
307.8078, 1694.630
308.2899, 1684.025
308.7721, 1672.167
309.2542, 1656.860
309.7363, 1644.947
310.2184, 1643.549
310.7005, 1652.031
311.1826, 1661.881
311.6648, 1666.594
312.1469, 1670.144
312.6290, 1677.185
313.1111, 1700.424
313.5932, 1717.478
314.0753, 1710.002
314.5575, 1681.563
315.0396, 1658.300
315.5217, 1654.735
316.0038, 1661.133
316.4859, 1669.509
316.9680, 1683.024
317.4502, 1692.222
317.9323, 1691.241
318.4144, 1682.063
318.8965, 1673.339
319.3786, 1663.294
319.8607, 1657.670
320.3429, 1660.871
320.8250, 1681.636
321.3071, 1700.656
321.7892, 1714.216
322.2713, 1722.340
322.7534, 1724.836
323.2356, 1717.511
323.7177, 1707.504
324.1998, 1697.849
324.6819, 1685.984
325.1640, 1679.210
325.6461, 1683.023
326.1283, 1692.635
326.6104, 1697.054
327.0925, 1689.222
327.5746, 1681.292
328.0567, 1678.303
328.5388, 1686.212
329.0210, 1686.911
329.5031, 1670.902
329.9852, 1650.045
330.4673, 1645.005
330.9494, 1675.157
331.4315, 1698.145
331.9137, 1698.700
332.3958, 1667.727
332.8779, 1650.429
333.3600, 1653.490
333.8421, 1665.850
334.3242, 1673.757
334.8064, 1676.601
335.2885, 1675.701
335.7706, 1669.280
336.2527, 1656.593
336.7348, 1652.302
337.2169, 1660.721
337.6991, 1671.715
338.1812, 1672.983
338.6633, 1659.881
339.1454, 1653.513
339.6275, 1660.203
340.1096, 1678.119
340.5918, 1695.179
341.0739, 1713.939
341.5560, 1724.895
342.0381, 1713.120
342.5202, 1676.398
343.0023, 1655.500
343.4845, 1663.012
343.9666, 1688.612
344.4487, 1698.881
344.9308, 1692.417
345.4129, 1684.558
345.8951, 1688.279
346.3772, 1701.828
346.8593, 1712.808
347.3414, 1720.171
347.8235, 1723.305
348.3056, 1718.866
348.7878, 1707.482
349.2699, 1697.094
349.7520, 1692.305
350.2341, 1692.241
350.7162, 1696.232
351.1983, 1705.360
351.6805, 1714.164
352.1626, 1713.506
352.6447, 1706.136
353.1268, 1701.562
353.6089, 1709.686
354.0910, 1721.399
354.5732, 1723.029
355.0553, 1712.748
355.5374, 1701.718
356.0195, 1700.020
356.5016, 1703.855
356.9837, 1706.375
357.4659, 1702.849
357.9480, 1698.224
358.4301, 1696.463
358.9122, 1697.678
359.3943, 1699.264
359.8764, 1698.156
360.3586, 1697.303
360.8407, 1699.866
361.3228, 1710.983
361.8049, 1721.955
362.2870, 1729.764
362.7691, 1734.433
363.2513, 1736.285
363.7334, 1732.569
364.2155, 1727.717
364.6976, 1724.834
365.1797, 1726.759
365.6618, 1727.604
366.1440, 1723.710
366.6261, 1717.414
367.1082, 1716.061
367.5903, 1728.524
368.0724, 1739.867
368.5545, 1743.108
369.0367, 1730.200
369.5188, 1723.604
370.0009, 1727.385
370.4830, 1736.717
370.9651, 1743.150
371.4472, 1744.258
371.9294, 1745.613
372.4115, 1749.082
372.8936, 1755.401
373.3757, 1760.142
373.8578, 1763.184
374.3399, 1764.687
374.8221, 1764.213
375.3042, 1760.196
375.7863, 1758.281
376.2684, 1760.375
376.7505, 1765.995
377.2326, 1769.901
377.7148, 1771.560
378.1969, 1772.640
378.6790, 1776.051
379.1611, 1782.369
379.6432, 1782.050
380.1253, 1771.462
380.6075, 1755.035
381.0896, 1744.399
381.5717, 1739.632
382.0538, 1738.465
382.5359, 1740.050
383.0180, 1744.126
383.5002, 1750.302
383.9823, 1759.622
384.4644, 1767.978
384.9465, 1767.985
385.4286, 1761.156
385.9107, 1755.090
386.3929, 1753.596
386.8750, 1755.363
387.3571, 1758.914
387.8392, 1764.272
388.3213, 1769.721
388.8034, 1771.018
389.2856, 1771.622
389.7677, 1777.801
390.2498, 1802.504
390.7319, 1826.341
391.2140, 1833.404
391.6961, 1824.518
392.1783, 1810.096
392.6604, 1786.674
393.1425, 1764.844
393.6246, 1755.301
394.1067, 1771.449
394.5888, 1786.689
395.0710, 1789.325
395.5531, 1782.649
396.0352, 1777.609
396.5173, 1778.450
396.9994, 1780.884
397.4815, 1782.461
397.9637, 1781.234
398.4458, 1782.606
398.9279, 1789.942
399.4100, 1799.761
399.8921, 1806.054
400.3742, 1805.902
400.8564, 1805.089
401.3385, 1804.437
401.8206, 1803.605
402.3027, 1805.785
402.7848, 1815.386
403.2669, 1824.067
403.7491, 1821.743
404.2312, 1800.663
404.7133, 1788.291
405.1954, 1791.439
405.6775, 1807.456
406.1596, 1821.922
406.6418, 1835.326
407.1239, 1845.832
407.6060, 1852.502
408.0881, 1855.436
408.5702, 1851.617
409.0523, 1837.911
409.5345, 1821.653
410.0166, 1817.036
410.4987, 1823.756
410.9808, 1834.804
411.4629, 1850.816
411.9450, 1868.386
412.4272, 1876.879
412.9093, 1875.410
413.3914, 1868.403
413.8735, 1855.807
414.3556, 1840.862
414.8377, 1832.327
415.3199, 1838.644
415.8020, 1849.562
416.2841, 1853.284
416.7662, 1850.477
417.2483, 1846.723
417.7304, 1847.159
418.2126, 1847.848
418.6947, 1843.638
419.1768, 1827.450
419.6589, 1815.920
420.1410, 1822.973
420.6231, 1841.551
421.1053, 1854.140
421.5874, 1848.590
422.0695, 1839.723
422.5516, 1835.314
423.0337, 1838.217
423.5158, 1838.596
423.9980, 1832.005
424.4801, 1822.853
424.9622, 1816.470
425.4443, 1812.876
425.9264, 1812.653
426.4085, 1817.460
426.8907, 1827.197
427.3728, 1833.635
427.8549, 1833.999
428.3370, 1834.006
428.8191, 1838.427
429.3012, 1850.558
429.7834, 1857.679
430.2655, 1858.225
430.7476, 1853.525
431.2297, 1846.020
431.7118, 1834.805
432.1939, 1824.941
432.6761, 1818.935
433.1582, 1816.712
433.6403, 1815.602
434.1224, 1814.752
434.6045, 1818.007
435.0866, 1836.564
435.5688, 1866.694
436.0509, 1884.397
436.5330, 1874.621
437.0151, 1851.251
437.4972, 1838.417
437.9793, 1835.540
438.4615, 1838.864
438.9436, 1852.888
439.4257, 1869.165
439.9078, 1873.365
440.3899, 1856.887
440.8720, 1840.149
441.3542, 1841.718
441.8363, 1855.007
442.3184, 1865.457
442.8005, 1864.668
443.2826, 1860.665
443.7647, 1858.094
444.2469, 1857.674
444.7290, 1856.698
445.2111, 1853.377
445.6932, 1849.520
446.1753, 1846.849
446.6574, 1846.988
447.1396, 1846.802
447.6217, 1845.062
448.1038, 1842.090
448.5859, 1840.625
449.0680, 1838.820
449.5501, 1840.404
450.0323, 1848.447
450.5144, 1869.799
450.9965, 1881.104
451.4786, 1879.712
451.9607, 1870.444
452.4428, 1859.401
452.9250, 1844.397
453.4071, 1837.155
453.8892, 1844.852
454.3713, 1864.969
454.8534, 1876.921
455.3355, 1880.018
455.8177, 1878.526
456.2998, 1874.667
456.7819, 1869.053
457.2640, 1865.047
457.7462, 1863.127
458.2283, 1863.330
458.7104, 1866.879
459.1925, 1873.086
459.6746, 1878.734
460.1567, 1883.413
460.6389, 1885.876
461.1210, 1883.762
461.6031, 1876.447
462.0852, 1868.970
462.5673, 1862.729
463.0494, 1858.964
463.5316, 1859.178
464.0137, 1870.768
464.4958, 1880.061
464.9779, 1876.440
465.4600, 1862.939
465.9421, 1859.903
466.4243, 1891.206
466.9064, 1920.411
467.3885, 1926.151
467.8706, 1882.603
468.3527, 1857.267
468.8348, 1861.283
469.3170, 1880.493
469.7991, 1892.800
470.2812, 1895.286
470.7633, 1895.920
471.2454, 1897.326
471.7275, 1899.354
472.2097, 1895.042
472.6918, 1881.956
473.1739, 1868.608
473.6560, 1861.011
474.1381, 1859.200
474.6202, 1865.026
475.1024, 1882.118
475.5845, 1901.573
476.0666, 1903.580
476.5487, 1889.946
477.0308, 1878.633
477.5129, 1881.067
477.9951, 1882.361
478.4772, 1893.402
478.9593, 1899.885
479.4414, 1902.057
479.9235, 1887.001
480.4056, 1894.191
480.8878, 1892.466
481.3699, 1890.375
481.8520, 1900.695
482.3341, 1888.146
482.8162, 1898.269
483.2983, 1899.342
483.7805, 1904.557
484.2626, 1900.803
484.7447, 1899.818
485.2268, 1907.807
485.7089, 1910.827
486.1910, 1908.507
486.6732, 1913.801
487.1553, 1910.947
487.6374, 1885.483
488.1195, 1873.827
488.6016, 1888.955
489.0837, 1924.468
489.5659, 1938.818
490.0480, 1924.626
490.5301, 1905.902
491.0122, 1896.114
491.4943, 1895.940
491.9764, 1896.630
492.4586, 1897.489
492.9407, 1900.240
493.4228, 1911.405
493.9049, 1929.149
494.3870, 1937.640
494.8691, 1924.684
495.3513, 1902.779
495.8334, 1897.582
496.3155, 1907.388
496.7976, 1916.008
497.2797, 1908.922
497.7618, 1895.395
498.2440, 1886.374
498.7261, 1884.067
499.2082, 1885.849
499.6903, 1893.881
500.1724, 1904.348
500.6545, 1910.805
501.1367, 1909.042
501.6188, 1905.034
502.1009, 1897.916
502.5830, 1888.011
503.0651, 1886.879
503.5472, 1910.618
504.0294, 1932.766
504.5115, 1937.833
504.9936, 1907.681
505.4757, 1894.775
505.9578, 1908.510
506.4399, 1933.633
506.9221, 1939.583
507.4042, 1919.189
507.8863, 1904.995
508.3684, 1910.290
508.8505, 1931.178
509.3326, 1942.120
509.8148, 1942.300
510.2969, 1938.726
510.7790, 1937.441
511.2611, 1937.258
511.7432, 1932.576
512.2253, 1920.507
512.7075, 1909.838
513.1896, 1915.708
513.6717, 1931.534
514.1538, 1940.752
514.6359, 1924.111
515.1180, 1906.104
515.6002, 1910.381
516.0823, 1935.690
516.5644, 1955.726
517.0465, 1955.232
517.5286, 1947.157
518.0107, 1940.651
518.4929, 1937.738
518.9750, 1935.760
519.4571, 1932.780
519.9392, 1930.831
520.4213, 1934.073
520.9034, 1952.319
521.3856, 1961.164
521.8677, 1949.462
522.3498, 1918.967
522.8319, 1909.002
523.3140, 1926.882
523.7961, 1948.094
524.2783, 1952.445
524.7604, 1939.806
525.2425, 1934.681
525.7246, 1940.748
526.2067, 1950.871
526.6888, 1956.163
527.1710, 1956.611
527.6531, 1951.445
528.1352, 1932.450
528.6173, 1912.659
529.0994, 1914.509
529.5815, 1935.227
530.0637, 1953.358
530.5458, 1951.534
531.0279, 1942.329
531.5100, 1937.247
531.9921, 1939.793
532.4742, 1942.589
532.9564, 1940.415
533.4385, 1937.388
533.9206, 1939.240
534.4027, 1955.045
534.8848, 1967.035
535.3669, 1970.944
535.8491, 1967.538
536.3312, 1962.284
536.8133, 1952.418
537.2954, 1944.915
537.7775, 1944.883
538.2596, 1954.888
538.7418, 1959.736
539.2239, 1959.385
539.7060, 1954.047
540.1881, 1939.194
540.6702, 1916.058
541.1523, 1904.535
541.6345, 1914.136
542.1166, 1933.996
542.5987, 1944.127
543.0808, 1946.071
543.5629, 1948.361
544.0450, 1962.022
544.5272, 1975.721
545.0093, 1973.493
545.4914, 1951.740
545.9735, 1935.122
546.4556, 1945.647
546.9377, 1964.803
547.4199, 1973.651
547.9020, 1953.906
548.3841, 1938.749
548.8662, 1938.174
549.3483, 1947.570
549.8304, 1952.540
550.3126, 1950.271
550.7947, 1946.864
551.2768, 1943.678
551.7589, 1940.684
552.2410, 1939.216
552.7231, 1938.521
553.2053, 1941.096
553.6874, 1951.471
554.1695, 1969.566
554.6516, 1982.618
555.1337, 1989.358
555.6158, 1989.642
556.0980, 1981.198
556.5801, 1965.498
557.0622, 1948.733
557.5443, 1926.812
558.0264, 1909.278
558.5085, 1911.957
558.9907, 1932.381
559.4728, 1951.043
559.9549, 1956.139
560.4370, 1955.626
560.9191, 1955.508
561.4012, 1957.090
561.8834, 1958.221
562.3655, 1955.750
562.8476, 1953.484
563.3297, 1956.781
563.8118, 1975.357
564.2939, 1985.621
564.7761, 1979.962
565.2582, 1963.329
565.7403, 1958.344
566.2224, 1969.177
566.7045, 1979.889
567.1866, 1981.645
567.6688, 1974.934
568.1509, 1970.565
568.6330, 1968.552
569.1151, 1968.861
569.5972, 1975.101
570.0793, 1983.825
570.5615, 1983.281
571.0436, 1965.546
571.5257, 1949.194
572.0078, 1957.050
572.4899, 1980.642
572.9720, 2000.588
573.4542, 2007.963
573.9363, 2009.732
574.4184, 2007.283
574.9005, 2001.106
575.3826, 1998.317
575.8647, 2005.766
576.3469, 2012.953
576.8290, 2013.690
577.3111, 2004.133
577.7932, 1997.118
578.2753, 1993.720
578.7574, 1991.847
579.2396, 1989.240
579.7217, 1986.094
580.2038, 1980.534
580.6859, 1969.646
581.1680, 1958.461
581.6501, 1963.395
582.1323, 1983.405
582.6144, 2000.314
583.0965, 2001.155
583.5786, 1992.908
584.0607, 1984.836
584.5428, 1977.287
585.0250, 1974.644
585.5071, 1986.488
585.9892, 2001.775
586.4713, 2008.182
586.9534, 1996.458
587.4355, 1987.624
587.9177, 1992.064
588.3998, 2002.832
588.8819, 2008.512
589.3640, 2003.015
589.8461, 1998.030
590.3282, 1995.746
590.8104, 1995.754
591.2925, 1994.842
591.7746, 1992.154
592.2567, 1990.579
592.7388, 1991.516
593.2209, 1994.935
593.7031, 2002.071
594.1852, 2014.074
594.6673, 2023.443
595.1494, 2018.859
595.6315, 2005.475
596.1136, 1997.367
596.5958, 1999.132
597.0779, 2004.888
597.5600, 2009.733
598.0421, 2014.558
598.5242, 2021.189
599.0063, 2038.719
599.4885, 2050.541
599.9706, 2043.922
600.4527, 2020.220
600.9348, 2005.822
601.4169, 2009.280
601.8990, 2019.037
602.3812, 2030.876
602.8633, 2046.583
603.3454, 2058.527
603.8275, 2067.092
604.3096, 2070.974
604.7917, 2066.235
605.2739, 2052.454
605.7560, 2042.982
606.2381, 2040.781
606.7202, 2043.314
607.2023, 2046.822
607.6844, 2051.414
608.1666, 2057.679
608.6487, 2070.635
609.1308, 2082.347
609.6129, 2083.689
610.0950, 2075.433
610.5771, 2064.507
611.0593, 2045.349
611.5414, 2031.006
612.0235, 2033.053
612.5056, 2061.756
612.9877, 2078.766
613.4698, 2067.601
613.9520, 2050.715
614.4341, 2048.843
614.9162, 2070.867
615.3983, 2085.829
615.8804, 2089.457
616.3625, 2085.188
616.8447, 2077.843
617.3268, 2067.161
617.8089, 2062.843
618.2910, 2073.718
618.7731, 2091.279
619.2552, 2095.447
619.7374, 2087.589
620.2195, 2078.597
620.7016, 2074.905
621.1837, 2074.407
621.6658, 2075.996
622.1479, 2080.080
622.6301, 2081.909
623.1122, 2076.375
623.5943, 2069.326
624.0764, 2066.070
624.5585, 2074.751
625.0406, 2077.386
625.5228, 2067.261
626.0049, 2053.467
626.4870, 2054.017
626.9691, 2075.027
627.4512, 2090.555
627.9333, 2092.096
628.4155, 2083.403
628.8976, 2077.024
629.3797, 2072.920
629.8618, 2071.554
630.3439, 2074.504
630.8260, 2079.885
631.3082, 2083.547
631.7903, 2085.251
632.2724, 2089.353
632.7545, 2104.656
633.2366, 2120.823
633.7188, 2127.294
634.2009, 2117.235
634.6830, 2107.472
635.1651, 2103.043
635.6472, 2101.309
636.1293, 2098.365
636.6115, 2092.500
637.0936, 2087.965
637.5757, 2084.345
638.0578, 2082.883
638.5399, 2090.579
639.0220, 2109.751
639.5042, 2122.386
639.9863, 2116.784
640.4684, 2098.444
640.9505, 2084.630
641.4326, 2075.417
641.9147, 2073.577
642.3969, 2087.582
642.8790, 2107.179
643.3611, 2119.708
643.8432, 2123.121
644.3253, 2121.886
644.8074, 2113.511
645.2896, 2103.942
645.7717, 2098.926
646.2538, 2101.104
646.7359, 2106.332
647.2180, 2117.426
647.7001, 2130.130
648.1823, 2136.036
648.6644, 2133.560
649.1465, 2129.378
