##NAMES=Ixiolite
##RRUFFID=R070289
##IDEAL CHEMISTRY=(Ta^5+^,Mn^2+^,Nb^5+^)O_2_
##LOCALITY=Voroni Tundra, Kola Peninsula, Russia
##OWNER=RRUFF
##SOURCE=Michael Scott
##DESCRIPTION=Semimetallic black crystal with internal brown hints, associated with quartz, spodumene and mica
##STATUS=The identification of this mineral has been confirmed only by single crystal X-ray diffraction.
##URL=rruff.info/R070289
151.5903, 1477.239
152.0724, 1497.926
152.5545, 1517.174
153.0366, 1532.732
153.5188, 1546.819
154.0009, 1563.724
154.4830, 1598.603
154.9651, 1625.791
155.4472, 1632.793
155.9293, 1599.606
156.4115, 1573.474
156.8936, 1568.099
157.3757, 1578.134
157.8578, 1584.857
158.3399, 1577.560
158.8221, 1568.287
159.3042, 1564.834
159.7863, 1574.948
160.2684, 1585.395
160.7505, 1589.899
161.2326, 1589.645
161.7148, 1593.501
162.1969, 1613.294
162.6790, 1635.953
163.1611, 1648.653
163.6432, 1638.876
164.1253, 1624.862
164.6075, 1614.582
165.0896, 1608.262
165.5717, 1606.206
166.0538, 1611.799
166.5359, 1621.227
167.0180, 1629.032
167.5002, 1629.372
167.9823, 1629.535
168.4644, 1635.954
168.9465, 1649.874
169.4286, 1664.662
169.9107, 1677.505
170.3929, 1687.675
170.8750, 1693.970
171.3571, 1691.972
171.8392, 1687.339
172.3213, 1687.097
172.8034, 1693.622
173.2856, 1699.594
173.7677, 1696.667
174.2498, 1686.953
174.7319, 1677.785
175.2140, 1672.159
175.6961, 1670.170
176.1783, 1672.998
176.6604, 1682.958
177.1425, 1693.948
177.6246, 1699.539
178.1067, 1699.808
178.5888, 1695.569
179.0710, 1681.782
179.5531, 1663.948
180.0352, 1655.556
180.5173, 1664.126
180.9994, 1679.302
181.4815, 1681.909
181.9637, 1672.402
182.4458, 1664.249
182.9279, 1673.086
183.4100, 1694.015
183.8921, 1708.482
184.3742, 1708.821
184.8564, 1700.364
185.3385, 1695.160
185.8206, 1693.346
186.3027, 1692.577
186.7848, 1690.139
187.2669, 1686.356
187.7491, 1683.606
188.2312, 1682.929
188.7133, 1683.935
189.1954, 1684.462
189.6775, 1683.958
190.1596, 1685.481
190.6418, 1696.349
191.1239, 1716.132
191.6060, 1729.846
192.0881, 1727.661
192.5702, 1711.874
193.0524, 1703.178
193.5345, 1702.786
194.0166, 1706.349
194.4987, 1706.722
194.9808, 1703.554
195.4629, 1702.497
195.9451, 1708.753
196.4272, 1722.141
196.9093, 1727.239
197.3914, 1721.377
197.8735, 1710.665
198.3556, 1706.569
198.8378, 1709.751
199.3199, 1715.303
199.8020, 1721.526
200.2841, 1728.543
200.7662, 1733.369
201.2483, 1735.237
201.7305, 1735.365
202.2126, 1736.576
202.6947, 1738.908
203.1768, 1742.184
203.6589, 1746.745
204.1410, 1752.868
204.6232, 1758.055
205.1053, 1762.168
205.5874, 1765.167
206.0695, 1766.330
206.5516, 1764.680
207.0337, 1763.764
207.5159, 1767.818
207.9980, 1779.282
208.4801, 1783.146
208.9622, 1774.859
209.4443, 1757.618
209.9264, 1747.154
210.4086, 1744.686
210.8907, 1746.566
211.3728, 1750.694
211.8549, 1758.016
212.3370, 1764.427
212.8191, 1769.096
213.3013, 1772.244
213.7834, 1776.555
214.2655, 1783.449
214.7476, 1789.229
215.2297, 1790.184
215.7118, 1784.523
216.1940, 1778.935
216.6761, 1774.240
217.1582, 1770.450
217.6403, 1768.400
218.1224, 1767.996
218.6045, 1769.475
219.0867, 1773.374
219.5688, 1780.549
220.0509, 1788.214
220.5330, 1796.552
221.0151, 1805.778
221.4972, 1810.534
221.9794, 1809.705
222.4615, 1805.712
222.9436, 1800.869
223.4257, 1794.674
223.9078, 1788.411
224.3899, 1781.130
224.8721, 1772.100
225.3542, 1771.052
225.8363, 1782.184
226.3184, 1797.299
226.8005, 1806.815
227.2827, 1808.605
227.7648, 1808.699
228.2469, 1808.748
228.7290, 1809.085
229.2111, 1806.226
229.6932, 1796.668
230.1754, 1786.781
230.6575, 1786.037
231.1396, 1801.771
231.6217, 1813.571
232.1038, 1814.441
232.5859, 1801.471
233.0681, 1793.312
233.5502, 1791.577
234.0323, 1793.496
234.5144, 1794.993
234.9965, 1794.911
235.4786, 1796.475
235.9608, 1802.108
236.4429, 1814.249
236.9250, 1818.226
237.4071, 1809.121
237.8892, 1794.867
238.3713, 1788.524
238.8535, 1795.029
239.3356, 1801.174
239.8177, 1802.355
240.2998, 1796.749
240.7819, 1793.152
241.2640, 1791.781
241.7462, 1792.234
242.2283, 1794.356
242.7104, 1800.856
243.1925, 1804.537
243.6746, 1802.318
244.1567, 1791.848
244.6389, 1783.139
245.1210, 1775.181
245.6031, 1769.567
246.0852, 1769.454
246.5673, 1776.503
247.0494, 1786.336
247.5316, 1799.315
248.0137, 1819.729
248.4958, 1827.932
248.9779, 1818.624
249.4600, 1800.014
249.9421, 1787.553
250.4243, 1783.651
250.9064, 1781.379
251.3885, 1777.677
251.8706, 1770.607
252.3527, 1768.898
252.8348, 1774.270
253.3170, 1783.905
253.7991, 1793.162
254.2812, 1803.592
254.7633, 1810.490
255.2454, 1811.567
255.7275, 1805.363
256.2097, 1798.441
256.6918, 1789.914
257.1739, 1781.357
257.6560, 1775.060
258.1381, 1769.741
258.6202, 1769.464
259.1024, 1778.560
259.5845, 1802.254
260.0666, 1812.155
260.5487, 1802.495
261.0308, 1783.389
261.5129, 1773.099
261.9951, 1774.173
262.4772, 1778.223
262.9593, 1782.635
263.4414, 1787.883
263.9235, 1791.331
264.4056, 1792.687
264.8878, 1792.545
265.3699, 1792.072
265.8520, 1791.520
266.3341, 1789.874
266.8162, 1786.001
267.2983, 1779.157
267.7805, 1775.108
268.2626, 1774.211
268.7447, 1775.773
269.2268, 1779.382
269.7089, 1786.026
270.1910, 1791.125
270.6732, 1791.658
271.1553, 1786.680
271.6374, 1787.341
272.1195, 1795.766
272.6016, 1806.726
273.0837, 1812.500
273.5659, 1813.335
274.0480, 1807.935
274.5301, 1792.019
275.0122, 1764.936
275.4943, 1750.009
275.9764, 1750.145
276.4586, 1756.970
276.9407, 1756.831
277.4228, 1748.466
277.9049, 1744.172
278.3870, 1752.746
278.8691, 1773.120
279.3513, 1778.783
279.8334, 1766.573
280.3155, 1747.779
280.7976, 1735.333
281.2798, 1729.276
281.7619, 1731.180
282.2440, 1746.265
282.7261, 1771.809
283.2082, 1786.314
283.6903, 1788.467
284.1725, 1784.402
284.6546, 1780.978
285.1367, 1778.160
285.6188, 1774.102
286.1009, 1766.406
286.5830, 1756.776
287.0652, 1754.140
287.5473, 1759.614
288.0294, 1765.565
288.5115, 1761.364
288.9936, 1748.483
289.4757, 1739.332
289.9579, 1739.814
290.4400, 1746.520
290.9221, 1751.047
291.4042, 1753.484
291.8863, 1752.642
292.3684, 1742.630
292.8506, 1726.758
293.3327, 1719.722
293.8148, 1731.804
294.2969, 1752.260
294.7790, 1758.488
295.2611, 1750.466
295.7433, 1741.172
296.2254, 1745.384
296.7075, 1757.673
297.1896, 1761.951
297.6717, 1747.784
298.1538, 1728.374
298.6360, 1725.368
299.1181, 1737.610
299.6002, 1751.726
300.0823, 1760.755
300.5644, 1764.109
301.0465, 1759.931
301.5287, 1743.581
302.0108, 1724.747
302.4929, 1715.494
302.9750, 1714.342
303.4571, 1713.329
303.9392, 1704.921
304.4214, 1694.024
304.9035, 1687.014
305.3856, 1685.722
305.8677, 1688.473
306.3498, 1698.307
306.8319, 1712.312
307.3141, 1720.335
307.7962, 1707.693
308.2783, 1690.106
308.7604, 1684.177
309.2425, 1698.070
309.7246, 1713.675
310.2068, 1720.463
310.6889, 1720.074
311.1710, 1716.923
311.6531, 1712.236
312.1352, 1706.156
312.6173, 1697.403
313.0995, 1683.171
313.5816, 1674.226
314.0637, 1678.808
314.5458, 1691.989
315.0279, 1704.479
315.5100, 1718.343
315.9922, 1726.343
316.4743, 1722.919
316.9564, 1704.770
317.4385, 1686.260
317.9206, 1668.409
318.4027, 1653.869
318.8849, 1646.352
319.3670, 1653.271
319.8491, 1661.739
320.3312, 1668.125
320.8133, 1672.580
321.2954, 1672.246
321.7776, 1660.088
322.2597, 1645.366
322.7418, 1637.948
323.2239, 1649.965
323.7060, 1658.723
324.1881, 1655.959
324.6703, 1639.976
325.1524, 1631.549
325.6345, 1639.509
326.1166, 1651.736
326.5987, 1658.571
327.0808, 1657.466
327.5630, 1653.840
328.0451, 1646.273
328.5272, 1635.145
329.0093, 1628.788
329.4914, 1629.448
329.9735, 1632.949
330.4557, 1636.823
330.9378, 1641.869
331.4199, 1645.951
331.9020, 1649.272
332.3841, 1651.583
332.8662, 1651.060
333.3484, 1644.915
333.8305, 1640.177
334.3126, 1641.153
334.7947, 1649.861
335.2768, 1658.378
335.7589, 1667.534
336.2411, 1675.593
336.7232, 1677.152
337.2053, 1669.642
337.6874, 1663.104
338.1695, 1662.595
338.6516, 1668.757
339.1338, 1676.379
339.6159, 1687.132
340.0980, 1696.427
340.5801, 1693.861
341.0622, 1677.841
341.5443, 1664.427
342.0265, 1661.893
342.5086, 1668.803
342.9907, 1671.222
343.4728, 1668.553
343.9549, 1663.640
344.4370, 1659.824
344.9192, 1656.979
345.4013, 1653.465
345.8834, 1646.456
346.3655, 1639.033
346.8476, 1643.049
347.3297, 1658.973
347.8119, 1672.535
348.2940, 1663.532
348.7761, 1640.380
349.2582, 1629.145
349.7403, 1642.343
350.2225, 1665.272
350.7046, 1676.800
351.1867, 1678.258
351.6688, 1679.114
352.1509, 1689.110
352.6331, 1702.139
353.1152, 1708.517
353.5973, 1704.041
354.0794, 1696.291
354.5615, 1690.276
355.0436, 1686.176
355.5258, 1684.543
356.0079, 1689.115
356.4900, 1694.379
356.9721, 1694.696
357.4542, 1687.512
357.9363, 1681.110
358.4185, 1679.804
358.9006, 1682.458
359.3827, 1687.107
359.8648, 1698.520
360.3469, 1707.344
360.8290, 1707.479
361.3112, 1697.234
361.7933, 1686.940
362.2754, 1675.465
362.7575, 1667.204
363.2396, 1666.933
363.7217, 1686.722
364.2039, 1703.634
364.6860, 1710.514
365.1681, 1707.135
365.6502, 1704.126
366.1323, 1703.644
366.6144, 1703.330
367.0966, 1701.517
367.5787, 1693.670
368.0608, 1689.885
368.5429, 1692.272
369.0250, 1699.712
369.5071, 1706.594
369.9893, 1714.389
370.4714, 1719.915
370.9535, 1721.092
371.4356, 1714.855
371.9177, 1711.080
372.3998, 1709.542
372.8820, 1710.719
373.3641, 1716.362
373.8462, 1728.240
374.3283, 1740.008
374.8104, 1750.127
375.2925, 1759.070
375.7747, 1761.031
376.2568, 1754.719
376.7389, 1744.031
377.2210, 1733.516
377.7031, 1723.115
378.1852, 1713.635
378.6674, 1704.509
379.1495, 1696.515
379.6316, 1693.871
380.1137, 1697.141
380.5958, 1700.833
381.0779, 1697.282
381.5601, 1688.742
382.0422, 1686.821
382.5243, 1695.379
383.0064, 1710.089
383.4885, 1727.595
383.9706, 1746.898
384.4528, 1759.436
384.9349, 1756.657
385.4170, 1744.097
385.8991, 1728.945
386.3812, 1709.795
386.8633, 1695.806
387.3455, 1699.987
387.8276, 1716.023
388.3097, 1729.559
388.7918, 1730.137
389.2739, 1727.247
389.7560, 1729.758
390.2382, 1739.044
390.7203, 1745.294
391.2024, 1739.356
391.6845, 1728.788
392.1666, 1722.222
392.6487, 1728.664
393.1309, 1733.921
393.6130, 1730.717
394.0951, 1719.849
394.5772, 1711.531
395.0593, 1710.276
395.5414, 1711.165
396.0236, 1711.138
396.5057, 1705.403
396.9878, 1703.930
397.4699, 1710.955
397.9520, 1723.372
398.4341, 1731.330
398.9163, 1731.770
399.3984, 1730.895
399.8805, 1730.640
400.3626, 1730.732
400.8447, 1732.446
401.3268, 1737.051
401.8090, 1742.336
402.2911, 1745.921
402.7732, 1749.148
403.2553, 1746.610
403.7374, 1733.608
404.2195, 1711.287
404.7017, 1701.249
405.1838, 1705.486
405.6659, 1716.719
406.1480, 1731.831
406.6301, 1751.097
407.1122, 1760.945
407.5944, 1757.046
408.0765, 1744.259
408.5586, 1731.845
409.0407, 1719.813
409.5228, 1712.353
410.0049, 1715.595
410.4871, 1725.676
410.9692, 1731.497
411.4513, 1731.409
411.9334, 1729.214
412.4155, 1729.528
412.8976, 1731.326
413.3798, 1731.663
413.8619, 1724.029
414.3440, 1717.240
414.8261, 1724.015
415.3082, 1744.499
415.7903, 1761.277
416.2725, 1760.498
416.7546, 1750.764
417.2367, 1741.551
417.7188, 1733.083
418.2009, 1728.974
418.6830, 1734.290
419.1652, 1746.327
419.6473, 1754.950
420.1294, 1752.630
420.6115, 1749.127
421.0937, 1750.571
421.5758, 1762.519
422.0579, 1769.033
422.5400, 1763.488
423.0221, 1752.247
423.5042, 1745.654
423.9864, 1747.875
424.4685, 1750.549
424.9506, 1752.362
425.4327, 1753.380
425.9148, 1751.885
426.3969, 1745.089
426.8791, 1738.956
427.3612, 1740.000
427.8433, 1752.209
428.3254, 1758.583
428.8075, 1754.655
429.2896, 1744.079
429.7718, 1738.951
430.2539, 1739.490
430.7360, 1743.980
431.2181, 1754.503
431.7002, 1770.185
432.1823, 1776.973
432.6645, 1772.664
433.1466, 1764.481
433.6287, 1762.901
434.1108, 1766.554
434.5929, 1768.561
435.0750, 1764.152
435.5572, 1757.156
436.0393, 1755.145
436.5214, 1757.871
437.0035, 1760.088
437.4856, 1756.512
437.9677, 1750.217
438.4499, 1745.029
438.9320, 1740.262
439.4141, 1739.656
439.8962, 1749.455
440.3783, 1765.813
440.8604, 1779.101
441.3426, 1784.984
441.8247, 1786.483
442.3068, 1783.987
442.7889, 1776.271
443.2710, 1770.765
443.7531, 1770.391
444.2353, 1772.877
444.7174, 1775.707
445.1995, 1782.652
445.6816, 1785.361
446.1637, 1780.299
446.6458, 1768.437
447.1280, 1759.410
447.6101, 1753.185
448.0922, 1749.829
448.5743, 1750.145
449.0564, 1756.918
449.5385, 1759.632
450.0207, 1756.574
450.5028, 1750.663
450.9849, 1746.809
451.4670, 1744.851
451.9491, 1746.042
452.4312, 1752.438
452.9134, 1762.995
453.3955, 1770.422
453.8776, 1774.880
454.3597, 1775.060
454.8418, 1765.238
455.3239, 1748.764
455.8061, 1740.661
456.2882, 1746.778
456.7703, 1758.761
457.2524, 1765.797
457.7345, 1768.555
458.2166, 1769.889
458.6988, 1772.233
459.1809, 1773.628
459.6630, 1771.147
460.1451, 1763.930
460.6272, 1756.918
461.1093, 1750.176
461.5915, 1746.404
462.0736, 1749.160
462.5557, 1771.964
463.0378, 1789.386
463.5199, 1788.116
464.0020, 1770.738
464.4842, 1757.265
464.9663, 1750.536
465.4484, 1749.851
465.9305, 1755.681
466.4126, 1777.288
466.8947, 1788.990
467.3769, 1786.132
467.8590, 1775.424
468.3411, 1767.191
468.8232, 1760.860
469.3053, 1758.642
469.7874, 1763.436
470.2696, 1774.450
470.7517, 1774.984
471.2338, 1761.636
471.7159, 1748.282
472.1980, 1748.514
472.6801, 1762.002
473.1623, 1773.728
473.6444, 1781.891
474.1265, 1786.925
474.6086, 1789.394
475.0907, 1789.324
475.5728, 1786.900
476.0550, 1780.250
476.5371, 1771.967
477.0192, 1765.903
477.5013, 1762.146
477.9834, 1760.873
478.4655, 1763.516
478.9477, 1768.340
479.4298, 1773.337
479.9119, 1781.462
480.3940, 1785.215
480.8761, 1776.484
481.3582, 1759.694
481.8404, 1747.666
482.3225, 1748.297
482.8046, 1751.580
483.2867, 1752.873
483.7688, 1750.871
484.2509, 1750.041
484.7331, 1749.391
485.2152, 1750.814
485.6973, 1756.690
486.1794, 1772.376
486.6615, 1783.338
487.1436, 1787.058
487.6258, 1784.542
488.1079, 1779.831
488.5900, 1771.892
489.0721, 1764.699
489.5542, 1761.520
490.0363, 1762.401
490.5185, 1758.629
491.0006, 1748.525
491.4827, 1738.734
491.9648, 1739.076
492.4470, 1748.019
492.9291, 1757.487
493.4112, 1765.298
493.8933, 1771.472
494.3754, 1775.979
494.8575, 1778.793
495.3397, 1779.477
495.8218, 1776.089
496.3039, 1771.231
496.7860, 1767.656
497.2681, 1765.746
497.7502, 1765.002
498.2324, 1766.493
498.7145, 1768.600
499.1966, 1769.145
499.6787, 1763.772
500.1608, 1760.477
500.6429, 1763.938
501.1251, 1773.488
501.6072, 1777.970
502.0893, 1772.449
502.5714, 1765.451
503.0535, 1760.769
503.5356, 1758.789
504.0178, 1758.522
504.4999, 1761.366
504.9820, 1764.644
505.4641, 1764.197
505.9462, 1759.585
506.4283, 1753.156
506.9105, 1743.456
507.3926, 1732.966
507.8747, 1734.957
508.3568, 1750.276
508.8389, 1762.448
509.3210, 1753.558
509.8032, 1732.184
510.2853, 1722.991
510.7674, 1730.687
511.2495, 1743.610
511.7316, 1752.566
512.2137, 1757.801
512.6959, 1759.730
513.1780, 1756.602
513.6601, 1751.904
514.1422, 1746.098
514.6243, 1739.881
515.1064, 1737.659
515.5886, 1748.227
516.0707, 1758.375
516.5528, 1758.731
517.0349, 1739.590
517.5170, 1728.533
517.9991, 1734.570
518.4813, 1747.660
518.9634, 1755.421
519.4455, 1756.111
519.9276, 1754.103
520.4097, 1747.955
520.8918, 1739.328
521.3740, 1739.851
521.8561, 1751.908
522.3382, 1765.225
522.8203, 1774.254
523.3024, 1778.931
523.7845, 1778.995
524.2667, 1773.994
524.7488, 1765.890
525.2309, 1753.314
525.7130, 1738.765
526.1951, 1731.569
526.6772, 1740.222
527.1594, 1752.648
527.6415, 1753.721
528.1236, 1745.647
528.6057, 1738.091
529.0878, 1736.775
529.5699, 1738.000
530.0521, 1738.796
530.5342, 1738.261
531.0163, 1739.684
531.4984, 1747.925
531.9805, 1757.042
532.4626, 1760.764
532.9448, 1753.223
533.4269, 1746.189
533.9090, 1740.570
534.3911, 1736.365
534.8732, 1732.977
535.3553, 1727.099
535.8375, 1728.518
536.3196, 1746.293
536.8017, 1782.336
537.2838, 1796.461
537.7659, 1784.566
538.2480, 1764.669
538.7302, 1755.751
539.2123, 1756.319
539.6944, 1756.464
540.1765, 1753.485
540.6586, 1750.168
541.1407, 1750.057
541.6229, 1752.863
542.1050, 1757.503
542.5871, 1764.992
543.0692, 1773.017
543.5513, 1778.767
544.0334, 1782.091
544.5156, 1786.926
544.9977, 1801.324
545.4798, 1814.420
545.9619, 1816.910
546.4440, 1796.102
546.9261, 1780.958
547.4083, 1778.859
547.8904, 1784.221
548.3725, 1786.956
548.8546, 1785.072
549.3367, 1784.104
549.8188, 1787.143
550.3010, 1793.228
550.7831, 1788.633
551.2652, 1769.360
551.7473, 1752.721
552.2294, 1754.524
552.7115, 1772.488
553.1937, 1783.171
553.6758, 1783.765
554.1579, 1781.030
554.6400, 1783.830
555.1221, 1790.160
555.6042, 1794.162
556.0864, 1792.281
556.5685, 1788.708
557.0506, 1785.831
557.5327, 1784.239
558.0148, 1786.240
558.4969, 1795.537
558.9791, 1806.864
559.4612, 1818.509
559.9433, 1831.621
560.4254, 1837.818
560.9075, 1828.595
561.3896, 1815.674
561.8718, 1809.405
562.3539, 1814.338
562.8360, 1818.294
563.3181, 1820.437
563.8002, 1821.015
564.2823, 1819.986
564.7645, 1816.626
565.2466, 1815.036
565.7287, 1817.739
566.2108, 1823.612
566.6929, 1827.094
567.1750, 1828.102
567.6572, 1827.969
568.1393, 1825.240
568.6214, 1822.578
569.1035, 1827.163
569.5856, 1842.338
570.0677, 1855.771
570.5499, 1855.375
571.0320, 1846.968
571.5141, 1839.786
571.9962, 1833.276
572.4783, 1832.532
572.9604, 1847.265
573.4426, 1872.426
573.9247, 1882.489
574.4068, 1855.173
574.8889, 1828.432
575.3710, 1816.333
575.8531, 1820.680
576.3353, 1831.850
576.8174, 1854.419
577.2995, 1876.860
577.7816, 1887.112
578.2637, 1883.877
578.7458, 1881.556
579.2280, 1882.241
579.7101, 1884.700
580.1922, 1887.816
580.6743, 1891.184
581.1564, 1892.526
581.6385, 1890.146
582.1207, 1885.489
582.6028, 1878.529
583.0849, 1870.008
583.5670, 1865.216
584.0491, 1869.700
584.5313, 1877.634
585.0134, 1885.197
585.4955, 1892.694
585.9776, 1896.833
586.4597, 1890.956
586.9418, 1883.716
587.4240, 1885.710
587.9061, 1912.704
588.3882, 1923.971
588.8703, 1907.159
589.3524, 1874.012
589.8345, 1860.551
590.3167, 1871.297
590.7988, 1884.470
591.2809, 1890.722
591.7630, 1891.519
592.2451, 1893.593
592.7272, 1896.934
593.2094, 1901.719
593.6915, 1910.662
594.1736, 1920.632
594.6557, 1924.864
595.1378, 1921.081
595.6199, 1916.299
596.1021, 1915.895
596.5842, 1917.764
597.0663, 1918.906
597.5485, 1918.318
598.0306, 1916.833
598.5127, 1910.952
598.9948, 1903.379
599.4769, 1906.000
599.9590, 1931.346
600.4412, 1952.477
600.9233, 1958.854
601.4054, 1949.245
601.8875, 1945.210
602.3696, 1947.966
602.8517, 1953.411
603.3339, 1959.663
603.8160, 1966.413
604.2981, 1967.689
604.7802, 1961.813
605.2623, 1953.896
605.7444, 1951.649
606.2266, 1952.748
606.7087, 1950.752
607.1908, 1936.354
607.6729, 1925.098
608.1550, 1933.707
608.6371, 1956.419
609.1193, 1974.807
609.6014, 1979.388
610.0835, 1979.581
610.5656, 1978.894
611.0477, 1977.385
611.5298, 1976.691
612.0120, 1977.722
612.4941, 1978.724
612.9762, 1978.421
613.4583, 1976.334
613.9404, 1974.739
614.4225, 1973.896
614.9047, 1973.270
615.3868, 1970.809
615.8689, 1966.908
616.3510, 1967.668
616.8331, 1977.527
617.3152, 1989.455
617.7974, 1990.443
618.2795, 1983.401
618.7616, 1979.704
619.2437, 1990.165
619.7258, 2002.948
620.2079, 2010.588
620.6901, 2012.531
621.1722, 2008.601
621.6543, 1991.110
622.1364, 1973.027
622.6185, 1963.327
623.1006, 1966.570
623.5828, 1968.960
624.0649, 1970.580
624.5470, 1971.271
625.0291, 1969.788
625.5112, 1964.878
625.9933, 1965.342
626.4755, 1974.860
626.9576, 1987.736
627.4397, 1991.258
627.9218, 1986.481
628.4039, 1981.444
628.8860, 1979.000
629.3682, 1979.158
629.8503, 1983.096
630.3324, 1990.307
630.8145, 1997.022
631.2966, 1999.830
631.7787, 2002.124
632.2609, 2007.058
632.7430, 2016.567
633.2251, 2022.624
633.7072, 2020.658
634.1893, 2016.384
634.6714, 2014.559
635.1536, 2016.576
635.6357, 2017.797
636.1178, 2017.135
636.5999, 2016.308
637.0820, 2020.853
637.5641, 2031.243
638.0463, 2033.498
638.5284, 2018.010
639.0105, 1996.060
639.4926, 1990.614
639.9747, 1999.739
640.4568, 2012.161
640.9390, 2023.300
641.4211, 2033.218
641.9032, 2045.392
642.3853, 2059.990
642.8674, 2062.285
643.3495, 2027.871
643.8317, 1991.479
644.3138, 1978.345
644.7959, 2011.166
645.2780, 2028.466
645.7601, 2019.745
646.2422, 2004.694
646.7244, 2008.785
647.2065, 2037.008
647.6886, 2058.188
648.1707, 2065.900
