##NAMES=Ixiolite
##RRUFFID=R070289
##IDEAL CHEMISTRY=(Ta^5+^,Mn^2+^,Nb^5+^)O_2_
##LOCALITY=Voroni Tundra, Kola Peninsula, Russia
##OWNER=RRUFF
##SOURCE=Michael Scott
##DESCRIPTION=Semimetallic black crystal with internal brown hints, associated with quartz, spodumene and mica
##STATUS=The identification of this mineral has been confirmed only by single crystal X-ray diffraction.
##URL=rruff.info/R070289
164.8920, 3923.844
165.3741, 3973.402
165.8563, 4014.953
166.3384, 4030.022
166.8205, 4030.221
167.3026, 4034.759
167.7847, 4055.018
168.2668, 4083.418
168.7490, 4103.151
169.2311, 4111.633
169.7132, 4117.168
170.1953, 4121.910
170.6774, 4127.157
171.1595, 4135.417
171.6417, 4149.565
172.1238, 4166.749
172.6059, 4180.482
173.0880, 4191.927
173.5701, 4196.941
174.0522, 4188.450
174.5344, 4174.189
175.0165, 4165.860
175.4986, 4171.163
175.9807, 4184.786
176.4628, 4190.859
176.9449, 4182.375
177.4271, 4179.568
177.9092, 4196.353
178.3913, 4221.182
178.8734, 4237.406
179.3555, 4234.358
179.8376, 4220.005
180.3197, 4218.597
180.8019, 4237.133
181.2840, 4256.908
181.7661, 4275.557
182.2482, 4290.800
182.7303, 4297.289
183.2124, 4289.339
183.6946, 4275.985
184.1767, 4286.612
184.6588, 4343.610
185.1409, 4384.937
185.6230, 4384.599
186.1051, 4365.549
186.5873, 4354.050
187.0694, 4362.763
187.5515, 4384.597
188.0336, 4401.441
188.5157, 4412.158
188.9978, 4418.909
189.4800, 4419.781
189.9621, 4418.620
190.4442, 4418.910
190.9263, 4422.053
191.4084, 4428.238
191.8905, 4438.940
192.3727, 4460.208
192.8548, 4474.913
193.3369, 4480.111
193.8190, 4478.735
194.3011, 4471.224
194.7832, 4457.568
195.2654, 4443.239
195.7475, 4440.834
196.2296, 4457.451
196.7117, 4473.277
197.1938, 4486.919
197.6759, 4498.188
198.1581, 4506.875
198.6402, 4512.947
199.1223, 4516.461
199.6044, 4516.306
200.0865, 4506.411
200.5686, 4505.630
201.0508, 4521.563
201.5329, 4541.762
202.0150, 4556.359
202.4971, 4562.789
202.9792, 4565.633
203.4613, 4573.404
203.9435, 4592.542
204.4256, 4601.518
204.9077, 4594.543
205.3898, 4582.231
205.8719, 4569.318
206.3540, 4557.776
206.8362, 4549.813
207.3183, 4550.131
207.8004, 4565.255
208.2825, 4571.724
208.7646, 4559.945
209.2467, 4547.845
209.7289, 4548.414
210.2110, 4561.573
210.6931, 4575.839
211.1752, 4576.817
211.6573, 4559.637
212.1395, 4546.973
212.6216, 4535.280
213.1037, 4530.645
213.5858, 4538.967
214.0679, 4558.469
214.5500, 4581.929
215.0322, 4603.527
215.5143, 4624.134
215.9964, 4636.251
216.4785, 4633.016
216.9606, 4627.851
217.4427, 4622.844
217.9249, 4619.845
218.4070, 4621.821
218.8891, 4632.094
219.3712, 4650.960
219.8533, 4667.414
220.3354, 4679.748
220.8176, 4691.175
221.2997, 4705.502
221.7818, 4719.532
222.2639, 4726.643
222.7460, 4721.349
223.2281, 4704.912
223.7103, 4691.304
224.1924, 4676.921
224.6745, 4670.102
225.1566, 4679.428
225.6387, 4696.014
226.1208, 4705.233
226.6030, 4697.296
227.0851, 4678.783
227.5672, 4678.317
228.0493, 4716.021
228.5314, 4745.240
229.0135, 4757.900
229.4957, 4758.495
229.9778, 4751.031
230.4599, 4737.078
230.9420, 4719.043
231.4241, 4701.747
231.9062, 4679.855
232.3884, 4669.158
232.8705, 4675.264
233.3526, 4689.522
233.8347, 4706.992
234.3168, 4725.580
234.7989, 4741.536
235.2811, 4747.594
235.7632, 4739.630
236.2453, 4731.223
236.7274, 4720.524
237.2095, 4711.792
237.6916, 4709.007
238.1738, 4712.432
238.6559, 4717.771
239.1380, 4718.765
239.6201, 4712.806
240.1022, 4712.321
240.5843, 4725.445
241.0665, 4737.822
241.5486, 4743.002
242.0307, 4740.603
242.5128, 4733.505
242.9949, 4722.714
243.4770, 4707.498
243.9592, 4697.373
244.4413, 4698.053
244.9234, 4698.624
245.4055, 4693.387
245.8876, 4684.472
246.3697, 4678.113
246.8519, 4680.163
247.3340, 4689.238
247.8161, 4692.474
248.2982, 4685.375
248.7803, 4678.137
249.2624, 4672.978
249.7446, 4670.243
250.2267, 4670.423
250.7088, 4673.991
251.1909, 4680.405
251.6730, 4689.204
252.1551, 4704.327
252.6373, 4713.519
253.1194, 4712.389
253.6015, 4704.339
254.0836, 4690.896
254.5657, 4671.151
255.0478, 4651.823
255.5300, 4643.397
256.0121, 4647.017
256.4942, 4657.526
256.9763, 4683.723
257.4584, 4710.441
257.9406, 4725.438
258.4227, 4725.859
258.9048, 4721.595
259.3869, 4724.316
259.8690, 4734.584
260.3511, 4738.218
260.8333, 4725.525
261.3154, 4711.505
261.7975, 4707.150
262.2796, 4712.550
262.7617, 4720.578
263.2438, 4729.531
263.7260, 4738.053
264.2081, 4737.018
264.6902, 4720.338
265.1723, 4701.726
265.6544, 4689.497
266.1365, 4683.137
266.6187, 4681.801
267.1008, 4687.129
267.5829, 4696.838
268.0650, 4708.708
268.5471, 4725.856
269.0292, 4734.774
269.5114, 4715.894
269.9935, 4683.071
270.4756, 4659.733
270.9577, 4655.253
271.4398, 4659.975
271.9219, 4665.625
272.4041, 4672.344
272.8862, 4674.727
273.3683, 4666.219
273.8504, 4653.472
274.3325, 4649.405
274.8146, 4658.003
275.2968, 4669.148
275.7789, 4678.343
276.2610, 4685.048
276.7431, 4686.109
277.2252, 4678.122
277.7073, 4667.045
278.1895, 4663.497
278.6716, 4668.926
279.1537, 4673.259
279.6358, 4669.567
280.1179, 4663.175
280.6000, 4663.440
281.0822, 4672.689
281.5643, 4687.177
282.0464, 4705.703
282.5285, 4729.348
283.0106, 4741.931
283.4927, 4733.555
283.9749, 4718.415
284.4570, 4708.264
284.9391, 4704.242
285.4212, 4703.254
285.9033, 4703.187
286.3854, 4704.076
286.8676, 4705.403
287.3497, 4712.798
287.8318, 4715.218
288.3139, 4702.866
288.7960, 4680.718
289.2781, 4662.005
289.7603, 4654.067
290.2424, 4655.030
290.7245, 4657.472
291.2066, 4667.650
291.6887, 4671.570
292.1708, 4662.267
292.6530, 4647.274
293.1351, 4636.170
293.6172, 4632.285
294.0993, 4631.932
294.5814, 4628.722
295.0635, 4621.642
295.5457, 4613.208
296.0278, 4596.919
296.5099, 4584.037
296.9920, 4586.725
297.4741, 4603.693
297.9562, 4620.316
298.4384, 4619.656
298.9205, 4597.134
299.4026, 4589.533
299.8847, 4618.949
300.3668, 4640.806
300.8489, 4632.688
301.3311, 4604.948
301.8131, 4581.237
302.2953, 4577.410
302.7774, 4589.807
303.2595, 4600.070
303.7416, 4608.824
304.2237, 4614.070
304.7058, 4618.475
305.1880, 4618.339
305.6701, 4606.103
306.1522, 4578.424
306.6343, 4548.722
307.1164, 4543.557
307.5985, 4573.447
308.0807, 4588.634
308.5628, 4563.315
309.0449, 4532.272
309.5270, 4516.591
310.0091, 4517.760
310.4912, 4522.476
310.9734, 4520.630
311.4555, 4512.506
311.9376, 4500.257
312.4197, 4479.942
312.9018, 4461.549
313.3839, 4451.299
313.8661, 4447.485
314.3482, 4446.012
314.8303, 4445.887
315.3124, 4446.598
315.7945, 4448.492
316.2766, 4452.467
316.7588, 4452.415
317.2409, 4444.853
317.7230, 4430.880
318.2051, 4411.164
318.6872, 4380.815
319.1693, 4353.637
319.6515, 4342.619
320.1336, 4344.628
320.6157, 4344.666
321.0978, 4336.001
321.5799, 4325.946
322.0620, 4328.156
322.5442, 4344.701
323.0263, 4357.466
323.5084, 4361.184
323.9905, 4358.393
324.4726, 4349.791
324.9547, 4335.539
325.4369, 4323.662
325.9190, 4323.386
326.4011, 4336.241
326.8832, 4340.872
327.3653, 4328.254
327.8474, 4316.023
328.3296, 4314.366
328.8117, 4321.541
329.2938, 4332.028
329.7759, 4343.617
330.2580, 4354.338
330.7401, 4354.821
331.2223, 4327.738
331.7044, 4311.908
332.1865, 4321.077
332.6686, 4338.974
333.1507, 4347.593
333.6328, 4341.653
334.1150, 4329.246
334.5971, 4322.640
335.0792, 4325.472
335.5613, 4324.274
336.0434, 4315.261
336.5255, 4306.073
337.0077, 4300.399
337.4898, 4298.137
337.9719, 4297.258
338.4540, 4295.899
338.9361, 4294.466
339.4182, 4296.923
339.9004, 4306.248
340.3825, 4315.159
340.8646, 4324.682
341.3467, 4331.565
341.8288, 4331.099
342.3109, 4320.956
342.7931, 4305.696
343.2752, 4288.562
343.7573, 4267.472
344.2394, 4259.788
344.7215, 4278.085
345.2036, 4305.276
345.6858, 4330.868
346.1679, 4353.950
346.6500, 4369.873
347.1321, 4372.424
347.6142, 4365.645
348.0963, 4361.249
348.5785, 4361.558
349.0606, 4360.418
349.5427, 4348.879
350.0248, 4331.461
350.5069, 4322.258
350.9890, 4327.464
351.4712, 4338.803
351.9533, 4352.492
352.4354, 4367.475
352.9175, 4378.757
353.3996, 4384.287
353.8817, 4384.321
354.3639, 4378.213
354.8460, 4362.737
355.3281, 4349.380
355.8102, 4339.848
356.2923, 4334.152
356.7744, 4333.152
357.2566, 4336.829
357.7387, 4343.392
358.2208, 4351.763
358.7029, 4363.642
359.1850, 4367.024
359.6671, 4348.027
360.1493, 4335.476
360.6314, 4350.419
361.1135, 4381.660
361.5956, 4403.459
362.0777, 4400.041
362.5598, 4378.392
363.0420, 4363.832
363.5241, 4358.768
364.0062, 4357.641
364.4883, 4363.128
364.9704, 4369.686
365.4525, 4372.473
365.9347, 4370.572
366.4168, 4366.863
366.8989, 4362.315
367.3810, 4356.301
367.8631, 4360.439
368.3452, 4385.694
368.8274, 4408.648
369.3095, 4415.366
369.7916, 4410.880
370.2737, 4407.516
370.7558, 4411.482
371.2379, 4419.500
371.7201, 4426.391
372.2022, 4432.091
372.6843, 4437.036
373.1664, 4439.862
373.6485, 4443.048
374.1306, 4450.757
374.6128, 4464.624
375.0949, 4477.551
375.5770, 4488.834
376.0591, 4496.018
376.5412, 4489.243
377.0233, 4464.246
377.5055, 4443.311
377.9876, 4453.247
378.4697, 4498.232
378.9518, 4526.562
379.4339, 4532.143
379.9160, 4525.799
380.3982, 4505.917
380.8803, 4478.635
381.3624, 4459.014
381.8445, 4455.493
382.3266, 4464.051
382.8087, 4472.678
383.2909, 4483.589
383.7730, 4491.347
384.2551, 4493.215
384.7372, 4493.635
385.2193, 4498.122
385.7014, 4506.396
386.1836, 4511.429
386.6657, 4503.513
387.1478, 4481.406
387.6299, 4471.123
388.1120, 4483.697
388.5941, 4495.829
389.0763, 4501.241
389.5584, 4500.954
390.0405, 4495.800
390.5226, 4484.632
391.0047, 4473.141
391.4868, 4470.600
391.9690, 4477.674
392.4511, 4487.956
392.9332, 4504.455
393.4153, 4519.161
393.8974, 4524.714
394.3795, 4521.084
394.8617, 4513.318
395.3438, 4497.176
395.8259, 4480.750
396.3080, 4481.191
396.7901, 4500.979
397.2722, 4519.423
397.7544, 4521.109
398.2365, 4509.057
398.7186, 4501.907
399.2007, 4504.457
399.6828, 4506.485
400.1649, 4500.631
400.6471, 4492.451
401.1292, 4492.588
401.6113, 4504.606
402.0934, 4520.938
402.5755, 4530.797
403.0576, 4533.015
403.5398, 4531.405
404.0219, 4523.912
404.5040, 4515.054
404.9861, 4503.077
405.4682, 4491.585
405.9503, 4489.915
406.4325, 4505.795
406.9146, 4531.667
407.3967, 4538.811
407.8788, 4515.178
408.3609, 4497.472
408.8430, 4495.626
409.3252, 4499.992
409.8073, 4504.359
410.2894, 4507.428
410.7715, 4509.098
411.2536, 4507.801
411.7357, 4504.575
412.2179, 4505.821
412.7000, 4514.384
413.1821, 4521.560
413.6642, 4520.503
414.1463, 4513.780
414.6284, 4505.373
415.1106, 4490.954
415.5927, 4481.186
416.0748, 4489.198
416.5569, 4508.875
417.0390, 4519.834
417.5211, 4513.767
418.0033, 4501.530
418.4854, 4499.328
418.9675, 4510.471
419.4496, 4521.164
419.9317, 4531.917
420.4138, 4541.266
420.8960, 4549.082
421.3781, 4554.762
421.8602, 4556.411
422.3423, 4552.380
422.8244, 4544.287
423.3065, 4539.223
423.7887, 4539.697
424.2708, 4539.357
424.7529, 4537.919
425.2350, 4535.241
425.7171, 4530.884
426.1992, 4524.951
426.6814, 4518.490
427.1635, 4511.563
427.6456, 4504.415
428.1277, 4500.867
428.6098, 4502.085
429.0919, 4504.726
429.5741, 4508.250
430.0562, 4511.748
430.5383, 4513.869
431.0204, 4514.457
431.5025, 4513.267
431.9846, 4508.014
432.4668, 4500.456
432.9489, 4496.676
433.4310, 4498.091
433.9131, 4504.425
434.3952, 4518.893
434.8773, 4543.257
435.3595, 4553.089
435.8416, 4533.054
436.3237, 4510.690
436.8058, 4504.583
437.2879, 4510.125
437.7701, 4512.409
438.2522, 4503.447
438.7343, 4488.975
439.2164, 4483.811
439.6985, 4494.069
440.1806, 4503.097
440.6628, 4509.765
441.1449, 4515.929
441.6270, 4522.542
442.1091, 4529.753
442.5912, 4537.873
443.0733, 4548.709
443.5555, 4559.977
444.0376, 4560.708
444.5197, 4545.382
445.0018, 4535.002
445.4839, 4540.617
445.9660, 4553.743
446.4482, 4568.832
446.9303, 4586.196
447.4124, 4597.198
447.8945, 4594.614
448.3766, 4582.260
448.8587, 4564.878
449.3409, 4542.208
449.8230, 4526.152
450.3051, 4528.061
450.7872, 4546.078
451.2693, 4558.410
451.7514, 4561.179
452.2336, 4563.255
452.7157, 4568.826
453.1978, 4574.963
453.6799, 4577.534
454.1620, 4575.354
454.6441, 4569.853
455.1263, 4562.235
455.6084, 4551.553
456.0905, 4544.195
456.5726, 4544.771
457.0547, 4544.095
457.5368, 4537.353
458.0190, 4528.007
458.5011, 4522.358
458.9832, 4523.646
459.4653, 4526.654
459.9474, 4520.828
460.4295, 4505.904
460.9117, 4502.473
461.3938, 4519.225
461.8759, 4542.275
462.3580, 4561.232
462.8401, 4576.238
463.3222, 4587.273
463.8044, 4600.011
464.2865, 4604.391
464.7686, 4584.689
465.2507, 4547.069
465.7328, 4514.620
466.2149, 4496.645
466.6971, 4491.709
467.1792, 4498.115
467.6613, 4524.215
468.1434, 4544.428
468.6255, 4562.834
469.1076, 4572.063
469.5898, 4557.729
470.0719, 4529.385
470.5540, 4514.481
471.0361, 4532.712
471.5182, 4569.428
472.0003, 4579.690
472.4825, 4551.825
472.9646, 4529.162
473.4467, 4522.248
473.9288, 4522.733
474.4109, 4528.476
474.8930, 4538.199
475.3752, 4545.766
475.8573, 4546.180
476.3394, 4542.792
476.8215, 4542.313
477.3036, 4544.932
477.7857, 4543.443
478.2679, 4531.618
478.7500, 4515.575
479.2321, 4511.770
479.7142, 4527.571
480.1963, 4535.447
480.6784, 4523.160
481.1606, 4505.428
481.6427, 4495.179
482.1248, 4493.213
482.6069, 4494.127
483.0890, 4494.106
483.5711, 4493.294
484.0533, 4492.252
484.5354, 4488.687
485.0175, 4488.891
485.4996, 4501.690
485.9817, 4512.626
486.4638, 4504.566
486.9460, 4478.733
487.4281, 4458.682
487.9102, 4471.303
488.3923, 4503.459
488.8744, 4511.134
489.3565, 4489.048
489.8387, 4471.612
490.3208, 4480.055
490.8029, 4502.172
491.2850, 4511.866
491.7671, 4505.847
492.2492, 4497.356
492.7314, 4487.368
493.2135, 4479.191
493.6956, 4478.164
494.1777, 4483.862
494.6598, 4490.306
495.1419, 4493.431
495.6241, 4493.052
496.1062, 4487.714
496.5883, 4469.719
497.0704, 4457.728
497.5525, 4456.860
498.0346, 4460.097
498.5168, 4461.423
498.9989, 4460.376
499.4810, 4460.994
499.9631, 4471.377
500.4452, 4485.922
500.9273, 4478.450
501.4095, 4441.576
501.8916, 4414.311
502.3737, 4419.748
502.8558, 4441.316
503.3379, 4450.670
503.8200, 4442.961
504.3022, 4441.493
504.7843, 4463.987
505.2664, 4492.137
505.7485, 4503.947
506.2306, 4498.808
506.7127, 4488.181
507.1949, 4479.164
507.6770, 4471.527
508.1591, 4464.388
508.6412, 4458.148
509.1233, 4451.783
509.6054, 4443.291
510.0876, 4436.135
510.5697, 4433.458
511.0518, 4434.870
511.5339, 4437.853
512.0161, 4443.274
512.4982, 4447.275
512.9803, 4434.056
513.4624, 4398.583
513.9445, 4378.068
514.4266, 4394.798
514.9088, 4425.007
515.3909, 4435.159
515.8730, 4423.242
516.3551, 4418.273
516.8372, 4440.083
517.3193, 4464.526
517.8015, 4467.551
518.2836, 4451.890
518.7657, 4434.017
519.2478, 4422.551
519.7299, 4414.759
520.2120, 4403.516
520.6942, 4381.477
521.1763, 4370.326
521.6584, 4377.341
522.1405, 4387.055
522.6226, 4392.234
523.1047, 4393.194
523.5869, 4392.222
524.0690, 4389.522
524.5511, 4387.731
525.0332, 4392.789
525.5153, 4404.632
525.9974, 4413.358
526.4796, 4416.989
526.9617, 4416.184
527.4438, 4408.307
527.9259, 4394.581
528.4080, 4387.500
528.8901, 4394.746
529.3723, 4403.230
529.8544, 4403.704
530.3365, 4400.107
530.8186, 4401.756
531.3007, 4411.634
531.7828, 4422.314
532.2650, 4423.165
532.7471, 4412.498
533.2292, 4402.294
533.7113, 4385.267
534.1934, 4377.583
534.6755, 4392.382
535.1577, 4416.078
535.6398, 4429.171
536.1219, 4425.269
536.6040, 4418.697
537.0861, 4425.859
537.5682, 4441.190
538.0504, 4443.533
538.5325, 4428.320
539.0146, 4416.851
539.4967, 4427.258
539.9788, 4453.723
540.4609, 4466.798
540.9431, 4454.020
541.4252, 4446.656
541.9073, 4459.284
542.3894, 4474.788
542.8715, 4474.160
543.3536, 4457.838
543.8358, 4441.292
544.3179, 4436.533
544.8000, 4441.774
545.2821, 4449.527
545.7642, 4460.096
546.2463, 4472.512
546.7285, 4497.202
547.2106, 4515.227
547.6927, 4502.583
548.1748, 4462.785
548.6569, 4439.226
549.1390, 4469.676
549.6211, 4512.609
550.1032, 4521.141
550.5853, 4500.698
551.0674, 4475.868
551.5496, 4454.616
552.0317, 4442.402
552.5138, 4450.340
552.9959, 4490.217
553.4780, 4510.063
553.9601, 4487.586
554.4423, 4471.955
554.9244, 4492.078
555.4065, 4529.230
555.8886, 4551.358
556.3707, 4546.453
556.8528, 4533.935
557.3350, 4541.152
557.8171, 4564.257
558.2992, 4567.957
558.7813, 4541.629
559.2634, 4519.674
559.7455, 4529.166
560.2277, 4560.128
560.7098, 4578.891
561.1919, 4580.409
561.6740, 4578.230
562.1561, 4572.030
562.6382, 4566.979
563.1204, 4571.521
563.6025, 4584.141
564.0846, 4592.826
564.5667, 4587.666
565.0488, 4573.901
565.5309, 4574.186
566.0131, 4598.378
566.4952, 4611.639
566.9773, 4594.056
567.4594, 4574.909
567.9415, 4572.866
568.4236, 4586.133
568.9058, 4602.294
569.3879, 4623.800
569.8700, 4639.095
570.3521, 4631.221
570.8342, 4606.716
571.3163, 4587.464
571.7985, 4580.213
572.2806, 4579.126
572.7627, 4576.807
573.2448, 4572.252
573.7269, 4576.167
574.2090, 4601.246
574.6912, 4619.266
575.1733, 4613.665
575.6554, 4602.332
576.1375, 4607.994
576.6196, 4634.488
577.1017, 4662.760
577.5839, 4673.566
578.0660, 4672.361
578.5481, 4678.388
579.0302, 4692.848
579.5123, 4706.309
579.9944, 4715.039
580.4766, 4719.747
580.9587, 4720.530
581.4408, 4715.797
581.9229, 4714.383
582.4050, 4717.136
582.8871, 4723.893
583.3693, 4738.784
583.8514, 4757.042
584.3335, 4769.140
584.8156, 4770.604
585.2977, 4765.393
585.7798, 4757.852
586.2620, 4747.303
586.7441, 4743.306
587.2262, 4750.084
587.7083, 4757.201
588.1904, 4759.692
588.6725, 4758.367
589.1547, 4753.231
589.6368, 4741.504
590.1189, 4733.342
590.6010, 4735.226
591.0831, 4742.558
591.5652, 4749.986
592.0474, 4756.907
592.5295, 4765.575
593.0116, 4778.321
593.4937, 4791.298
593.9758, 4790.383
594.4579, 4762.865
594.9401, 4751.725
595.4222, 4776.802
595.9043, 4804.405
596.3864, 4818.483
596.8685, 4821.662
597.3506, 4822.143
597.8328, 4821.052
598.3149, 4821.884
598.7970, 4832.066
599.2791, 4846.289
599.7612, 4847.271
600.2433, 4831.625
600.7255, 4819.102
601.2076, 4827.070
601.6897, 4853.036
602.1718, 4876.760
602.6539, 4901.906
603.1360, 4919.313
603.6182, 4928.818
604.1003, 4930.098
604.5824, 4917.465
605.0645, 4895.260
605.5466, 4879.055
606.0287, 4880.451
606.5109, 4888.928
606.9930, 4887.150
607.4751, 4876.821
607.9572, 4871.192
608.4393, 4873.315
608.9214, 4881.990
609.4036, 4897.572
609.8857, 4920.118
610.3678, 4938.504
610.8499, 4953.111
611.3320, 4963.474
611.8141, 4972.300
612.2963, 4975.075
612.7784, 4960.345
613.2605, 4931.807
613.7426, 4913.042
614.2247, 4927.407
614.7068, 4959.561
615.1890, 4969.468
615.6711, 4956.010
616.1532, 4945.160
616.6353, 4943.747
617.1174, 4948.820
617.5995, 4960.404
618.0817, 4978.684
618.5638, 4986.667
619.0459, 4972.838
619.5280, 4961.168
620.0101, 4959.986
620.4922, 4966.627
620.9744, 4982.644
621.4565, 5005.120
621.9386, 5018.454
622.4207, 5003.563
622.9028, 4970.457
623.3849, 4961.162
623.8671, 4980.145
624.3492, 4996.890
624.8313, 5001.571
625.3134, 5000.915
625.7955, 5002.095
626.2776, 5004.993
626.7598, 5008.495
627.2419, 5010.601
627.7240, 5015.261
628.2061, 5027.012
628.6882, 5041.530
629.1703, 5053.693
629.6525, 5061.707
630.1346, 5064.010
630.6167, 5056.605
631.0988, 5042.539
631.5809, 5041.130
632.0630, 5057.347
632.5452, 5066.185
633.0273, 5053.795
633.5094, 5036.920
633.9915, 5033.756
634.4736, 5043.672
634.9557, 5057.755
635.4379, 5084.050
635.9200, 5103.726
636.4021, 5099.575
636.8842, 5084.303
637.3663, 5080.786
637.8484, 5092.845
638.3306, 5101.265
638.8127, 5082.404
639.2948, 5044.021
639.7769, 5037.573
640.2590, 5073.082
640.7411, 5105.016
641.2233, 5120.240
641.7054, 5126.584
642.1875, 5130.238
642.6696, 5131.619
643.1517, 5136.333
643.6339, 5153.028
644.1160, 5165.335
644.5981, 5161.287
645.0802, 5148.220
645.5623, 5136.200
646.0444, 5127.965
646.5266, 5122.050
647.0087, 5116.061
647.4908, 5111.867
647.9729, 5120.842
648.4550, 5147.491
648.9371, 5169.567
649.4193, 5185.094
649.9014, 5189.890
650.3835, 5171.528
650.8656, 5134.970
651.3477, 5116.267
651.8298, 5136.430
652.3120, 5158.572
652.7941, 5167.023
653.2762, 5166.386
653.7583, 5161.108
654.2404, 5153.132
654.7225, 5145.089
655.2047, 5138.444
655.6868, 5134.240
656.1689, 5136.790
656.6510, 5147.076
657.1331, 5158.109
657.6152, 5168.305
658.0974, 5179.021
658.5795, 5196.277
659.0616, 5216.445
659.5437, 5221.510
660.0258, 5192.439
660.5079, 5169.760
660.9901, 5168.444
661.4722, 5179.528
