##NAMES=Izoklakeite
##RRUFFID=R110044
##IDEAL CHEMISTRY=Pb^2+^_26.4_(Cu^1+^,Fe^2+^)_2_(Sb^3+^,Bi^3+^)_19.6_S^2-^_57_
##LOCALITY=Crabtree quarry, Wake County, North Carolina, USA
##OWNER=RRUFF
##SOURCE=Mark Feinglos
##DESCRIPTION=Lead-gray metallic aggregate of acicular crystals
##STATUS=The identification of this mineral has been confirmed only by single crystal X-ray diffraction.
##URL=rruff.info/R110044
201.3790, 402.6643
201.8611, 404.1042
202.3433, 404.9278
202.8254, 405.1552
203.3075, 404.3877
203.7896, 402.0718
204.2717, 399.2053
204.7538, 398.7651
205.2360, 401.4057
205.7181, 404.0126
206.2002, 404.6154
206.6823, 402.9106
207.1644, 401.0374
207.6465, 398.8104
208.1287, 396.7028
208.6108, 396.2547
209.0929, 397.8548
209.5750, 400.0205
210.0571, 402.3557
210.5392, 405.4522
211.0214, 405.6580
211.5035, 401.1395
211.9856, 394.0230
212.4677, 392.3845
212.9498, 398.6561
213.4319, 404.9756
213.9141, 405.8784
214.3962, 399.1427
214.8783, 395.1161
215.3604, 395.4192
215.8425, 398.9769
216.3246, 401.6845
216.8067, 403.7790
217.2889, 404.6319
217.7710, 403.3802
218.2531, 398.6942
218.7352, 395.9891
219.2173, 396.6038
219.6994, 399.5349
220.1816, 399.6822
220.6637, 395.2815
221.1458, 391.1278
221.6279, 390.7494
222.1100, 396.3966
222.5921, 399.7017
223.0743, 399.1060
223.5564, 395.6263
224.0385, 394.1210
224.5206, 395.5435
225.0027, 397.4862
225.4848, 398.5103
225.9670, 398.3286
226.4491, 397.9102
226.9312, 397.2183
227.4133, 396.3434
227.8954, 395.6359
228.3775, 394.9799
228.8597, 394.6813
229.3418, 395.1230
229.8239, 397.1193
230.3060, 397.9043
230.7881, 396.8354
231.2702, 394.3330
231.7524, 392.3282
232.2345, 390.4807
232.7166, 389.6074
233.1987, 390.4708
233.6808, 394.4096
234.1629, 397.0354
234.6451, 397.5726
235.1272, 396.5539
235.6093, 396.3764
236.0914, 397.4716
236.5735, 398.8134
237.0556, 400.0128
237.5378, 401.7499
238.0199, 401.7749
238.5020, 399.1780
238.9841, 394.7665
239.4662, 391.9419
239.9483, 391.4651
240.4305, 391.5511
240.9126, 391.3805
241.3947, 391.2752
241.8768, 390.0757
242.3589, 386.6757
242.8410, 382.2105
243.3232, 381.0407
243.8053, 385.6399
244.2874, 390.1371
244.7695, 391.3904
245.2516, 387.7635
245.7337, 384.5000
246.2159, 381.4742
246.6980, 378.9288
247.1801, 377.7853
247.6622, 378.6004
248.1443, 379.9406
248.6264, 381.2373
249.1086, 382.8037
249.5907, 383.5507
250.0728, 383.1441
250.5549, 382.0024
251.0370, 381.2818
251.5191, 381.3484
252.0013, 381.2694
252.4834, 380.5802
252.9655, 378.9847
253.4476, 377.5128
253.9297, 375.7903
254.4118, 374.3651
254.8940, 374.7855
255.3761, 378.6245
255.8582, 381.5219
256.3403, 381.2854
256.8224, 376.5538
257.3046, 373.3071
257.7867, 372.3246
258.2688, 372.3466
258.7509, 370.7806
259.2330, 366.7979
259.7151, 362.9412
260.1973, 360.1718
260.6794, 358.7303
261.1615, 357.5274
261.6436, 356.6303
262.1257, 355.9303
262.6078, 355.2717
263.0900, 354.6986
263.5721, 354.1009
264.0542, 353.5043
264.5363, 352.9554
265.0184, 351.9689
265.5005, 350.1482
265.9827, 348.3441
266.4648, 348.1011
266.9469, 350.2916
267.4290, 351.4804
267.9111, 350.1776
268.3932, 346.1517
268.8754, 343.5873
269.3575, 342.8713
269.8396, 343.0040
270.3217, 343.0561
270.8038, 343.3445
271.2859, 342.1571
271.7681, 337.9812
272.2502, 331.0442
272.7323, 328.6912
273.2144, 332.4162
273.6965, 337.7738
274.1786, 340.1441
274.6608, 339.2311
275.1429, 336.9179
275.6250, 333.0950
276.1071, 328.1223
276.5892, 324.7177
277.0714, 323.2228
277.5535, 322.4791
278.0356, 321.6346
278.5177, 320.7306
278.9998, 319.2151
279.4819, 316.7121
279.9641, 313.5544
280.4462, 311.4025
280.9283, 310.4221
281.4104, 309.7064
281.8925, 308.7207
282.3746, 307.4756
282.8568, 305.2775
283.3389, 301.4964
283.8210, 297.1097
284.3031, 295.2285
284.7852, 296.1240
285.2673, 297.2367
285.7495, 296.8396
286.2316, 295.0120
286.7137, 292.4433
287.1958, 288.7584
287.6779, 285.0643
288.1600, 284.3079
288.6422, 286.5425
289.1243, 288.3111
289.6064, 286.7675
290.0885, 282.6230
290.5706, 279.6887
291.0527, 278.4689
291.5349, 278.1458
292.0170, 277.4660
292.4991, 276.4727
292.9812, 275.6284
293.4633, 275.6297
293.9454, 276.0230
294.4276, 275.0567
294.9097, 272.3851
295.3918, 269.5305
295.8739, 268.8491
296.3560, 269.8752
296.8381, 270.3659
297.3203, 268.5087
297.8024, 265.5275
298.2845, 264.2283
298.7666, 264.8159
299.2487, 265.5070
299.7308, 264.0874
300.2130, 261.2450
300.6951, 258.9848
301.1772, 258.5531
301.6593, 258.9418
302.1414, 259.0819
302.6235, 258.9545
303.1057, 257.8090
303.5878, 253.4752
304.0699, 247.8213
304.5520, 244.5018
305.0341, 246.2421
305.5162, 249.3958
305.9984, 250.0742
306.4805, 248.5664
306.9626, 246.8897
307.4447, 246.8910
307.9268, 247.4026
308.4089, 246.8256
308.8911, 244.2239
309.3732, 241.2416
309.8553, 238.5992
310.3374, 236.5231
310.8195, 235.7503
311.3016, 238.8477
311.7838, 242.3425
312.2659, 242.7007
312.7480, 237.8535
313.2301, 233.1352
313.7122, 232.3020
314.1943, 233.8836
314.6765, 234.8087
315.1586, 233.1806
315.6407, 230.8299
316.1228, 228.7274
316.6049, 226.9265
317.0870, 225.7378
317.5692, 225.5339
318.0513, 225.9814
318.5334, 226.6194
319.0155, 228.8176
319.4976, 229.8768
319.9797, 227.6460
320.4619, 221.5944
320.9440, 217.3716
321.4261, 217.9757
321.9082, 220.6447
322.3903, 222.7687
322.8724, 224.6900
323.3546, 225.1038
323.8367, 222.6146
324.3188, 217.3907
324.8009, 213.9128
325.2830, 214.7559
325.7651, 216.4555
326.2473, 216.7724
326.7294, 213.8829
327.2115, 211.4820
327.6936, 210.2542
328.1757, 209.9285
328.6578, 209.0658
329.1400, 206.7540
329.6221, 204.6584
330.1042, 203.5857
330.5863, 205.2985
331.0684, 205.0486
331.5505, 201.4727
332.0327, 196.1857
332.5148, 192.9227
332.9969, 193.5056
333.4790, 193.6544
333.9611, 191.8442
334.4432, 187.6155
334.9254, 183.0908
335.4075, 177.7912
335.8896, 172.6415
336.3717, 169.0110
336.8538, 167.3441
337.3359, 166.1772
337.8180, 164.9833
338.3001, 163.7822
338.7823, 164.2674
339.2644, 167.2760
339.7465, 170.3188
340.2286, 170.8417
340.7107, 168.5103
341.1928, 165.5458
341.6750, 162.0677
342.1571, 158.3881
342.6392, 155.9880
343.1213, 154.9604
343.6034, 154.6059
344.0855, 154.9250
344.5677, 155.8425
345.0498, 155.0835
345.5319, 151.6558
346.0140, 147.6318
346.4961, 147.9614
346.9782, 152.4380
347.4604, 155.8676
347.9425, 153.7167
348.4246, 147.8701
348.9067, 146.0062
349.3888, 149.2080
349.8709, 153.0023
350.3531, 150.8403
350.8352, 144.3208
351.3173, 139.3968
351.7994, 140.2780
352.2815, 143.7720
352.7636, 144.1167
353.2458, 141.3111
353.7279, 138.5613
354.2100, 139.3504
354.6921, 141.9296
355.1742, 143.2448
355.6563, 141.8897
356.1385, 139.3941
356.6206, 136.3487
357.1027, 133.0770
357.5848, 131.2448
358.0669, 133.4172
358.5490, 136.6894
359.0312, 138.0904
359.5133, 136.2189
359.9954, 134.3226
360.4775, 134.4581
360.9596, 135.9371
361.4417, 137.2899
361.9239, 138.7371
362.4060, 139.2875
362.8881, 138.0324
363.3702, 134.4842
363.8523, 131.2896
364.3344, 129.6235
364.8166, 128.6535
365.2987, 127.4196
365.7808, 124.1815
366.2629, 122.2094
366.7450, 122.8983
367.2271, 126.2437
367.7093, 129.2292
368.1914, 132.8114
368.6735, 135.1084
369.1556, 134.8594
369.6377, 128.7873
370.1198, 124.2382
370.6020, 121.9951
371.0841, 121.5405
371.5662, 120.9626
372.0483, 119.5670
372.5304, 118.8981
373.0125, 119.7786
373.4947, 122.9855
373.9768, 125.5690
374.4589, 127.7672
374.9410, 129.1811
375.4231, 128.8005
375.9052, 125.6968
376.3874, 123.4546
376.8695, 123.6110
377.3516, 126.0784
377.8337, 126.7210
378.3158, 125.1376
378.7979, 122.8972
379.2801, 121.4118
379.7622, 120.6788
380.2443, 120.6527
380.7264, 121.7692
381.2085, 123.2160
381.6906, 122.4179
382.1728, 119.3348
382.6549, 116.2789
383.1370, 114.6793
383.6191, 114.3902
384.1012, 115.1867
384.5833, 117.3322
385.0655, 119.5884
385.5476, 120.0970
386.0297, 119.2486
386.5118, 118.4342
386.9939, 118.9666
387.4760, 119.6688
387.9582, 118.1478
388.4403, 114.3238
388.9224, 111.3284
389.4045, 112.3207
389.8866, 115.5792
390.3687, 118.7754
390.8509, 121.8722
391.3330, 123.8407
391.8151, 123.1663
392.2972, 120.4843
392.7793, 118.3756
393.2614, 119.0733
393.7436, 120.2219
394.2257, 119.9069
394.7078, 116.8823
395.1899, 114.6393
395.6720, 115.0949
396.1541, 116.9933
396.6363, 118.3165
397.1184, 117.8283
397.6005, 117.3816
398.0826, 117.9091
398.5647, 119.6902
399.0468, 120.3768
399.5290, 118.7219
400.0111, 116.4557
400.4932, 114.9514
400.9753, 114.3447
401.4574, 114.3913
401.9395, 115.9243
402.4217, 118.2816
402.9038, 117.9408
403.3859, 112.5296
403.8680, 107.9025
404.3501, 107.3203
404.8322, 112.4219
405.3144, 115.8274
405.7965, 117.1936
406.2786, 117.2320
406.7607, 116.8164
407.2428, 115.8028
407.7249, 115.1314
408.2071, 115.2256
408.6892, 115.9526
409.1713, 116.6349
409.6534, 117.3503
410.1355, 117.5581
410.6176, 116.2186
411.0998, 113.6990
411.5819, 112.3023
412.0640, 112.7724
412.5461, 114.0567
413.0282, 114.4450
413.5103, 114.0691
413.9925, 113.7232
414.4746, 114.5541
414.9567, 115.4843
415.4388, 114.2978
415.9209, 110.5401
416.4030, 107.1812
416.8852, 106.7395
417.3673, 108.3332
417.8494, 110.4992
418.3315, 113.7578
418.8136, 116.5240
419.2957, 117.8642
419.7779, 117.8307
420.2600, 116.8803
420.7421, 113.5675
421.2242, 110.4179
421.7063, 109.6220
422.1884, 113.5142
422.6706, 116.0278
423.1527, 114.4182
423.6348, 110.5958
424.1169, 108.1576
424.5990, 109.3126
425.0811, 110.2807
425.5633, 109.3270
426.0454, 105.8145
426.5275, 104.8868
427.0096, 108.6362
427.4917, 113.3078
427.9738, 115.7869
428.4560, 115.0875
428.9381, 114.2403
429.4202, 113.5648
429.9023, 112.6126
430.3844, 112.0852
430.8665, 110.7211
431.3487, 109.5271
431.8308, 108.5836
432.3129, 107.8348
432.7950, 108.9503
433.2771, 112.6665
433.7592, 116.3051
434.2414, 115.3671
434.7235, 110.3402
435.2056, 107.2542
435.6877, 108.9520
436.1698, 113.1239
436.6519, 114.9028
437.1341, 114.3750
437.6162, 113.2540
438.0983, 112.4937
438.5804, 112.0669
439.0625, 111.9600
439.5446, 112.2133
440.0268, 112.6404
440.5089, 113.5844
440.9910, 114.5660
441.4731, 114.6000
441.9552, 111.4738
442.4373, 108.6549
442.9195, 108.9488
443.4016, 112.3367
443.8837, 115.1178
444.3658, 115.3815
444.8479, 114.6370
445.3300, 114.0775
445.8122, 114.6068
446.2943, 114.4544
446.7764, 112.7800
447.2585, 110.1894
447.7406, 108.2332
448.2227, 106.9579
448.7049, 106.4145
449.1870, 107.1422
449.6691, 109.7367
450.1512, 109.6866
450.6333, 104.8262
451.1154, 99.68077
451.5976, 99.15757
452.0797, 105.2186
452.5618, 109.3024
453.0439, 109.7536
453.5260, 107.5619
454.0081, 105.4133
454.4903, 103.1754
454.9724, 101.8208
455.4545, 102.1212
455.9366, 103.8823
456.4187, 106.1245
456.9008, 109.0133
457.3830, 111.2033
457.8651, 110.4696
458.3472, 107.5901
458.8293, 105.0866
459.3114, 103.7526
459.7935, 103.1949
460.2757, 103.4125
460.7578, 104.1611
461.2399, 104.2226
461.7220, 101.7213
462.2041, 98.79056
462.6862, 97.80787
463.1684, 99.61624
463.6505, 101.0910
464.1326, 99.69814
464.6147, 97.30350
465.0968, 96.30611
465.5789, 99.70168
466.0611, 102.3006
466.5432, 101.9172
467.0253, 98.85275
467.5074, 96.83812
467.9895, 96.69827
468.4716, 97.39068
468.9538, 98.55348
469.4359, 100.7928
469.9180, 102.0830
470.4001, 101.8461
470.8822, 101.0683
471.3643, 101.6380
471.8465, 104.7296
472.3286, 105.5577
472.8107, 101.8264
473.2928, 94.74202
473.7749, 91.30638
474.2570, 91.97274
474.7392, 94.04430
475.2213, 95.86714
475.7034, 97.44563
476.1855, 98.82469
476.6676, 100.0257
477.1497, 100.9772
477.6319, 101.7825
478.1140, 102.2970
478.5961, 102.0164
479.0782, 99.98226
479.5603, 97.49523
480.0424, 96.02438
480.5246, 95.49841
481.0067, 95.37458
481.4888, 95.02596
481.9709, 95.07524
482.4530, 96.53976
482.9352, 100.9749
483.4173, 103.3987
483.8994, 99.59290
484.3815, 93.02103
484.8636, 88.99707
485.3457, 89.80419
485.8279, 92.15881
486.3100, 96.61562
486.7921, 103.1065
487.2742, 105.7428
487.7563, 101.3685
488.2384, 96.37099
488.7206, 94.50951
489.2027, 97.46025
489.6848, 98.95068
490.1669, 98.41376
490.6490, 96.93198
491.1311, 96.36475
491.6133, 96.93204
492.0954, 96.85656
492.5775, 95.16409
493.0596, 92.52406
493.5417, 91.53530
494.0238, 92.21459
494.5060, 93.38811
494.9881, 94.56230
495.4702, 95.53941
495.9523, 95.81841
496.4344, 95.28288
496.9165, 94.25377
497.3987, 92.39687
497.8808, 90.32912
498.3629, 89.25291
498.8450, 91.06199
499.3271, 92.84444
499.8092, 92.09323
500.2914, 89.34351
500.7735, 87.62688
501.2556, 89.52866
501.7377, 91.75183
502.2198, 92.07419
502.7019, 88.94899
503.1841, 87.32800
503.6662, 88.95657
504.1483, 91.94008
504.6304, 94.10978
505.1125, 95.34775
505.5946, 95.91429
506.0768, 95.70689
506.5589, 94.84410
507.0410, 93.85049
507.5231, 92.61240
508.0052, 91.56223
508.4873, 91.07413
508.9695, 91.16157
509.4516, 90.56545
509.9337, 89.06700
510.4158, 87.76579
510.8979, 88.01438
511.3800, 89.59057
511.8622, 91.62865
512.3443, 94.35591
512.8264, 96.76392
513.3085, 97.47282
513.7906, 96.71461
514.2728, 95.31902
514.7549, 93.09123
515.2370, 90.86048
515.7191, 89.21248
516.2012, 88.18140
516.6833, 87.96582
517.1655, 89.36534
517.6476, 91.23326
518.1297, 92.59080
518.6118, 93.01675
519.0939, 93.19522
519.5760, 92.85853
520.0582, 92.36363
520.5403, 92.57825
521.0224, 94.25996
521.5045, 95.60069
521.9866, 96.17728
522.4688, 95.98645
522.9509, 94.96238
523.4330, 92.70296
523.9151, 90.52691
524.3972, 89.61131
524.8793, 89.99219
525.3615, 90.03770
525.8436, 89.52736
526.3257, 88.85026
526.8078, 88.53471
527.2899, 88.55039
527.7720, 88.79692
528.2542, 89.58526
528.7363, 90.30537
529.2184, 89.79478
529.7005, 88.31003
530.1826, 87.22381
530.6647, 87.43452
531.1469, 88.38097
531.6290, 89.95354
532.1111, 92.48752
532.5932, 93.83784
533.0753, 92.02206
533.5574, 89.09457
534.0396, 87.21630
534.5217, 87.94539
535.0038, 88.33485
535.4859, 87.67793
535.9680, 86.36678
536.4501, 85.60108
536.9323, 85.34669
537.4144, 85.72944
537.8965, 87.18941
538.3786, 89.78429
538.8607, 90.52249
539.3428, 88.92554
539.8250, 86.92553
540.3071, 86.48298
540.7892, 87.41526
541.2713, 87.96943
541.7534, 87.89726
542.2355, 87.32197
542.7177, 85.52707
543.1998, 83.19843
543.6819, 82.58172
544.1640, 87.42866
544.6461, 92.54883
545.1282, 92.01512
545.6104, 86.75015
546.0925, 82.54483
546.5746, 83.25304
547.0567, 85.45093
547.5388, 86.86869
548.0209, 86.91797
548.5031, 87.09732
548.9852, 88.73277
549.4673, 90.16731
549.9494, 89.57053
550.4315, 84.88464
550.9136, 81.31664
551.3958, 79.28445
551.8779, 78.73799
552.3600, 79.92600
552.8421, 83.50513
553.3242, 86.54996
553.8063, 87.87597
554.2885, 87.59669
554.7706, 86.05783
555.2527, 83.07525
555.7348, 80.77702
556.2169, 81.80553
556.6990, 84.93166
557.1812, 86.98715
557.6633, 87.37439
558.1454, 87.01492
558.6275, 86.80266
559.1096, 86.46605
559.5917, 85.51839
560.0739, 82.55081
560.5560, 80.08480
561.0381, 79.43990
561.5202, 80.39953
562.0023, 81.92603
562.4844, 84.63506
562.9666, 87.10686
563.4487, 88.87199
563.9308, 90.11219
564.4129, 89.70950
564.8950, 86.74654
565.3771, 83.14079
565.8593, 80.06068
566.3414, 77.06097
566.8235, 76.84513
567.3056, 80.51611
567.7877, 85.78749
568.2698, 88.75768
568.7520, 89.50765
569.2341, 88.90102
569.7162, 86.62134
570.1983, 83.63663
570.6804, 81.30078
571.1625, 79.69598
571.6447, 79.28562
572.1268, 81.46932
572.6089, 84.35995
573.0910, 86.25198
573.5731, 86.97811
574.0552, 86.63010
574.5374, 84.09731
575.0195, 81.08659
575.5016, 79.18368
575.9837, 79.97869
576.4658, 80.29494
576.9479, 79.35600
577.4301, 77.86608
577.9122, 77.28015
578.3943, 78.20010
578.8764, 78.75623
579.3585, 78.10606
579.8406, 76.58459
580.3228, 76.74773
580.8049, 78.79545
581.2870, 81.22436
581.7691, 83.54964
582.2512, 85.50563
582.7333, 85.80547
583.2155, 84.25758
583.6976, 82.23717
584.1797, 80.46210
584.6617, 79.20326
585.1439, 79.09939
585.6260, 81.31211
586.1081, 82.91951
586.5902, 81.17209
587.0723, 77.64935
587.5544, 75.42952
588.0366, 75.94786
588.5187, 77.29147
589.0008, 79.52345
589.4829, 82.48045
589.9650, 83.70749
590.4471, 81.86573
590.9293, 80.02030
591.4114, 79.62032
591.8935, 80.81860
592.3756, 82.63965
592.8577, 85.56255
593.3398, 87.81591
593.8220, 86.86404
594.3041, 83.19638
594.7862, 80.82040
595.2683, 80.80869
595.7504, 81.39147
596.2325, 79.86916
596.7147, 77.05413
597.1968, 75.08304
597.6789, 75.50439
598.1610, 76.58066
598.6431, 77.38747
599.1252, 77.85977
599.6074, 77.77493
600.0895, 75.15748
600.5716, 73.57314
601.0537, 75.78895
601.5358, 83.62088
602.0179, 86.86195
602.5001, 81.71684
602.9822, 75.62753
603.4643, 74.60098
603.9464, 80.54952
604.4285, 83.83847
604.9106, 83.38920
605.3928, 81.09498
605.8749, 79.57703
606.3570, 78.80116
606.8391, 78.32059
607.3212, 77.76540
607.8033, 77.72573
608.2855, 79.87984
608.7676, 83.53557
609.2497, 86.22402
609.7318, 86.13805
610.2139, 84.83652
610.6960, 83.23840
611.1782, 81.42261
611.6603, 79.83805
612.1424, 78.61095
612.6245, 77.66973
613.1066, 76.94919
613.5887, 76.31983
614.0709, 76.20688
614.5530, 76.72614
615.0351, 77.66139
615.5172, 78.94409
615.9993, 80.79865
616.4814, 82.05815
616.9636, 82.58669
617.4457, 82.40284
617.9278, 81.17101
618.4099, 79.01675
618.8920, 77.24609
619.3741, 76.45641
619.8563, 76.29433
620.3384, 76.42886
620.8205, 76.80192
621.3026, 77.12594
621.7847, 77.60091
622.2668, 77.69984
622.7490, 76.66554
623.2311, 74.27110
623.7132, 72.74730
624.1953, 73.03623
624.6774, 74.17064
625.1595, 75.56591
625.6417, 77.99159
626.1238, 79.04968
626.6059, 78.15517
627.0880, 76.52877
627.5701, 75.88772
628.0522, 76.37148
628.5344, 76.33706
629.0165, 75.04206
629.4986, 73.63933
629.9807, 75.18221
630.4628, 79.02196
630.9449, 81.62638
631.4271, 80.21357
631.9092, 77.37093
632.3913, 75.39494
632.8734, 74.35059
633.3555, 74.52199
633.8376, 78.34414
634.3198, 81.62074
634.8019, 81.09582
635.2840, 75.30643
635.7661, 71.88174
636.2482, 73.73261
636.7303, 76.38342
637.2125, 76.52747
637.6946, 72.53310
638.1767, 70.89848
638.6588, 72.29862
639.1409, 75.34676
639.6230, 78.90093
640.1052, 82.81796
640.5873, 84.31533
641.0694, 81.96772
641.5515, 78.09911
642.0336, 75.68797
642.5157, 74.61861
642.9979, 74.53156
643.4800, 76.27203
643.9621, 78.09422
644.4442, 79.09861
644.9263, 79.21203
645.4084, 78.12015
645.8906, 73.53967
646.3727, 69.63441
646.8548, 68.69256
647.3369, 71.12294
647.8190, 73.24808
648.3011, 75.22902
648.7833, 76.63602
649.2654, 76.95087
649.7475, 76.06931
650.2296, 75.46671
650.7117, 75.29895
651.1938, 75.12901
651.6760, 74.04819
652.1581, 72.48354
652.6402, 71.88431
653.1223, 72.95911
653.6044, 74.40691
654.0865, 75.55309
654.5687, 76.18117
655.0508, 75.89562
655.5329, 73.27721
656.0150, 71.02258
656.4971, 70.15647
656.9792, 70.53117
657.4614, 71.30492
657.9435, 73.16452
658.4256, 74.34762
658.9077, 73.85215
659.3898, 71.80864
659.8719, 71.84386
660.3541, 74.43234
660.8362, 76.86956
661.3183, 76.96678
661.8004, 75.29771
662.2825, 74.04509
662.7646, 73.32412
663.2468, 73.08870
663.7289, 73.84193
664.2110, 74.84401
664.6931, 75.24673
665.1752, 75.09653
665.6573, 73.70469
666.1395, 68.84077
666.6216, 63.29768
667.1037, 60.51217
667.5858, 63.56213
668.0679, 66.13011
668.5500, 67.42289
669.0322, 68.10007
669.5143, 69.84231
669.9964, 73.10246
670.4785, 75.20406
670.9606, 75.03802
671.4427, 73.36304
671.9249, 72.04653
672.4070, 71.08660
672.8891, 70.53004
673.3712, 70.07873
673.8533, 70.24593
674.3354, 72.27312
674.8176, 75.92948
675.2997, 78.65881
675.7818, 77.81579
676.2639, 76.65162
676.7460, 77.79250
677.2281, 82.90248
677.7103, 84.42384
678.1924, 79.53494
678.6745, 73.63817
679.1566, 70.51588
679.6387, 70.47249
680.1208, 72.25570
680.6030, 76.56106
681.0851, 80.72480
681.5672, 81.14652
682.0493, 78.49163
682.5314, 75.37314
683.0135, 71.95364
683.4957, 69.45366
683.9778, 69.79037
684.4599, 71.92870
684.9420, 73.89832
685.4241, 74.75777
685.9063, 75.55649
686.3884, 76.95305
686.8705, 78.64502
687.3526, 79.61667
687.8347, 80.20193
688.3168, 79.49451
688.7990, 76.74326
689.2811, 72.38589
689.7632, 69.55360
690.2453, 68.34773
690.7274, 67.99302
691.2095, 68.43888
691.6917, 69.37234
692.1738, 69.61201
692.6559, 69.19680
693.1380, 69.32157
693.6201, 71.67355
694.1022, 74.49998
694.5844, 76.01132
695.0665, 75.78456
695.5486, 75.47411
696.0307, 75.44670
696.5128, 75.68841
696.9949, 76.29545
697.4771, 78.19810
697.9592, 78.29941
