##NAMES=Izoklakeite
##RRUFFID=R110044
##IDEAL CHEMISTRY=Pb^2+^_26.4_(Cu^1+^,Fe^2+^)_2_(Sb^3+^,Bi^3+^)_19.6_S^2-^_57_
##LOCALITY=Crabtree quarry, Wake County, North Carolina, USA
##OWNER=RRUFF
##SOURCE=Mark Feinglos
##DESCRIPTION=Lead-gray metallic aggregate of acicular crystals
##STATUS=The identification of this mineral has been confirmed only by single crystal X-ray diffraction.
##URL=rruff.info/R110044
199.5977, 491.4612
200.0798, 490.6590
200.5619, 489.6592
201.0440, 487.5986
201.5261, 484.0424
202.0082, 482.3144
202.4904, 485.5426
202.9725, 488.7971
203.4546, 489.5258
203.9367, 487.4782
204.4188, 484.1340
204.9009, 480.6974
205.3831, 476.0846
205.8652, 474.9421
206.3473, 481.4472
206.8294, 488.1400
207.3115, 490.5919
207.7936, 488.1792
208.2758, 483.2748
208.7579, 478.9182
209.2400, 474.5864
209.7221, 472.2168
210.2042, 472.1667
210.6863, 473.4275
211.1685, 476.6158
211.6506, 481.2806
212.1327, 484.7217
212.6148, 482.4818
213.0969, 468.6599
213.5790, 462.0010
214.0612, 468.5132
214.5433, 477.9105
215.0254, 481.8716
215.5075, 478.5125
215.9896, 471.9302
216.4717, 467.7639
216.9539, 466.8979
217.4360, 466.8109
217.9181, 469.0131
218.4002, 471.2085
218.8823, 470.4263
219.3644, 465.9239
219.8466, 460.8225
220.3287, 459.8434
220.8108, 463.9737
221.2929, 466.4269
221.7750, 464.7715
222.2571, 461.5502
222.7393, 460.2372
223.2214, 461.7868
223.7035, 463.8438
224.1856, 462.9593
224.6677, 459.3856
225.1498, 456.7201
225.6320, 455.9967
226.1141, 456.7193
226.5962, 458.4084
227.0783, 461.3649
227.5604, 464.1881
228.0425, 465.4324
228.5247, 465.3773
229.0068, 464.7884
229.4889, 463.3748
229.9710, 461.6782
230.4531, 461.3105
230.9352, 463.4101
231.4174, 464.7107
231.8995, 461.7155
232.3816, 455.8507
232.8637, 450.9944
233.3458, 449.1283
233.8279, 449.7174
234.3101, 451.2831
234.7922, 454.6509
235.2743, 457.4895
235.7564, 458.0582
236.2385, 457.2119
236.7206, 456.7071
237.2028, 457.9597
237.6849, 460.3715
238.1670, 461.2911
238.6491, 459.7946
239.1312, 458.0925
239.6133, 457.6641
240.0955, 457.6351
240.5776, 456.3994
241.0597, 452.6386
241.5418, 447.0180
242.0239, 442.8495
242.5060, 440.8190
242.9882, 439.4473
243.4703, 438.0649
243.9524, 437.0123
244.4345, 437.0049
244.9166, 438.6889
245.3987, 441.4622
245.8809, 442.4497
246.3630, 440.8653
246.8451, 438.2534
247.3272, 433.6109
247.8093, 428.5544
248.2914, 425.2769
248.7736, 425.0480
249.2557, 427.1049
249.7378, 428.3523
250.2199, 428.2096
250.7020, 427.8934
251.1841, 427.2459
251.6663, 426.6217
252.1484, 426.6119
252.6305, 427.5218
253.1126, 428.8419
253.5947, 428.9676
254.0768, 426.9590
254.5590, 424.7425
255.0411, 421.1937
255.5232, 417.9711
256.0053, 417.6020
256.4874, 421.1268
256.9695, 426.3076
257.4517, 427.7337
257.9338, 420.7764
258.4159, 415.3281
258.8980, 412.7212
259.3801, 411.0972
259.8622, 408.2611
260.3444, 403.4829
260.8265, 397.9873
261.3086, 394.0932
261.7907, 392.8711
262.2728, 391.7039
262.7549, 390.3675
263.2371, 389.1557
263.7192, 388.5389
264.2013, 388.6129
264.6834, 388.8023
265.1655, 388.2595
265.6476, 386.7357
266.1298, 384.9364
266.6119, 381.8450
267.0940, 379.0433
267.5761, 378.7173
268.0582, 381.1631
268.5403, 383.6616
269.0225, 382.8374
269.5046, 377.6636
269.9867, 373.5122
270.4688, 371.0914
270.9509, 369.3804
271.4330, 367.9035
271.9152, 366.5220
272.3973, 364.3447
272.8794, 359.8368
273.3615, 352.8485
273.8436, 349.2970
274.3257, 352.3178
274.8079, 356.6389
275.2900, 358.4082
275.7721, 357.4126
276.2542, 354.8601
276.7363, 351.1807
277.2184, 346.5605
277.7006, 342.6265
278.1827, 339.5674
278.6648, 337.0773
279.1469, 335.3742
279.6290, 334.3065
280.1111, 332.6812
280.5933, 329.4815
281.0754, 325.2649
281.5575, 322.0228
282.0396, 320.2866
282.5217, 318.8694
283.0038, 317.5787
283.4860, 316.2013
283.9681, 313.2637
284.4502, 306.9362
284.9323, 299.6828
285.4144, 296.7158
285.8965, 299.6747
286.3787, 302.6971
286.8608, 302.8937
287.3429, 300.5902
287.8250, 296.4129
288.3071, 289.1380
288.7892, 282.0923
289.2714, 280.9712
289.7535, 286.6282
290.2356, 290.5948
290.7177, 287.2128
291.1998, 279.0897
291.6819, 273.2823
292.1641, 271.8957
292.6462, 272.0704
293.1283, 270.3494
293.6104, 267.0096
294.0925, 264.6148
294.5746, 265.6708
295.0568, 268.1164
295.5389, 267.2000
296.0210, 261.2958
296.5031, 255.2636
296.9852, 254.4557
297.4673, 257.0584
297.9495, 258.1534
298.4316, 254.6573
298.9137, 249.3242
299.3958, 246.5305
299.8779, 246.8487
300.3600, 247.3821
300.8422, 246.0032
301.3243, 243.5609
301.8064, 241.4810
302.2885, 240.2031
302.7706, 239.2608
303.2527, 238.6892
303.7349, 238.6311
304.2170, 236.6841
304.6991, 229.2791
305.1812, 220.5153
305.6633, 216.1557
306.1454, 217.9102
306.6276, 221.6557
307.1097, 224.3069
307.5918, 225.8863
308.0739, 226.9011
308.5560, 227.9676
309.0381, 227.9617
309.5203, 225.3357
310.0024, 219.7675
310.4845, 214.4368
310.9666, 211.1671
311.4487, 209.8616
311.9308, 210.6369
312.4130, 215.3840
312.8951, 219.4193
313.3772, 217.4495
313.8593, 210.4131
314.3414, 204.4550
314.8235, 203.8042
315.3057, 206.4319
315.7878, 207.0216
316.2699, 204.7142
316.7520, 201.3726
317.2341, 197.4245
317.7162, 193.4702
318.1984, 191.0164
318.6805, 191.0670
319.1626, 192.7288
319.6447, 195.3299
320.1268, 199.4093
320.6089, 201.6949
321.0911, 198.1221
321.5732, 192.1723
322.0553, 188.7137
322.5374, 189.3112
323.0195, 191.6514
323.5016, 194.3008
323.9838, 197.2996
324.4659, 197.8197
324.9480, 192.4803
325.4301, 185.7171
325.9122, 183.5166
326.3943, 187.0352
326.8765, 190.5286
327.3586, 189.0305
327.8407, 183.5420
328.3228, 179.7742
328.8049, 179.6294
329.2870, 180.8069
329.7692, 180.7590
330.2513, 179.6177
330.7334, 178.9582
331.2155, 181.2513
331.6976, 184.4189
332.1797, 182.5450
332.6619, 173.1464
333.1440, 163.9752
333.6261, 163.2525
334.1082, 167.8158
334.5903, 170.3116
335.0724, 167.8765
335.5546, 162.5368
336.0367, 155.9622
336.5188, 147.9364
337.0009, 141.4125
337.4830, 138.7439
337.9651, 138.6124
338.4473, 138.3199
338.9294, 136.7458
339.4115, 136.2944
339.8936, 140.5618
340.3757, 148.6590
340.8578, 153.6058
341.3400, 152.0789
341.8221, 146.7371
342.3042, 141.6073
342.7863, 136.4986
343.2684, 132.3901
343.7505, 129.5679
344.2327, 128.0992
344.7148, 128.9101
345.1969, 133.2088
345.6790, 137.0790
346.1611, 133.9843
346.6432, 125.1887
347.1254, 119.5689
347.6075, 121.9750
348.0896, 127.5541
348.5717, 130.1586
349.0538, 129.1956
349.5359, 128.0401
350.0181, 130.1079
350.5002, 134.0697
350.9823, 134.2392
351.4644, 125.6916
351.9465, 117.2263
352.4286, 115.9507
352.9108, 120.4405
353.3929, 123.5878
353.8750, 121.3445
354.3571, 116.2650
354.8392, 115.0445
355.3214, 119.6779
355.8035, 123.1061
356.2856, 122.1737
356.7677, 118.4552
357.2498, 114.1235
357.7319, 109.4800
358.2141, 106.1142
358.6962, 107.0709
359.1783, 113.4037
359.6604, 117.2764
360.1425, 115.5047
360.6246, 112.3274
361.1068, 111.8883
361.5889, 114.4799
362.0710, 117.6822
362.5531, 119.7919
363.0352, 120.6935
363.5173, 119.8347
363.9995, 116.0019
364.4816, 111.7929
364.9637, 108.2413
365.4458, 105.2948
365.9279, 102.4256
366.4100, 99.17247
366.8922, 96.24733
367.3743, 96.16733
367.8564, 100.6124
368.3385, 105.2877
368.8206, 111.8334
369.3027, 117.4112
369.7849, 117.8016
370.2670, 112.0326
370.7491, 103.8884
371.2312, 98.46790
371.7133, 96.50454
372.1954, 95.59819
372.6776, 95.88851
373.1597, 97.01408
373.6418, 99.20029
374.1239, 102.1356
374.6060, 105.0502
375.0881, 107.5139
375.5703, 109.4688
376.0524, 109.3507
376.5345, 103.5477
377.0166, 99.83229
377.4987, 102.1659
377.9808, 107.1030
378.4630, 109.2700
378.9451, 106.1732
379.4272, 100.1732
379.9093, 96.91033
380.3914, 98.26409
380.8735, 99.36623
381.3557, 100.8313
381.8378, 101.4664
382.3199, 99.87440
382.8020, 96.16789
383.2841, 92.03788
383.7662, 89.10139
384.2484, 87.20052
384.7305, 87.56224
385.2126, 94.02033
385.6947, 99.09129
386.1768, 99.32417
386.6589, 96.39309
387.1411, 94.07271
387.6232, 94.90246
388.1053, 97.55910
388.5874, 96.74831
389.0695, 88.92069
389.5516, 84.45740
390.0338, 87.66410
390.5159, 93.72163
390.9980, 98.75816
391.4801, 101.6672
391.9622, 102.7097
392.4443, 101.4112
392.9265, 97.34431
393.4086, 95.18995
393.8907, 97.85876
394.3728, 100.3808
394.8549, 99.34890
395.3370, 95.48515
395.8192, 91.94147
396.3013, 90.71693
396.7834, 91.34903
397.2655, 92.43858
397.7476, 94.13242
398.2297, 95.89726
398.7119, 98.34756
399.1940, 100.4393
399.6761, 100.3927
400.1582, 97.02237
400.6403, 93.06081
401.1224, 91.11709
401.6046, 91.11800
402.0867, 92.43261
402.5688, 96.53645
403.0509, 99.92118
403.5330, 97.22653
404.0151, 88.25774
404.4973, 81.94730
404.9794, 84.18130
405.4615, 91.04648
405.9436, 96.09889
406.4257, 98.57386
406.9078, 99.23804
407.3900, 97.87933
407.8721, 94.98879
408.3542, 93.20470
408.8363, 93.78639
409.3184, 94.55636
409.8005, 93.98530
410.2827, 92.39741
410.7648, 90.88560
411.2469, 89.86201
411.7290, 89.32223
412.2111, 89.43246
412.6932, 90.67520
413.1754, 91.28056
413.6575, 89.95567
414.1396, 88.37531
414.6217, 89.16515
415.1038, 92.44997
415.5859, 94.66895
416.0681, 91.70039
416.5502, 82.69761
417.0323, 78.23258
417.5144, 80.37375
417.9965, 84.06330
418.4786, 88.79732
418.9608, 93.40606
419.4429, 95.98746
419.9250, 95.51153
420.4071, 92.80033
420.8892, 89.99651
421.3713, 85.69279
421.8535, 83.62763
422.3356, 86.26399
422.8177, 89.36610
423.2998, 89.11153
423.7819, 85.39059
424.2640, 81.39243
424.7462, 80.79533
425.2283, 83.99313
425.7104, 84.59305
426.1925, 77.58762
426.6746, 73.46369
427.1567, 77.57912
427.6389, 85.96748
428.1210, 92.53107
428.6031, 94.36971
429.0852, 92.92410
429.5673, 90.66936
430.0494, 87.19511
430.5316, 84.37991
431.0137, 83.46133
431.4958, 82.83134
431.9779, 80.74290
432.4600, 77.37676
432.9421, 75.63484
433.4243, 79.87975
433.9064, 88.04433
434.3885, 90.23245
434.8706, 83.31725
435.3527, 76.67583
435.8348, 77.89301
436.3170, 83.19677
436.7991, 86.31083
437.2812, 84.66413
437.7633, 81.82829
438.2454, 80.96281
438.7275, 81.86929
439.2097, 83.33217
439.6918, 85.24097
440.1739, 87.06826
440.6560, 88.20238
441.1381, 88.79659
441.6202, 88.12255
442.1024, 83.71429
442.5845, 79.16744
443.0666, 79.64920
443.5487, 85.27068
444.0308, 90.64214
444.5129, 91.53953
444.9951, 88.48352
445.4772, 86.78748
445.9593, 88.36425
446.4414, 88.89010
446.9235, 85.88662
447.4056, 81.34752
447.8878, 78.29390
448.3699, 77.74930
448.8520, 78.65034
449.3341, 79.58535
449.8162, 81.29917
450.2983, 80.70730
450.7805, 73.92053
451.2626, 68.74400
451.7447, 70.84726
452.2268, 78.14605
452.7089, 84.61116
453.1910, 86.17701
453.6732, 83.83508
454.1553, 81.49368
454.6374, 78.08367
455.1195, 76.64372
455.6016, 78.21558
456.0837, 81.27968
456.5659, 85.76643
457.0480, 91.20363
457.5301, 94.59338
458.0122, 91.38201
458.4943, 81.74062
458.9764, 75.43674
459.4586, 73.88095
459.9407, 74.18700
460.4228, 76.03533
460.9049, 78.29112
461.3870, 78.68320
461.8691, 75.58236
462.3513, 71.69218
462.8334, 70.71159
463.3155, 72.50655
463.7976, 73.40668
464.2797, 71.55434
464.7618, 69.21184
465.2440, 69.85652
465.7261, 73.57977
466.2082, 75.72562
466.6903, 73.00005
467.1724, 68.79328
467.6545, 67.30506
468.1367, 68.78127
468.6188, 71.20944
469.1009, 73.56124
469.5830, 75.68478
470.0651, 76.87785
470.5472, 76.10544
471.0294, 75.83391
471.5115, 78.54365
471.9936, 81.33159
472.4757, 79.38155
472.9578, 71.82800
473.4399, 63.57586
473.9221, 60.63947
474.4042, 64.03612
474.8863, 66.97091
475.3684, 69.40115
475.8505, 71.50349
476.3326, 73.36147
476.8148, 74.92468
477.2969, 76.25504
477.7790, 77.40303
478.2611, 77.91397
478.7432, 76.42131
479.2253, 71.69923
479.7075, 68.48750
480.1896, 68.48566
480.6717, 69.16525
481.1538, 68.70410
481.6359, 67.51540
482.1180, 67.86282
482.6002, 73.44436
483.0823, 80.99686
483.5644, 79.46738
484.0465, 65.57310
484.5286, 54.71708
485.0107, 55.37384
485.4929, 62.02601
485.9750, 69.33202
486.4571, 77.45813
486.9392, 82.48588
487.4213, 79.67473
487.9034, 72.37520
488.3856, 68.15476
488.8677, 68.36877
489.3498, 70.14920
489.8319, 71.37653
490.3140, 72.03921
490.7961, 72.48939
491.2783, 73.48991
491.7604, 73.48276
492.2425, 70.49171
492.7246, 66.22443
493.2067, 64.03892
493.6888, 65.11721
494.1710, 67.75111
494.6531, 69.38029
495.1352, 69.80842
495.6173, 69.74938
496.0994, 69.46365
496.5815, 68.52309
497.0637, 65.79176
497.5458, 62.30934
498.0279, 60.43037
498.5100, 61.63428
498.9921, 64.43342
499.4742, 64.73914
499.9564, 60.89416
500.4385, 58.78278
500.9206, 61.36175
501.4027, 64.21738
501.8848, 63.97672
502.3669, 61.09755
502.8491, 59.10794
503.3312, 61.06936
503.8133, 65.52273
504.2954, 68.63930
504.7775, 70.32293
505.2596, 71.04492
505.7418, 70.61893
506.2239, 69.51542
506.7060, 68.31426
507.1881, 66.92789
507.6702, 65.95056
508.1523, 66.65375
508.6345, 67.64527
509.1166, 65.74152
509.5987, 60.45422
510.0808, 56.00567
510.5629, 55.90585
511.0450, 59.89204
511.5272, 64.21123
512.0093, 70.58070
512.4914, 75.24131
512.9735, 76.91393
513.4556, 76.34859
513.9377, 74.04123
514.4199, 70.33154
514.9020, 66.25266
515.3841, 62.93631
515.8662, 60.18771
516.3483, 59.56104
516.8304, 63.57960
517.3126, 67.08897
517.7947, 68.59818
518.2768, 68.70486
518.7589, 68.10123
519.2410, 66.99891
519.7231, 66.21807
520.2053, 67.52626
520.6874, 71.18376
521.1695, 72.98473
521.6516, 71.65919
522.1337, 69.20571
522.6158, 66.50945
523.0980, 63.83506
523.5801, 61.97314
524.0622, 61.53164
524.5443, 61.70424
525.0264, 61.93801
525.5085, 62.14738
525.9907, 61.65807
526.4728, 59.97588
526.9549, 58.06860
527.4370, 57.46728
527.9191, 58.36975
528.4012, 59.17124
528.8834, 59.54336
529.3655, 59.91451
529.8476, 60.19843
530.3297, 60.71049
530.8118, 62.74428
531.2939, 67.21049
531.7761, 72.24000
532.2582, 72.74236
532.7403, 64.47793
533.2224, 59.49006
533.7045, 60.22083
534.1866, 61.87937
534.6688, 61.52318
535.1509, 59.50365
535.6330, 57.77195
536.1151, 57.55701
536.5972, 58.54813
537.0793, 60.34039
537.5615, 63.49382
538.0436, 65.06182
538.5257, 62.74622
539.0078, 59.57409
539.4899, 58.31280
539.9720, 58.95894
540.4542, 59.53228
540.9363, 58.99165
541.4184, 57.85440
541.9005, 55.99651
542.3826, 53.60836
542.8647, 54.35047
543.3469, 61.89950
543.8290, 71.99390
544.3111, 72.53209
544.7932, 57.94517
545.2753, 48.36523
545.7574, 49.90376
546.2396, 55.16991
546.7217, 58.48627
547.2038, 59.37127
547.6859, 59.67785
548.1680, 60.83884
548.6501, 58.81693
549.1323, 60.86084
549.6144, 54.11964
550.0965, 49.14106
550.5786, 45.89182
551.0607, 45.00195
551.5428, 48.45303
552.0250, 55.31405
552.5071, 61.13450
552.9892, 62.61348
553.4713, 60.69423
553.9534, 57.26962
554.4355, 51.57524
554.9177, 48.47017
555.3998, 51.73319
555.8819, 57.29639
556.3640, 59.38636
556.8461, 57.48353
557.3282, 55.78298
557.8104, 57.15589
558.2925, 58.86047
558.7746, 56.45320
559.2567, 50.39569
559.7388, 46.21482
560.2209, 47.38049
560.7031, 52.51365
561.1852, 57.21721
561.6673, 62.24662
562.1494, 65.74413
562.6315, 68.19344
563.1136, 68.70693
563.5958, 65.74871
564.0779, 60.06710
564.5600, 53.87110
565.0421, 48.22801
565.5242, 44.04814
566.0063, 45.26481
566.4885, 54.41602
566.9706, 61.53173
567.4527, 63.91214
567.9348, 63.60291
568.4169, 60.95149
568.8990, 56.42727
569.3812, 52.29033
569.8633, 48.81508
570.3454, 46.92310
570.8275, 49.02256
571.3096, 54.79174
571.7917, 59.78090
572.2739, 62.51669
572.7560, 62.89169
573.2381, 59.92246
573.7202, 52.04796
574.2023, 47.12186
574.6844, 48.47229
575.1666, 50.71194
575.6487, 49.77897
576.1308, 46.60402
576.6129, 44.39321
577.0950, 44.84593
577.5771, 46.78341
578.0593, 47.47139
578.5414, 46.06304
579.0235, 45.72405
579.5056, 46.78587
579.9877, 48.81401
580.4698, 52.93315
580.9520, 57.81141
581.4341, 60.55986
581.9162, 59.57601
582.3983, 56.55436
582.8804, 52.75187
583.3625, 48.42375
583.8447, 47.08932
584.3268, 50.90287
584.8089, 54.83739
585.2910, 52.67721
585.7731, 45.17033
586.2552, 40.19288
586.7374, 38.77917
587.2195, 39.67419
587.7016, 44.35830
588.1837, 50.36808
588.6658, 52.98681
589.1479, 50.94706
589.6301, 47.65875
590.1122, 47.32222
590.5943, 50.24684
591.0764, 53.26387
591.5585, 58.71062
592.0406, 61.37872
592.5228, 57.64629
593.0049, 51.62585
593.4870, 48.58770
593.9691, 49.79379
594.4512, 51.25806
594.9333, 48.12983
595.4155, 41.86137
595.8976, 39.22000
596.3797, 41.23581
596.8618, 44.01303
597.3439, 46.16958
597.8260, 47.14345
598.3082, 45.21428
598.7903, 37.53400
599.2724, 34.13794
599.7545, 43.91304
600.2366, 56.06733
600.7188, 57.09304
601.2009, 47.68797
601.6830, 39.39397
602.1651, 40.21610
602.6472, 47.51158
603.1293, 51.48256
603.6115, 50.26845
604.0936, 49.05904
604.5757, 48.14506
605.0578, 47.40076
605.5399, 46.05412
606.0220, 44.74127
606.5042, 45.52648
606.9863, 50.51884
607.4684, 56.75532
607.9505, 59.40966
608.4326, 58.54567
608.9147, 56.52962
609.3969, 53.47301
609.8790, 50.38243
610.3611, 48.41855
610.8432, 47.48785
611.3253, 46.69840
611.8074, 45.85005
612.2896, 45.23404
612.7717, 44.79713
613.2538, 44.75418
613.7359, 45.68921
614.2180, 47.70277
614.7001, 49.92011
615.1823, 51.42220
615.6644, 52.22556
616.1465, 51.90742
616.6286, 49.40924
617.1107, 47.23293
617.5928, 46.05352
618.0750, 45.46681
618.5571, 45.15306
619.0392, 45.03265
619.5213, 44.92712
620.0034, 45.06969
620.4855, 45.04456
620.9677, 43.35564
621.4498, 39.86290
621.9319, 37.49802
622.4140, 37.84813
622.8961, 40.04666
623.3782, 42.62220
623.8604, 46.24293
624.3425, 48.12685
624.8246, 46.45115
625.3067, 44.27198
625.7888, 43.96084
626.2709, 44.84248
626.7531, 44.42899
627.2352, 41.44145
627.7173, 38.23548
628.1994, 40.13937
628.6815, 48.87420
629.1636, 53.01615
629.6458, 48.87840
630.1279, 43.95803
630.6100, 41.03335
631.0921, 40.16560
631.5742, 42.26093
632.0563, 49.14247
632.5385, 54.12433
633.0206, 49.88481
633.5027, 40.97235
633.9848, 36.98117
634.4669, 39.22064
634.9490, 41.99477
635.4312, 40.94740
635.9133, 37.19261
636.3954, 36.02211
636.8775, 39.09010
637.3596, 42.67728
637.8417, 48.86116
638.3239, 53.73645
638.8060, 53.57508
639.2881, 49.44592
639.7702, 45.28909
640.2523, 43.35999
640.7344, 42.97976
641.2166, 43.03286
641.6987, 43.53209
642.1808, 44.44945
642.6629, 46.80833
643.1450, 47.91065
643.6271, 43.41623
644.1093, 35.21911
644.5914, 30.55372
645.0735, 31.82154
645.5556, 35.20219
646.0377, 41.07292
646.5198, 47.08421
647.0020, 49.29012
647.4841, 47.26435
647.9662, 44.20759
648.4483, 43.03071
648.9304, 43.31188
649.4125, 41.68815
649.8947, 35.81608
650.3768, 32.52509
650.8589, 35.05485
651.3410, 38.79077
651.8231, 41.07326
652.3052, 41.65312
652.7874, 40.88454
653.2695, 38.02342
653.7516, 34.78258
654.2337, 32.99032
654.7158, 32.62135
655.1979, 34.05085
655.6801, 37.71370
656.1622, 41.17299
656.6443, 41.31621
657.1264, 37.82780
657.6085, 37.20204
658.0906, 42.46452
658.5728, 46.38678
659.0549, 46.91719
659.5370, 45.49672
660.0191, 42.79338
660.5012, 39.47991
660.9833, 37.60219
661.4655, 39.72295
661.9476, 44.04947
662.4297, 44.89238
662.9118, 41.99897
663.3939, 37.29615
663.8760, 29.60795
664.3582, 22.48638
664.8403, 21.04125
665.3224, 24.76439
665.8045, 27.80258
666.2866, 27.94877
666.7687, 28.52753
667.2509, 32.62243
667.7330, 37.97494
668.2151, 40.70554
668.6972, 39.89478
669.1793, 37.53319
669.6614, 35.43120
670.1436, 33.64366
670.6257, 32.78109
671.1078, 32.31271
671.5899, 33.86605
672.0720, 41.01952
672.5541, 48.20041
673.0363, 49.97097
673.5184, 46.67794
674.0005, 44.79857
674.4826, 50.07673
674.9647, 55.62321
675.4468, 53.42534
675.9290, 45.71775
676.4111, 38.65980
676.8932, 34.11439
677.3753, 33.04652
677.8574, 37.47110
678.3395, 47.78616
678.8217, 53.25648
679.3038, 50.94700
679.7859, 47.28638
680.2680, 41.02314
680.7501, 35.45475
681.2322, 34.05645
681.7144, 36.75240
682.1965, 40.15296
682.6786, 42.19793
683.1607, 43.50127
683.6428, 45.12801
684.1249, 46.99775
684.6071, 48.64555
685.0892, 50.24774
685.5713, 50.35022
686.0534, 46.79140
686.5355, 39.27520
687.0176, 33.58199
687.4998, 29.60615
687.9819, 27.39962
688.4640, 28.15817
688.9461, 29.95014
689.4282, 30.35676
689.9103, 29.47277
690.3925, 29.97266
690.8746, 34.73666
691.3567, 41.44416
691.8388, 44.13050
692.3209, 42.63483
692.8030, 41.19184
693.2852, 40.65096
693.7673, 41.03197
694.2494, 43.27570
694.7315, 47.06746
695.2136, 47.80793
695.6957, 41.25540
696.1779, 36.56916
