##NAMES=Jacobsite
##RRUFFID=R070719
##IDEAL CHEMISTRY=Mn^2+^Fe^3+^_2_O_4_
##LOCALITY=Kombat mine, Kombat, Grootfontein District, Otjozondjupa Region, Namibia
##OWNER=RRUFF
##SOURCE=William W. Pinch
##DESCRIPTION=Black, with reddish highlights, octahedra associated with kombatite, R070720, and colorless barysilite, R070651
##STATUS=The identification of this mineral is confirmed by single-crystal X-ray diffraction and chemical analysis.
##URL=rruff.info/R070719
##MEASURED CHEMISTRY=Mn_1.03_(Fe^3+^_1.88_Mn_0.07_Al_0.03_Mg_0.02_)_Î£=2.00_O_4_
135.9154, 2272.099
136.3975, 2269.310
136.8796, 2279.222
137.3618, 2303.103
137.8439, 2335.260
138.3260, 2382.911
138.8081, 2442.183
139.2902, 2489.019
139.7723, 2499.030
140.2545, 2471.582
140.7366, 2452.331
141.2187, 2448.012
141.7008, 2451.041
142.1829, 2455.705
142.6650, 2462.890
143.1472, 2464.937
143.6293, 2452.037
144.1114, 2426.923
144.5935, 2397.223
145.0756, 2362.447
145.5577, 2324.882
146.0399, 2292.730
146.5220, 2271.737
147.0041, 2251.125
147.4862, 2221.393
147.9683, 2182.914
148.4504, 2143.565
148.9326, 2111.617
149.4147, 2087.943
149.8968, 2060.250
150.3789, 2023.882
150.8610, 1984.032
151.3431, 1939.576
151.8252, 1890.792
152.3074, 1845.690
152.7895, 1818.536
153.2716, 1818.894
153.7537, 1817.270
154.2358, 1809.878
154.7179, 1799.274
155.2001, 1787.119
155.6822, 1774.049
156.1643, 1760.557
156.6464, 1748.130
157.1285, 1737.710
157.6106, 1727.242
158.0928, 1714.194
158.5749, 1701.396
159.0570, 1693.674
159.5391, 1694.506
160.0212, 1702.541
160.5033, 1702.336
160.9855, 1687.954
161.4676, 1672.742
161.9497, 1661.155
162.4318, 1652.292
162.9139, 1642.753
163.3960, 1629.851
163.8782, 1613.369
164.3603, 1597.519
164.8424, 1581.836
165.3245, 1566.948
165.8066, 1550.961
166.2887, 1534.204
166.7709, 1523.894
167.2530, 1531.384
167.7351, 1556.139
168.2172, 1568.339
168.6993, 1553.925
169.1814, 1529.578
169.6636, 1516.710
170.1457, 1520.096
170.6278, 1527.861
171.1099, 1528.247
171.5920, 1522.549
172.0741, 1515.017
172.5563, 1504.166
173.0384, 1492.410
173.5205, 1487.176
174.0026, 1491.578
174.4847, 1500.530
174.9668, 1511.147
175.4490, 1523.086
175.9311, 1531.267
176.4132, 1529.524
176.8953, 1518.211
177.3774, 1511.162
177.8595, 1514.922
178.3417, 1520.460
178.8238, 1521.043
179.3059, 1516.234
179.7880, 1511.810
180.2701, 1514.834
180.7522, 1527.191
181.2344, 1539.238
181.7165, 1548.420
182.1986, 1557.530
182.6807, 1568.588
183.1628, 1582.068
183.6449, 1596.542
184.1271, 1609.400
184.6092, 1619.013
185.0913, 1630.278
185.5734, 1644.548
186.0555, 1659.894
186.5376, 1675.340
187.0198, 1690.486
187.5019, 1704.341
187.9840, 1714.620
188.4661, 1720.757
188.9482, 1723.183
189.4303, 1722.866
189.9125, 1718.818
190.3946, 1710.058
190.8767, 1696.002
191.3588, 1676.770
191.8409, 1652.159
192.3230, 1618.257
192.8052, 1583.415
193.2873, 1545.986
193.7694, 1508.915
194.2515, 1478.353
194.7336, 1459.005
195.2157, 1448.915
195.6979, 1427.055
196.1800, 1375.342
196.6621, 1332.953
197.1442, 1320.686
197.6263, 1331.245
198.1084, 1341.417
198.5906, 1335.308
199.0727, 1313.843
199.5548, 1296.204
200.0369, 1283.389
200.5190, 1273.180
201.0011, 1265.378
201.4833, 1259.632
201.9654, 1253.427
202.4475, 1243.819
202.9296, 1231.739
203.4117, 1224.278
203.8938, 1226.650
204.3760, 1230.618
204.8581, 1227.421
205.3402, 1216.186
205.8223, 1205.853
206.3044, 1205.583
206.7865, 1212.493
207.2687, 1216.192
207.7508, 1211.726
208.2329, 1204.135
208.7150, 1201.152
209.1971, 1204.620
209.6792, 1207.179
210.1614, 1200.462
210.6435, 1188.036
211.1256, 1178.062
211.6077, 1174.048
212.0898, 1174.433
212.5719, 1175.564
213.0541, 1176.373
213.5362, 1180.052
214.0183, 1192.270
214.5004, 1209.305
214.9825, 1221.546
215.4646, 1221.926
215.9468, 1212.818
216.4289, 1203.323
216.9110, 1190.563
217.3931, 1182.320
217.8752, 1185.469
218.3573, 1196.543
218.8395, 1205.561
219.3216, 1204.438
219.8037, 1194.058
220.2858, 1185.308
220.7679, 1177.879
221.2500, 1172.875
221.7322, 1169.603
222.2143, 1168.723
222.6964, 1172.145
223.1785, 1186.122
223.6606, 1211.802
224.1427, 1221.791
224.6249, 1191.370
225.1070, 1166.436
225.5891, 1171.076
226.0712, 1199.558
226.5533, 1227.901
227.0354, 1230.902
227.5176, 1203.272
227.9997, 1187.163
228.4818, 1197.031
228.9639, 1206.606
229.4460, 1201.969
229.9281, 1185.546
230.4103, 1170.833
230.8924, 1173.498
231.3745, 1199.267
231.8566, 1216.553
232.3387, 1220.203
232.8208, 1220.538
233.3030, 1222.658
233.7851, 1226.456
234.2672, 1228.287
234.7493, 1223.717
235.2314, 1210.598
235.7135, 1198.708
236.1957, 1187.138
236.6778, 1177.221
237.1599, 1168.213
237.6420, 1160.941
238.1241, 1158.808
238.6062, 1167.329
239.0884, 1193.787
239.5705, 1206.192
240.0526, 1193.254
240.5347, 1177.748
241.0168, 1174.458
241.4989, 1184.077
241.9811, 1196.513
242.4632, 1199.891
242.9453, 1190.244
243.4274, 1183.173
243.9095, 1176.669
244.3916, 1173.727
244.8738, 1177.809
245.3559, 1188.606
245.8380, 1201.722
246.3201, 1212.685
246.8022, 1222.573
247.2843, 1224.975
247.7665, 1209.629
248.2486, 1194.677
248.7307, 1196.167
249.2128, 1214.730
249.6949, 1236.079
250.1770, 1243.848
250.6592, 1233.089
251.1413, 1223.818
251.6234, 1215.000
252.1055, 1208.250
252.5876, 1205.540
253.0697, 1206.839
253.5519, 1209.400
254.0340, 1209.967
254.5161, 1207.417
254.9982, 1208.035
255.4803, 1211.318
255.9624, 1217.958
256.4445, 1231.347
256.9267, 1251.100
257.4088, 1269.410
257.8909, 1278.666
258.3730, 1277.141
258.8551, 1269.299
259.3372, 1241.355
259.8194, 1215.983
260.3015, 1216.545
260.7836, 1244.400
261.2657, 1276.069
261.7478, 1288.476
262.2299, 1277.857
262.7121, 1270.333
263.1942, 1266.600
263.6763, 1265.800
264.1584, 1267.327
264.6405, 1271.108
265.1227, 1277.558
265.6048, 1288.327
266.0869, 1303.777
266.5690, 1314.037
267.0511, 1313.954
267.5332, 1311.970
268.0154, 1315.934
268.4975, 1326.156
268.9796, 1335.749
269.4617, 1336.998
269.9438, 1330.535
270.4259, 1334.274
270.9081, 1362.962
271.3902, 1391.987
271.8723, 1398.870
272.3544, 1383.525
272.8365, 1365.567
273.3186, 1358.231
273.8008, 1361.977
274.2829, 1369.533
274.7650, 1385.380
275.2471, 1401.621
275.7292, 1413.661
276.2113, 1421.165
276.6935, 1422.724
277.1756, 1413.648
277.6577, 1397.186
278.1398, 1393.048
278.6219, 1411.889
279.1040, 1434.473
279.5862, 1447.354
280.0683, 1451.389
280.5504, 1455.253
281.0325, 1466.216
281.5146, 1480.470
281.9967, 1484.003
282.4789, 1464.209
282.9610, 1445.379
283.4431, 1445.321
283.9252, 1461.114
284.4073, 1476.299
284.8894, 1482.748
285.3716, 1481.952
285.8537, 1480.165
286.3358, 1475.576
286.8179, 1472.277
287.3000, 1473.745
287.7821, 1478.833
288.2643, 1482.891
288.7464, 1483.712
289.2285, 1482.208
289.7106, 1480.471
290.1927, 1476.376
290.6748, 1475.648
291.1570, 1484.422
291.6391, 1499.350
292.1212, 1509.801
292.6033, 1510.892
293.0854, 1506.264
293.5675, 1502.729
294.0497, 1499.020
294.5318, 1498.957
295.0139, 1505.101
295.4960, 1515.994
295.9781, 1529.557
296.4602, 1546.671
296.9424, 1562.929
297.4245, 1567.994
297.9066, 1558.947
298.3887, 1555.120
298.8708, 1567.023
299.3529, 1587.257
299.8351, 1604.007
300.3172, 1614.806
300.7993, 1619.292
301.2814, 1613.321
301.7635, 1595.395
302.2456, 1583.638
302.7278, 1583.547
303.2099, 1591.507
303.6920, 1604.769
304.1741, 1623.443
304.6562, 1641.464
305.1383, 1649.097
305.6205, 1645.169
306.1026, 1652.223
306.5847, 1684.615
307.0668, 1723.285
307.5489, 1748.717
308.0310, 1758.518
308.5132, 1760.911
308.9953, 1761.672
309.4774, 1760.812
309.9595, 1762.820
310.4416, 1770.243
310.9237, 1778.929
311.4059, 1785.036
311.8880, 1788.643
312.3701, 1792.930
312.8522, 1799.413
313.3343, 1808.771
313.8164, 1824.431
314.2986, 1850.723
314.7807, 1879.018
315.2628, 1904.117
315.7449, 1926.621
316.2270, 1950.723
316.7091, 1979.716
317.1913, 2012.073
317.6734, 2039.003
318.1555, 2055.484
318.6376, 2072.882
319.1197, 2097.008
319.6018, 2125.410
320.0840, 2151.466
320.5661, 2170.841
321.0482, 2187.404
321.5303, 2214.215
322.0124, 2257.921
322.4945, 2300.977
322.9767, 2339.368
323.4588, 2374.991
323.9409, 2410.607
324.4230, 2447.323
324.9051, 2484.348
325.3872, 2520.383
325.8694, 2553.511
326.3515, 2588.865
326.8336, 2629.185
327.3157, 2670.483
327.7978, 2707.679
328.2799, 2739.612
328.7621, 2771.090
329.2442, 2809.377
329.7263, 2857.599
330.2084, 2905.086
330.6905, 2949.997
331.1726, 2995.375
331.6548, 3045.958
332.1369, 3100.917
332.6190, 3153.041
333.1011, 3193.957
333.5832, 3220.348
334.0653, 3254.284
334.5475, 3307.852
335.0296, 3356.518
335.5117, 3384.835
335.9938, 3396.803
336.4759, 3408.098
336.9580, 3431.630
337.4402, 3467.047
337.9223, 3490.662
338.4044, 3490.187
338.8865, 3491.595
339.3686, 3510.370
339.8507, 3534.594
340.3329, 3544.043
340.8150, 3527.068
341.2971, 3487.036
341.7792, 3438.148
342.2613, 3375.519
342.7434, 3309.194
343.2256, 3235.056
343.7077, 3160.285
344.1898, 3094.030
344.6719, 3039.738
345.1540, 2990.811
345.6361, 2932.488
346.1183, 2855.745
346.6004, 2787.538
347.0825, 2738.120
347.5646, 2691.151
348.0467, 2634.570
348.5288, 2566.385
349.0110, 2492.067
349.4931, 2416.930
349.9752, 2338.150
350.4573, 2268.932
350.9394, 2210.527
351.4215, 2160.448
351.9037, 2124.076
352.3858, 2097.102
352.8679, 2065.642
353.3500, 2013.467
353.8321, 1941.709
354.3142, 1886.522
354.7964, 1860.676
355.2785, 1837.297
355.7606, 1804.421
356.2427, 1765.934
356.7248, 1730.033
357.2069, 1702.336
357.6891, 1679.952
358.1712, 1654.337
358.6533, 1622.902
359.1354, 1593.841
359.6175, 1571.553
360.0996, 1552.870
360.5818, 1535.010
361.0639, 1517.830
361.5460, 1499.278
362.0281, 1473.992
362.5102, 1440.296
362.9923, 1414.464
363.4745, 1408.698
363.9566, 1408.816
364.4387, 1400.383
364.9208, 1380.979
365.4029, 1360.833
365.8850, 1348.837
366.3672, 1343.292
366.8493, 1334.317
367.3314, 1318.686
367.8135, 1300.712
368.2956, 1284.712
368.7777, 1270.571
369.2599, 1256.677
369.7420, 1241.517
370.2241, 1226.535
370.7062, 1213.859
371.1883, 1203.548
371.6704, 1196.556
372.1526, 1195.167
372.6347, 1198.394
373.1168, 1200.449
373.5989, 1201.855
374.0810, 1200.921
374.5631, 1195.473
375.0453, 1185.861
375.5274, 1174.707
376.0095, 1162.008
376.4916, 1149.575
376.9737, 1144.391
377.4558, 1152.750
377.9380, 1160.211
378.4201, 1162.697
378.9022, 1160.533
379.3843, 1152.786
379.8664, 1138.378
380.3485, 1121.843
380.8307, 1112.893
381.3128, 1114.559
381.7949, 1118.364
382.2770, 1127.808
382.7591, 1136.966
383.2412, 1138.996
383.7234, 1133.116
384.2055, 1124.930
384.6876, 1121.189
385.1697, 1123.597
385.6518, 1123.090
386.1339, 1118.591
386.6161, 1112.743
387.0982, 1105.123
387.5803, 1097.062
388.0624, 1091.621
388.5445, 1091.230
389.0266, 1095.429
389.5088, 1099.181
389.9909, 1101.596
390.4730, 1104.586
390.9551, 1109.241
391.4372, 1114.375
391.9193, 1118.671
392.4015, 1121.571
392.8836, 1123.073
393.3657, 1123.045
393.8478, 1121.046
394.3299, 1118.525
394.8120, 1113.506
395.2942, 1109.553
395.7763, 1109.391
396.2584, 1113.315
396.7405, 1119.227
397.2226, 1126.627
397.7047, 1135.537
398.1869, 1139.347
398.6690, 1133.386
399.1511, 1127.216
399.6332, 1125.582
400.1153, 1128.038
400.5974, 1133.046
401.0796, 1141.093
401.5617, 1150.799
402.0438, 1158.940
402.5259, 1165.098
403.0080, 1171.379
403.4901, 1179.443
403.9723, 1188.223
404.4544, 1196.037
404.9365, 1202.474
405.4186, 1208.125
405.9007, 1213.535
406.3828, 1218.601
406.8650, 1221.842
407.3471, 1220.375
407.8292, 1220.033
408.3113, 1232.936
408.7934, 1262.435
409.2755, 1285.848
409.7577, 1289.833
410.2398, 1286.017
410.7219, 1290.771
411.2040, 1307.013
411.6861, 1326.500
412.1682, 1341.281
412.6504, 1350.573
413.1325, 1360.235
413.6146, 1370.774
414.0967, 1381.231
414.5788, 1388.238
415.0609, 1394.333
415.5431, 1408.740
416.0252, 1439.038
416.5073, 1478.975
416.9894, 1499.300
417.4715, 1473.240
417.9536, 1459.629
418.4358, 1469.376
418.9179, 1491.901
419.4000, 1517.472
419.8821, 1542.614
420.3642, 1567.122
420.8463, 1590.834
421.3285, 1613.958
421.8106, 1635.400
422.2927, 1651.826
422.7748, 1669.489
423.2569, 1693.141
423.7390, 1721.223
424.2212, 1747.867
424.7033, 1767.547
425.1854, 1781.764
425.6675, 1800.594
426.1496, 1825.292
426.6317, 1852.559
427.1139, 1881.770
427.5960, 1912.195
428.0781, 1943.417
428.5602, 1975.351
429.0423, 2007.081
429.5244, 2036.497
430.0066, 2063.496
430.4887, 2092.959
430.9708, 2126.725
431.4529, 2163.376
431.9350, 2201.668
432.4171, 2241.878
432.8993, 2280.007
433.3814, 2315.757
433.8635, 2347.726
434.3456, 2371.695
434.8277, 2386.085
435.3098, 2400.367
435.7920, 2422.831
436.2741, 2453.199
436.7562, 2482.887
437.2383, 2508.702
437.7204, 2536.382
438.2025, 2572.160
438.6847, 2612.981
439.1668, 2650.536
439.6489, 2680.935
440.1310, 2705.012
440.6131, 2724.678
441.0952, 2731.264
441.5774, 2745.940
442.0595, 2781.845
442.5416, 2819.198
443.0237, 2839.044
443.5058, 2838.755
443.9879, 2828.504
444.4701, 2818.203
444.9522, 2807.027
445.4343, 2802.031
445.9164, 2806.431
446.3985, 2813.918
446.8806, 2826.987
447.3628, 2841.198
447.8449, 2849.341
448.3270, 2847.459
448.8091, 2837.368
449.2912, 2821.778
449.7733, 2796.950
450.2555, 2777.228
450.7376, 2770.582
451.2197, 2767.841
451.7018, 2763.211
452.1839, 2755.750
452.6660, 2745.465
453.1482, 2731.554
453.6303, 2714.585
454.1124, 2697.749
454.5945, 2682.170
455.0766, 2664.781
455.5587, 2640.578
456.0409, 2612.030
456.5230, 2587.032
457.0051, 2570.857
457.4872, 2556.022
457.9693, 2535.391
458.4514, 2509.712
458.9336, 2483.690
459.4157, 2459.006
459.8978, 2436.113
460.3799, 2416.873
460.8620, 2403.394
461.3441, 2388.934
461.8262, 2374.097
462.3083, 2356.757
462.7905, 2333.410
463.2726, 2303.949
463.7547, 2273.135
464.2368, 2245.655
464.7189, 2221.803
465.2010, 2199.040
465.6832, 2174.869
466.1653, 2154.510
466.6474, 2141.360
467.1295, 2132.910
467.6116, 2126.638
468.0938, 2122.052
468.5759, 2114.345
469.0580, 2089.240
469.5401, 2035.515
470.0222, 1996.228
470.5043, 1988.458
470.9865, 1990.662
471.4686, 1993.474
471.9507, 1994.698
472.4328, 1990.262
472.9149, 1974.978
473.3970, 1951.352
473.8792, 1926.088
474.3613, 1896.021
474.8434, 1874.829
475.3255, 1880.292
475.8076, 1900.159
476.2897, 1908.784
476.7719, 1896.014
477.2540, 1879.315
477.7361, 1872.714
478.2182, 1872.151
478.7003, 1863.609
479.1824, 1840.763
479.6646, 1813.912
480.1467, 1800.193
480.6288, 1805.574
481.1109, 1804.998
481.5930, 1791.581
482.0751, 1776.285
482.5573, 1766.979
483.0394, 1763.348
483.5215, 1761.104
484.0036, 1757.407
484.4857, 1752.196
484.9678, 1744.928
485.4500, 1731.295
485.9321, 1721.451
486.4142, 1720.242
486.8963, 1721.347
487.3784, 1717.808
487.8605, 1708.198
488.3427, 1697.990
488.8248, 1695.397
489.3069, 1701.023
489.7890, 1698.438
490.2711, 1677.796
490.7532, 1661.157
491.2354, 1666.917
491.7175, 1685.314
492.1996, 1693.081
492.6817, 1676.328
493.1638, 1650.193
493.6459, 1629.315
494.1281, 1613.895
494.6102, 1608.720
495.0923, 1620.451
495.5744, 1637.538
496.0565, 1637.781
496.5386, 1617.533
497.0208, 1601.043
497.5029, 1594.996
497.9850, 1594.676
498.4671, 1597.687
498.9492, 1602.654
499.4313, 1605.133
499.9135, 1601.459
500.3956, 1591.972
500.8777, 1580.913
501.3598, 1558.638
501.8419, 1546.523
502.3240, 1557.247
502.8062, 1575.755
503.2883, 1586.205
503.7704, 1583.651
504.2525, 1572.661
504.7346, 1555.281
505.2167, 1528.902
505.6989, 1515.904
506.1810, 1520.878
506.6631, 1535.747
507.1452, 1565.699
507.6273, 1601.554
508.1094, 1622.899
508.5916, 1615.604
509.0737, 1596.611
509.5558, 1589.828
510.0379, 1594.734
510.5200, 1594.854
511.0021, 1582.157
511.4843, 1564.808
511.9664, 1554.884
512.4485, 1552.501
512.9306, 1553.338
513.4127, 1553.606
513.8948, 1558.305
514.3770, 1579.128
514.8591, 1612.863
515.3412, 1636.483
515.8233, 1632.462
516.3054, 1605.476
516.7875, 1585.624
517.2697, 1575.820
517.7518, 1569.846
518.2339, 1565.200
518.7160, 1565.206
519.1981, 1576.750
519.6802, 1599.406
520.1624, 1621.105
520.6445, 1626.308
521.1266, 1614.425
521.6087, 1610.935
522.0908, 1622.804
522.5729, 1632.818
523.0551, 1630.250
523.5372, 1621.944
524.0193, 1618.595
524.5014, 1623.880
524.9835, 1633.885
525.4656, 1647.985
525.9478, 1664.508
526.4299, 1672.977
526.9120, 1667.412
527.3941, 1661.421
527.8762, 1673.992
528.3583, 1706.099
528.8405, 1729.901
529.3226, 1741.198
529.8047, 1744.947
530.2868, 1736.523
530.7689, 1722.926
531.2510, 1724.139
531.7332, 1751.569
532.2153, 1791.686
532.6974, 1809.726
533.1795, 1783.214
533.6616, 1775.752
534.1437, 1806.432
534.6259, 1839.052
535.1080, 1848.251
535.5901, 1837.547
536.0722, 1827.377
536.5543, 1831.564
537.0364, 1847.416
537.5186, 1868.965
538.0007, 1899.500
538.4828, 1923.152
538.9649, 1925.273
539.4470, 1922.691
539.9291, 1937.336
540.4113, 1973.574
540.8934, 2005.458
541.3755, 2012.917
541.8576, 2010.712
542.3397, 2025.142
542.8218, 2058.554
543.3040, 2087.636
543.7861, 2091.823
544.2682, 2076.007
544.7503, 2082.720
545.2324, 2132.011
545.7145, 2175.625
546.1967, 2200.761
546.6788, 2217.213
547.1609, 2233.434
547.6430, 2252.284
548.1251, 2275.669
548.6072, 2307.720
549.0894, 2349.059
549.5715, 2380.954
550.0536, 2392.737
550.5357, 2410.726
551.0178, 2451.453
551.4999, 2500.997
551.9821, 2540.038
552.4642, 2561.550
552.9463, 2577.444
553.4284, 2597.504
553.9105, 2621.023
554.3926, 2645.597
554.8748, 2671.491
555.3569, 2695.483
555.8390, 2713.166
556.3211, 2724.827
556.8032, 2740.792
557.2853, 2766.112
557.7675, 2790.731
558.2496, 2809.186
558.7317, 2823.863
559.2138, 2839.434
559.6959, 2857.436
560.1780, 2874.690
560.6602, 2885.548
561.1423, 2887.500
561.6244, 2893.051
562.1065, 2904.626
562.5886, 2917.606
563.0707, 2935.757
563.5529, 2953.296
564.0350, 2958.753
564.5171, 2944.289
564.9992, 2924.529
565.4813, 2919.283
565.9634, 2927.781
566.4456, 2938.106
566.9277, 2949.039
567.4098, 2958.641
567.8919, 2962.971
568.3740, 2962.780
568.8561, 2966.690
569.3383, 2982.494
569.8204, 2996.757
570.3025, 2994.118
570.7846, 2983.282
571.2667, 2988.572
571.7488, 3020.461
572.2310, 3061.750
572.7131, 3079.873
573.1952, 3061.860
573.6773, 3055.824
574.1594, 3062.773
574.6415, 3079.867
575.1237, 3108.603
575.6058, 3146.464
576.0879, 3191.101
576.5700, 3244.724
577.0521, 3295.538
577.5342, 3320.020
578.0164, 3317.906
578.4985, 3325.920
578.9806, 3354.288
579.4627, 3392.589
579.9448, 3429.901
580.4269, 3466.726
580.9091, 3511.065
581.3912, 3572.722
581.8733, 3634.954
582.3554, 3686.795
582.8375, 3730.152
583.3196, 3770.435
583.8018, 3809.455
584.2839, 3850.017
584.7660, 3897.403
585.2481, 3954.375
585.7302, 4009.931
586.2123, 4054.822
586.6945, 4107.865
587.1766, 4187.367
587.6587, 4279.721
588.1408, 4356.907
588.6229, 4403.396
589.1050, 4438.240
589.5872, 4485.642
590.0693, 4545.828
590.5514, 4618.648
591.0335, 4710.274
591.5156, 4803.743
591.9977, 4878.831
592.4799, 4938.578
592.9620, 5005.550
593.4441, 5087.146
593.9262, 5172.125
594.4083, 5252.469
594.8904, 5331.573
595.3726, 5417.400
595.8547, 5512.460
596.3368, 5606.820
596.8189, 5682.298
597.3010, 5730.090
597.7831, 5800.606
598.2653, 5917.562
598.7474, 6032.932
599.2295, 6129.754
599.7116, 6215.301
600.1937, 6304.036
600.6758, 6401.899
601.1580, 6495.560
601.6401, 6563.250
602.1222, 6612.069
602.6043, 6678.421
603.0864, 6770.588
603.5685, 6871.370
604.0507, 6968.677
604.5328, 7062.147
605.0149, 7154.195
605.4970, 7248.595
605.9791, 7337.348
606.4612, 7410.828
606.9434, 7479.720
607.4255, 7556.785
607.9076, 7645.058
608.3897, 7743.388
608.8718, 7853.174
609.3539, 7973.868
609.8361, 8079.572
610.3182, 8167.247
610.8003, 8244.939
611.2824, 8306.607
611.7645, 8364.680
612.2466, 8431.334
612.7288, 8508.332
613.2109, 8596.510
613.6930, 8707.441
614.1751, 8825.854
614.6572, 8923.055
615.1393, 8997.041
615.6215, 9062.498
616.1036, 9125.412
616.5857, 9190.139
617.0678, 9274.470
617.5499, 9425.083
618.0320, 9529.456
618.5142, 9536.709
618.9963, 9531.644
619.4784, 9582.124
619.9605, 9683.564
620.4426, 9791.103
620.9247, 9875.713
621.4069, 9941.928
621.8890, 9995.487
622.3711, 10030.90
622.8532, 10087.67
623.3353, 10192.63
623.8174, 10306.55
624.2996, 10385.85
624.7817, 10433.16
625.2638, 10489.07
625.7459, 10566.13
626.2280, 10654.26
626.7101, 10749.05
627.1923, 10848.31
627.6744, 10950.52
628.1565, 11054.54
628.6386, 11156.23
