##NAMES=Jacobsite
##RRUFFID=R060780
##IDEAL CHEMISTRY=Mn^2+^Fe^3+^_2_O_4_
##LOCALITY=Jakobsberg, Sweden
##OWNER=RRUFF
##SOURCE=Michael Scott
##DESCRIPTION=Black grains
##STATUS=The identification of this mineral is confirmed by single-crystal X-ray diffraction and chemical analysis.
##URL=rruff.info/R060780
##MEASURED CHEMISTRY=(Mn^2+^_0.75_Mg_0.25_)_Σ=1_(Fe^3+^_1.92_Mn^3+^_0.08_)_Σ=2_O_4_
126.831, 1284.008
127.313, 1312.276
127.795, 1357.875
128.277, 1429.521
128.760, 1525.318
129.242, 1633.789
129.724, 1741.738
130.206, 1848.499
130.688, 1959.224
131.170, 2086.888
131.652, 2210.599
132.134, 2311.402
132.616, 2386.501
133.098, 2451.570
133.581, 2526.690
134.063, 2618.318
134.545, 2701.631
135.027, 2776.860
135.509, 2842.917
135.991, 2903.801
136.473, 2961.302
136.955, 2999.554
137.438, 2988.735
137.920, 2922.135
138.402, 2841.742
138.884, 2747.596
139.366, 2645.698
139.848, 2541.360
140.330, 2434.548
140.812, 2332.329
141.294, 2243.350
141.777, 2161.236
142.259, 2108.487
142.741, 2097.855
143.223, 2122.095
143.705, 2168.118
144.187, 2237.075
144.669, 2319.184
145.151, 2401.724
145.633, 2487.144
146.116, 2563.024
146.598, 2620.316
147.080, 2662.516
147.562, 2701.039
148.044, 2733.612
148.526, 2771.432
149.008, 2827.804
149.490, 2904.827
149.973, 2990.585
150.455, 3092.655
150.937, 3205.893
151.419, 3285.561
151.901, 3313.340
152.383, 3301.356
152.865, 3263.758
153.347, 3196.362
153.829, 3125.370
154.312, 3075.282
154.794, 3046.067
155.276, 3008.437
155.758, 2949.563
156.240, 2880.168
156.722, 2806.681
157.204, 2727.540
157.686, 2656.564
158.169, 2609.257
158.651, 2586.985
159.133, 2574.534
159.615, 2577.700
160.097, 2583.373
160.579, 2583.765
161.061, 2578.168
161.543, 2561.696
162.025, 2522.992
162.508, 2456.507
162.990, 2397.758
163.472, 2354.543
163.954, 2324.891
164.436, 2310.129
164.918, 2311.229
165.400, 2322.689
165.882, 2340.590
166.365, 2369.292
166.847, 2388.300
167.329, 2385.222
167.811, 2374.849
168.293, 2368.901
168.775, 2371.203
169.257, 2373.964
169.739, 2363.916
170.221, 2336.279
170.704, 2309.345
171.186, 2287.000
171.668, 2266.640
172.150, 2246.059
172.632, 2224.461
173.114, 2203.601
173.596, 2186.948
174.078, 2176.564
174.561, 2165.394
175.043, 2151.662
175.525, 2137.000
176.007, 2123.932
176.489, 2113.180
176.971, 2101.170
177.453, 2079.653
177.935, 2041.096
178.417, 2009.652
178.900, 1992.207
179.382, 1979.985
179.864, 1966.344
180.346, 1949.013
180.828, 1929.621
181.310, 1910.819
181.792, 1890.793
182.274, 1875.476
182.757, 1866.421
183.239, 1860.865
183.721, 1856.477
184.203, 1852.492
184.685, 1849.960
185.167, 1851.863
185.649, 1864.001
186.131, 1868.835
186.613, 1860.751
187.096, 1848.475
187.578, 1838.203
188.060, 1832.080
188.542, 1829.117
189.024, 1828.150
189.506, 1832.551
189.988, 1832.146
190.470, 1828.672
190.952, 1819.812
191.435, 1800.781
191.917, 1771.031
192.399, 1738.407
192.881, 1716.884
193.363, 1713.048
193.845, 1707.989
194.327, 1698.808
194.809, 1689.513
195.292, 1683.613
195.774, 1681.841
196.256, 1681.715
196.738, 1680.347
197.220, 1682.451
197.702, 1672.676
198.184, 1639.347
198.666, 1603.874
199.148, 1581.772
199.631, 1576.219
200.113, 1579.229
200.595, 1579.997
201.077, 1579.795
201.559, 1573.992
202.041, 1559.838
202.523, 1543.250
203.005, 1528.258
203.488, 1515.478
203.970, 1502.619
204.452, 1485.476
204.934, 1458.501
205.416, 1442.120
205.898, 1444.166
206.380, 1448.783
206.862, 1446.881
207.344, 1437.354
207.827, 1424.750
208.309, 1413.562
208.791, 1402.413
209.273, 1397.781
209.755, 1407.333
210.237, 1416.207
210.719, 1415.541
211.201, 1405.723
211.684, 1393.355
212.166, 1385.051
212.648, 1381.256
213.130, 1379.636
213.612, 1379.019
214.094, 1381.350
214.576, 1391.135
215.058, 1405.738
215.540, 1417.188
216.023, 1417.598
216.505, 1405.850
216.987, 1393.403
217.469, 1373.885
217.951, 1359.622
218.433, 1358.329
218.915, 1366.693
219.397, 1375.338
219.880, 1375.841
220.362, 1367.975
220.844, 1368.536
221.326, 1392.197
221.808, 1410.153
222.290, 1412.533
222.772, 1403.349
223.254, 1390.835
223.736, 1379.698
224.219, 1370.375
224.701, 1368.077
225.183, 1379.356
225.665, 1391.180
226.147, 1402.047
226.629, 1411.407
227.111, 1418.698
227.593, 1423.475
228.076, 1426.163
228.558, 1428.678
229.040, 1428.860
229.522, 1431.956
230.004, 1444.672
230.486, 1458.838
230.968, 1463.261
231.450, 1451.701
231.932, 1430.776
232.415, 1419.488
232.897, 1424.017
233.379, 1428.420
233.861, 1430.077
234.343, 1430.330
234.825, 1430.479
235.307, 1431.018
235.789, 1431.644
236.271, 1431.568
236.754, 1429.836
237.236, 1429.618
237.718, 1431.795
238.200, 1435.162
238.682, 1439.294
239.164, 1443.998
239.646, 1448.391
240.128, 1450.427
240.611, 1448.343
241.093, 1450.170
241.575, 1460.703
242.057, 1472.598
242.539, 1482.401
243.021, 1489.379
243.503, 1493.798
243.985, 1495.448
244.467, 1494.058
244.950, 1492.250
245.432, 1486.644
245.914, 1483.907
246.396, 1489.432
246.878, 1501.901
247.360, 1514.207
247.842, 1519.217
248.324, 1517.275
248.807, 1518.958
249.289, 1526.249
249.771, 1535.391
250.253, 1544.806
250.735, 1554.422
251.217, 1564.423
251.699, 1577.052
252.181, 1590.379
252.663, 1595.107
253.146, 1584.770
253.628, 1577.282
254.110, 1584.292
254.592, 1599.610
255.074, 1612.733
255.556, 1617.601
256.038, 1618.386
256.520, 1624.428
257.003, 1638.172
257.485, 1649.157
257.967, 1647.802
258.449, 1642.046
258.931, 1641.551
259.413, 1650.525
259.895, 1663.043
260.377, 1673.296
260.859, 1681.381
261.341, 1685.535
261.824, 1679.003
262.306, 1671.717
262.788, 1677.637
263.270, 1702.467
263.752, 1727.305
264.234, 1734.463
264.716, 1726.769
265.198, 1724.395
265.681, 1735.877
266.163, 1752.494
266.645, 1761.366
267.127, 1761.155
267.609, 1763.482
268.091, 1776.599
268.573, 1796.265
269.055, 1811.986
269.538, 1820.441
270.020, 1827.205
270.502, 1839.564
270.984, 1856.923
271.466, 1874.062
271.948, 1890.244
272.430, 1905.135
272.912, 1916.545
273.394, 1923.829
273.877, 1934.527
274.359, 1958.764
274.841, 1995.985
275.323, 2021.218
275.805, 2025.132
276.287, 2022.684
276.769, 2019.979
277.251, 2019.033
277.733, 2028.907
278.216, 2058.872
278.698, 2105.522
279.180, 2138.373
279.662, 2148.081
280.144, 2155.914
280.626, 2169.659
281.108, 2187.938
281.590, 2207.480
282.073, 2226.721
282.555, 2245.943
283.037, 2265.842
283.519, 2284.367
284.001, 2306.007
284.483, 2335.133
284.965, 2366.089
285.447, 2392.125
285.930, 2410.974
286.412, 2424.888
286.894, 2437.482
287.376, 2447.708
287.858, 2458.515
288.340, 2468.129
288.822, 2479.469
289.304, 2496.950
289.786, 2519.685
290.268, 2540.764
290.751, 2551.361
291.233, 2547.671
291.715, 2554.703
292.197, 2579.101
292.679, 2607.019
293.161, 2638.984
293.643, 2670.434
294.125, 2691.759
294.608, 2693.822
295.090, 2679.769
295.572, 2677.866
296.054, 2698.178
296.536, 2718.688
297.018, 2733.250
297.500, 2745.267
297.982, 2760.648
298.465, 2782.805
298.947, 2806.116
299.429, 2816.358
299.911, 2806.462
300.393, 2801.886
300.875, 2812.514
301.357, 2827.884
301.839, 2839.670
302.321, 2846.000
302.804, 2851.978
303.286, 2865.654
303.768, 2887.525
304.250, 2900.868
304.732, 2897.727
305.214, 2890.337
305.696, 2884.529
306.178, 2881.264
306.660, 2885.278
307.143, 2906.937
307.625, 2938.319
308.107, 2953.195
308.589, 2943.708
309.071, 2933.233
309.553, 2943.723
310.035, 2966.925
310.517, 2983.853
311.000, 2985.262
311.482, 2980.555
311.964, 2978.398
312.446, 2978.843
312.928, 2983.363
313.410, 2995.492
313.892, 3011.178
314.374, 3018.540
314.857, 3007.436
315.339, 3002.928
315.821, 3025.590
316.303, 3063.989
316.785, 3089.500
317.267, 3090.249
317.749, 3079.691
318.231, 3082.901
318.713, 3106.714
319.195, 3124.717
319.678, 3128.402
320.160, 3127.724
320.642, 3130.985
321.124, 3140.033
321.606, 3155.180
322.088, 3178.196
322.570, 3211.749
323.052, 3235.966
323.535, 3238.573
324.017, 3244.761
324.499, 3268.509
324.981, 3305.760
325.463, 3344.681
325.945, 3377.840
326.427, 3405.690
326.909, 3430.940
327.392, 3449.376
327.874, 3470.319
328.356, 3498.588
328.838, 3528.285
329.320, 3551.467
329.802, 3565.317
330.284, 3576.831
330.766, 3599.558
331.248, 3639.577
331.731, 3671.713
332.213, 3687.487
332.695, 3699.550
333.177, 3715.357
333.659, 3734.921
334.141, 3753.260
334.623, 3766.321
335.105, 3774.334
335.587, 3778.817
336.070, 3776.425
336.552, 3775.957
337.034, 3785.649
337.516, 3800.304
337.998, 3809.929
338.480, 3812.908
338.962, 3806.925
339.444, 3784.801
339.927, 3745.088
340.409, 3706.887
340.891, 3676.062
341.373, 3653.599
341.855, 3641.397
342.337, 3644.542
342.819, 3645.520
343.301, 3634.337
343.784, 3613.629
344.266, 3590.083
344.748, 3565.734
345.230, 3537.741
345.712, 3501.387
346.194, 3455.228
346.676, 3408.432
347.158, 3354.161
347.640, 3304.729
348.122, 3275.281
348.605, 3263.834
349.087, 3252.318
349.569, 3226.988
350.051, 3188.223
350.533, 3145.979
351.015, 3090.637
351.497, 3042.990
351.979, 3012.517
352.462, 2992.778
352.944, 2976.237
353.426, 2959.668
353.908, 2940.065
354.390, 2909.617
354.872, 2857.879
355.354, 2815.363
355.836, 2787.937
356.319, 2765.335
356.801, 2741.821
357.283, 2716.278
357.765, 2689.976
358.247, 2663.876
358.729, 2638.032
359.211, 2611.879
359.693, 2584.561
360.175, 2557.998
360.658, 2532.012
361.140, 2507.473
361.622, 2486.325
362.104, 2470.653
362.586, 2456.942
363.068, 2440.562
363.550, 2421.732
364.032, 2397.472
364.514, 2360.164
364.997, 2321.398
365.479, 2297.901
365.961, 2293.920
366.443, 2287.729
366.925, 2264.229
367.407, 2230.538
367.889, 2201.639
368.371, 2180.513
368.853, 2163.705
369.336, 2148.795
369.818, 2135.963
370.300, 2120.490
370.782, 2097.341
371.264, 2075.488
371.746, 2062.576
372.228, 2056.550
372.711, 2050.072
373.193, 2039.102
373.675, 2024.006
374.157, 2006.169
374.639, 1979.096
375.121, 1957.447
375.603, 1944.479
376.085, 1936.221
376.567, 1930.143
377.049, 1925.007
377.532, 1918.507
378.014, 1907.829
378.496, 1892.599
378.978, 1874.635
379.460, 1842.207
379.942, 1818.301
380.424, 1818.915
380.906, 1834.737
381.389, 1844.312
381.871, 1833.034
382.353, 1809.846
382.835, 1798.573
383.317, 1803.751
383.799, 1804.785
384.281, 1787.299
384.763, 1765.593
385.246, 1754.208
385.728, 1756.331
386.210, 1760.526
386.692, 1757.020
387.174, 1749.020
387.656, 1748.728
388.138, 1761.084
388.620, 1772.025
389.102, 1763.474
389.585, 1737.141
390.067, 1719.980
390.549, 1718.453
391.031, 1724.215
391.513, 1734.180
391.995, 1746.749
392.477, 1757.728
392.959, 1764.606
393.441, 1768.591
393.924, 1773.661
394.406, 1785.995
394.888, 1791.246
395.370, 1777.701
395.852, 1763.313
396.334, 1768.652
396.816, 1794.977
397.298, 1822.733
397.780, 1828.843
398.263, 1810.373
398.745, 1800.356
399.227, 1807.867
399.709, 1814.491
400.191, 1812.385
400.673, 1805.946
401.155, 1803.441
401.638, 1809.732
402.120, 1818.890
402.602, 1818.883
403.084, 1807.861
403.566, 1802.368
404.048, 1808.777
404.530, 1821.352
405.012, 1836.730
405.494, 1854.966
405.977, 1867.024
406.459, 1864.243
406.941, 1853.929
407.423, 1846.613
407.905, 1843.195
408.387, 1847.618
408.869, 1867.047
409.351, 1897.936
409.833, 1913.432
410.316, 1896.326
410.798, 1883.800
411.280, 1895.914
411.762, 1920.205
412.244, 1934.076
412.726, 1929.732
413.208, 1920.763
413.690, 1929.850
414.172, 1966.314
414.655, 1996.573
415.137, 2018.019
415.619, 2036.944
416.101, 2056.855
416.583, 2077.085
417.065, 2094.946
417.547, 2108.401
418.029, 2118.692
418.512, 2129.286
418.994, 2138.803
419.476, 2152.186
419.958, 2171.215
420.440, 2194.681
420.922, 2223.499
421.404, 2258.063
421.886, 2291.510
422.368, 2317.958
422.851, 2339.337
423.333, 2361.116
423.815, 2383.551
424.297, 2407.625
424.779, 2435.178
425.261, 2465.344
425.743, 2493.482
426.225, 2515.350
426.708, 2538.988
427.190, 2571.197
427.672, 2608.315
428.154, 2641.015
428.636, 2665.687
429.118, 2687.697
429.600, 2717.089
430.082, 2758.909
430.565, 2796.729
431.047, 2829.266
431.529, 2859.773
432.011, 2889.544
432.493, 2918.934
432.975, 2948.187
433.457, 2976.817
433.939, 3005.692
434.421, 3038.597
434.904, 3078.406
435.386, 3115.558
435.868, 3147.232
436.350, 3175.317
436.832, 3199.814
437.314, 3220.594
437.796, 3242.878
438.278, 3272.471
438.760, 3306.558
439.243, 3334.366
439.725, 3352.422
440.207, 3376.037
440.689, 3420.817
441.171, 3482.365
441.653, 3532.571
442.135, 3564.466
442.617, 3591.726
443.099, 3620.730
443.582, 3649.461
444.064, 3673.419
444.546, 3691.085
445.028, 3705.450
445.510, 3720.685
445.992, 3736.977
446.474, 3753.470
446.957, 3767.882
447.439, 3784.581
447.921, 3807.828
448.403, 3834.752
448.885, 3859.275
449.367, 3877.852
449.849, 3892.754
450.331, 3910.252
450.813, 3932.246
451.296, 3948.682
451.778, 3956.998
452.260, 3958.891
452.742, 3950.427
453.224, 3932.995
453.706, 3926.410
454.188, 3951.122
454.670, 3988.351
455.152, 4008.661
455.635, 4010.704
456.117, 4007.321
456.599, 4004.947
457.081, 4003.217
457.563, 4000.559
458.045, 3991.482
458.527, 3989.565
459.009, 4006.350
459.491, 4026.559
459.974, 4032.739
460.456, 4022.999
460.938, 4009.117
461.420, 4003.354
461.902, 4005.690
462.384, 3999.311
462.866, 3978.190
463.348, 3955.592
463.831, 3935.703
464.313, 3915.989
464.795, 3891.580
465.277, 3860.714
465.759, 3831.949
466.241, 3817.698
466.723, 3815.637
467.205, 3805.313
467.687, 3781.131
468.170, 3754.764
468.652, 3740.167
469.134, 3732.269
469.616, 3711.691
470.098, 3661.446
470.580, 3611.414
471.062, 3581.411
471.544, 3565.358
472.026, 3550.238
472.509, 3531.733
472.991, 3509.280
473.473, 3481.219
473.955, 3442.157
474.437, 3414.491
474.919, 3405.933
475.401, 3399.196
475.883, 3386.702
476.366, 3370.067
476.848, 3354.890
477.330, 3344.888
477.812, 3334.318
478.294, 3309.024
478.776, 3265.381
479.258, 3230.550
479.740, 3212.835
480.223, 3203.181
480.705, 3197.295
481.187, 3193.900
481.669, 3184.240
482.151, 3157.573
482.633, 3128.067
483.115, 3115.114
483.597, 3115.714
484.079, 3107.752
484.561, 3078.237
485.044, 3040.115
485.526, 3021.752
486.008, 3039.928
486.490, 3047.802
486.972, 3036.741
487.454, 3021.938
487.936, 3015.606
488.418, 3015.328
488.901, 3009.402
489.383, 2988.785
489.865, 2958.943
490.347, 2938.104
490.829, 2929.196
491.311, 2920.777
491.793, 2909.425
492.275, 2898.043
492.758, 2888.443
493.240, 2880.732
493.722, 2874.836
494.204, 2875.404
494.686, 2875.544
495.168, 2860.759
495.650, 2831.790
496.132, 2809.965
496.614, 2810.605
497.097, 2822.290
497.579, 2811.709
498.061, 2756.479
498.543, 2720.300
499.025, 2728.516
499.507, 2743.721
499.989, 2733.696
500.471, 2699.977
500.953, 2664.821
501.436, 2644.473
501.918, 2635.843
502.400, 2624.996
502.882, 2609.034
503.364, 2597.750
503.846, 2597.980
504.328, 2600.904
504.810, 2600.262
505.293, 2595.506
505.775, 2589.152
506.257, 2581.282
506.739, 2573.241
507.221, 2567.839
507.703, 2565.063
508.185, 2560.615
508.667, 2550.993
509.150, 2539.384
509.632, 2535.640
510.114, 2550.122
510.596, 2553.734
511.078, 2531.427
511.560, 2506.736
512.042, 2499.625
512.524, 2508.720
513.006, 2520.308
513.489, 2525.079
513.971, 2524.090
514.453, 2519.487
514.935, 2506.961
515.417, 2503.042
515.899, 2523.823
516.381, 2546.060
516.863, 2548.504
517.346, 2531.414
517.828, 2519.226
518.310, 2529.926
518.792, 2548.658
519.274, 2555.035
519.756, 2549.888
520.238, 2545.042
520.720, 2545.707
521.202, 2551.424
521.685, 2561.781
522.167, 2584.101
522.649, 2597.236
523.131, 2593.369
523.613, 2587.202
524.095, 2586.342
524.577, 2591.282
525.059, 2601.132
525.541, 2616.425
526.024, 2633.194
526.506, 2641.314
526.988, 2638.920
527.470, 2639.147
527.952, 2645.034
528.434, 2654.222
528.916, 2665.348
529.398, 2678.114
529.880, 2690.092
530.363, 2700.334
530.845, 2709.785
531.327, 2720.596
531.809, 2731.433
532.291, 2736.534
532.773, 2733.028
533.255, 2729.433
533.737, 2740.486
534.219, 2773.339
534.702, 2795.951
535.184, 2792.900
535.666, 2796.466
536.148, 2825.916
536.630, 2868.699
537.112, 2904.058
537.594, 2923.499
538.076, 2933.232
538.559, 2937.145
539.041, 2936.464
539.523, 2943.950
540.005, 2963.186
540.487, 2986.440
540.969, 3009.280
541.451, 3031.263
541.933, 3050.505
542.416, 3063.628
542.898, 3078.053
543.380, 3095.671
543.862, 3116.759
544.344, 3143.313
544.826, 3174.938
545.308, 3206.885
545.790, 3233.767
546.273, 3255.846
546.755, 3280.321
547.237, 3308.096
547.719, 3336.917
548.201, 3366.107
548.683, 3396.002
549.165, 3427.033
549.647, 3459.087
550.129, 3492.047
550.612, 3526.131
551.094, 3560.710
551.576, 3592.614
552.058, 3622.156
552.540, 3659.934
553.022, 3713.646
553.504, 3777.109
553.986, 3834.436
554.468, 3882.208
554.951, 3928.435
555.433, 3974.039
555.915, 4017.558
556.397, 4055.420
556.879, 4090.348
557.361, 4129.480
557.843, 4177.260
558.325, 4230.433
558.807, 4284.511
559.290, 4340.013
559.772, 4387.361
560.254, 4421.880
560.736, 4451.276
561.218, 4479.556
561.700, 4507.557
562.182, 4542.555
562.664, 4585.622
563.146, 4635.813
563.629, 4705.108
564.111, 4777.464
564.593, 4819.847
565.075, 4824.584
565.557, 4819.736
566.039, 4839.249
566.521, 4884.409
567.003, 4922.393
567.486, 4951.854
567.968, 4975.684
568.450, 4988.774
568.932, 5000.399
569.414, 5020.765
569.896, 5051.811
570.378, 5088.541
570.860, 5134.366
571.343, 5180.860
571.825, 5211.822
572.307, 5227.197
572.789, 5240.059
573.271, 5256.675
573.753, 5277.797
574.235, 5305.990
574.717, 5347.347
575.200, 5385.395
575.682, 5412.007
576.164, 5443.319
576.646, 5493.189
577.128, 5555.271
577.610, 5612.239
578.092, 5653.175
578.574, 5692.298
579.056, 5754.427
579.539, 5837.436
580.021, 5912.495
580.503, 5970.478
580.985, 6029.938
581.467, 6108.528
581.949, 6204.959
582.431, 6295.119
582.913, 6368.347
583.395, 6447.959
583.878, 6541.269
584.360, 6644.887
584.842, 6759.397
585.324, 6882.005
585.806, 7002.683
586.288, 7110.150
586.770, 7208.579
587.252, 7317.986
587.734, 7437.458
588.217, 7570.920
588.699, 7728.979
589.181, 7896.330
589.663, 8054.238
590.145, 8202.319
590.627, 8360.417
591.109, 8542.461
591.591, 8730.926
592.073, 8913.545
592.556, 9090.742
593.038, 9264.146
593.520, 9434.022
594.002, 9611.144
594.484, 9811.836
594.966, 10041.950
595.448, 10261.630
595.930, 10461.110
596.413, 10664.050
596.895, 10868.720
597.377, 11085.700
597.859, 11333.710
598.341, 11620.780
598.823, 11911.330
599.305, 12179.050
599.787, 12436.420
600.269, 12710.350
600.752, 12998.850
601.234, 13267.980
601.716, 13494.810
602.198, 13701.620
602.680, 13951.280
603.162, 14275.060
603.644, 14578.590
604.127, 14855.450
604.609, 15122.450
605.091, 15380.330
605.573, 15635.260
606.055, 15899.110
606.537, 16180.520
607.019, 16459.949
607.501, 16710.939
607.983, 16942.539
608.466, 17180.420
608.948, 17429.520
609.430, 17680.619
609.912, 17926.061
610.394, 18166.420
610.876, 18405.480
611.358, 18653.240
611.840, 18887.340
612.322, 19094.900
612.805, 19297.221
613.287, 19517.330
613.769, 19748.721
614.251, 19962.340
614.733, 20143.260
615.215, 20294.740
615.697, 20408.480
616.179, 20489.520
616.661, 20599.551
617.144, 20762.250
617.626, 20921.910
618.108, 21020.900
618.590, 21060.141
619.072, 21108.240
619.554, 21202.461
620.036, 21258.070
620.518, 21237.561
621.000, 21180.270
621.483, 21119.430
621.965, 21062.211
622.447, 21005.070
622.929, 20951.100
623.411, 20890.430
623.893, 20796.609
624.375, 20668.420
624.857, 20531.461
625.340, 20393.529
625.822, 20248.400
626.304, 20090.660
626.786, 19918.631
627.268, 19734.820
627.750, 19551.830
628.232, 19344.029
628.714, 19075.740
629.196, 18790.910
629.679, 18546.590
630.161, 18352.199
630.643, 18169.680
631.125, 17968.600
631.607, 17750.670
632.089, 17510.350
632.571, 17243.141
633.054, 16998.801
633.536, 16801.180
634.018, 16623.250
634.500, 16426.410
634.982, 16208.480
635.464, 16000.720
635.946, 15812.800
636.428, 15628.590
636.910, 15448.750
637.393, 15264.060
637.875, 15057.260
638.357, 14826.850
638.839, 14592.360
639.321, 14371.240
639.803, 14162.670
640.285, 13973.500
640.767, 13804.800
641.250, 13643.610
641.732, 13484.670
642.214, 13330.190
642.696, 13189.780
643.178, 13068.040
643.660, 12923.050
644.142, 12731.220
644.624, 12537.840
645.106, 12357.690
645.589, 12193.870
646.071, 12054.560
646.553, 11939.560
647.035, 11827.450
647.517, 11691.720
647.999, 11540.040
648.481, 11410.410
