##NAMES=Jacobsite
##RRUFFID=R070719
##IDEAL CHEMISTRY=Mn^2+^Fe^3+^_2_O_4_
##LOCALITY=Kombat mine, Kombat, Grootfontein District, Otjozondjupa Region, Namibia
##OWNER=RRUFF
##SOURCE=William W. Pinch
##DESCRIPTION=Black, with reddish highlights, octahedra associated with kombatite, R070720, and colorless barysilite, R070651
##STATUS=The identification of this mineral is confirmed by single-crystal X-ray diffraction and chemical analysis.
##URL=rruff.info/R070719
##MEASURED CHEMISTRY=Mn_1.03_(Fe^3+^_1.88_Mn_0.07_Al_0.03_Mg_0.02_)_Î£=2.00_O_4_
115.7883, 1382.496
116.2704, 1440.415
116.7525, 1501.745
117.2346, 1565.479
117.7167, 1631.307
118.1988, 1697.920
118.6810, 1761.313
119.1631, 1827.563
119.6452, 1901.568
120.1273, 1982.804
120.6094, 2074.445
121.0915, 2186.264
121.5737, 2318.485
122.0558, 2443.006
122.5379, 2541.591
123.0200, 2619.178
123.5021, 2684.677
123.9842, 2719.075
124.4664, 2752.424
124.9485, 2825.254
125.4306, 2950.431
125.9127, 3090.552
126.3948, 3210.158
126.8769, 3311.917
127.3591, 3409.063
127.8412, 3503.309
128.3233, 3598.641
128.8054, 3704.793
129.2875, 3829.010
129.7696, 3956.697
130.2518, 4057.340
130.7339, 4133.926
131.2160, 4208.090
131.6981, 4300.685
132.1802, 4406.545
132.6623, 4488.931
133.1445, 4517.015
133.6266, 4503.023
134.1087, 4529.885
134.5908, 4603.277
135.0729, 4701.753
135.5550, 4789.217
136.0372, 4862.160
136.5193, 4946.100
137.0014, 5059.207
137.4835, 5202.729
137.9656, 5345.876
138.4477, 5492.563
138.9299, 5634.653
139.4120, 5744.406
139.8941, 5814.012
140.3762, 5869.948
140.8583, 5939.499
141.3404, 6035.721
141.8225, 6104.555
142.3047, 6140.052
142.7868, 6142.886
143.2689, 6101.528
143.7510, 6007.324
144.2331, 5877.721
144.7152, 5734.557
145.1974, 5575.917
145.6795, 5405.114
146.1616, 5219.471
146.6437, 5014.188
147.1258, 4809.795
147.6079, 4606.627
148.0901, 4403.288
148.5722, 4205.237
149.0543, 4000.151
149.5364, 3808.807
150.0185, 3641.714
150.5006, 3507.668
150.9828, 3387.068
151.4649, 3282.125
151.9470, 3192.020
152.4291, 3108.457
152.9112, 3030.417
153.3933, 2959.289
153.8755, 2895.182
154.3576, 2852.663
154.8397, 2803.553
155.3218, 2737.458
155.8039, 2649.370
156.2860, 2571.670
156.7682, 2521.858
157.2503, 2483.161
157.7324, 2434.251
158.2145, 2354.857
158.6966, 2276.789
159.1787, 2214.201
159.6609, 2174.612
160.1430, 2137.287
160.6251, 2097.524
161.1072, 2055.983
161.5893, 2013.748
162.0714, 1969.259
162.5536, 1925.797
163.0357, 1885.612
163.5178, 1850.263
163.9999, 1817.022
164.4820, 1787.055
164.9641, 1759.429
165.4463, 1728.925
165.9284, 1683.874
166.4105, 1637.495
166.8926, 1604.035
167.3747, 1606.303
167.8568, 1610.726
168.3390, 1589.790
168.8211, 1541.310
169.3032, 1496.213
169.7853, 1480.872
170.2674, 1482.400
170.7495, 1478.309
171.2317, 1449.305
171.7138, 1413.699
172.1959, 1391.698
172.6780, 1388.706
173.1601, 1388.189
173.6422, 1374.769
174.1244, 1351.644
174.6065, 1329.509
175.0886, 1313.475
175.5707, 1302.451
176.0528, 1293.836
176.5349, 1245.174
177.0171, 1285.669
177.4992, 1304.968
177.9813, 1304.208
178.4634, 1223.308
178.9455, 1245.892
179.4276, 1227.004
179.9098, 1206.414
180.3919, 1243.562
180.8740, 1174.319
181.3561, 1210.552
181.8382, 1199.898
182.3203, 1194.931
182.8025, 1184.621
183.2846, 1170.926
183.7667, 1161.333
184.2488, 1161.411
184.7309, 1168.167
185.2130, 1173.551
185.6951, 1177.622
186.1773, 1180.032
186.6594, 1181.328
187.1415, 1181.266
187.6236, 1177.155
188.1057, 1162.653
188.5878, 1141.254
189.0700, 1130.740
189.5521, 1135.835
190.0342, 1147.504
190.5163, 1148.669
190.9984, 1138.995
191.4805, 1127.467
191.9627, 1121.686
192.4448, 1120.917
192.9269, 1115.907
193.4090, 1103.431
193.8911, 1086.649
194.3732, 1075.880
194.8554, 1071.953
195.3375, 1068.858
195.8196, 1061.079
196.3017, 1048.577
196.7838, 1034.381
197.2659, 1016.563
197.7481, 997.0005
198.2302, 990.0389
198.7123, 998.3044
199.1944, 1011.700
199.6765, 1017.090
200.1586, 1013.164
200.6408, 1012.045
201.1229, 1021.909
201.6050, 1043.048
202.0871, 1048.006
202.5692, 1032.805
203.0513, 1007.532
203.5335, 987.2607
204.0156, 971.6130
204.4977, 962.4025
204.9798, 963.0217
205.4619, 975.5278
205.9440, 982.2304
206.4262, 980.8271
206.9083, 974.5695
207.3904, 972.5134
207.8725, 976.7523
208.3546, 979.3914
208.8367, 973.5084
209.3189, 954.9713
209.8010, 946.1873
210.2831, 952.8211
210.7652, 970.1581
211.2473, 976.5484
211.7294, 968.5753
212.2116, 956.4456
212.6937, 947.0334
213.1758, 939.6978
213.6579, 937.4176
214.1400, 942.9767
214.6221, 955.4849
215.1043, 960.3657
215.5864, 954.7715
216.0685, 945.8348
216.5506, 940.2924
217.0327, 938.3026
217.5148, 939.6125
217.9970, 947.3750
218.4791, 962.7360
218.9612, 961.7975
219.4433, 934.9029
219.9254, 901.4589
220.4075, 888.3842
220.8897, 905.3967
221.3718, 922.9254
221.8539, 931.4663
222.3360, 928.8076
222.8181, 928.4584
223.3002, 931.9446
223.7824, 936.7653
224.2645, 937.8864
224.7466, 932.5649
225.2287, 928.3340
225.7108, 929.1988
226.1929, 939.5993
226.6750, 942.1774
227.1572, 932.5195
227.6393, 876.7670
228.1214, 926.7903
228.6035, 955.1810
229.0856, 963.1014
229.5677, 889.2411
230.0499, 920.9838
230.5320, 910.4055
231.0141, 898.0918
231.4962, 944.6976
231.9783, 882.7320
232.4604, 928.4034
232.9426, 931.1082
233.4247, 953.4777
233.9068, 933.2649
234.3889, 926.2044
234.8710, 961.7398
235.3531, 973.6895
235.8353, 948.5750
236.3174, 972.1945
236.7995, 922.2134
237.2816, 922.5881
237.7637, 935.4380
238.2458, 940.1654
238.7280, 929.5753
239.2101, 904.0754
239.6922, 891.4488
240.1743, 895.8807
240.6564, 908.9974
241.1385, 924.9382
241.6207, 952.5881
242.1028, 966.7433
242.5849, 955.8364
243.0670, 916.0324
243.5491, 901.8093
244.0313, 929.2032
244.5134, 968.7695
244.9955, 985.4145
245.4776, 966.2244
245.9597, 946.2739
246.4418, 932.4069
246.9240, 924.0836
247.4061, 926.4007
247.8882, 907.5497
248.3703, 958.0443
248.8524, 986.9062
249.3345, 995.2979
249.8167, 921.9090
250.2988, 954.1229
250.7809, 944.0158
251.2630, 932.1734
251.7451, 979.2504
252.2272, 917.7561
252.7094, 963.8989
253.1915, 967.0748
253.6736, 989.9155
254.1557, 970.1740
254.6378, 963.5848
255.1199, 999.5914
255.6021, 1012.013
256.0842, 987.3692
256.5663, 1011.460
257.0484, 948.4781
257.5305, 961.9036
258.0126, 1008.296
258.4948, 985.7933
258.9769, 1010.663
259.4590, 1017.490
259.9411, 942.3254
260.4232, 1009.753
260.9053, 1015.515
261.3875, 957.9581
261.8696, 1020.500
262.3517, 971.6725
262.8338, 995.9788
263.3159, 998.0258
263.7980, 989.1750
264.2802, 979.1263
264.7623, 966.3134
265.2444, 955.2153
265.7265, 947.1951
266.2086, 940.7225
266.6907, 944.4634
267.1729, 963.6317
267.6550, 992.6231
268.1371, 1009.599
268.6192, 1010.991
269.1013, 1007.924
269.5834, 1008.840
270.0656, 1015.912
270.5477, 1016.141
271.0298, 1004.964
271.5119, 986.2397
271.9940, 975.6722
272.4761, 973.4730
272.9583, 979.1407
273.4404, 996.9667
273.9225, 1031.399
274.4046, 1052.139
274.8867, 1051.440
275.3688, 1034.240
275.8510, 1022.310
276.3331, 1016.489
276.8152, 1013.679
277.2973, 1013.022
277.7794, 1015.253
278.2615, 1011.866
278.7437, 997.9598
279.2258, 977.5970
279.7079, 970.5560
280.1900, 978.9738
280.6721, 992.4117
281.1542, 1003.315
281.6364, 1011.812
282.1185, 1014.762
282.6006, 1008.646
283.0827, 997.0580
283.5648, 996.5909
284.0469, 1009.226
284.5291, 1022.725
285.0112, 1022.950
285.4933, 1010.425
285.9754, 1002.452
286.4575, 1004.016
286.9396, 1013.178
287.4217, 1023.628
287.9038, 1035.271
288.3860, 1048.735
288.8681, 1069.455
289.3502, 1095.407
289.8323, 1109.203
290.3144, 1099.698
290.7965, 1076.506
291.2787, 1068.960
291.7608, 1078.419
292.2429, 1088.277
292.7250, 1076.055
293.2071, 1047.560
293.6892, 1032.413
294.1714, 1048.255
294.6535, 1080.177
295.1356, 1093.882
295.6177, 1088.723
296.0998, 1081.042
296.5819, 1087.593
297.0641, 1104.657
297.5462, 1119.795
298.0283, 1129.775
298.5104, 1134.903
298.9925, 1132.813
299.4746, 1123.417
299.9568, 1116.380
300.4389, 1121.683
300.9210, 1135.794
301.4031, 1150.910
301.8852, 1167.959
302.3673, 1182.147
302.8495, 1184.991
303.3316, 1176.661
303.8137, 1167.421
304.2958, 1167.293
304.7779, 1171.948
305.2600, 1173.603
305.7422, 1161.584
306.2243, 1150.231
306.7064, 1158.431
307.1885, 1185.159
307.6706, 1208.444
308.1527, 1205.777
308.6349, 1191.646
309.1170, 1186.150
309.5991, 1205.257
310.0812, 1229.420
310.5633, 1245.412
311.0454, 1253.575
311.5276, 1257.575
312.0097, 1256.465
312.4918, 1253.505
312.9739, 1252.321
313.4560, 1256.607
313.9381, 1261.041
314.4203, 1261.804
314.9024, 1259.263
315.3845, 1258.072
315.8666, 1263.994
316.3487, 1270.772
316.8308, 1272.495
317.3130, 1258.249
317.7951, 1247.071
318.2772, 1250.211
318.7593, 1266.105
319.2414, 1276.816
319.7235, 1277.130
320.2057, 1269.518
320.6878, 1255.940
321.1699, 1221.618
321.6520, 1196.837
322.1341, 1192.292
322.6162, 1206.373
323.0984, 1222.823
323.5805, 1249.070
324.0626, 1270.556
324.5447, 1277.467
325.0268, 1245.151
325.5089, 1223.861
325.9911, 1226.127
326.4732, 1249.465
326.9553, 1266.743
327.4374, 1279.065
327.9195, 1283.065
328.4016, 1276.709
328.8838, 1239.147
329.3659, 1217.414
329.8480, 1221.597
330.3301, 1246.922
330.8122, 1263.234
331.2943, 1263.567
331.7765, 1261.904
332.2586, 1266.798
332.7407, 1286.827
333.2228, 1297.312
333.7049, 1291.308
334.1870, 1274.490
334.6692, 1271.472
335.1513, 1290.161
335.6334, 1309.948
336.1155, 1319.054
336.5976, 1314.450
337.0797, 1308.322
337.5619, 1298.875
338.0440, 1289.438
338.5261, 1291.598
339.0082, 1308.939
339.4903, 1326.987
339.9724, 1338.192
340.4546, 1342.344
340.9367, 1342.531
341.4188, 1339.602
341.9009, 1331.963
342.3830, 1312.868
342.8651, 1280.794
343.3473, 1252.389
343.8294, 1239.052
344.3115, 1239.432
344.7936, 1237.625
345.2757, 1232.926
345.7578, 1225.692
346.2400, 1214.683
346.7221, 1200.360
347.2042, 1187.952
347.6863, 1182.604
348.1684, 1181.426
348.6505, 1173.081
349.1327, 1155.367
349.6148, 1137.907
350.0969, 1136.093
350.5790, 1145.691
351.0611, 1150.410
351.5432, 1134.690
352.0254, 1111.753
352.5075, 1105.593
352.9896, 1118.731
353.4717, 1131.622
353.9538, 1121.923
354.4359, 1099.088
354.9181, 1081.938
355.4002, 1084.926
355.8823, 1093.330
356.3644, 1091.700
356.8465, 1079.704
357.3286, 1070.350
357.8108, 1076.869
358.2929, 1089.752
358.7750, 1096.672
359.2571, 1088.889
359.7392, 1077.505
360.2213, 1064.229
360.7035, 1049.956
361.1856, 1046.084
361.6677, 1073.323
362.1498, 1105.627
362.6319, 1120.731
363.1140, 1090.715
363.5962, 1065.037
364.0783, 1061.001
364.5604, 1075.754
365.0425, 1088.630
365.5246, 1094.736
366.0067, 1097.585
366.4889, 1099.366
366.9710, 1096.813
367.4531, 1097.356
367.9352, 1107.478
368.4173, 1123.090
368.8994, 1125.780
369.3815, 1101.378
369.8636, 1076.167
370.3458, 1061.988
370.8279, 1067.715
371.3100, 1069.124
371.7921, 1065.414
372.2742, 1057.581
372.7563, 1047.045
373.2385, 1029.438
373.7206, 1016.493
374.2027, 1014.681
374.6848, 1028.017
375.1669, 1036.138
375.6490, 1039.314
376.1312, 1036.968
376.6133, 1026.634
377.0954, 1006.181
377.5775, 986.1077
378.0596, 969.3135
378.5417, 956.0890
379.0239, 947.3434
379.5060, 943.6481
379.9881, 942.9677
380.4702, 945.0553
380.9523, 949.6721
381.4344, 949.2286
381.9166, 937.5844
382.3987, 919.7446
382.8808, 911.3295
383.3629, 912.8403
383.8450, 916.8171
384.3271, 916.5397
384.8093, 913.0118
385.2914, 909.1382
385.7735, 904.7230
386.2556, 901.4051
386.7377, 903.2490
387.2198, 909.4589
387.7020, 914.0219
388.1841, 911.2086
388.6662, 904.5862
389.1483, 898.2630
389.6304, 891.0998
390.1125, 888.1387
390.5947, 898.1635
391.0768, 916.6173
391.5589, 928.8996
392.0410, 921.2487
392.5231, 908.6912
393.0052, 903.2113
393.4874, 911.2180
393.9695, 915.5480
394.4516, 901.8080
394.9337, 880.5950
395.4158, 871.3211
395.8979, 892.8640
396.3801, 915.8569
396.8622, 927.7133
397.3443, 924.0029
397.8264, 921.3534
398.3085, 922.0301
398.7906, 924.8174
399.2728, 928.3279
399.7549, 935.5093
400.2370, 939.9998
400.7191, 939.2512
401.2012, 932.6750
401.6833, 930.3081
402.1655, 936.2446
402.6476, 942.4137
403.1297, 940.4335
403.6118, 923.8048
404.0939, 915.2608
404.5760, 920.3376
405.0582, 936.3651
405.5403, 948.7538
406.0224, 956.2283
406.5045, 963.4197
406.9866, 975.4166
407.4688, 992.9055
407.9509, 1001.941
408.4330, 998.2637
408.9151, 989.3837
409.3972, 993.7155
409.8793, 1011.252
410.3615, 1025.234
410.8436, 1022.667
411.3257, 1008.546
411.8078, 1000.232
412.2899, 999.4529
412.7720, 1001.571
413.2542, 999.3931
413.7363, 995.2843
414.2184, 996.2912
414.7005, 1012.320
415.1826, 1031.861
415.6647, 1041.033
416.1469, 1039.284
416.6290, 1033.584
417.1111, 1027.913
417.5932, 1021.495
418.0753, 1013.532
418.5574, 998.5717
419.0396, 986.4310
419.5217, 982.6783
420.0038, 986.5645
420.4859, 992.8150
420.9680, 1004.913
421.4501, 1015.335
421.9323, 1018.290
422.4144, 1003.695
422.8965, 994.2822
423.3786, 998.9678
423.8607, 1012.234
424.3428, 1018.221
424.8250, 1006.862
425.3071, 995.9847
425.7892, 992.9416
426.2713, 1003.833
426.7534, 1005.445
427.2355, 990.4981
427.7177, 970.7557
428.1998, 964.9590
428.6819, 980.5749
429.1640, 993.3151
429.6461, 996.1371
430.1282, 989.1462
430.6104, 980.9043
431.0925, 970.3353
431.5746, 961.2000
432.0567, 957.2690
432.5388, 958.5825
433.0209, 963.7699
433.5031, 974.4080
433.9852, 987.2285
434.4673, 994.4208
434.9494, 996.0577
435.4315, 994.9109
435.9136, 990.7859
436.3958, 985.4294
436.8779, 983.5632
437.3600, 986.4521
437.8421, 991.3763
438.3242, 997.7975
438.8063, 1004.217
439.2885, 1006.401
439.7706, 997.9097
440.2527, 986.7081
440.7348, 979.6390
441.2169, 977.3018
441.6990, 978.0803
442.1812, 981.7386
442.6633, 987.7087
443.1454, 995.3555
443.6275, 1004.096
444.1096, 1014.811
444.5917, 1030.241
445.0739, 1049.741
445.5560, 1063.936
446.0381, 1070.684
446.5202, 1071.794
447.0023, 1068.245
447.4844, 1052.024
447.9666, 1041.597
448.4487, 1039.777
448.9308, 1043.620
449.4129, 1044.851
449.8950, 1040.723
450.3771, 1038.521
450.8592, 1042.239
451.3413, 1053.667
451.8235, 1059.926
452.3056, 1059.405
452.7877, 1056.289
453.2698, 1056.348
453.7519, 1059.876
454.2340, 1063.277
454.7162, 1065.978
455.1983, 1067.645
455.6804, 1066.604
456.1625, 1062.708
456.6446, 1058.427
457.1267, 1057.819
457.6089, 1058.575
458.0910, 1053.236
458.5731, 1037.520
459.0552, 1020.278
459.5373, 1011.688
460.0194, 1010.484
460.5016, 1012.397
460.9837, 1018.566
461.4658, 1024.726
461.9479, 1026.280
462.4300, 1021.811
462.9121, 1017.856
463.3943, 1020.796
463.8764, 1025.366
464.3585, 1024.713
464.8406, 1005.634
465.3227, 991.9293
465.8048, 997.2428
466.2870, 1021.576
466.7691, 1032.395
467.2512, 1015.632
467.7333, 991.4970
468.2154, 971.9688
468.6975, 956.0047
469.1797, 946.5595
469.6618, 945.9662
470.1439, 951.4901
470.6260, 956.4044
471.1081, 960.9680
471.5902, 964.3112
472.0724, 967.3074
472.5545, 970.3967
473.0366, 963.5836
473.5187, 943.8400
474.0008, 922.8818
474.4829, 916.9081
474.9651, 924.6964
475.4472, 931.5149
475.9293, 932.5826
476.4114, 930.1390
476.8935, 928.4606
477.3756, 927.5129
477.8578, 926.5052
478.3399, 925.1777
478.8220, 923.3559
479.3041, 920.5696
479.7862, 916.2820
480.2683, 912.1773
480.7505, 910.4123
481.2326, 909.7454
481.7147, 907.5598
482.1968, 894.8236
482.6789, 886.7429
483.1610, 894.8306
483.6432, 922.3469
484.1253, 943.3567
484.6074, 951.3498
485.0895, 949.9141
485.5716, 942.2277
486.0537, 918.2001
486.5359, 900.2877
487.0180, 892.5513
487.5001, 892.7615
487.9822, 889.9994
488.4643, 880.5205
488.9464, 874.2682
489.4286, 878.7482
489.9107, 898.0751
490.3928, 904.3648
490.8749, 893.3768
491.3570, 876.6683
491.8391, 873.0472
492.3213, 882.4763
492.8034, 887.9717
493.2855, 880.9641
493.7676, 866.9181
494.2497, 858.1802
494.7318, 854.8245
495.2140, 856.9612
495.6961, 870.0970
496.1782, 887.7972
496.6603, 898.2420
497.1424, 897.8361
497.6245, 892.6692
498.1067, 884.9801
498.5888, 876.0918
499.0709, 869.0474
499.5530, 867.3558
500.0351, 865.9874
500.5172, 859.8247
500.9994, 846.9167
501.4815, 842.4361
501.9636, 859.2391
502.4457, 881.2040
502.9278, 893.7862
503.4099, 888.0309
503.8921, 883.0607
504.3742, 881.6034
504.8563, 882.2887
505.3384, 879.0467
505.8205, 870.2850
506.3026, 860.7536
506.7848, 851.2772
507.2669, 840.7284
507.7490, 839.9361
508.2311, 852.0537
508.7132, 866.7111
509.1953, 867.4259
509.6775, 855.7487
510.1596, 849.6830
510.6417, 857.8298
511.1238, 873.4267
511.6059, 883.7954
512.0880, 889.2269
512.5701, 892.8487
513.0522, 898.5195
513.5344, 903.0798
514.0165, 900.7357
514.4986, 886.8367
514.9807, 876.7784
515.4628, 884.8350
515.9449, 902.5298
516.4271, 915.3282
516.9092, 919.6646
517.3913, 917.2595
517.8734, 903.9294
518.3555, 878.9375
518.8376, 865.1260
519.3198, 872.1960
519.8019, 886.2211
520.2840, 899.8093
520.7661, 916.6598
521.2482, 924.7938
521.7303, 919.1035
522.2125, 907.0079
522.6946, 907.2877
523.1767, 923.8802
523.6588, 936.0369
524.1409, 932.6492
524.6230, 916.4264
525.1052, 908.0458
525.5873, 908.2198
526.0694, 910.5721
526.5515, 907.2437
527.0336, 900.9652
527.5157, 900.0967
527.9979, 908.2706
528.4800, 919.6682
528.9621, 927.8311
529.4442, 934.0225
529.9263, 942.2443
530.4084, 958.9279
530.8906, 975.1652
531.3727, 983.9169
531.8548, 983.9078
532.3369, 982.9272
532.8190, 981.6507
533.3011, 981.4938
533.7833, 983.7603
534.2654, 991.3823
534.7475, 998.1345
535.2296, 1004.051
535.7117, 1008.742
536.1938, 1010.351
536.6760, 1006.411
537.1581, 1004.061
537.6402, 1005.941
538.1223, 1012.078
538.6044, 1023.476
539.0865, 1041.896
539.5687, 1060.835
540.0508, 1073.245
540.5329, 1079.595
541.0150, 1080.984
541.4971, 1074.668
541.9792, 1067.498
542.4614, 1071.418
542.9435, 1084.692
543.4256, 1099.221
543.9077, 1108.333
544.3898, 1117.410
544.8719, 1132.354
545.3541, 1154.433
545.8362, 1177.148
546.3183, 1198.566
546.8004, 1218.685
547.2825, 1237.685
547.7646, 1256.022
548.2468, 1272.484
548.7289, 1285.952
549.2110, 1297.103
549.6931, 1308.349
550.1752, 1316.119
550.6573, 1328.829
551.1395, 1352.028
551.6216, 1388.682
552.1037, 1418.366
552.5858, 1441.249
553.0679, 1457.346
553.5500, 1461.867
554.0322, 1455.608
554.5143, 1460.013
554.9964, 1483.415
555.4785, 1516.140
555.9606, 1541.609
556.4427, 1560.649
556.9249, 1577.008
557.4070, 1591.324
557.8891, 1605.010
558.3712, 1621.115
558.8533, 1640.484
559.3354, 1655.330
559.8176, 1658.179
560.2997, 1655.773
560.7818, 1655.032
561.2639, 1658.014
561.7460, 1662.423
562.2281, 1670.961
562.7103, 1681.133
563.1924, 1683.656
563.6745, 1673.983
564.1566, 1662.551
564.6387, 1651.817
565.1208, 1641.125
565.6030, 1639.241
566.0851, 1650.571
566.5672, 1660.683
567.0493, 1650.851
567.5314, 1622.463
568.0135, 1602.811
568.4957, 1598.991
568.9778, 1602.908
569.4599, 1601.925
569.9420, 1597.197
570.4241, 1593.645
570.9063, 1597.380
571.3884, 1601.424
571.8705, 1596.002
572.3526, 1580.873
572.8347, 1570.390
573.3168, 1574.079
573.7990, 1584.693
574.2811, 1596.359
574.7632, 1611.638
575.2453, 1622.754
575.7274, 1627.612
576.2095, 1627.740
576.6917, 1625.460
577.1738, 1616.448
577.6559, 1612.250
578.1380, 1617.356
578.6201, 1631.074
579.1022, 1641.014
579.5844, 1645.292
580.0665, 1652.721
580.5486, 1674.294
581.0307, 1707.213
581.5128, 1727.668
581.9949, 1729.662
582.4771, 1730.732
582.9592, 1759.714
583.4413, 1805.100
583.9234, 1838.414
584.4055, 1832.125
584.8876, 1821.527
585.3698, 1836.161
585.8519, 1871.565
586.3340, 1903.573
586.8161, 1916.545
587.2982, 1926.967
587.7803, 1943.698
588.2625, 1968.544
588.7446, 1997.903
589.2267, 2038.039
589.7088, 2078.197
590.1909, 2104.167
590.6730, 2105.056
591.1552, 2122.507
591.6373, 2170.146
592.1194, 2234.618
592.6015, 2274.673
593.0836, 2289.143
593.5657, 2299.752
594.0479, 2312.690
594.5300, 2331.331
595.0121, 2369.251
595.4942, 2427.418
595.9763, 2484.060
596.4584, 2516.359
596.9406, 2537.655
597.4227, 2566.024
597.9048, 2608.593
598.3869, 2654.458
598.8690, 2701.911
599.3511, 2748.870
599.8333, 2792.258
600.3154, 2827.062
600.7975, 2862.752
601.2796, 2903.193
601.7617, 2948.391
602.2438, 2989.364
602.7260, 3021.670
603.2081, 3057.480
603.6902, 3108.439
604.1723, 3177.280
604.6544, 3227.049
605.1365, 3251.582
605.6187, 3269.460
606.1008, 3304.617
606.5829, 3354.147
607.0650, 3406.122
607.5471, 3459.804
608.0292, 3511.297
608.5114, 3553.418
