##NAMES=Jadeite
##RRUFFID=R070117
##IDEAL CHEMISTRY=NaAlSi_2_O_6_
##LOCALITY=Tawmaw (Tawhmaw; Taw Maw), Myitkyina-Mogaung District, Kachin State, Myanmar (Burma)
##OWNER=RRUFF
##SOURCE=Michael Scott
##DESCRIPTION=Green massive
##STATUS=The identification of this mineral is confirmed by single-crystal X-ray diffraction and chemical analysis.
##URL=rruff.info/R070117
##MEASURED CHEMISTRY=Na_1.00_(Al_0.86_Cr_0.09_Fe^3+^_0.05_)_Î£=1_Si_2.00_O_6_
169.4663, 41295.64
169.9485, 41404.40
170.4306, 41534.28
170.9127, 41722.55
171.3948, 41899.43
171.8769, 41984.82
172.3590, 41988.74
172.8412, 41986.40
173.3233, 42029.81
173.8054, 42103.57
174.2875, 42182.89
174.7696, 42266.63
175.2517, 42347.45
175.7339, 42407.61
176.2160, 42447.29
176.6981, 42498.96
177.1802, 42611.57
177.6623, 42761.79
178.1444, 42888.81
178.6266, 42963.13
179.1087, 43000.46
179.5908, 43015.89
180.0729, 43005.54
180.5550, 43005.64
181.0371, 43062.22
181.5193, 43166.44
182.0014, 43278.74
182.4835, 43382.61
182.9656, 43480.48
183.4477, 43583.16
183.9298, 43692.36
184.4120, 43800.64
184.8941, 43885.93
185.3762, 43953.39
185.8583, 44041.67
186.3404, 44182.95
186.8225, 44365.83
187.3047, 44551.82
187.7868, 44739.63
188.2689, 44921.95
188.7510, 45081.96
189.2331, 45219.15
189.7152, 45353.77
190.1974, 45514.41
190.6795, 45692.27
191.1616, 45812.14
191.6437, 45842.20
192.1258, 45828.56
192.6080, 45883.45
193.0901, 46011.50
193.5722, 46166.78
194.0543, 46316.86
194.5364, 46461.44
195.0185, 46613.57
195.5007, 46769.08
195.9828, 46936.09
196.4649, 47143.90
196.9470, 47400.99
197.4291, 47673.29
197.9112, 47924.68
198.3934, 48151.81
198.8755, 48408.70
199.3576, 48712.51
199.8397, 49056.42
200.3218, 49399.41
200.8039, 49739.57
201.2861, 50084.25
201.7682, 50462.09
202.2503, 50889.77
202.7324, 51252.06
203.2145, 51564.37
203.6966, 51814.95
204.1788, 51748.02
204.6609, 51306.05
205.1430, 50660.92
205.6251, 49975.08
206.1072, 49216.20
206.5893, 48549.09
207.0715, 48015.14
207.5536, 47619.21
208.0357, 47355.95
208.5178, 47257.36
208.9999, 47247.89
209.4820, 47222.32
209.9642, 47171.52
210.4463, 47133.02
210.9284, 47124.97
211.4105, 47153.94
211.8926, 47160.69
212.3747, 47130.08
212.8569, 47092.10
213.3390, 47100.34
213.8211, 47171.69
214.3032, 47247.04
214.7853, 47301.42
215.2674, 47325.27
215.7496, 47369.90
216.2317, 47444.81
216.7138, 47534.43
217.1959, 47603.33
217.6780, 47635.09
218.1601, 47681.21
218.6423, 47774.52
219.1244, 47953.70
219.6065, 48061.04
220.0886, 48076.47
220.5707, 48029.03
221.0528, 47988.96
221.5350, 47952.59
222.0171, 47928.87
222.4992, 47928.03
222.9813, 47972.75
223.4634, 47978.80
223.9455, 47929.40
224.4277, 47843.43
224.9098, 47777.85
225.3919, 47730.74
225.8740, 47705.10
226.3561, 47706.32
226.8382, 47751.70
227.3204, 47781.47
227.8025, 47780.64
228.2846, 47763.36
228.7667, 47782.79
229.2488, 47858.65
229.7310, 47942.18
230.2131, 48006.91
230.6952, 48039.55
231.1773, 48082.66
231.6594, 48148.93
232.1415, 48228.59
232.6237, 48276.65
233.1058, 48275.23
233.5879, 48265.90
234.0700, 48273.68
234.5521, 48309.35
235.0342, 48339.34
235.5164, 48360.30
235.9985, 48373.27
236.4806, 48381.98
236.9627, 48375.78
237.4448, 48378.82
237.9269, 48407.91
238.4091, 48476.03
238.8912, 48544.68
239.3733, 48615.33
239.8554, 48685.39
240.3375, 48736.90
240.8196, 48765.64
241.3018, 48780.88
241.7839, 48787.30
242.2660, 48778.70
242.7481, 48773.12
243.2302, 48766.51
243.7123, 48762.11
244.1945, 48788.18
244.6766, 48864.45
245.1587, 48947.22
245.6408, 49005.47
246.1229, 49025.16
246.6050, 49049.87
247.0872, 49086.08
247.5693, 49132.26
248.0514, 49174.24
248.5335, 49206.48
249.0156, 49241.47
249.4977, 49288.84
249.9799, 49353.38
250.4620, 49420.20
250.9441, 49494.46
251.4262, 49572.73
251.9083, 49620.08
252.3904, 49621.70
252.8726, 49611.16
253.3547, 49611.25
253.8368, 49620.44
254.3189, 49646.47
254.8010, 49705.95
255.2831, 49790.54
255.7653, 49812.39
256.2474, 49734.58
256.7295, 49645.22
257.2116, 49612.82
257.6937, 49652.03
258.1758, 49712.84
258.6580, 49803.02
259.1401, 49914.61
259.6222, 49970.20
260.1043, 49938.11
260.5864, 49898.38
261.0685, 49921.81
261.5507, 50040.88
262.0328, 50125.73
262.5149, 50149.14
262.9970, 50121.02
263.4791, 50113.38
263.9612, 50135.45
264.4434, 50161.60
264.9255, 50167.27
265.4076, 50140.04
265.8897, 50137.13
266.3718, 50172.40
266.8539, 50238.86
267.3361, 50299.53
267.8182, 50354.18
268.3003, 50402.43
268.7824, 50444.95
269.2645, 50482.21
269.7466, 50509.95
270.2288, 50524.55
270.7109, 50529.73
271.1930, 50541.14
271.6751, 50556.39
272.1572, 50584.55
272.6393, 50639.87
273.1215, 50729.48
273.6036, 50800.24
274.0857, 50841.43
274.5678, 50859.78
275.0499, 50874.00
275.5320, 50878.50
276.0142, 50898.73
276.4963, 50960.09
276.9784, 51067.26
277.4605, 51169.09
277.9426, 51261.31
278.4247, 51342.99
278.9069, 51413.48
279.3890, 51472.67
279.8711, 51519.07
280.3532, 51549.46
280.8354, 51563.68
281.3175, 51571.67
281.7996, 51572.54
282.2817, 51569.96
282.7638, 51559.33
283.2459, 51535.69
283.7281, 51551.99
284.2102, 51676.89
284.6923, 51899.57
285.1744, 52055.00
285.6565, 52110.90
286.1386, 52108.62
286.6208, 52126.84
287.1029, 52166.26
287.5850, 52204.84
288.0671, 52232.29
288.5492, 52248.29
289.0313, 52248.34
289.5135, 52227.93
289.9956, 52199.61
290.4777, 52177.41
290.9598, 52162.12
291.4419, 52166.84
291.9240, 52218.82
292.4062, 52300.61
292.8883, 52343.08
293.3704, 52331.93
293.8525, 52305.25
294.3346, 52315.77
294.8167, 52359.31
295.2989, 52410.86
295.7810, 52474.16
296.2631, 52533.77
296.7452, 52544.98
297.2273, 52494.48
297.7094, 52437.21
298.1916, 52449.14
298.6737, 52511.75
299.1558, 52559.50
299.6379, 52523.95
300.1200, 52462.17
300.6021, 52479.39
301.0843, 52591.77
301.5664, 52716.56
302.0485, 52764.01
302.5306, 52760.89
303.0127, 52770.54
303.4948, 52845.93
303.9770, 52938.70
304.4591, 52984.14
304.9412, 52975.50
305.4233, 52972.02
305.9054, 53028.67
306.3875, 53122.20
306.8697, 53214.18
307.3518, 53310.15
307.8339, 53383.11
308.3160, 53384.44
308.7981, 53313.86
309.2802, 53270.94
309.7624, 53356.93
310.2445, 53501.01
310.7266, 53612.97
311.2087, 53647.39
311.6908, 53650.81
312.1729, 53649.84
312.6551, 53644.07
313.1372, 53624.58
313.6193, 53564.66
314.1014, 53498.53
314.5835, 53458.78
315.0656, 53480.32
315.5478, 53505.89
316.0299, 53499.96
316.5120, 53470.66
316.9941, 53468.45
317.4762, 53553.89
317.9583, 53649.63
318.4405, 53699.99
318.9226, 53637.22
319.4047, 53593.65
319.8868, 53616.27
320.3689, 53690.06
320.8510, 53759.75
321.3332, 53815.45
321.8153, 53860.57
322.2974, 53897.30
322.7795, 53924.58
323.2616, 53945.44
323.7437, 53960.76
324.2259, 53970.00
324.7080, 53971.72
325.1901, 53948.90
325.6722, 53932.38
326.1543, 53937.45
326.6364, 53989.22
327.1186, 54014.57
327.6007, 54004.43
328.0828, 53968.91
328.5649, 53924.20
329.0470, 53826.39
329.5291, 53767.62
330.0113, 53787.66
330.4934, 53922.26
330.9755, 54005.61
331.4576, 54022.61
331.9397, 53997.16
332.4218, 53956.52
332.9040, 53879.55
333.3861, 53823.62
333.8682, 53805.84
334.3503, 53828.60
334.8324, 53857.22
335.3145, 53898.59
335.7967, 53937.35
336.2788, 53952.54
336.7609, 53932.88
337.2430, 53926.82
337.7251, 53947.49
338.2072, 53991.74
338.6894, 54030.42
339.1715, 54060.88
339.6536, 54093.75
340.1357, 54146.25
340.6178, 54223.44
341.0999, 54268.13
341.5821, 54260.84
342.0642, 54221.73
342.5463, 54210.96
343.0284, 54230.89
343.5105, 54260.07
343.9926, 54283.05
344.4748, 54300.88
344.9569, 54323.71
345.4390, 54352.44
345.9211, 54387.15
346.4032, 54431.80
346.8853, 54485.14
347.3675, 54535.20
347.8496, 54559.45
348.3317, 54574.25
348.8138, 54632.70
349.2959, 54747.77
349.7780, 54872.21
350.2602, 54956.92
350.7423, 55007.19
351.2244, 55042.82
351.7065, 55052.74
352.1887, 55061.91
352.6708, 55103.94
353.1529, 55180.80
353.6350, 55284.55
354.1171, 55428.56
354.5992, 55593.70
355.0814, 55744.89
355.5635, 55856.22
356.0456, 55956.56
356.5277, 56065.66
357.0098, 56184.18
357.4919, 56310.79
357.9741, 56444.34
358.4562, 56586.31
358.9383, 56740.54
359.4204, 56921.05
359.9025, 57098.32
360.3846, 57249.38
360.8668, 57382.43
361.3489, 57532.06
361.8310, 57708.02
362.3131, 57905.48
362.7952, 58126.38
363.2773, 58397.67
363.7595, 58642.43
364.2416, 58815.52
364.7237, 58949.63
365.2058, 59119.41
365.6879, 59380.22
366.1700, 59640.48
366.6522, 59871.25
367.1343, 60077.43
367.6164, 60237.71
368.0985, 60331.39
368.5806, 60386.84
369.0627, 60442.35
369.5449, 60535.89
370.0270, 60582.44
370.5091, 60562.68
370.9912, 60473.87
371.4733, 60346.58
371.9554, 60173.63
372.4376, 59971.48
372.9197, 59751.49
373.4018, 59506.97
373.8839, 59265.57
374.3660, 59029.40
374.8481, 58799.70
375.3303, 58571.63
375.8124, 58344.55
376.2945, 58119.23
376.7766, 57876.25
377.2587, 57608.76
377.7408, 57424.63
378.2230, 57354.95
378.7051, 57345.32
379.1872, 57266.47
379.6693, 57114.82
380.1514, 56983.41
380.6335, 56915.20
381.1157, 56909.07
381.5978, 56980.77
382.0799, 57146.06
382.5620, 57325.98
383.0441, 57439.25
383.5262, 57487.18
384.0084, 57470.92
384.4905, 57341.26
384.9726, 57163.70
385.4547, 57047.49
385.9368, 56990.67
386.4189, 56976.04
386.9011, 57045.40
387.3832, 57137.32
387.8653, 57145.14
388.3474, 56984.33
388.8295, 56784.37
389.3116, 56646.34
389.7938, 56563.70
390.2759, 56500.50
390.7580, 56449.37
391.2401, 56402.29
391.7222, 56350.78
392.2043, 56286.74
392.6865, 56232.13
393.1686, 56197.09
393.6507, 56177.88
394.1328, 56165.59
394.6149, 56157.71
395.0970, 56156.06
395.5792, 56168.05
396.0613, 56203.05
396.5434, 56212.41
397.0255, 56171.45
397.5076, 56108.02
397.9897, 56052.21
398.4719, 55982.88
398.9540, 55947.36
399.4361, 55970.94
399.9182, 56052.31
400.4003, 56095.36
400.8824, 56081.56
401.3646, 56048.01
401.8467, 56011.38
402.3288, 55944.21
402.8109, 55948.26
403.2930, 56068.45
403.7751, 56250.89
404.2573, 56323.79
404.7394, 56250.40
405.2215, 56176.62
405.7036, 56195.63
406.1857, 56316.14
406.6678, 56344.80
407.1500, 56253.71
407.6321, 56131.79
408.1142, 56108.59
408.5963, 56181.77
409.0784, 56275.83
409.5605, 56373.68
410.0427, 56469.89
410.5248, 56551.30
411.0069, 56618.41
411.4890, 56668.92
411.9711, 56690.34
412.4532, 56693.27
412.9354, 56701.74
413.4175, 56719.25
413.8996, 56748.32
414.3817, 56799.74
414.8638, 56867.54
415.3459, 56930.84
415.8281, 56956.90
416.3102, 56982.42
416.7923, 57044.09
417.2744, 57149.91
417.7565, 57277.20
418.2386, 57452.55
418.7208, 57633.44
419.2029, 57751.47
419.6850, 57710.44
420.1671, 57667.70
420.6492, 57695.77
421.1313, 57801.11
421.6135, 57907.00
422.0956, 58006.12
422.5777, 58094.86
423.0598, 58171.97
423.5420, 58231.14
424.0241, 58284.56
424.5062, 58329.53
424.9883, 58369.14
425.4704, 58415.70
425.9525, 58477.82
426.4347, 58537.40
426.9168, 58586.79
427.3989, 58624.89
427.8810, 58658.86
428.3631, 58693.19
428.8452, 58718.68
429.3274, 58724.36
429.8095, 58712.37
430.2916, 58669.68
430.7737, 58586.14
431.2558, 58467.73
431.7379, 58346.53
432.2201, 58222.21
432.7022, 58100.16
433.1843, 57980.47
433.6664, 57866.04
434.1485, 57769.05
434.6306, 57694.89
435.1128, 57634.20
435.5949, 57578.36
436.0770, 57525.54
436.5591, 57463.94
437.0412, 57384.47
437.5233, 57293.90
438.0055, 57197.14
438.4876, 57092.50
438.9697, 56998.60
439.4518, 56936.83
439.9339, 56894.59
440.4160, 56853.73
440.8982, 56787.65
441.3803, 56738.13
441.8624, 56747.31
442.3445, 56805.63
442.8266, 56831.35
443.3087, 56764.72
443.7909, 56674.18
444.2730, 56602.79
444.7551, 56538.08
445.2372, 56521.41
445.7193, 56585.86
446.2014, 56700.75
446.6836, 56797.75
447.1657, 56895.06
447.6478, 56952.70
448.1299, 56951.05
448.6120, 56880.53
449.0941, 56817.18
449.5763, 56759.39
450.0584, 56711.45
450.5405, 56677.22
451.0226, 56655.27
451.5047, 56654.50
451.9868, 56685.93
452.4690, 56734.91
452.9511, 56743.84
453.4332, 56707.38
453.9153, 56677.63
454.3974, 56694.89
454.8795, 56750.44
455.3617, 56794.86
455.8438, 56824.60
456.3259, 56846.11
456.8080, 56874.96
457.2901, 56903.65
457.7722, 56909.79
458.2544, 56867.52
458.7365, 56767.59
459.2186, 56837.91
459.7007, 56877.37
460.1828, 56887.61
460.6649, 56781.14
461.1471, 56825.38
461.6292, 56809.22
462.1113, 56790.59
462.5934, 56856.04
463.0755, 56766.54
463.5576, 56830.66
464.0398, 56833.46
464.5219, 56864.32
465.0040, 56834.41
465.4861, 56823.28
465.9682, 56872.93
466.4503, 56888.92
466.9325, 56852.02
467.4146, 56884.66
467.8967, 56793.05
468.3788, 56810.48
468.8609, 56825.41
469.3430, 56867.71
469.8252, 56917.36
470.3073, 56928.88
470.7894, 56887.96
471.2715, 56848.40
471.7536, 56836.36
472.2357, 56852.65
472.7179, 56880.13
473.2000, 56924.25
473.6821, 56962.18
474.1642, 56946.26
474.6463, 56887.59
475.1284, 56873.34
475.6106, 56959.55
476.0927, 57079.64
476.5748, 57100.88
477.0569, 57036.03
477.5390, 56973.86
478.0211, 56982.64
478.5033, 57025.95
478.9854, 57059.48
479.4675, 57075.47
479.9496, 57084.57
480.4317, 57091.95
480.9138, 57097.17
481.3960, 57099.64
481.8781, 57096.05
482.3602, 57092.55
482.8423, 57092.50
483.3244, 57095.70
483.8065, 57097.03
484.2887, 57090.58
484.7708, 57085.43
485.2529, 57030.10
485.7350, 57112.92
486.2171, 57164.88
486.6992, 57187.62
487.1814, 57093.66
487.6635, 57150.40
488.1456, 57146.74
488.6277, 57140.61
489.1098, 57218.56
489.5919, 57141.57
490.0741, 57218.19
490.5562, 57233.49
491.0383, 57276.86
491.5204, 57259.45
492.0026, 57260.82
492.4847, 57322.97
492.9668, 57351.46
493.4489, 57327.06
493.9310, 57372.21
494.4131, 57293.10
494.8953, 57323.03
495.3774, 57400.00
495.8595, 57378.66
496.3416, 57424.92
496.8237, 57445.43
497.3058, 57348.93
497.7880, 57455.93
498.2701, 57474.92
498.7522, 57403.55
499.2343, 57503.57
499.7164, 57444.66
500.1985, 57548.92
500.6807, 57609.10
501.1628, 57657.46
501.6449, 57690.35
502.1270, 57719.29
502.6091, 57747.48
503.0912, 57775.16
503.5734, 57803.55
504.0555, 57840.75
504.5376, 57870.20
505.0197, 57873.55
505.5018, 57836.92
505.9839, 57822.74
506.4661, 57845.32
506.9482, 57888.17
507.4303, 57897.04
507.9124, 57866.39
508.3945, 57871.50
508.8766, 57978.30
509.3588, 58153.98
509.8409, 58268.86
510.3230, 58319.70
510.8051, 58354.84
511.2872, 58410.36
511.7693, 58483.50
512.2515, 58570.35
512.7336, 58680.83
513.2157, 58786.88
513.6978, 58864.94
514.1799, 58920.45
514.6620, 58966.99
515.1442, 58982.74
515.6263, 59013.90
516.1084, 59103.19
516.5905, 59264.09
517.0726, 59379.98
517.5547, 59365.44
518.0369, 59329.06
518.5190, 59359.18
519.0011, 59533.19
519.4832, 59661.98
519.9653, 59710.69
520.4474, 59715.14
520.9296, 59777.14
521.4117, 59935.28
521.8938, 60049.31
522.3759, 60048.54
522.8580, 59939.89
523.3401, 59888.46
523.8223, 59905.62
524.3044, 59921.46
524.7865, 59859.85
525.2686, 59737.17
525.7507, 59631.65
526.2328, 59569.98
526.7150, 59501.82
527.1971, 59334.38
527.6792, 59100.01
528.1613, 58903.17
528.6434, 58818.24
529.1255, 58770.96
529.6077, 58700.47
530.0898, 58605.17
530.5719, 58517.77
531.0540, 58451.96
531.5361, 58399.68
532.0182, 58356.20
532.5004, 58336.50
532.9825, 58300.40
533.4646, 58222.96
533.9467, 58129.89
534.4288, 58066.73
534.9109, 58036.05
535.3931, 58031.80
535.8752, 58061.58
536.3573, 58121.88
536.8394, 58163.54
537.3215, 58186.13
537.8036, 58192.32
538.2858, 58186.60
538.7679, 58168.36
539.2500, 58112.39
539.7321, 58002.83
540.2142, 57902.45
540.6964, 57927.81
541.1785, 58039.54
541.6606, 58102.64
542.1427, 58007.10
542.6248, 57883.68
543.1069, 57910.75
543.5891, 58055.08
544.0712, 58151.46
544.5533, 58031.16
545.0354, 57880.70
545.5175, 57849.64
545.9996, 57993.94
546.4818, 58112.09
546.9639, 58118.59
547.4460, 58083.51
547.9281, 58083.36
548.4102, 58156.25
548.8923, 58222.36
549.3745, 58283.55
549.8566, 58332.20
550.3387, 58330.02
550.8208, 58245.33
551.3029, 58188.30
551.7850, 58216.72
552.2672, 58327.58
552.7493, 58431.86
553.2314, 58530.73
553.7135, 58617.00
554.1956, 58689.73
554.6777, 58745.02
555.1599, 58763.68
555.6420, 58731.01
556.1241, 58684.12
556.6062, 58654.70
557.0883, 58644.20
557.5704, 58655.45
558.0526, 58721.80
558.5347, 58784.92
559.0168, 58792.50
559.4989, 58746.61
559.9810, 58726.50
560.4631, 58771.59
560.9453, 58841.08
561.4274, 58911.91
561.9095, 58993.26
562.3916, 59052.73
562.8737, 59073.07
563.3558, 59081.39
563.8380, 59117.54
564.3201, 59193.87
564.8022, 59264.30
565.2843, 59320.91
565.7664, 59364.41
566.2485, 59390.92
566.7307, 59398.88
567.2128, 59413.27
567.6949, 59465.18
568.1770, 59535.43
568.6591, 59557.65
569.1412, 59525.66
569.6234, 59490.96
570.1055, 59518.39
570.5876, 59567.84
571.0697, 59576.07
571.5518, 59502.34
572.0339, 59420.80
572.5161, 59383.59
572.9982, 59368.29
573.4803, 59325.82
573.9624, 59210.32
574.4445, 59096.18
574.9266, 59010.86
575.4088, 58955.17
575.8909, 58905.92
576.3730, 58868.02
576.8551, 58831.16
577.3372, 58787.24
577.8193, 58733.01
578.3015, 58684.63
578.7836, 58637.13
579.2657, 58605.48
579.7478, 58628.29
580.2299, 58697.96
580.7120, 58729.62
581.1942, 58679.43
581.6763, 58597.82
582.1584, 58558.07
582.6405, 58557.70
583.1226, 58584.09
583.6047, 58663.54
584.0869, 58744.79
584.5690, 58783.40
585.0511, 58775.06
585.5332, 58741.89
586.0153, 58658.39
586.4974, 58573.72
586.9796, 58528.45
587.4617, 58574.99
587.9438, 58595.32
588.4259, 58577.69
588.9080, 58534.73
589.3901, 58485.64
589.8723, 58427.95
590.3544, 58369.54
590.8365, 58304.61
591.3186, 58241.89
591.8007, 58227.42
592.2828, 58263.49
592.7650, 58319.39
593.2471, 58396.65
593.7292, 58477.64
594.2113, 58501.67
594.6934, 58461.93
595.1755, 58414.02
595.6577, 58411.81
596.1398, 58429.06
596.6219, 58428.35
597.1040, 58384.10
597.5862, 58344.50
598.0683, 58328.47
598.5504, 58333.14
599.0325, 58352.33
599.5146, 58426.82
599.9968, 58470.24
600.4789, 58441.68
600.9610, 58348.52
601.4431, 58306.07
601.9252, 58335.47
602.4073, 58378.70
602.8895, 58412.55
603.3716, 58439.01
603.8537, 58417.30
604.3358, 58335.68
604.8179, 58249.04
605.3000, 58226.74
605.7822, 58253.24
606.2643, 58266.18
606.7464, 58240.29
607.2285, 58216.39
607.7106, 58247.70
608.1927, 58314.83
608.6749, 58373.04
609.1570, 58415.64
609.6391, 58431.09
610.1212, 58399.65
610.6033, 58325.44
611.0854, 58262.81
611.5676, 58221.35
612.0497, 58195.91
612.5318, 58183.31
613.0139, 58181.66
613.4960, 58204.77
613.9781, 58271.26
614.4603, 58334.33
614.9424, 58339.64
615.4245, 58283.98
615.9066, 58223.46
616.3887, 58163.40
616.8708, 58109.04
617.3530, 58059.88
617.8351, 58021.49
618.3172, 58014.94
618.7993, 58101.82
619.2814, 58190.41
619.7635, 58157.78
620.2457, 58027.44
620.7278, 57937.08
621.2099, 57974.32
621.6920, 58056.30
622.1741, 58146.02
622.6563, 58254.44
623.1384, 58308.08
623.6205, 58264.97
624.1026, 58191.18
624.5847, 58137.07
625.0668, 58108.44
625.5490, 58081.90
626.0311, 58051.57
626.5132, 58028.36
626.9953, 58038.89
627.4774, 58082.44
627.9595, 58121.45
628.4417, 58153.59
628.9238, 58164.10
629.4059, 58100.13
629.8880, 57979.03
630.3701, 57887.92
630.8522, 57902.64
631.3344, 57954.43
631.8165, 57985.12
632.2986, 57988.95
632.7807, 58000.01
633.2628, 58043.56
633.7449, 58090.66
634.2271, 58120.84
634.7092, 58137.59
635.1913, 58125.58
635.6734, 58055.79
636.1555, 57981.04
636.6376, 57977.55
637.1198, 58060.53
637.6019, 58143.82
638.0840, 58222.82
638.5661, 58278.84
639.0482, 58250.03
639.5303, 58147.28
640.0125, 58053.53
640.4946, 58020.34
640.9767, 58017.26
641.4588, 58006.54
641.9409, 57989.25
642.4230, 57979.98
642.9052, 58018.95
643.3873, 58046.58
643.8694, 58006.29
644.3515, 57855.07
644.8336, 57762.61
645.3157, 57796.45
645.7979, 57870.92
646.2800, 57917.16
646.7621, 57913.85
647.2442, 57940.93
647.7263, 58016.94
648.2084, 58110.73
648.6906, 58169.23
649.1727, 58192.15
649.6548, 58182.88
650.1369, 58128.61
650.6190, 58056.26
651.1011, 58004.99
651.5833, 57974.20
652.0654, 57959.77
652.5475, 57964.49
653.0296, 57980.87
653.5117, 58012.82
653.9938, 58059.99
654.4760, 58083.73
654.9581, 58049.09
655.4402, 58003.91
655.9223, 57980.65
656.4044, 57998.44
656.8865, 57983.49
657.3687, 57910.06
657.8508, 57836.25
658.3329, 57838.45
658.8150, 57923.27
659.2971, 57982.81
659.7792, 57993.61
660.2614, 57984.35
660.7435, 58015.96
661.2256, 58071.00
661.7077, 58086.83
662.1898, 57995.21
662.6719, 57887.75
663.1541, 57841.55
663.6362, 57847.75
664.1183, 57872.84
664.6004, 57934.97
665.0825, 57984.53
