##NAMES=Jadeite
##RRUFFID=R070117
##IDEAL CHEMISTRY=NaAlSi_2_O_6_
##LOCALITY=Tawmaw (Tawhmaw; Taw Maw), Myitkyina-Mogaung District, Kachin State, Myanmar (Burma)
##OWNER=RRUFF
##SOURCE=Michael Scott
##DESCRIPTION=Green massive
##STATUS=The identification of this mineral is confirmed by single-crystal X-ray diffraction and chemical analysis.
##URL=rruff.info/R070117
##MEASURED CHEMISTRY=Na_1.00_(Al_0.86_Cr_0.09_Fe^3+^_0.05_)_Î£=1_Si_2.00_O_6_
196.5202, 72419.95
197.0023, 72536.08
197.4844, 72633.11
197.9665, 72682.54
198.4487, 72680.94
198.9308, 72701.92
199.4129, 72856.54
199.8950, 73175.48
200.3771, 73433.82
200.8592, 73548.71
201.3414, 73615.45
201.8235, 73671.36
202.3056, 73723.96
202.7877, 73777.81
203.2698, 73845.16
203.7519, 73931.47
204.2341, 73985.97
204.7162, 73967.38
205.1983, 73942.24
205.6804, 73940.57
206.1625, 73964.31
206.6446, 74000.69
207.1267, 74048.60
207.6089, 74111.49
208.0910, 74138.93
208.5731, 74100.38
209.0552, 74049.13
209.5373, 74001.57
210.0194, 73960.95
210.5016, 73930.23
210.9837, 73908.65
211.4658, 73896.06
211.9479, 73908.12
212.4300, 73969.55
212.9121, 74030.98
213.3943, 74070.16
213.8764, 74093.13
214.3585, 74114.98
214.8406, 74137.06
215.3227, 74163.96
215.8048, 74243.70
216.2870, 74430.40
216.7691, 74602.19
217.2512, 74719.41
217.7333, 74791.01
218.2154, 74831.70
218.6975, 74840.97
219.1797, 74830.13
219.6618, 74844.92
220.1439, 74875.91
220.6260, 74953.52
221.1081, 75127.91
221.5902, 75335.66
222.0724, 75492.09
222.5545, 75549.17
223.0366, 75540.48
223.5187, 75558.48
224.0008, 75629.98
224.4829, 75673.70
224.9651, 75654.23
225.4472, 75606.77
225.9293, 75565.65
226.4114, 75543.77
226.8935, 75532.12
227.3756, 75511.53
227.8578, 75473.52
228.3399, 75450.29
228.8220, 75452.51
229.3041, 75468.78
229.7862, 75498.69
230.2683, 75541.74
230.7505, 75577.99
231.2326, 75570.29
231.7147, 75500.99
232.1968, 75462.95
232.6789, 75500.55
233.1610, 75553.98
233.6432, 75582.51
234.1253, 75583.52
234.6074, 75593.24
235.0895, 75673.91
235.5716, 75840.80
236.0537, 75922.23
236.5358, 75807.07
237.0180, 75682.44
237.5001, 75633.33
237.9822, 75660.98
238.4643, 75734.68
238.9464, 75856.50
239.4285, 76023.03
239.9107, 76125.23
240.3928, 76113.87
240.8749, 76092.22
241.3570, 76107.05
241.8391, 76151.53
242.3212, 76206.31
242.8034, 76268.28
243.2855, 76331.05
243.7676, 76367.26
244.2497, 76369.97
244.7318, 76355.36
245.2139, 76317.88
245.6961, 76272.76
246.1782, 76243.69
246.6603, 76245.19
247.1424, 76265.35
247.6245, 76283.88
248.1066, 76305.98
248.5888, 76310.48
249.0709, 76254.95
249.5530, 76191.52
250.0351, 76185.18
250.5172, 76269.47
250.9993, 76370.20
251.4815, 76383.74
251.9636, 76298.66
252.4457, 76211.73
252.9278, 76129.01
253.4099, 76074.34
253.8920, 76073.24
254.3742, 76131.50
254.8563, 76218.30
255.3384, 76330.16
255.8205, 76462.79
256.3026, 76534.83
256.7847, 76491.08
257.2668, 76419.25
257.7490, 76399.20
258.2311, 76429.12
258.7132, 76463.73
259.1953, 76471.05
259.6774, 76460.28
260.1595, 76464.05
260.6417, 76486.76
261.1238, 76523.95
261.6059, 76590.31
262.0880, 76672.73
262.5701, 76720.95
263.0522, 76685.68
263.5344, 76613.16
264.0165, 76587.80
264.4986, 76621.56
264.9807, 76658.19
265.4628, 76652.23
265.9449, 76621.80
266.4271, 76604.80
266.9092, 76612.84
267.3913, 76633.09
267.8734, 76668.95
268.3555, 76718.67
268.8376, 76725.14
269.3198, 76626.68
269.8019, 76483.17
270.2840, 76431.57
270.7661, 76519.85
271.2482, 76614.01
271.7303, 76621.05
272.2125, 76566.88
272.6946, 76544.26
273.1767, 76599.00
273.6588, 76676.74
274.1409, 76678.52
274.6230, 76593.23
275.1052, 76510.23
275.5873, 76446.17
276.0694, 76404.82
276.5515, 76396.95
277.0336, 76426.81
277.5157, 76474.02
277.9979, 76523.41
278.4800, 76578.22
278.9621, 76596.02
279.4442, 76529.28
279.9263, 76452.70
280.4084, 76434.57
280.8906, 76476.90
281.3727, 76535.82
281.8548, 76576.66
282.3369, 76600.42
282.8190, 76640.25
283.3011, 76723.12
283.7833, 76794.08
284.2654, 76826.88
284.7475, 76826.88
285.2296, 76801.56
285.7117, 76747.93
286.1938, 76684.80
286.6760, 76687.27
287.1581, 76820.91
287.6402, 76934.27
288.1223, 77009.60
288.6044, 77051.58
289.0865, 77063.57
289.5687, 77046.88
290.0508, 77007.05
290.5329, 76951.05
291.0150, 76856.01
291.4971, 76791.70
291.9792, 76793.77
292.4614, 76798.08
292.9435, 76743.82
293.4256, 76634.72
293.9077, 76533.10
294.3898, 76509.63
294.8719, 76581.54
295.3541, 76601.77
295.8362, 76522.20
296.3183, 76442.68
296.8004, 76398.77
297.2825, 76382.23
297.7646, 76368.32
298.2468, 76340.72
298.7289, 76302.97
299.2110, 76270.48
299.6931, 76213.27
300.1752, 76207.88
300.6573, 76321.05
301.1395, 76465.20
301.6216, 76536.73
302.1037, 76496.02
302.5858, 76410.55
303.0679, 76406.38
303.5500, 76523.13
304.0321, 76598.43
304.5143, 76557.98
304.9964, 76509.16
305.4785, 76525.87
305.9606, 76609.83
306.4427, 76697.29
306.9248, 76731.58
307.4070, 76713.80
307.8891, 76680.77
308.3712, 76618.72
308.8533, 76560.94
309.3354, 76512.20
309.8175, 76479.99
310.2997, 76483.56
310.7818, 76562.91
311.2639, 76670.16
311.7460, 76696.70
312.2281, 76625.25
312.7102, 76539.25
313.1924, 76467.86
313.6745, 76410.02
314.1566, 76364.84
314.6387, 76330.16
315.1208, 76312.76
315.6029, 76342.52
316.0851, 76408.34
316.5672, 76416.83
317.0493, 76314.78
317.5314, 76172.22
318.0135, 76078.26
318.4956, 76031.48
318.9778, 76016.25
319.4599, 76061.80
319.9420, 76124.26
320.4241, 76116.13
320.9062, 76017.02
321.3883, 75919.45
321.8705, 75920.52
322.3526, 76019.81
322.8347, 76083.14
323.3168, 76078.69
323.7989, 76058.20
324.2810, 76048.98
324.7632, 76052.93
325.2453, 76071.50
325.7274, 76108.30
326.2095, 76157.67
326.6916, 76195.04
327.1737, 76210.77
327.6559, 76228.20
328.1380, 76265.87
328.6201, 76302.28
329.1022, 76302.13
329.5843, 76255.64
330.0664, 76196.03
330.5486, 76175.63
331.0307, 76215.14
331.5128, 76243.70
331.9949, 76274.54
332.4770, 76284.98
332.9591, 76254.05
333.4413, 76187.70
333.9234, 76107.37
334.4055, 76024.45
334.8876, 75940.92
335.3697, 75907.02
335.8518, 76005.97
336.3340, 76057.70
336.8161, 75986.67
337.2982, 75860.07
337.7803, 75767.70
338.2624, 75749.09
338.7445, 75772.34
339.2267, 75781.04
339.7088, 75774.63
340.1909, 75755.00
340.6730, 75729.38
341.1551, 75685.10
341.6372, 75585.11
342.1194, 75438.19
342.6015, 75332.25
343.0836, 75380.41
343.5657, 75552.27
344.0478, 75630.55
344.5299, 75558.36
345.0121, 75472.25
345.4942, 75462.13
345.9763, 75502.02
346.4584, 75540.97
346.9405, 75566.54
347.4226, 75579.07
347.9048, 75573.99
348.3869, 75551.44
348.8690, 75530.18
349.3511, 75516.28
349.8332, 75510.45
350.3153, 75518.70
350.7975, 75555.90
351.2796, 75563.36
351.7617, 75468.80
352.2438, 75338.57
352.7259, 75307.30
353.2080, 75411.94
353.6902, 75540.27
354.1723, 75564.66
354.6544, 75462.17
355.1365, 75390.79
355.6186, 75357.98
356.1007, 75349.64
356.5829, 75382.60
357.0650, 75436.52
357.5471, 75444.70
358.0292, 75357.16
358.5113, 75207.16
358.9934, 75147.52
359.4755, 75289.99
359.9576, 75388.52
360.4398, 75419.43
360.9219, 75399.21
361.4040, 75328.95
361.8861, 75215.48
362.3682, 75094.13
362.8503, 75008.20
363.3325, 74957.61
363.8146, 74944.05
364.2967, 75012.79
364.7788, 75076.34
365.2609, 75109.01
365.7430, 75109.37
366.2252, 75079.27
366.7073, 75012.99
367.1894, 74924.38
367.6715, 74850.02
368.1536, 74784.05
368.6357, 74749.20
369.1179, 74781.99
369.6000, 74833.88
370.0821, 74859.87
370.5642, 74849.59
371.0463, 74834.63
371.5284, 74837.03
372.0106, 74856.87
372.4927, 74899.52
372.9748, 74979.23
373.4569, 75056.12
373.9390, 75099.67
374.4211, 75112.43
374.9033, 75092.68
375.3854, 75015.39
375.8675, 74922.27
376.3496, 74847.09
376.8317, 74790.97
377.3138, 74761.23
377.7960, 74775.49
378.2781, 74807.71
378.7602, 74767.04
379.2423, 74587.60
379.7244, 74461.25
380.2065, 74471.13
380.6887, 74537.97
381.1708, 74566.47
381.6529, 74536.68
382.1350, 74493.38
382.6171, 74491.48
383.0992, 74546.02
383.5814, 74552.30
384.0635, 74474.53
384.5456, 74393.16
385.0277, 74337.26
385.5098, 74300.70
385.9919, 74268.03
386.4741, 74231.21
386.9562, 74191.98
387.4383, 74155.39
387.9204, 74124.69
388.4025, 74089.24
388.8846, 74022.84
389.3668, 73969.51
389.8489, 73973.29
390.3310, 74031.07
390.8131, 74084.54
391.2952, 74064.48
391.7773, 73989.67
392.2595, 73979.91
392.7416, 74064.38
393.2237, 74157.43
393.7058, 74218.40
394.1879, 74252.76
394.6700, 74263.64
395.1522, 74241.05
395.6343, 74211.96
396.1164, 74205.08
396.5985, 74213.99
397.0806, 74209.76
397.5627, 74184.53
398.0449, 74139.82
398.5270, 74062.55
399.0091, 73940.89
399.4912, 73873.52
399.9733, 73930.06
400.4554, 74007.94
400.9376, 74014.77
401.4197, 73953.88
401.9018, 73882.30
402.3839, 73838.36
402.8660, 73817.96
403.3481, 73797.87
403.8303, 73797.98
404.3124, 73773.22
404.7945, 73697.75
405.2766, 73606.08
405.7587, 73534.13
406.2408, 73489.99
406.7230, 73454.12
407.2051, 73398.57
407.6872, 73317.11
408.1693, 73263.70
408.6514, 73266.43
409.1335, 73268.26
409.6157, 73252.90
410.0978, 73221.32
410.5799, 73170.27
411.0620, 73086.00
411.5441, 73008.30
412.0262, 73013.86
412.5083, 73110.27
412.9904, 73187.89
413.4726, 73212.56
413.9547, 73208.50
414.4368, 73197.82
414.9189, 73180.31
415.4010, 73178.08
415.8831, 73221.24
416.3653, 73274.91
416.8474, 73286.62
417.3295, 73253.55
417.8116, 73214.38
418.2937, 73192.98
418.7758, 73186.62
419.2580, 73181.16
419.7401, 73188.92
420.2222, 73182.40
420.7043, 73133.50
421.1864, 73076.07
421.6685, 73055.87
422.1507, 73082.41
422.6328, 73129.10
423.1149, 73173.05
423.5970, 73226.74
424.0791, 73195.88
424.5612, 72978.19
425.0434, 72784.09
425.5255, 72677.26
426.0076, 72638.28
426.4897, 72633.55
426.9718, 72650.89
427.4539, 72678.04
427.9361, 72704.74
428.4182, 72739.39
428.9003, 72718.15
429.3824, 72583.88
429.8645, 72431.41
430.3466, 72313.88
430.8288, 72235.54
431.3109, 72207.23
431.7930, 72280.33
432.2751, 72385.06
432.7572, 72408.55
433.2393, 72349.21
433.7215, 72281.66
434.2036, 72240.58
434.6857, 72218.67
435.1678, 72198.33
435.6499, 72182.91
436.1320, 72161.48
436.6142, 72135.06
437.0963, 72099.28
437.5784, 72034.25
438.0605, 71944.63
438.5426, 71880.36
439.0247, 71891.08
439.5069, 71975.76
439.9890, 72033.33
440.4711, 72055.84
440.9532, 72058.91
441.4353, 72039.95
441.9174, 72004.91
442.3996, 71954.80
442.8817, 71891.28
443.3638, 71829.17
443.8459, 71789.56
444.3280, 71773.95
444.8102, 71754.04
445.2923, 71718.88
445.7744, 71693.17
446.2565, 71706.24
446.7386, 71736.27
447.2207, 71736.43
447.7029, 71683.34
448.1850, 71605.77
448.6671, 71516.33
449.1492, 71422.27
449.6313, 71365.34
450.1134, 71363.93
450.5956, 71392.66
451.0777, 71425.00
451.5598, 71465.01
452.0419, 71477.77
452.5240, 71438.47
453.0061, 71389.20
453.4883, 71360.92
453.9704, 71348.42
454.4525, 71329.55
454.9346, 71291.66
455.4167, 71242.09
455.8988, 71202.80
456.3810, 71185.39
456.8631, 71157.42
457.3452, 71101.63
457.8273, 71049.30
458.3094, 71021.80
458.7915, 71017.91
459.2737, 71024.48
459.7558, 71041.36
460.2379, 71057.10
460.7200, 71023.37
461.2021, 70918.86
461.6842, 70844.30
462.1664, 70864.13
462.6485, 70917.29
463.1306, 70935.54
463.6127, 70911.45
464.0948, 70876.95
464.5769, 70836.95
465.0591, 70800.48
465.5412, 70788.86
466.0233, 70802.92
466.5054, 70807.63
466.9875, 70772.73
467.4696, 70708.17
467.9517, 70675.98
468.4338, 70695.63
468.9160, 70717.64
469.3981, 70765.58
469.8802, 70794.07
470.3623, 70732.05
470.8444, 70581.90
471.3265, 70436.59
471.8087, 70397.94
472.2908, 70463.34
472.7729, 70497.21
473.2550, 70489.88
473.7371, 70463.45
474.2192, 70433.16
474.7014, 70386.43
475.1835, 70291.10
475.6656, 70132.67
476.1477, 70002.60
476.6298, 70020.26
477.1119, 70139.02
477.5941, 70174.26
478.0762, 70088.37
478.5583, 69977.67
479.0404, 69904.66
479.5225, 69869.88
480.0046, 69861.12
480.4868, 69902.63
480.9689, 69942.41
481.4510, 69968.16
481.9331, 69976.15
482.4152, 69958.38
482.8973, 69913.65
483.3795, 69850.65
483.8616, 69775.03
484.3437, 69682.05
484.8258, 69619.73
485.3079, 69618.41
485.7900, 69615.80
486.2722, 69575.58
486.7543, 69534.05
487.2364, 69554.32
487.7185, 69658.37
488.2006, 69762.67
488.6827, 69749.20
489.1649, 69630.22
489.6470, 69570.78
490.1291, 69617.24
490.6112, 69663.18
491.0933, 69601.02
491.5754, 69478.90
492.0576, 69417.34
492.5397, 69475.88
493.0218, 69545.06
493.5039, 69580.34
493.9860, 69578.75
494.4681, 69518.98
494.9503, 69396.02
495.4324, 69266.63
495.9145, 69196.24
496.3966, 69191.73
496.8787, 69179.66
497.3608, 69168.29
497.8430, 69140.55
498.3251, 69068.16
498.8072, 68986.21
499.2893, 68947.38
499.7714, 68967.09
500.2535, 68995.26
500.7357, 68961.76
501.2178, 68868.60
501.6999, 68802.57
502.1820, 68771.33
502.6641, 68762.32
503.1462, 68793.77
503.6284, 68837.53
504.1105, 68840.03
504.5926, 68779.30
505.0747, 68700.42
505.5568, 68608.48
506.0389, 68522.80
506.5211, 68490.77
507.0032, 68521.62
507.4853, 68562.08
507.9674, 68562.22
508.4495, 68521.95
508.9316, 68467.63
509.4138, 68348.81
509.8959, 68277.71
510.3780, 68314.83
510.8601, 68392.74
511.3422, 68441.66
511.8243, 68444.38
512.3065, 68423.06
512.7886, 68397.92
513.2707, 68368.77
513.7528, 68331.65
514.2349, 68279.51
514.7170, 68235.92
515.1992, 68218.38
515.6813, 68214.66
516.1634, 68213.16
516.6455, 68218.66
517.1276, 68204.62
517.6097, 68135.17
518.0919, 68047.26
518.5740, 68000.27
519.0561, 67998.75
519.5382, 68004.03
520.0203, 67986.32
520.5024, 67952.44
520.9846, 67940.69
521.4667, 68018.47
521.9488, 68028.72
522.4309, 67917.80
522.9130, 67768.60
523.3951, 67620.71
523.8773, 67495.34
524.3594, 67430.20
524.8415, 67474.52
525.3236, 67588.27
525.8057, 67644.73
526.2878, 67634.38
526.7700, 67614.45
527.2521, 67596.23
527.7342, 67584.19
528.2163, 67594.13
528.6984, 67629.30
529.1805, 67627.13
529.6627, 67515.23
530.1448, 67397.81
530.6269, 67396.50
531.1090, 67481.36
531.5911, 67519.43
532.0732, 67441.30
532.5554, 67310.80
533.0375, 67263.82
533.5196, 67358.34
534.0017, 67405.17
534.4838, 67385.65
534.9659, 67341.05
535.4481, 67267.98
535.9302, 67186.95
536.4123, 67143.67
536.8944, 67172.53
537.3765, 67199.70
537.8586, 67085.49
538.3408, 66850.20
538.8229, 66741.81
539.3050, 66845.74
539.7871, 66984.92
540.2692, 67004.86
540.7513, 66915.67
541.2335, 66819.77
541.7156, 66681.38
542.1977, 66583.07
542.6798, 66607.14
543.1619, 66672.16
543.6440, 66640.30
544.1262, 66491.31
544.6083, 66353.04
545.0904, 66376.45
545.5725, 66555.12
546.0546, 66618.47
546.5367, 66490.27
547.0189, 66370.16
547.5010, 66329.70
547.9831, 66314.09
548.4652, 66262.92
548.9473, 66167.59
549.4294, 66092.65
549.9115, 66093.22
550.3936, 66133.92
550.8757, 66162.09
551.3578, 66174.20
551.8400, 66165.14
552.3221, 66128.95
552.8042, 66075.45
553.2863, 66024.90
553.7684, 65968.66
554.2505, 65934.60
554.7327, 65941.03
555.2148, 65953.12
555.6969, 65961.14
556.1790, 65956.83
556.6611, 65918.27
557.1432, 65828.57
557.6254, 65736.03
558.1075, 65743.55
558.5896, 65859.12
559.0717, 65911.70
559.5538, 65846.98
560.0359, 65765.35
560.5181, 65763.89
561.0002, 65807.79
561.4823, 65798.91
561.9644, 65673.25
562.4465, 65556.37
562.9286, 65523.08
563.4108, 65535.01
563.8929, 65531.75
564.3750, 65503.40
564.8571, 65487.56
565.3392, 65527.71
565.8214, 65612.64
566.3035, 65612.56
566.7856, 65437.83
567.2677, 65325.91
567.7498, 65390.52
568.2319, 65475.97
568.7141, 65442.37
569.1962, 65291.00
569.6783, 65145.35
570.1604, 65071.42
570.6425, 65052.28
571.1246, 65087.84
571.6068, 65168.86
572.0889, 65206.59
572.5710, 65159.79
573.0531, 65079.71
573.5352, 65044.19
574.0173, 65073.02
574.4995, 65063.29
574.9816, 64967.86
575.4637, 64886.91
575.9458, 64877.30
576.4279, 64902.98
576.9100, 64906.60
577.3922, 64869.95
577.8743, 64824.80
578.3564, 64812.98
578.8385, 64829.40
579.3206, 64822.88
579.8027, 64782.78
580.2849, 64750.55
580.7670, 64763.88
581.2491, 64791.19
581.7312, 64765.08
582.2133, 64663.48
582.6954, 64578.26
583.1776, 64559.08
583.6597, 64549.24
584.1418, 64478.72
584.6239, 64367.37
585.1060, 64299.37
585.5881, 64323.36
586.0703, 64395.54
586.5524, 64417.03
587.0345, 64367.99
587.5166, 64351.38
587.9987, 64443.49
588.4808, 64485.03
588.9630, 64329.69
589.4451, 64078.28
589.9272, 63949.44
590.4093, 64048.64
590.8914, 64162.13
591.3735, 64125.53
591.8557, 64008.79
592.3378, 63944.46
592.8199, 63948.71
593.3020, 63947.39
593.7841, 63881.54
594.2662, 63767.78
594.7484, 63689.04
595.2305, 63658.43
595.7126, 63642.37
596.1947, 63664.63
596.6768, 63676.52
597.1589, 63629.51
597.6411, 63542.71
598.1232, 63481.76
598.6053, 63484.35
599.0874, 63517.64
599.5695, 63559.64
600.0516, 63601.11
600.5338, 63591.86
601.0159, 63516.20
601.4980, 63412.97
601.9801, 63304.00
602.4622, 63192.32
602.9443, 63154.46
603.4265, 63264.03
603.9086, 63343.54
604.3907, 63357.61
604.8728, 63332.98
605.3549, 63286.46
605.8370, 63225.41
606.3192, 63157.11
606.8013, 63077.44
607.2834, 63004.34
607.7655, 62993.34
608.2476, 63045.50
608.7297, 63066.51
609.2119, 63021.89
609.6940, 62956.00
610.1761, 62918.14
610.6582, 62908.45
611.1403, 62882.55
611.6224, 62826.04
612.1046, 62768.66
612.5867, 62720.74
613.0688, 62678.61
613.5509, 62631.00
614.0330, 62579.57
614.5151, 62547.39
614.9973, 62563.85
615.4794, 62611.74
615.9615, 62621.46
616.4436, 62587.45
616.9257, 62544.30
617.4078, 62502.38
617.8900, 62455.07
618.3721, 62382.89
618.8542, 62288.73
619.3363, 62229.56
619.8184, 62239.94
620.3005, 62261.11
620.7827, 62263.81
621.2648, 62255.39
621.7469, 62253.12
622.2290, 62259.03
622.7111, 62252.68
623.1932, 62209.34
623.6754, 62135.18
624.1575, 62077.03
624.6396, 62040.68
625.1217, 62001.20
625.6038, 61931.40
626.0859, 61872.66
626.5681, 61880.71
627.0502, 61951.40
627.5323, 61989.92
628.0144, 61942.86
628.4965, 61883.58
628.9786, 61860.86
629.4608, 61861.10
629.9429, 61864.21
630.4250, 61861.92
630.9071, 61839.09
631.3892, 61776.04
631.8713, 61676.66
632.3535, 61576.93
632.8356, 61459.72
633.3177, 61384.25
633.7998, 61393.45
634.2819, 61433.51
634.7640, 61463.91
635.2462, 61482.71
635.7283, 61487.40
636.2104, 61485.36
636.6925, 61461.34
637.1746, 61390.34
637.6567, 61292.07
638.1389, 61199.30
638.6210, 61122.55
639.1031, 61066.79
639.5852, 61039.08
640.0673, 61037.44
640.5494, 61040.43
641.0316, 61061.56
641.5137, 61056.44
641.9958, 60979.72
642.4779, 60897.91
642.9600, 60876.54
643.4421, 60909.47
643.9243, 60923.20
644.4064, 60898.72
644.8885, 60842.07
645.3706, 60713.68
645.8527, 60567.69
646.3348, 60524.44
646.8170, 60604.29
647.2991, 60700.39
647.7812, 60707.43
648.2633, 60638.25
648.7454, 60592.57
649.2275, 60582.59
649.7097, 60564.91
650.1918, 60522.54
650.6739, 60475.52
651.1560, 60434.04
651.6381, 60400.37
652.1202, 60383.45
652.6024, 60426.09
653.0845, 60444.23
653.5666, 60356.39
654.0487, 60221.00
654.5308, 60129.03
655.0129, 60097.36
655.4951, 60092.27
655.9772, 60087.22
656.4593, 60083.88
656.9414, 60093.47
657.4235, 60127.21
657.9056, 60135.61
658.3878, 60097.09
658.8699, 60044.62
659.3519, 60007.63
659.8340, 59978.35
660.3162, 59928.44
660.7983, 59832.34
661.2804, 59743.33
661.7625, 59690.55
662.2446, 59657.83
662.7267, 59636.14
663.2089, 59617.27
663.6910, 59572.47
664.1731, 59475.54
664.6552, 59364.29
665.1373, 59347.00
665.6194, 59444.29
666.1016, 59493.84
666.5837, 59447.52
667.0658, 59397.33
667.5479, 59429.32
668.0300, 59501.61
668.5121, 59512.00
668.9943, 59426.94
669.4764, 59333.74
669.9585, 59250.21
670.4406, 59177.71
670.9227, 59104.91
671.4048, 59044.22
671.8870, 59038.54
672.3691, 59112.49
672.8512, 59205.58
673.3333, 59206.98
673.8154, 59120.53
674.2975, 59084.89
674.7797, 59131.72
675.2618, 59149.77
675.7439, 59046.30
676.2260, 58892.84
676.7081, 58857.68
677.1902, 58988.88
677.6724, 59065.27
678.1545, 59030.64
678.6366, 58960.47
679.1187, 58883.21
679.6008, 58807.04
680.0829, 58738.78
680.5651, 58680.59
681.0472, 58627.22
681.5293, 58561.13
682.0114, 58495.18
682.4935, 58493.22
682.9756, 58560.66
683.4578, 58586.26
683.9399, 58513.52
684.4220, 58408.40
684.9041, 58366.97
685.3862, 58404.49
685.8683, 58408.88
686.3505, 58364.82
686.8326, 58309.37
687.3147, 58232.07
687.7968, 58161.03
688.2789, 58136.73
688.7610, 58155.27
689.2432, 58159.41
689.7253, 58096.75
690.2074, 58013.90
690.6895, 57990.48
691.1716, 58008.29
691.6537, 57981.40
692.1359, 57886.69
