##NAMES=Jadeite
##RRUFFID=R050220
##IDEAL CHEMISTRY=NaAlSi_2_O_6_
##LOCALITY=Clear Creek, San Benito County, California, USA
##OWNER=RRUFF
##SOURCE=Hatt Yoder
##DESCRIPTION=Aggregate of colorless bladed crystals
##STATUS=The identification of this mineral has been confirmed by X-ray diffraction and chemical analysis
##URL=rruff.info/R050220
##MEASURED CHEMISTRY=Na_1.00_Al_1.00_(Si_0.99_Al_0.01_)_2_O_6_
92.35352, 167.7748
92.83563, 166.5952
93.31775, 166.3781
93.79987, 169.2322
94.28198, 171.2419
94.76410, 171.7065
95.24622, 170.9217
95.72833, 169.5454
96.21045, 167.9495
96.69257, 165.9887
97.17468, 164.4070
97.65680, 163.8360
98.13892, 163.5933
98.62103, 163.1851
99.10315, 162.2247
99.58527, 160.6664
100.0674, 158.9579
100.5495, 156.5941
101.0316, 154.7564
101.5137, 153.7590
101.9958, 153.3179
102.4780, 153.0175
102.9601, 152.5536
103.4422, 151.9024
103.9243, 151.4787
104.4064, 151.4746
104.8885, 151.4279
105.3707, 151.0566
105.8528, 150.3711
106.3349, 149.6231
106.8170, 149.0014
107.2991, 148.5007
107.7813, 148.2722
108.2634, 148.5293
108.7455, 148.9836
109.2276, 149.3338
109.7097, 149.5696
110.1918, 149.5278
110.6740, 148.8114
111.1561, 147.4943
111.6382, 146.4268
112.1203, 146.2017
112.6024, 146.7169
113.0845, 147.1738
113.5666, 147.4581
114.0488, 147.5764
114.5309, 147.4160
115.0130, 146.9794
115.4951, 146.6108
115.9772, 146.8762
116.4593, 148.2148
116.9415, 148.9059
117.4236, 148.2165
117.9057, 147.1759
118.3878, 146.4291
118.8699, 146.2334
119.3520, 146.5275
119.8342, 147.1642
120.3163, 148.6848
120.7984, 149.9393
121.2805, 150.7172
121.7626, 151.2107
122.2447, 151.6523
122.7269, 152.1690
123.2090, 152.7590
123.6911, 153.4221
124.1732, 154.2866
124.6553, 155.0792
125.1374, 155.7355
125.6196, 156.2431
126.1017, 156.5601
126.5838, 156.5953
127.0659, 156.3796
127.5480, 156.2771
128.0302, 156.4913
128.5123, 156.7114
128.9944, 156.6125
129.4765, 156.1443
129.9586, 155.5498
130.4407, 154.8827
130.9229, 154.2160
131.4050, 153.7332
131.8871, 153.5615
132.3692, 153.6358
132.8513, 153.7245
133.3334, 153.6886
133.8155, 153.8875
134.2977, 154.6397
134.7798, 155.7723
135.2619, 156.8331
135.7440, 157.3716
136.2261, 157.3076
136.7082, 157.5438
137.1904, 158.3824
137.6725, 159.2907
138.1546, 159.9950
138.6367, 160.5277
139.1188, 161.1260
139.6009, 162.0538
140.0831, 163.2862
140.5652, 165.0108
141.0473, 167.4136
141.5294, 170.0811
142.0115, 172.9784
142.4936, 176.0093
142.9758, 178.7357
143.4579, 180.3917
143.9400, 181.0404
144.4221, 180.2653
144.9042, 177.4372
145.3863, 173.3287
145.8685, 168.6384
146.3506, 163.4642
146.8327, 158.3758
147.3148, 154.7838
147.7969, 152.8912
148.2790, 151.4010
148.7612, 149.7590
149.2433, 148.0957
149.7254, 146.9418
150.2075, 146.7598
150.6896, 147.0233
151.1717, 146.8003
151.6539, 145.9143
152.1360, 144.9409
152.6181, 144.3927
153.1002, 144.2981
153.5823, 144.2677
154.0644, 144.1160
154.5466, 143.9749
155.0287, 144.0049
155.5108, 144.2985
155.9929, 144.6304
156.4750, 144.5130
156.9571, 143.5566
157.4393, 143.0347
157.9214, 143.5376
158.4035, 144.4543
158.8856, 145.2195
159.3677, 145.5695
159.8498, 145.5601
160.3320, 145.3858
160.8141, 144.8585
161.2962, 144.3761
161.7783, 143.8764
162.2604, 143.4803
162.7425, 143.4081
163.2247, 143.8296
163.7068, 144.6778
164.1889, 145.0597
164.6710, 144.4806
165.1531, 143.9883
165.6352, 143.9269
166.1174, 144.1915
166.5995, 144.4897
167.0816, 144.6118
167.5637, 144.5560
168.0458, 144.5189
168.5279, 144.3935
169.0101, 144.3719
169.4922, 144.6060
169.9743, 145.0785
170.4564, 145.6231
170.9385, 146.1910
171.4206, 146.7302
171.9028, 146.9288
172.3849, 146.3713
172.8670, 145.6909
173.3491, 145.5463
173.8312, 146.0260
174.3133, 146.6761
174.7955, 147.0678
175.2776, 147.3377
175.7597, 147.8333
176.2418, 148.9470
176.7239, 150.3050
177.2060, 151.0122
177.6882, 150.5819
178.1703, 150.4816
178.6524, 151.5534
179.1345, 153.5740
179.6166, 156.1665
180.0987, 159.1590
180.5809, 162.5676
181.0630, 166.4588
181.5451, 171.0713
182.0272, 175.9646
182.5093, 181.2818
182.9914, 186.7372
183.4736, 191.7391
183.9557, 195.8202
184.4378, 198.9678
184.9199, 201.5498
185.4020, 203.2819
185.8841, 204.6396
186.3663, 205.3761
186.8484, 205.7694
187.3305, 206.4530
187.8126, 208.0683
188.2947, 210.7895
188.7768, 213.4249
189.2590, 215.2314
189.7411, 217.5773
190.2232, 221.4036
190.7053, 226.5155
191.1874, 231.9300
191.6695, 236.6084
192.1517, 240.3338
192.6338, 244.1597
193.1159, 248.2742
193.5980, 252.3284
194.0801, 255.9038
194.5622, 259.0194
195.0444, 262.2552
195.5265, 266.1174
196.0086, 270.6172
196.4907, 276.4213
196.9728, 283.8055
197.4549, 292.3502
197.9371, 301.1546
198.4192, 310.0398
198.9013, 320.7948
199.3834, 335.5356
199.8655, 354.2973
200.3476, 376.2122
200.8298, 404.4959
201.3119, 434.8491
201.7940, 463.4966
202.2761, 491.5754
202.7582, 511.5464
203.2403, 513.2250
203.7225, 499.7481
204.2046, 477.2611
204.6867, 442.4038
205.1688, 400.2690
205.6509, 362.0179
206.1330, 328.6217
206.6152, 299.8096
207.0973, 275.4010
207.5794, 254.6573
208.0615, 236.4956
208.5436, 219.9632
209.0257, 205.3657
209.5079, 194.3795
209.9900, 188.4588
210.4721, 184.7678
210.9542, 181.8655
211.4363, 179.6221
211.9184, 177.7746
212.4006, 176.1566
212.8827, 174.7708
213.3648, 173.7147
213.8469, 172.9349
214.3290, 172.6184
214.8111, 173.0764
215.2933, 174.0781
215.7754, 175.0513
216.2575, 175.4392
216.7396, 175.1909
217.2217, 175.4111
217.7038, 176.2688
218.1859, 177.4959
218.6681, 178.8847
219.1502, 180.5698
219.6323, 182.9414
220.1144, 186.4686
220.5965, 191.3067
221.0786, 195.5766
221.5608, 200.1723
222.0429, 203.4693
222.5250, 205.2800
223.0071, 205.3169
223.4892, 202.9352
223.9713, 197.3137
224.4535, 187.9638
224.9356, 179.7487
225.4177, 172.2882
225.8998, 166.0126
226.3819, 161.3401
226.8640, 158.0973
227.3462, 155.8135
227.8283, 154.1685
228.3104, 153.2171
228.7925, 152.3049
229.2746, 151.2702
229.7567, 150.4047
230.2389, 149.9205
230.7210, 149.7718
231.2031, 149.7174
231.6852, 149.5285
232.1673, 149.2259
232.6494, 149.3618
233.1316, 150.3033
233.6137, 151.3238
234.0958, 152.0455
234.5779, 152.4641
235.0600, 152.6991
235.5421, 152.7856
236.0243, 152.7463
236.5064, 152.8118
236.9885, 153.1972
237.4706, 153.5111
237.9527, 153.4156
238.4348, 152.9402
238.9170, 152.4613
239.3991, 152.1492
239.8812, 152.0504
240.3633, 152.2135
240.8454, 152.9609
241.3275, 153.6890
241.8097, 153.7725
242.2918, 153.2384
242.7739, 152.8793
243.2560, 153.1834
243.7381, 153.9458
244.2202, 154.7641
244.7024, 155.7568
245.1845, 156.5826
245.6666, 156.7351
246.1487, 156.1903
246.6308, 155.9629
247.1129, 156.8417
247.5951, 158.1315
248.0772, 158.9351
248.5593, 158.9924
249.0414, 158.9119
249.5235, 159.3632
250.0056, 160.3918
250.4878, 161.3207
250.9699, 161.5672
251.4520, 161.8283
251.9341, 162.7776
252.4162, 164.5772
252.8983, 166.6747
253.3805, 168.6275
253.8626, 170.4796
254.3447, 171.8365
254.8268, 172.5036
255.3089, 172.6397
255.7910, 172.3123
256.2732, 171.5317
256.7553, 170.2736
257.2374, 168.3006
257.7195, 165.4659
258.2016, 162.9889
258.6837, 161.3486
259.1659, 159.9376
259.6480, 158.3590
260.1301, 156.6247
260.6122, 155.1337
261.0943, 154.4183
261.5764, 154.6219
262.0586, 154.6534
262.5407, 153.9598
263.0228, 153.4757
263.5049, 153.8169
263.9870, 154.8581
264.4691, 155.9096
264.9513, 156.2036
265.4334, 155.5793
265.9155, 155.4778
266.3976, 156.7405
266.8797, 157.8093
267.3618, 157.7551
267.8440, 156.9413
268.3261, 156.4800
268.8082, 157.4456
269.2903, 159.9097
269.7724, 161.8585
270.2545, 162.5465
270.7367, 163.4037
271.2188, 165.0633
271.7009, 167.2169
272.1830, 169.1290
272.6651, 170.2242
273.1472, 170.5647
273.6294, 171.2740
274.1115, 172.8275
274.5936, 174.2905
275.0757, 175.5534
275.5578, 176.5803
276.0399, 177.2493
276.5221, 177.4315
277.0042, 177.2989
277.4863, 177.8657
277.9684, 179.8692
278.4505, 181.8430
278.9326, 183.6482
279.4148, 185.3258
279.8969, 186.8988
280.3790, 188.3773
280.8611, 189.8723
281.3432, 191.7558
281.8253, 194.6954
282.3075, 197.2412
282.7896, 198.8801
283.2717, 200.2682
283.7538, 202.1043
284.2359, 204.6494
284.7180, 207.6983
285.2002, 210.7830
285.6823, 213.5122
286.1644, 216.8856
286.6465, 221.2690
287.1286, 226.0613
287.6107, 230.8952
288.0929, 235.6309
288.5750, 240.0667
289.0571, 243.9333
289.5392, 247.0133
290.0213, 249.8671
290.5034, 252.9225
290.9856, 255.4682
291.4677, 257.1031
291.9498, 257.7131
292.4319, 257.2083
292.9140, 255.3782
293.3961, 251.8651
293.8783, 248.4216
294.3604, 245.1200
294.8425, 241.8168
295.3246, 238.4279
295.8067, 234.9715
296.2888, 231.5144
296.7710, 228.0444
297.2531, 224.5573
297.7352, 221.8305
298.2173, 220.0671
298.6994, 218.7054
299.1815, 217.5089
299.6637, 216.5143
300.1458, 215.8875
300.6279, 215.7714
301.1100, 216.1049
301.5921, 216.3714
302.0742, 215.8836
302.5564, 216.0940
303.0385, 217.7768
303.5206, 220.3920
304.0027, 222.9372
304.4848, 224.8844
304.9669, 226.5542
305.4491, 228.9622
305.9312, 232.5113
306.4133, 236.2099
306.8954, 240.2198
307.3775, 244.2139
307.8596, 247.9731
308.3418, 251.4286
308.8239, 254.1780
309.3060, 255.4450
309.7881, 254.8127
310.2702, 253.3703
310.7523, 251.2650
311.2345, 248.3057
311.7166, 243.9788
312.1987, 238.2950
312.6808, 232.2305
313.1629, 226.8856
313.6451, 222.4596
314.1272, 218.2470
314.6093, 214.0552
315.0914, 210.2475
315.5735, 206.9957
316.0556, 204.3396
316.5378, 202.3119
317.0199, 200.9747
317.5020, 200.3633
317.9841, 199.9001
318.4662, 199.4378
318.9483, 199.2391
319.4305, 199.5119
319.9126, 200.1569
320.3947, 200.8228
320.8768, 201.2215
321.3589, 201.5557
321.8410, 202.9621
322.3232, 206.4044
322.8053, 209.5981
323.2874, 211.8484
323.7695, 213.5385
324.2516, 215.1865
324.7337, 216.9735
325.2159, 218.9856
325.6980, 221.4504
326.1801, 225.0462
326.6622, 227.8787
327.1443, 229.9476
327.6264, 231.1368
328.1086, 231.4370
328.5907, 230.8177
329.0728, 228.9906
329.5549, 225.4858
330.0370, 219.6853
330.5191, 213.9070
331.0013, 208.1291
331.4834, 202.4113
331.9655, 196.4798
332.4476, 190.5032
332.9297, 185.2870
333.4118, 181.5925
333.8940, 179.5130
334.3761, 177.3119
334.8582, 174.5239
335.3403, 172.1016
335.8224, 170.4319
336.3045, 169.4297
336.7867, 168.8901
337.2688, 168.7488
337.7509, 168.8810
338.2330, 168.6839
338.7151, 167.7681
339.1972, 167.0116
339.6793, 166.5415
340.1614, 166.3015
340.6436, 166.1890
341.1257, 166.1660
341.6078, 166.3221
342.0899, 166.8443
342.5720, 168.0736
343.0541, 169.0999
343.5363, 169.8180
344.0184, 170.4172
344.5005, 171.0105
344.9826, 171.6333
345.4647, 172.2953
345.9468, 172.9848
346.4290, 173.6479
346.9111, 174.6428
347.3932, 175.9540
347.8753, 177.5244
348.3574, 179.4459
348.8395, 181.6158
349.3217, 183.7607
349.8038, 185.6287
350.2859, 187.2994
350.7680, 189.5778
351.2501, 192.4113
351.7322, 195.9634
352.2144, 200.5669
352.6965, 205.8232
353.1786, 211.1964
353.6607, 216.4487
354.1428, 221.6966
354.6249, 227.2513
355.1071, 233.0727
355.5892, 239.2888
356.0713, 246.2933
356.5534, 253.3749
357.0355, 260.0699
357.5176, 266.2531
357.9998, 271.9666
358.4819, 277.1274
358.9640, 281.4425
359.4461, 286.4717
359.9282, 292.4457
360.4103, 298.9384
360.8925, 305.7473
361.3746, 312.9352
361.8567, 320.6009
362.3388, 328.8374
362.8209, 337.6497
363.3030, 347.1058
363.7852, 357.2997
364.2673, 368.0612
364.7494, 379.4170
365.2315, 391.2268
365.7136, 403.2158
366.1957, 415.2412
366.6779, 427.5321
367.1600, 440.2823
367.6421, 453.0273
368.1242, 467.4409
368.6063, 484.4196
369.0884, 502.5270
369.5706, 520.9934
370.0527, 539.6447
370.5348, 558.2720
371.0169, 577.2473
371.4990, 596.6168
371.9811, 614.1257
372.4633, 631.0949
372.9454, 644.2548
373.4275, 653.4609
373.9096, 658.0292
374.3917, 656.6726
374.8738, 648.0216
375.3560, 633.1426
375.8381, 614.9410
376.3202, 592.2567
376.8023, 568.7432
377.2844, 544.5970
377.7665, 521.0111
378.2487, 499.1936
378.7308, 479.2707
379.2129, 461.6407
379.6950, 446.6768
380.1771, 434.3797
380.6592, 424.7987
381.1414, 418.8916
381.6235, 415.0482
382.1056, 412.1682
382.5877, 410.1355
383.0698, 408.0474
383.5519, 405.8959
384.0341, 403.2696
384.5162, 399.1241
384.9983, 393.6463
385.4804, 385.8775
385.9625, 373.9570
386.4446, 359.2184
386.9268, 344.3199
387.4089, 329.7878
387.8910, 315.5382
388.3731, 301.3862
388.8552, 287.3814
389.3373, 274.1434
389.8195, 261.6815
390.3016, 250.4999
390.7837, 241.2019
391.2658, 234.1606
391.7479, 227.8685
392.2300, 221.4851
392.7122, 215.3659
393.1943, 210.3568
393.6764, 206.7313
394.1585, 203.9459
394.6406, 201.4677
395.1227, 199.3005
395.6049, 197.2437
396.0870, 195.0894
396.5691, 193.1739
397.0512, 191.8832
397.5333, 191.1763
398.0154, 190.5881
398.4976, 189.7270
398.9797, 188.7401
399.4618, 188.5111
399.9439, 189.9480
400.4260, 190.9589
400.9081, 190.5829
401.3903, 189.4615
401.8724, 188.5917
402.3545, 188.3332
402.8366, 188.4341
403.3187, 188.4642
403.8008, 188.2455
404.2830, 188.3966
404.7651, 189.3197
405.2472, 190.2911
405.7293, 190.5885
406.2114, 190.3439
406.6935, 190.3921
407.1757, 191.4848
407.6578, 193.5849
408.1399, 195.4251
408.6220, 196.6208
409.1041, 197.9867
409.5862, 199.8171
410.0684, 201.8777
410.5505, 203.8938
411.0326, 205.7327
411.5147, 207.4384
411.9968, 209.0410
412.4789, 210.2219
412.9611, 212.0273
413.4432, 215.0671
413.9253, 218.2249
414.4074, 220.7730
414.8895, 222.7466
415.3716, 224.6698
415.8538, 227.0569
416.3359, 229.8654
416.8180, 232.3975
417.3001, 234.8012
417.7822, 236.6604
418.2643, 237.4510
418.7465, 237.8038
419.2286, 238.5415
419.7107, 239.9808
420.1928, 241.9535
420.6749, 244.3147
421.1570, 247.1192
421.6392, 249.9365
422.1213, 252.8497
422.6034, 255.5592
423.0855, 257.4984
423.5676, 258.7725
424.0497, 260.6017
424.5319, 264.0430
425.0140, 268.6115
425.4961, 273.0839
425.9782, 277.4534
426.4603, 281.4533
426.9424, 284.5627
427.4246, 287.1585
427.9067, 289.9649
428.3888, 293.0345
428.8709, 296.4122
429.3530, 300.3876
429.8351, 304.7781
430.3173, 308.9029
430.7994, 312.7720
431.2815, 315.7841
431.7636, 316.6481
432.2457, 315.3567
432.7278, 313.2877
433.2100, 310.7762
433.6921, 307.6254
434.1742, 303.6387
434.6563, 298.7978
435.1384, 293.1985
435.6205, 286.8842
436.1027, 279.8846
436.5848, 272.5092
437.0669, 263.9796
437.5490, 256.0136
438.0311, 249.3050
438.5132, 243.4599
438.9954, 237.8126
439.4775, 232.1260
439.9596, 226.7076
440.4417, 222.1943
440.9238, 219.1231
441.4059, 215.7303
441.8881, 211.4058
442.3702, 207.3197
442.8523, 204.1625
443.3344, 201.8828
443.8165, 200.0642
444.2986, 198.4531
444.7808, 197.0209
445.2629, 195.6118
445.7450, 194.1796
446.2271, 192.8434
446.7092, 190.9549
447.1913, 191.0612
447.6735, 190.9317
448.1556, 190.5792
448.6377, 189.3355
449.1198, 189.2426
449.6019, 188.6886
450.0840, 188.1156
450.5662, 188.1846
451.0483, 187.0705
451.5304, 187.1294
452.0125, 186.7201
452.4946, 186.5250
452.9767, 185.8660
453.4589, 185.3501
453.9410, 185.2986
454.4231, 184.9900
454.9052, 184.2775
455.3873, 184.0961
455.8694, 182.9658
456.3516, 182.6681
456.8337, 182.7297
457.3158, 182.0406
457.7979, 181.8676
458.2800, 181.8827
458.7621, 181.7815
459.2443, 181.2229
459.7264, 180.5085
460.2085, 179.8595
460.6906, 179.2719
461.1727, 178.6537
461.6548, 177.5187
462.1370, 176.8642
462.6191, 177.5202
463.1012, 178.9302
463.5833, 180.0490
464.0654, 180.4976
464.5475, 180.4355
465.0297, 180.0871
465.5118, 179.2040
465.9939, 178.6697
466.4760, 178.4734
466.9581, 178.6046
467.4402, 179.4024
467.9224, 180.5619
468.4045, 181.2549
468.8866, 180.8767
469.3687, 179.6847
469.8508, 178.8451
470.3329, 178.2649
470.8151, 178.2443
471.2972, 179.1844
471.7793, 180.3902
472.2614, 181.3929
472.7435, 182.0648
473.2256, 182.4099
473.7078, 182.2763
474.1899, 181.6818
474.6720, 181.4472
475.1541, 181.8504
475.6362, 182.1801
476.1183, 181.8861
476.6005, 181.3578
477.0826, 181.2496
477.5647, 181.9063
478.0468, 182.7152
478.5289, 182.9059
479.0110, 182.5603
479.4932, 182.5401
479.9753, 183.2448
480.4574, 184.0703
480.9395, 184.2100
481.4216, 183.7430
481.9037, 183.4649
482.3859, 183.8709
482.8680, 184.3579
483.3501, 184.2203
483.8322, 183.5446
484.3143, 183.0498
484.7964, 183.1647
485.2786, 183.6819
485.7607, 183.9592
486.2428, 183.7078
486.7249, 183.7415
487.2070, 184.4248
487.6891, 185.2746
488.1713, 185.8531
488.6534, 186.1029
489.1355, 186.1749
489.6176, 186.1753
490.0997, 186.1089
490.5818, 186.2170
491.0640, 186.6619
491.5461, 187.1027
492.0282, 187.5487
492.5103, 187.9313
492.9924, 188.0957
493.4745, 188.0185
493.9567, 187.9777
494.4388, 188.3740
494.9209, 189.2501
495.4030, 190.0879
495.8851, 191.0024
496.3672, 191.6875
496.8494, 191.7853
497.3315, 191.5975
497.8136, 191.7195
498.2957, 192.4366
498.7778, 193.4621
499.2599, 194.4314
499.7421, 195.3584
500.2242, 196.4803
500.7063, 197.9447
501.1884, 199.5400
501.6705, 200.9127
502.1526, 202.0774
502.6348, 203.5569
503.1169, 205.6509
503.5990, 208.0120
504.0811, 210.2754
504.5632, 212.4779
505.0453, 214.9797
505.5274, 218.0416
506.0096, 221.4487
506.4917, 224.5378
506.9738, 227.0215
507.4559, 229.6527
507.9380, 232.8042
508.4201, 235.9173
508.9023, 238.4849
509.3844, 240.5128
509.8665, 242.3549
510.3486, 244.2375
510.8307, 246.2113
511.3128, 248.6560
511.7950, 251.7230
512.2771, 255.0864
512.7592, 258.9367
513.2413, 262.8959
513.7234, 266.4346
514.2056, 269.5263
514.6877, 272.8005
515.1698, 277.0017
515.6519, 282.0129
516.1340, 286.8860
516.6161, 291.4008
517.0983, 296.2078
517.5804, 301.5695
518.0625, 307.4716
518.5446, 314.1769
519.0267, 322.0388
519.5089, 329.8734
519.9910, 336.5409
520.4731, 342.5077
520.9552, 349.4200
521.4373, 357.9492
521.9194, 365.9125
522.4016, 371.4545
522.8837, 374.3450
523.3658, 374.9128
523.8479, 373.5924
524.3300, 369.5425
524.8121, 361.6664
525.2943, 350.9651
525.7764, 338.7171
526.2585, 325.5152
526.7406, 311.7684
527.2227, 298.1469
527.7048, 284.2491
528.1870, 272.0294
528.6691, 261.9530
529.1512, 253.0046
529.6333, 244.8327
530.1154, 237.5456
530.5975, 231.5402
531.0797, 227.0437
531.5618, 223.6044
532.0439, 220.5860
532.5260, 218.0511
533.0081, 215.3921
533.4902, 211.8432
533.9724, 208.9478
534.4545, 208.2342
534.9366, 209.1277
535.4187, 209.4459
535.9008, 207.9477
536.3829, 205.8002
536.8651, 204.2442
537.3472, 203.2075
537.8293, 202.2651
538.3114, 201.2127
538.7935, 200.2849
539.2756, 199.9407
539.7578, 200.3143
540.2399, 200.5320
540.7220, 200.3932
541.2041, 200.1793
541.6862, 200.0791
542.1683, 200.0679
542.6505, 200.0457
543.1326, 199.9604
543.6147, 199.8174
544.0968, 199.6022
544.5789, 199.1348
545.0610, 198.9766
545.5432, 199.1006
546.0253, 199.5351
546.5074, 200.6932
546.9895, 202.1944
547.4716, 203.0426
547.9537, 202.4532
548.4359, 201.1387
548.9180, 200.6623
549.4001, 201.1307
549.8822, 201.6862
550.3643, 202.1112
550.8464, 202.5288
551.3286, 203.1104
551.8107, 203.8308
552.2928, 204.4118
552.7749, 204.6492
553.2570, 204.7563
553.7391, 204.9065
554.2213, 205.1208
554.7034, 205.4612
555.1855, 205.9513
555.6676, 206.5988
556.1497, 207.4227
556.6318, 208.4348
557.1140, 209.6150
557.5961, 211.3560
558.0782, 212.9320
558.5603, 213.7397
559.0424, 213.9763
559.5245, 214.2488
560.0067, 214.9181
560.4888, 215.7503
560.9709, 216.0728
561.4530, 215.5360
561.9351, 215.4762
562.4172, 216.4087
562.8994, 217.5584
563.3815, 218.6717
563.8636, 219.6818
564.3457, 220.4573
564.8278, 220.7963
565.3099, 221.0196
565.7921, 221.6147
566.2742, 222.5689
566.7563, 223.6203
567.2384, 224.7439
567.7205, 225.8408
568.2026, 226.5988
568.6848, 227.0064
569.1669, 228.0549
569.6490, 230.2056
570.1311, 232.7548
570.6132, 235.6289
571.0953, 238.5125
571.5775, 240.7046
572.0596, 241.8828
572.5417, 242.5244
573.0238, 243.4756
573.5059, 245.0058
573.9880, 246.0164
574.4702, 246.6654
574.9523, 246.6654
575.4344, 245.7294
575.9165, 244.0951
576.3986, 242.1242
576.8807, 239.9492
577.3629, 237.6599
577.8450, 235.3120
578.3271, 232.9090
578.8092, 230.7146
579.2913, 228.7363
579.7734, 227.0263
580.2556, 225.6527
580.7377, 224.5772
581.2198, 223.7133
581.7019, 222.8369
582.1840, 222.4483
582.6661, 223.2734
583.1483, 224.7243
583.6304, 225.6157
584.1125, 225.6547
584.5946, 225.3254
585.0767, 225.0818
585.5588, 224.9206
586.0409, 224.9679
586.5230, 225.2968
587.0051, 225.7339
587.4872, 226.4432
587.9694, 227.1361
588.4515, 227.5573
588.9336, 227.6297
