##NAMES=Jadeite
##RRUFFID=R050220
##IDEAL CHEMISTRY=NaAlSi_2_O_6_
##LOCALITY=Clear Creek, San Benito County, California, USA
##OWNER=RRUFF
##SOURCE=Hatt Yoder
##DESCRIPTION=Aggregate of colorless bladed crystals
##STATUS=The identification of this mineral has been confirmed by X-ray diffraction and chemical analysis
##URL=rruff.info/R050220
##MEASURED CHEMISTRY=Na_1.00_Al_1.00_(Si_0.99_Al_0.01_)_2_O_6_
92.29974, 0.0000000E+00
92.78186, 0.0000000E+00
93.26398, 0.0000000E+00
93.74609, 7.637737
94.22821, 7.367481
94.71033, 7.535837
95.19244, 8.052639
95.67456, 8.553539
96.15668, 8.799666
96.63879, 8.886312
97.12091, 9.174097
97.60303, 9.695658
98.08514, 10.35217
98.56726, 10.96562
99.04938, 11.53274
99.53149, 12.19320
100.0136, 13.05345
100.4957, 14.11424
100.9778, 15.15551
101.4600, 16.14258
101.9421, 17.10796
102.4242, 18.08834
102.9063, 19.05509
103.3884, 20.12882
103.8705, 21.41128
104.3527, 23.01532
104.8348, 24.54373
105.3169, 25.99686
105.7990, 27.35672
106.2811, 28.54557
106.7632, 29.40615
107.2454, 30.23867
107.7275, 31.30591
108.2096, 32.98030
108.6917, 34.38649
109.1738, 35.24267
109.6559, 35.40179
110.1381, 36.02518
110.6202, 37.46495
111.1023, 39.24643
111.5844, 40.87164
112.0665, 42.30847
112.5486, 43.62997
113.0308, 44.74504
113.5129, 45.44975
113.9950, 46.64782
114.4771, 48.74453
114.9592, 51.35332
115.4413, 53.91950
115.9235, 56.41835
116.4056, 58.75824
116.8877, 60.87349
117.3698, 62.81477
117.8519, 64.49454
118.3340, 65.74104
118.8162, 66.68881
119.2983, 67.66395
119.7804, 68.94650
120.2625, 70.25056
120.7446, 71.28819
121.2267, 71.64815
121.7089, 72.23242
122.1910, 73.69393
122.6731, 75.90585
123.1552, 78.30091
123.6373, 80.83043
124.1194, 83.25417
124.6016, 85.28295
125.0837, 86.40272
125.5658, 87.38577
126.0479, 89.06887
126.5300, 91.42223
127.0121, 93.94471
127.4943, 96.24715
127.9764, 98.39726
128.4585, 100.6190
128.9406, 103.1262
129.4227, 105.6973
129.9048, 107.8727
130.3869, 109.6284
130.8691, 111.2258
131.3512, 113.0570
131.8333, 115.0445
132.3154, 116.7337
132.7975, 117.5777
133.2796, 117.8599
133.7618, 118.8107
134.2439, 120.2409
134.7260, 121.5940
135.2081, 122.9260
135.6902, 124.5284
136.1723, 126.1643
136.6545, 127.6893
137.1366, 129.1007
137.6187, 130.6410
138.1008, 132.2926
138.5829, 134.1228
139.0650, 136.2390
139.5472, 138.5779
140.0293, 141.4408
140.5114, 144.9439
140.9935, 149.0631
141.4756, 153.9518
141.9577, 159.4118
142.4399, 165.7471
142.9220, 174.2576
143.4041, 186.0794
143.8862, 198.1219
144.3683, 209.4496
144.8504, 222.5152
145.3326, 228.9714
145.8147, 227.1293
146.2968, 217.6548
146.7789, 205.5092
147.2610, 188.4020
147.7431, 170.8203
148.2253, 155.6073
148.7074, 142.7868
149.1895, 132.3725
149.6716, 124.9191
150.1537, 120.4308
150.6358, 116.6309
151.1180, 113.6230
151.6001, 111.2484
152.0822, 109.4151
152.5643, 108.6999
153.0464, 107.9043
153.5285, 106.6489
154.0107, 104.8000
154.4928, 103.6741
154.9749, 103.9677
155.4570, 104.7524
155.9391, 105.1055
156.4212, 104.5981
156.9034, 103.9565
157.3855, 103.3128
157.8676, 102.6472
158.3497, 102.1740
158.8318, 102.0221
159.3139, 102.0553
159.7961, 102.0989
160.2782, 102.1323
160.7603, 102.1469
161.2424, 102.0830
161.7245, 101.8585
162.2066, 101.8485
162.6888, 102.3517
163.1709, 103.1280
163.6530, 103.7887
164.1351, 104.2261
164.6172, 104.4828
165.0993, 104.5768
165.5815, 104.5006
166.0636, 104.2935
166.5457, 103.8732
167.0278, 103.3339
167.5099, 102.8718
167.9920, 102.3542
168.4742, 102.0738
168.9563, 102.3830
169.4384, 103.6394
169.9205, 104.7976
170.4026, 105.0726
170.8847, 104.6810
171.3669, 104.1954
171.8490, 103.7075
172.3311, 103.3809
172.8132, 103.4213
173.2953, 103.9789
173.7774, 104.7150
174.2596, 105.4527
174.7417, 106.1554
175.2238, 106.6706
175.7059, 106.7790
176.1880, 106.6651
176.6701, 106.5246
177.1523, 106.2056
177.6344, 106.1617
178.1165, 107.2262
178.5986, 109.2210
179.0807, 111.0145
179.5628, 111.4479
180.0450, 111.1450
180.5271, 111.3476
181.0092, 112.3943
181.4913, 114.0395
181.9734, 115.8108
182.4555, 117.7407
182.9377, 120.2466
183.4198, 123.5933
183.9019, 127.7986
184.3840, 132.9264
184.8661, 139.4859
185.3482, 146.6152
185.8304, 152.9236
186.3125, 158.3813
186.7946, 163.2355
187.2767, 167.4267
187.7588, 171.1269
188.2409, 174.9348
188.7231, 179.1198
189.2052, 183.5034
189.6873, 187.5388
190.1694, 191.2191
190.6515, 195.0628
191.1336, 199.5254
191.6158, 204.5894
192.0979, 210.1692
192.5800, 216.6666
193.0621, 223.6144
193.5442, 229.4101
194.0263, 234.0411
194.5085, 237.9482
194.9906, 240.9326
195.4727, 243.0605
195.9548, 246.5285
196.4369, 251.9225
196.9190, 259.1331
197.4012, 267.4327
197.8833, 276.5870
198.3654, 287.6498
198.8475, 300.8829
199.3296, 316.2142
199.8117, 335.6846
200.2939, 359.4069
200.7760, 387.4532
201.2581, 422.2532
201.7402, 464.3320
202.2223, 511.2532
202.7044, 565.3329
203.1866, 628.9099
203.6687, 678.7928
204.1508, 711.5664
204.6329, 726.5887
205.1150, 708.9742
205.5971, 651.4365
206.0793, 577.1506
206.5614, 510.5701
207.0435, 452.6674
207.5256, 400.5610
208.0077, 353.7671
208.4898, 312.2622
208.9720, 275.1887
209.4541, 242.1350
209.9362, 214.1934
210.4183, 193.1483
210.9004, 180.1370
211.3825, 170.5291
211.8647, 163.5816
212.3468, 159.3271
212.8289, 155.5816
213.3110, 152.3372
213.7931, 149.6032
214.2752, 147.4244
214.7574, 145.7863
215.2395, 144.7043
215.7216, 144.2623
216.2037, 144.4838
216.6858, 144.7562
217.1679, 145.0299
217.6500, 145.4207
218.1322, 145.9402
218.6143, 146.2973
219.0964, 147.5313
219.5785, 149.8865
220.0606, 153.3900
220.5427, 157.7253
221.0249, 163.0777
221.5070, 169.0042
221.9891, 174.9713
222.4712, 181.1494
222.9533, 187.2668
223.4354, 194.2493
223.9176, 202.5969
224.3997, 204.4421
224.8818, 198.0589
225.3639, 187.1077
225.8460, 174.7836
226.3281, 159.5712
226.8103, 146.3556
227.2924, 136.5690
227.7745, 130.1767
228.2566, 125.2314
228.7387, 122.0360
229.2208, 119.9598
229.7030, 118.4622
230.1851, 117.7477
230.6672, 117.1781
231.1493, 116.6248
231.6314, 116.0830
232.1135, 115.6882
232.5957, 115.4728
233.0778, 115.3688
233.5599, 115.3078
234.0420, 115.2556
234.5241, 115.3162
235.0062, 115.5374
235.4884, 115.9179
235.9705, 116.2615
236.4526, 116.4738
236.9347, 116.7522
237.4168, 117.2740
237.8989, 118.0565
238.3811, 119.0557
238.8632, 120.3641
239.3453, 121.9800
239.8274, 123.3163
240.3095, 124.4150
240.7916, 125.2014
241.2738, 125.5602
241.7559, 125.2215
242.2380, 124.9876
242.7201, 124.9460
243.2022, 125.1005
243.6843, 125.4958
244.1665, 126.2063
244.6486, 127.0760
245.1307, 128.0124
245.6128, 129.1167
246.0949, 130.0649
246.5770, 130.6531
247.0592, 130.9695
247.5413, 131.8993
248.0234, 133.6908
248.5055, 135.7734
248.9876, 137.7067
249.4697, 139.3233
249.9519, 141.1709
250.4340, 143.2460
250.9161, 145.5793
251.3982, 148.3891
251.8803, 151.7144
252.3624, 155.4238
252.8446, 159.3510
253.3267, 163.3596
253.8088, 168.0291
254.2909, 173.8298
254.7730, 180.3491
255.2551, 185.9227
255.7373, 191.0335
256.2194, 194.4204
256.7015, 195.4466
257.1836, 194.2691
257.6657, 190.2138
258.1478, 182.3267
258.6299, 171.7958
259.1121, 161.8022
259.5942, 151.8812
260.0763, 143.2800
260.5584, 136.4615
261.0405, 131.7146
261.5226, 128.1200
262.0048, 125.9732
262.4869, 124.8113
262.9690, 123.4432
263.4511, 121.6577
263.9332, 120.1410
264.4153, 119.1875
264.8975, 118.8411
265.3796, 118.9115
265.8617, 119.5978
266.3438, 120.5280
266.8259, 120.9936
267.3080, 120.8522
267.7902, 120.6145
268.2723, 120.4535
268.7544, 120.3641
269.2365, 120.3645
269.7186, 120.4384
270.2007, 120.6229
270.6829, 120.9456
271.1650, 121.3689
271.6471, 122.0712
272.1292, 123.1952
272.6113, 124.7549
273.0934, 126.1054
273.5756, 127.2050
274.0577, 128.1487
274.5398, 128.9704
275.0219, 129.5780
275.5040, 130.5254
275.9861, 132.1280
276.4683, 134.3055
276.9504, 135.9242
277.4325, 136.8305
277.9146, 137.5772
278.3967, 138.8353
278.8788, 140.6754
279.3610, 142.2745
279.8431, 143.3147
280.3252, 143.9361
280.8073, 144.8792
281.2894, 146.1413
281.7715, 147.7366
282.2537, 149.8792
282.7358, 152.5887
283.2179, 154.8376
283.7000, 156.1705
284.1821, 157.0773
284.6642, 159.1451
285.1464, 162.4722
285.6285, 166.1350
286.1106, 169.3538
286.5927, 172.1864
287.0748, 175.5090
287.5569, 179.5705
288.0391, 184.0392
288.5212, 188.1108
289.0033, 191.7994
289.4854, 195.4543
289.9675, 199.4619
290.4496, 203.7170
290.9318, 207.5574
291.4139, 211.0361
291.8960, 213.8912
292.3781, 215.7035
292.8602, 216.4966
293.3423, 216.3404
293.8245, 215.1774
294.3066, 213.0943
294.7887, 210.3159
295.2708, 206.8576
295.7529, 202.8135
296.2350, 197.8425
296.7172, 192.2170
297.1993, 187.1490
297.6814, 183.2483
298.1635, 180.2266
298.6456, 177.6283
299.1277, 175.4508
299.6099, 173.4540
300.0920, 171.3850
300.5741, 169.3189
301.0562, 167.5315
301.5383, 165.9447
302.0204, 164.7702
302.5026, 164.4762
302.9847, 165.0339
303.4668, 165.8526
303.9489, 166.4463
304.4310, 166.9694
304.9131, 167.7181
305.3953, 168.7641
305.8774, 170.0801
306.3595, 171.5196
306.8416, 173.1319
307.3237, 175.2369
307.8058, 178.3685
308.2880, 181.9821
308.7701, 185.4581
309.2522, 188.8188
309.7343, 191.7866
310.2164, 194.5544
310.6985, 196.8538
311.1807, 197.8328
311.6628, 196.7946
312.1449, 194.3692
312.6270, 190.9814
313.1091, 186.5063
313.5912, 181.7119
314.0734, 176.5658
314.5555, 171.4116
315.0376, 166.8309
315.5197, 162.9255
316.0018, 159.7502
316.4839, 157.6040
316.9661, 156.5970
317.4482, 155.7120
317.9303, 154.2660
318.4124, 152.7842
318.8945, 151.8660
319.3766, 152.1749
319.8588, 152.6736
320.3409, 152.8881
320.8230, 152.8164
321.3051, 153.0129
321.7872, 153.6575
322.2693, 154.6279
322.7515, 155.8277
323.2336, 157.0986
323.7157, 158.7488
324.1978, 161.1122
324.6799, 164.0184
325.1620, 166.6019
325.6442, 168.2129
326.1263, 169.8357
326.6084, 172.0013
327.0905, 175.6489
327.5726, 178.6026
328.0547, 180.7900
328.5369, 182.1828
329.0190, 182.7733
329.5011, 182.8423
329.9832, 181.8569
330.4653, 179.5611
330.9474, 175.6009
331.4296, 171.2178
331.9117, 165.9165
332.3938, 160.4074
332.8759, 155.7052
333.3580, 152.1432
333.8401, 148.8163
334.3223, 145.5100
334.8044, 142.1780
335.2865, 139.1445
335.7686, 136.2068
336.2507, 133.8246
336.7328, 132.6402
337.2150, 133.1834
337.6971, 133.4708
338.1792, 133.1141
338.6613, 132.2154
339.1434, 131.2988
339.6255, 130.2018
340.1076, 129.4642
340.5898, 129.6271
341.0719, 130.8481
341.5540, 131.7371
342.0361, 132.0555
342.5182, 132.0638
343.0003, 132.4198
343.4825, 133.1755
343.9646, 133.8714
344.4467, 134.2195
344.9288, 134.2416
345.4109, 134.2089
345.8930, 134.0544
346.3752, 134.0773
346.8573, 134.7678
347.3394, 136.0945
347.8215, 137.5843
348.3036, 139.0505
348.7857, 140.5395
349.2679, 142.2726
349.7500, 144.2600
350.2321, 146.1662
350.7142, 147.4399
351.1963, 148.3235
351.6784, 149.5238
352.1606, 151.1671
352.6427, 153.3022
353.1248, 156.0723
353.6069, 159.4660
354.0890, 163.2561
354.5711, 167.1645
355.0533, 171.3959
355.5354, 176.2781
356.0175, 181.8392
356.4996, 188.1156
356.9817, 195.6805
357.4638, 204.0769
357.9460, 212.2115
358.4281, 219.3961
358.9102, 226.1972
359.3923, 232.7369
359.8744, 238.9364
360.3565, 245.8262
360.8387, 254.2746
361.3208, 263.6031
361.8029, 272.9321
362.2850, 281.7757
362.7671, 290.7125
363.2492, 299.8568
363.7314, 309.2377
364.2135, 319.1947
364.6956, 329.3333
365.1777, 340.2771
365.6598, 352.4455
366.1419, 366.5387
366.6241, 381.1526
367.1062, 395.0461
367.5883, 409.0870
368.0704, 425.6869
368.5525, 445.6705
369.0346, 467.7970
369.5168, 491.8756
369.9989, 518.5573
370.4810, 545.9083
370.9631, 574.4725
371.4452, 603.6453
371.9273, 632.9086
372.4095, 663.7484
372.8916, 692.2089
373.3737, 718.7391
373.8558, 743.6004
374.3379, 760.5739
374.8200, 770.4708
375.3022, 771.6516
375.7843, 762.3798
376.2664, 741.4531
376.7485, 713.2001
377.2306, 676.5730
377.7127, 633.7676
378.1949, 591.5760
378.6770, 549.9316
379.1591, 510.5840
379.6412, 474.5844
380.1233, 441.6212
380.6054, 413.4423
381.0876, 390.4010
381.5697, 371.4785
382.0518, 355.4998
382.5339, 342.5148
383.0160, 331.0655
383.4981, 320.7401
383.9803, 311.5584
384.4624, 304.2826
384.9445, 298.9625
385.4266, 294.0917
385.9087, 288.3406
386.3908, 281.9556
386.8730, 275.6043
387.3551, 269.6473
387.8372, 263.3917
388.3193, 255.7552
388.8014, 246.9740
389.2835, 238.0110
389.7657, 228.9369
390.2478, 220.2094
390.7299, 212.5191
391.2120, 206.0766
391.6941, 200.1749
392.1762, 194.3860
392.6584, 188.8922
393.1405, 183.8802
393.6226, 179.2859
394.1047, 175.3114
394.5868, 172.3617
395.0689, 170.4037
395.5511, 168.3659
396.0332, 165.5403
396.5153, 162.6592
396.9974, 160.2799
397.4795, 158.5783
397.9616, 157.3121
398.4438, 156.6713
398.9259, 156.4718
399.4080, 156.1362
399.8901, 155.1213
400.3722, 154.3925
400.8543, 154.3702
401.3365, 155.3592
401.8186, 156.1587
402.3007, 156.6938
402.7828, 157.0838
403.2649, 157.4802
403.7470, 157.9386
404.2292, 158.2841
404.7113, 158.3944
405.1934, 158.3127
405.6755, 158.5673
406.1576, 159.2429
406.6397, 160.0605
407.1219, 160.7594
407.6040, 161.2859
408.0861, 162.1915
408.5682, 163.6226
409.0503, 165.3339
409.5324, 166.8801
410.0146, 168.2560
410.4967, 169.7452
410.9788, 171.5035
411.4609, 173.4839
411.9430, 175.5082
412.4251, 177.5717
412.9073, 179.8457
413.3894, 182.7866
413.8715, 186.1578
414.3536, 189.1845
414.8357, 191.4845
415.3178, 193.5595
415.8000, 196.1300
416.2821, 199.0862
416.7642, 201.8085
417.2463, 203.5724
417.7284, 205.0780
418.2105, 207.2148
418.6927, 210.3985
419.1748, 213.1076
419.6569, 214.1373
420.1390, 214.1833
420.6211, 214.2928
421.1032, 214.5886
421.5854, 215.2788
422.0675, 216.6099
422.5496, 218.5667
423.0317, 220.4456
423.5138, 222.0062
423.9959, 223.4767
424.4781, 225.0177
424.9602, 225.9362
425.4423, 227.8091
425.9244, 231.1407
426.4065, 235.4813
426.8886, 239.8547
427.3708, 244.3788
427.8529, 248.8466
428.3350, 253.1196
428.8171, 257.1095
429.2992, 261.6029
429.7813, 266.9222
430.2635, 272.3018
430.7456, 277.1549
431.2277, 281.5355
431.7098, 285.0667
432.1919, 287.7614
432.6740, 289.5185
433.1562, 289.9384
433.6383, 288.9676
434.1204, 287.0862
434.6025, 284.9290
435.0846, 282.2452
435.5667, 277.2044
436.0489, 269.3922
436.5310, 260.5477
437.0131, 252.8145
437.4952, 245.8689
437.9773, 238.7025
438.4594, 230.7039
438.9415, 222.4865
439.4236, 214.7720
439.9058, 207.5251
440.3879, 200.7528
440.8700, 194.2553
441.3521, 188.2471
441.8342, 182.9998
442.3163, 178.6615
442.7985, 174.7826
443.2806, 171.2059
443.7627, 167.9121
444.2448, 164.7932
444.7269, 161.5539
445.2090, 158.7650
445.6912, 156.9075
446.1733, 155.9877
446.6554, 154.7305
447.1375, 152.4029
447.6196, 149.9908
448.1017, 148.1108
448.5839, 147.1649
449.0660, 146.2996
449.5481, 145.6744
450.0302, 145.0982
450.5123, 144.1108
450.9944, 142.3898
451.4766, 140.8599
451.9587, 139.8738
452.4408, 139.4568
452.9229, 138.8681
453.4050, 138.0272
453.8871, 137.1858
454.3693, 136.5379
454.8514, 136.0819
455.3335, 135.8759
455.8156, 136.0289
456.2977, 136.2842
456.7798, 136.0354
457.2620, 135.3195
457.7441, 134.6685
458.2262, 134.3031
458.7083, 134.2135
459.1904, 134.5852
459.6725, 135.4541
460.1547, 136.0103
460.6368, 135.2932
461.1189, 133.8428
461.6010, 132.4993
462.0831, 131.3271
462.5652, 130.5962
463.0474, 130.6711
463.5295, 131.3781
464.0116, 132.2320
464.4937, 133.3939
464.9758, 134.3377
465.4579, 134.6917
465.9401, 134.3371
466.4222, 133.8856
466.9043, 133.2956
467.3864, 132.7691
467.8685, 132.4966
468.3506, 132.9198
468.8328, 133.0915
469.3149, 132.7988
469.7970, 132.1739
470.2791, 131.7026
470.7612, 131.4085
471.2433, 131.2397
471.7255, 131.1741
472.2076, 131.2094
472.6897, 131.4003
473.1718, 131.8207
473.6539, 132.2574
474.1360, 132.4445
474.6182, 132.3712
475.1003, 132.2819
475.5824, 132.2350
476.0645, 132.1983
476.5466, 132.0535
477.0287, 131.8132
477.5109, 131.6593
477.9930, 131.6768
478.4751, 131.8635
478.9572, 132.3255
479.4393, 133.1035
479.9214, 133.7414
480.4036, 133.7364
480.8857, 133.3536
481.3678, 132.9698
481.8499, 132.5104
482.3320, 132.3186
482.8141, 132.8320
483.2963, 133.8265
483.7784, 134.5975
484.2605, 134.8638
484.7426, 134.8480
485.2247, 134.5658
485.7068, 133.9054
486.1890, 133.4950
486.6711, 133.7081
487.1532, 134.0571
487.6353, 134.0648
488.1174, 133.2421
488.5995, 132.8708
489.0817, 133.2791
489.5638, 134.1989
490.0459, 134.7342
490.5280, 134.7579
491.0101, 134.7083
491.4922, 134.8003
491.9744, 135.0370
492.4565, 135.0550
492.9386, 134.8089
493.4207, 134.5212
493.9028, 134.3952
494.3849, 134.4262
494.8671, 134.6249
495.3492, 135.0559
495.8313, 135.5480
496.3134, 135.7745
496.7955, 135.8182
497.2776, 135.9959
497.7598, 136.7090
498.2419, 137.5176
498.7240, 137.9128
499.2061, 137.8776
499.6882, 137.7869
500.1703, 137.8239
500.6525, 137.9333
501.1346, 138.0524
501.6167, 138.0543
502.0988, 138.2379
502.5809, 138.7985
503.0630, 139.5894
503.5452, 140.2991
504.0273, 140.3536
504.5094, 140.8681
504.9915, 142.2761
505.4736, 144.6077
505.9557, 146.6315
506.4379, 148.2466
506.9200, 149.6622
507.4021, 150.9634
507.8842, 152.1018
508.3663, 153.4583
508.8484, 155.1313
509.3306, 156.9268
509.8127, 158.4540
510.2948, 159.7183
510.7769, 161.1626
511.2590, 162.9371
511.7411, 165.0111
512.2233, 167.4948
512.7054, 170.3392
513.1875, 172.8503
513.6696, 173.8825
514.1517, 174.5136
514.6339, 176.4444
515.1160, 180.1694
515.5981, 183.9642
516.0802, 186.0676
516.5623, 187.7183
517.0444, 190.5736
517.5266, 196.4855
518.0087, 202.3644
518.4908, 206.8292
518.9729, 210.2388
519.4550, 214.2971
519.9371, 219.7127
520.4193, 225.4234
520.9014, 231.0393
521.3835, 236.6511
521.8656, 241.8831
522.3477, 246.7063
522.8298, 251.1809
523.3120, 255.7191
523.7941, 260.7245
524.2762, 263.5880
524.7583, 263.8314
525.2404, 261.8529
525.7225, 258.6198
526.2047, 254.1280
526.6868, 247.9229
527.1689, 239.0234
527.6510, 228.3653
528.1331, 218.0645
528.6152, 208.0421
529.0974, 198.6094
529.5795, 189.4422
530.0616, 181.0586
530.5437, 174.4183
531.0258, 169.9050
531.5079, 166.3174
531.9901, 163.2681
532.4722, 160.4741
532.9543, 157.5410
533.4364, 153.6387
533.9185, 150.2541
534.4006, 147.9147
534.8828, 146.5807
535.3649, 145.5623
535.8470, 145.1109
536.3291, 144.6789
536.8112, 143.9897
537.2933, 142.8683
537.7755, 142.2277
538.2576, 142.2908
538.7397, 142.5274
539.2218, 142.3582
539.7039, 141.7623
540.1860, 140.9390
540.6682, 139.7582
541.1503, 138.6102
541.6324, 138.5108
542.1145, 139.3507
542.5966, 140.0281
543.0787, 139.7613
543.5609, 139.0518
544.0430, 138.7562
544.5251, 138.8622
545.0072, 138.9439
545.4893, 138.6389
545.9714, 138.1871
546.4536, 137.7978
546.9357, 137.4384
547.4178, 137.3447
547.8999, 137.7994
548.3820, 138.5231
548.8641, 139.1306
549.3463, 139.4568
549.8284, 139.7592
550.3105, 140.0522
550.7926, 140.3522
551.2747, 140.7317
551.7568, 141.1660
552.2390, 141.7299
552.7211, 142.4915
553.2032, 143.4723
553.6853, 144.3593
554.1674, 145.1134
554.6495, 145.8955
555.1317, 146.9577
555.6138, 148.2304
556.0959, 149.2381
556.5780, 149.7459
557.0601, 150.3477
557.5422, 152.0468
558.0244, 154.5377
558.5065, 156.9362
558.9886, 158.5527
559.4707, 160.0831
559.9528, 162.1499
560.4349, 164.6818
560.9171, 167.1674
561.3992, 168.9655
561.8813, 170.9498
562.3634, 173.8537
562.8455, 178.3451
563.3276, 181.9038
563.8098, 183.5527
564.2919, 184.5244
564.7740, 185.8542
565.2561, 187.3967
565.7382, 189.6154
566.2203, 192.6893
566.7025, 196.4250
567.1846, 200.1781
567.6667, 203.9307
568.1488, 208.0816
568.6309, 212.7214
569.1130, 217.8880
569.5952, 223.6565
570.0773, 230.0962
570.5594, 236.6524
571.0415, 243.0888
571.5236, 249.4869
572.0057, 255.9909
572.4879, 262.7558
572.9700, 269.1470
573.4521, 275.1584
573.9342, 280.4082
574.4163, 284.3498
574.8984, 287.2632
575.3806, 288.3401
575.8627, 287.7177
576.3448, 285.1125
576.8269, 279.7407
577.3090, 269.6720
577.7911, 258.9729
578.2733, 248.3846
578.7554, 238.0324
579.2375, 227.4532
579.7196, 216.2033
580.2017, 205.8369
580.6838, 197.6038
581.1660, 191.5098
581.6481, 186.3370
582.1302, 182.1376
582.6123, 178.4949
583.0944, 175.0374
583.5765, 171.7837
584.0587, 168.7169
584.5408, 165.6757
585.0229, 163.1492
585.5050, 161.8907
585.9871, 161.5375
586.4692, 161.2218
586.9513, 160.3852
587.4334, 159.6400
587.9155, 159.5154
588.3976, 159.9639
