##NAMES=Jagoite
##RRUFFID=R090028
##IDEAL CHEMISTRY=Pb^2+^_9_Fe^3+^_2_[Si_2_(Si,Fe^3+^)_3_][Pb^2+^_2_Si_8_(Si,Fe^3+^)_2_]O_41_Cl_3_
##LOCALITY=Langban, Filipstad, Varmland, Sweden
##OWNER=RRUFF
##SOURCE=William W. Pinch
##DESCRIPTION=Yellowish green translucent fine-grained micaceous aggregates of plates on matrix.
##STATUS=The identification of this mineral has been confirmed by single-crystal X-ray diffraction.
##URL=rruff.info/R090028
92.37695, 6522.548
92.85907, 6420.954
93.34119, 6440.375
93.82330, 6526.695
94.30542, 6606.141
94.78754, 6664.850
95.26965, 6714.992
95.75177, 6759.020
96.23389, 6799.489
96.71600, 6839.164
97.19812, 6885.458
97.68024, 6941.666
98.16235, 7003.144
98.64447, 7066.173
99.12659, 7136.967
99.60870, 7177.579
100.0908, 7213.059
100.5729, 7235.030
101.0551, 7232.497
101.5372, 7200.087
102.0193, 7137.306
102.5014, 7043.647
102.9835, 6893.824
103.4656, 6732.221
103.9478, 6555.046
104.4299, 6369.611
104.9120, 6187.755
105.3941, 6018.170
105.8762, 5859.099
106.3583, 5718.632
106.8405, 5595.791
107.3226, 5485.340
107.8047, 5384.583
108.2868, 5293.183
108.7689, 5211.543
109.2510, 5142.451
109.7332, 5086.357
110.2153, 5035.144
110.6974, 4989.938
111.1795, 4948.497
111.6616, 4906.421
112.1437, 4861.728
112.6259, 4819.590
113.1080, 4785.711
113.5901, 4759.600
114.0722, 4736.145
114.5543, 4712.453
115.0364, 4688.527
115.5185, 4667.002
116.0007, 4649.283
116.4828, 4633.678
116.9649, 4619.661
117.4470, 4607.132
117.9291, 4594.749
118.4112, 4579.977
118.8934, 4560.378
119.3755, 4544.611
119.8576, 4535.505
120.3397, 4528.782
120.8218, 4521.183
121.3039, 4511.368
121.7861, 4500.168
122.2682, 4489.943
122.7503, 4482.536
123.2324, 4474.096
123.7145, 4464.150
124.1966, 4452.985
124.6788, 4441.033
125.1609, 4428.356
125.6430, 4415.045
126.1251, 4401.992
126.6072, 4388.322
127.0893, 4375.585
127.5715, 4364.778
128.0536, 4355.630
128.5357, 4347.043
129.0178, 4338.822
129.4999, 4330.417
129.9821, 4319.649
130.4642, 4304.110
130.9463, 4287.326
131.4284, 4272.944
131.9105, 4261.404
132.3926, 4250.885
132.8748, 4240.216
133.3569, 4229.516
133.8390, 4219.265
134.3211, 4209.637
134.8032, 4200.641
135.2853, 4192.239
135.7674, 4185.100
136.2496, 4177.694
136.7317, 4168.759
137.2138, 4158.916
137.6959, 4149.818
138.1780, 4143.573
138.6601, 4140.766
139.1423, 4134.717
139.6244, 4121.717
140.1065, 4108.454
140.5886, 4096.723
141.0707, 4087.010
141.5528, 4079.201
142.0350, 4073.392
142.5171, 4070.576
142.9992, 4067.278
143.4813, 4064.187
143.9634, 4060.273
144.4455, 4054.447
144.9277, 4046.574
145.4098, 4037.708
145.8919, 4029.512
146.3740, 4021.998
146.8561, 4015.239
147.3382, 4008.668
147.8204, 4002.997
148.3025, 3999.519
148.7846, 3998.961
149.2667, 3999.748
149.7488, 3998.374
150.2309, 3994.194
150.7131, 3990.616
151.1952, 3989.251
151.6773, 3989.573
152.1594, 3989.930
152.6415, 3989.724
153.1236, 3989.269
153.6058, 3988.704
154.0879, 3987.574
154.5700, 3987.745
155.0521, 3991.724
155.5342, 3999.718
156.0163, 4006.503
156.4985, 4008.919
156.9806, 4009.732
157.4627, 4010.440
157.9448, 4011.039
158.4269, 4013.056
158.9090, 4019.391
159.3912, 4031.951
159.8733, 4044.046
160.3554, 4054.726
160.8375, 4063.931
161.3196, 4070.810
161.8017, 4074.713
162.2839, 4077.516
162.7660, 4085.016
163.2481, 4102.347
163.7302, 4117.779
164.2123, 4129.432
164.6944, 4138.419
165.1766, 4145.646
165.6587, 4151.516
166.1408, 4156.536
166.6229, 4164.276
167.1050, 4179.178
167.5871, 4192.031
168.0693, 4199.783
168.5514, 4204.126
169.0335, 4208.632
169.5156, 4215.736
169.9977, 4225.230
170.4798, 4232.806
170.9620, 4236.779
171.4441, 4240.876
171.9262, 4247.146
172.4083, 4255.214
172.8904, 4263.172
173.3725, 4269.582
173.8547, 4274.489
174.3368, 4279.608
174.8189, 4284.901
175.3010, 4290.457
175.7831, 4296.487
176.2652, 4303.029
176.7474, 4309.521
177.2295, 4316.169
177.7116, 4322.416
178.1937, 4326.594
178.6758, 4326.667
179.1579, 4325.066
179.6401, 4326.163
180.1222, 4331.470
180.6043, 4334.896
181.0864, 4330.755
181.5685, 4322.423
182.0506, 4315.354
182.5328, 4313.768
183.0149, 4315.077
183.4970, 4310.775
183.9791, 4297.971
184.4612, 4283.584
184.9433, 4271.344
185.4255, 4259.935
185.9076, 4246.947
186.3897, 4230.797
186.8718, 4211.639
187.3539, 4191.525
187.8360, 4168.658
188.3182, 4146.663
188.8003, 4127.408
189.2824, 4109.866
189.7645, 4091.805
190.2466, 4071.364
190.7287, 4048.301
191.2109, 4026.842
191.6930, 4007.957
192.1751, 3989.561
192.6572, 3970.817
193.1393, 3952.034
193.6214, 3934.114
194.1036, 3918.162
194.5857, 3904.541
195.0678, 3889.316
195.5499, 3870.790
196.0320, 3852.546
196.5141, 3836.219
196.9963, 3821.822
197.4784, 3808.371
197.9605, 3794.996
198.4426, 3781.620
198.9247, 3769.703
199.4068, 3760.248
199.8890, 3751.324
200.3711, 3741.111
200.8532, 3729.632
201.3353, 3719.164
201.8174, 3712.121
202.2995, 3708.775
202.7817, 3704.549
203.2638, 3698.140
203.7459, 3691.442
204.2280, 3686.781
204.7101, 3684.506
205.1922, 3681.801
205.6744, 3674.952
206.1565, 3665.032
206.6386, 3657.378
207.1207, 3655.112
207.6028, 3654.917
208.0849, 3652.196
208.5671, 3646.252
209.0492, 3639.226
209.5313, 3632.253
210.0134, 3625.450
210.4955, 3619.188
210.9776, 3613.816
211.4598, 3609.040
211.9419, 3604.139
212.4240, 3599.007
212.9061, 3594.017
213.3882, 3589.012
213.8703, 3584.268
214.3525, 3580.421
214.8346, 3578.253
215.3167, 3577.219
215.7988, 3575.371
216.2809, 3572.360
216.7630, 3568.954
217.2451, 3565.819
217.7273, 3562.560
218.2094, 3558.409
218.6915, 3552.639
219.1736, 3545.582
219.6557, 3539.366
220.1378, 3534.877
220.6200, 3530.203
221.1021, 3524.409
221.5842, 3518.097
222.0663, 3512.344
222.5484, 3508.095
223.0305, 3505.068
223.5127, 3500.455
223.9948, 3492.281
224.4769, 3484.564
224.9590, 3478.774
225.4411, 3473.958
225.9232, 3468.261
226.4054, 3460.208
226.8875, 3450.208
227.3696, 3442.546
227.8517, 3441.644
228.3338, 3438.569
228.8159, 3429.667
229.2981, 3417.346
229.7802, 3406.195
230.2623, 3399.294
230.7444, 3396.108
231.2265, 3390.695
231.7086, 3379.777
232.1908, 3370.372
232.6729, 3364.949
233.1550, 3362.286
233.6371, 3359.908
234.1192, 3356.349
234.6013, 3351.759
235.0835, 3347.270
235.5656, 3343.317
236.0477, 3338.935
236.5298, 3332.583
237.0119, 3325.542
237.4940, 3320.809
237.9762, 3320.441
238.4583, 3323.288
238.9404, 3323.893
239.4225, 3321.536
239.9046, 3318.257
240.3867, 3313.984
240.8689, 3309.237
241.3510, 3305.407
241.8331, 3303.349
242.3152, 3302.502
242.7973, 3301.117
243.2794, 3298.969
243.7616, 3296.767
244.2437, 3294.831
244.7258, 3293.101
245.2079, 3291.451
245.6900, 3289.960
246.1721, 3288.371
246.6543, 3286.043
247.1364, 3282.584
247.6185, 3279.557
248.1006, 3278.035
248.5827, 3277.671
249.0648, 3277.296
249.5470, 3276.840
250.0291, 3275.739
250.5112, 3273.005
250.9933, 3268.315
251.4754, 3263.984
251.9576, 3261.923
252.4397, 3261.491
252.9218, 3259.574
253.4039, 3254.294
253.8860, 3248.630
254.3681, 3246.309
254.8503, 3247.302
255.3324, 3247.771
255.8145, 3244.319
256.2966, 3237.935
256.7787, 3233.814
257.2608, 3233.784
257.7430, 3235.154
258.2251, 3235.927
258.7072, 3236.104
259.1893, 3235.614
259.6714, 3233.989
260.1535, 3231.515
260.6357, 3229.663
261.1178, 3228.515
261.5999, 3228.237
262.0820, 3229.464
262.5641, 3231.649
263.0462, 3233.109
263.5284, 3232.453
264.0105, 3230.024
264.4926, 3227.864
264.9747, 3226.327
265.4568, 3224.542
265.9389, 3221.286
266.4211, 3217.486
266.9032, 3215.104
267.3853, 3215.791
267.8674, 3218.774
268.3495, 3220.717
268.8316, 3221.181
269.3138, 3221.138
269.7959, 3220.567
270.2780, 3219.879
270.7601, 3219.862
271.2422, 3221.272
271.7243, 3223.296
272.2065, 3223.007
272.6886, 3218.885
273.1707, 3214.941
273.6528, 3211.669
274.1349, 3209.354
274.6170, 3208.653
275.0992, 3210.014
275.5813, 3212.431
276.0634, 3213.275
276.5455, 3211.444
277.0276, 3210.089
277.5097, 3209.622
277.9919, 3209.884
278.4740, 3211.079
278.9561, 3213.264
279.4382, 3215.531
279.9203, 3215.940
280.4024, 3213.040
280.8846, 3211.384
281.3667, 3212.089
281.8488, 3213.568
282.3309, 3214.916
282.8130, 3215.816
283.2951, 3216.162
283.7773, 3215.527
284.2594, 3212.931
284.7415, 3211.871
285.2236, 3214.391
285.7057, 3216.764
286.1878, 3216.338
286.6700, 3213.077
287.1521, 3209.127
287.6342, 3206.926
288.1163, 3206.891
288.5984, 3207.065
289.0805, 3206.478
289.5627, 3206.892
290.0448, 3210.443
290.5269, 3216.131
291.0090, 3220.609
291.4911, 3220.585
291.9732, 3215.639
292.4554, 3211.502
292.9375, 3208.448
293.4196, 3205.888
293.9017, 3203.961
294.3838, 3202.391
294.8659, 3200.645
295.3481, 3198.302
295.8302, 3195.434
296.3123, 3193.099
296.7944, 3191.169
297.2765, 3189.979
297.7586, 3190.260
298.2408, 3191.217
298.7229, 3191.784
299.2050, 3191.387
299.6871, 3190.107
300.1692, 3188.215
300.6513, 3185.692
301.1335, 3182.500
301.6156, 3177.615
302.0977, 3172.521
302.5798, 3168.845
303.0619, 3167.240
303.5440, 3167.038
304.0262, 3166.847
304.5083, 3166.695
304.9904, 3166.520
305.4725, 3166.929
305.9546, 3166.952
306.4367, 3165.728
306.9189, 3163.087
307.4010, 3159.517
307.8831, 3155.582
308.3652, 3150.764
308.8473, 3146.979
309.3294, 3144.458
309.8116, 3142.534
310.2937, 3140.703
310.7758, 3138.998
311.2579, 3138.008
311.7400, 3138.614
312.2221, 3141.419
312.7043, 3141.347
313.1864, 3135.565
313.6685, 3130.121
314.1506, 3128.161
314.6327, 3128.607
315.1148, 3128.218
315.5970, 3124.417
316.0791, 3117.618
316.5612, 3113.469
317.0433, 3115.633
317.5254, 3116.375
318.0075, 3112.654
318.4897, 3106.794
318.9718, 3102.635
319.4539, 3102.220
319.9360, 3104.133
320.4181, 3103.802
320.9002, 3098.812
321.3824, 3094.433
321.8645, 3091.172
322.3466, 3088.514
322.8287, 3085.984
323.3108, 3083.424
323.7929, 3080.846
324.2751, 3078.384
324.7572, 3076.720
325.2393, 3073.707
325.7214, 3067.573
326.2035, 3061.549
326.6856, 3058.188
327.1678, 3057.556
327.6499, 3057.626
328.1320, 3056.237
328.6141, 3053.191
329.0962, 3049.542
329.5783, 3044.677
330.0605, 3039.872
330.5426, 3036.039
331.0247, 3032.762
331.5068, 3028.804
331.9889, 3023.039
332.4710, 3015.675
332.9532, 3010.145
333.4353, 3009.027
333.9174, 3006.976
334.3995, 3002.042
334.8816, 2995.790
335.3637, 2990.542
335.8459, 2987.521
336.3280, 2986.013
336.8101, 2983.989
337.2922, 2981.089
337.7743, 2978.177
338.2564, 2975.635
338.7386, 2972.942
339.2206, 2969.707
339.7028, 2965.792
340.1849, 2961.277
340.6670, 2956.105
341.1491, 2949.665
341.6312, 2944.156
342.1133, 2940.173
342.5955, 2936.517
343.0776, 2932.820
343.5597, 2928.883
344.0418, 2924.317
344.5239, 2918.323
345.0060, 2910.661
345.4882, 2905.801
345.9703, 2907.866
346.4524, 2908.840
346.9345, 2905.406
347.4166, 2899.438
347.8987, 2894.521
348.3809, 2892.959
348.8630, 2893.918
349.3451, 2894.116
349.8272, 2893.682
350.3093, 2892.103
350.7914, 2888.392
351.2736, 2884.056
351.7557, 2880.385
352.2378, 2877.819
352.7199, 2876.474
353.2020, 2877.011
353.6841, 2880.542
354.1663, 2882.488
354.6484, 2881.808
355.1305, 2879.864
355.6126, 2876.443
356.0947, 2872.048
356.5768, 2868.648
357.0590, 2868.721
357.5411, 2872.450
358.0232, 2875.142
358.5053, 2876.856
358.9874, 2877.321
359.4695, 2875.711
359.9517, 2872.880
360.4338, 2870.538
360.9159, 2869.845
361.3980, 2870.239
361.8801, 2869.943
362.3622, 2868.698
362.8444, 2867.322
363.3265, 2865.812
363.8086, 2864.447
364.2907, 2863.523
364.7728, 2863.120
365.2549, 2863.149
365.7371, 2863.806
366.2192, 2865.253
366.7013, 2865.754
367.1834, 2863.813
367.6655, 2861.664
368.1476, 2860.735
368.6298, 2861.125
369.1119, 2862.616
369.5940, 2866.345
370.0761, 2871.434
370.5582, 2873.420
371.0403, 2871.202
371.5225, 2867.108
372.0046, 2861.812
372.4867, 2855.969
372.9688, 2851.094
373.4509, 2848.345
373.9330, 2846.548
374.4152, 2843.657
374.8973, 2839.444
375.3794, 2836.163
375.8615, 2835.444
376.3436, 2836.162
376.8257, 2836.649
377.3079, 2836.802
377.7900, 2836.567
378.2721, 2834.962
378.7542, 2832.638
379.2363, 2832.933
379.7184, 2837.951
380.2006, 2843.952
380.6827, 2846.004
381.1648, 2844.277
381.6469, 2841.919
382.1290, 2838.793
382.6111, 2836.069
383.0933, 2836.248
383.5754, 2839.793
384.0575, 2842.615
384.5396, 2840.875
385.0217, 2835.180
385.5038, 2831.236
385.9860, 2830.205
386.4681, 2830.092
386.9502, 2830.234
387.4323, 2830.398
387.9144, 2829.815
388.3965, 2828.040
388.8787, 2825.426
389.3608, 2822.823
389.8429, 2820.126
390.3250, 2817.605
390.8071, 2815.059
391.2892, 2812.819
391.7714, 2811.478
392.2535, 2811.131
392.7356, 2811.004
393.2177, 2810.132
393.6998, 2808.230
394.1819, 2807.011
394.6641, 2806.969
395.1462, 2807.089
395.6283, 2807.489
396.1104, 2807.657
396.5925, 2805.987
397.0746, 2801.075
397.5568, 2793.964
398.0389, 2790.394
398.5210, 2794.118
399.0031, 2796.993
399.4852, 2797.680
399.9673, 2797.295
400.4495, 2797.322
400.9316, 2798.158
401.4137, 2798.709
401.8958, 2796.898
402.3779, 2790.658
402.8600, 2787.805
403.3422, 2790.387
403.8243, 2793.999
404.3064, 2797.048
404.7885, 2799.196
405.2706, 2800.376
405.7527, 2800.405
406.2349, 2799.432
406.7170, 2798.662
407.1991, 2797.844
407.6812, 2797.645
408.1633, 2798.766
408.6454, 2800.289
409.1276, 2801.137
409.6097, 2800.917
410.0918, 2800.242
410.5739, 2800.245
411.0560, 2801.268
411.5381, 2801.173
412.0203, 2798.558
412.5024, 2795.617
412.9845, 2793.799
413.4666, 2792.928
413.9487, 2791.734
414.4308, 2788.895
414.9130, 2784.980
415.3951, 2782.265
415.8772, 2781.207
416.3593, 2780.226
416.8414, 2778.764
417.3235, 2776.755
417.8057, 2773.826
418.2878, 2769.348
418.7699, 2765.015
419.2520, 2762.715
419.7341, 2762.243
420.2162, 2761.626
420.6984, 2760.175
421.1805, 2758.473
421.6626, 2757.217
422.1447, 2756.377
422.6268, 2755.821
423.1089, 2756.231
423.5911, 2756.575
424.0732, 2755.315
424.5553, 2752.284
425.0374, 2748.427
425.5195, 2744.036
426.0016, 2739.392
426.4838, 2736.095
426.9659, 2735.126
427.4480, 2734.423
427.9301, 2732.847
428.4122, 2730.893
428.8943, 2729.760
429.3765, 2729.966
429.8586, 2730.757
430.3407, 2730.856
430.8228, 2730.194
431.3049, 2728.889
431.7870, 2725.972
432.2692, 2723.177
432.7513, 2722.114
433.2334, 2722.580
433.7155, 2722.987
434.1976, 2722.011
434.6797, 2719.774
435.1619, 2718.062
435.6440, 2717.331
436.1261, 2716.587
436.6082, 2715.464
437.0903, 2714.309
437.5724, 2713.466
438.0546, 2713.066
438.5367, 2713.099
439.0188, 2713.847
439.5009, 2716.021
439.9830, 2716.542
440.4651, 2713.973
440.9473, 2710.926
441.4294, 2707.636
441.9115, 2704.789
442.3936, 2704.028
442.8757, 2707.366
443.3578, 2713.033
443.8400, 2714.388
444.3221, 2709.328
444.8042, 2705.262
445.2863, 2705.787
445.7684, 2708.038
446.2505, 2709.611
446.7327, 2710.023
447.2148, 2709.971
447.6969, 2710.200
448.1790, 2710.556
448.6611, 2709.979
449.1432, 2707.862
449.6254, 2705.677
450.1075, 2704.911
450.5896, 2705.144
451.0717, 2705.138
451.5538, 2704.052
452.0359, 2702.951
452.5181, 2703.324
453.0002, 2704.879
453.4823, 2705.404
453.9644, 2703.492
454.4465, 2700.430
454.9286, 2699.243
455.4108, 2700.344
455.8929, 2701.552
456.3750, 2703.713
456.8571, 2705.018
457.3392, 2702.452
457.8214, 2696.032
458.3035, 2689.893
458.7856, 2687.911
459.2677, 2690.152
459.7498, 2690.587
460.2319, 2687.923
460.7141, 2685.266
461.1962, 2684.323
461.6783, 2683.655
462.1604, 2680.944
462.6425, 2675.360
463.1246, 2668.397
463.6068, 2662.721
464.0889, 2659.394
464.5710, 2654.612
465.0531, 2646.844
465.5352, 2639.156
466.0173, 2632.549
466.4995, 2627.224
466.9816, 2623.446
467.4637, 2621.854
467.9458, 2621.393
468.4279, 2618.453
468.9100, 2612.001
469.3922, 2605.721
469.8743, 2600.665
470.3564, 2596.200
470.8385, 2591.847
471.3206, 2587.532
471.8027, 2583.564
472.2849, 2580.625
472.7670, 2578.280
473.2491, 2574.777
473.7312, 2569.617
474.2133, 2564.246
474.6954, 2559.468
475.1776, 2555.247
475.6597, 2551.725
476.1418, 2549.696
476.6239, 2547.431
477.1060, 2543.569
477.5881, 2538.505
478.0703, 2533.227
478.5524, 2528.040
479.0345, 2523.019
479.5166, 2518.392
479.9987, 2514.297
480.4808, 2509.921
480.9630, 2504.665
481.4451, 2499.614
481.9272, 2495.393
482.4093, 2492.052
482.8914, 2489.753
483.3735, 2488.749
483.8557, 2488.365
484.3378, 2486.141
484.8199, 2480.333
485.3020, 2475.074
485.7841, 2470.406
486.2662, 2466.359
486.7484, 2463.253
487.2305, 2460.898
487.7126, 2458.419
488.1947, 2454.688
488.6768, 2449.883
489.1589, 2447.227
489.6411, 2449.000
490.1232, 2449.244
490.6053, 2444.594
491.0874, 2438.321
491.5695, 2434.390
492.0516, 2434.025
492.5338, 2434.549
493.0159, 2433.377
493.4980, 2430.643
493.9801, 2427.245
494.4622, 2422.618
494.9443, 2418.708
495.4265, 2418.023
495.9086, 2419.438
496.3907, 2419.823
496.8728, 2417.816
497.3549, 2415.047
497.8370, 2412.362
498.3192, 2409.953
498.8013, 2408.843
499.2834, 2409.763
499.7655, 2411.153
500.2476, 2410.070
500.7297, 2405.078
501.2119, 2402.821
501.6940, 2406.403
502.1761, 2410.613
502.6582, 2410.973
503.1403, 2408.496
503.6224, 2407.601
504.1045, 2411.246
504.5866, 2417.856
505.0688, 2421.727
505.5509, 2421.056
506.0330, 2420.355
506.5151, 2419.577
506.9972, 2419.116
507.4793, 2419.558
507.9615, 2420.733
508.4436, 2421.673
508.9257, 2421.325
509.4078, 2420.038
509.8899, 2420.199
510.3720, 2422.879
510.8542, 2424.660
511.3363, 2423.832
511.8184, 2421.711
512.3005, 2419.354
512.7827, 2416.906
513.2648, 2414.622
513.7469, 2411.989
514.2290, 2409.659
514.7111, 2410.033
515.1932, 2413.936
515.6754, 2418.104
516.1575, 2420.499
516.6396, 2421.031
517.1217, 2419.906
517.6038, 2415.344
518.0859, 2411.196
518.5681, 2409.222
519.0502, 2408.819
519.5323, 2409.382
520.0144, 2410.710
520.4965, 2411.710
520.9786, 2410.846
521.4608, 2407.558
521.9429, 2405.884
522.4250, 2407.142
522.9071, 2408.285
523.3892, 2408.498
523.8713, 2407.809
524.3535, 2406.337
524.8356, 2404.144
525.3177, 2401.327
525.7998, 2397.580
526.2819, 2392.239
526.7640, 2389.350
527.2462, 2391.601
527.7283, 2393.834
528.2104, 2393.766
528.6925, 2391.766
529.1746, 2388.778
529.6567, 2384.817
530.1389, 2380.679
530.6210, 2377.684
531.1031, 2375.746
531.5852, 2373.133
532.0673, 2368.809
532.5494, 2364.481
533.0316, 2362.661
533.5137, 2363.166
533.9958, 2363.157
534.4779, 2362.480
534.9600, 2360.744
535.4421, 2357.170
535.9243, 2352.195
536.4064, 2346.886
536.8885, 2341.634
537.3706, 2337.059
537.8527, 2334.587
538.3348, 2335.353
538.8170, 2336.051
539.2991, 2336.873
539.7812, 2337.462
540.2633, 2337.865
540.7454, 2337.864
541.2275, 2336.950
541.7097, 2334.747
542.1918, 2331.665
542.6739, 2328.758
543.1560, 2326.084
543.6381, 2323.355
544.1202, 2319.988
544.6024, 2317.020
545.0845, 2315.313
545.5666, 2314.703
546.0487, 2314.232
546.5308, 2313.543
547.0129, 2312.603
547.4951, 2311.104
547.9772, 2309.072
548.4593, 2307.679
548.9414, 2307.655
549.4235, 2308.253
549.9056, 2308.135
550.3878, 2307.251
550.8699, 2306.245
551.3520, 2304.842
551.8341, 2303.668
552.3162, 2303.503
552.7983, 2304.098
553.2805, 2304.493
553.7626, 2304.124
554.2447, 2303.176
554.7268, 2302.160
555.2089, 2300.914
555.6910, 2299.886
556.1732, 2299.757
556.6553, 2299.233
557.1374, 2297.010
557.6195, 2293.606
558.1016, 2290.752
558.5837, 2289.569
559.0659, 2289.551
559.5480, 2289.877
560.0301, 2290.815
560.5122, 2290.456
560.9943, 2287.999
561.4764, 2284.206
561.9586, 2279.544
562.4407, 2274.120
562.9228, 2269.231
563.4049, 2265.273
563.8870, 2262.147
564.3691, 2259.890
564.8513, 2258.438
565.3334, 2257.711
565.8155, 2257.898
566.2976, 2258.142
566.7797, 2256.772
567.2618, 2253.083
567.7440, 2249.267
568.2261, 2244.097
568.7082, 2239.958
569.1903, 2238.974
569.6724, 2240.112
570.1545, 2240.921
570.6367, 2240.105
571.1188, 2238.093
571.6009, 2235.736
572.0830, 2232.972
572.5651, 2229.948
573.0472, 2226.021
573.5294, 2222.492
574.0115, 2220.596
574.4936, 2219.665
574.9757, 2217.751
575.4578, 2213.239
575.9399, 2208.518
576.4221, 2206.586
576.9042, 2207.030
577.3863, 2207.760
577.8684, 2208.544
578.3505, 2208.360
578.8326, 2205.602
579.3148, 2200.027
579.7969, 2195.582
580.2790, 2192.529
580.7611, 2190.493
581.2432, 2190.052
581.7253, 2190.298
582.2075, 2189.585
582.6896, 2187.405
583.1717, 2184.906
583.6538, 2183.845
584.1359, 2184.580
584.6180, 2184.149
585.1002, 2180.680
585.5823, 2178.275
586.0643, 2179.486
586.5464, 2181.949
587.0286, 2182.256
587.5107, 2179.301
587.9928, 2175.823
