##NAMES=Jahnsite-(CaMnMn)
##RRUFFID=R080072
##IDEAL CHEMISTRY=CaMn^2+^Mn^2+^_2_Fe^3+^_2_(PO_4_)_4_(OH)_2_&#183;8H_2_O
##LOCALITY=Tip Top mine, Custer Country, South Dakota, USA
##OWNER=RRUFF
##SOURCE=Tom Loomis
##DESCRIPTION=Pale yellow blocky to thick tabular crystals associated with scholzite, R080068
##STATUS=The identification of this mineral has been confirmed only by single crystal X-ray diffraction.
##URL=rruff.info/R080072
91.87140, 0.0000000E+00
92.35352, 19.21389
92.83563, 18.12984
93.31775, 17.66844
93.79987, 18.04849
94.28198, 19.08042
94.76410, 20.20837
95.24622, 21.25836
95.72833, 22.40894
96.21045, 24.05015
96.69257, 26.20443
97.17468, 28.59706
97.65680, 30.97160
98.13892, 33.33989
98.62103, 35.79069
99.10315, 38.14598
99.58527, 40.53221
100.0674, 43.76283
100.5495, 47.90756
101.0316, 52.68496
101.5137, 57.66017
101.9958, 62.79147
102.4780, 68.37998
102.9601, 74.47289
103.4422, 81.06506
103.9243, 88.17175
104.4064, 95.89330
104.8885, 104.1015
105.3707, 112.8371
105.8528, 122.4622
106.3349, 132.0014
106.8170, 141.0211
107.2991, 149.3486
107.7813, 157.4898
108.2634, 165.5595
108.7455, 173.4985
109.2276, 180.8186
109.7097, 186.8129
110.1918, 192.7674
110.6740, 199.2244
111.1561, 206.2779
111.6382, 213.7443
112.1203, 221.3831
112.6024, 229.3586
113.0845, 238.2502
113.5667, 248.4671
114.0488, 259.4136
114.5309, 270.8110
115.0130, 282.7393
115.4951, 294.8698
115.9772, 307.2281
116.4594, 319.9105
116.9415, 332.5654
117.4236, 345.2900
117.9057, 357.8633
118.3878, 369.9965
118.8699, 381.5631
119.3521, 392.8131
119.8342, 404.1295
120.3163, 415.5771
120.7984, 426.5923
121.2805, 436.5822
121.7626, 445.9224
122.2448, 455.2548
122.7269, 465.8380
123.2090, 476.0960
123.6911, 484.1516
124.1732, 489.4261
124.6553, 494.0938
125.1375, 499.7773
125.6196, 506.4170
126.1017, 513.8228
126.5838, 522.5526
127.0659, 531.8801
127.5480, 540.3710
128.0302, 547.5499
128.5123, 554.5290
128.9944, 562.8987
129.4765, 572.5655
129.9586, 582.6517
130.4407, 592.5215
130.9229, 602.2796
131.4050, 612.4775
131.8871, 623.1351
132.3692, 634.0996
132.8513, 644.8516
133.3334, 654.3589
133.8156, 660.7330
134.2977, 664.7933
134.7798, 668.8436
135.2619, 672.5344
135.7440, 675.7050
136.2261, 678.4679
136.7083, 681.5712
137.1904, 685.0641
137.6725, 688.8235
138.1546, 693.0085
138.6367, 697.8603
139.1188, 701.9910
139.6010, 704.9938
140.0831, 706.8666
140.5652, 708.6364
141.0473, 710.2386
141.5294, 711.8440
142.0115, 713.6006
142.4937, 715.4125
142.9758, 717.5769
143.4579, 720.2328
143.9400, 723.4313
144.4221, 726.6761
144.9042, 729.8494
145.3864, 733.0999
145.8685, 736.6318
146.3506, 740.6234
146.8327, 744.6590
147.3148, 748.6862
147.7969, 752.8303
148.2791, 756.6352
148.7612, 760.1691
149.2433, 763.3638
149.7254, 766.0878
150.2075, 767.4316
150.6896, 769.1006
151.1718, 771.7359
151.6539, 776.2765
152.1360, 780.4262
152.6181, 784.1022
153.1002, 787.3626
153.5823, 790.3546
154.0645, 792.9678
154.5466, 795.4337
155.0287, 797.8629
155.5108, 800.7791
155.9929, 803.0724
156.4750, 804.1489
156.9572, 804.3174
157.4393, 804.8326
157.9214, 805.8221
158.4035, 807.3127
158.8856, 809.3212
159.3677, 812.6894
159.8499, 815.7480
160.3320, 817.7399
160.8141, 818.8615
161.2962, 820.2890
161.7783, 822.6370
162.2604, 825.3708
162.7426, 828.0490
163.2247, 830.6276
163.7068, 833.0560
164.1889, 835.2009
164.6710, 837.0734
165.1531, 839.0985
165.6353, 841.8045
166.1174, 844.6549
166.5995, 847.0706
167.0816, 848.2770
167.5637, 849.3898
168.0458, 851.1371
168.5280, 853.5084
169.0101, 856.0944
169.4922, 858.8665
169.9743, 861.6182
170.4564, 864.0442
170.9385, 865.5078
171.4207, 866.8963
171.9028, 869.1256
172.3849, 872.2537
172.8670, 875.4664
173.3491, 878.1495
173.8312, 880.4940
174.3134, 882.8726
174.7955, 885.9372
175.2776, 888.9003
175.7597, 890.5597
176.2418, 890.7363
176.7239, 890.7550
177.2061, 891.9058
177.6882, 893.9148
178.1703, 896.0022
178.6524, 898.1002
179.1345, 899.9861
179.6166, 901.1194
180.0988, 901.3806
180.5809, 901.4329
181.0630, 902.2720
181.5451, 903.6486
182.0272, 904.5301
182.5093, 903.9163
182.9915, 902.4362
183.4736, 901.7160
183.9557, 901.9808
184.4378, 902.5408
184.9199, 902.6750
185.4020, 902.3626
185.8842, 901.4852
186.3663, 899.7459
186.8484, 897.3394
187.3305, 895.0721
187.8126, 893.0383
188.2947, 891.0148
188.7769, 888.4859
189.2590, 885.4866
189.7411, 882.6980
190.2232, 880.5605
190.7053, 879.0012
191.1874, 877.4332
191.6696, 875.7274
192.1517, 874.1279
192.6338, 872.9728
193.1159, 872.2560
193.5980, 872.1456
194.0801, 873.1066
194.5623, 875.0251
195.0444, 876.2459
195.5265, 876.4046
196.0086, 876.0785
196.4907, 876.6172
196.9728, 878.1270
197.4550, 879.5625
197.9371, 879.8244
198.4192, 878.8677
198.9013, 879.6035
199.3834, 882.7411
199.8655, 887.2175
200.3477, 890.4678
200.8298, 892.2850
201.3119, 893.7709
201.7940, 895.7324
202.2761, 898.2700
202.7582, 900.1332
203.2404, 901.0257
203.7225, 901.3300
204.2046, 902.1591
204.6867, 903.6725
205.1688, 905.1943
205.6509, 906.3828
206.1331, 907.2834
206.6152, 907.6442
207.0973, 907.4403
207.5794, 906.6898
208.0615, 905.2357
208.5436, 902.7158
209.0258, 900.4358
209.5079, 899.2309
209.9900, 899.2286
210.4721, 899.8619
210.9542, 901.7142
211.4363, 903.9491
211.9185, 903.4111
212.4006, 899.0683
212.8827, 894.1340
213.3648, 890.6012
213.8469, 888.6615
214.3290, 887.2821
214.8112, 886.6564
215.2933, 886.4719
215.7754, 885.4631
216.2575, 883.1392
216.7396, 880.8977
217.2217, 879.6018
217.7039, 879.4821
218.1860, 879.6312
218.6681, 880.1363
219.1502, 880.8471
219.6323, 881.1649
220.1144, 880.8990
220.5966, 880.5790
221.0787, 880.5461
221.5608, 880.9879
222.0429, 881.1896
222.5250, 880.8528
223.0071, 880.2860
223.4893, 880.6895
223.9714, 882.5197
224.4535, 884.6270
224.9356, 886.3987
225.4177, 887.6097
225.8998, 889.0381
226.3820, 890.8384
226.8641, 892.8738
227.3462, 894.5302
227.8283, 895.3711
228.3104, 896.4799
228.7925, 898.5106
229.2747, 902.1854
229.7568, 905.1492
230.2389, 907.0410
230.7210, 908.2275
231.2031, 909.9373
231.6852, 912.8466
232.1674, 915.2651
232.6495, 916.1713
233.1316, 914.4702
233.6137, 913.7229
234.0958, 914.2686
234.5779, 915.7712
235.0601, 917.3398
235.5422, 919.1780
236.0243, 920.8219
236.5064, 921.9762
236.9885, 922.1120
237.4706, 922.9762
237.9528, 924.9135
238.4349, 927.4782
238.9170, 929.5119
239.3991, 930.6813
239.8812, 931.8163
240.3633, 933.3622
240.8455, 935.8202
241.3276, 937.3381
241.8097, 937.1447
242.2918, 936.2778
242.7739, 937.1761
243.2560, 941.0929
243.7382, 944.8405
244.2203, 947.1133
244.7024, 947.2395
245.1845, 947.7535
245.6666, 948.5019
246.1487, 949.7140
246.6309, 951.9012
247.1130, 955.4139
247.5951, 959.3476
248.0772, 963.4023
248.5593, 967.6497
249.0414, 971.8513
249.5236, 976.1526
250.0057, 980.2995
250.4878, 983.8707
250.9699, 986.4424
251.4520, 989.1859
251.9341, 992.4004
252.4163, 996.1002
252.8984, 1000.297
253.3805, 1005.225
253.8626, 1010.508
254.3447, 1015.397
254.8268, 1019.638
255.3090, 1024.170
255.7911, 1029.397
256.2732, 1035.527
256.7553, 1040.774
257.2374, 1044.751
257.7195, 1048.250
258.2017, 1052.200
258.6838, 1056.633
259.1659, 1061.541
259.6480, 1067.111
260.1301, 1073.330
260.6122, 1079.341
261.0944, 1085.206
261.5765, 1090.823
262.0586, 1095.993
262.5407, 1100.381
263.0228, 1105.228
263.5049, 1110.789
263.9871, 1117.099
264.4692, 1123.729
264.9513, 1131.078
265.4334, 1138.214
265.9155, 1144.204
266.3976, 1148.434
266.8798, 1153.251
267.3619, 1159.188
267.8440, 1166.119
268.3261, 1172.562
268.8082, 1178.338
269.2903, 1183.973
269.7725, 1190.150
270.2546, 1197.233
270.7367, 1202.750
271.2188, 1205.961
271.7009, 1207.354
272.1830, 1209.146
272.6652, 1211.608
273.1473, 1213.674
273.6294, 1214.694
274.1115, 1214.633
274.5936, 1213.612
275.0757, 1211.607
275.5579, 1208.664
276.0400, 1205.000
276.5221, 1200.643
277.0042, 1195.415
277.4863, 1188.870
277.9684, 1180.867
278.4506, 1173.566
278.9327, 1167.472
279.4148, 1161.705
279.8969, 1154.187
280.3790, 1144.704
280.8611, 1135.049
281.3433, 1126.070
281.8254, 1117.736
282.3075, 1109.908
282.7896, 1102.723
283.2717, 1095.640
283.7538, 1087.388
284.2360, 1077.890
284.7181, 1069.286
285.2002, 1063.258
285.6823, 1059.381
286.1644, 1053.406
286.6465, 1044.944
287.1287, 1035.982
287.6108, 1029.207
288.0929, 1024.512
288.5750, 1020.089
289.0571, 1015.247
289.5392, 1010.115
290.0214, 1005.401
290.5035, 1001.170
290.9856, 996.9869
291.4677, 992.3087
291.9498, 987.2174
292.4319, 982.3482
292.9141, 977.7352
293.3962, 973.5149
293.8783, 970.0833
294.3604, 967.4697
294.8425, 965.2654
295.3246, 963.4537
295.8068, 961.8130
296.2889, 959.4799
296.7710, 955.7148
297.2531, 951.7733
297.7352, 950.1472
298.2173, 950.6088
298.6995, 951.1614
299.1816, 950.3581
299.6637, 948.5944
300.1458, 946.6422
300.6279, 944.4934
301.1100, 942.4487
301.5922, 940.9413
302.0743, 939.8840
302.5564, 938.9651
303.0385, 937.9466
303.5206, 936.9416
304.0027, 936.2675
304.4849, 936.1317
304.9670, 935.6185
305.4491, 933.6193
305.9312, 930.5538
306.4133, 927.4286
306.8954, 924.5125
307.3776, 921.9244
307.8597, 920.1734
308.3418, 919.3983
308.8239, 918.1182
309.3060, 914.8375
309.7881, 910.3850
310.2703, 906.1713
310.7524, 902.7505
311.2345, 899.7458
311.7166, 897.1071
312.1987, 894.8065
312.6808, 892.3434
313.1630, 889.6211
313.6451, 886.4822
314.1272, 882.7197
314.6093, 877.2814
315.0914, 872.1581
315.5735, 868.6239
316.0557, 866.4113
316.5378, 864.1306
317.0199, 861.0197
317.5020, 857.7233
317.9841, 854.6498
318.4662, 851.9090
318.9484, 849.4819
319.4305, 847.9828
319.9126, 846.8656
320.3947, 844.6907
320.8768, 839.1876
321.3589, 833.9313
321.8411, 830.8546
322.3232, 831.1186
322.8053, 831.3859
323.2874, 831.3887
323.7695, 830.9457
324.2516, 829.7701
324.7338, 826.1456
325.2159, 823.3147
325.6980, 822.5491
326.1801, 824.4304
326.6622, 825.9825
327.1443, 826.7345
327.6265, 827.1906
328.1086, 827.8611
328.5907, 828.9794
329.0728, 830.0624
329.5549, 831.0109
330.0370, 831.8293
330.5192, 832.7477
331.0013, 833.8443
331.4834, 834.9872
331.9655, 836.1100
332.4476, 837.3028
332.9297, 838.3230
333.4119, 839.1276
333.8940, 839.7327
334.3761, 840.1642
334.8582, 840.2314
335.3403, 840.3926
335.8224, 840.9719
336.3046, 842.2929
336.7867, 843.0120
337.2688, 842.9747
337.7509, 842.4160
338.2330, 841.8309
338.7151, 841.2978
339.1973, 840.5081
339.6794, 839.3095
340.1615, 837.7068
340.6436, 835.9958
341.1257, 834.2498
341.6078, 832.3183
342.0900, 829.9717
342.5721, 827.2469
343.0542, 824.3428
343.5363, 821.3516
344.0184, 818.2744
344.5005, 814.9664
344.9827, 811.4393
345.4648, 807.8245
345.9469, 804.2355
346.4290, 800.6369
346.9111, 797.2148
347.3932, 794.0620
347.8754, 790.9445
348.3575, 787.3445
348.8396, 783.3167
349.3217, 779.4288
349.8038, 776.2125
350.2859, 773.4298
350.7681, 770.5111
351.2502, 767.3585
351.7323, 764.1497
352.2144, 761.3234
352.6965, 758.6461
353.1786, 755.4957
353.6608, 750.9033
354.1429, 745.9815
354.6250, 742.2758
355.1071, 739.8927
355.5892, 737.6991
356.0714, 734.8252
356.5535, 731.5924
357.0356, 728.4711
357.5177, 725.8359
357.9998, 723.1984
358.4819, 720.0367
358.9641, 716.4892
359.4462, 713.4133
359.9283, 711.5309
360.4104, 710.1576
360.8925, 708.7192
361.3746, 706.9975
361.8568, 705.3295
362.3389, 703.9063
362.8210, 702.6347
363.3031, 701.2776
363.7852, 699.7057
364.2673, 698.0687
364.7495, 696.4344
365.2316, 694.8180
365.7137, 693.1641
366.1958, 691.4525
366.6779, 689.7203
367.1600, 687.9941
367.6422, 686.3668
368.1243, 684.6581
368.6064, 682.8964
369.0885, 681.0840
369.5706, 678.9446
370.0527, 675.9675
370.5349, 673.0549
371.0170, 670.7877
371.4991, 669.6614
371.9812, 668.3956
372.4633, 666.8903
372.9454, 665.1876
373.4276, 663.5078
373.9097, 662.0412
374.3918, 660.2354
374.8739, 657.6515
375.3560, 653.8375
375.8381, 651.2184
376.3203, 650.1000
376.8024, 649.8071
377.2845, 649.4022
377.7666, 648.8831
378.2487, 648.2531
378.7308, 647.5325
379.2130, 646.7011
379.6951, 645.6254
380.1772, 644.2283
380.6593, 642.9160
381.1414, 641.8234
381.6235, 640.2628
382.1057, 640.6872
382.5878, 640.8270
383.0699, 640.6974
383.5520, 639.4917
384.0341, 639.6757
384.5162, 639.3027
384.9984, 638.9068
385.4805, 639.2863
385.9626, 638.2371
386.4447, 638.6043
386.9268, 638.4062
387.4089, 639.2240
387.8911, 640.6227
388.3732, 641.8134
388.8553, 642.2116
389.3374, 642.3230
389.8195, 642.6713
390.3016, 643.2346
390.7838, 643.6381
391.2659, 643.4094
391.7480, 642.9986
392.2301, 642.8796
392.7122, 643.2878
393.1943, 643.8771
393.6765, 644.4004
394.1586, 644.9765
394.6407, 645.9171
395.1228, 647.9903
395.6049, 649.9503
396.0870, 651.0515
396.5692, 650.8185
397.0513, 650.9975
397.5334, 652.3517
398.0155, 654.1622
398.4976, 655.5098
398.9797, 655.9089
399.4619, 656.2559
399.9440, 656.4128
400.4261, 656.3776
400.9082, 657.4597
401.3903, 660.4841
401.8724, 663.8225
402.3546, 666.4476
402.8367, 668.0388
403.3188, 669.5336
403.8009, 670.9449
404.2830, 672.3057
404.7651, 673.6561
405.2473, 674.8890
405.7294, 676.3953
406.2115, 678.5274
406.6936, 681.3058
407.1757, 683.3167
407.6578, 684.3406
408.1400, 685.2183
408.6221, 687.1172
409.1042, 690.0109
409.5863, 692.5612
410.0684, 694.3166
410.5505, 695.5785
411.0327, 697.0012
411.5148, 698.6006
411.9969, 700.5967
412.4790, 703.5886
412.9611, 707.0969
413.4432, 709.9170
413.9254, 711.8784
414.4075, 713.3134
414.8896, 714.1394
415.3717, 714.7026
415.8538, 715.8159
416.3359, 718.3588
416.8181, 721.3005
417.3002, 723.7852
417.7823, 725.8140
418.2644, 727.4031
418.7465, 728.2504
419.2286, 728.8454
419.7108, 729.6185
420.1929, 730.3964
420.6750, 731.7534
421.1571, 734.4562
421.6392, 737.9507
422.1213, 740.7371
422.6035, 741.3293
423.0856, 742.0574
423.5677, 744.0701
424.0498, 747.9489
424.5319, 751.2994
425.0140, 753.3778
425.4962, 755.1592
425.9783, 757.6260
426.4604, 761.0345
426.9425, 764.7920
427.4246, 768.8900
427.9067, 773.3261
428.3889, 777.7938
428.8710, 782.2833
429.3531, 786.8087
429.8352, 791.4418
430.3173, 796.1220
430.7994, 800.8488
431.2816, 805.5655
431.7637, 810.3804
432.2458, 815.4620
432.7279, 820.8240
433.2100, 826.0410
433.6921, 830.8856
434.1743, 835.4852
434.6564, 840.3979
435.1385, 845.7104
435.6206, 850.5528
436.1027, 853.7830
436.5848, 855.9648
437.0670, 858.7763
437.5491, 862.8429
438.0312, 866.8897
438.5133, 869.5389
438.9954, 871.0458
439.4775, 872.0992
439.9597, 872.7081
440.4418, 873.2643
440.9239, 874.1956
441.4060, 875.5345
441.8881, 876.8194
442.3702, 877.5942
442.8524, 878.2656
443.3345, 879.2321
443.8166, 880.8077
444.2987, 882.4357
444.7808, 883.6043
445.2629, 884.6368
445.7451, 886.5126
446.2272, 890.0697
446.7093, 893.8824
447.1914, 897.6490
447.6735, 901.7875
448.1556, 904.3018
448.6378, 903.5646
449.1199, 902.2689
449.6020, 903.2493
450.0841, 907.6148
450.5662, 911.9150
451.0483, 915.7236
451.5305, 919.0908
452.0126, 922.2277
452.4947, 925.3041
452.9768, 927.7092
453.4589, 928.9459
453.9410, 928.9861
454.4232, 929.0458
454.9053, 929.1563
455.3874, 929.2552
455.8695, 929.4884
456.3516, 929.7514
456.8337, 929.2598
457.3159, 927.3331
457.7980, 924.8547
458.2801, 923.5222
458.7622, 923.2047
459.2443, 922.9169
459.7264, 922.4044
460.2086, 921.3824
460.6907, 919.3778
461.1728, 916.2276
461.6549, 912.6474
462.1370, 908.8890
462.6191, 905.1390
463.1013, 901.7542
463.5834, 899.0871
464.0655, 896.5951
464.5476, 894.1635
465.0297, 891.7653
465.5118, 889.1600
465.9940, 886.3443
466.4761, 883.2911
466.9582, 879.9300
467.4403, 875.5885
467.9224, 872.0679
468.4045, 869.7161
468.8867, 868.0656
469.3688, 866.4152
469.8509, 864.6260
470.3330, 863.1823
470.8151, 862.3996
471.2972, 862.1678
471.7794, 861.2353
472.2615, 859.4738
472.7436, 857.3596
473.2257, 855.0561
473.7078, 852.5468
474.1899, 850.4733
474.6721, 848.8704
475.1542, 847.6989
475.6363, 847.0688
476.1184, 846.8965
476.6005, 846.6528
477.0826, 845.9619
477.5648, 845.1655
478.0469, 844.8818
478.5290, 845.0676
479.0111, 845.3299
479.4932, 845.5344
479.9753, 845.6002
480.4575, 845.3088
480.9396, 844.4191
481.4217, 843.8566
481.9038, 844.7750
482.3859, 846.2571
482.8680, 846.9398
483.3502, 845.2808
483.8323, 843.7983
484.3144, 843.5853
484.7965, 844.5629
485.2786, 845.2707
485.7607, 845.4105
486.2429, 845.2673
486.7250, 844.9750
487.2071, 844.5076
487.6892, 843.9529
488.1713, 843.3474
488.6534, 842.6432
489.1356, 841.7444
489.6177, 840.6034
490.0998, 839.5016
490.5819, 838.7518
491.0640, 838.0859
491.5461, 835.8373
492.0283, 831.7969
492.5104, 827.7445
492.9925, 825.1331
493.4746, 823.6387
493.9567, 821.7323
494.4388, 819.2120
494.9210, 816.5773
495.4031, 814.4476
495.8852, 812.6215
496.3673, 810.5582
496.8494, 808.1690
497.3315, 805.3348
497.8137, 801.5558
498.2958, 797.0724
498.7779, 793.0695
499.2600, 790.8033
499.7421, 788.7401
500.2242, 785.6248
500.7064, 780.9397
501.1885, 776.7548
501.6706, 774.6816
502.1527, 773.0172
502.6348, 770.0739
503.1169, 763.9435
503.5991, 758.5833
504.0812, 754.7548
504.5633, 752.0829
505.0454, 749.1688
505.5275, 746.3732
506.0096, 742.7764
506.4918, 737.6367
506.9739, 730.6578
507.4560, 725.3513
507.9381, 722.0753
508.4202, 719.4919
508.9023, 716.2269
509.3845, 712.3261
509.8666, 708.6204
510.3487, 705.2935
510.8308, 702.1790
511.3129, 699.0196
511.7950, 695.8343
512.2772, 692.6998
512.7593, 689.6467
513.2414, 686.6807
513.7235, 683.7753
514.2056, 680.9271
514.6877, 678.1002
515.1699, 675.3234
515.6520, 672.5233
516.1341, 669.5643
516.6162, 666.0734
517.0983, 663.0714
517.5804, 661.2582
518.0626, 660.0427
518.5447, 658.4590
519.0268, 655.6876
519.5089, 653.2350
519.9910, 651.5585
520.4731, 650.5952
520.9553, 649.5017
521.4374, 648.2813
521.9195, 646.9529
522.4016, 645.5043
522.8837, 643.9247
523.3658, 642.3693
523.8480, 640.8126
524.3301, 639.3566
524.8122, 638.2179
525.2943, 637.3855
525.7764, 636.4669
526.2585, 635.1871
526.7407, 633.9703
527.2228, 633.6458
527.7049, 634.1193
528.1870, 634.8263
528.6691, 635.6621
529.1512, 636.4245
529.6334, 636.8171
530.1155, 636.8074
530.5976, 636.7493
531.0797, 636.4828
531.5618, 636.4343
532.0439, 637.0693
532.5261, 639.2274
533.0082, 641.0248
533.4903, 641.6748
533.9724, 641.6724
534.4545, 642.1008
534.9366, 643.2857
535.4188, 644.6429
535.9009, 646.0116
536.3830, 647.4031
536.8651, 649.1361
537.3472, 651.2820
537.8293, 653.6458
538.3115, 656.0870
538.7936, 658.5973
539.2757, 661.2853
539.7578, 664.1593
540.2399, 667.1682
540.7220, 670.3491
541.2042, 673.6365
541.6863, 676.8358
542.1684, 679.6988
542.6505, 682.7064
543.1326, 686.8085
543.6147, 691.7231
544.0969, 696.5051
544.5790, 700.2832
545.0611, 703.7861
545.5432, 707.6492
546.0253, 711.9277
546.5074, 716.0899
546.9896, 719.3367
547.4717, 722.6582
547.9538, 726.8751
548.4359, 733.1488
548.9180, 738.9386
549.4001, 744.0193
549.8823, 748.5609
550.3644, 752.8122
550.8465, 756.7885
551.3286, 760.5417
551.8107, 764.0925
552.2928, 767.4539
552.7750, 770.6475
553.2571, 773.7511
553.7392, 776.4097
554.2213, 778.0043
554.7034, 778.8033
555.1855, 780.6934
555.6677, 783.9001
556.1498, 787.1534
556.6319, 788.9061
557.1140, 789.7081
557.5961, 790.7135
558.0782, 792.4820
558.5604, 794.1589
559.0425, 794.7721
559.5246, 794.7566
560.0067, 795.0806
560.4888, 797.0751
560.9709, 798.6427
561.4531, 798.4648
561.9352, 796.5161
562.4173, 795.1384
562.8994, 795.7606
563.3815, 796.1223
563.8636, 794.9874
564.3458, 791.6340
564.8279, 788.8083
565.3100, 786.7537
565.7921, 784.8917
566.2742, 782.4481
566.7563, 779.3451
567.2385, 776.4277
567.7206, 774.1149
568.2027, 771.8138
568.6848, 767.9924
569.1669, 762.8315
569.6490, 758.0716
570.1312, 755.1544
570.6133, 752.9036
571.0954, 749.6329
571.5775, 745.3088
572.0596, 740.7325
572.5417, 735.8948
573.0239, 731.2698
573.5060, 727.4789
573.9881, 725.0123
574.4702, 722.2178
574.9523, 717.9962
575.4344, 713.3611
575.9166, 709.6557
576.3987, 708.0755
576.8808, 705.8586
577.3629, 702.3885
577.8450, 698.0915
578.3271, 694.3342
578.8093, 691.2477
579.2914, 688.3171
579.7735, 685.3427
580.2556, 682.3729
580.7377, 679.4894
581.2198, 676.6893
581.7020, 674.0547
582.1841, 671.8185
582.6662, 669.7858
583.1483, 667.3083
583.6304, 664.2175
584.1125, 661.3539
584.5947, 659.9836
585.0768, 659.2010
585.5589, 657.6648
586.0410, 654.0788
586.5231, 650.6254
587.0052, 648.3858
587.4874, 647.0100
