##NAMES=Jahnsite-(CaMnFe)
##RRUFFID=R070733
##IDEAL CHEMISTRY=CaMn^2+^Fe^2+^_2_Fe^3+^_2_(PO_4_)_4_(OH)_2_&#183;8H_2_O
##LOCALITY=Voron'i Tundry, Kola Peninsula, Murmanskaja Oblast', Northern Region, Russia
##OWNER=RRUFF
##SOURCE=Michael Scott
##DESCRIPTION=Orange-brown elongated tabular crystals associated with quartz, spodumene, and schorl.
##STATUS=The identification of this mineral has been confirmed only by single crystal X-ray diffraction.
##URL=rruff.info/R070733
80.59375, 1072.822
81.07587, 1102.755
81.55798, 1111.510
82.04010, 1102.114
82.52222, 1087.284
83.00433, 1063.471
83.48645, 1038.807
83.96857, 1019.579
84.45068, 1012.701
84.93280, 1007.500
85.41492, 998.2516
85.89703, 983.8463
86.37915, 972.1390
86.86127, 971.0774
87.34338, 975.7193
87.82550, 976.9848
88.30762, 961.2361
88.78973, 943.7878
89.27185, 942.0718
89.75397, 967.8896
90.23608, 997.3060
90.71820, 1003.979
91.20031, 990.2930
91.68243, 974.1583
92.16454, 975.1366
92.64666, 984.9027
93.12878, 982.6083
93.61089, 944.4583
94.09301, 890.7041
94.57513, 870.3054
95.05724, 887.3073
95.53936, 922.2068
96.02148, 952.0510
96.50359, 977.0088
96.98571, 1002.861
97.46783, 1042.346
97.94994, 1093.560
98.43206, 1110.505
98.91418, 1075.692
99.39629, 1010.148
99.87841, 984.0078
100.3605, 1006.177
100.8426, 1042.859
101.3248, 1062.688
101.8069, 1060.265
102.2890, 1061.586
102.7711, 1071.067
103.2532, 1088.500
103.7353, 1120.776
104.2175, 1179.086
104.6996, 1245.145
105.1817, 1286.112
105.6638, 1281.252
106.1459, 1278.857
106.6280, 1298.730
107.1102, 1364.516
107.5923, 1414.702
108.0744, 1431.441
108.5565, 1423.490
109.0386, 1453.062
109.5207, 1541.507
110.0029, 1655.930
110.4850, 1775.437
110.9671, 1902.179
111.4492, 2032.875
111.9313, 2169.495
112.4134, 2315.065
112.8956, 2455.941
113.3777, 2603.104
113.8598, 2741.206
114.3419, 2851.747
114.8240, 2882.459
115.3061, 2918.460
115.7883, 3002.488
116.2704, 3171.161
116.7525, 3334.412
117.2346, 3458.613
117.7167, 3551.431
118.1988, 3638.002
118.6810, 3705.137
119.1631, 3782.077
119.6452, 3894.507
120.1273, 4075.750
120.6094, 4277.179
121.0915, 4475.534
121.5737, 4670.738
122.0558, 4854.807
122.5379, 5043.350
123.0200, 5216.445
123.5021, 5338.146
123.9842, 5344.481
124.4664, 5308.140
124.9485, 5319.016
125.4306, 5396.439
125.9127, 5492.447
126.3948, 5550.065
126.8769, 5578.250
127.3591, 5620.278
127.8412, 5725.909
128.3233, 5867.688
128.8054, 5979.037
129.2875, 6040.598
129.7696, 6060.359
130.2518, 6048.464
130.7339, 6010.554
131.2160, 5969.154
131.6981, 5917.038
132.1802, 5858.275
132.6623, 5825.010
133.1445, 5834.131
133.6266, 5880.384
134.1087, 5933.292
134.5908, 5995.117
135.0729, 6058.228
135.5550, 6106.600
136.0372, 6137.176
136.5193, 6173.195
137.0014, 6225.228
137.4835, 6292.520
137.9656, 6380.937
138.4477, 6509.577
138.9299, 6652.610
139.4120, 6715.433
139.8941, 6678.707
140.3762, 6605.731
140.8583, 6539.053
141.3404, 6476.414
141.8226, 6428.625
142.3047, 6396.293
142.7868, 6379.356
143.2689, 6384.308
143.7510, 6416.832
144.2331, 6466.226
144.7152, 6523.206
145.1974, 6612.395
145.6795, 6672.399
146.1616, 6681.736
146.6437, 6617.803
147.1258, 6560.018
147.6079, 6504.840
148.0901, 6455.577
148.5722, 6423.098
149.0543, 6401.656
149.5364, 6400.929
150.0185, 6425.456
150.5006, 6517.887
150.9828, 6584.944
151.4649, 6612.052
151.9470, 6603.115
152.4291, 6603.204
152.9112, 6622.711
153.3933, 6646.820
153.8755, 6665.271
154.3576, 6690.779
154.8397, 6696.903
155.3218, 6670.024
155.8039, 6603.068
156.2860, 6547.004
156.7682, 6509.155
157.2503, 6487.700
157.7324, 6480.426
158.2145, 6505.445
158.6966, 6530.215
159.1787, 6539.176
159.6609, 6521.159
160.1430, 6508.506
160.6251, 6516.355
161.1072, 6537.292
161.5893, 6554.201
162.0714, 6559.546
162.5536, 6559.672
163.0357, 6559.772
163.5178, 6575.732
163.9999, 6575.913
164.4820, 6526.940
164.9641, 6438.715
165.4463, 6375.716
165.9284, 6402.033
166.4105, 6459.733
166.8926, 6486.362
167.3747, 6408.498
167.8568, 6327.613
168.3390, 6324.209
168.8211, 6405.373
169.3032, 6484.814
169.7853, 6502.869
170.2674, 6480.927
170.7495, 6456.382
171.2317, 6448.341
171.7138, 6445.308
172.1959, 6434.921
172.6780, 6414.078
173.1601, 6392.730
173.6422, 6379.163
174.1244, 6372.246
174.6065, 6368.317
175.0886, 6362.824
175.5707, 6359.515
176.0528, 6364.161
176.5349, 6379.183
177.0171, 6400.597
177.4992, 6427.809
177.9813, 6459.514
178.4634, 6487.208
178.9455, 6494.697
179.4276, 6492.535
179.9098, 6507.136
180.3919, 6568.964
180.8740, 6640.317
181.3561, 6650.276
181.8382, 6596.300
182.3203, 6529.933
182.8025, 6508.806
183.2846, 6521.875
183.7667, 6523.250
184.2488, 6473.491
184.7309, 6396.754
185.2130, 6370.802
185.6951, 6405.063
186.1773, 6456.629
186.6594, 6466.312
187.1415, 6437.620
187.6236, 6408.437
188.1057, 6398.682
188.5878, 6405.536
189.0700, 6417.709
189.5521, 6437.773
190.0342, 6456.025
190.5163, 6446.000
190.9984, 6406.336
191.4805, 6374.641
191.9627, 6389.199
192.4448, 6444.914
192.9269, 6478.415
193.4090, 6470.515
193.8911, 6438.289
194.3732, 6437.052
194.8554, 6471.609
195.3375, 6510.187
195.8196, 6524.527
196.3017, 6514.496
196.7838, 6494.119
197.2659, 6459.033
197.7481, 6414.731
198.2302, 6401.683
198.7123, 6426.640
199.1944, 6464.080
199.6765, 6483.063
200.1586, 6481.686
200.6408, 6478.335
201.1229, 6471.999
201.6050, 6462.160
202.0871, 6489.773
202.5692, 6568.027
203.0513, 6663.191
203.5335, 6716.456
204.0156, 6719.933
204.4977, 6713.983
204.9798, 6715.945
205.4619, 6727.035
205.9440, 6735.424
206.4262, 6738.854
206.9083, 6740.478
207.3904, 6749.293
207.8725, 6767.376
208.3546, 6786.499
208.8367, 6801.822
209.3189, 6812.640
209.8010, 6822.475
210.2831, 6830.987
210.7652, 6838.960
211.2473, 6848.479
211.7294, 6856.844
212.2116, 6872.461
212.6937, 6906.885
213.1758, 6972.376
213.6579, 7018.422
214.1400, 7036.330
214.6221, 7027.483
215.1043, 7008.102
215.5864, 6975.203
216.0685, 6936.356
216.5506, 6897.033
217.0327, 6851.751
217.5148, 6819.758
217.9970, 6809.298
218.4791, 6822.228
218.9612, 6823.429
219.4433, 6806.149
219.9254, 6783.558
220.4075, 6777.178
220.8897, 6804.286
221.3718, 6810.535
221.8539, 6770.854
222.3360, 6668.077
222.8181, 6600.577
223.3002, 6580.377
223.7824, 6588.284
224.2645, 6591.714
224.7466, 6591.478
225.2287, 6585.481
225.7108, 6570.323
226.1929, 6537.395
226.6750, 6521.147
227.1572, 6531.514
227.6393, 6555.914
228.1214, 6559.751
228.6035, 6528.904
229.0856, 6498.607
229.5677, 6488.001
230.0499, 6510.712
230.5320, 6520.988
231.0141, 6508.924
231.4962, 6482.503
231.9783, 6477.638
232.4604, 6513.897
232.9426, 6546.389
233.4247, 6544.782
233.9068, 6483.932
234.3889, 6441.254
234.8710, 6429.301
235.3531, 6444.279
235.8353, 6452.583
236.3174, 6453.130
236.7995, 6448.460
237.2816, 6439.643
237.7637, 6422.935
238.2458, 6409.324
238.7280, 6399.347
239.2101, 6393.071
239.6922, 6395.285
240.1743, 6411.273
240.6564, 6430.455
241.1385, 6442.203
241.6207, 6439.828
242.1028, 6442.460
242.5849, 6457.927
243.0670, 6488.596
243.5491, 6500.607
244.0313, 6485.502
244.5134, 6458.823
244.9955, 6436.366
245.4776, 6410.625
245.9597, 6402.856
246.4418, 6425.380
246.9240, 6487.892
247.4061, 6523.429
247.8882, 6520.572
248.3703, 6498.814
248.8524, 6486.056
249.3345, 6487.252
249.8167, 6488.799
250.2988, 6485.196
250.7809, 6472.723
251.2630, 6470.451
251.7451, 6483.312
252.2272, 6503.326
252.7094, 6515.242
253.1915, 6512.604
253.6736, 6512.779
254.1557, 6522.763
254.6378, 6546.280
255.1199, 6569.005
255.6021, 6594.613
256.0842, 6617.512
256.5663, 6622.577
257.0484, 6597.974
257.5305, 6576.217
258.0126, 6572.639
258.4948, 6594.665
258.9769, 6614.306
259.4590, 6631.096
259.9411, 6645.634
260.4232, 6659.604
260.9053, 6672.488
261.3875, 6686.025
261.8696, 6704.265
262.3517, 6733.948
262.8338, 6743.614
263.3159, 6720.728
263.7980, 6679.252
264.2802, 6668.491
264.7623, 6696.138
265.2444, 6738.673
265.7265, 6786.001
266.2086, 6840.790
266.6907, 6887.267
267.1729, 6924.563
267.6550, 6951.813
268.1371, 6961.723
268.6192, 6943.855
269.1013, 6931.412
269.5834, 6959.722
270.0656, 7047.574
270.5477, 7081.585
271.0298, 7023.846
271.5119, 6905.498
271.9940, 6868.485
272.4761, 6938.088
272.9583, 7025.637
273.4404, 7065.447
273.9225, 7050.156
274.4046, 7025.143
274.8867, 6990.603
275.3688, 6952.460
275.8510, 6942.717
276.3331, 6970.431
276.8152, 6999.674
277.2973, 6996.787
277.7794, 6957.983
278.2615, 6923.630
278.7437, 6902.658
279.2258, 6891.831
279.7079, 6875.019
280.1900, 6850.177
280.6721, 6827.368
281.1542, 6813.314
281.6364, 6807.855
282.1185, 6817.948
282.6006, 6853.137
283.0827, 6903.595
283.5648, 6930.726
284.0469, 6933.898
284.5291, 6917.482
285.0112, 6878.811
285.4933, 6818.603
285.9754, 6759.786
286.4575, 6702.894
286.9396, 6653.069
287.4217, 6635.274
287.9038, 6652.710
288.3860, 6677.951
288.8681, 6689.412
289.3502, 6686.706
289.8323, 6666.243
290.3144, 6615.560
290.7965, 6550.279
291.2787, 6517.170
291.7608, 6517.958
292.2429, 6531.151
292.7250, 6543.957
293.2071, 6554.197
293.6892, 6549.573
294.1714, 6516.181
294.6535, 6470.039
295.1356, 6451.667
295.6177, 6462.518
296.0998, 6471.387
296.5819, 6433.734
297.0641, 6366.550
297.5462, 6328.352
298.0283, 6364.329
298.5104, 6427.346
298.9925, 6428.674
299.4746, 6367.723
299.9568, 6305.629
300.4389, 6303.698
300.9210, 6341.463
301.4031, 6371.729
301.8852, 6377.113
302.3673, 6365.848
302.8495, 6339.268
303.3316, 6298.044
303.8137, 6268.026
304.2958, 6285.313
304.7779, 6327.378
305.2600, 6353.857
305.7422, 6345.488
306.2243, 6317.494
306.7064, 6273.807
307.1885, 6215.575
307.6706, 6173.358
308.1527, 6180.845
308.6349, 6214.961
309.1170, 6243.567
309.5991, 6264.138
310.0812, 6268.721
310.5633, 6240.759
311.0454, 6182.507
311.5276, 6134.698
312.0097, 6132.456
312.4918, 6150.267
312.9739, 6159.657
313.4560, 6140.428
313.9381, 6118.523
314.4203, 6106.206
314.9024, 6103.266
315.3845, 6108.511
315.8666, 6136.331
316.3487, 6165.645
316.8308, 6176.530
317.3130, 6150.636
317.7951, 6116.571
318.2772, 6081.584
318.7593, 6046.235
319.2414, 6017.027
319.7235, 5992.549
320.2057, 5976.900
320.6878, 5973.338
321.1699, 5997.288
321.6520, 6018.604
322.1341, 6027.209
322.6162, 6024.563
323.0984, 6025.270
323.5805, 6038.270
324.0626, 6052.096
324.5447, 6059.027
325.0268, 6051.140
325.5089, 6044.008
325.9911, 6040.939
326.4732, 6041.350
326.9553, 6038.759
327.4374, 6015.922
327.9195, 6001.058
328.4016, 6010.588
328.8838, 6086.319
329.3659, 6133.349
329.8480, 6129.853
330.3301, 6086.106
330.8122, 6068.131
331.2943, 6096.625
331.7765, 6130.028
332.2586, 6145.481
332.7407, 6136.919
333.2228, 6120.397
333.7049, 6089.997
334.1870, 6052.015
334.6692, 6033.771
335.1513, 6046.634
335.6334, 6060.990
336.1155, 6058.746
336.5976, 6032.246
337.0797, 6014.188
337.5619, 6009.371
338.0440, 6012.844
338.5261, 6009.568
339.0082, 5996.814
339.4903, 5985.245
339.9724, 5985.133
340.4546, 5999.701
340.9367, 5993.698
341.4188, 5957.258
341.9009, 5908.996
342.3830, 5892.378
342.8651, 5911.084
343.3473, 5928.090
343.8294, 5912.353
344.3115, 5868.738
344.7936, 5869.324
345.2757, 5930.679
345.7578, 6006.310
346.2400, 6012.142
346.7221, 5952.641
347.2042, 5904.109
347.6863, 5923.394
348.1684, 5985.509
348.6505, 6005.249
349.1327, 5974.107
349.6148, 5922.843
350.0969, 5876.880
350.5790, 5838.909
351.0611, 5819.799
351.5432, 5841.984
352.0254, 5880.387
352.5075, 5892.405
352.9896, 5874.224
353.4717, 5851.585
353.9538, 5851.818
354.4359, 5864.756
354.9181, 5870.403
355.4002, 5856.389
355.8823, 5833.843
356.3644, 5808.460
356.8465, 5780.520
357.3286, 5762.613
357.8108, 5767.692
358.2929, 5786.443
358.7750, 5806.620
359.2571, 5835.523
359.7392, 5854.956
360.2213, 5851.019
360.7035, 5824.972
361.1856, 5796.517
361.6677, 5768.797
362.1498, 5745.083
362.6319, 5727.851
363.1140, 5717.065
363.5962, 5713.394
364.0783, 5720.302
364.5604, 5736.192
365.0425, 5750.170
365.5246, 5762.234
366.0067, 5770.005
366.4889, 5772.078
366.9710, 5771.589
367.4531, 5761.767
367.9352, 5729.417
368.4173, 5683.279
368.8994, 5662.280
369.3815, 5688.157
369.8636, 5720.945
370.3458, 5743.832
370.8279, 5755.873
371.3100, 5759.449
371.7921, 5749.402
372.2742, 5732.000
372.7563, 5723.693
373.2385, 5731.403
373.7206, 5736.682
374.2027, 5728.038
374.6848, 5696.412
375.1669, 5690.718
375.6490, 5721.258
376.1312, 5766.967
376.6133, 5794.150
377.0954, 5800.558
377.5775, 5797.398
378.0596, 5784.982
378.5417, 5764.044
379.0239, 5754.009
379.5060, 5758.550
379.9881, 5763.403
380.4702, 5746.459
380.9523, 5708.535
381.4344, 5677.134
381.9166, 5662.258
382.3987, 5660.334
382.8808, 5658.803
383.3629, 5657.255
383.8450, 5661.546
384.3271, 5687.055
384.8093, 5724.475
385.2914, 5742.928
385.7735, 5721.392
386.2556, 5687.563
386.7377, 5683.372
387.2198, 5705.253
387.7020, 5726.159
388.1841, 5722.080
388.6662, 5706.799
389.1483, 5699.310
389.6304, 5708.401
390.1125, 5720.017
390.5947, 5724.707
391.0768, 5723.706
391.5589, 5720.420
392.0410, 5701.370
392.5231, 5690.273
393.0052, 5711.744
393.4874, 5791.764
393.9695, 5849.760
394.4516, 5840.347
394.9337, 5789.396
395.4158, 5744.300
395.8979, 5710.304
396.3801, 5690.976
396.8622, 5693.749
397.3443, 5729.346
397.8264, 5749.312
398.3085, 5732.115
398.7906, 5700.948
399.2728, 5683.899
399.7549, 5694.545
400.2370, 5705.060
400.7191, 5710.549
401.2012, 5710.792
401.6833, 5710.208
402.1655, 5707.676
402.6476, 5705.678
403.1297, 5705.153
403.6118, 5702.375
404.0939, 5712.108
404.5760, 5744.502
405.0582, 5791.852
405.5403, 5809.525
406.0224, 5791.751
406.5045, 5760.676
406.9866, 5723.358
407.4688, 5677.920
407.9509, 5660.241
408.4330, 5679.540
408.9151, 5720.293
409.3972, 5757.042
409.8793, 5789.536
410.3615, 5805.945
410.8436, 5791.244
411.3257, 5754.152
411.8078, 5723.980
412.2899, 5702.637
412.7720, 5687.607
413.2542, 5677.373
413.7363, 5671.461
414.2184, 5668.234
414.7005, 5665.170
415.1826, 5665.353
415.6647, 5673.440
416.1469, 5689.529
416.6290, 5708.458
417.1111, 5731.220
417.5932, 5753.153
418.0753, 5767.527
418.5574, 5760.997
419.0396, 5756.408
419.5217, 5775.294
420.0038, 5811.746
420.4859, 5827.818
420.9680, 5787.352
421.4501, 5734.108
421.9323, 5698.961
422.4144, 5695.054
422.8965, 5698.151
423.3786, 5711.514
423.8607, 5729.886
424.3428, 5738.078
424.8250, 5716.094
425.3071, 5701.146
425.7892, 5709.959
426.2713, 5761.290
426.7534, 5785.167
427.2355, 5763.306
427.7177, 5725.261
428.1998, 5717.596
428.6819, 5758.046
429.1640, 5788.210
429.6461, 5788.309
430.1282, 5758.919
430.6104, 5736.500
431.0925, 5717.891
431.5746, 5713.676
432.0567, 5743.379
432.5388, 5808.188
433.0209, 5859.670
433.5031, 5887.513
433.9852, 5895.860
434.4673, 5891.137
434.9494, 5873.760
435.4315, 5855.594
435.9136, 5849.650
436.3958, 5849.746
436.8779, 5837.473
437.3600, 5806.620
437.8421, 5774.211
438.3242, 5752.673
438.8063, 5743.965
439.2885, 5753.505
439.7706, 5807.581
440.2527, 5867.191
440.7348, 5894.197
441.2169, 5883.414
441.6990, 5864.262
442.1812, 5848.773
442.6633, 5835.620
443.1454, 5823.006
443.6275, 5803.438
444.1096, 5790.839
444.5917, 5791.290
445.0739, 5804.262
445.5560, 5821.299
446.0381, 5854.495
446.5202, 5881.914
447.0023, 5890.470
447.4844, 5850.939
447.9666, 5829.514
448.4487, 5838.012
448.9308, 5864.153
449.4129, 5873.621
449.8950, 5856.242
450.3771, 5838.891
450.8593, 5832.743
451.3413, 5840.250
451.8235, 5844.552
452.3056, 5843.739
452.7877, 5842.830
453.2698, 5850.688
453.7519, 5868.408
454.2340, 5881.595
454.7162, 5884.954
455.1983, 5880.806
455.6804, 5877.263
456.1625, 5874.337
456.6446, 5870.992
457.1267, 5864.894
457.6089, 5857.592
458.0910, 5855.406
458.5731, 5865.799
459.0552, 5870.487
459.5373, 5836.681
460.0194, 5776.226
460.5016, 5727.703
460.9837, 5715.481
461.4658, 5724.189
461.9479, 5746.102
462.4300, 5784.540
462.9121, 5812.359
463.3943, 5801.421
463.8764, 5775.574
464.3585, 5765.781
464.8406, 5799.223
465.3227, 5832.518
465.8048, 5852.164
466.2870, 5857.750
466.7691, 5859.030
467.2512, 5851.730
467.7333, 5844.076
468.2154, 5841.427
468.6975, 5851.127
469.1797, 5853.162
469.6618, 5841.114
470.1439, 5822.302
470.6260, 5817.625
471.1081, 5833.057
471.5902, 5848.014
472.0724, 5853.628
472.5545, 5849.400
473.0366, 5843.883
473.5187, 5836.772
474.0008, 5829.367
474.4829, 5824.363
474.9651, 5821.393
475.4472, 5815.058
475.9293, 5800.099
476.4114, 5783.426
476.8935, 5779.731
477.3756, 5788.552
477.8578, 5802.688
478.3399, 5823.789
478.8220, 5844.992
479.3041, 5855.253
479.7862, 5850.144
480.2683, 5839.842
480.7505, 5837.638
481.2326, 5835.716
481.7147, 5817.790
482.1968, 5746.936
482.6789, 5682.761
483.1610, 5658.657
483.6432, 5680.518
484.1253, 5710.479
484.6074, 5753.880
485.0895, 5793.460
485.5716, 5814.545
486.0537, 5802.916
486.5359, 5787.082
487.0180, 5761.713
487.5001, 5732.197
487.9822, 5726.233
488.4643, 5758.894
488.9464, 5790.564
489.4286, 5800.405
489.9107, 5783.452
490.3928, 5773.335
490.8749, 5774.959
491.3570, 5775.370
491.8391, 5747.943
492.3213, 5693.188
492.8034, 5652.036
493.2855, 5643.701
493.7676, 5657.598
494.2497, 5671.065
494.7318, 5683.958
495.2140, 5690.721
495.6961, 5680.309
496.1782, 5661.881
496.6603, 5651.777
497.1424, 5654.609
497.6245, 5663.161
498.1067, 5675.467
498.5888, 5689.127
499.0709, 5698.794
499.5530, 5705.006
500.0351, 5704.034
500.5172, 5692.760
500.9994, 5670.112
501.4815, 5643.146
501.9636, 5596.178
502.4457, 5553.902
502.9278, 5538.718
503.4099, 5587.068
503.8921, 5618.470
504.3742, 5623.738
504.8563, 5607.031
505.3384, 5582.152
505.8205, 5539.550
506.3026, 5507.606
506.7848, 5506.194
507.2669, 5542.368
507.7490, 5557.454
508.2311, 5548.155
508.7132, 5525.669
509.1953, 5499.292
509.6775, 5470.121
510.1596, 5450.318
510.6417, 5446.604
511.1238, 5452.864
511.6059, 5461.470
512.0880, 5471.431
512.5701, 5473.352
513.0522, 5445.316
513.5344, 5411.119
514.0165, 5407.377
514.4986, 5454.470
514.9807, 5490.594
515.4628, 5459.795
515.9449, 5394.672
516.4271, 5351.089
516.9092, 5351.086
517.3913, 5372.326
517.8734, 5425.914
518.3555, 5514.592
518.8376, 5551.952
519.3198, 5472.403
519.8019, 5378.672
520.2840, 5333.953
520.7661, 5372.106
521.2482, 5393.031
521.7303, 5387.068
522.2125, 5364.496
522.6946, 5346.331
523.1767, 5331.322
523.6588, 5325.331
524.1409, 5334.789
524.6230, 5356.770
525.1052, 5372.176
525.5873, 5381.326
526.0694, 5381.448
526.5515, 5361.922
527.0336, 5330.593
527.5157, 5311.004
527.9979, 5312.727
528.4800, 5321.963
528.9621, 5325.100
529.4442, 5323.901
529.9263, 5323.667
530.4084, 5320.398
530.8906, 5323.860
531.3727, 5346.906
531.8548, 5394.461
532.3369, 5428.224
532.8190, 5428.583
533.3011, 5412.682
533.7833, 5396.128
534.2654, 5368.035
534.7475, 5355.028
535.2296, 5365.306
535.7117, 5392.611
536.1938, 5416.987
536.6760, 5445.808
537.1581, 5458.241
537.6402, 5434.185
538.1223, 5367.548
538.6044, 5354.395
539.0865, 5408.325
539.5687, 5475.854
540.0508, 5489.138
540.5329, 5455.966
541.0150, 5432.042
541.4971, 5435.828
541.9792, 5450.493
542.4614, 5449.867
542.9435, 5436.427
543.4256, 5421.603
543.9077, 5403.575
544.3898, 5392.411
544.8719, 5404.545
545.3541, 5446.103
545.8362, 5475.973
546.3183, 5463.712
546.8004, 5433.852
547.2825, 5413.045
547.7646, 5414.675
548.2468, 5418.016
548.7289, 5419.611
549.2110, 5419.852
549.6931, 5420.094
550.1752, 5415.047
550.6573, 5417.223
551.1395, 5434.654
551.6216, 5471.679
552.1037, 5497.853
552.5858, 5511.856
553.0679, 5518.469
553.5500, 5523.800
554.0322, 5527.633
554.5143, 5522.706
554.9964, 5501.528
555.4785, 5478.016
555.9606, 5483.565
556.4427, 5512.921
556.9249, 5537.394
557.4070, 5533.100
557.8891, 5517.870
558.3712, 5512.299
558.8533, 5519.210
559.3354, 5526.088
559.8176, 5515.110
560.2997, 5505.151
560.7818, 5515.648
561.2639, 5593.817
561.7460, 5644.989
562.2281, 5631.754
562.7103, 5572.617
563.1924, 5539.112
563.6745, 5546.251
564.1566, 5560.067
564.6387, 5569.318
565.1208, 5573.513
565.6030, 5580.374
566.0851, 5592.637
566.5672, 5601.461
567.0493, 5594.739
567.5314, 5573.523
568.0135, 5555.960
568.4957, 5544.186
568.9778, 5540.203
569.4599, 5551.069
569.9420, 5574.104
570.4241, 5597.355
570.9063, 5624.843
571.3884, 5643.224
571.8705, 5631.390
572.3526, 5588.917
572.8347, 5554.845
573.3168, 5553.486
573.7990, 5567.565
574.2811, 5582.887
574.7632, 5598.854
575.2453, 5612.873
