##NAMES=Jahnsite-(CaMnMg)
##RRUFFID=R060213
##IDEAL CHEMISTRY=CaMn^2+^Mg_2_Fe^3+^_2_(PO_4_)_4_(OH)_2_&#183;8H_2_O
##LOCALITY=Tip Top mine, Custer County, South Dakota, USA
##OWNER=RRUFF
##SOURCE=Marcus Origlieri
##DESCRIPTION=Brown tabular crystals associated with black prismatic rockbridgeite, R060858
##STATUS=The identification of this mineral has been confirmed only by single crystal X-ray diffraction.
##URL=rruff.info/R060213
92.07813, 33.01904
92.56024, 34.61898
93.04236, 33.63789
93.52448, 30.65916
94.00659, 27.84072
94.48871, 26.31971
94.97083, 25.87819
95.45294, 25.99492
95.93506, 26.74132
96.41718, 27.77570
96.89929, 28.64169
97.38141, 29.33465
97.86353, 29.67366
98.34564, 29.02915
98.82776, 27.50038
99.30988, 27.35964
99.79199, 29.72277
100.2741, 33.48247
100.7562, 33.91528
101.2383, 30.00813
101.7205, 25.58166
102.2026, 24.33227
102.6847, 27.16457
103.1668, 29.76354
103.6489, 31.38588
104.1310, 32.01837
104.6132, 31.47990
105.0953, 28.72857
105.5774, 25.79622
106.0595, 25.51297
106.5416, 30.36785
107.0237, 34.04091
107.5059, 34.60868
107.9880, 30.71326
108.4701, 27.88314
108.9522, 26.00596
109.4343, 25.20210
109.9164, 25.66998
110.3986, 30.28434
110.8807, 33.74252
111.3628, 34.20382
111.8449, 28.43302
112.3270, 24.86725
112.8091, 25.28911
113.2913, 28.45618
113.7734, 30.85083
114.2555, 31.02285
114.7376, 30.89160
115.2197, 31.49602
115.7018, 34.11525
116.1840, 36.24725
116.6661, 36.83435
117.1482, 36.18455
117.6303, 35.89954
118.1124, 36.62293
118.5945, 37.94724
119.0767, 39.50880
119.5588, 40.73597
120.0409, 42.55788
120.5230, 45.47970
121.0051, 49.46837
121.4872, 54.17794
121.9694, 59.62970
122.4515, 65.60056
122.9336, 71.80840
123.4157, 77.51765
123.8978, 83.69125
124.3799, 91.38526
124.8621, 100.7160
125.3442, 110.5807
125.8263, 119.8851
126.3084, 128.9695
126.7905, 138.7097
127.2726, 150.3004
127.7548, 162.5630
128.2369, 173.4026
128.7190, 182.5071
129.2011, 190.8012
129.6832, 199.3595
130.1653, 208.0596
130.6474, 216.6452
131.1296, 225.1821
131.6117, 233.4678
132.0938, 240.6971
132.5759, 246.1619
133.0580, 251.6276
133.5401, 260.5917
134.0223, 273.1453
134.5044, 286.9087
134.9865, 300.2096
135.4686, 313.2049
135.9507, 326.8259
136.4328, 340.9752
136.9150, 356.2455
137.3971, 375.0703
137.8792, 398.4538
138.3613, 421.9087
138.8434, 441.7368
139.3255, 457.3911
139.8077, 471.7677
140.2898, 484.9701
140.7719, 497.1452
141.2540, 511.1035
141.7361, 527.4901
142.2182, 544.3368
142.7004, 559.7235
143.1825, 573.0880
143.6646, 586.0925
144.1467, 598.7925
144.6288, 611.3586
145.1109, 623.6075
145.5931, 635.8043
146.0752, 647.5587
146.5573, 658.4853
147.0394, 667.2903
147.5215, 677.0775
148.0036, 688.8725
148.4858, 703.9015
148.9679, 716.7052
149.4500, 725.6202
149.9321, 732.8816
150.4142, 741.6236
150.8963, 753.4737
151.3785, 765.4514
151.8606, 776.6807
152.3427, 787.3614
152.8248, 797.3187
153.3069, 806.0679
153.7890, 814.1804
154.2712, 820.2917
154.7533, 821.8731
155.2354, 822.8558
155.7175, 823.1417
156.1996, 822.5950
156.6817, 821.5484
157.1639, 819.6146
157.6460, 817.1996
158.1281, 815.2305
158.6102, 813.8353
159.0923, 812.9473
159.5744, 812.6122
160.0566, 813.4393
160.5387, 813.8627
161.0208, 812.8823
161.5029, 811.0811
161.9850, 810.1541
162.4671, 811.7828
162.9493, 813.8427
163.4314, 814.8368
163.9135, 813.3063
164.3956, 812.1045
164.8777, 812.2906
165.3598, 813.7518
165.8420, 816.0823
166.3241, 820.2662
166.8062, 824.6666
167.2883, 827.7714
167.7704, 827.9648
168.2525, 827.9376
168.7346, 829.1266
169.2168, 831.4542
169.6989, 834.5449
170.1810, 839.9808
170.6631, 845.5078
171.1452, 848.3965
171.6273, 845.8632
172.1095, 841.8224
172.5916, 839.1693
173.0737, 837.8488
173.5558, 837.2744
174.0379, 838.4086
174.5201, 839.8223
175.0022, 839.2180
175.4843, 834.6182
175.9664, 828.1744
176.4485, 822.2703
176.9306, 816.8398
177.4128, 811.7853
177.8949, 806.9184
178.3770, 802.3715
178.8591, 798.3356
179.3412, 795.2161
179.8233, 792.5369
180.3055, 789.8981
180.7876, 787.3400
181.2697, 783.8635
181.7518, 777.2404
182.2339, 768.5992
182.7160, 761.3517
183.1982, 757.8439
183.6803, 756.6762
184.1624, 754.7515
184.6445, 751.9625
185.1266, 749.1689
185.6087, 747.5733
186.0909, 746.9429
186.5730, 746.1159
187.0551, 744.3724
187.5372, 742.0112
188.0193, 739.7438
188.5014, 737.4355
188.9836, 735.8327
189.4657, 736.2081
189.9478, 738.3967
190.4299, 740.6855
190.9120, 742.5836
191.3941, 743.9953
191.8763, 743.9620
192.3584, 741.9576
192.8405, 740.0034
193.3226, 741.5665
193.8047, 746.6611
194.2868, 751.4703
194.7690, 753.9379
195.2511, 754.2645
195.7332, 755.4483
196.2153, 757.7908
196.6974, 760.4885
197.1795, 761.7518
197.6617, 761.4289
198.1438, 761.8184
198.6259, 763.9932
199.1080, 767.9329
199.5901, 773.0668
200.0722, 779.8406
200.5544, 787.0482
201.0365, 792.1142
201.5186, 794.7332
202.0007, 797.3134
202.4828, 801.4655
202.9649, 807.4358
203.4471, 811.1738
203.9292, 811.9407
204.4113, 811.2945
204.8934, 812.5929
205.3755, 816.3771
205.8576, 819.8229
206.3398, 821.2973
206.8219, 820.3792
207.3040, 820.4247
207.7861, 821.8304
208.2682, 823.8812
208.7503, 825.0059
209.2325, 824.9371
209.7146, 824.7902
210.1967, 825.3930
210.6788, 827.2523
211.1609, 827.3253
211.6430, 825.0640
212.1252, 821.3958
212.6073, 818.4882
213.0894, 816.7012
213.5715, 814.7808
214.0536, 811.9346
214.5357, 807.5876
215.0179, 804.5219
215.5000, 803.1319
215.9821, 802.7485
216.4642, 801.8867
216.9463, 800.4079
217.4284, 798.7499
217.9105, 797.0351
218.3927, 795.2043
218.8748, 793.5922
219.3569, 792.3737
219.8390, 791.2731
220.3211, 789.6114
220.8032, 787.1249
221.2854, 784.5478
221.7675, 781.9006
222.2496, 778.6464
222.7317, 777.1212
223.2138, 777.8114
223.6959, 779.9822
224.1781, 782.2634
224.6602, 785.1871
225.1423, 787.2430
225.6244, 787.4892
226.1065, 784.8719
226.5886, 783.7263
227.0708, 784.9517
227.5529, 787.1920
228.0350, 787.3812
228.5171, 783.8062
228.9992, 781.0670
229.4813, 781.3917
229.9635, 786.6086
230.4456, 789.1122
230.9277, 787.8771
231.4098, 784.4536
231.8919, 781.5886
232.3740, 778.9566
232.8562, 777.4666
233.3383, 777.6455
233.8204, 780.1177
234.3025, 782.2556
234.7846, 784.0439
235.2667, 785.5207
235.7489, 786.7097
236.2310, 787.5834
236.7131, 788.2133
237.1952, 788.4412
237.6773, 787.8508
238.1594, 788.5057
238.6416, 791.2089
239.1237, 794.6776
239.6058, 796.6818
240.0879, 795.9743
240.5700, 795.8702
241.0521, 797.6105
241.5343, 801.7326
242.0164, 805.1107
242.4985, 806.8750
242.9806, 808.4750
243.4627, 812.3120
243.9448, 820.3058
244.4270, 827.1974
244.9091, 831.0645
245.3912, 831.0392
245.8733, 832.7239
246.3554, 836.9462
246.8375, 842.2009
247.3197, 846.4096
247.8018, 848.6414
248.2839, 851.4948
248.7660, 855.7441
249.2481, 861.5954
249.7302, 867.4879
250.2124, 873.8163
250.6945, 879.8961
251.1766, 884.8949
251.6587, 888.0890
252.1408, 891.6907
252.6229, 896.5321
253.1051, 902.8291
253.5872, 907.5904
254.0693, 910.1511
254.5514, 912.0273
255.0335, 914.8301
255.5156, 919.0091
255.9978, 923.0738
256.4799, 926.8507
256.9620, 930.3420
257.4441, 933.0245
257.9262, 934.4865
258.4083, 935.6469
258.8904, 937.5610
259.3726, 941.2111
259.8547, 943.0849
260.3368, 941.8400
260.8189, 937.8797
261.3010, 936.1412
261.7831, 937.6882
262.2653, 939.7790
262.7474, 940.1774
263.2295, 938.2951
263.7116, 936.4734
264.1937, 935.1234
264.6758, 934.1107
265.1580, 932.3428
265.6401, 929.1849
266.1222, 926.5088
266.6043, 926.1568
267.0864, 929.4134
267.5685, 930.1891
268.0507, 926.9402
268.5328, 921.0129
269.0149, 917.7529
269.4970, 918.2014
269.9791, 918.7745
270.4612, 916.9460
270.9434, 911.9060
271.4255, 908.5662
271.9076, 907.8707
272.3897, 908.5912
272.8718, 907.2698
273.3539, 903.2574
273.8361, 899.2755
274.3182, 897.0917
274.8003, 897.0989
275.2824, 895.6898
275.7645, 892.4056
276.2466, 888.0370
276.7288, 884.0301
277.2109, 880.4027
277.6930, 877.0628
278.1751, 873.8259
278.6572, 870.6212
279.1393, 868.7946
279.6215, 868.6185
280.1036, 869.3238
280.5857, 870.1829
281.0678, 871.3588
281.5499, 871.2410
282.0320, 868.5638
282.5142, 863.5986
282.9963, 860.1688
283.4784, 858.4928
283.9605, 857.6909
284.4426, 856.7328
284.9247, 855.6115
285.4069, 854.6600
285.8890, 854.0905
286.3711, 853.7886
286.8532, 852.9509
287.3353, 851.4164
287.8174, 850.2054
288.2996, 850.7921
288.7817, 852.9943
289.2638, 854.6830
289.7459, 855.1474
290.2280, 854.7891
290.7101, 854.5911
291.1923, 854.5458
291.6744, 854.8381
292.1565, 856.2296
292.6386, 858.3235
293.1207, 858.9794
293.6028, 857.2972
294.0850, 854.4501
294.5671, 852.4080
295.0492, 851.1462
295.5313, 850.4020
296.0134, 850.1539
296.4955, 850.2806
296.9777, 850.6275
297.4598, 851.4270
297.9419, 851.8348
298.4240, 850.1739
298.9061, 846.8124
299.3882, 843.6138
299.8704, 842.1135
300.3525, 841.5128
300.8346, 840.1663
301.3167, 837.8239
301.7988, 835.1819
302.2809, 833.0836
302.7631, 831.3300
303.2452, 829.2363
303.7273, 825.8295
304.2094, 822.1486
304.6915, 820.0990
305.1736, 819.9248
305.6558, 819.3466
306.1379, 816.4493
306.6200, 811.7058
307.1021, 806.0336
307.5842, 798.4184
308.0663, 790.8476
308.5485, 785.1257
309.0306, 781.2605
309.5127, 778.2887
309.9948, 776.5012
310.4769, 774.9248
310.9590, 772.2711
311.4412, 766.6172
311.9233, 761.1660
312.4054, 758.9661
312.8875, 759.3107
313.3696, 758.6153
313.8517, 754.1747
314.3339, 748.2214
314.8160, 742.4963
315.2981, 736.8994
315.7802, 732.5439
316.2623, 730.7308
316.7444, 730.7111
317.2266, 730.4271
317.7087, 728.9058
318.1908, 726.9536
318.6729, 724.9965
319.1550, 723.0195
319.6371, 721.2618
320.1193, 719.9293
320.6014, 718.8452
321.0835, 717.7039
321.5656, 716.0449
322.0477, 714.6204
322.5298, 713.9542
323.0120, 714.3405
323.4941, 714.0369
323.9762, 711.1283
324.4583, 707.9231
324.9404, 706.9197
325.4225, 711.7584
325.9047, 715.5988
326.3868, 716.4796
326.8689, 714.3246
327.3510, 711.9445
327.8331, 709.0917
328.3152, 706.3593
328.7974, 704.1584
329.2795, 702.5164
329.7616, 701.4021
330.2437, 701.3990
330.7258, 702.1478
331.2079, 701.6228
331.6901, 699.2263
332.1722, 696.1366
332.6543, 692.8154
333.1364, 688.7455
333.6185, 685.4388
334.1006, 683.1911
334.5828, 681.6239
335.0649, 680.0064
335.5470, 678.5915
336.0291, 676.6434
336.5112, 673.9326
336.9933, 670.4413
337.4755, 666.1055
337.9576, 660.5494
338.4397, 654.6560
338.9218, 649.5720
339.4039, 645.5149
339.8860, 641.7243
340.3681, 638.4425
340.8503, 635.4835
341.3324, 630.4766
341.8145, 622.9446
342.2966, 614.5585
342.7787, 606.2164
343.2608, 597.9274
343.7430, 591.0586
344.2251, 586.2773
344.7072, 582.8679
345.1893, 579.0967
345.6714, 574.9403
346.1535, 570.2908
346.6357, 564.6760
347.1178, 558.3283
347.5999, 552.8292
348.0820, 548.5326
348.5641, 544.5844
349.0462, 539.4223
349.5284, 533.2064
350.0105, 527.0052
350.4926, 521.2603
350.9747, 515.9464
351.4568, 511.2615
351.9389, 507.3242
352.4211, 503.1269
352.9032, 497.0638
353.3853, 489.9491
353.8674, 483.7634
354.3495, 479.9412
354.8316, 477.0397
355.3138, 473.3957
355.7959, 469.0740
356.2780, 464.7462
356.7601, 461.1512
357.2422, 457.7004
357.7243, 453.5127
358.2065, 447.8602
358.6886, 442.2508
359.1707, 437.9767
359.6528, 434.6489
360.1349, 431.0963
360.6170, 426.6186
361.0992, 421.7832
361.5813, 416.8095
362.0634, 411.5471
362.5455, 406.9366
363.0276, 403.4903
363.5097, 400.9066
363.9919, 398.7370
364.4740, 398.1175
364.9561, 396.7393
365.4382, 393.2849
365.9203, 387.4732
366.4024, 382.2821
366.8846, 379.1090
367.3667, 376.3219
367.8488, 372.6009
368.3309, 366.7368
368.8130, 361.1260
369.2951, 355.6734
369.7773, 350.5278
370.2594, 346.7612
370.7415, 345.9730
371.2236, 345.0666
371.7057, 342.5114
372.1878, 336.7728
372.6700, 332.3445
373.1521, 329.7267
373.6342, 328.2310
374.1163, 326.6125
374.5984, 324.9300
375.0805, 323.0374
375.5627, 320.9287
376.0448, 318.6154
376.5269, 315.7011
377.0090, 311.9377
377.4911, 307.9571
377.9732, 304.3137
378.4554, 301.0190
378.9375, 298.0851
379.4196, 295.3921
379.9017, 293.0919
380.3838, 292.0181
380.8659, 292.3785
381.3481, 292.4217
381.8302, 290.4298
382.3123, 286.7484
382.7944, 283.9556
383.2765, 282.4199
383.7586, 281.5648
384.2408, 280.5643
384.7229, 279.4585
385.2050, 278.4249
385.6871, 277.2520
386.1692, 276.3032
386.6513, 276.6831
387.1335, 278.4890
387.6156, 279.8984
388.0977, 278.5298
388.5798, 275.6621
389.0619, 273.6629
389.5440, 273.9040
390.0262, 274.7867
390.5083, 274.7759
390.9904, 274.0770
391.4725, 273.6616
391.9546, 274.2330
392.4367, 275.2534
392.9189, 276.3463
393.4010, 277.5779
393.8831, 278.4966
394.3652, 278.2284
394.8473, 277.5906
395.3294, 277.9398
395.8116, 280.2675
396.2937, 283.2027
396.7758, 286.6064
397.2579, 290.6146
397.7400, 293.4261
398.2221, 293.5617
398.7043, 292.9235
399.1864, 293.0524
399.6685, 294.9693
400.1506, 296.6304
400.6327, 297.3065
401.1148, 297.4016
401.5970, 298.9483
402.0791, 303.2647
402.5612, 307.4762
403.0433, 310.0815
403.5254, 309.8638
404.0075, 311.6277
404.4897, 316.4420
404.9718, 322.3202
405.4539, 325.8993
405.9360, 326.1722
406.4181, 327.4320
406.9002, 331.4023
407.3824, 337.6446
407.8645, 342.2308
408.3466, 344.9887
408.8287, 346.7500
409.3108, 347.7569
409.7929, 348.0758
410.2751, 349.3590
410.7572, 351.9639
411.2393, 355.4783
411.7214, 359.5200
412.2035, 363.9896
412.6856, 367.8195
413.1678, 370.0113
413.6499, 371.1880
414.1320, 372.8473
414.6141, 375.1408
415.0962, 377.1895
415.5783, 377.5387
416.0605, 377.1410
416.5426, 377.8372
417.0247, 381.3069
417.5068, 385.2247
417.9889, 387.4705
418.4710, 388.3295
418.9532, 389.1632
419.4353, 390.7701
419.9174, 392.6042
420.3995, 394.2267
420.8816, 395.5681
421.3637, 396.6978
421.8459, 397.4101
422.3280, 397.9634
422.8101, 398.7657
423.2922, 400.0811
423.7743, 401.4855
424.2564, 402.8942
424.7386, 404.3058
425.2207, 405.5565
425.7028, 406.8226
426.1849, 407.7911
426.6670, 408.2144
427.1491, 407.2938
427.6313, 407.1292
428.1134, 408.0888
428.5955, 409.8304
429.0776, 411.4890
429.5597, 413.2668
430.0418, 414.6010
430.5240, 415.1109
431.0061, 414.6943
431.4882, 414.9087
431.9703, 415.9336
432.4524, 417.1893
432.9345, 417.9609
433.4167, 418.2252
433.8988, 418.6440
434.3809, 419.3399
434.8630, 420.2937
435.3451, 421.7129
435.8272, 423.5669
436.3094, 424.9858
436.7915, 424.8891
437.2736, 423.9624
437.7557, 423.9730
438.2378, 425.1764
438.7199, 426.6904
439.2020, 427.6769
439.6841, 428.3144
440.1663, 428.9677
440.6484, 429.4277
441.1305, 430.2357
441.6126, 431.8708
442.0947, 434.2758
442.5768, 437.0841
443.0590, 441.0631
443.5411, 444.7928
444.0232, 446.8223
444.5053, 445.4782
444.9874, 445.5396
445.4695, 449.5835
445.9517, 455.8009
446.4338, 461.3168
446.9159, 465.3930
447.3980, 468.9268
447.8801, 471.3901
448.3622, 472.6132
448.8444, 476.3409
449.3265, 484.2951
449.8086, 493.2781
450.2907, 501.1978
450.7728, 507.5137
451.2549, 514.1304
451.7371, 521.1406
452.2192, 528.4540
452.7013, 535.7018
453.1834, 542.6026
453.6655, 550.2926
454.1476, 559.4457
454.6298, 569.8576
455.1119, 579.6494
455.5940, 588.6256
456.0761, 597.5780
456.5582, 607.0306
457.0403, 616.9980
457.5225, 627.5147
458.0046, 638.5014
458.4867, 649.7747
458.9688, 660.4054
459.4509, 670.7737
459.9330, 682.0078
460.4152, 695.5789
460.8973, 710.1379
461.3794, 723.8758
461.8615, 736.8624
462.3436, 749.7314
462.8257, 763.4911
463.3079, 777.2977
463.7900, 790.1910
464.2721, 801.3689
464.7542, 812.4365
465.2363, 823.8275
465.7184, 835.5941
466.2006, 847.8803
466.6827, 861.8175
467.1648, 875.3373
467.6469, 887.0958
468.1290, 896.1365
468.6111, 906.9570
469.0933, 921.8087
469.5754, 937.1027
470.0575, 949.6461
470.5396, 957.2565
471.0217, 966.6160
471.5038, 979.4760
471.9860, 994.4474
472.4681, 1006.887
472.9502, 1016.347
473.4323, 1024.813
473.9144, 1032.942
474.3965, 1040.773
474.8787, 1048.769
475.3608, 1057.025
475.8429, 1064.836
476.3250, 1071.499
476.8071, 1076.987
477.2892, 1081.241
477.7714, 1084.321
478.2535, 1085.968
478.7356, 1085.219
479.2177, 1082.466
479.6998, 1079.447
480.1819, 1078.036
480.6641, 1076.366
481.1462, 1072.305
481.6283, 1065.582
482.1104, 1058.166
482.5925, 1051.706
483.0746, 1044.943
483.5568, 1036.536
484.0389, 1025.142
484.5210, 1013.252
485.0031, 1001.693
485.4852, 990.2472
485.9673, 977.8378
486.4495, 963.7272
486.9316, 949.3104
487.4137, 935.0436
487.8958, 920.9279
488.3779, 906.7029
488.8600, 892.3880
489.3422, 877.7860
489.8243, 862.3301
490.3064, 845.7620
490.7885, 829.7814
491.2706, 814.8113
491.7527, 800.4035
492.2349, 784.7561
492.7170, 767.8680
493.1991, 751.3110
493.6812, 736.0336
494.1633, 721.9197
494.6454, 708.4962
495.1276, 695.9453
495.6097, 682.8656
496.0918, 667.4199
496.5739, 650.5844
497.0560, 635.0582
497.5381, 621.3184
498.0203, 608.6962
498.5024, 597.0623
498.9845, 586.0066
499.4666, 574.3079
499.9487, 560.5756
500.4308, 546.8515
500.9130, 534.1537
501.3951, 522.5884
501.8772, 511.9366
502.3593, 503.1408
502.8414, 494.7260
503.3235, 485.6083
503.8057, 474.8984
504.2878, 464.6846
504.7699, 454.6984
505.2520, 445.3499
505.7341, 437.4943
506.2162, 432.1053
506.6984, 426.2670
507.1805, 419.0872
507.6626, 410.7460
508.1447, 402.9330
508.6268, 395.6523
509.1089, 388.8724
509.5911, 383.1176
510.0732, 378.1836
510.5553, 371.3433
511.0374, 361.9644
511.5195, 352.3274
512.0016, 345.5009
512.4838, 340.8638
512.9659, 336.5037
513.4480, 331.6817
513.9301, 326.7416
514.4122, 321.9919
514.8943, 317.4315
515.3765, 313.0497
515.8586, 308.9454
516.3407, 304.9304
516.8228, 300.7475
517.3049, 296.1854
517.7870, 292.3240
518.2692, 290.5547
518.7513, 289.2157
519.2334, 286.7182
519.7155, 281.2928
520.1976, 276.5189
520.6797, 272.5072
521.1619, 269.4035
521.6440, 267.9624
522.1261, 269.7282
522.6082, 270.3828
523.0903, 267.7556
523.5724, 261.7425
524.0546, 258.5569
524.5367, 258.8467
525.0188, 260.0262
525.5009, 259.8671
525.9830, 258.4681
526.4651, 256.9904
526.9473, 255.5581
527.4294, 254.1768
527.9115, 252.8216
528.3936, 251.5301
528.8757, 250.4052
529.3578, 249.2009
529.8400, 248.3853
530.3221, 248.6933
530.8042, 249.9698
531.2863, 251.2484
531.7684, 251.6831
532.2505, 252.0971
532.7327, 253.1421
533.2148, 255.0592
533.6969, 257.0950
534.1790, 259.1700
534.6611, 261.2069
535.1432, 263.0800
535.6254, 264.5464
536.1075, 266.1797
536.5896, 267.9026
537.0717, 269.8416
537.5538, 272.4338
538.0359, 276.0280
538.5181, 279.5178
539.0002, 282.3765
539.4823, 284.6141
539.9644, 287.2865
540.4465, 290.4373
540.9286, 293.8077
541.4108, 296.9677
541.8929, 300.1050
542.3750, 304.0148
542.8571, 308.9913
543.3392, 314.2848
543.8214, 318.9565
544.3035, 323.2549
544.7856, 327.9481
545.2677, 334.4956
545.7498, 340.6628
546.2319, 344.2515
546.7141, 345.6790
547.1962, 347.5065
547.6783, 351.2025
548.1604, 355.2533
548.6425, 358.8843
549.1246, 361.8664
549.6068, 364.7920
550.0889, 367.9657
550.5710, 370.9539
551.0531, 373.3592
551.5352, 375.0948
552.0173, 376.4240
552.4995, 377.3122
552.9816, 377.8437
553.4637, 378.2787
553.9458, 378.6739
554.4279, 378.5938
554.9100, 377.8710
555.3922, 376.5316
555.8743, 374.6396
556.3564, 372.2131
556.8385, 369.3070
557.3206, 365.0449
557.8027, 360.5941
558.2849, 358.2993
558.7670, 358.9824
559.2491, 359.5291
559.7312, 357.3245
560.2133, 353.5871
560.6954, 349.9680
561.1776, 346.9128
561.6597, 344.2347
562.1418, 342.0060
562.6239, 340.1245
563.1060, 338.2747
563.5881, 336.5467
564.0703, 334.6883
564.5524, 332.6059
565.0345, 330.3130
565.5166, 327.8432
565.9987, 325.0956
566.4808, 322.3380
566.9630, 319.5329
567.4451, 316.6177
567.9272, 314.9931
568.4093, 315.1410
568.8914, 315.5573
569.3735, 313.9016
569.8557, 310.5424
570.3378, 307.1752
570.8199, 304.6073
571.3020, 302.1294
571.7841, 298.4712
572.2662, 294.0363
572.7484, 290.3309
573.2305, 288.4343
573.7126, 287.3204
574.1947, 286.9014
574.6768, 287.2776
575.1589, 285.7127
575.6411, 278.9533
576.1232, 271.4933
576.6053, 266.6285
577.0874, 266.8866
577.5695, 265.9905
578.0516, 263.6024
578.5338, 260.2934
579.0159, 256.6880
579.4980, 252.6411
579.9801, 249.1070
580.4622, 246.6836
580.9443, 244.6760
581.4265, 240.7502
581.9086, 234.9121
582.3907, 228.9680
582.8728, 223.3501
583.3549, 218.4673
583.8370, 215.4949
584.3192, 214.4036
584.8013, 213.1987
585.2834, 209.9998
585.7655, 206.0437
586.2476, 202.7018
586.7297, 200.3458
587.2118, 198.3192
587.6939, 196.5067
