##NAMES=Jahnsite-(CaMnMn)
##RRUFFID=R080072
##IDEAL CHEMISTRY=CaMn^2+^Mn^2+^_2_Fe^3+^_2_(PO_4_)_4_(OH)_2_&#183;8H_2_O
##LOCALITY=Tip Top mine, Custer Country, South Dakota, USA
##OWNER=RRUFF
##SOURCE=Tom Loomis
##DESCRIPTION=Pale yellow blocky to thick tabular crystals associated with scholzite, R080068
##STATUS=The identification of this mineral has been confirmed only by single crystal X-ray diffraction.
##URL=rruff.info/R080072
92.52344, 262.3387
93.00555, 259.8547
93.48767, 260.3122
93.96979, 269.8520
94.45190, 279.3287
94.93402, 287.6739
95.41614, 291.2844
95.89825, 291.5818
96.38037, 290.9912
96.86249, 289.6619
97.34460, 288.2006
97.82672, 287.2536
98.30884, 286.0408
98.79095, 284.3477
99.27307, 281.9687
99.75519, 279.1125
100.2373, 276.8270
100.7194, 275.1849
101.2015, 273.4160
101.6837, 270.9742
102.1658, 268.6789
102.6479, 267.1689
103.1300, 266.4584
103.6121, 266.0898
104.0942, 265.8567
104.5764, 265.6847
105.0585, 265.4942
105.5406, 265.1035
106.0227, 264.6388
106.5048, 264.5660
106.9869, 265.2113
107.4691, 265.6208
107.9512, 265.1815
108.4333, 264.1374
108.9154, 263.1132
109.3975, 262.6784
109.8796, 262.9410
110.3618, 263.0204
110.8439, 262.5592
111.3260, 262.1904
111.8081, 262.2648
112.2902, 262.7828
112.7723, 263.4552
113.2544, 263.8515
113.7366, 263.5723
114.2187, 263.7977
114.7008, 264.9081
115.1829, 266.2826
115.6650, 267.3652
116.1471, 267.9596
116.6293, 268.2357
117.1114, 268.5793
117.5935, 269.0994
118.0756, 269.4759
118.5577, 269.4184
119.0398, 269.1380
119.5220, 269.1596
120.0041, 269.7758
120.4862, 270.8170
120.9683, 271.8235
121.4504, 272.8043
121.9325, 273.7309
122.4147, 274.6445
122.8968, 275.5640
123.3789, 276.2195
123.8610, 276.1746
124.3431, 275.8810
124.8252, 275.7745
125.3074, 276.0515
125.7895, 276.5090
126.2716, 276.7063
126.7537, 276.4773
127.2358, 276.2682
127.7179, 276.1860
128.2001, 276.2116
128.6822, 276.3364
129.1643, 276.5786
129.6464, 276.9206
130.1285, 277.1210
130.6107, 277.2861
131.0928, 277.1906
131.5749, 276.4727
132.0570, 275.4077
132.5391, 274.6064
133.0212, 274.6729
133.5034, 275.8226
133.9855, 276.3554
134.4676, 275.8393
134.9497, 275.1945
135.4318, 274.9540
135.9139, 275.1585
136.3960, 275.4753
136.8782, 275.4948
137.3603, 275.1168
137.8424, 275.0323
138.3245, 275.4752
138.8066, 276.1558
139.2887, 276.7800
139.7709, 277.3049
140.2530, 277.6796
140.7351, 277.7038
141.2172, 277.4093
141.6993, 277.2902
142.1814, 277.6428
142.6636, 278.3607
143.1457, 279.0677
143.6278, 279.7154
144.1099, 280.2836
144.5920, 280.7599
145.0741, 281.1447
145.5563, 281.5035
146.0384, 281.9090
146.5205, 282.3746
147.0026, 282.7728
147.4847, 283.0646
147.9668, 283.2919
148.4490, 283.4110
148.9311, 283.4294
149.4132, 283.4849
149.8953, 283.8086
150.3774, 284.5672
150.8595, 285.2690
151.3417, 285.8424
151.8238, 286.3676
152.3059, 286.8794
152.7880, 287.3920
153.2701, 287.9431
153.7522, 288.6233
154.2344, 289.6334
154.7165, 290.5438
155.1986, 291.4312
155.6807, 292.1894
156.1628, 292.6641
156.6449, 292.7647
157.1271, 292.5677
157.6092, 292.3676
158.0913, 292.0212
158.5734, 291.8239
159.0555, 291.8522
159.5376, 292.0941
160.0198, 292.5216
160.5019, 293.1290
160.9840, 293.9277
161.4661, 294.8862
161.9482, 296.4261
162.4303, 297.6967
162.9125, 297.9172
163.3946, 297.1323
163.8767, 296.3765
164.3588, 296.2620
164.8409, 296.5831
165.3230, 297.0088
165.8052, 297.6170
166.2873, 298.1884
166.7694, 298.3340
167.2515, 297.8915
167.7336, 297.5864
168.2157, 297.8910
168.6979, 298.4972
169.1800, 299.1124
169.6621, 299.7224
170.1442, 300.1831
170.6263, 299.9614
171.1084, 298.2705
171.5906, 297.1858
172.0727, 297.6231
172.5548, 298.9297
173.0369, 300.1939
173.5190, 300.8448
174.0011, 300.9699
174.4833, 301.3173
174.9654, 302.4353
175.4475, 303.2227
175.9296, 303.0876
176.4117, 302.4530
176.8938, 302.1303
177.3760, 302.7836
177.8581, 304.4518
178.3402, 305.5718
178.8223, 305.7645
179.3044, 305.8518
179.7865, 306.0876
180.2687, 306.4649
180.7508, 306.8943
181.2329, 307.3407
181.7150, 307.8245
182.1971, 307.8373
182.6792, 306.8330
183.1614, 305.8806
183.6435, 305.7766
184.1256, 306.4774
184.6077, 307.1414
185.0898, 306.9345
185.5719, 305.7889
186.0541, 305.0908
186.5362, 305.4303
187.0183, 305.9017
187.5004, 305.4736
187.9825, 303.9857
188.4646, 302.5312
188.9468, 302.3261
189.4289, 303.0680
189.9110, 303.5513
190.3931, 303.2807
190.8752, 302.6633
191.3573, 302.3314
191.8395, 302.3828
192.3216, 302.5759
192.8037, 302.3017
193.2858, 302.9056
193.7679, 303.3901
194.2500, 303.7616
194.7322, 303.6816
195.2143, 304.1846
195.6964, 304.4539
196.1785, 304.7137
196.6606, 305.2988
197.1427, 305.2845
197.6249, 305.8644
198.1070, 306.2072
198.5891, 306.6584
199.0712, 306.8374
199.5533, 307.4484
200.0354, 308.2213
200.5176, 309.2529
200.9997, 310.4247
201.4818, 311.4955
201.9639, 312.2658
202.4460, 312.7306
202.9281, 313.1209
203.4103, 313.3643
203.8924, 313.5913
204.3745, 313.8046
204.8566, 314.0299
205.3387, 314.3089
205.8208, 314.6812
206.3030, 315.1575
206.7851, 315.6566
207.2672, 316.3274
207.7493, 316.8867
208.2314, 317.3871
208.7135, 317.7106
209.1957, 317.5254
209.6778, 316.4348
210.1599, 314.2355
210.6420, 312.7722
211.1241, 312.4086
211.6062, 312.3034
212.0884, 312.0024
212.5705, 311.5210
213.0526, 311.1888
213.5347, 311.3651
214.0168, 312.1373
214.4989, 312.4355
214.9811, 312.0034
215.4632, 311.3451
215.9453, 310.7224
216.4274, 310.1695
216.9095, 309.6774
217.3916, 309.2005
217.8737, 308.7649
218.3559, 308.6175
218.8380, 308.9738
219.3201, 309.4857
219.8022, 309.9680
220.2843, 310.4069
220.7664, 310.5451
221.2486, 309.8269
221.7307, 308.5651
222.2128, 308.1165
222.6949, 309.3882
223.1770, 311.1945
223.6591, 312.1975
224.1413, 312.2918
224.6234, 312.0687
225.1055, 311.7715
225.5876, 311.4599
226.0697, 311.2588
226.5518, 311.2401
227.0340, 311.3279
227.5161, 311.3891
227.9982, 311.3840
228.4803, 311.4899
228.9624, 312.0258
229.4445, 312.6857
229.9267, 313.0329
230.4088, 312.7725
230.8909, 312.2219
231.3730, 312.0499
231.8551, 312.4755
232.3372, 312.7213
232.8194, 312.1701
233.3015, 311.3658
233.7836, 310.9980
234.2657, 311.4637
234.7478, 312.3486
235.2299, 312.6780
235.7121, 312.1562
236.1942, 311.6608
236.6763, 311.5368
237.1584, 311.5380
237.6405, 311.3690
238.1227, 310.8764
238.6048, 310.2406
239.0869, 309.9310
239.5690, 310.1064
240.0511, 310.3545
240.5332, 310.6515
241.0154, 310.9435
241.4975, 311.1812
241.9796, 311.3438
242.4617, 311.4350
242.9438, 311.4178
243.4259, 310.9162
243.9081, 310.9480
244.3902, 312.1228
244.8723, 313.5829
245.3544, 314.4171
245.8365, 314.2888
246.3186, 313.6891
246.8008, 313.7633
247.2829, 315.1849
247.7650, 316.3410
248.2471, 316.8576
248.7292, 317.2447
249.2113, 318.0704
249.6935, 319.5046
250.1756, 321.1517
250.6577, 322.2226
251.1398, 322.0167
251.6219, 322.2201
252.1040, 322.8485
252.5862, 323.8489
253.0683, 325.3480
253.5504, 327.3314
254.0325, 329.4024
254.5146, 330.8793
254.9967, 331.1514
255.4789, 331.9523
255.9610, 333.7410
256.4431, 335.7843
256.9252, 337.4706
257.4073, 338.6569
257.8894, 339.5516
258.3716, 340.3955
258.8537, 341.0659
259.3358, 342.0923
259.8179, 343.5918
260.3000, 345.3808
260.7821, 347.4262
261.2643, 349.6988
261.7464, 351.9032
262.2285, 353.6703
262.7106, 354.8592
263.1927, 356.3652
263.6748, 358.6261
264.1570, 360.9316
264.6391, 362.5415
265.1212, 363.4116
265.6033, 364.2422
266.0854, 365.7121
266.5675, 367.8595
267.0497, 369.7828
267.5318, 371.4124
268.0139, 372.8370
268.4960, 374.0399
268.9781, 375.0366
269.4602, 376.0697
269.9424, 377.3820
270.4245, 378.9073
270.9066, 380.1826
271.3887, 381.3394
271.8708, 382.1405
272.3529, 382.3434
272.8351, 381.9743
273.3172, 381.3241
273.7993, 380.5211
274.2814, 379.5493
274.7635, 378.4440
275.2456, 377.2832
275.7278, 375.9121
276.2099, 374.1862
276.6920, 372.1284
277.1741, 369.9070
277.6562, 367.5588
278.1383, 365.1173
278.6205, 362.7147
279.1026, 360.3647
279.5847, 357.9716
280.0668, 355.5022
280.5489, 352.9369
281.0310, 350.1639
281.5132, 346.9022
281.9953, 343.6766
282.4774, 341.3192
282.9595, 339.9937
283.4416, 338.5534
283.9237, 336.1259
284.4059, 332.9593
284.8880, 330.0646
285.3701, 327.7133
285.8522, 325.7077
286.3343, 323.8637
286.8164, 322.1729
287.2986, 320.4693
287.7807, 318.5890
288.2628, 316.6135
288.7449, 314.8690
289.2270, 313.5230
289.7091, 312.1789
290.1913, 310.2627
290.6734, 307.9927
291.1555, 306.1609
291.6376, 305.4991
292.1197, 305.5135
292.6018, 304.9313
293.0840, 303.4314
293.5661, 301.9797
294.0482, 301.4292
294.5303, 301.3625
295.0124, 301.0072
295.4945, 299.9619
295.9767, 298.5142
296.4588, 297.0725
296.9409, 295.5345
297.4230, 294.3593
297.9051, 294.0760
298.3872, 294.1989
298.8694, 294.2072
299.3515, 293.9830
299.8336, 293.5376
300.3157, 292.8120
300.7978, 291.7455
301.2799, 290.7397
301.7621, 290.0287
302.2442, 289.4035
302.7263, 288.6427
303.2084, 287.6761
303.6905, 286.7483
304.1726, 286.1788
304.6548, 285.9895
305.1369, 285.6479
305.6190, 284.8585
306.1011, 284.0031
306.5832, 283.3551
307.0653, 282.9344
307.5475, 282.6538
308.0296, 282.6020
308.5117, 282.7332
308.9938, 282.4352
309.4759, 281.3248
309.9580, 280.1165
310.4402, 279.3506
310.9223, 278.9284
311.4044, 278.4473
311.8865, 277.5409
312.3686, 276.3423
312.8507, 275.4422
313.3329, 274.9791
313.8150, 274.5981
314.2971, 274.1773
314.7792, 273.6840
315.2613, 273.0302
315.7434, 272.0628
316.2256, 270.9798
316.7077, 270.2425
317.1898, 269.9592
317.6719, 269.7033
318.1540, 269.1902
318.6361, 268.6371
319.1183, 268.3322
319.6004, 268.4319
320.0825, 268.6025
320.5646, 268.2934
321.0467, 267.3910
321.5288, 266.7408
322.0110, 266.9870
322.4931, 267.3637
322.9752, 267.1435
323.4573, 266.1994
323.9394, 265.3173
324.4215, 265.3524
324.9037, 266.2829
325.3858, 267.0423
325.8679, 267.4121
326.3500, 267.5758
326.8321, 267.6154
327.3142, 267.5592
327.7964, 267.5345
328.2785, 267.6806
328.7606, 267.9469
329.2427, 268.0389
329.7248, 267.7526
330.2069, 267.6297
330.6891, 268.0977
331.1712, 268.9477
331.6533, 269.7648
332.1354, 270.5046
332.6175, 271.0237
333.0996, 270.8668
333.5818, 269.7509
334.0639, 268.8729
334.5460, 269.0700
335.0281, 269.7630
335.5102, 270.3597
335.9923, 270.7159
336.4745, 270.9246
336.9566, 271.1404
337.4387, 271.3771
337.9208, 271.3684
338.4029, 270.9607
338.8850, 270.2903
339.3671, 269.4270
339.8492, 268.3537
340.3314, 267.3576
340.8135, 266.7896
341.2956, 266.5462
341.7777, 265.9615
342.2598, 264.6986
342.7419, 263.3827
343.2241, 262.6623
343.7062, 262.4094
344.1883, 261.9902
344.6704, 260.9538
345.1525, 259.5649
345.6346, 258.4702
346.1168, 257.8356
346.5989, 257.0692
347.0810, 255.5348
347.5631, 253.5912
348.0452, 251.8430
348.5273, 250.5691
349.0095, 249.4427
349.4916, 248.0374
349.9737, 246.3499
350.4558, 244.8119
350.9379, 243.7610
351.4200, 242.9095
351.9022, 241.7535
352.3843, 240.1500
352.8664, 238.5929
353.3485, 237.4930
353.8306, 236.7379
354.3127, 235.8825
354.7949, 234.7827
355.2770, 233.5681
355.7591, 232.3135
356.2412, 231.0120
356.7233, 229.9426
357.2054, 229.3532
357.6876, 229.0103
358.1697, 228.5867
358.6518, 228.0524
359.1339, 227.3425
359.6160, 226.2393
360.0981, 224.8578
360.5803, 223.8601
361.0624, 223.7183
361.5445, 223.6977
362.0266, 223.2077
362.5087, 222.2752
362.9908, 221.1869
363.4730, 220.0444
363.9551, 218.8899
364.4372, 217.8037
364.9193, 216.6429
365.4014, 215.7725
365.8835, 215.6388
366.3657, 215.8770
366.8478, 215.7049
367.3299, 214.8260
367.8120, 213.6171
368.2941, 212.6293
368.7762, 211.8726
369.2584, 211.2628
369.7405, 210.8914
370.2226, 210.6058
370.7047, 210.3225
371.1868, 210.0106
371.6689, 209.5420
372.1511, 208.7665
372.6332, 207.6649
373.1153, 206.6687
373.5974, 205.7293
374.0795, 204.9217
374.5616, 204.3742
375.0438, 203.9917
375.5259, 203.5013
376.0080, 202.7312
376.4901, 201.8105
376.9722, 201.2071
377.4543, 201.2222
377.9365, 201.1598
378.4186, 200.9874
378.9007, 200.6846
379.3828, 200.1804
379.8649, 199.4688
380.3470, 198.6890
380.8292, 198.0264
381.3113, 197.4721
381.7934, 197.0829
382.2755, 196.9643
382.7576, 196.8954
383.2397, 196.7539
383.7219, 196.5463
384.2040, 196.3559
384.6861, 196.2624
385.1682, 196.2518
385.6503, 196.0852
386.1324, 195.5002
386.6146, 195.0508
387.0967, 194.9251
387.5788, 194.9622
388.0609, 194.9427
388.5430, 194.7741
389.0251, 194.5500
389.5073, 194.4835
389.9894, 194.7455
390.4715, 194.7958
390.9536, 194.4505
391.4357, 194.0347
391.9178, 193.6386
392.4000, 193.3398
392.8821, 193.3196
393.3642, 193.9045
393.8463, 195.1294
394.3284, 195.7305
394.8105, 195.0204
395.2927, 194.4636
395.7748, 194.6302
396.2569, 195.2663
396.7390, 195.9682
397.2211, 196.5851
397.7032, 197.0451
398.1854, 197.1024
398.6675, 196.5639
399.1496, 196.2142
399.6317, 196.4846
400.1138, 196.8997
400.5959, 197.0788
401.0781, 196.9609
401.5602, 196.8230
402.0423, 196.9331
402.5244, 197.2694
403.0065, 197.5831
403.4886, 197.7937
403.9708, 198.0577
404.4529, 198.5670
404.9350, 199.2206
405.4171, 199.7317
405.8992, 199.8871
406.3813, 199.8726
406.8635, 199.9373
407.3456, 200.0721
407.8277, 200.3928
408.3098, 201.1744
408.7919, 202.0746
409.2740, 202.4667
409.7562, 202.1045
410.2383, 201.7969
410.7204, 202.1768
411.2025, 203.0094
411.6846, 203.5678
412.1667, 203.6056
412.6489, 203.5191
413.1310, 203.8695
413.6131, 204.6457
414.0952, 205.1989
414.5773, 205.1787
415.0594, 205.0505
415.5416, 205.3254
416.0237, 205.9741
416.5058, 206.4933
416.9879, 206.4946
417.4700, 206.1118
417.9521, 206.0845
418.4343, 206.6992
418.9164, 207.2596
419.3985, 207.5154
419.8806, 207.6199
420.3627, 207.8525
420.8448, 208.3000
421.3270, 208.7017
421.8091, 208.6059
422.2912, 207.6014
422.7733, 207.3326
423.2554, 208.4188
423.7375, 209.6391
424.2197, 210.2380
424.7018, 210.3006
425.1839, 210.3434
425.6660, 210.7491
426.1481, 211.4442
426.6302, 211.9328
427.1124, 211.9203
427.5945, 212.0562
428.0766, 212.3957
428.5587, 212.9283
429.0408, 213.7183
429.5229, 214.7589
430.0051, 215.8454
430.4872, 216.6467
430.9693, 217.0475
431.4514, 217.6344
431.9335, 218.8148
432.4156, 219.8367
432.8978, 220.2517
433.3799, 220.2507
433.8620, 220.3429
434.3441, 220.8284
434.8262, 221.6333
435.3083, 222.6183
435.7905, 223.9247
436.2726, 225.0066
436.7547, 225.2518
437.2368, 225.4097
437.7189, 226.3482
438.2010, 228.2937
438.6832, 230.0540
439.1653, 230.4316
439.6474, 229.6708
440.1295, 229.0823
440.6116, 228.8743
441.0938, 228.8520
441.5759, 228.9864
442.0580, 229.1947
442.5401, 229.1870
443.0222, 228.5191
443.5043, 227.8500
443.9865, 227.9844
444.4686, 228.8323
444.9507, 229.5790
445.4328, 229.8549
445.9149, 229.7820
446.3970, 229.5777
446.8792, 229.0997
447.3613, 228.9010
447.8434, 229.2661
448.3255, 229.9309
448.8076, 230.5239
449.2897, 230.9985
449.7719, 231.6948
450.2540, 233.0849
450.7361, 235.2457
451.2182, 236.2266
451.7003, 234.8813
452.1824, 233.7983
452.6646, 234.2034
453.1467, 235.4454
453.6288, 236.4180
454.1109, 236.6378
454.5930, 236.3309
455.0751, 235.9075
455.5573, 235.1417
456.0394, 234.7169
456.5215, 234.8118
457.0036, 235.0339
457.4857, 235.2116
457.9678, 235.3081
458.4500, 235.3469
458.9321, 235.3868
459.4142, 235.3676
459.8963, 234.8721
460.3784, 233.4521
460.8605, 232.3643
461.3427, 232.2385
461.8248, 232.3935
462.3069, 232.1362
462.7890, 231.2947
463.2711, 230.2868
463.7532, 229.5691
464.2354, 229.1114
464.7175, 228.5166
465.1996, 227.6220
465.6817, 226.7774
466.1638, 226.3575
466.6459, 226.1811
467.1281, 225.7708
467.6102, 224.7472
468.0923, 223.6236
468.5744, 223.0750
469.0565, 223.0281
469.5386, 222.7532
470.0208, 221.8529
470.5029, 220.7176
470.9850, 220.1143
471.4671, 220.1486
471.9492, 219.9846
472.4313, 219.1558
472.9135, 218.1726
473.3956, 217.6424
473.8777, 217.5847
474.3598, 217.5346
474.8419, 217.1020
475.3240, 216.3579
475.8062, 216.0153
476.2883, 216.4173
476.7704, 216.7425
477.2525, 216.9441
477.7346, 216.9306
478.2167, 216.4788
478.6989, 215.5753
479.1810, 214.6129
479.6631, 214.0852
480.1452, 214.0592
480.6273, 214.1481
481.1094, 214.5147
481.5916, 214.8272
482.0737, 214.9799
482.5558, 215.0004
483.0379, 214.9634
483.5200, 214.9121
484.0021, 214.7805
484.4843, 214.3383
484.9664, 213.4292
485.4485, 212.9327
485.9306, 213.4471
486.4127, 214.0681
486.8948, 214.2157
487.3770, 213.9146
487.8591, 213.4742
488.3412, 213.0673
488.8233, 212.6421
489.3054, 212.0013
489.7875, 211.1015
490.2697, 210.4649
490.7518, 210.5207
491.2339, 210.9309
491.7160, 211.0260
492.1981, 210.7966
492.6802, 210.2823
493.1624, 209.3338
493.6445, 208.1721
494.1266, 207.0945
494.6087, 206.1508
495.0908, 205.3310
495.5729, 204.6088
496.0551, 203.9907
496.5372, 203.5981
497.0193, 203.8331
497.5014, 203.7951
497.9835, 202.8297
498.4656, 201.5552
498.9478, 201.0020
499.4299, 201.4611
499.9120, 202.1123
500.3941, 201.7181
500.8762, 199.9545
501.3583, 198.4162
501.8405, 197.0542
502.3226, 195.9724
502.8047, 195.3683
503.2868, 195.0532
503.7689, 194.7409
504.2510, 194.3067
504.7331, 193.7299
505.2152, 192.9312
505.6974, 191.8682
506.1795, 190.8266
506.6616, 189.7367
507.1437, 188.8260
507.6258, 188.4343
508.1079, 188.4345
508.5901, 188.1621
509.0722, 186.9611
509.5543, 185.4680
510.0364, 184.7637
510.5185, 184.8394
511.0006, 184.6337
511.4828, 183.5106
511.9649, 181.9341
512.4470, 180.9160
512.9291, 180.5837
513.4113, 180.2439
513.8934, 179.6266
514.3755, 178.9774
514.8576, 178.6716
515.3397, 178.6687
515.8218, 178.4660
516.3040, 177.6335
516.7861, 176.2978
517.2682, 175.3902
517.7503, 175.2222
518.2324, 175.1108
518.7145, 175.0750
519.1967, 175.0193
519.6788, 174.8787
520.1609, 174.6309
520.6430, 174.2508
521.1251, 173.6483
521.6072, 172.8348
522.0894, 172.3498
522.5715, 172.4370
523.0536, 172.4667
523.5357, 172.2330
524.0178, 171.8288
524.4999, 171.3117
524.9821, 170.6788
525.4642, 170.1107
525.9463, 169.7729
526.4284, 169.6410
526.9105, 169.6214
527.3926, 169.7391
527.8748, 169.8593
528.3569, 169.8482
528.8390, 169.7524
529.3211, 169.7346
529.8032, 169.9035
530.2853, 170.0488
530.7675, 170.0578
531.2496, 169.9620
531.7317, 169.7591
532.2138, 169.4443
532.6959, 169.2333
533.1780, 169.4234
533.6602, 170.1068
534.1423, 170.6192
534.6244, 171.0514
535.1065, 171.2488
535.5886, 170.8940
536.0707, 170.3420
536.5529, 170.1529
537.0350, 170.5438
537.5171, 171.2168
537.9992, 171.6976
538.4813, 171.9388
538.9634, 172.2257
539.4456, 172.5049
539.9277, 172.9113
540.4098, 173.6126
540.8919, 174.4649
541.3740, 175.1753
541.8561, 175.5929
542.3383, 175.9015
542.8204, 176.2793
543.3025, 176.7300
543.7846, 177.3194
544.2667, 178.1265
544.7488, 178.9513
545.2310, 179.5545
545.7131, 179.9604
546.1952, 180.3717
546.6773, 180.7892
547.1594, 181.2437
547.6415, 181.7924
548.1237, 182.3934
548.6058, 182.9713
549.0879, 183.4964
549.5700, 183.9355
550.0521, 184.2145
550.5342, 184.2385
551.0164, 184.3935
551.4985, 184.5210
551.9806, 184.9143
552.4627, 186.0548
552.9448, 187.4961
553.4269, 188.3814
553.9091, 188.2798
554.3912, 187.7006
554.8733, 187.4933
555.3554, 187.6880
555.8375, 188.0609
556.3196, 188.8111
556.8018, 189.4669
557.2839, 189.7421
557.7660, 189.6996
558.2481, 189.5124
558.7302, 189.2154
559.2123, 188.8307
559.6945, 188.2818
560.1766, 187.6372
560.6587, 187.2759
561.1408, 187.3925
561.6229, 187.5532
562.1050, 187.1261
562.5872, 185.9669
563.0693, 185.3291
563.5514, 185.7125
564.0335, 186.1335
564.5156, 186.1593
564.9977, 185.8523
565.4799, 185.3550
565.9620, 184.7273
566.4441, 183.9906
566.9262, 183.1553
567.4083, 182.1719
567.8904, 181.2864
568.3726, 180.3389
568.8547, 179.6738
569.3368, 179.6755
569.8189, 179.9720
570.3010, 179.9910
570.7831, 179.5281
571.2653, 178.6982
571.7474, 177.4144
572.2295, 175.7777
572.7116, 174.6139
573.1937, 174.1744
573.6758, 173.9409
574.1580, 173.5186
574.6401, 172.9512
575.1222, 172.4081
575.6043, 171.9333
576.0864, 171.4549
576.5685, 170.9403
577.0507, 170.4027
577.5328, 169.8636
578.0149, 169.3287
578.4970, 168.7830
578.9791, 168.1922
579.4612, 167.5477
579.9434, 167.0847
580.4255, 167.2164
580.9076, 167.0401
581.3897, 166.0959
581.8718, 164.9101
582.3539, 164.0545
582.8361, 163.6527
583.3182, 163.4454
583.8003, 163.1992
584.2824, 162.9226
584.7645, 162.7051
585.2466, 162.5916
585.7288, 162.4006
586.2108, 161.9463
586.6929, 161.4037
587.1750, 161.0604
587.6572, 160.9956
588.1393, 160.8651
