##NAMES=Jahnsite-(CaMnMg)
##RRUFFID=R060213
##IDEAL CHEMISTRY=CaMn^2+^Mg_2_Fe^3+^_2_(PO_4_)_4_(OH)_2_&#183;8H_2_O
##LOCALITY=Tip Top mine, Custer County, South Dakota, USA
##OWNER=RRUFF
##SOURCE=Marcus Origlieri
##DESCRIPTION=Brown tabular crystals associated with black prismatic rockbridgeite, R060858
##STATUS=The identification of this mineral has been confirmed only by single crystal X-ray diffraction.
##URL=rruff.info/R060213
91.82715, 449.4510
92.30927, 446.2937
92.79138, 447.4756
93.27350, 449.3951
93.75562, 448.7710
94.23773, 444.7587
94.71985, 438.5685
95.20197, 432.4630
95.68408, 427.3126
96.16620, 422.8247
96.64832, 419.2144
97.13043, 416.7785
97.61255, 414.5565
98.09467, 410.8376
98.57678, 404.4118
99.05890, 398.9627
99.54102, 398.4115
100.0231, 399.3276
100.5052, 397.9924
100.9874, 392.2401
101.4695, 383.2567
101.9516, 377.4507
102.4337, 377.3990
102.9158, 378.0333
103.3979, 379.4196
103.8801, 380.8893
104.3622, 381.3763
104.8443, 379.9157
105.3264, 376.2172
105.8085, 373.5762
106.2906, 373.1714
106.7728, 372.5350
107.2549, 370.0253
107.7370, 365.5775
108.2191, 360.4908
108.7012, 355.7115
109.1833, 351.1406
109.6655, 348.9163
110.1476, 351.7448
110.6297, 356.4888
111.1118, 357.9987
111.5939, 354.1855
112.0760, 349.1248
112.5582, 347.5293
113.0403, 349.0768
113.5224, 350.5741
114.0045, 349.3851
114.4866, 345.7004
114.9688, 343.6959
115.4509, 346.0885
115.9330, 349.0972
116.4151, 350.3865
116.8972, 349.6285
117.3793, 348.0568
117.8615, 347.4309
118.3436, 348.5468
118.8257, 348.6104
119.3078, 346.3229
119.7899, 343.5696
120.2720, 341.6723
120.7542, 341.1711
121.2363, 341.8772
121.7184, 343.2724
122.2005, 347.1835
122.6826, 349.7561
123.1647, 349.9316
123.6468, 348.7377
124.1290, 347.6509
124.6111, 347.5366
125.0932, 348.2336
125.5753, 348.3732
126.0574, 346.3914
126.5395, 345.4770
127.0217, 347.9496
127.5038, 353.1567
127.9859, 357.7105
128.4680, 358.9251
128.9501, 357.2340
129.4323, 356.2944
129.9144, 356.6642
130.3965, 357.6162
130.8786, 358.6568
131.3607, 359.9203
131.8428, 360.5656
132.3250, 358.9348
132.8071, 356.2101
133.2892, 354.6287
133.7713, 355.9052
134.2534, 359.1764
134.7355, 361.3872
135.2177, 361.6711
135.6998, 362.0205
136.1819, 363.2931
136.6640, 365.3874
137.1461, 368.0094
137.6282, 371.3502
138.1104, 375.6126
138.5925, 378.3057
139.0746, 378.6420
139.5567, 377.9870
140.0388, 376.2340
140.5209, 373.7278
141.0031, 371.2864
141.4852, 369.8323
141.9673, 369.4459
142.4494, 370.0768
142.9315, 372.7015
143.4136, 375.4763
143.8958, 377.0648
144.3779, 377.1816
144.8600, 376.6921
145.3421, 377.0304
145.8242, 379.1406
146.3063, 380.2817
146.7885, 379.3595
147.2706, 377.7310
147.7527, 377.2982
148.2348, 378.8996
148.7169, 381.2723
149.1990, 381.5916
149.6812, 379.3766
150.1633, 377.4424
150.6454, 377.1432
151.1275, 378.0135
151.6096, 378.5659
152.0917, 378.1171
152.5739, 377.1926
153.0560, 376.8670
153.5381, 377.4987
154.0202, 377.6027
154.5023, 375.3436
154.9844, 370.5804
155.4665, 366.8115
155.9487, 366.2438
156.4308, 366.8598
156.9129, 367.0257
157.3950, 366.2454
157.8771, 365.4756
158.3592, 366.4940
158.8414, 370.4686
159.3235, 373.2274
159.8056, 372.9879
160.2877, 371.6225
160.7698, 370.6704
161.2519, 370.7968
161.7341, 371.7175
162.2162, 372.6436
162.6983, 373.9594
163.1804, 374.7086
163.6625, 374.6024
164.1446, 373.9416
164.6268, 372.9836
165.1089, 371.8347
165.5910, 370.6094
166.0731, 370.0445
166.5552, 370.2531
167.0373, 370.9866
167.5195, 372.7863
168.0016, 375.0858
168.4837, 376.6586
168.9658, 376.5018
169.4479, 374.8696
169.9300, 375.4551
170.4122, 380.8629
170.8943, 385.5372
171.3764, 386.3150
171.8585, 383.8188
172.3406, 381.2011
172.8227, 380.6777
173.3049, 382.1742
173.7870, 383.5064
174.2691, 384.8649
174.7512, 385.9414
175.2333, 386.5654
175.7154, 386.7384
176.1976, 386.2592
176.6797, 384.1160
177.1618, 381.2026
177.6439, 379.7954
178.1260, 381.5984
178.6081, 384.7193
179.0903, 386.3293
179.5724, 386.0585
180.0545, 385.3090
180.5366, 384.9351
181.0187, 384.7064
181.5008, 384.1968
181.9830, 382.7245
182.4651, 380.8891
182.9472, 380.7524
183.4293, 383.5616
183.9114, 386.1990
184.3935, 387.0816
184.8757, 386.9070
185.3578, 386.8681
185.8399, 387.7166
186.3220, 389.3934
186.8041, 391.2953
187.2862, 394.9867
187.7684, 397.1306
188.2505, 395.0539
188.7326, 390.6676
189.2147, 387.8366
189.6968, 389.9716
190.1789, 397.3401
190.6611, 402.4482
191.1432, 404.4839
191.6253, 405.1142
192.1074, 403.4106
192.5895, 400.4776
193.0716, 398.8406
193.5538, 401.0224
194.0359, 407.8228
194.5180, 411.6971
195.0001, 410.4510
195.4822, 408.9914
195.9643, 410.2211
196.4465, 413.7069
196.9286, 416.6422
197.4107, 416.1427
197.8928, 411.5298
198.3749, 409.2642
198.8570, 410.6806
199.3392, 413.1652
199.8213, 415.2900
200.3034, 416.8743
200.7855, 418.0592
201.2676, 418.7931
201.7497, 419.0698
202.2319, 420.0496
202.7140, 423.1996
203.1961, 426.2491
203.6782, 426.6301
204.1603, 423.9734
204.6424, 420.8969
205.1246, 419.9352
205.6067, 420.6288
206.0888, 420.8804
206.5709, 419.8690
207.0530, 418.3522
207.5351, 417.4878
208.0173, 417.5462
208.4994, 417.5075
208.9815, 416.1642
209.4636, 414.0963
209.9457, 412.5294
210.4278, 412.7413
210.9100, 413.6572
211.3921, 412.6271
211.8742, 408.7502
212.3563, 404.7590
212.8384, 402.3138
213.3205, 400.8888
213.8027, 399.5739
214.2848, 397.7886
214.7669, 395.7636
215.2490, 394.4378
215.7311, 394.2996
216.2132, 394.1199
216.6954, 393.4422
217.1775, 392.3677
217.6596, 391.0416
218.1417, 389.4514
218.6238, 387.6839
219.1059, 386.3179
219.5881, 385.9940
220.0702, 385.2741
220.5523, 383.6483
221.0344, 381.3835
221.5165, 378.8282
221.9986, 376.1045
222.4808, 373.3094
222.9629, 371.3438
223.4450, 370.1279
223.9271, 370.0092
224.4092, 372.2435
224.8913, 375.5164
225.3735, 377.5980
225.8556, 376.8802
226.3377, 373.6847
226.8198, 371.6380
227.3019, 372.2397
227.7840, 372.4658
228.2662, 371.1362
228.7483, 369.0154
229.2304, 367.6431
229.7125, 368.1132
230.1946, 370.1493
230.6767, 370.6974
231.1589, 369.0938
231.6410, 366.8807
232.1231, 363.4536
232.6052, 359.7058
233.0873, 357.3058
233.5694, 357.3600
234.0516, 359.5257
234.5337, 361.3857
235.0158, 363.1534
235.4979, 364.4819
235.9800, 365.1711
236.4621, 365.3418
236.9443, 365.1225
237.4264, 364.4345
237.9085, 363.5707
238.3906, 363.9120
238.8727, 367.1501
239.3548, 369.4781
239.8370, 368.9867
240.3191, 366.5551
240.8012, 364.3117
241.2833, 363.2986
241.7654, 363.1620
242.2475, 362.7238
242.7297, 361.2545
243.2118, 360.6490
243.6939, 362.6317
244.1760, 366.2890
244.6581, 368.6840
245.1402, 368.1306
245.6224, 366.2101
246.1045, 366.2436
246.5866, 368.8607
247.0687, 371.4347
247.5508, 372.5851
248.0329, 372.5927
248.5151, 372.3724
248.9972, 371.9232
249.4793, 371.7770
249.9614, 372.8670
250.4435, 375.4392
250.9256, 377.6185
251.4078, 377.9090
251.8899, 376.7844
252.3720, 376.4786
252.8541, 378.1404
253.3362, 380.0562
253.8183, 380.3884
254.3005, 379.1620
254.7826, 377.4749
255.2647, 375.6488
255.7468, 373.8105
256.2289, 372.7138
256.7110, 373.0128
257.1931, 373.4043
257.6753, 372.7121
258.1574, 371.0873
258.6395, 369.4903
259.1216, 368.8467
259.6037, 368.8815
260.0858, 367.9019
260.5680, 364.9258
261.0501, 362.0457
261.5322, 360.9187
262.0143, 361.0109
262.4964, 360.6922
262.9785, 358.6382
263.4607, 355.1759
263.9428, 352.1152
264.4249, 349.3018
264.9070, 347.2341
265.3891, 346.1947
265.8712, 345.9493
266.3534, 346.1133
266.8355, 346.8354
267.3176, 347.7505
267.7997, 347.0475
268.2818, 343.0771
268.7639, 340.0234
269.2461, 340.7029
269.7282, 342.8704
270.2103, 342.9888
270.6924, 338.6999
271.1745, 331.6658
271.6566, 327.5581
272.1388, 328.3421
272.6209, 328.8781
273.1030, 327.5250
273.5851, 325.3003
274.0672, 323.5252
274.5493, 322.8703
275.0315, 322.5686
275.5136, 320.6472
275.9957, 316.2285
276.4778, 311.7450
276.9599, 307.4306
277.4420, 303.3748
277.9242, 299.4802
278.4063, 295.7065
278.8884, 292.5133
279.3705, 290.8609
279.8526, 291.5362
280.3347, 292.1617
280.8169, 293.6796
281.2990, 294.3443
281.7811, 292.0985
282.2632, 286.7378
282.7453, 280.6823
283.2274, 277.7942
283.7096, 279.9977
284.1917, 280.5787
284.6738, 278.0501
285.1559, 275.1218
285.6380, 273.3906
286.1201, 273.0161
286.6023, 273.1192
287.0844, 272.7258
287.5665, 271.7367
288.0486, 270.6240
288.5307, 269.3117
289.0128, 267.9568
289.4950, 266.3388
289.9771, 264.6659
290.4592, 263.5449
290.9413, 263.6220
291.4234, 265.0148
291.9055, 266.0326
292.3877, 267.3700
292.8698, 267.6577
293.3519, 265.8425
293.8340, 262.5952
294.3161, 259.2631
294.7982, 256.7602
295.2804, 255.0524
295.7625, 253.8340
296.2446, 253.4594
296.7267, 253.2259
297.2088, 253.4750
297.6909, 253.6934
298.1731, 253.0245
298.6552, 250.9583
299.1373, 247.9464
299.6194, 245.7076
300.1015, 244.5475
300.5836, 243.9228
301.0658, 244.2840
301.5479, 244.9567
302.0300, 245.2582
302.5121, 244.9162
302.9942, 244.0933
303.4763, 243.0405
303.9585, 240.8072
304.4406, 239.9038
304.9227, 242.3918
305.4048, 244.8654
305.8869, 244.2837
306.3690, 240.0967
306.8512, 234.2299
307.3333, 229.1058
307.8154, 224.0915
308.2975, 221.8554
308.7796, 224.5708
309.2617, 227.8093
309.7439, 229.1376
310.2260, 228.3201
310.7081, 226.1628
311.1902, 223.2154
311.6723, 219.0753
312.1544, 217.0731
312.6366, 219.1146
313.1187, 221.0812
313.6008, 221.3616
314.0829, 220.2131
314.5650, 218.5294
315.0471, 216.8633
315.5293, 215.2741
316.0114, 214.5764
316.4935, 215.9994
316.9756, 216.9396
317.4577, 216.5990
317.9398, 215.4889
318.4220, 214.2883
318.9041, 213.3226
319.3862, 212.6902
319.8683, 212.7282
320.3504, 214.6412
320.8326, 215.6960
321.3147, 215.0625
321.7968, 213.8647
322.2789, 213.3021
322.7610, 213.7383
323.2431, 214.4991
323.7253, 214.3174
324.2074, 211.8993
324.6895, 211.1707
325.1716, 213.5904
325.6537, 216.3723
326.1358, 217.6651
326.6180, 217.2519
327.1001, 216.0494
327.5822, 215.0097
328.0643, 214.1793
328.5464, 213.2610
329.0285, 211.9293
329.5107, 210.8265
329.9928, 210.1935
330.4749, 210.0178
330.9570, 210.2809
331.4391, 211.0588
331.9212, 212.2705
332.4034, 212.6988
332.8855, 211.9555
333.3676, 210.7923
333.8497, 208.8419
334.3318, 206.6806
334.8139, 205.0037
335.2961, 204.1595
335.7782, 204.1030
336.2603, 204.8365
336.7424, 207.8529
337.2245, 209.3579
337.7066, 208.5382
338.1888, 206.5497
338.6709, 204.0453
339.1530, 201.3307
339.6351, 198.9201
340.1172, 197.7621
340.5993, 198.7557
341.0815, 198.6981
341.5636, 197.2688
342.0457, 195.2176
342.5278, 192.4839
343.0099, 189.3782
343.4920, 186.6828
343.9742, 185.1255
344.4563, 184.7386
344.9384, 184.8752
345.4205, 187.3456
345.9026, 188.5265
346.3847, 186.4727
346.8669, 182.5237
347.3490, 179.1075
347.8311, 177.7565
348.3132, 177.9388
348.7953, 177.5741
349.2774, 176.4121
349.7596, 175.0307
350.2417, 172.7928
350.7238, 170.7690
351.2059, 170.5956
351.6880, 172.7749
352.1701, 175.2399
352.6523, 174.0380
353.1344, 167.3259
353.6165, 162.6217
354.0986, 161.9582
354.5807, 162.4835
355.0628, 163.1857
355.5450, 163.6932
356.0271, 163.5030
356.5092, 161.8072
356.9913, 158.5433
357.4734, 155.9025
357.9555, 153.9937
358.4377, 152.6872
358.9198, 152.4616
359.4019, 152.7480
359.8840, 152.3892
360.3661, 150.5050
360.8482, 147.6628
361.3304, 145.5254
361.8125, 144.1944
362.2946, 143.4079
362.7767, 143.1164
363.2588, 143.2480
363.7409, 143.9978
364.2231, 145.5640
364.7052, 146.9158
365.1873, 146.4566
365.6694, 143.9507
366.1515, 141.8099
366.6336, 141.0072
367.1158, 140.4032
367.5979, 139.2938
368.0800, 137.6216
368.5621, 135.4647
369.0442, 131.9386
369.5263, 127.6990
370.0085, 126.3598
370.4906, 129.7385
370.9727, 133.2418
371.4548, 133.2489
371.9369, 131.0429
372.4190, 129.4731
372.9012, 130.1205
373.3833, 131.6611
373.8654, 132.0569
374.3475, 131.1739
374.8296, 130.3103
375.3117, 130.4804
375.7939, 130.8430
376.2760, 130.0049
376.7581, 127.3543
377.2402, 124.7750
377.7223, 123.9471
378.2044, 124.4430
378.6866, 124.3210
379.1687, 122.8042
379.6508, 120.8934
380.1329, 119.9709
380.6150, 120.0043
381.0971, 119.7871
381.5793, 118.1273
382.0614, 116.3205
382.5435, 116.6321
383.0256, 119.4183
383.5077, 122.1634
383.9898, 122.8203
384.4720, 121.5836
384.9541, 120.6113
385.4362, 119.3907
385.9183, 118.9713
386.4004, 121.0314
386.8825, 124.6553
387.3647, 126.5300
387.8468, 124.7246
388.3289, 120.8136
388.8110, 118.8965
389.2931, 119.7171
389.7752, 120.4390
390.2574, 119.8359
390.7395, 119.1138
391.2216, 120.1313
391.7037, 123.2165
392.1858, 126.5367
392.6679, 127.9560
393.1501, 127.0710
393.6322, 125.9889
394.1143, 123.3705
394.5964, 121.7613
395.0785, 123.1566
395.5606, 126.8824
396.0428, 130.9495
396.5249, 134.2265
397.0070, 136.6123
397.4891, 137.6061
397.9712, 135.3584
398.4533, 133.9214
398.9355, 134.6183
399.4176, 135.9305
399.8997, 135.8469
400.3818, 133.8640
400.8639, 131.6031
401.3460, 131.7485
401.8282, 135.8163
402.3103, 138.0424
402.7924, 136.0715
403.2745, 134.6351
403.7566, 137.0712
404.2387, 142.3224
404.7209, 146.6360
405.2030, 146.7875
405.6851, 143.5847
406.1672, 143.3931
406.6493, 149.2256
407.1314, 153.7877
407.6136, 155.2157
408.0957, 154.7233
408.5778, 153.2314
409.0599, 151.0434
409.5420, 149.1337
410.0241, 149.1089
410.5063, 151.3118
410.9884, 153.5689
411.4705, 155.9580
411.9526, 157.9732
412.4347, 159.4113
412.9168, 160.2267
413.3990, 160.3496
413.8811, 159.5425
414.3632, 157.9837
414.8453, 156.0621
415.3274, 153.1974
415.8095, 151.4243
416.2917, 152.7687
416.7738, 155.5894
417.2559, 157.8521
417.7380, 159.0937
418.2201, 159.6028
418.7022, 159.3768
419.1844, 158.5085
419.6665, 157.9149
420.1486, 157.9793
420.6307, 158.2817
421.1128, 158.2851
421.5949, 157.9954
422.0771, 157.7097
422.5592, 157.4078
423.0413, 157.2266
423.5234, 157.3546
424.0055, 157.8106
424.4876, 158.5554
424.9698, 159.7576
425.4519, 161.2430
425.9340, 162.0102
426.4161, 162.3841
426.8982, 161.7364
427.3803, 158.4495
427.8625, 154.0386
428.3446, 152.1064
428.8267, 154.1813
429.3088, 157.8418
429.7909, 158.8244
430.2730, 155.1564
430.7552, 153.2505
431.2373, 154.4424
431.7194, 156.4452
432.2015, 157.9943
432.6836, 158.8190
433.1657, 158.8033
433.6479, 157.7299
434.1300, 155.7204
434.6121, 154.3789
435.0942, 154.1521
435.5763, 154.1039
436.0584, 153.5426
436.5406, 153.3167
437.0227, 154.9866
437.5048, 158.9361
437.9869, 163.1334
438.4690, 164.0443
438.9511, 160.2196
439.4333, 157.8167
439.9154, 157.7560
440.3975, 158.4190
440.8796, 159.0282
441.3617, 159.7606
441.8438, 161.4167
442.3260, 165.0216
442.8081, 169.5840
443.2902, 171.1389
443.7723, 167.8177
444.2544, 166.2243
444.7365, 170.8868
445.2187, 177.1187
445.7008, 180.6013
446.1829, 180.4007
446.6650, 178.9832
447.1471, 177.6432
447.6292, 176.6537
448.1114, 177.7532
448.5935, 181.7714
449.0756, 186.7955
449.5577, 191.9693
450.0398, 196.9678
450.5219, 200.5898
451.0041, 201.2665
451.4862, 201.3174
451.9683, 203.0402
452.4504, 206.2390
452.9325, 209.5249
453.4146, 212.2848
453.8968, 214.7644
454.3789, 217.4180
454.8610, 220.0299
455.3431, 223.3163
455.8252, 228.7012
456.3073, 234.1520
456.7895, 237.2359
457.2716, 237.7433
457.7537, 237.3020
458.2358, 237.0032
458.7179, 236.8499
459.2000, 239.1696
459.6822, 245.9678
460.1643, 252.4988
460.6464, 257.2961
461.1285, 261.0883
461.6106, 265.1218
462.0927, 269.8323
462.5748, 274.3351
463.0569, 276.9871
463.5391, 276.8232
464.0212, 277.3745
464.5033, 278.9140
464.9854, 280.8560
465.4675, 283.2576
465.9496, 285.8526
466.4318, 287.9591
466.9139, 288.8429
467.3960, 289.3087
467.8781, 292.4858
468.3602, 300.3337
468.8423, 305.7780
469.3245, 303.9575
469.8066, 300.7027
470.2887, 300.7393
470.7708, 304.7193
471.2529, 309.5936
471.7350, 313.4190
472.2172, 316.2743
472.6993, 318.1234
473.1814, 318.5215
473.6635, 319.2133
474.1456, 322.1171
474.6277, 326.1899
475.1099, 329.0764
475.5920, 330.1811
476.0741, 330.2852
476.5562, 329.7819
477.0383, 328.6992
477.5204, 326.8525
478.0026, 323.9837
478.4847, 321.1655
478.9668, 320.1870
479.4489, 321.6541
479.9310, 321.9142
480.4131, 319.6149
480.8953, 317.0331
481.3774, 316.1688
481.8595, 316.4668
482.3416, 315.7702
482.8237, 312.6927
483.3058, 308.0425
483.7880, 304.6030
484.2701, 303.9562
484.7522, 302.2656
485.2343, 298.0753
485.7164, 293.7780
486.1985, 291.9559
486.6807, 292.3202
487.1628, 291.9029
487.6449, 287.7084
488.1270, 280.0556
488.6091, 273.5292
489.0912, 268.0709
489.5734, 263.9240
490.0555, 262.5076
490.5376, 261.6026
491.0197, 258.2784
491.5018, 251.6116
491.9839, 244.6108
492.4661, 240.6043
492.9482, 239.2564
493.4303, 237.8718
493.9124, 236.4337
494.3945, 234.2466
494.8766, 230.0213
495.3588, 224.5503
495.8409, 220.0325
496.3230, 217.5338
496.8051, 215.6617
497.2872, 213.7850
497.7693, 211.6827
498.2515, 208.2480
498.7336, 202.7800
499.2157, 196.6623
499.6978, 192.0522
500.1799, 189.2687
500.6620, 186.8317
501.1442, 185.6992
501.6263, 184.0279
502.1084, 179.7054
502.5905, 173.5716
503.0726, 168.3664
503.5547, 165.7979
504.0369, 165.2616
504.5190, 164.6850
505.0011, 164.2512
505.4832, 163.4570
505.9653, 162.5544
506.4474, 161.1124
506.9296, 158.3745
507.4117, 154.6180
507.8938, 151.2526
508.3759, 149.9243
508.8580, 149.9607
509.3401, 147.0142
509.8223, 139.0591
510.3044, 132.5654
510.7865, 130.7666
511.2686, 131.0665
511.7507, 131.3257
512.2328, 131.1990
512.7150, 130.6064
513.1971, 129.2423
513.6792, 127.3691
514.1613, 125.7574
514.6434, 124.5383
515.1255, 123.3508
515.6077, 121.6843
516.0898, 119.8308
516.5719, 118.9867
517.0540, 120.8666
517.5361, 121.7399
518.0182, 118.7311
518.5004, 113.9152
518.9825, 110.4927
519.4646, 109.3540
519.9467, 110.4602
520.4288, 114.4368
520.9109, 122.4759
521.3931, 125.1398
521.8752, 117.2482
522.3573, 110.5649
522.8394, 110.0908
523.3215, 113.2040
523.8036, 115.8838
524.2858, 116.4883
524.7679, 115.8501
525.2500, 115.2636
525.7321, 114.8297
526.2142, 113.9057
526.6964, 111.5709
527.1785, 109.7080
527.6606, 109.2992
528.1427, 110.0053
528.6248, 111.1012
529.1069, 112.5151
529.5891, 113.7795
530.0712, 113.8193
530.5533, 112.7624
531.0354, 112.9898
531.5175, 115.7211
531.9996, 119.0859
532.4818, 120.6901
532.9639, 120.6858
533.4460, 120.9245
533.9281, 122.6009
534.4102, 123.9681
534.8923, 122.9059
535.3745, 120.2457
535.8566, 118.9747
536.3387, 120.6077
536.8208, 123.7642
537.3029, 125.5961
537.7850, 125.3282
538.2672, 125.3052
538.7493, 125.5695
539.2314, 126.0188
539.7135, 126.3506
540.1956, 126.8187
540.6777, 128.1623
541.1599, 130.9366
541.6420, 134.4383
542.1241, 136.7350
542.6062, 137.3061
543.0883, 138.3985
543.5704, 141.6175
544.0526, 144.4635
544.5347, 144.8625
545.0168, 143.2632
545.4989, 142.1209
545.9810, 143.3202
546.4631, 145.4015
546.9453, 145.6719
547.4274, 144.2040
547.9095, 143.7904
548.3916, 145.9593
548.8737, 149.2780
549.3558, 151.2571
549.8380, 151.8401
550.3201, 152.0510
550.8022, 151.8478
551.2843, 151.5107
551.7664, 151.2760
552.2485, 151.1204
552.7307, 150.8362
553.2128, 150.2700
553.6949, 149.6413
554.1770, 149.6903
554.6591, 151.9094
555.1412, 152.0467
555.6234, 147.3728
556.1055, 143.1628
556.5876, 143.7178
557.0697, 147.6917
557.5518, 150.1632
558.0339, 147.5589
558.5161, 142.4318
558.9982, 141.0687
559.4803, 144.2234
559.9624, 146.6238
560.4445, 146.7139
560.9266, 145.6292
561.4088, 144.4119
561.8909, 143.0696
562.3730, 141.5784
562.8551, 139.5452
563.3372, 137.6265
563.8193, 136.7860
564.3015, 136.8085
564.7836, 136.3524
565.2657, 134.6460
565.7478, 132.7254
566.2299, 132.6297
566.7120, 135.6477
567.1942, 137.3419
567.6763, 136.9085
568.1584, 135.8992
568.6405, 135.4576
569.1226, 135.1399
569.6047, 133.4326
570.0869, 129.4514
570.5690, 124.8400
571.0511, 123.2492
571.5332, 125.5053
572.0153, 127.6126
572.4974, 130.2724
572.9796, 131.5394
573.4617, 129.1737
573.9438, 124.6205
574.4259, 121.7225
574.9080, 122.7625
575.3901, 125.0139
575.8723, 125.5182
576.3544, 124.4872
576.8365, 122.9205
577.3186, 120.8580
577.8007, 119.0756
578.2828, 118.9065
578.7650, 120.4735
579.2471, 120.0441
579.7292, 116.3440
580.2113, 111.8634
580.6934, 106.2923
581.1755, 101.1582
581.6577, 99.51107
582.1398, 102.1744
582.6219, 105.7426
583.1040, 105.2970
583.5861, 100.0603
584.0682, 96.99814
584.5504, 98.01736
585.0325, 98.96829
585.5146, 98.73721
585.9967, 97.66528
586.4788, 96.08571
586.9609, 94.05598
587.4431, 92.07317
