##NAMES=Jahnsite-(CaMnFe)
##RRUFFID=R070733
##IDEAL CHEMISTRY=CaMn^2+^Fe^2+^_2_Fe^3+^_2_(PO_4_)_4_(OH)_2_&#183;8H_2_O
##LOCALITY=Voron'i Tundry, Kola Peninsula, Murmanskaja Oblast', Northern Region, Russia
##OWNER=RRUFF
##SOURCE=Michael Scott
##DESCRIPTION=Orange-brown elongated tabular crystals associated with quartz, spodumene, and schorl.
##STATUS=The identification of this mineral has been confirmed only by single crystal X-ray diffraction.
##URL=rruff.info/R070733
89.15009, 18833.22
89.63220, 19102.38
90.11432, 19298.41
90.59644, 19537.64
91.07855, 19871.42
91.56067, 20203.32
92.04279, 20476.91
92.52490, 20677.36
93.00702, 20829.59
93.48914, 20980.43
93.97125, 21129.01
94.45337, 21231.09
94.93549, 21116.69
95.41760, 20866.70
95.89972, 20586.79
96.38184, 20241.68
96.86395, 19873.23
97.34607, 19601.12
97.82819, 19454.86
98.31030, 19344.70
98.79242, 19221.90
99.27454, 19085.46
99.75665, 18952.61
100.2388, 18834.99
100.7209, 18726.72
101.2030, 18620.62
101.6851, 18514.96
102.1672, 18408.53
102.6494, 18294.25
103.1315, 18148.01
103.6136, 18032.54
104.0957, 17988.02
104.5778, 17994.15
105.0599, 18002.75
105.5421, 17971.48
106.0242, 17893.93
106.5063, 17833.19
106.9884, 17809.31
107.4705, 17786.23
107.9526, 17749.70
108.4348, 17697.05
108.9169, 17633.47
109.3990, 17567.48
109.8811, 17505.16
110.3632, 17426.86
110.8453, 17301.08
111.3275, 17174.73
111.8096, 17094.26
112.2917, 17080.48
112.7738, 17114.76
113.2559, 17132.12
113.7380, 17138.80
114.2202, 17123.84
114.7023, 17067.99
115.1844, 16986.51
115.6665, 16913.18
116.1486, 16871.34
116.6307, 16858.67
117.1129, 16842.10
117.5950, 16807.98
118.0771, 16779.24
118.5592, 16777.05
119.0413, 16803.49
119.5234, 16836.66
120.0056, 16864.35
120.4877, 16885.29
120.9698, 16891.46
121.4519, 16873.64
121.9340, 16839.43
122.4161, 16804.72
122.8982, 16765.88
123.3804, 16735.50
123.8625, 16726.74
124.3446, 16735.39
124.8267, 16740.49
125.3088, 16719.84
125.7909, 16670.51
126.2731, 16636.89
126.7552, 16638.28
127.2373, 16648.21
127.7194, 16655.46
128.2015, 16657.83
128.6837, 16659.25
129.1658, 16664.03
129.6479, 16666.26
130.1300, 16685.57
130.6121, 16752.93
131.0942, 16820.68
131.5764, 16841.63
132.0585, 16794.83
132.5406, 16703.16
133.0227, 16647.73
133.5048, 16675.89
133.9869, 16691.03
134.4691, 16663.38
134.9512, 16616.24
135.4333, 16591.88
135.9154, 16620.62
136.3975, 16698.51
136.8796, 16748.21
137.3618, 16745.85
137.8439, 16743.32
138.3260, 16773.76
138.8081, 16833.58
139.2902, 16886.76
139.7723, 16899.57
140.2545, 16871.53
140.7366, 16854.50
141.2187, 16858.38
141.7008, 16871.32
142.1829, 16879.67
142.6650, 16880.52
143.1472, 16881.97
143.6293, 16892.26
144.1114, 16909.82
144.5935, 16931.55
145.0756, 16963.73
145.5577, 17000.38
146.0399, 17019.39
146.5220, 17003.89
147.0041, 16985.12
147.4862, 16993.18
147.9683, 17026.50
148.4504, 17056.00
148.9326, 17052.30
149.4147, 17011.59
149.8968, 16977.98
150.3789, 16963.08
150.8610, 16955.83
151.3431, 16951.46
151.8252, 16948.84
152.3074, 16949.01
152.7895, 16953.95
153.2716, 16965.56
153.7537, 16978.35
154.2358, 17005.22
154.7179, 17026.58
155.2001, 17020.40
155.6822, 16977.01
156.1643, 16911.66
156.6464, 16871.45
157.1285, 16882.70
157.6106, 16891.39
158.0928, 16885.38
158.5749, 16874.75
159.0570, 16876.38
159.5391, 16901.91
160.0212, 16947.55
160.5033, 16968.82
160.9855, 16937.86
161.4676, 16914.58
161.9497, 16924.26
162.4318, 16958.84
162.9139, 16992.46
163.3960, 17004.50
163.8782, 16993.98
164.3603, 16994.23
164.8424, 17012.24
165.3245, 17034.32
165.8066, 17050.54
166.2887, 17060.51
166.7709, 17071.60
167.2530, 17091.12
167.7351, 17119.17
168.2172, 17147.90
168.6993, 17189.72
169.1814, 17226.65
169.6636, 17228.23
170.1457, 17182.02
170.6278, 17132.79
171.1099, 17135.08
171.5920, 17179.03
172.0741, 17219.78
172.5563, 17237.76
173.0384, 17239.19
173.5205, 17242.03
174.0026, 17251.21
174.4847, 17259.22
174.9668, 17256.63
175.4490, 17244.53
175.9311, 17237.05
176.4132, 17248.06
176.8953, 17276.98
177.3774, 17299.32
177.8595, 17309.72
178.3417, 17312.45
178.8238, 17309.22
179.3059, 17300.36
179.7880, 17287.71
180.2701, 17266.87
180.7522, 17229.38
181.2344, 17219.83
181.7165, 17271.47
182.1986, 17335.24
182.6807, 17385.17
183.1628, 17413.49
183.6449, 17424.10
184.1271, 17419.93
184.6092, 17385.69
185.0913, 17367.78
185.5734, 17381.43
186.0555, 17405.09
186.5376, 17420.90
187.0198, 17421.61
187.5019, 17411.81
187.9840, 17403.42
188.4661, 17398.44
188.9482, 17392.42
189.4303, 17381.48
189.9125, 17370.36
190.3946, 17365.44
190.8767, 17370.19
191.3588, 17382.11
191.8409, 17389.64
192.3230, 17390.75
192.8052, 17389.67
193.2873, 17388.09
193.7694, 17384.69
194.2515, 17374.16
194.7336, 17350.79
195.2157, 17318.40
195.6979, 17317.22
196.1800, 17385.80
196.6621, 17438.85
197.1442, 17437.54
197.6263, 17392.78
198.1084, 17339.05
198.5906, 17295.70
199.0727, 17264.53
199.5548, 17250.11
200.0369, 17269.12
200.5190, 17289.07
201.0011, 17287.53
201.4833, 17266.09
201.9654, 17246.23
202.4475, 17244.82
202.9296, 17260.74
203.4117, 17272.97
203.8938, 17270.04
204.3760, 17270.10
204.8581, 17303.49
205.3402, 17374.70
205.8223, 17423.97
206.3044, 17385.26
206.7865, 17281.24
207.2687, 17192.71
207.7508, 17140.31
208.2329, 17109.71
208.7150, 17083.39
209.1971, 17060.75
209.6792, 17041.19
210.1614, 17020.61
210.6435, 17001.85
211.1256, 16994.61
211.6077, 17014.74
212.0898, 17047.35
212.5719, 17060.20
213.0541, 17049.36
213.5362, 17022.19
214.0183, 16976.01
214.5004, 16918.06
214.9825, 16866.33
215.4646, 16837.26
215.9468, 16824.07
216.4289, 16798.48
216.9110, 16754.38
217.3931, 16704.32
217.8752, 16647.46
218.3573, 16589.38
218.8395, 16546.07
219.3216, 16541.86
219.8037, 16571.86
220.2858, 16570.05
220.7679, 16502.44
221.2500, 16437.71
221.7322, 16417.06
222.2143, 16429.06
222.6964, 16434.61
223.1785, 16388.85
223.6606, 16287.54
224.1427, 16231.02
224.6249, 16252.62
225.1070, 16294.34
225.5891, 16354.69
226.0712, 16421.12
226.5533, 16463.95
227.0354, 16447.72
227.5176, 16362.03
227.9997, 16289.54
228.4818, 16229.00
228.9639, 16183.21
229.4460, 16154.39
229.9281, 16142.58
230.4103, 16147.83
230.8924, 16178.12
231.3745, 16248.30
231.8566, 16274.84
232.3387, 16225.54
232.8208, 16163.48
233.3030, 16109.23
233.7851, 16068.23
234.2672, 16041.72
234.7493, 16033.02
235.2314, 16048.60
235.7135, 16059.21
236.1957, 16060.67
236.6778, 16061.70
237.1599, 16068.86
237.6420, 16081.52
238.1241, 16092.93
238.6062, 16095.03
239.0884, 16084.87
239.5705, 16074.50
240.0526, 16052.43
240.5347, 16038.75
241.0168, 16052.38
241.4989, 16091.41
241.9811, 16134.05
242.4632, 16155.22
242.9453, 16148.18
243.4274, 16137.28
243.9095, 16103.22
244.3916, 16079.70
244.8738, 16095.87
245.3559, 16151.62
245.8380, 16217.89
246.3201, 16261.63
246.8022, 16276.43
247.2843, 16284.54
247.7665, 16283.63
248.2486, 16278.50
248.7307, 16266.14
249.2128, 16248.81
249.6949, 16240.24
250.1770, 16255.79
250.6592, 16300.45
251.1413, 16360.48
251.6234, 16463.13
252.1055, 16561.90
252.5876, 16618.60
253.0697, 16629.61
253.5519, 16622.38
254.0340, 16625.35
254.5161, 16641.46
254.9982, 16658.57
255.4803, 16682.09
255.9624, 16702.97
256.4445, 16707.50
256.9267, 16695.76
257.4088, 16690.51
257.8909, 16719.75
258.3730, 16795.30
258.8551, 16842.07
259.3372, 16836.96
259.8194, 16817.86
260.3015, 16813.23
260.7836, 16826.73
261.2657, 16850.08
261.7478, 16879.53
262.2299, 16917.08
262.7121, 16933.60
263.1942, 16905.21
263.6763, 16871.01
264.1584, 16871.64
264.6405, 16908.94
265.1227, 16939.87
265.6048, 16920.77
266.0869, 16846.74
266.5690, 16791.00
267.0511, 16763.47
267.5332, 16748.79
268.0154, 16735.13
268.4975, 16721.56
268.9796, 16714.71
269.4617, 16729.29
269.9438, 16762.11
270.4259, 16751.15
270.9081, 16647.86
271.3902, 16533.07
271.8723, 16483.84
272.3544, 16499.65
272.8365, 16503.37
273.3186, 16425.98
273.8008, 16275.88
274.2829, 16171.29
274.7650, 16144.54
275.2471, 16141.02
275.7292, 16127.39
276.2113, 16102.07
276.6935, 16064.75
277.1756, 16013.37
277.6577, 15948.12
278.1398, 15882.15
278.6219, 15812.03
279.1040, 15743.68
279.5862, 15688.13
280.0683, 15642.40
280.5504, 15581.71
281.0325, 15483.13
281.5146, 15358.55
281.9967, 15259.56
282.4789, 15194.76
282.9610, 15146.25
283.4431, 15112.03
283.9252, 15088.63
284.4073, 15057.31
284.8894, 15008.61
285.3716, 14943.56
285.8537, 14868.68
286.3358, 14768.04
286.8179, 14677.92
287.3000, 14626.57
287.7821, 14605.52
288.2643, 14582.43
288.7464, 14543.51
289.2285, 14491.58
289.7106, 14433.28
290.1927, 14356.75
290.6748, 14295.08
291.1570, 14280.44
291.6391, 14296.12
292.1212, 14289.20
292.6033, 14234.79
293.0854, 14152.44
293.5675, 14080.54
294.0497, 14016.65
294.5318, 13964.31
295.0139, 13933.12
295.4960, 13914.42
295.9781, 13887.82
296.4602, 13845.55
296.9424, 13795.29
297.4245, 13746.76
297.9066, 13694.49
298.3887, 13661.58
298.8708, 13677.78
299.3529, 13713.87
299.8351, 13715.07
300.3172, 13662.65
300.7993, 13588.06
301.2814, 13532.43
301.7635, 13495.60
302.2456, 13466.26
302.7278, 13448.77
303.2099, 13435.09
303.6920, 13414.43
304.1741, 13384.44
304.6562, 13349.64
305.1383, 13313.87
305.6205, 13277.21
306.1026, 13240.18
306.5847, 13197.75
307.0668, 13157.77
307.5489, 13133.28
308.0310, 13125.70
308.5132, 13115.13
308.9953, 13081.78
309.4774, 13024.25
309.9595, 12969.00
310.4416, 12900.88
310.9237, 12846.79
311.4059, 12840.18
311.8880, 12877.82
312.3701, 12912.81
312.8522, 12909.78
313.3343, 12868.94
313.8164, 12828.75
314.2986, 12781.34
314.7807, 12741.55
315.2628, 12722.03
315.7449, 12719.25
316.2270, 12719.14
316.7091, 12716.14
317.1913, 12707.55
317.6734, 12679.79
318.1555, 12602.81
318.6376, 12541.41
319.1197, 12530.27
319.6018, 12553.44
320.0840, 12575.56
320.5661, 12581.10
321.0482, 12571.04
321.5303, 12545.96
322.0124, 12481.11
322.4945, 12436.72
322.9767, 12450.01
323.4588, 12485.71
323.9409, 12486.74
324.4230, 12429.89
324.9051, 12343.86
325.3872, 12285.52
325.8694, 12271.25
326.3515, 12256.68
326.8336, 12241.32
327.3157, 12223.26
327.7978, 12196.78
328.2799, 12161.22
328.7621, 12127.74
329.2442, 12112.72
329.7263, 12128.89
330.2084, 12132.25
330.6905, 12120.27
331.1726, 12098.12
331.6548, 12063.58
332.1369, 12019.44
332.6190, 11978.97
333.1011, 11958.05
333.5832, 11963.83
334.0653, 11947.45
334.5475, 11878.17
335.0296, 11818.98
335.5117, 11810.64
335.9938, 11841.88
336.4759, 11871.58
336.9580, 11867.04
337.4402, 11828.94
337.9223, 11801.79
338.4044, 11812.44
338.8865, 11804.89
339.3686, 11750.95
339.8507, 11670.26
340.3329, 11595.39
340.8150, 11544.03
341.2971, 11514.23
341.7792, 11497.80
342.2613, 11517.66
342.7434, 11521.98
343.2256, 11499.86
343.7077, 11462.12
344.1898, 11417.65
344.6719, 11370.17
345.1540, 11323.78
345.6361, 11285.91
346.1183, 11255.58
346.6004, 11237.40
347.0825, 11246.03
347.5646, 11255.12
348.0467, 11244.17
348.5288, 11209.86
349.0110, 11165.25
349.4931, 11127.34
349.9752, 11099.16
350.4573, 11065.00
350.9394, 11017.06
351.4215, 10968.74
351.9037, 10922.14
352.3858, 10879.68
352.8679, 10846.73
353.3500, 10827.69
353.8321, 10822.47
354.3142, 10832.08
354.7964, 10890.52
355.2785, 10920.44
355.7606, 10870.80
356.2427, 10773.72
356.7248, 10692.72
357.2069, 10667.32
357.6891, 10680.51
358.1712, 10687.24
358.6533, 10690.91
359.1354, 10679.58
359.6175, 10631.01
360.0996, 10572.29
360.5818, 10535.82
361.0639, 10535.23
361.5460, 10551.71
362.0281, 10569.58
362.5102, 10592.36
362.9923, 10583.15
363.4745, 10494.21
363.9566, 10391.07
364.4387, 10342.70
364.9208, 10361.37
365.4029, 10392.72
365.8850, 10396.64
366.3672, 10377.94
366.8493, 10364.23
367.3314, 10366.37
367.8135, 10367.53
368.2956, 10342.95
368.7777, 10295.16
369.2599, 10263.35
369.7420, 10277.26
370.2241, 10313.67
370.7062, 10334.06
371.1883, 10333.47
371.6704, 10321.26
372.1526, 10301.35
372.6347, 10274.99
373.1168, 10249.83
373.5989, 10221.25
374.0810, 10198.18
374.5631, 10189.22
375.0453, 10193.54
375.5274, 10202.77
376.0095, 10211.70
376.4916, 10222.07
376.9737, 10240.68
377.4558, 10288.95
377.9380, 10320.45
378.4201, 10304.54
378.9022, 10261.47
379.3843, 10230.36
379.8664, 10227.02
380.3485, 10240.94
380.8307, 10250.50
381.3128, 10248.94
381.7949, 10255.88
382.2770, 10281.13
382.7591, 10310.78
383.2412, 10331.22
383.7234, 10340.13
384.2055, 10343.57
384.6876, 10347.76
385.1697, 10351.49
385.6518, 10362.06
386.1339, 10393.05
386.6161, 10417.30
387.0982, 10412.00
387.5803, 10387.06
388.0624, 10371.89
388.5445, 10389.25
389.0266, 10435.65
389.5088, 10472.63
389.9909, 10500.91
390.4730, 10517.35
390.9551, 10507.49
391.4372, 10490.10
391.9193, 10491.52
392.4015, 10523.73
392.8836, 10569.11
393.3657, 10589.10
393.8478, 10567.78
394.3299, 10559.78
394.8120, 10592.12
395.2942, 10625.71
395.7763, 10628.62
396.2584, 10598.33
396.7405, 10564.89
397.2226, 10563.44
397.7047, 10594.35
398.1869, 10606.91
398.6690, 10578.29
399.1511, 10554.57
399.6332, 10567.46
400.1153, 10606.72
400.5974, 10641.98
401.0796, 10655.35
401.5617, 10654.60
402.0438, 10657.25
402.5259, 10664.73
403.0080, 10670.24
403.4901, 10667.37
403.9723, 10660.96
404.4544, 10658.97
404.9365, 10666.46
405.4186, 10672.43
405.9007, 10661.63
406.3828, 10638.55
406.8650, 10629.34
407.3471, 10646.75
407.8292, 10677.78
408.3113, 10703.73
408.7934, 10726.40
409.2755, 10738.07
409.7577, 10723.32
410.2398, 10700.96
410.7219, 10700.41
411.2040, 10726.86
411.6861, 10757.30
412.1682, 10768.05
412.6504, 10755.69
413.1325, 10750.34
413.6146, 10759.92
414.0967, 10769.01
414.5788, 10764.61
415.0609, 10751.74
415.5431, 10748.13
416.0252, 10766.61
416.5073, 10799.82
416.9894, 10812.90
417.4715, 10789.64
417.9536, 10765.27
418.4358, 10729.85
418.9179, 10701.22
419.4000, 10702.98
419.8821, 10740.69
420.3642, 10793.02
420.8463, 10827.28
421.3285, 10835.63
421.8106, 10846.91
422.2927, 10872.13
422.7748, 10890.45
423.2569, 10886.63
423.7390, 10865.18
424.2212, 10843.02
424.7033, 10830.43
425.1854, 10827.89
425.6675, 10841.01
426.1496, 10881.04
426.6317, 10917.43
427.1139, 10937.56
427.5960, 10948.14
428.0781, 10956.45
428.5602, 10963.41
429.0423, 10972.87
429.5244, 10994.84
430.0066, 11029.90
430.4887, 11050.59
430.9708, 11042.99
431.4529, 11022.86
431.9350, 11005.08
432.4171, 10989.11
432.8993, 10985.25
433.3814, 11002.76
433.8635, 11034.58
434.3456, 11073.60
434.8277, 11121.08
435.3098, 11156.75
435.7920, 11158.35
436.2741, 11128.18
436.7562, 11108.26
437.2383, 11102.54
437.7204, 11105.03
438.2025, 11116.17
438.6847, 11133.05
439.1668, 11148.02
439.6489, 11157.22
440.1310, 11162.49
440.6131, 11168.85
441.0952, 11179.97
441.5774, 11187.02
442.0595, 11182.60
442.5416, 11178.10
443.0237, 11184.23
443.5058, 11202.57
443.9879, 11227.89
444.4701, 11256.21
444.9522, 11289.43
445.4343, 11311.08
445.9164, 11316.15
446.3985, 11314.34
446.8806, 11301.57
447.3628, 11284.76
447.8449, 11274.60
448.3270, 11276.35
448.8091, 11289.39
449.2912, 11314.76
449.7733, 11358.25
450.2555, 11397.73
450.7376, 11424.90
451.2197, 11447.46
451.7018, 11473.30
452.1839, 11503.39
452.6660, 11526.57
453.1482, 11530.53
453.6303, 11519.03
454.1124, 11508.12
454.5945, 11496.96
455.0766, 11492.40
455.5587, 11502.40
456.0409, 11523.87
456.5230, 11549.71
457.0051, 11584.34
457.4872, 11618.47
457.9693, 11643.53
458.4514, 11660.54
458.9336, 11675.77
459.4156, 11693.42
459.8978, 11709.65
460.3799, 11710.04
460.8620, 11666.79
461.3441, 11661.64
461.8262, 11745.39
462.3083, 11854.74
462.7905, 11924.97
463.2726, 11943.84
463.7547, 11932.59
464.2368, 11908.74
464.7189, 11867.73
465.2010, 11854.74
465.6832, 11889.67
466.1653, 11929.49
466.6474, 11972.34
467.1295, 12008.32
467.6116, 12020.46
468.0938, 11998.21
468.5759, 11959.63
469.0580, 11947.88
469.5401, 11975.83
470.0222, 11993.98
470.5043, 11985.71
470.9865, 11970.86
471.4686, 11964.87
471.9507, 11967.36
472.4328, 11961.24
472.9149, 11920.99
473.3970, 11860.46
473.8792, 11834.97
474.3613, 11857.88
474.8434, 11882.90
475.3255, 11877.75
475.8076, 11853.50
476.2897, 11832.84
476.7719, 11826.44
477.2540, 11815.06
477.7361, 11778.58
478.2182, 11725.65
478.7003, 11683.15
479.1824, 11661.40
479.6646, 11650.21
480.1467, 11634.81
480.6288, 11614.66
481.1109, 11591.52
481.5930, 11568.06
482.0751, 11539.76
482.5573, 11499.11
483.0394, 11449.18
483.5215, 11403.35
484.0036, 11372.53
484.4857, 11352.79
484.9678, 11317.85
485.4500, 11251.23
485.9321, 11190.61
486.4142, 11147.14
486.8963, 11108.32
487.3784, 11060.16
487.8605, 10999.96
488.3427, 10938.75
488.8248, 10893.86
489.3069, 10866.71
489.7890, 10819.32
490.2711, 10731.35
490.7532, 10647.70
491.2354, 10593.11
491.7175, 10560.74
492.1996, 10534.27
492.6817, 10513.36
493.1638, 10490.07
493.6459, 10457.07
494.1281, 10414.04
494.6102, 10353.63
495.0923, 10261.93
495.5744, 10164.77
496.0565, 10113.52
496.5386, 10117.73
497.0208, 10112.09
497.5029, 10083.18
497.9850, 10036.16
498.4671, 9962.348
498.9492, 9868.320
499.4313, 9793.437
499.9135, 9774.054
500.3956, 9804.341
500.8777, 9804.895
501.3598, 9755.908
501.8419, 9700.815
502.3240, 9637.576
502.8062, 9576.012
503.2883, 9524.647
503.7704, 9486.582
504.2525, 9461.399
504.7346, 9455.672
505.2167, 9475.710
505.6989, 9469.396
506.1810, 9422.483
506.6631, 9362.561
507.1452, 9288.174
507.6273, 9212.271
508.1094, 9163.916
508.5916, 9167.930
509.0737, 9189.633
509.5558, 9181.767
510.0379, 9145.226
510.5200, 9103.828
511.0021, 9060.472
511.4843, 9022.332
511.9664, 9004.229
512.4485, 9009.474
512.9306, 9006.422
513.4127, 8979.817
513.8948, 8945.934
514.3770, 8919.104
514.8591, 8900.647
515.3412, 8889.506
515.8233, 8887.610
516.3054, 8890.769
516.7875, 8872.007
517.2697, 8788.889
517.7518, 8736.370
518.2339, 8745.950
518.7160, 8777.328
519.1981, 8791.552
519.6802, 8780.885
520.1624, 8763.625
520.6445, 8762.042
521.1266, 8776.831
521.6087, 8777.584
522.0908, 8752.222
522.5729, 8730.685
523.0551, 8733.943
523.5372, 8747.144
524.0193, 8744.693
524.5014, 8712.415
524.9835, 8677.689
525.4656, 8674.424
525.9478, 8695.184
526.4299, 8699.841
526.9120, 8675.945
527.3941, 8638.687
527.8762, 8597.277
528.3583, 8550.205
528.8405, 8534.996
529.3226, 8583.368
529.8047, 8639.594
530.2868, 8668.098
530.7689, 8673.951
531.2510, 8677.362
531.7332, 8688.774
532.2153, 8702.646
532.6974, 8703.325
533.1795, 8668.302
533.6616, 8662.261
534.1437, 8718.448
534.6259, 8773.326
535.1080, 8779.178
535.5901, 8744.719
536.0722, 8714.649
536.5543, 8723.753
537.0364, 8759.046
537.5186, 8777.105
538.0007, 8770.851
538.4828, 8775.357
538.9649, 8821.368
539.4470, 8873.873
539.9291, 8884.729
540.4113, 8842.975
540.8934, 8816.019
541.3755, 8851.479
541.8576, 8917.025
542.3397, 8959.937
542.8218, 8974.752
543.3040, 8992.345
543.7861, 9039.728
544.2682, 9110.578
544.7503, 9149.943
545.2324, 9128.833
545.7145, 9116.954
546.1967, 9133.365
546.6788, 9162.705
547.1609, 9193.031
547.6430, 9219.314
548.1251, 9234.923
548.6072, 9227.294
549.0894, 9195.017
549.5715, 9185.406
550.0536, 9213.114
550.5357, 9243.395
551.0178, 9271.668
551.4999, 9291.668
551.9821, 9291.825
552.4642, 9264.682
552.9463, 9233.849
553.4284, 9221.159
553.9105, 9223.109
554.3926, 9227.022
554.8748, 9231.285
555.3569, 9233.784
555.8390, 9230.008
556.3211, 9220.469
556.8032, 9221.313
557.2853, 9245.477
557.7675, 9266.714
558.2496, 9276.434
558.7317, 9273.971
559.2138, 9252.501
559.6959, 9210.581
560.1780, 9168.597
560.6602, 9162.330
561.1423, 9207.859
561.6244, 9224.993
562.1065, 9185.864
562.5886, 9144.711
563.0707, 9114.962
563.5529, 9097.391
564.0350, 9092.195
564.5171, 9101.990
564.9992, 9116.995
565.4813, 9124.051
565.9634, 9123.650
566.4456, 9123.421
566.9277, 9124.417
567.4098, 9127.172
567.8919, 9136.784
568.3740, 9151.824
568.8561, 9153.195
569.3383, 9129.782
569.8204, 9099.436
570.3025, 9076.954
570.7846, 9056.517
571.2667, 9017.047
571.7488, 8949.089
572.2310, 8878.269
572.7131, 8853.164
573.1952, 8891.827
573.6773, 8928.055
574.1594, 8977.539
574.6415, 9009.398
575.1237, 9002.690
575.6058, 8968.558
576.0879, 8929.722
576.5700, 8895.139
577.0521, 8866.516
577.5342, 8847.948
578.0164, 8839.540
578.4985, 8833.138
578.9806, 8830.486
579.4627, 8823.992
579.9448, 8797.375
580.4269, 8754.044
580.9091, 8730.721
581.3912, 8759.839
581.8733, 8788.040
582.3554, 8772.681
582.8375, 8726.800
583.3196, 8687.269
583.8018, 8669.911
