##NAMES=Jamesonite
##RRUFFID=R050432
##IDEAL CHEMISTRY=Pb^2+^_4_Fe^2+^Sb^3+^_6_S^2-^_14_
##LOCALITY=San Jose mine, Oruro District, Bolivia
##OWNER=RRUFF
##SOURCE=University of Arizona Mineral Museum
##DESCRIPTION=Grayish black coarse acicular crystals
##STATUS=The identification of this mineral has been confirmed by X-ray diffraction and chemical analysis
##URL=rruff.info/R050432
##MEASURED CHEMISTRY=Pb_4.00_Fe_1.00_(Sb_5.95_As_0.05_)_Î£=6_S_14.00_
158.169, 1340.309
158.651, 1337.390
159.133, 1323.901
159.615, 1318.400
160.097, 1334.064
160.579, 1364.477
161.062, 1395.589
161.544, 1423.003
162.026, 1445.291
162.508, 1454.611
162.990, 1442.006
163.472, 1428.066
163.954, 1422.507
164.436, 1423.627
164.919, 1427.018
165.401, 1429.086
165.883, 1430.496
166.365, 1437.153
166.847, 1452.760
167.329, 1469.508
167.811, 1484.308
168.293, 1497.393
168.775, 1509.796
169.258, 1522.524
169.740, 1535.445
170.222, 1546.471
170.704, 1557.626
171.186, 1564.109
171.668, 1562.453
172.150, 1554.723
172.632, 1545.832
173.115, 1539.093
173.597, 1534.491
174.079, 1530.989
174.561, 1528.801
175.043, 1527.678
175.525, 1528.961
176.007, 1531.413
176.489, 1532.209
176.971, 1528.723
177.454, 1520.937
177.936, 1513.902
178.418, 1506.374
178.900, 1501.038
179.382, 1500.749
179.864, 1503.586
180.346, 1505.256
180.828, 1502.754
181.311, 1496.087
181.793, 1485.082
182.275, 1457.690
182.757, 1437.095
183.239, 1434.610
183.721, 1445.223
184.203, 1456.241
184.685, 1457.584
185.167, 1449.109
185.650, 1441.115
186.132, 1432.958
186.614, 1425.984
187.096, 1419.984
187.578, 1415.428
188.060, 1413.279
188.542, 1414.465
189.024, 1418.989
189.507, 1424.128
189.989, 1433.674
190.471, 1440.094
190.953, 1439.496
191.435, 1434.040
191.917, 1428.249
192.399, 1425.196
192.881, 1424.892
193.363, 1426.960
193.846, 1430.262
194.328, 1437.439
194.810, 1453.445
195.292, 1473.883
195.774, 1490.020
196.256, 1494.667
196.738, 1488.822
197.220, 1490.492
197.702, 1507.115
198.185, 1524.464
198.667, 1542.344
199.149, 1558.687
199.631, 1569.978
200.113, 1573.513
200.595, 1570.109
201.077, 1568.073
201.559, 1563.798
202.042, 1565.044
202.524, 1580.029
203.006, 1600.725
203.488, 1613.614
203.970, 1609.531
204.452, 1591.837
204.934, 1582.136
205.416, 1589.634
205.898, 1595.799
206.381, 1596.230
206.863, 1593.802
207.345, 1593.554
207.827, 1598.702
208.309, 1606.960
208.791, 1607.829
209.273, 1589.632
209.755, 1577.879
210.238, 1578.680
210.720, 1587.018
211.202, 1596.568
211.684, 1604.094
212.166, 1611.124
212.648, 1623.110
213.130, 1648.013
213.612, 1666.931
214.094, 1674.310
214.577, 1676.304
215.059, 1679.149
215.541, 1685.525
216.023, 1694.346
216.505, 1703.346
216.987, 1715.267
217.469, 1722.665
217.951, 1720.113
218.434, 1715.715
218.916, 1716.591
219.398, 1725.309
219.880, 1739.983
220.362, 1757.696
220.844, 1782.619
221.326, 1802.920
221.808, 1819.643
222.290, 1831.310
222.773, 1834.594
223.255, 1829.369
223.737, 1821.235
224.219, 1819.160
224.701, 1825.720
225.183, 1832.738
225.665, 1840.888
226.147, 1848.621
226.629, 1854.312
227.112, 1857.958
227.594, 1861.511
228.076, 1867.751
228.558, 1877.817
229.040, 1886.939
229.522, 1896.205
230.004, 1903.659
230.486, 1906.046
230.969, 1904.449
231.451, 1904.432
231.933, 1913.990
232.415, 1936.523
232.897, 1948.857
233.379, 1940.571
233.861, 1930.694
234.343, 1927.098
234.825, 1928.742
235.307, 1929.619
235.790, 1924.124
236.272, 1912.093
236.754, 1901.876
237.236, 1896.717
237.718, 1889.982
238.200, 1875.990
238.682, 1858.604
239.165, 1846.117
239.647, 1845.338
240.129, 1854.566
240.611, 1862.309
241.093, 1873.005
241.575, 1875.403
242.057, 1863.562
242.539, 1842.417
243.021, 1819.472
243.503, 1798.627
243.986, 1778.899
244.468, 1756.674
244.950, 1729.144
245.432, 1704.722
245.914, 1684.170
246.396, 1668.377
246.878, 1660.213
247.361, 1662.831
247.843, 1667.978
248.325, 1659.453
248.807, 1632.943
249.289, 1605.591
249.771, 1578.635
250.253, 1555.004
250.735, 1537.789
251.217, 1528.319
251.699, 1522.996
252.182, 1519.540
252.664, 1518.959
253.146, 1512.041
253.628, 1488.905
254.110, 1463.480
254.592, 1446.406
255.074, 1439.192
255.556, 1435.061
256.039, 1428.622
256.521, 1419.980
257.003, 1411.206
257.485, 1401.024
257.967, 1392.796
258.449, 1390.608
258.931, 1393.927
259.413, 1395.235
259.896, 1388.852
260.378, 1376.621
260.860, 1364.869
261.342, 1353.580
261.824, 1344.125
262.306, 1337.155
262.788, 1332.577
263.270, 1330.703
263.752, 1334.312
264.235, 1339.930
264.717, 1339.751
265.199, 1331.484
265.681, 1326.280
266.163, 1338.897
266.645, 1361.274
267.127, 1371.791
267.609, 1354.142
268.091, 1330.654
268.574, 1324.261
269.056, 1334.740
269.538, 1348.233
270.020, 1357.519
270.502, 1363.763
270.984, 1371.515
271.466, 1385.860
271.948, 1395.797
272.431, 1390.281
272.913, 1373.628
273.395, 1361.725
273.877, 1361.153
274.359, 1369.761
274.841, 1383.978
275.323, 1410.112
275.805, 1428.280
276.288, 1430.020
276.770, 1420.169
277.252, 1404.158
277.734, 1382.543
278.216, 1361.955
278.698, 1354.624
279.180, 1367.945
279.662, 1372.551
280.144, 1363.650
280.626, 1346.188
281.109, 1322.542
281.591, 1293.820
282.073, 1264.622
282.555, 1240.642
283.037, 1223.752
283.519, 1201.318
284.001, 1171.744
284.483, 1138.681
284.966, 1100.131
285.448, 1059.040
285.930, 1023.898
286.412, 1003.315
286.894, 996.607
287.376, 975.620
287.858, 920.791
288.340, 874.094
288.823, 853.204
289.305, 847.259
289.787, 837.646
290.269, 814.318
290.751, 781.235
291.233, 750.903
291.715, 718.518
292.197, 696.908
292.679, 693.038
293.162, 696.751
293.644, 700.503
294.126, 701.405
294.608, 697.782
295.090, 684.745
295.572, 655.070
296.054, 635.799
296.536, 636.612
297.018, 641.261
297.501, 641.037
297.983, 635.067
298.465, 627.134
298.947, 620.449
299.429, 614.989
299.911, 610.933
300.393, 612.679
300.875, 610.585
301.358, 594.959
301.840, 571.960
302.322, 556.733
302.804, 561.803
303.286, 579.878
303.768, 589.061
304.250, 586.180
304.732, 582.098
305.215, 581.342
305.697, 582.680
306.179, 584.657
306.661, 586.646
307.143, 589.551
307.625, 594.497
308.107, 601.481
308.589, 610.192
309.071, 624.054
309.553, 636.606
310.036, 637.287
310.518, 622.253
311.000, 611.220
311.482, 618.663
311.964, 638.702
312.446, 655.991
312.928, 666.916
313.410, 674.433
313.893, 681.088
314.375, 686.849
314.857, 693.952
315.339, 703.153
315.821, 713.735
316.303, 725.324
316.785, 737.765
317.267, 749.713
317.750, 758.313
318.232, 764.288
318.714, 782.747
319.196, 828.984
319.678, 871.323
320.160, 891.159
320.642, 895.439
321.124, 902.241
321.606, 921.114
322.089, 949.009
322.571, 975.230
323.053, 999.510
323.535, 1022.496
324.017, 1040.196
324.499, 1058.452
324.981, 1086.240
325.463, 1124.885
325.945, 1164.413
326.428, 1188.420
326.910, 1188.759
327.392, 1195.126
327.874, 1214.931
328.356, 1233.604
328.838, 1246.678
329.320, 1252.061
329.802, 1246.081
330.284, 1222.141
330.767, 1182.183
331.249, 1156.866
331.731, 1165.100
332.213, 1162.545
332.695, 1133.336
333.177, 1086.527
333.659, 1032.953
334.142, 975.692
334.624, 919.216
335.106, 872.615
335.588, 837.451
336.070, 805.076
336.552, 774.091
337.034, 744.229
337.516, 715.421
337.998, 687.696
338.480, 660.583
338.963, 633.057
339.445, 605.618
339.927, 580.141
340.409, 556.849
340.891, 535.801
341.373, 517.043
341.855, 500.393
342.337, 486.264
342.819, 478.882
343.302, 471.675
343.784, 454.181
344.266, 426.499
344.748, 403.922
345.230, 397.970
345.712, 405.530
346.194, 407.438
346.677, 398.636
347.159, 390.288
347.641, 388.972
348.123, 390.578
348.605, 386.779
349.087, 374.153
349.569, 357.219
350.051, 344.565
350.533, 338.105
351.016, 333.119
351.498, 330.292
351.980, 328.391
352.462, 326.433
352.944, 324.405
353.426, 323.212
353.908, 324.217
354.390, 327.708
354.872, 327.491
355.355, 318.788
355.837, 311.051
356.319, 306.482
356.801, 304.444
357.283, 304.088
357.765, 305.274
358.247, 306.891
358.729, 305.792
359.211, 300.120
359.694, 297.305
360.176, 304.250
360.658, 311.458
361.140, 309.687
361.622, 297.836
362.104, 288.201
362.586, 295.254
363.069, 314.910
363.551, 323.882
364.033, 316.403
364.515, 303.805
364.997, 291.738
365.479, 281.279
365.961, 277.625
366.443, 288.390
366.925, 302.564
367.408, 308.114
367.890, 305.688
368.372, 303.702
368.854, 307.551
369.336, 314.282
369.818, 314.413
370.300, 303.076
370.782, 294.041
371.264, 294.755
371.747, 298.581
372.229, 294.752
372.711, 280.761
373.193, 265.522
373.675, 260.686
374.157, 269.836
374.639, 276.653
375.121, 280.316
375.603, 282.796
376.086, 284.220
376.568, 285.247
377.050, 287.521
377.532, 292.554
378.014, 298.958
378.496, 300.377
378.978, 294.530
379.460, 287.136
379.943, 276.667
380.425, 266.838
380.907, 261.598
381.389, 261.817
381.871, 264.217
382.353, 265.689
382.835, 266.238
383.317, 265.820
383.799, 265.186
384.282, 262.408
384.764, 253.482
385.246, 240.891
385.728, 233.472
386.210, 238.045
386.692, 247.981
387.174, 255.433
387.656, 260.341
388.138, 262.709
388.621, 262.818
389.103, 260.030
389.585, 252.315
390.067, 233.672
390.549, 221.556
391.031, 228.724
391.513, 243.631
391.996, 248.078
392.478, 237.806
392.960, 224.104
393.442, 220.718
393.924, 230.693
394.406, 236.045
394.888, 232.643
395.370, 229.273
395.852, 230.154
396.335, 234.197
396.817, 238.108
397.299, 239.768
397.781, 240.838
398.263, 247.487
398.745, 265.876
399.227, 277.393
399.709, 276.836
400.191, 270.977
400.674, 264.105
401.156, 257.131
401.638, 249.546
402.120, 237.998
402.602, 224.060
403.084, 221.005
403.566, 234.372
404.048, 249.080
404.530, 256.477
405.013, 258.130
405.495, 256.055
405.977, 247.965
406.459, 239.409
406.941, 235.302
407.423, 235.006
407.905, 235.510
408.387, 235.465
408.870, 236.156
409.352, 240.303
409.834, 249.014
410.316, 257.078
410.798, 266.531
411.280, 273.175
411.762, 270.417
412.244, 259.886
412.727, 251.856
413.209, 255.261
413.691, 268.776
414.173, 275.190
414.655, 267.331
415.137, 260.249
415.619, 256.093
416.101, 253.661
416.583, 250.643
417.065, 246.512
417.548, 244.452
418.030, 250.305
418.512, 265.335
418.994, 275.976
419.476, 280.972
419.958, 281.322
420.440, 276.717
420.922, 268.293
421.405, 259.041
421.887, 248.600
422.369, 239.264
422.851, 234.656
423.333, 234.669
423.815, 236.047
424.297, 238.612
424.779, 240.637
425.262, 238.048
425.744, 228.859
426.226, 222.386
426.708, 224.048
427.190, 227.977
427.672, 226.292
428.154, 218.835
428.636, 213.369
429.118, 217.186
429.601, 229.967
430.083, 237.190
430.565, 235.813
431.047, 232.507
431.529, 226.275
432.011, 219.738
432.493, 215.665
432.975, 214.994
433.457, 217.043
433.940, 222.240
434.422, 231.633
434.904, 236.395
435.386, 233.737
435.868, 228.612
436.350, 221.398
436.832, 213.859
437.314, 210.641
437.797, 217.606
438.279, 226.331
438.761, 222.042
439.243, 205.674
439.725, 198.334
440.207, 211.574
440.689, 233.964
441.171, 245.415
441.654, 245.358
442.136, 241.001
442.618, 228.349
443.100, 215.705
443.582, 211.958
444.064, 216.866
444.546, 223.915
445.028, 228.354
445.510, 230.531
445.992, 233.243
446.475, 237.635
446.957, 241.137
447.439, 244.249
447.921, 245.922
448.403, 243.742
448.885, 237.762
449.367, 232.721
449.849, 235.937
450.332, 247.216
450.814, 250.519
451.296, 240.458
451.778, 230.732
452.260, 226.597
452.742, 228.042
453.224, 236.761
453.706, 259.275
454.189, 279.009
454.671, 279.283
455.153, 264.509
455.635, 249.338
456.117, 236.734
456.599, 229.518
457.081, 233.115
457.563, 251.116
458.045, 261.759
458.528, 259.085
459.010, 254.050
459.492, 253.592
459.974, 255.797
460.456, 254.508
460.938, 246.221
461.420, 234.691
461.902, 229.545
462.384, 233.801
462.867, 237.643
463.349, 241.910
463.831, 244.239
464.313, 241.504
464.795, 235.000
465.277, 230.032
465.759, 230.803
466.241, 235.142
466.724, 238.823
467.206, 242.097
467.688, 242.259
468.170, 234.965
468.652, 226.089
469.134, 227.387
469.616, 243.538
470.098, 252.631
470.581, 240.041
471.063, 220.389
471.545, 211.525
472.027, 214.647
472.509, 219.500
472.991, 218.077
473.473, 211.294
473.955, 207.523
474.437, 211.625
474.919, 212.867
475.402, 206.205
475.884, 198.449
476.366, 197.524
476.848, 204.237
477.330, 211.150
477.812, 207.927
478.294, 195.840
478.776, 195.011
479.259, 210.987
479.741, 226.790
480.223, 233.186
480.705, 233.917
481.187, 233.640
481.669, 233.050
482.151, 231.794
482.633, 229.012
483.116, 225.513
483.598, 222.223
484.080, 219.272
484.562, 219.298
485.044, 226.487
485.526, 241.607
486.008, 246.528
486.490, 231.383
486.972, 218.863
487.455, 217.179
487.937, 221.749
488.419, 226.603
488.901, 229.633
489.383, 231.877
489.865, 235.260
490.347, 240.176
490.829, 241.946
491.311, 238.454
491.794, 234.448
492.276, 232.340
492.758, 231.457
493.240, 230.765
493.722, 230.725
494.204, 229.387
494.686, 221.823
495.168, 211.208
495.651, 209.645
496.133, 221.278
496.615, 235.772
497.097, 241.179
497.579, 236.001
498.061, 233.657
498.543, 237.255
499.025, 240.176
499.508, 235.571
499.990, 229.637
500.472, 235.396
500.954, 257.371
501.436, 281.273
501.918, 282.745
502.400, 256.744
502.882, 239.822
503.364, 238.072
503.846, 240.130
504.329, 242.191
504.811, 243.315
505.293, 241.340
505.775, 233.989
506.257, 226.031
506.739, 221.601
507.221, 220.236
507.703, 221.286
508.186, 225.297
508.668, 227.487
509.150, 220.340
509.632, 201.324
510.114, 196.404
510.596, 222.422
511.078, 243.286
511.560, 241.658
512.042, 226.516
512.525, 211.577
513.007, 202.096
513.489, 195.839
513.971, 189.182
514.453, 181.600
514.935, 178.876
515.417, 184.382
515.899, 190.496
516.382, 191.050
516.864, 189.749
517.346, 194.444
517.828, 210.889
518.310, 226.597
518.792, 231.908
519.274, 228.882
519.756, 220.919
520.239, 208.378
520.721, 196.872
521.203, 192.018
521.685, 194.005
522.167, 199.088
522.649, 213.312
523.131, 223.062
523.613, 222.568
524.096, 216.463
524.578, 209.617
525.060, 203.673
525.542, 198.766
526.024, 195.092
526.506, 192.633
526.988, 190.737
527.470, 187.892
527.952, 188.818
528.435, 202.745
528.917, 220.025
529.399, 224.867
529.881, 210.849
530.363, 196.120
530.845, 188.551
531.327, 186.701
531.809, 190.955
532.291, 200.420
532.774, 207.380
533.256, 205.048
533.738, 194.721
534.220, 187.033
534.702, 179.520
535.184, 178.475
535.666, 190.244
536.148, 204.678
536.630, 213.281
537.113, 215.278
537.595, 215.378
538.077, 216.959
538.559, 219.423
539.041, 220.636
539.523, 220.313
540.005, 221.369
540.487, 225.366
540.969, 231.187
541.452, 238.346
541.934, 249.038
542.416, 251.875
542.898, 239.294
543.380, 222.271
543.862, 205.609
544.344, 192.146
544.826, 188.984
545.309, 200.885
545.791, 219.344
546.273, 222.576
546.755, 203.444
547.237, 191.090
547.719, 192.639
548.201, 197.408
548.683, 200.612
549.166, 202.499
549.648, 204.612
550.130, 207.968
550.612, 211.231
551.094, 214.796
551.576, 217.379
552.058, 211.972
552.540, 195.383
553.023, 180.338
553.505, 183.334
553.987, 207.577
554.469, 217.258
554.951, 198.719
555.433, 183.933
555.915, 189.915
556.397, 201.451
556.879, 195.390
557.362, 167.112
557.844, 138.993
558.326, 137.232
558.808, 158.223
559.290, 175.476
559.772, 188.931
560.254, 197.308
560.736, 197.354
561.218, 192.815
561.701, 192.210
562.183, 198.599
562.665, 200.411
563.147, 188.089
563.629, 173.455
564.111, 170.433
564.593, 177.479
565.075, 182.507
565.557, 177.541
566.040, 166.082
566.522, 158.192
567.004, 153.246
567.486, 153.469
567.968, 166.899
568.450, 178.865
568.932, 179.559
569.414, 171.509
569.896, 164.309
570.379, 159.906
570.861, 160.096
571.343, 171.308
571.825, 189.074
572.307, 197.628
572.789, 192.056
573.271, 182.114
573.753, 178.607
574.236, 182.260
574.718, 183.628
575.200, 178.586
575.682, 176.348
576.164, 182.227
576.646, 190.331
577.128, 193.700
577.610, 191.036
578.093, 186.901
578.575, 185.421
579.057, 185.739
579.539, 184.842
580.021, 182.578
580.503, 179.767
580.985, 175.684
581.467, 172.186
581.950, 174.539
582.432, 185.947
582.914, 191.439
583.396, 182.602
583.878, 172.836
584.360, 170.975
584.842, 176.015
585.324, 184.780
585.806, 196.028
586.289, 206.268
586.771, 208.195
587.253, 200.713
587.735, 196.770
588.217, 200.715
588.699, 203.210
589.181, 197.493
589.663, 185.957
590.145, 172.512
590.628, 153.034
591.110, 139.956
591.592, 145.166
592.074, 157.400
592.556, 160.670
593.038, 153.567
593.520, 145.522
594.002, 144.012
594.484, 147.257
594.967, 146.001
595.449, 135.585
595.931, 130.976
596.413, 142.607
596.895, 154.424
597.377, 154.719
597.859, 145.329
598.341, 137.614
598.823, 138.113
599.306, 140.545
599.788, 137.165
600.270, 130.758
600.752, 130.818
601.234, 140.217
601.716, 150.284
602.198, 150.784
602.680, 141.092
603.162, 135.327
603.645, 136.760
604.127, 138.185
604.609, 137.560
605.091, 136.764
605.573, 139.084
606.055, 144.385
606.537, 146.570
607.019, 138.069
607.502, 125.214
607.984, 118.663
608.466, 118.345
608.948, 122.238
609.430, 130.295
609.912, 139.975
610.394, 147.210
610.876, 151.287
611.359, 155.445
611.841, 161.804
612.323, 165.925
612.805, 166.779
613.287, 164.096
613.769, 155.324
614.251, 139.920
614.733, 127.584
615.216, 129.817
615.698, 142.732
616.180, 154.969
616.662, 166.100
617.144, 173.426
617.626, 174.706
618.108, 172.065
618.590, 169.863
619.072, 166.867
619.555, 167.360
620.037, 178.005
620.519, 185.962
621.001, 183.284
621.483, 172.514
621.965, 157.168
622.447, 138.291
622.929, 123.514
623.411, 125.937
623.894, 142.705
624.376, 153.733
624.858, 156.717
625.340, 156.527
625.822, 154.845
626.304, 152.643
626.786, 153.483
627.268, 161.773
627.750, 164.007
628.233, 150.387
628.715, 136.923
629.197, 136.109
629.679, 145.334
630.161, 156.494
630.643, 166.054
631.125, 171.565
631.607, 167.516
632.089, 154.479
632.572, 142.375
633.054, 131.675
633.536, 124.410
634.018, 123.997
634.500, 127.971
634.982, 126.521
635.464, 113.345
635.946, 105.468
636.429, 111.798
636.911, 120.237
637.393, 118.837
637.875, 110.187
638.357, 105.735
638.839, 112.595
639.321, 124.240
639.803, 128.920
640.286, 126.761
640.768, 126.254
641.250, 129.789
641.732, 131.675
642.214, 125.983
642.696, 115.079
643.178, 109.959
643.660, 113.224
644.143, 118.118
644.625, 127.388
645.107, 134.686
645.589, 133.062
646.071, 124.126
646.553, 114.733
647.035, 108.693
647.517, 104.739
647.999, 100.775
648.482, 96.814
648.964, 92.263
649.446, 85.034
649.928, 83.544
650.410, 98.537
650.892, 124.988
651.374, 137.261
651.856, 123.357
652.338, 113.765
652.821, 115.642
653.303, 122.164
653.785, 131.393
654.267, 140.310
654.749, 141.627
655.231, 129.489
655.713, 114.454
656.195, 115.862
656.677, 131.723
657.160, 140.962
657.642, 139.564
658.124, 135.030
658.606, 131.243
659.088, 128.921
659.570, 131.710
660.052, 147.702
660.534, 156.484
661.016, 151.488
661.499, 142.680
661.981, 134.760
662.463, 129.231
662.945, 127.966
663.427, 132.288
663.909, 139.356
664.391, 147.019
664.873, 154.500
665.356, 158.485
665.838, 158.482
666.320, 154.867
666.802, 146.979
667.284, 136.324
667.766, 127.935
668.248, 120.806
668.730, 117.846
669.213, 123.949
669.695, 129.430
670.177, 127.131
670.659, 120.371
671.141, 116.783
671.623, 119.629
672.105, 124.316
672.587, 126.291
673.070, 126.848
673.552, 129.935
674.034, 135.723
674.516, 139.725
674.998, 139.438
675.480, 135.477
675.962, 128.609
676.444, 114.663
676.926, 107.881
677.409, 118.065
677.891, 124.993
678.373, 117.155
678.855, 102.386
679.337, 93.901
679.819, 95.676
680.301, 97.262
680.783, 89.906
681.265, 79.666
681.748, 73.437
682.230, 71.967
682.712, 76.767
683.194, 88.982
683.676, 102.987
684.158, 109.321
684.640, 106.862
685.122, 104.165
685.604, 99.979
686.087, 97.551
686.569, 100.641
687.051, 104.834
687.533, 104.409
688.015, 98.443
688.497, 94.047
688.979, 94.089
689.461, 96.232
689.943, 98.956
690.426, 102.322
690.908, 107.802
691.390, 115.457
691.872, 120.960
692.354, 117.623
692.836, 107.473
693.318, 107.144
693.800, 119.904
694.283, 126.361
694.765, 115.981
695.247, 101.788
695.729, 101.693
696.211, 115.864
696.693, 123.290
697.175, 117.373
697.657, 110.885
698.140, 106.071
698.622, 104.457
699.104, 109.992
699.586, 121.301
700.068, 129.949
700.550, 128.876
701.032, 122.816
701.514, 120.095
701.997, 120.330
702.479, 120.779
702.961, 120.872
703.443, 121.381
703.925, 124.597
704.407, 128.822
