##NAMES=Jamesonite
##RRUFFID=R050432
##IDEAL CHEMISTRY=Pb^2+^_4_Fe^2+^Sb^3+^_6_S^2-^_14_
##LOCALITY=San Jose mine, Oruro District, Bolivia
##OWNER=RRUFF
##SOURCE=University of Arizona Mineral Museum
##DESCRIPTION=Grayish black coarse acicular crystals
##STATUS=The identification of this mineral has been confirmed by X-ray diffraction and chemical analysis
##URL=rruff.info/R050432
##MEASURED CHEMISTRY=Pb_4.00_Fe_1.00_(Sb_5.95_As_0.05_)_Î£=6_S_14.00_
118.148, 9710.985
118.630, 10106.570
119.112, 10571.770
119.595, 11096.430
120.077, 11650.140
120.559, 12259.870
121.041, 12870.310
121.523, 13440.670
122.005, 13970.570
122.487, 14438.250
122.969, 14835.620
123.451, 15160.330
123.934, 15379.380
124.416, 15440.980
124.898, 15383.300
125.380, 15271.620
125.862, 15098.010
126.344, 14897.450
126.826, 14710.430
127.308, 14537.900
127.790, 14391.480
128.273, 14283.880
128.755, 14213.640
129.237, 14177.800
129.719, 14166.830
130.201, 14188.480
130.683, 14263.950
131.165, 14393.660
131.648, 14581.150
132.130, 14830.700
132.612, 15142.860
133.094, 15515.360
133.576, 15939.640
134.058, 16419.699
134.540, 16977.881
135.022, 17615.150
135.504, 18339.980
135.986, 19196.600
136.469, 20207.199
136.951, 21226.961
137.433, 22186.279
137.915, 23094.949
138.397, 23815.039
138.879, 24333.730
139.361, 24645.051
139.843, 24697.971
140.326, 24437.600
140.808, 24014.330
141.290, 23559.100
141.772, 23055.660
142.254, 22573.400
142.736, 22131.551
143.218, 21726.520
143.700, 21358.279
144.182, 21026.230
144.665, 20729.740
145.147, 20476.490
145.629, 20278.080
146.111, 20100.881
146.593, 19933.000
147.075, 19762.230
147.557, 19622.980
148.039, 19526.980
148.521, 19461.311
149.004, 19393.330
149.486, 19307.100
149.968, 19232.750
150.450, 19181.801
150.932, 19181.619
151.414, 19173.520
151.896, 19144.301
152.378, 19103.311
152.861, 19091.500
153.343, 19131.801
153.825, 19190.740
154.307, 19249.449
154.789, 19322.381
155.271, 19380.850
155.753, 19406.480
156.235, 19402.260
156.717, 19425.490
157.200, 19498.109
157.682, 19597.881
158.164, 19705.910
158.646, 19831.410
159.128, 19950.900
159.610, 20046.439
160.092, 20112.570
160.574, 20198.551
161.057, 20325.980
161.539, 20479.590
162.021, 20640.619
162.503, 20814.840
162.985, 20983.910
163.467, 21133.689
163.949, 21254.730
164.431, 21382.770
164.913, 21529.240
165.396, 21694.490
165.878, 21879.260
166.360, 22069.609
166.842, 22288.650
167.324, 22559.311
167.806, 22899.670
168.288, 23260.350
168.770, 23600.900
169.253, 23937.080
169.735, 24313.961
170.217, 24760.080
170.699, 25255.631
171.181, 25774.320
171.663, 26296.260
172.145, 26862.850
172.627, 27570.311
173.109, 28382.420
173.592, 29149.260
174.074, 29664.090
174.556, 30088.000
175.038, 30662.811
175.520, 31482.699
176.002, 32471.080
176.484, 33545.148
176.966, 34698.949
177.449, 35925.738
177.931, 37224.488
178.413, 38584.121
178.895, 40011.801
179.377, 41550.352
179.859, 43142.809
180.341, 44689.359
180.823, 46200.621
181.305, 47719.480
181.788, 49323.629
182.270, 50984.301
182.752, 52661.141
183.234, 54299.020
183.716, 55936.820
184.198, 57624.250
184.680, 59360.090
185.162, 61143.059
185.645, 63069.031
186.127, 65089.570
186.609, 67002.844
187.091, 68764.961
187.573, 70348.430
188.055, 71573.719
188.537, 72441.773
189.019, 72964.039
189.501, 73129.773
189.984, 72945.680
190.466, 72570.227
190.948, 72089.344
191.430, 71493.062
191.912, 70735.953
192.394, 69816.273
192.876, 68734.594
193.358, 67479.938
193.840, 66057.156
194.323, 64498.000
194.805, 62814.641
195.287, 61010.070
195.769, 59156.430
196.251, 57228.262
196.733, 55255.191
197.215, 53322.371
197.697, 51419.602
198.180, 49560.129
198.662, 47753.398
199.144, 45982.230
199.626, 44281.219
200.108, 42645.180
200.590, 41077.891
201.072, 39631.199
201.554, 38298.859
202.036, 37074.570
202.519, 35965.012
203.001, 34977.102
203.483, 34046.012
203.965, 33161.199
204.447, 32319.100
204.929, 31533.090
205.411, 30804.100
205.893, 30113.920
206.376, 29453.080
206.858, 28827.699
207.340, 28200.160
207.822, 27551.391
208.304, 26887.029
208.786, 26280.779
209.268, 25744.680
209.750, 25259.051
210.232, 24808.939
210.714, 24404.260
211.197, 24019.551
211.679, 23646.830
212.161, 23286.240
212.643, 22966.650
213.125, 22703.850
213.607, 22466.211
214.089, 22211.391
214.572, 21926.891
215.054, 21657.650
215.536, 21424.631
216.018, 21231.660
216.500, 21012.660
216.982, 20758.830
217.464, 20488.980
217.946, 20221.801
218.428, 19953.840
218.911, 19701.400
219.393, 19478.311
219.875, 19298.260
220.357, 19070.721
220.839, 18768.801
221.321, 18441.900
221.803, 18153.650
222.285, 17918.160
222.767, 17699.900
223.250, 17491.551
223.732, 17292.039
224.214, 17100.590
224.696, 16908.289
225.178, 16729.740
225.660, 16585.199
226.142, 16491.381
226.624, 16404.289
227.107, 16309.620
227.589, 16202.890
228.071, 16096.780
228.553, 15975.040
229.035, 15859.740
229.517, 15800.700
229.999, 15827.120
230.481, 15859.710
230.963, 15864.110
231.445, 15817.540
231.928, 15806.750
232.410, 15844.800
232.892, 15914.180
233.374, 15971.240
233.856, 15999.090
234.338, 16041.370
234.820, 16117.270
235.303, 16236.700
235.785, 16365.370
236.267, 16499.699
236.749, 16644.939
237.231, 16812.320
237.713, 17007.820
238.195, 17214.199
238.677, 17421.490
239.159, 17615.740
239.641, 17842.330
240.124, 18110.199
240.606, 18410.381
241.088, 18722.770
241.570, 19042.330
242.052, 19376.570
242.534, 19725.891
243.016, 20079.529
243.498, 20469.971
243.981, 20889.090
244.463, 21345.980
244.945, 21868.400
245.427, 22466.020
245.909, 23115.080
246.391, 23814.070
246.873, 24582.721
247.355, 25360.529
247.837, 26182.740
248.320, 27005.881
248.802, 27726.801
249.284, 28435.020
249.766, 28896.631
250.248, 29006.080
250.730, 28730.779
251.212, 28170.500
251.694, 27241.109
252.176, 26050.730
252.659, 24874.580
253.141, 23659.270
253.623, 22540.830
254.105, 21571.160
254.587, 20771.340
255.069, 20093.551
255.551, 19553.750
256.033, 19132.570
256.516, 18760.330
256.998, 18439.141
257.480, 18160.590
257.962, 17927.520
258.444, 17757.789
258.926, 17575.000
259.408, 17367.699
259.890, 17145.830
260.372, 16945.381
260.855, 16774.080
261.337, 16604.551
261.819, 16426.289
262.301, 16241.490
262.783, 16031.430
263.265, 15779.130
263.747, 15507.480
264.229, 15274.690
264.711, 15100.530
265.194, 14926.810
265.676, 14722.070
266.158, 14479.070
266.640, 14243.850
267.122, 14016.130
267.604, 13799.850
268.086, 13614.610
268.569, 13468.210
269.051, 13328.860
269.533, 13177.230
270.015, 13007.040
270.497, 12859.370
270.979, 12741.590
271.461, 12641.750
271.943, 12536.670
272.425, 12425.850
272.908, 12313.250
273.390, 12196.670
273.872, 12073.880
274.354, 11975.480
274.836, 11908.060
275.318, 11857.060
275.800, 11790.790
276.282, 11704.870
276.764, 11623.290
277.247, 11559.410
277.729, 11515.000
278.211, 11463.530
278.693, 11402.320
279.175, 11336.320
279.657, 11271.770
280.139, 11207.580
280.621, 11151.890
281.103, 11112.290
281.586, 11088.440
282.068, 11058.240
282.550, 11020.730
283.032, 10978.260
283.514, 10932.350
283.996, 10882.690
284.478, 10836.820
284.960, 10801.180
285.443, 10774.380
285.925, 10738.410
286.407, 10690.390
286.889, 10643.450
287.371, 10620.780
287.853, 10621.310
288.335, 10616.910
288.817, 10592.400
289.299, 10552.050
289.782, 10515.070
290.264, 10481.440
290.746, 10453.950
291.228, 10444.370
291.710, 10448.880
292.192, 10439.630
292.674, 10396.370
293.156, 10331.860
293.638, 10281.990
294.121, 10247.570
294.603, 10223.960
295.085, 10214.000
295.567, 10213.150
296.049, 10202.240
296.531, 10162.250
297.013, 10112.700
297.496, 10097.200
297.978, 10116.830
298.460, 10143.270
298.942, 10146.260
299.424, 10135.620
299.906, 10136.470
300.388, 10164.600
300.870, 10203.620
301.352, 10229.170
301.835, 10241.530
302.317, 10250.470
302.799, 10263.550
303.281, 10278.100
303.763, 10289.280
304.245, 10290.460
304.727, 10291.940
305.209, 10309.840
305.691, 10341.360
306.174, 10365.840
306.656, 10370.960
307.138, 10360.740
307.620, 10341.310
308.102, 10317.350
308.584, 10280.540
309.066, 10211.890
309.548, 10119.890
310.030, 10041.990
310.513, 9995.008
310.995, 9973.505
311.477, 9977.610
311.959, 10022.820
312.441, 10063.670
312.923, 10077.470
313.405, 10065.620
313.887, 10032.140
314.370, 9963.563
314.852, 9883.352
315.334, 9808.868
315.816, 9747.282
316.298, 9680.939
316.780, 9580.022
317.262, 9469.521
317.744, 9397.431
318.226, 9417.313
318.709, 9453.381
319.191, 9467.434
319.673, 9449.367
320.155, 9429.106
320.637, 9409.876
321.119, 9394.726
321.601, 9387.922
322.083, 9401.990
322.565, 9414.049
323.048, 9415.472
323.530, 9403.729
324.012, 9390.549
324.494, 9372.138
324.976, 9355.009
325.458, 9346.139
325.940, 9356.396
326.422, 9364.582
326.905, 9364.264
327.387, 9353.778
327.869, 9348.953
328.351, 9356.990
328.833, 9366.870
329.315, 9370.145
329.797, 9365.809
330.279, 9355.938
330.762, 9335.005
331.244, 9304.483
331.726, 9291.512
332.208, 9302.414
332.690, 9324.432
333.172, 9351.938
333.654, 9397.325
334.136, 9422.117
334.618, 9415.477
335.100, 9385.938
335.583, 9369.052
336.065, 9367.956
336.547, 9374.074
337.029, 9382.646
337.511, 9392.865
337.993, 9409.773
338.475, 9438.406
338.957, 9469.672
339.440, 9479.214
339.922, 9460.237
340.404, 9443.728
340.886, 9445.808
341.368, 9467.545
341.850, 9490.088
342.332, 9513.880
342.814, 9536.425
343.297, 9553.150
343.779, 9564.284
344.261, 9572.278
344.743, 9575.314
345.225, 9575.533
345.707, 9585.104
346.189, 9605.007
346.671, 9631.363
347.153, 9666.546
347.635, 9707.554
348.118, 9736.326
348.600, 9739.154
349.082, 9729.013
349.564, 9735.930
350.046, 9759.774
350.528, 9786.167
351.010, 9803.892
351.492, 9814.662
351.975, 9822.798
352.457, 9828.828
352.939, 9832.986
353.421, 9834.307
353.903, 9833.462
354.385, 9834.038
354.867, 9842.725
355.349, 9852.993
355.832, 9854.957
356.314, 9842.255
356.796, 9832.108
357.278, 9838.843
357.760, 9859.125
358.242, 9883.666
358.724, 9903.961
359.206, 9929.562
359.688, 9970.058
360.171, 10030.390
360.653, 10089.640
361.135, 10135.240
361.617, 10174.080
362.099, 10215.770
362.581, 10257.920
363.063, 10308.490
363.545, 10375.110
364.027, 10460.020
364.510, 10538.160
364.992, 10582.090
365.474, 10626.000
365.956, 10701.750
366.438, 10857.270
366.920, 10998.950
367.402, 11103.410
367.884, 11172.830
368.366, 11251.350
368.849, 11362.900
369.331, 11469.320
369.813, 11547.470
370.295, 11563.260
370.777, 11601.940
371.259, 11674.710
371.741, 11772.120
372.224, 11867.490
372.706, 11964.950
373.188, 12054.180
373.670, 12125.720
374.152, 12167.440
374.634, 12230.830
375.116, 12317.550
375.598, 12422.920
376.080, 12540.560
376.562, 12670.450
377.045, 12808.420
377.527, 12951.160
378.009, 13100.050
378.491, 13256.020
378.973, 13416.060
379.455, 13591.690
379.937, 13803.840
380.419, 14053.480
380.902, 14284.310
381.384, 14475.200
381.866, 14643.790
382.348, 14841.080
382.830, 15066.550
383.312, 15304.320
383.794, 15542.530
384.276, 15780.100
384.759, 16018.370
385.241, 16254.490
385.723, 16493.039
386.205, 16747.740
386.687, 17008.391
387.169, 17237.471
387.651, 17388.340
388.133, 17500.650
388.615, 17624.551
389.098, 17766.020
389.580, 17909.971
390.062, 18057.420
390.544, 18197.180
391.026, 18306.881
391.508, 18372.990
391.990, 18410.119
392.472, 18425.580
392.954, 18420.051
393.437, 18397.971
393.919, 18359.811
394.401, 18307.990
394.883, 18243.650
395.365, 18174.369
395.847, 18086.100
396.329, 17958.770
396.811, 17803.340
397.293, 17672.000
397.776, 17609.900
398.258, 17545.910
398.740, 17443.180
399.222, 17262.561
399.704, 17103.400
400.186, 16973.650
400.668, 16863.760
401.151, 16756.840
401.633, 16656.920
402.115, 16554.631
402.597, 16450.770
403.079, 16348.760
403.561, 16213.770
404.043, 16023.140
404.525, 15829.260
405.007, 15696.190
405.490, 15642.490
405.972, 15574.580
406.454, 15471.880
406.936, 15340.610
407.418, 15204.480
407.900, 15059.940
408.382, 14926.460
408.864, 14825.180
409.346, 14752.130
409.828, 14662.480
410.311, 14546.560
410.793, 14422.620
411.275, 14317.160
411.757, 14228.540
412.239, 14148.080
412.721, 14077.530
413.203, 14009.390
413.685, 13922.430
414.168, 13813.610
414.650, 13716.610
415.132, 13673.380
415.614, 13662.790
416.096, 13648.330
416.578, 13623.810
417.060, 13583.250
417.542, 13510.230
418.025, 13410.530
418.507, 13322.900
418.989, 13262.210
419.471, 13224.290
419.953, 13208.360
420.435, 13233.760
420.917, 13247.980
421.399, 13220.080
421.881, 13169.080
422.364, 13135.260
422.846, 13143.770
423.328, 13157.190
423.810, 13159.900
424.292, 13145.100
424.774, 13144.100
425.256, 13155.300
425.738, 13182.740
426.220, 13231.610
426.703, 13321.040
427.185, 13401.510
427.667, 13462.760
428.149, 13506.900
428.631, 13548.180
429.113, 13575.530
429.595, 13620.910
430.077, 13713.970
430.560, 13866.010
431.042, 13987.000
431.524, 14059.580
432.006, 14112.920
432.488, 14202.580
432.970, 14329.720
433.452, 14467.060
433.934, 14612.430
434.417, 14759.580
434.899, 14886.450
435.381, 14991.700
435.863, 15091.770
436.345, 15200.390
436.827, 15316.850
437.309, 15439.710
437.791, 15568.870
438.273, 15702.000
438.755, 15834.020
439.238, 15966.310
439.720, 16105.250
440.202, 16260.700
440.684, 16421.150
441.166, 16574.301
441.648, 16713.000
442.130, 16856.619
442.612, 17028.920
443.095, 17209.900
443.577, 17366.859
444.059, 17482.490
444.541, 17580.811
445.023, 17669.660
445.505, 17749.910
445.987, 17818.430
446.469, 17889.650
446.952, 17939.949
447.434, 17953.270
447.916, 17925.740
448.398, 17867.539
448.880, 17778.029
449.362, 17658.240
449.844, 17511.320
450.326, 17328.910
450.808, 17136.561
451.290, 16946.340
451.773, 16762.539
452.255, 16549.939
452.737, 16297.660
453.219, 16037.190
453.701, 15804.000
454.183, 15600.010
454.665, 15393.080
455.147, 15170.970
455.630, 14942.220
456.112, 14720.250
456.594, 14507.000
457.076, 14301.580
457.558, 14108.550
458.040, 13924.550
458.522, 13742.640
459.004, 13559.820
459.487, 13381.610
459.969, 13209.970
460.451, 13045.870
460.933, 12886.240
461.415, 12731.590
461.897, 12584.010
462.379, 12441.040
462.861, 12304.420
463.343, 12181.940
463.826, 12091.650
464.308, 12010.490
464.790, 11919.340
465.272, 11806.650
465.754, 11695.110
466.236, 11587.450
466.718, 11482.880
467.200, 11382.200
467.682, 11284.020
468.165, 11191.310
468.647, 11104.760
469.129, 11025.370
469.611, 10946.650
470.093, 10868.500
470.575, 10790.290
471.057, 10705.470
471.539, 10605.370
472.022, 10536.770
472.504, 10519.960
472.986, 10531.160
473.468, 10493.230
473.950, 10402.270
474.432, 10310.170
474.914, 10250.870
475.396, 10217.050
475.878, 10174.790
476.361, 10121.540
476.843, 10068.540
477.325, 10034.330
477.807, 10011.020
478.289, 9979.016
478.771, 9927.155
479.253, 9867.786
479.735, 9808.831
480.217, 9751.609
480.700, 9702.232
481.182, 9666.458
481.664, 9638.795
482.146, 9614.096
482.628, 9589.247
483.110, 9573.838
483.592, 9581.585
484.074, 9597.271
484.556, 9599.926
485.039, 9580.360
485.521, 9551.901
486.003, 9510.634
486.485, 9457.578
486.967, 9419.773
487.449, 9408.919
487.931, 9400.844
488.414, 9380.745
488.896, 9343.120
489.378, 9313.314
489.860, 9297.675
490.342, 9284.341
490.824, 9246.400
491.306, 9179.745
491.788, 9125.456
492.270, 9101.971
492.753, 9101.807
493.235, 9097.073
493.717, 9087.845
494.199, 9073.366
494.681, 9050.658
495.163, 9022.270
495.645, 8992.454
496.127, 8960.519
496.609, 8931.494
497.092, 8913.128
497.574, 8901.966
498.056, 8890.684
498.538, 8872.430
499.020, 8855.988
499.502, 8851.968
499.984, 8860.295
500.466, 8857.974
500.948, 8827.624
501.431, 8789.270
501.913, 8757.283
502.395, 8734.367
502.877, 8717.284
503.359, 8708.651
503.841, 8705.319
504.323, 8700.662
504.805, 8689.896
505.288, 8685.311
505.770, 8694.122
506.252, 8716.597
506.734, 8720.655
507.216, 8700.908
507.698, 8675.878
508.180, 8662.391
508.662, 8660.327
509.145, 8654.479
509.627, 8641.522
510.109, 8626.991
510.591, 8624.640
511.073, 8631.253
511.555, 8628.779
512.037, 8596.949
512.519, 8555.920
513.001, 8536.719
513.484, 8538.794
513.966, 8543.804
514.448, 8539.761
514.930, 8531.975
515.412, 8525.733
515.894, 8522.273
516.376, 8520.075
516.858, 8521.175
517.341, 8522.619
517.823, 8519.057
518.305, 8497.923
518.787, 8482.680
519.269, 8485.431
519.751, 8507.606
520.233, 8515.266
520.715, 8503.390
521.197, 8482.698
521.680, 8457.742
522.162, 8424.002
522.644, 8403.175
523.126, 8400.106
523.608, 8406.391
524.090, 8408.278
524.572, 8405.756
525.054, 8398.920
525.536, 8385.004
526.019, 8367.650
526.501, 8358.669
526.983, 8357.752
527.465, 8355.406
527.947, 8330.046
528.429, 8302.814
528.911, 8259.650
529.393, 8287.323
529.875, 8297.801
530.358, 8292.009
530.840, 8221.217
531.322, 8234.360
531.804, 8213.862
532.286, 8191.989
532.768, 8198.424
533.250, 8215.234
533.732, 8212.529
534.214, 8153.478
534.697, 8098.336
535.179, 8076.506
535.661, 8104.979
536.143, 8124.210
536.625, 8129.109
537.107, 8129.677
537.589, 8143.729
538.071, 8178.026
538.554, 8189.718
539.036, 8161.914
539.518, 8108.885
540.000, 8068.917
540.482, 8042.490
540.964, 8030.468
541.446, 8042.072
541.928, 8066.953
542.411, 8082.158
542.893, 8085.661
543.375, 8084.315
543.857, 8085.431
544.339, 8084.832
544.821, 8075.662
545.303, 8041.182
545.785, 8016.037
546.268, 8030.671
546.750, 8069.081
547.232, 8088.345
547.714, 8060.539
548.196, 8026.702
548.678, 8000.996
549.160, 7985.242
549.642, 7971.560
550.124, 7962.892
550.606, 7953.441
551.089, 7937.085
551.571, 7909.052
552.053, 7891.863
552.535, 7890.995
553.017, 7897.395
553.499, 7893.454
553.981, 7879.089
554.463, 7863.722
554.945, 7849.490
555.428, 7837.417
555.910, 7828.283
556.392, 7822.535
556.874, 7825.543
557.356, 7853.467
557.838, 7887.407
558.320, 7903.101
558.802, 7894.419
559.284, 7876.936
559.767, 7849.740
560.249, 7822.270
560.731, 7806.207
561.213, 7814.461
561.695, 7823.958
562.177, 7830.431
562.659, 7833.625
563.141, 7833.127
563.624, 7824.991
564.106, 7817.703
564.588, 7812.460
565.070, 7807.814
565.552, 7820.015
566.034, 7856.769
566.516, 7893.031
566.998, 7899.142
567.481, 7876.522
567.963, 7864.462
568.445, 7872.923
568.927, 7887.669
569.409, 7885.707
569.891, 7870.697
570.373, 7856.134
570.855, 7846.292
571.338, 7841.804
571.820, 7845.971
572.302, 7857.829
572.784, 7868.554
573.266, 7873.555
573.748, 7875.912
574.230, 7878.245
574.712, 7882.697
575.194, 7882.720
575.677, 7874.307
576.159, 7862.325
576.641, 7851.924
577.123, 7840.260
577.605, 7836.208
578.087, 7845.049
578.569, 7861.655
579.051, 7865.822
579.533, 7855.403
580.016, 7844.059
580.498, 7832.813
580.980, 7824.945
581.462, 7848.593
581.944, 7905.833
582.426, 7952.261
582.908, 7928.798
583.390, 7869.769
583.872, 7836.139
584.355, 7844.841
584.837, 7869.295
585.319, 7901.436
585.801, 7934.724
586.283, 7958.342
586.765, 7963.067
587.247, 7962.921
587.729, 7956.726
588.211, 7946.578
588.694, 7952.393
589.176, 7991.635
589.658, 8027.704
590.140, 8043.944
590.622, 8035.901
591.104, 8031.656
591.586, 8029.752
592.068, 8034.922
592.551, 8056.891
593.033, 8094.698
593.515, 8123.413
593.997, 8136.771
594.479, 8143.442
594.961, 8154.555
595.443, 8169.849
595.925, 8188.360
596.407, 8219.867
596.890, 8247.195
597.372, 8249.280
597.854, 8229.821
598.336, 8214.967
598.818, 8206.244
599.300, 8213.542
599.782, 8249.838
600.265, 8336.664
600.747, 8390.798
601.229, 8379.526
601.711, 8351.536
602.193, 8353.786
602.675, 8403.384
603.157, 8433.063
603.639, 8418.270
604.121, 8395.926
604.604, 8471.500
605.086, 8467.188
605.568, 8491.925
606.050, 8509.612
606.532, 8520.625
607.014, 8504.981
607.496, 8523.760
607.978, 8531.924
608.460, 8554.239
608.943, 8605.149
609.425, 8621.930
609.907, 8589.541
610.389, 8563.368
610.871, 8575.191
611.353, 8602.509
611.835, 8623.012
612.317, 8626.154
612.799, 8630.223
613.282, 8615.688
613.764, 8608.878
614.246, 8596.118
614.728, 8618.586
615.210, 8632.503
615.692, 8638.327
616.174, 8611.826
616.656, 8626.501
617.138, 8565.205
617.621, 8549.388
618.103, 8579.816
618.585, 8634.587
619.067, 8662.210
619.549, 8657.188
620.031, 8646.249
620.513, 8647.849
620.995, 8656.490
621.477, 8665.170
621.960, 8668.196
622.442, 8676.831
622.924, 8697.034
623.406, 8724.797
