##NAMES=Jamesonite
##RRUFFID=R050481
##IDEAL CHEMISTRY=Pb^2+^_4_Fe^2+^Sb^3+^_6_S^2-^_14_
##LOCALITY=Itos mine, Oruro City, Bolivia
##OWNER=RRUFF
##SOURCE=California Institute of Technology
##DESCRIPTION=A group of gray-black thickly acicular crystals
##STATUS=The identification of this mineral has been confirmed by X-ray diffraction and chemical analysis
##URL=rruff.info/R050481
##MEASURED CHEMISTRY=Pb_4.00_Fe_1.00_(Sb_5.97_As_0.03_)_Î£=6_S_14.00_
116.706, 666.515
117.189, 679.615
117.671, 692.186
118.153, 717.730
118.635, 753.959
119.117, 816.679
119.599, 927.478
120.081, 1071.895
120.563, 1232.958
121.046, 1404.909
121.528, 1589.920
122.010, 1795.170
122.492, 2024.335
122.974, 2264.995
123.456, 2517.952
123.938, 2775.114
124.420, 3025.293
124.902, 3261.642
125.385, 3485.864
125.867, 3704.958
126.349, 3934.771
126.831, 4134.008
127.313, 4306.128
127.795, 4440.660
128.277, 4515.910
128.760, 4495.096
129.242, 4383.492
129.724, 4294.893
130.206, 4253.410
130.688, 4211.812
131.170, 4144.039
131.652, 4057.494
132.134, 3976.847
132.616, 3921.981
133.098, 3893.587
133.581, 3883.344
134.063, 3905.897
134.545, 3935.509
135.027, 3959.241
135.509, 3979.338
135.991, 4008.414
136.473, 4060.178
136.955, 4138.330
137.438, 4226.878
137.920, 4312.009
138.402, 4416.485
138.884, 4558.403
139.366, 4735.534
139.848, 4929.757
140.330, 5119.797
140.812, 5312.065
141.294, 5482.383
141.777, 5623.668
142.259, 5752.317
142.741, 5877.489
143.223, 6001.064
143.705, 6118.737
144.187, 6223.038
144.669, 6295.729
145.151, 6393.642
145.633, 6562.746
146.116, 6726.444
146.598, 6822.366
147.080, 6835.606
147.562, 6800.793
148.044, 6772.154
148.526, 6763.734
149.008, 6736.186
149.490, 6671.831
149.973, 6597.763
150.455, 6541.813
150.937, 6512.164
151.419, 6493.011
151.901, 6455.921
152.383, 6389.331
152.865, 6324.343
153.347, 6253.479
153.829, 6188.834
154.312, 6145.524
154.794, 6129.189
155.276, 6130.979
155.758, 6135.052
156.240, 6139.372
156.722, 6149.769
157.204, 6163.062
157.686, 6183.937
158.169, 6221.822
158.651, 6281.670
159.133, 6352.854
159.615, 6411.810
160.097, 6448.697
160.579, 6499.396
161.061, 6581.838
161.543, 6682.826
162.025, 6777.608
162.508, 6854.803
162.990, 6926.981
163.472, 7023.797
163.954, 7157.701
164.436, 7274.615
164.918, 7335.334
165.400, 7365.631
165.882, 7427.625
166.365, 7552.474
166.847, 7701.351
167.329, 7798.572
167.811, 7830.821
168.293, 7866.719
168.775, 7940.784
169.257, 8041.330
169.739, 8136.148
170.221, 8216.801
170.704, 8283.350
171.186, 8338.179
171.668, 8381.962
172.150, 8415.590
172.632, 8431.994
173.114, 8437.160
173.596, 8455.390
174.078, 8506.552
174.561, 8558.878
175.043, 8562.099
175.525, 8505.155
176.007, 8455.009
176.489, 8465.547
176.971, 8520.030
177.453, 8541.548
177.935, 8496.186
178.417, 8418.730
178.900, 8354.390
179.382, 8303.210
179.864, 8262.160
180.346, 8239.333
180.828, 8229.058
181.310, 8198.204
181.792, 8122.145
182.274, 8038.556
182.757, 7991.834
183.239, 7985.114
183.721, 7988.560
184.203, 7979.904
184.685, 7962.730
185.167, 7961.890
185.649, 7994.134
186.131, 8033.893
186.613, 8052.182
187.096, 8047.419
187.578, 8042.671
188.060, 8055.725
188.542, 8083.839
189.024, 8107.795
189.506, 8120.540
189.988, 8130.932
190.470, 8150.967
190.952, 8180.716
191.435, 8203.164
191.917, 8189.339
192.399, 8149.005
192.881, 8156.601
193.363, 8265.224
193.845, 8380.499
194.327, 8412.198
194.809, 8364.452
195.292, 8324.124
195.774, 8363.426
196.256, 8468.325
196.738, 8546.646
197.220, 8578.893
197.702, 8586.682
198.184, 8589.044
198.666, 8585.829
199.148, 8574.626
199.631, 8539.997
200.113, 8490.476
200.595, 8478.998
201.077, 8539.516
201.559, 8602.046
202.041, 8608.371
202.523, 8568.754
203.005, 8533.754
203.488, 8542.376
203.970, 8583.852
204.452, 8607.226
204.934, 8600.409
205.416, 8586.091
205.898, 8576.613
206.380, 8572.104
206.862, 8573.576
207.344, 8586.605
207.827, 8606.899
208.309, 8617.186
208.791, 8610.395
209.273, 8604.372
209.755, 8607.851
210.237, 8620.071
210.719, 8639.850
211.201, 8672.771
211.684, 8712.956
212.166, 8740.785
212.648, 8748.207
213.130, 8759.453
213.612, 8786.701
214.094, 8827.070
214.576, 8877.534
215.058, 8942.192
215.540, 9014.231
216.023, 9079.980
216.505, 9142.600
216.987, 9190.371
217.469, 9208.920
217.951, 9211.221
218.433, 9214.728
218.915, 9222.129
219.397, 9237.291
219.880, 9269.163
220.362, 9321.938
220.844, 9377.944
221.326, 9432.037
221.808, 9483.043
222.290, 9528.098
222.772, 9564.563
223.254, 9597.520
223.736, 9635.809
224.219, 9681.247
224.701, 9721.650
225.183, 9752.076
225.665, 9773.924
226.147, 9785.007
226.629, 9778.776
227.111, 9774.450
227.593, 9796.527
228.076, 9846.428
228.558, 9894.368
229.040, 9931.084
229.522, 9958.788
230.004, 9978.847
230.486, 9989.607
230.968, 9998.946
231.450, 10022.090
231.932, 10056.920
232.415, 10064.110
232.897, 10013.830
233.379, 9945.652
233.861, 9903.849
234.343, 9892.333
234.825, 9890.449
235.307, 9890.916
235.789, 9891.603
236.271, 9882.245
236.754, 9861.956
237.236, 9827.436
237.718, 9773.056
238.200, 9699.199
238.682, 9625.142
239.164, 9562.988
239.646, 9508.267
240.128, 9446.309
240.611, 9371.385
241.093, 9296.317
241.575, 9240.991
242.057, 9201.381
242.539, 9146.976
243.021, 9061.149
243.503, 8955.314
243.985, 8842.395
244.467, 8719.539
244.950, 8608.991
245.432, 8544.867
245.914, 8514.854
246.396, 8469.922
246.878, 8391.389
247.360, 8297.201
247.842, 8203.264
248.324, 8110.497
248.807, 8026.062
249.289, 7959.384
249.771, 7906.631
250.253, 7847.481
250.735, 7774.913
251.217, 7700.059
251.699, 7630.159
252.181, 7565.276
252.663, 7502.759
253.146, 7440.565
253.628, 7380.304
254.110, 7327.250
254.592, 7286.246
255.074, 7246.455
255.556, 7201.526
256.038, 7153.405
256.520, 7107.536
257.003, 7065.765
257.485, 7028.622
257.967, 6998.626
258.449, 6980.875
258.931, 6959.641
259.413, 6927.834
259.895, 6890.215
260.377, 6850.868
260.859, 6809.678
261.341, 6775.964
261.824, 6768.748
262.306, 6799.164
262.788, 6826.936
263.270, 6851.906
263.752, 6870.509
264.234, 6873.578
264.716, 6860.202
265.198, 6847.585
265.681, 6855.763
266.163, 6889.093
266.645, 6935.056
267.127, 7007.227
267.609, 7081.165
268.091, 7138.479
268.573, 7179.548
269.055, 7217.162
269.538, 7261.151
270.020, 7310.973
270.502, 7375.496
270.984, 7470.053
271.466, 7560.599
271.948, 7632.066
272.430, 7687.682
272.912, 7738.071
273.394, 7789.577
273.877, 7841.958
274.359, 7892.551
274.841, 7952.690
275.323, 7997.896
275.805, 8031.498
276.287, 8045.546
276.769, 8025.304
277.251, 7963.251
277.733, 7873.831
278.216, 7796.574
278.698, 7758.684
279.180, 7687.779
279.662, 7571.087
280.144, 7427.165
280.626, 7270.412
281.108, 7105.711
281.590, 6928.869
282.073, 6730.218
282.555, 6495.694
283.037, 6277.452
283.519, 6091.075
284.001, 5909.753
284.483, 5716.416
284.965, 5512.292
285.447, 5316.140
285.930, 5149.499
286.412, 5013.841
286.894, 4872.472
287.376, 4715.317
287.858, 4564.611
288.340, 4428.309
288.822, 4306.057
289.304, 4196.421
289.786, 4101.300
290.268, 4017.254
290.751, 3931.168
291.233, 3835.692
291.715, 3754.913
292.197, 3701.357
292.679, 3665.839
293.161, 3641.170
293.643, 3630.735
294.125, 3618.269
294.608, 3573.970
295.090, 3492.390
295.572, 3425.354
296.054, 3398.552
296.536, 3390.540
297.018, 3377.864
297.500, 3356.921
297.982, 3339.167
298.465, 3337.840
298.947, 3348.685
299.429, 3349.144
299.911, 3328.464
300.393, 3304.818
300.875, 3295.941
301.357, 3300.833
301.839, 3319.349
302.321, 3367.823
302.804, 3424.197
303.286, 3451.890
303.768, 3444.201
304.250, 3426.712
304.732, 3413.865
305.214, 3408.285
305.696, 3428.407
306.178, 3501.656
306.660, 3580.536
307.143, 3628.383
307.625, 3648.849
308.107, 3665.042
308.589, 3688.390
309.071, 3719.386
309.553, 3759.670
310.035, 3817.338
310.517, 3873.122
311.000, 3917.040
311.482, 3956.885
311.964, 4003.539
312.446, 4061.058
312.928, 4128.093
313.410, 4200.972
313.892, 4270.340
314.374, 4364.160
314.857, 4500.681
315.339, 4648.875
315.821, 4783.511
316.303, 4901.705
316.785, 5016.341
317.267, 5139.968
317.749, 5269.212
318.231, 5424.686
318.713, 5632.926
319.195, 5839.767
319.678, 6023.508
320.160, 6189.979
320.642, 6352.592
321.124, 6519.054
321.606, 6691.306
322.088, 6885.619
322.570, 7129.681
323.052, 7352.979
323.535, 7539.084
324.017, 7698.567
324.499, 7842.251
324.981, 7975.216
325.463, 8092.888
325.945, 8197.850
326.427, 8298.390
326.909, 8341.104
327.392, 8292.162
327.874, 8194.992
328.356, 8077.663
328.838, 7941.369
329.320, 7768.987
329.802, 7538.523
330.284, 7260.218
330.766, 6973.849
331.248, 6682.196
331.731, 6388.542
332.213, 6092.279
332.695, 5796.991
333.177, 5505.677
333.659, 5211.683
334.141, 4928.973
334.623, 4678.135
335.105, 4459.242
335.587, 4253.991
336.070, 4052.937
336.552, 3860.188
337.034, 3682.744
337.516, 3527.050
337.998, 3375.818
338.480, 3212.565
338.962, 3049.620
339.444, 2912.182
339.927, 2808.919
340.409, 2728.551
340.891, 2654.857
341.373, 2588.615
341.855, 2526.818
342.337, 2468.827
342.819, 2415.723
343.301, 2370.313
343.784, 2331.488
344.266, 2292.579
344.748, 2248.430
345.230, 2199.116
345.712, 2142.424
346.194, 2061.420
346.676, 1991.358
347.158, 1940.889
347.640, 1907.491
348.122, 1891.228
348.605, 1893.142
349.087, 1899.808
349.569, 1874.432
350.051, 1788.600
350.533, 1729.833
351.015, 1729.544
351.497, 1740.714
351.979, 1727.778
352.462, 1687.182
352.944, 1643.726
353.426, 1625.009
353.908, 1630.678
354.390, 1626.253
354.872, 1605.258
355.354, 1580.723
355.836, 1555.035
356.319, 1531.581
356.801, 1519.106
357.283, 1530.216
357.765, 1547.857
358.247, 1539.949
358.729, 1503.399
359.211, 1476.832
359.693, 1487.124
360.175, 1512.621
360.658, 1513.484
361.140, 1478.103
361.622, 1445.399
362.104, 1438.928
362.586, 1449.597
363.068, 1459.272
363.550, 1464.333
364.032, 1462.716
364.514, 1450.302
364.997, 1424.832
365.479, 1401.438
365.961, 1379.092
366.443, 1360.367
366.925, 1348.876
367.407, 1343.256
367.889, 1338.258
368.371, 1330.284
368.853, 1319.911
369.336, 1310.883
369.818, 1303.815
370.300, 1297.427
370.782, 1288.793
371.264, 1281.993
371.746, 1285.008
372.228, 1299.287
372.711, 1313.327
373.193, 1304.336
373.675, 1256.277
374.157, 1238.551
374.639, 1296.666
375.121, 1346.619
375.603, 1340.678
376.085, 1291.883
376.567, 1248.734
377.049, 1248.340
377.532, 1275.903
378.014, 1279.739
378.496, 1249.370
378.978, 1223.922
379.460, 1233.307
379.942, 1252.447
380.424, 1251.387
380.906, 1219.042
381.389, 1183.497
381.871, 1164.987
382.353, 1161.950
382.835, 1171.453
383.317, 1198.102
383.799, 1224.987
384.281, 1226.461
384.763, 1203.022
385.246, 1188.003
385.728, 1197.585
386.210, 1210.645
386.692, 1206.767
387.174, 1187.218
387.656, 1167.139
388.138, 1156.062
388.620, 1152.651
389.102, 1149.285
389.585, 1148.878
390.067, 1144.934
390.549, 1131.044
391.031, 1115.550
391.513, 1106.692
391.995, 1107.163
392.477, 1116.278
392.959, 1135.992
393.441, 1172.537
393.924, 1194.253
394.406, 1189.382
394.888, 1180.143
395.370, 1174.784
395.852, 1171.752
396.334, 1165.120
396.816, 1149.142
397.298, 1129.931
397.780, 1124.171
398.263, 1135.570
398.745, 1146.980
399.227, 1156.318
399.709, 1160.425
400.191, 1153.525
400.673, 1133.505
401.155, 1115.240
401.638, 1112.400
402.120, 1118.436
402.602, 1112.983
403.084, 1089.635
403.566, 1071.190
404.048, 1084.538
404.530, 1126.700
405.012, 1147.478
405.494, 1124.904
405.977, 1098.702
406.459, 1094.929
406.941, 1105.619
407.423, 1107.861
407.905, 1090.402
408.387, 1062.960
408.869, 1046.847
409.351, 1042.616
409.833, 1050.652
410.316, 1085.740
410.798, 1121.167
411.280, 1137.566
411.762, 1134.950
412.244, 1125.508
412.726, 1118.768
413.208, 1114.379
413.690, 1108.676
414.172, 1101.544
414.655, 1093.076
415.137, 1082.373
415.619, 1070.880
416.101, 1058.565
416.583, 1044.599
417.065, 1035.856
417.547, 1048.413
418.029, 1078.106
418.512, 1079.999
418.994, 1030.057
419.476, 978.086
419.958, 983.001
420.440, 1033.316
420.922, 1067.923
421.404, 1054.950
421.886, 1033.895
422.368, 1046.406
422.851, 1084.889
423.333, 1107.912
423.815, 1091.232
424.297, 1050.645
424.779, 1029.518
425.261, 1048.382
425.743, 1055.495
426.225, 1035.795
426.708, 1011.344
427.190, 1001.543
427.672, 1007.614
428.154, 1017.780
428.636, 1020.550
429.118, 1016.405
429.600, 1023.382
430.082, 1063.289
430.565, 1083.645
431.047, 1053.265
431.529, 1005.006
432.011, 980.344
432.493, 993.579
432.975, 1018.586
433.457, 1024.409
433.939, 1012.547
434.421, 1006.329
434.904, 1012.726
435.386, 1020.201
435.868, 1009.452
436.350, 987.570
436.832, 989.552
437.314, 1061.230
437.796, 1131.402
438.278, 1126.835
438.760, 1062.093
439.243, 1003.081
439.725, 978.893
440.207, 980.860
440.689, 990.966
441.171, 1017.285
441.653, 1037.448
442.135, 1055.028
442.617, 1063.250
443.099, 1049.353
443.582, 1018.796
444.064, 994.739
444.546, 997.825
445.028, 1022.271
445.510, 1026.784
445.992, 993.207
446.474, 970.872
446.957, 981.751
447.439, 1001.881
447.921, 1004.898
448.403, 985.428
448.885, 969.381
449.367, 986.998
449.849, 1029.142
450.331, 1055.428
450.813, 1060.300
451.296, 1053.634
451.778, 1036.692
452.260, 1013.346
452.742, 996.871
453.224, 991.001
453.706, 989.705
454.188, 993.183
454.670, 998.504
455.152, 999.001
455.635, 992.419
456.117, 982.987
456.599, 976.340
457.081, 972.497
457.563, 971.696
458.045, 977.906
458.527, 982.705
459.009, 980.816
459.491, 974.852
459.974, 970.822
460.456, 972.264
460.938, 975.323
461.420, 970.459
461.902, 954.676
462.384, 944.035
462.866, 940.053
463.348, 944.029
463.831, 963.555
464.313, 994.960
464.795, 1015.248
465.277, 1004.720
465.759, 981.344
466.241, 971.087
466.723, 973.717
467.205, 973.214
467.687, 960.104
468.170, 940.531
468.652, 930.448
469.134, 933.291
469.616, 936.665
470.098, 939.522
470.580, 941.738
471.062, 944.446
471.544, 946.835
472.026, 944.906
472.509, 934.339
472.991, 917.259
473.473, 910.185
473.955, 921.625
474.437, 929.307
474.919, 926.290
475.401, 919.852
475.883, 914.325
476.366, 911.037
476.848, 913.840
477.330, 933.569
477.812, 962.564
478.294, 970.030
478.776, 949.332
479.258, 929.263
479.740, 931.608
480.223, 947.406
480.705, 947.658
481.187, 914.031
481.669, 892.746
482.151, 914.940
482.633, 955.319
483.115, 979.834
483.597, 981.094
484.079, 968.782
484.561, 950.856
485.044, 926.900
485.526, 910.363
486.008, 908.913
486.490, 906.730
486.972, 894.977
487.454, 883.378
487.936, 887.085
488.418, 910.284
488.901, 934.160
489.383, 935.068
489.865, 915.129
490.347, 897.841
490.829, 881.550
491.311, 875.530
491.793, 898.478
492.275, 936.126
492.758, 954.628
493.240, 934.247
493.722, 913.797
494.204, 923.292
494.686, 946.733
495.168, 949.628
495.650, 923.276
496.132, 893.337
496.614, 891.723
497.097, 924.183
497.579, 937.180
498.061, 903.052
498.543, 881.928
499.025, 903.532
499.507, 943.872
499.989, 970.113
500.471, 970.766
500.953, 958.869
501.436, 950.123
501.918, 944.408
502.400, 933.338
502.882, 911.892
503.364, 892.771
503.846, 888.196
504.328, 892.282
504.810, 891.662
505.293, 878.754
505.775, 867.512
506.257, 867.097
506.739, 874.365
507.221, 884.589
507.703, 896.450
508.185, 905.695
508.667, 905.876
509.150, 894.638
509.632, 895.937
510.114, 934.317
510.596, 956.541
511.078, 930.816
511.560, 887.293
512.042, 869.035
512.524, 889.479
513.006, 917.725
513.489, 911.995
513.971, 875.316
514.453, 857.327
514.935, 867.198
515.417, 884.106
515.899, 897.954
516.381, 908.390
516.863, 914.032
517.346, 912.788
517.828, 909.527
518.310, 906.640
518.792, 903.408
519.274, 899.931
519.756, 895.886
520.238, 886.566
520.720, 864.882
521.202, 830.669
521.685, 815.016
522.167, 836.197
522.649, 855.302
523.131, 869.941
523.613, 877.122
524.095, 871.081
524.577, 851.520
525.059, 831.110
525.541, 818.416
526.024, 814.257
526.506, 827.620
526.988, 865.311
527.470, 891.077
527.952, 873.976
528.434, 834.146
528.916, 825.421
529.398, 867.592
529.880, 898.227
530.363, 888.235
530.845, 863.191
531.327, 848.924
531.809, 848.329
532.291, 852.766
532.773, 856.049
533.255, 858.401
533.737, 862.041
534.219, 874.359
534.702, 873.621
535.184, 840.656
535.666, 806.066
536.148, 793.242
536.630, 802.317
537.112, 816.686
537.594, 835.710
538.076, 849.407
538.559, 827.883
539.041, 774.023
539.523, 754.839
540.005, 812.164
540.487, 895.619
540.969, 910.056
541.451, 819.704
541.933, 768.024
542.416, 785.595
542.898, 820.248
543.380, 856.168
543.862, 881.879
544.344, 873.451
544.826, 816.452
545.308, 746.192
545.790, 737.441
546.273, 802.768
546.755, 838.864
547.237, 813.060
547.719, 783.584
548.201, 797.141
548.683, 837.364
549.165, 859.149
549.647, 837.704
550.129, 811.962
550.612, 809.870
551.094, 823.153
551.576, 838.365
552.058, 851.778
552.540, 854.490
553.022, 834.462
553.504, 790.707
553.986, 759.749
554.468, 741.228
554.951, 737.444
555.433, 764.384
555.915, 797.736
556.397, 812.650
556.879, 804.371
557.361, 785.734
557.843, 761.574
558.325, 735.839
558.807, 722.783
559.290, 724.153
559.772, 724.479
560.254, 712.927
560.736, 697.737
561.218, 701.151
561.700, 733.757
562.182, 752.598
562.664, 738.800
563.146, 718.932
563.629, 714.818
564.111, 722.837
564.593, 726.637
565.075, 716.604
565.557, 699.295
566.039, 688.717
566.521, 685.729
567.003, 685.396
567.486, 687.629
567.968, 691.935
568.450, 701.581
568.932, 713.183
569.414, 716.012
569.896, 700.230
570.378, 683.604
570.860, 677.234
571.343, 679.337
571.825, 690.858
572.307, 711.167
572.789, 724.770
573.271, 713.072
573.753, 676.540
574.235, 660.529
574.717, 695.038
575.200, 709.617
575.682, 666.269
576.164, 614.902
576.646, 609.774
577.128, 654.461
577.610, 697.016
578.092, 695.085
578.574, 668.220
579.056, 654.674
579.539, 654.680
580.021, 654.455
580.503, 647.513
580.985, 638.233
581.467, 634.403
581.949, 637.621
582.431, 642.481
582.913, 655.378
583.395, 663.561
583.878, 658.430
584.360, 644.274
584.842, 625.901
585.324, 605.055
585.806, 592.205
586.288, 611.160
586.770, 658.881
587.252, 676.095
587.734, 648.291
588.217, 616.433
588.699, 604.150
589.181, 607.366
589.663, 613.319
590.145, 624.919
590.627, 633.257
591.109, 634.357
591.591, 631.781
592.073, 627.681
592.556, 623.220
593.038, 621.302
593.520, 624.642
594.002, 629.641
594.484, 625.440
594.966, 610.411
595.448, 591.539
595.930, 560.546
596.413, 536.164
596.895, 537.664
597.377, 557.402
597.859, 566.765
598.341, 546.504
598.823, 526.804
599.305, 530.355
599.787, 548.229
600.269, 568.673
600.752, 587.576
601.234, 593.640
601.716, 572.512
602.198, 527.175
602.680, 503.706
603.162, 518.382
603.644, 527.789
604.127, 517.551
604.609, 503.415
605.091, 495.928
605.573, 496.531
606.055, 505.355
606.537, 535.001
607.019, 564.342
607.501, 559.458
607.983, 529.718
608.466, 517.450
608.948, 538.770
609.430, 569.010
609.912, 573.778
610.394, 547.774
610.876, 534.050
611.358, 537.271
611.840, 547.672
612.322, 579.017
612.805, 607.971
613.287, 601.009
613.769, 553.521
614.251, 509.815
614.733, 510.550
615.215, 535.510
615.697, 545.853
616.179, 540.874
616.661, 529.851
617.144, 514.258
617.626, 501.530
618.108, 506.562
618.590, 539.739
619.072, 558.413
619.554, 549.274
620.036, 541.294
620.518, 550.251
621.000, 566.582
621.483, 576.933
621.965, 576.984
622.447, 567.062
622.929, 540.774
623.411, 504.985
623.893, 479.694
624.375, 465.833
624.857, 468.684
625.340, 499.355
625.822, 538.875
626.304, 541.808
626.786, 478.023
627.268, 443.099
627.750, 457.833
628.232, 482.734
628.714, 502.745
629.196, 515.740
629.679, 521.751
630.161, 520.733
630.643, 513.125
631.125, 497.176
631.607, 474.595
632.089, 449.407
632.571, 419.419
633.054, 406.273
633.536, 428.780
634.018, 473.215
634.500, 501.256
634.982, 508.509
635.464, 509.140
635.946, 496.786
636.428, 484.759
636.910, 483.324
637.393, 488.502
637.875, 488.792
638.357, 478.292
638.839, 468.996
639.321, 484.221
639.803, 517.446
640.285, 525.012
640.767, 499.319
641.250, 465.305
641.732, 433.475
642.214, 406.712
642.696, 395.146
643.178, 403.553
643.660, 416.742
644.142, 445.824
644.624, 468.310
645.106, 461.009
645.589, 436.046
646.071, 421.280
646.553, 429.278
647.035, 451.841
647.517, 490.362
647.999, 537.702
648.481, 547.152
648.963, 508.353
649.445, 466.169
649.928, 447.253
650.410, 446.320
650.892, 447.305
