##NAMES=Jamesonite
##RRUFFID=R050481
##IDEAL CHEMISTRY=Pb^2+^_4_Fe^2+^Sb^3+^_6_S^2-^_14_
##LOCALITY=Itos mine, Oruro City, Bolivia
##OWNER=RRUFF
##SOURCE=California Institute of Technology
##DESCRIPTION=A group of gray-black thickly acicular crystals
##STATUS=The identification of this mineral has been confirmed by X-ray diffraction and chemical analysis
##URL=rruff.info/R050481
##MEASURED CHEMISTRY=Pb_4.00_Fe_1.00_(Sb_5.97_As_0.03_)_Î£=6_S_14.00_
102.238, 424.144
102.720, 456.892
103.203, 508.733
103.685, 588.192
104.167, 665.705
104.649, 735.471
105.131, 798.201
105.613, 851.564
106.095, 889.734
106.577, 921.449
107.060, 961.115
107.542, 1012.456
108.024, 1067.429
108.506, 1123.149
108.988, 1165.813
109.470, 1228.722
109.952, 1328.702
110.434, 1453.676
110.916, 1555.899
111.399, 1618.021
111.881, 1665.939
112.363, 1714.593
112.845, 1760.075
113.327, 1811.503
113.809, 1877.923
114.291, 1959.963
114.773, 2028.450
115.256, 2072.352
115.738, 2099.766
116.220, 2118.392
116.702, 2121.195
117.184, 2122.923
117.666, 2130.314
118.148, 2144.574
118.630, 2163.167
119.113, 2190.364
119.595, 2221.297
120.077, 2244.972
120.559, 2246.666
121.041, 2242.706
121.523, 2247.861
122.005, 2267.125
122.487, 2294.433
122.969, 2327.355
123.451, 2365.199
123.934, 2402.387
124.416, 2431.898
124.898, 2458.260
125.380, 2489.388
125.862, 2532.582
126.344, 2580.811
126.826, 2623.453
127.308, 2659.264
127.791, 2694.517
128.273, 2739.217
128.755, 2790.232
129.237, 2834.277
129.719, 2862.857
130.201, 2878.985
130.683, 2891.293
131.165, 2899.818
131.648, 2906.083
132.130, 2910.893
132.612, 2914.140
133.094, 2921.533
133.576, 2940.656
134.058, 2970.339
134.540, 2994.018
135.022, 3007.079
135.504, 3012.508
135.986, 3018.319
136.469, 2985.406
136.951, 3025.602
137.433, 3048.051
137.915, 3053.708
138.397, 2992.274
138.879, 3017.473
139.361, 3007.954
139.844, 2997.011
140.326, 3015.287
140.808, 3061.625
141.290, 3066.953
141.772, 3007.578
142.254, 2960.076
142.736, 2958.749
143.218, 3028.960
143.700, 3078.404
144.182, 3105.525
144.665, 3112.505
145.147, 3104.649
145.629, 3066.945
146.111, 3031.410
146.593, 3017.315
147.075, 3050.160
147.557, 3065.164
148.039, 3049.094
148.522, 3003.610
149.004, 2972.177
149.486, 2956.659
149.968, 2953.834
150.450, 2961.188
150.932, 3000.086
151.414, 3027.535
151.896, 3033.615
152.378, 3013.443
152.861, 2998.308
153.343, 2995.952
153.825, 2997.903
154.307, 2993.514
154.789, 2970.918
155.271, 2951.166
155.753, 2942.056
156.235, 2949.116
156.717, 2956.034
157.200, 2957.752
157.682, 2957.292
158.164, 2961.110
158.646, 2977.231
159.128, 2993.686
159.610, 3002.982
160.092, 2989.849
160.574, 2986.808
161.057, 3014.898
161.539, 3066.228
162.021, 3103.620
162.503, 3099.134
162.985, 3080.078
163.467, 3069.296
163.949, 3077.183
164.431, 3092.261
164.913, 3113.977
165.396, 3141.893
165.878, 3162.435
166.360, 3169.752
166.842, 3165.334
167.324, 3151.089
167.806, 3104.866
168.288, 3064.098
168.770, 3062.326
169.253, 3106.830
169.735, 3154.033
170.217, 3173.333
170.699, 3173.607
171.181, 3172.752
171.663, 3185.459
172.145, 3199.254
172.627, 3198.475
173.109, 3176.409
173.592, 3152.409
174.074, 3145.751
174.556, 3152.861
175.038, 3160.380
175.520, 3157.621
176.002, 3150.289
176.484, 3148.806
176.966, 3159.914
177.449, 3171.346
177.931, 3164.841
178.413, 3142.118
178.895, 3119.044
179.377, 3105.283
179.859, 3100.471
180.341, 3104.035
180.823, 3120.854
181.305, 3142.986
181.788, 3155.958
182.270, 3159.418
182.752, 3160.605
183.234, 3169.489
183.716, 3183.173
184.198, 3189.455
184.680, 3174.985
185.162, 3149.842
185.645, 3144.299
186.127, 3161.265
186.609, 3183.565
187.091, 3183.625
187.573, 3164.540
188.055, 3156.313
188.537, 3189.305
189.019, 3250.280
189.501, 3269.515
189.984, 3233.961
190.466, 3180.288
190.948, 3172.341
191.430, 3210.557
191.912, 3251.694
192.394, 3260.911
192.876, 3243.187
193.358, 3238.681
193.840, 3227.444
194.323, 3247.779
194.805, 3260.450
195.287, 3265.869
195.769, 3242.316
196.251, 3256.175
196.733, 3255.041
197.215, 3253.292
197.697, 3272.416
198.180, 3253.077
198.662, 3271.870
199.144, 3272.654
199.626, 3320.829
200.108, 3346.022
200.590, 3344.214
201.072, 3359.988
201.554, 3413.802
202.036, 3496.396
202.519, 3535.248
203.001, 3520.855
203.483, 3485.062
203.965, 3457.941
204.447, 3438.747
204.929, 3432.013
205.411, 3442.997
205.893, 3471.570
206.376, 3493.534
206.858, 3510.338
207.340, 3518.086
207.822, 3507.120
208.304, 3470.268
208.786, 3439.105
209.268, 3422.576
209.750, 3420.216
210.232, 3440.326
210.715, 3495.215
211.197, 3487.254
211.679, 3501.414
212.161, 3510.204
212.643, 3513.913
213.125, 3497.323
213.607, 3506.945
214.089, 3506.062
214.572, 3504.749
215.054, 3518.060
215.536, 3504.422
216.018, 3517.502
216.500, 3519.917
216.982, 3527.212
217.464, 3523.938
217.946, 3523.928
218.428, 3534.492
218.911, 3527.442
219.393, 3516.125
219.875, 3509.144
220.357, 3506.576
220.839, 3510.423
221.321, 3526.516
221.803, 3532.960
222.285, 3522.125
222.768, 3498.997
223.250, 3494.364
223.732, 3517.575
224.214, 3546.473
224.696, 3566.063
225.178, 3572.741
225.660, 3578.044
226.142, 3583.810
226.624, 3589.779
227.107, 3591.726
227.589, 3588.508
228.071, 3582.464
228.553, 3575.664
229.035, 3568.991
229.517, 3558.831
229.999, 3540.159
230.481, 3512.986
230.964, 3504.486
231.446, 3525.970
231.928, 3554.838
232.410, 3569.327
232.892, 3564.215
233.374, 3554.388
233.856, 3541.804
234.338, 3526.347
234.820, 3510.838
235.303, 3494.227
235.785, 3478.672
236.267, 3466.589
236.749, 3458.562
237.231, 3453.230
237.713, 3451.882
238.195, 3455.952
238.677, 3454.373
239.159, 3447.521
239.642, 3434.810
240.124, 3413.453
240.606, 3371.448
241.088, 3340.361
241.570, 3332.629
242.052, 3355.667
242.534, 3367.486
243.016, 3365.383
243.499, 3353.651
243.981, 3337.453
244.463, 3310.296
244.945, 3289.115
245.427, 3281.513
245.909, 3293.624
246.391, 3295.991
246.873, 3286.291
247.355, 3267.859
247.837, 3245.815
248.320, 3217.348
248.802, 3190.195
249.284, 3166.874
249.766, 3147.808
250.248, 3132.651
250.730, 3124.517
251.212, 3118.939
251.695, 3106.135
252.177, 3081.083
252.659, 3057.663
253.141, 3042.739
253.623, 3042.389
254.105, 3033.465
254.587, 3012.737
255.069, 2985.047
255.551, 2961.390
256.034, 2944.229
256.516, 2927.240
256.998, 2906.081
257.480, 2875.172
257.962, 2857.017
258.444, 2858.924
258.926, 2870.422
259.408, 2863.578
259.890, 2828.802
260.373, 2792.885
260.855, 2767.071
261.337, 2751.955
261.819, 2747.342
262.301, 2759.909
262.783, 2780.022
263.265, 2780.903
263.747, 2757.875
264.229, 2725.268
264.712, 2685.250
265.194, 2630.211
265.676, 2598.535
266.158, 2601.381
266.640, 2624.599
267.122, 2627.285
267.604, 2602.443
268.086, 2573.841
268.569, 2554.326
269.051, 2545.551
269.533, 2538.936
270.015, 2536.563
270.497, 2534.662
270.979, 2511.999
271.461, 2475.556
271.943, 2481.398
272.426, 2476.978
272.908, 2462.845
273.390, 2409.905
273.872, 2407.076
274.354, 2384.165
274.836, 2360.427
275.318, 2364.650
275.800, 2335.993
276.282, 2318.125
276.764, 2326.163
277.247, 2329.422
277.729, 2327.518
278.211, 2317.506
278.693, 2287.110
279.175, 2232.081
279.657, 2178.178
280.139, 2142.879
280.621, 2126.702
281.104, 2108.463
281.586, 2083.198
282.068, 2058.125
282.550, 2054.199
283.032, 2074.166
283.514, 2090.609
283.996, 2082.427
284.478, 2051.139
284.961, 2025.603
285.443, 2008.814
285.925, 1999.153
286.407, 1997.304
286.889, 2003.712
287.371, 2004.937
287.853, 1986.525
288.335, 1952.271
288.817, 1930.442
289.299, 1925.895
289.782, 1931.666
290.264, 1939.518
290.746, 1949.101
291.228, 1950.988
291.710, 1931.784
292.192, 1897.929
292.674, 1877.921
293.156, 1876.939
293.639, 1885.355
294.121, 1890.016
294.603, 1891.038
295.085, 1889.967
295.567, 1887.602
296.049, 1883.905
296.531, 1877.883
297.013, 1868.499
297.496, 1859.558
297.978, 1854.267
298.460, 1853.083
298.942, 1858.272
299.424, 1880.802
299.906, 1908.779
300.388, 1918.633
300.870, 1904.585
301.352, 1882.723
301.835, 1863.739
302.317, 1850.142
302.799, 1849.875
303.281, 1879.105
303.763, 1920.217
304.245, 1948.102
304.727, 1958.724
305.209, 1963.596
305.691, 1971.620
306.174, 1981.950
306.656, 1992.774
307.138, 1999.151
307.620, 2007.731
308.102, 2027.342
308.584, 2060.578
309.066, 2094.405
309.548, 2120.890
310.030, 2141.355
310.513, 2158.954
310.995, 2164.163
311.477, 2174.439
311.959, 2208.044
312.441, 2269.187
312.923, 2326.832
313.405, 2355.564
313.888, 2370.756
314.370, 2394.476
314.852, 2442.056
315.334, 2495.589
315.816, 2547.071
316.298, 2596.133
316.780, 2640.715
317.262, 2677.495
317.744, 2710.675
318.227, 2744.938
318.709, 2775.110
319.191, 2812.996
319.673, 2871.245
320.155, 2951.703
320.637, 3014.731
321.119, 3041.802
321.601, 3049.813
322.083, 3054.258
322.566, 3053.041
323.048, 3053.822
323.530, 3062.742
324.012, 3079.795
324.494, 3084.848
324.976, 3059.932
325.458, 3030.333
325.940, 3014.451
326.422, 3046.158
326.905, 3056.423
327.387, 3032.668
327.869, 2975.879
328.351, 2912.029
328.833, 2832.192
329.315, 2751.697
329.797, 2679.666
330.279, 2628.268
330.762, 2568.436
331.244, 2491.783
331.726, 2403.402
332.208, 2334.224
332.690, 2303.292
333.172, 2269.486
333.654, 2207.173
334.136, 2093.130
334.618, 2001.326
335.101, 1942.604
335.583, 1906.459
336.065, 1860.337
336.547, 1797.295
337.029, 1739.286
337.511, 1699.254
337.993, 1682.763
338.475, 1661.594
338.957, 1634.378
339.440, 1602.667
339.922, 1567.784
340.404, 1527.044
340.886, 1493.971
341.368, 1480.054
341.850, 1486.366
342.332, 1439.576
342.815, 1458.303
343.297, 1461.130
343.779, 1448.907
344.261, 1376.557
344.743, 1381.849
345.225, 1356.025
345.707, 1328.921
346.189, 1345.140
346.671, 1281.537
347.154, 1297.068
347.636, 1281.010
348.118, 1279.409
348.600, 1246.498
349.082, 1223.262
349.564, 1204.844
350.046, 1198.544
350.528, 1162.008
351.010, 1125.074
351.493, 1120.054
351.975, 1134.849
352.457, 1141.431
352.939, 1123.490
353.421, 1100.099
353.903, 1096.703
354.385, 1110.960
354.867, 1124.682
355.349, 1126.589
355.832, 1120.198
356.314, 1108.834
356.796, 1088.129
357.278, 1070.676
357.760, 1071.595
358.242, 1085.343
358.724, 1092.565
359.206, 1071.656
359.689, 1046.966
360.171, 1039.199
360.653, 1060.255
361.135, 1080.609
361.617, 1087.548
362.099, 1084.466
362.581, 1078.598
363.063, 1074.818
363.546, 1066.817
364.028, 1048.068
364.510, 1010.796
364.992, 986.412
365.474, 994.319
365.956, 1016.070
366.438, 1025.127
366.920, 1003.634
367.402, 983.059
367.884, 972.443
368.367, 974.238
368.849, 974.150
369.331, 968.588
369.813, 962.893
370.295, 962.449
370.777, 975.328
371.259, 981.413
371.741, 971.189
372.224, 946.009
372.706, 946.114
373.188, 990.826
373.670, 1036.270
374.152, 1045.254
374.634, 998.776
375.116, 972.169
375.598, 981.241
376.081, 1013.815
376.563, 1024.487
377.045, 1007.581
377.527, 986.518
378.009, 976.599
378.491, 978.765
378.973, 973.924
379.455, 958.432
379.937, 939.530
380.419, 930.043
380.902, 930.119
381.384, 933.866
381.866, 939.758
382.348, 947.281
382.830, 953.284
383.312, 957.419
383.794, 961.713
384.276, 972.054
384.759, 985.573
385.241, 991.282
385.723, 981.821
386.205, 963.044
386.687, 938.902
387.169, 909.530
387.651, 889.070
388.133, 897.725
388.616, 920.484
389.098, 934.545
389.580, 927.163
390.062, 914.679
390.544, 908.034
391.026, 906.654
391.508, 907.599
391.990, 910.425
392.472, 914.347
392.955, 919.024
393.437, 925.669
393.919, 930.724
394.401, 934.536
394.883, 935.755
395.365, 931.412
395.847, 909.142
396.329, 890.656
396.811, 887.932
397.294, 909.068
397.776, 922.431
398.258, 916.963
398.740, 903.764
399.222, 896.466
399.704, 898.402
400.186, 898.097
400.668, 895.670
401.151, 884.769
401.633, 884.811
402.115, 880.467
402.597, 875.944
403.079, 877.526
403.561, 867.858
404.043, 869.343
404.525, 866.375
405.008, 865.446
405.490, 859.192
405.972, 869.007
406.454, 878.435
406.936, 866.511
407.418, 831.807
407.900, 809.135
408.382, 801.049
408.864, 805.571
409.346, 825.373
409.829, 860.180
410.311, 888.986
410.793, 901.379
411.275, 900.505
411.757, 894.282
412.239, 882.362
412.721, 869.742
413.203, 861.852
413.686, 857.313
414.168, 852.487
414.650, 845.682
415.132, 838.247
415.614, 829.963
416.096, 821.451
416.578, 816.823
417.060, 827.806
417.543, 840.184
418.025, 836.341
418.507, 798.501
418.989, 768.337
419.471, 778.510
419.953, 813.593
420.435, 836.754
420.917, 816.927
421.399, 796.110
421.882, 799.919
422.364, 842.491
422.846, 868.342
423.328, 852.516
423.810, 820.074
424.292, 801.624
424.774, 817.648
425.256, 828.089
425.738, 823.722
426.221, 804.596
426.703, 789.466
427.185, 776.845
427.667, 769.797
428.149, 771.565
428.631, 785.725
429.113, 799.690
429.595, 814.849
430.078, 827.727
430.560, 825.186
431.042, 802.707
431.524, 783.756
432.006, 784.988
432.488, 805.754
432.970, 814.223
433.452, 807.270
433.934, 795.825
434.417, 798.048
434.899, 811.211
435.381, 814.952
435.863, 789.097
436.345, 754.309
436.827, 761.538
437.309, 809.274
437.791, 848.850
438.273, 828.176
438.756, 777.766
439.238, 745.481
439.720, 748.438
440.202, 763.625
440.684, 778.067
441.166, 768.539
441.648, 772.161
442.130, 772.590
442.612, 770.000
443.095, 755.340
443.577, 756.265
444.059, 750.944
444.541, 745.368
445.023, 748.485
445.505, 735.582
445.987, 738.561
446.470, 735.200
446.952, 730.370
447.434, 747.420
447.916, 752.346
448.398, 727.605
448.880, 706.857
449.362, 713.015
449.844, 765.511
450.326, 759.420
450.809, 761.715
451.291, 761.974
451.773, 760.306
452.255, 750.943
452.737, 751.518
453.219, 748.110
453.701, 744.539
454.183, 746.512
454.665, 738.268
455.148, 739.609
455.630, 742.256
456.112, 739.775
456.594, 737.448
457.076, 736.433
457.558, 736.749
458.040, 740.060
458.522, 745.682
459.004, 748.684
459.487, 740.883
459.969, 730.104
460.451, 728.986
460.933, 743.213
461.415, 754.938
461.897, 746.685
462.379, 727.430
462.862, 712.959
463.344, 709.073
463.826, 711.909
464.308, 723.852
464.790, 745.313
465.272, 758.697
465.754, 752.966
466.236, 740.898
466.718, 731.689
467.201, 725.602
467.683, 723.575
468.165, 729.456
468.647, 739.513
469.129, 741.713
469.611, 731.133
470.093, 719.825
470.575, 711.106
471.057, 704.088
471.539, 707.479
472.022, 726.791
472.504, 746.953
472.986, 745.929
473.468, 721.963
473.950, 703.453
474.432, 698.568
474.914, 703.298
475.397, 710.189
475.879, 719.062
476.361, 721.656
476.843, 701.285
477.325, 671.807
477.807, 666.362
478.289, 694.790
478.771, 726.422
479.253, 728.748
479.736, 712.737
480.218, 700.595
480.700, 709.430
481.182, 719.941
481.664, 715.471
482.146, 696.714
482.628, 684.935
483.110, 693.026
483.592, 708.677
484.075, 723.521
484.557, 748.762
485.039, 755.835
485.521, 725.956
486.003, 675.515
486.485, 644.167
486.967, 644.697
487.449, 648.580
487.931, 646.741
488.414, 637.888
488.896, 636.953
489.378, 648.263
489.860, 660.727
490.342, 663.055
490.824, 654.216
491.306, 643.080
491.788, 627.711
492.271, 614.365
492.753, 624.237
493.235, 656.836
493.717, 683.982
494.199, 683.878
494.681, 667.590
495.163, 661.087
495.645, 666.651
496.128, 674.472
496.610, 675.196
497.092, 672.004
497.574, 670.385
498.056, 678.873
498.538, 683.002
499.020, 663.500
499.502, 628.571
499.984, 612.038
500.466, 647.148
500.949, 689.503
501.431, 713.758
501.913, 711.869
502.395, 705.459
502.877, 693.092
503.359, 679.116
503.841, 668.829
504.323, 664.541
504.806, 660.305
505.288, 654.591
505.770, 647.892
506.252, 644.553
506.734, 645.944
507.216, 647.192
507.698, 643.688
508.180, 635.156
508.663, 633.352
509.145, 640.170
509.627, 650.152
510.109, 654.382
510.591, 654.299
511.073, 658.628
511.555, 679.257
512.037, 700.289
512.519, 688.737
513.002, 649.574
513.484, 619.581
513.966, 636.455
514.448, 668.057
514.930, 680.092
515.412, 659.828
515.894, 639.599
516.376, 635.157
516.859, 640.169
517.341, 645.134
517.823, 647.580
518.305, 649.797
518.787, 653.075
519.269, 657.370
519.751, 658.941
520.233, 656.174
520.715, 652.328
521.198, 650.253
521.680, 653.824
522.162, 646.031
522.644, 620.342
523.126, 590.723
523.608, 580.239
524.090, 590.141
524.572, 606.106
525.054, 628.828
525.537, 651.913
526.019, 651.690
526.501, 628.719
526.983, 603.628
527.465, 589.000
527.947, 583.634
528.429, 588.003
528.911, 605.461
529.393, 619.532
529.876, 608.289
530.358, 586.581
530.840, 578.298
531.322, 613.303
531.804, 603.642
532.286, 608.955
532.768, 610.634
533.250, 608.872
533.732, 593.369
534.215, 595.610
534.697, 590.740
535.179, 585.578
535.661, 590.318
536.143, 576.812
536.625, 581.395
537.107, 578.756
537.589, 574.445
538.072, 538.287
538.554, 531.332
539.036, 546.510
539.518, 559.781
540.000, 571.603
540.482, 575.784
540.964, 557.084
541.446, 527.873
541.929, 528.459
542.411, 566.576
542.893, 603.286
543.375, 591.505
543.857, 553.929
544.339, 531.224
544.821, 549.317
545.303, 574.367
545.786, 593.383
546.268, 604.714
546.750, 602.774
547.232, 561.318
547.714, 526.353
548.196, 525.258
548.678, 576.429
549.160, 602.860
549.642, 582.791
550.125, 552.704
550.607, 548.521
551.089, 585.414
551.571, 608.151
552.053, 604.787
552.535, 586.460
553.017, 584.687
553.499, 601.248
553.981, 615.686
554.464, 617.844
554.946, 609.738
555.428, 598.250
555.910, 583.231
556.392, 566.653
556.874, 541.619
557.356, 518.148
557.838, 515.439
558.320, 548.365
558.803, 580.389
559.285, 584.839
559.767, 570.465
560.249, 553.789
560.731, 529.188
561.213, 514.040
561.695, 521.693
562.177, 552.618
562.659, 567.808
563.142, 550.359
563.624, 530.260
564.106, 524.295
564.588, 540.739
565.070, 548.611
565.552, 545.510
566.034, 537.109
566.516, 531.774
566.999, 529.796
567.481, 525.159
567.963, 513.925
568.445, 500.897
568.927, 497.829
569.409, 503.764
569.891, 509.943
570.373, 509.032
570.856, 505.879
571.338, 508.667
571.820, 518.899
572.302, 525.281
572.784, 516.300
573.266, 501.758
573.748, 491.657
574.230, 487.957
574.713, 489.908
575.195, 503.626
575.677, 523.239
576.159, 531.820
576.641, 519.416
577.123, 509.609
577.605, 513.067
578.087, 529.641
578.569, 523.595
579.052, 485.659
579.534, 449.501
580.016, 447.376
580.498, 476.304
580.980, 491.649
581.462, 486.371
581.944, 476.067
582.426, 484.231
582.908, 504.442
583.391, 517.091
583.873, 509.008
584.355, 495.602
584.837, 488.974
585.319, 488.401
585.801, 490.945
586.283, 500.040
586.765, 508.147
587.247, 511.536
587.730, 509.992
588.212, 502.656
588.694, 476.692
589.176, 453.307
589.658, 450.589
590.140, 482.194
590.622, 503.379
591.104, 508.530
591.586, 503.253
592.069, 497.047
592.551, 489.430
593.033, 486.955
593.515, 494.854
593.997, 508.690
594.479, 517.529
594.961, 521.422
595.443, 520.946
595.925, 511.802
596.408, 500.628
596.890, 497.613
597.372, 506.155
597.854, 512.042
598.336, 503.782
598.818, 489.700
599.300, 479.711
599.782, 476.444
600.265, 476.854
600.747, 486.190
601.229, 498.913
601.711, 498.565
602.193, 473.629
602.675, 455.069
603.157, 455.367
603.639, 473.528
604.122, 485.671
604.604, 492.010
605.086, 491.761
605.568, 480.639
606.050, 461.485
606.532, 447.723
607.014, 441.418
607.496, 437.956
607.979, 431.578
608.461, 424.714
608.943, 421.677
609.425, 424.371
609.907, 431.085
610.389, 446.459
610.871, 465.742
611.353, 475.220
611.835, 455.271
612.318, 439.701
612.800, 445.422
613.282, 474.764
613.764, 492.104
614.246, 494.294
614.728, 488.764
615.210, 476.695
615.692, 455.680
616.174, 454.189
616.657, 445.832
617.139, 456.971
617.621, 463.378
618.103, 465.306
618.585, 449.344
619.067, 456.484
619.549, 454.365
620.031, 451.867
620.513, 462.259
620.996, 448.898
621.478, 459.086
621.960, 459.873
622.442, 464.962
622.924, 460.736
623.406, 459.387
623.888, 467.357
624.370, 470.167
624.852, 460.133
625.335, 493.583
625.817, 509.759
626.299, 505.411
626.781, 487.994
627.263, 461.795
627.745, 455.280
628.227, 457.654
628.709, 457.871
629.192, 456.046
629.674, 446.063
630.156, 446.614
630.638, 442.944
631.120, 439.099
631.602, 441.134
632.084, 432.337
632.566, 434.277
633.049, 431.932
633.531, 431.548
634.013, 426.916
634.495, 423.597
634.977, 424.526
635.459, 423.103
635.941, 417.982
636.423, 413.269
636.906, 394.715
637.388, 385.075
637.870, 386.880
638.352, 403.367
638.834, 427.423
639.316, 446.690
639.798, 461.095
640.280, 468.525
640.762, 465.148
