##NAMES=Jamesonite
##RRUFFID=R050432
##IDEAL CHEMISTRY=Pb^2+^_4_Fe^2+^Sb^3+^_6_S^2-^_14_
##LOCALITY=San Jose mine, Oruro District, Bolivia
##OWNER=RRUFF
##SOURCE=University of Arizona Mineral Museum
##DESCRIPTION=Grayish black coarse acicular crystals
##STATUS=The identification of this mineral has been confirmed by X-ray diffraction and chemical analysis
##URL=rruff.info/R050432
##MEASURED CHEMISTRY=Pb_4.00_Fe_1.00_(Sb_5.95_As_0.05_)_Î£=6_S_14.00_
113.809, 145.248
114.291, 147.322
114.773, 149.107
115.256, 148.535
115.738, 148.085
116.220, 151.092
116.702, 163.140
117.184, 175.708
117.666, 184.364
118.148, 187.534
118.630, 188.748
119.112, 187.614
119.595, 185.500
120.077, 185.974
120.559, 194.106
121.041, 204.234
121.523, 210.921
122.005, 210.476
122.487, 208.790
122.969, 211.338
123.451, 217.545
123.934, 223.231
124.416, 225.274
124.898, 224.765
125.380, 218.992
125.862, 228.078
126.344, 233.558
126.826, 235.624
127.308, 224.055
127.790, 230.093
128.273, 229.075
128.755, 227.768
129.237, 236.284
129.719, 226.698
130.201, 235.059
130.683, 236.255
131.165, 240.731
131.648, 238.107
132.130, 237.675
132.612, 244.346
133.094, 247.084
133.576, 243.642
134.058, 248.326
134.540, 241.729
135.022, 241.665
135.504, 238.344
135.986, 237.542
136.469, 239.472
136.951, 242.881
137.433, 247.374
137.915, 253.198
138.397, 258.098
138.879, 261.931
139.361, 264.582
139.843, 264.582
140.326, 260.512
140.808, 256.179
141.290, 255.937
141.772, 261.558
142.254, 266.772
142.736, 270.490
143.218, 272.944
143.700, 271.765
144.182, 263.903
144.665, 254.436
145.147, 251.750
145.629, 261.215
146.111, 269.933
146.593, 273.537
147.075, 268.948
147.557, 266.271
148.039, 266.288
148.521, 268.154
149.004, 269.858
149.486, 272.059
149.968, 273.518
150.450, 273.735
150.932, 269.799
151.414, 268.165
151.896, 270.908
152.378, 276.748
152.861, 279.681
153.343, 275.403
153.825, 270.728
154.307, 269.517
154.789, 274.742
155.271, 280.757
155.753, 286.976
156.235, 293.318
156.717, 299.420
157.200, 305.701
157.682, 311.551
158.164, 316.474
158.646, 321.508
159.128, 324.543
159.610, 322.890
160.092, 315.683
160.574, 312.609
161.057, 320.841
161.539, 334.078
162.021, 344.464
162.503, 346.934
162.985, 347.539
163.467, 349.180
163.949, 352.192
164.431, 356.056
164.913, 360.697
165.396, 366.010
165.878, 371.806
166.360, 380.039
166.842, 387.568
167.324, 391.454
167.806, 389.822
168.288, 388.076
168.770, 389.606
169.253, 393.837
169.735, 399.161
170.217, 406.439
170.699, 413.622
171.181, 418.389
171.663, 419.551
172.145, 419.171
172.627, 418.655
173.109, 418.039
173.592, 417.493
174.074, 416.245
174.556, 415.290
175.038, 416.380
175.520, 421.753
176.002, 427.876
176.484, 430.123
176.966, 428.686
177.449, 426.393
177.931, 424.837
178.413, 424.122
178.895, 424.506
179.377, 427.411
179.859, 430.920
180.341, 431.365
180.823, 428.623
181.305, 425.344
181.788, 424.472
182.270, 425.356
182.752, 425.611
183.234, 423.288
183.716, 419.642
184.198, 418.089
184.680, 418.878
185.162, 420.472
185.645, 420.976
186.127, 420.555
186.609, 420.416
187.091, 420.858
187.573, 421.995
188.055, 424.668
188.537, 429.387
189.019, 434.403
189.501, 436.966
189.984, 437.162
190.466, 436.988
190.948, 437.100
191.430, 437.606
191.912, 439.594
192.394, 443.621
192.876, 448.346
193.358, 452.056
193.840, 454.882
194.323, 454.684
194.805, 447.868
195.287, 434.772
195.769, 426.172
196.251, 423.872
196.733, 426.046
197.215, 428.653
197.697, 432.010
198.180, 434.046
198.662, 433.442
199.144, 430.173
199.626, 424.240
200.108, 414.491
200.590, 402.424
201.072, 394.579
201.554, 391.867
202.036, 389.891
202.519, 384.712
203.001, 375.750
203.483, 367.643
203.965, 360.775
204.447, 355.351
204.929, 353.768
205.411, 357.588
205.893, 361.306
206.376, 358.715
206.858, 347.855
207.340, 339.959
207.822, 338.497
208.304, 342.835
208.786, 343.860
209.268, 340.855
209.750, 335.846
210.232, 330.434
210.714, 324.142
211.197, 319.355
211.679, 316.957
212.161, 316.997
212.643, 316.824
213.125, 316.236
213.607, 315.733
214.089, 315.999
214.572, 317.372
215.054, 318.636
215.536, 319.589
216.018, 320.286
216.500, 319.989
216.982, 318.355
217.464, 316.060
217.946, 313.656
218.428, 310.324
218.911, 308.833
219.393, 310.803
219.875, 317.232
220.357, 320.658
220.839, 319.780
221.321, 316.938
221.803, 315.882
222.285, 318.000
222.767, 319.147
223.250, 317.297
223.732, 314.383
224.214, 317.602
224.696, 319.332
225.178, 319.654
225.660, 314.347
226.142, 316.308
226.624, 315.356
227.107, 314.285
227.589, 315.665
228.071, 310.592
228.553, 307.771
229.035, 306.802
229.517, 307.225
229.999, 310.741
230.481, 307.387
230.963, 308.571
231.445, 308.653
231.928, 307.693
232.410, 302.568
232.892, 302.821
233.374, 300.919
233.856, 298.929
234.338, 299.939
234.820, 295.420
235.303, 296.382
235.785, 295.156
236.267, 294.932
236.749, 292.539
237.231, 290.816
237.713, 291.262
238.195, 288.094
238.677, 283.157
239.159, 287.125
239.641, 288.592
240.124, 286.441
240.606, 282.030
241.088, 278.964
241.570, 277.658
242.052, 277.137
242.534, 277.018
243.016, 277.385
243.498, 277.987
243.981, 278.954
244.463, 280.124
244.945, 281.164
245.427, 282.736
245.909, 283.205
246.391, 279.975
246.873, 283.235
247.355, 284.919
247.837, 285.112
248.320, 279.350
248.802, 281.278
249.284, 280.124
249.766, 278.844
250.248, 281.855
250.730, 279.819
251.212, 277.081
251.694, 280.494
252.176, 282.414
252.659, 282.921
253.141, 277.783
253.623, 279.934
254.105, 279.164
254.587, 278.274
255.069, 281.451
255.551, 279.845
256.033, 276.163
256.516, 279.498
256.998, 281.130
257.480, 281.150
257.962, 274.730
258.444, 276.626
258.926, 275.189
259.408, 273.615
259.890, 276.682
260.372, 271.198
260.855, 274.191
261.337, 273.800
261.819, 274.958
262.301, 272.070
262.783, 278.684
263.265, 282.469
263.747, 283.576
264.229, 273.989
264.711, 278.212
265.194, 276.901
265.676, 275.362
266.158, 281.529
266.640, 273.497
267.122, 272.310
267.604, 273.850
268.086, 274.728
268.569, 274.979
269.051, 272.728
269.533, 273.708
270.015, 273.394
270.497, 273.720
270.979, 274.290
271.461, 276.379
271.943, 277.607
272.425, 277.659
272.908, 277.930
273.390, 278.876
273.872, 280.377
274.354, 283.571
274.836, 288.987
275.318, 295.579
275.800, 301.579
276.282, 307.096
276.764, 311.484
277.247, 313.618
277.729, 313.131
278.211, 315.245
278.693, 320.232
279.175, 327.562
279.657, 336.604
280.139, 347.468
280.621, 359.155
281.103, 371.343
281.586, 384.023
282.068, 397.218
282.550, 411.355
283.032, 425.065
283.514, 435.106
283.996, 441.206
284.478, 449.081
284.960, 463.333
285.443, 483.080
285.925, 496.319
286.407, 501.597
286.889, 504.926
287.371, 516.464
287.853, 535.743
288.335, 551.053
288.817, 554.876
289.299, 549.852
289.782, 550.422
290.264, 557.826
290.746, 564.730
291.228, 561.355
291.710, 548.772
292.192, 534.763
292.674, 522.328
293.156, 510.837
293.638, 498.540
294.121, 485.432
294.603, 472.131
295.085, 458.572
295.567, 445.089
296.049, 432.876
296.531, 421.593
297.013, 412.260
297.496, 408.908
297.978, 411.749
298.460, 413.621
298.942, 404.755
299.424, 389.560
299.906, 379.382
300.388, 380.241
300.870, 386.787
301.352, 391.796
301.835, 395.340
302.317, 398.856
302.799, 403.389
303.281, 408.685
303.763, 414.366
304.245, 419.932
304.727, 426.135
305.209, 433.225
305.691, 441.424
306.174, 451.535
306.656, 465.386
307.138, 481.277
307.620, 496.833
308.102, 510.713
308.584, 525.403
309.066, 542.724
309.548, 562.753
310.030, 584.639
310.513, 611.349
310.995, 638.352
311.477, 660.121
311.959, 671.817
312.441, 685.133
312.923, 709.532
313.405, 741.521
313.887, 770.954
314.370, 787.465
314.852, 803.948
315.334, 832.555
315.816, 883.775
316.298, 925.292
316.780, 935.030
317.262, 925.873
317.744, 923.400
318.226, 940.983
318.709, 964.474
319.191, 988.376
319.673, 1013.766
320.155, 1033.483
320.637, 1044.117
321.119, 1048.174
321.601, 1049.213
322.083, 1050.649
322.565, 1046.829
323.048, 1035.856
323.530, 1017.365
324.012, 992.767
324.494, 958.228
324.976, 919.182
325.458, 881.434
325.940, 845.728
326.422, 811.241
326.905, 777.231
327.387, 743.479
327.869, 712.241
328.351, 685.422
328.833, 660.115
329.315, 633.640
329.797, 602.132
330.279, 574.461
330.762, 552.612
331.244, 536.187
331.726, 519.313
332.208, 501.579
332.690, 483.686
333.172, 465.740
333.654, 446.345
334.136, 430.300
334.618, 419.839
335.100, 413.066
335.583, 400.681
336.065, 379.074
336.547, 358.213
337.029, 344.358
337.511, 340.261
337.993, 332.493
338.475, 318.803
338.957, 302.384
339.440, 291.395
339.922, 287.598
340.404, 282.623
340.886, 270.225
341.368, 249.642
341.850, 237.647
342.332, 237.187
342.814, 240.412
343.297, 233.605
343.779, 216.204
344.261, 201.232
344.743, 195.501
345.225, 197.295
345.707, 195.382
346.189, 189.073
346.671, 182.408
347.153, 180.574
347.635, 182.771
348.118, 184.036
348.600, 182.654
349.082, 179.268
349.564, 174.568
350.046, 168.486
350.528, 163.172
351.010, 160.722
351.492, 160.359
351.975, 160.446
352.457, 161.072
352.939, 161.297
353.421, 159.262
353.903, 155.431
354.385, 152.320
354.867, 152.328
355.349, 153.751
355.832, 154.680
356.314, 155.096
356.796, 154.143
357.278, 149.508
357.760, 142.765
358.242, 138.064
358.724, 139.521
359.206, 142.398
359.688, 142.975
360.171, 140.174
360.653, 137.616
361.135, 136.855
361.617, 137.443
362.099, 138.707
362.581, 141.601
363.063, 144.101
363.545, 145.835
364.027, 146.904
364.510, 145.581
364.992, 137.399
365.474, 128.470
365.956, 124.409
366.438, 133.409
366.920, 139.686
367.402, 138.269
367.884, 129.700
368.366, 125.064
368.849, 128.965
369.331, 134.069
369.813, 136.247
370.295, 132.337
370.777, 130.344
371.259, 132.227
371.741, 136.213
372.224, 131.914
372.706, 135.716
373.188, 137.551
373.670, 137.525
374.152, 130.067
374.634, 132.206
375.116, 130.499
375.598, 128.635
376.080, 132.125
376.562, 125.748
377.045, 129.153
377.527, 128.654
378.009, 127.249
378.491, 125.335
378.973, 123.240
379.455, 122.188
379.937, 125.106
380.419, 131.875
380.902, 134.857
381.384, 130.395
381.866, 121.684
382.348, 117.716
382.830, 118.522
383.312, 120.563
383.794, 121.454
384.276, 121.356
384.759, 120.565
385.241, 118.827
385.723, 117.031
386.205, 116.899
386.687, 117.954
387.169, 118.324
387.651, 115.279
388.133, 111.588
388.615, 111.269
389.098, 115.373
389.580, 119.468
390.062, 119.883
390.544, 117.975
391.026, 115.967
391.508, 114.447
391.990, 113.417
392.472, 113.037
392.954, 113.313
393.437, 113.592
393.919, 114.306
394.401, 114.553
394.883, 113.549
395.365, 109.503
395.847, 105.860
396.329, 103.604
396.811, 102.530
397.293, 101.648
397.776, 100.288
398.258, 99.457
398.740, 99.626
399.222, 101.041
399.704, 103.152
400.186, 107.470
400.668, 112.147
401.151, 113.495
401.633, 108.825
402.115, 104.608
402.597, 102.962
403.079, 104.324
403.561, 104.690
404.043, 103.414
404.525, 101.983
405.007, 102.196
405.490, 104.564
405.972, 106.608
406.454, 107.931
406.936, 108.529
407.418, 108.010
407.900, 106.116
408.382, 104.436
408.864, 104.675
409.346, 106.558
409.828, 106.839
410.311, 104.624
410.793, 101.724
411.275, 101.346
411.757, 103.154
412.239, 104.708
412.721, 104.708
413.203, 103.581
413.685, 102.003
414.168, 99.984
414.650, 97.882
415.132, 95.644
415.614, 93.606
416.096, 92.432
416.578, 93.042
417.060, 94.052
417.542, 94.375
418.025, 94.092
418.507, 93.744
418.989, 93.552
419.471, 93.445
419.953, 93.293
420.435, 92.639
420.917, 92.692
421.399, 94.999
421.881, 98.278
422.364, 99.793
422.846, 96.176
423.328, 93.147
423.810, 93.219
424.292, 97.608
424.774, 100.817
425.256, 102.890
425.738, 103.544
426.220, 102.278
426.703, 97.028
427.185, 93.192
427.667, 92.110
428.149, 93.388
428.631, 93.746
429.113, 92.790
429.595, 91.638
430.077, 91.001
430.560, 90.937
431.042, 91.075
431.524, 91.599
432.006, 92.024
432.488, 90.843
432.970, 87.931
433.452, 86.277
433.934, 88.525
434.417, 93.342
434.899, 94.480
435.381, 91.631
435.863, 88.240
436.345, 88.285
436.827, 90.569
437.309, 91.796
437.791, 90.591
438.273, 88.403
438.755, 85.991
439.238, 83.728
439.720, 83.271
440.202, 88.235
440.684, 94.104
441.166, 95.912
441.648, 91.551
442.130, 87.827
442.612, 89.138
443.095, 93.153
443.577, 96.302
444.059, 98.710
444.541, 98.922
445.023, 94.529
445.505, 85.282
445.987, 80.283
446.469, 85.710
446.952, 92.802
447.434, 95.709
447.916, 90.361
448.398, 86.415
448.880, 84.696
449.362, 84.568
449.844, 84.292
450.326, 83.618
450.808, 83.292
451.290, 84.028
451.773, 86.149
452.255, 85.646
452.737, 81.246
453.219, 76.821
453.701, 77.927
454.183, 84.785
454.665, 89.892
455.147, 91.156
455.630, 89.664
456.112, 87.914
456.594, 85.925
457.076, 83.821
457.558, 80.625
458.040, 77.533
458.522, 77.666
459.004, 82.069
459.487, 87.035
459.969, 88.840
460.451, 88.546
460.933, 88.411
461.415, 89.903
461.897, 91.578
462.379, 92.424
462.861, 92.438
463.343, 92.297
463.826, 92.282
464.308, 92.248
464.790, 92.071
465.272, 91.552
465.754, 91.130
466.236, 90.946
466.718, 90.914
467.200, 90.827
467.682, 90.118
468.165, 89.942
468.647, 91.180
469.129, 94.534
469.611, 94.796
470.093, 89.913
470.575, 84.379
471.057, 82.682
471.539, 85.887
472.022, 89.107
472.504, 91.972
472.986, 94.100
473.468, 93.970
473.950, 91.412
474.432, 88.531
474.914, 86.824
475.396, 85.894
475.878, 83.638
476.361, 79.737
476.843, 75.974
477.325, 74.508
477.807, 74.752
478.289, 75.324
478.771, 75.874
479.253, 76.404
479.735, 77.228
480.217, 78.167
480.700, 78.325
481.182, 76.001
481.664, 73.425
482.146, 72.618
482.628, 74.710
483.110, 76.151
483.592, 74.176
484.074, 71.251
484.556, 70.795
485.039, 76.999
485.521, 82.056
486.003, 83.654
486.485, 81.974
486.967, 80.965
487.449, 81.768
487.931, 81.977
488.414, 79.403
488.896, 71.398
489.378, 69.482
489.860, 76.768
490.342, 87.084
490.824, 88.911
491.306, 81.251
491.788, 73.686
492.270, 69.251
492.753, 67.597
493.235, 67.856
493.717, 70.079
494.199, 72.339
494.681, 72.126
495.163, 70.805
495.645, 72.134
496.127, 78.019
496.609, 83.328
497.092, 81.154
497.574, 74.492
498.056, 69.701
498.538, 71.996
499.020, 75.386
499.502, 75.649
499.984, 72.690
500.466, 70.675
500.948, 72.361
501.431, 74.815
501.913, 75.946
502.395, 74.688
502.877, 73.110
503.359, 70.577
503.841, 67.953
504.323, 67.020
504.805, 68.805
505.288, 70.739
505.770, 72.372
506.252, 73.725
506.734, 73.524
507.216, 71.378
507.698, 68.663
508.180, 66.009
508.662, 63.435
509.145, 63.183
509.627, 66.232
510.109, 70.331
510.591, 71.443
511.073, 70.059
511.555, 68.847
512.037, 69.247
512.519, 70.560
513.001, 71.995
513.484, 73.523
513.966, 74.771
514.448, 75.824
514.930, 76.306
515.412, 75.605
515.894, 72.393
516.376, 70.183
516.858, 71.222
517.341, 74.132
517.823, 76.367
518.305, 76.733
518.787, 76.998
519.269, 78.142
519.751, 80.305
520.233, 80.371
520.715, 77.043
521.197, 73.124
521.680, 70.506
522.162, 69.594
522.644, 68.394
523.126, 66.298
523.608, 64.514
524.090, 66.183
524.572, 71.566
525.054, 75.138
525.536, 73.987
526.019, 69.882
526.501, 67.453
526.983, 66.692
527.465, 66.841
527.947, 67.900
528.429, 69.317
528.911, 70.211
529.393, 70.288
529.875, 70.291
530.358, 71.143
530.840, 72.193
531.322, 72.419
531.804, 70.487
532.286, 68.573
532.768, 67.927
533.250, 68.366
533.732, 67.873
534.214, 64.868
534.697, 61.932
535.179, 60.337
535.661, 60.887
536.143, 60.609
536.625, 58.581
537.107, 56.647
537.589, 57.896
538.071, 63.262
538.554, 66.828
539.036, 66.500
539.518, 63.853
540.000, 64.118
540.482, 67.291
540.964, 69.977
541.446, 69.328
541.928, 66.757
542.411, 65.438
542.893, 65.631
543.375, 66.360
543.857, 67.843
544.339, 69.027
544.821, 68.273
545.303, 62.588
545.785, 58.004
546.268, 58.517
546.750, 62.535
547.232, 65.789
547.714, 66.731
548.196, 67.056
548.678, 67.145
549.160, 66.848
549.642, 67.618
550.124, 71.208
550.606, 74.087
551.089, 73.050
551.571, 66.385
552.053, 61.746
552.535, 60.043
553.017, 60.339
553.499, 61.228
553.981, 62.717
554.463, 64.124
554.945, 65.400
555.428, 66.324
555.910, 65.831
556.392, 64.075
556.874, 62.969
557.356, 64.911
557.838, 67.890
558.320, 69.361
558.802, 68.718
559.284, 67.369
559.767, 65.115
560.249, 62.959
560.731, 62.150
561.213, 63.962
561.695, 66.161
562.177, 68.843
562.659, 71.670
563.141, 72.956
563.624, 72.223
564.106, 70.485
564.588, 67.579
565.070, 63.098
565.552, 61.160
566.034, 62.232
566.516, 64.824
566.998, 68.374
567.481, 72.739
567.963, 74.474
568.445, 72.332
568.927, 68.756
569.409, 67.872
569.891, 68.923
570.373, 69.042
570.855, 65.090
571.338, 60.625
571.820, 59.742
572.302, 62.114
572.784, 64.476
573.266, 66.147
573.748, 66.565
574.230, 64.879
574.712, 59.233
575.194, 55.757
575.677, 56.917
576.159, 60.113
576.641, 62.418
577.123, 63.770
577.605, 64.359
578.087, 64.096
578.569, 63.123
579.051, 61.757
579.533, 59.828
580.016, 58.383
580.498, 58.072
580.980, 58.730
581.462, 59.801
581.944, 61.338
582.426, 62.241
582.908, 60.701
583.390, 57.991
583.872, 56.412
584.355, 56.711
584.837, 57.502
585.319, 57.809
585.801, 57.941
586.283, 58.433
586.765, 60.116
587.247, 61.530
587.729, 62.348
588.211, 62.535
588.694, 61.827
589.176, 58.957
589.658, 56.657
590.140, 56.246
590.622, 58.166
591.104, 59.541
591.586, 60.266
592.068, 60.652
592.551, 61.125
593.033, 61.659
593.515, 61.416
593.997, 59.927
594.479, 58.288
594.961, 58.285
595.443, 59.556
595.925, 60.950
596.407, 63.396
596.890, 64.662
597.372, 61.046
597.854, 53.481
598.336, 48.572
598.818, 51.832
599.300, 56.844
599.782, 59.657
600.265, 59.157
600.747, 58.554
601.229, 57.927
601.711, 57.420
602.193, 57.170
602.675, 57.202
603.157, 57.473
603.639, 58.119
604.121, 58.866
604.604, 59.260
605.086, 59.311
605.568, 58.561
606.050, 55.723
606.532, 52.395
607.014, 52.719
607.496, 56.393
607.978, 60.574
608.460, 64.780
608.943, 67.630
609.425, 66.936
609.907, 61.751
610.389, 56.943
610.871, 54.821
611.353, 54.124
611.835, 53.608
612.317, 52.850
612.799, 52.572
613.282, 53.497
613.764, 54.743
614.246, 54.129
614.728, 50.578
615.210, 48.076
615.692, 48.237
616.174, 50.435
616.656, 51.097
617.138, 50.128
617.621, 49.354
618.103, 50.403
618.585, 52.516
619.067, 54.124
619.549, 55.117
620.031, 55.444
620.513, 54.258
620.995, 52.699
621.477, 52.219
621.960, 54.049
622.442, 55.653
622.924, 56.442
623.406, 56.402
623.888, 55.454
624.370, 51.193
624.852, 49.127
625.334, 51.387
625.817, 57.010
626.299, 59.416
626.781, 57.877
627.263, 55.629
627.745, 54.305
628.227, 53.808
628.709, 53.233
629.191, 52.553
629.674, 52.091
630.156, 52.440
630.638, 53.147
631.120, 53.176
631.602, 51.859
632.084, 51.345
632.566, 54.958
633.048, 59.783
633.531, 61.663
634.013, 55.662
634.495, 50.619
634.977, 48.695
635.459, 49.449
635.941, 51.299
636.423, 55.634
636.905, 58.672
637.387, 58.612
637.870, 55.711
638.352, 54.398
638.834, 54.885
639.316, 55.616
639.798, 55.138
640.280, 53.930
640.762, 53.914
641.244, 55.450
641.726, 56.575
642.209, 54.709
642.691, 51.571
643.173, 49.501
643.655, 48.750
644.137, 49.777
644.619, 54.834
645.101, 61.529
645.583, 65.266
646.065, 63.157
646.548, 60.581
647.030, 58.146
647.512, 55.945
647.994, 54.895
648.476, 55.500
648.958, 55.614
649.440, 53.408
649.922, 49.456
650.404, 47.852
650.887, 48.638
651.369, 50.650
651.851, 53.945
652.333, 57.481
652.815, 59.275
653.297, 58.614
653.779, 57.831
654.261, 58.817
654.744, 60.321
655.226, 60.866
655.708, 59.084
656.190, 57.540
656.672, 57.196
657.154, 57.247
657.636, 55.836
658.118, 51.992
658.601, 49.084
659.083, 48.456
659.565, 49.445
660.047, 49.084
660.529, 47.347
661.011, 45.157
661.493, 42.758
661.975, 40.424
662.458, 38.133
662.940, 35.928
663.422, 35.797
663.904, 41.533
664.386, 48.662
664.868, 52.926
665.350, 52.992
665.832, 51.888
666.314, 48.883
666.797, 45.775
667.279, 44.486
667.761, 45.655
668.243, 47.561
668.725, 50.705
669.207, 53.935
669.689, 55.067
670.171, 54.111
670.653, 50.848
671.135, 43.526
671.618, 35.214
672.100, 32.415
672.582, 34.407
673.064, 37.657
673.546, 40.987
674.028, 44.070
674.510, 46.828
674.992, 49.244
675.474, 50.830
675.957, 51.931
676.439, 51.739
676.921, 49.386
677.403, 43.789
677.885, 39.692
678.367, 37.368
678.849, 36.200
679.331, 35.607
679.814, 35.584
680.296, 36.560
680.778, 38.851
681.260, 41.361
681.742, 42.270
682.224, 42.110
682.706, 42.370
683.188, 44.357
