##NAMES=Jamesonite
##RRUFFID=R050430
##IDEAL CHEMISTRY=Pb^2+^_4_Fe^2+^Sb^3+^_6_S^2-^_14_
##LOCALITY=Zacatecas, Mexico
##OWNER=RRUFF
##SOURCE=University of Arizona Mineral Museum
##DESCRIPTION=Grayish black coarsely acicular crystals
##STATUS=The identification of this mineral has been confirmed by X-ray diffraction and chemical analysis
##URL=rruff.info/R050430
##MEASURED CHEMISTRY=Pb_4.02_Fe_1.00_Sb_5.98_S_14.00_
102.238, 2296.737
102.720, 2512.454
103.203, 2687.585
103.685, 2781.904
104.167, 2928.148
104.649, 3155.011
105.131, 3472.244
105.613, 3824.247
106.095, 4227.230
106.577, 4660.835
107.060, 5094.604
107.542, 5517.895
108.024, 5950.007
108.506, 6401.028
108.988, 6865.734
109.470, 7350.667
109.952, 7847.575
110.434, 8360.338
110.916, 8905.166
111.399, 9460.609
111.881, 10059.220
112.363, 10725.480
112.845, 11508.480
113.327, 12304.800
113.809, 13118.460
114.291, 13947.200
114.773, 14742.630
115.256, 15498.730
115.738, 16210.740
116.220, 16858.631
116.702, 17447.381
117.184, 17964.221
117.666, 18400.631
118.148, 18758.260
118.630, 19042.939
119.113, 19254.430
119.595, 19393.480
120.077, 19459.039
120.559, 19413.150
121.041, 19309.369
121.523, 19195.211
122.005, 19082.631
122.487, 18960.551
122.969, 18811.480
123.451, 18639.801
123.934, 18480.381
124.416, 18353.131
124.898, 18255.801
125.380, 18184.430
125.862, 18135.949
126.344, 18113.721
126.826, 18131.881
127.308, 18193.600
127.791, 18265.539
128.273, 18309.410
128.755, 18332.109
129.237, 18362.391
129.719, 18432.641
130.201, 18524.100
130.683, 18576.180
131.165, 18578.830
131.648, 18550.289
132.130, 18526.439
132.612, 18507.500
133.094, 18462.279
133.576, 18370.990
134.058, 18234.381
134.540, 18053.990
135.022, 17821.080
135.504, 17544.000
135.986, 17268.439
136.469, 16992.359
136.951, 16714.471
137.433, 16431.699
137.915, 16146.050
138.397, 15861.540
138.879, 15583.770
139.361, 15315.190
139.844, 15016.150
140.326, 14672.630
140.808, 14317.840
141.290, 14002.390
141.772, 13732.200
142.254, 13494.840
142.736, 13288.670
143.218, 13110.910
143.700, 12968.930
144.182, 12878.120
144.665, 12819.670
145.147, 12727.650
145.629, 12572.430
146.111, 12417.310
146.593, 12298.660
147.075, 12236.560
147.557, 12177.890
148.039, 12120.450
148.522, 12063.850
149.004, 12004.540
149.486, 11939.040
149.968, 11872.490
150.450, 11807.970
150.932, 11756.700
151.414, 11697.560
151.896, 11628.130
152.378, 11548.600
152.861, 11461.770
153.343, 11354.670
153.825, 11244.630
154.307, 11152.530
154.789, 11094.690
155.271, 11044.140
155.753, 10993.750
156.235, 10944.670
156.717, 10893.270
157.200, 10836.340
157.682, 10776.200
158.164, 10719.170
158.646, 10662.310
159.128, 10611.050
159.610, 10567.420
160.092, 10527.660
160.574, 10500.340
161.057, 10498.470
161.539, 10515.210
162.021, 10519.850
162.503, 10491.780
162.985, 10449.410
163.467, 10408.030
163.949, 10362.890
164.431, 10327.990
164.913, 10315.250
165.396, 10324.230
165.878, 10333.070
166.360, 10339.890
166.842, 10338.070
167.324, 10319.040
167.806, 10259.300
168.288, 10194.840
168.770, 10151.180
169.253, 10131.980
169.735, 10124.490
170.217, 10136.260
170.699, 10154.230
171.181, 10151.670
171.663, 10088.690
172.145, 10009.700
172.627, 9965.611
173.109, 9971.915
173.592, 9988.543
174.074, 9975.898
174.556, 9940.981
175.038, 9910.670
175.520, 9904.931
176.002, 9913.590
176.484, 9920.178
176.966, 9919.485
177.449, 9917.658
177.931, 9925.810
178.413, 9942.409
178.895, 9954.046
179.377, 9936.525
179.859, 9905.080
180.341, 9898.901
180.823, 9950.641
181.305, 10022.120
181.788, 10035.290
182.270, 9987.991
182.752, 9942.013
183.234, 9971.695
183.716, 10059.730
184.198, 10134.180
184.680, 10167.760
185.162, 10167.230
185.645, 10147.160
186.127, 10104.570
186.609, 10057.380
187.091, 10024.110
187.573, 10004.610
188.055, 10001.070
188.537, 10027.370
189.019, 10074.470
189.501, 10096.700
189.984, 10087.690
190.466, 10064.370
190.948, 10052.440
191.430, 10051.930
191.912, 10057.080
192.394, 10066.020
192.876, 10078.540
193.358, 10089.910
193.840, 10096.750
194.323, 10105.870
194.805, 10137.940
195.287, 10195.950
195.769, 10253.750
196.251, 10291.120
196.733, 10308.270
197.215, 10322.290
197.697, 10326.660
198.180, 10333.710
198.662, 10396.230
199.144, 10523.790
199.626, 10667.420
200.108, 10779.920
200.590, 10857.500
201.072, 10945.060
201.554, 11062.930
202.036, 11202.210
202.519, 11292.750
203.001, 11324.070
203.483, 11330.700
203.965, 11354.220
204.447, 11402.320
204.929, 11425.660
205.411, 11406.370
205.893, 11344.330
206.376, 11274.100
206.858, 11194.420
207.340, 11108.090
207.822, 11014.260
208.304, 10906.180
208.786, 10814.370
209.268, 10758.370
209.750, 10745.590
210.232, 10701.790
210.715, 10610.540
211.197, 10505.960
211.679, 10457.220
212.161, 10491.710
212.643, 10513.720
213.125, 10473.740
213.607, 10345.840
214.089, 10260.530
214.572, 10231.630
215.054, 10237.750
215.536, 10226.610
216.018, 10188.160
216.500, 10151.530
216.982, 10134.320
217.464, 10147.020
217.946, 10144.310
218.428, 10118.200
218.911, 10075.860
219.393, 10041.960
219.875, 10016.410
220.357, 9999.653
220.839, 9993.243
221.321, 10000.400
221.803, 10010.300
222.285, 10023.890
222.768, 10040.260
223.250, 10053.240
223.732, 10065.790
224.214, 10071.780
224.696, 10064.160
225.178, 10030.570
225.660, 10012.480
226.142, 10022.060
226.624, 10056.120
227.107, 10068.610
227.589, 10044.080
228.071, 10015.610
228.553, 10011.640
229.035, 10044.870
229.517, 10077.290
229.999, 10106.330
230.481, 10131.710
230.964, 10139.430
231.446, 10115.350
231.928, 10087.570
232.410, 10085.860
232.892, 10130.040
233.374, 10163.350
233.856, 10173.900
234.338, 10160.670
234.820, 10138.630
235.303, 10090.720
235.785, 10048.990
236.267, 10054.550
236.749, 10141.600
237.231, 10215.980
237.713, 10250.920
238.195, 10240.040
238.677, 10236.910
239.159, 10245.240
239.642, 10258.750
240.124, 10267.390
240.606, 10260.260
241.088, 10266.970
241.570, 10299.580
242.052, 10366.350
242.534, 10420.100
243.016, 10449.190
243.499, 10472.350
243.981, 10522.310
244.463, 10624.620
244.945, 10711.320
245.427, 10758.320
245.909, 10754.560
246.391, 10747.810
246.873, 10731.920
247.355, 10715.660
247.837, 10715.030
248.320, 10732.690
248.802, 10761.250
249.284, 10802.760
249.766, 10868.210
250.248, 10910.240
250.730, 10923.720
251.212, 10916.930
251.695, 10904.830
252.177, 10883.340
252.659, 10864.710
253.141, 10854.170
253.623, 10854.240
254.105, 10856.360
254.587, 10856.780
255.069, 10861.460
255.551, 10885.250
256.034, 10935.600
256.516, 10991.710
256.998, 11045.860
257.480, 11098.930
257.962, 11145.260
258.444, 11181.250
258.926, 11211.610
259.408, 11251.490
259.890, 11309.550
260.373, 11360.330
260.855, 11383.960
261.337, 11355.770
261.819, 11380.370
262.301, 11487.000
262.783, 11636.160
263.265, 11712.940
263.747, 11690.020
264.229, 11652.480
264.712, 11640.450
265.194, 11656.750
265.676, 11691.270
266.158, 11750.850
266.640, 11824.730
267.122, 11881.240
267.604, 11919.810
268.086, 11944.240
268.569, 11951.070
269.051, 11932.440
269.533, 11934.240
270.015, 11966.810
270.497, 12017.490
270.979, 12049.960
271.461, 12060.030
271.943, 12065.440
272.426, 12079.050
272.908, 12104.450
273.390, 12114.180
273.872, 12099.350
274.354, 12072.380
274.836, 12065.100
275.318, 12078.390
275.800, 12107.600
276.282, 12158.550
276.764, 12235.430
277.247, 12287.230
277.729, 12303.090
278.211, 12297.220
278.693, 12306.520
279.175, 12332.450
279.657, 12365.090
280.139, 12398.750
280.621, 12433.230
281.104, 12471.690
281.586, 12516.800
282.068, 12563.040
282.550, 12597.990
283.032, 12620.760
283.514, 12639.890
283.996, 12661.810
284.478, 12686.190
284.961, 12703.860
285.443, 12712.010
285.925, 12716.060
286.407, 12728.870
286.889, 12750.930
287.371, 12771.020
287.853, 12784.730
288.335, 12791.510
288.817, 12783.120
289.299, 12752.380
289.782, 12717.200
290.264, 12714.300
290.746, 12742.250
291.228, 12771.390
291.710, 12785.870
292.192, 12786.650
292.674, 12775.750
293.156, 12750.290
293.639, 12720.360
294.121, 12702.590
294.603, 12696.210
295.085, 12691.020
295.567, 12681.120
296.049, 12668.270
296.531, 12653.780
297.013, 12634.950
297.496, 12623.990
297.978, 12642.780
298.460, 12686.640
298.942, 12731.050
299.424, 12763.970
299.906, 12787.810
300.388, 12805.730
300.870, 12816.120
301.352, 12826.300
301.835, 12854.300
302.317, 12890.850
302.799, 12907.700
303.281, 12874.890
303.763, 12816.990
304.245, 12770.880
304.727, 12743.380
305.209, 12709.420
305.691, 12636.130
306.174, 12537.330
306.656, 12445.270
307.138, 12382.810
307.620, 12331.310
308.102, 12270.590
308.584, 12197.880
309.066, 12125.310
309.548, 12066.280
310.030, 12013.570
310.513, 11952.070
310.995, 11867.460
311.477, 11776.160
311.959, 11686.350
312.441, 11597.780
312.923, 11521.520
313.405, 11469.730
313.888, 11433.760
314.370, 11401.660
314.852, 11377.050
315.334, 11347.830
315.816, 11301.810
316.298, 11236.190
316.780, 11181.210
317.262, 11153.860
317.744, 11142.200
318.227, 11132.160
318.709, 11128.810
319.191, 11118.050
319.673, 11090.920
320.155, 11046.450
320.637, 11004.970
321.119, 10969.150
321.601, 10939.970
322.083, 10918.650
322.566, 10918.980
323.048, 10912.790
323.530, 10887.140
324.012, 10841.710
324.494, 10807.890
324.976, 10762.061
325.458, 10780.176
325.940, 10782.771
326.422, 10770.679
326.905, 10699.910
327.387, 10704.910
327.869, 10679.542
328.351, 10669.210
328.833, 10668.970
329.315, 10616.520
329.797, 10629.769
330.279, 10627.071
330.762, 10609.280
331.244, 10531.194
331.726, 10530.969
332.208, 10499.542
332.690, 10466.835
333.172, 10477.565
333.654, 10408.254
334.136, 10414.030
334.618, 10404.710
335.101, 10362.040
335.583, 10300.360
336.065, 10266.720
336.547, 10275.990
337.029, 10283.800
337.511, 10266.540
337.993, 10217.820
338.475, 10167.100
338.957, 10107.600
339.440, 10053.290
339.922, 10042.120
340.404, 10084.430
340.886, 10122.790
341.368, 10130.470
341.850, 10106.540
342.332, 10071.520
342.815, 10020.250
343.297, 9968.892
343.779, 9949.788
344.261, 9964.300
344.743, 9964.330
345.225, 9918.051
345.707, 9837.337
346.189, 9783.155
346.671, 9758.497
347.154, 9750.191
347.636, 9752.677
348.118, 9762.163
348.600, 9757.991
349.082, 9721.685
349.564, 9669.574
350.046, 9639.849
350.528, 9632.615
351.010, 9626.284
351.493, 9593.700
351.975, 9546.950
352.457, 9515.362
352.939, 9516.549
353.421, 9529.259
353.903, 9535.282
354.385, 9533.495
354.867, 9514.577
355.349, 9460.243
355.832, 9389.265
356.314, 9324.437
356.796, 9268.547
357.278, 9225.663
357.760, 9207.924
358.242, 9208.913
358.724, 9205.228
359.206, 9176.749
359.689, 9143.492
360.171, 9121.821
360.653, 9119.368
361.135, 9118.267
361.617, 9116.123
362.099, 9109.459
362.581, 9091.193
363.063, 9043.780
363.546, 8995.842
364.028, 8960.346
364.510, 8939.589
364.992, 8928.177
365.474, 8938.964
365.956, 8955.154
366.438, 8952.669
366.920, 8900.672
367.402, 8856.780
367.884, 8842.320
368.367, 8866.887
368.849, 8872.101
369.331, 8838.578
369.813, 8795.672
370.295, 8771.363
370.777, 8785.151
371.259, 8789.154
371.741, 8771.734
372.224, 8733.973
372.706, 8706.902
373.188, 8692.688
373.670, 8686.354
374.152, 8686.709
374.634, 8699.443
375.116, 8700.920
375.598, 8685.563
376.081, 8657.732
376.563, 8630.630
377.045, 8601.849
377.527, 8581.219
378.009, 8578.638
378.491, 8595.374
378.973, 8604.557
379.455, 8603.627
379.937, 8596.344
380.419, 8591.999
380.902, 8590.965
381.384, 8580.190
381.866, 8542.038
382.348, 8485.937
382.830, 8458.349
383.312, 8462.852
383.794, 8481.408
384.276, 8499.293
384.759, 8514.931
385.241, 8521.969
385.723, 8516.141
386.205, 8500.493
386.687, 8474.921
387.169, 8439.348
387.651, 8408.563
388.133, 8395.731
388.616, 8394.631
389.098, 8396.715
389.580, 8406.238
390.062, 8409.984
390.544, 8392.729
391.026, 8358.875
391.508, 8328.630
391.990, 8311.681
392.472, 8303.671
392.955, 8302.773
393.437, 8314.395
393.919, 8322.857
394.401, 8326.894
394.883, 8323.587
395.365, 8306.384
395.847, 8252.372
396.329, 8201.491
396.811, 8173.263
397.294, 8177.367
397.776, 8177.247
398.258, 8160.968
398.740, 8140.102
399.222, 8129.146
399.704, 8136.077
400.186, 8144.235
400.668, 8154.756
401.151, 8168.734
401.633, 8162.563
402.115, 8118.035
402.597, 8071.749
403.079, 8055.994
403.561, 8088.472
404.043, 8106.929
404.525, 8099.183
405.008, 8071.999
405.490, 8053.063
405.972, 8041.811
406.454, 8040.134
406.936, 8054.550
407.418, 8086.276
407.900, 8102.250
408.382, 8095.419
408.864, 8081.049
409.346, 8084.528
409.829, 8105.797
410.311, 8134.852
410.793, 8118.473
411.275, 8178.348
411.757, 8219.714
412.239, 8243.562
412.721, 8197.436
413.203, 8241.672
413.686, 8249.692
414.168, 8256.228
414.650, 8313.180
415.132, 8277.229
415.614, 8333.382
416.096, 8352.771
416.578, 8388.985
417.060, 8381.234
417.543, 8391.529
418.025, 8410.175
418.507, 8445.418
418.989, 8478.546
419.471, 8492.224
419.953, 8495.852
420.435, 8511.354
420.917, 8564.937
421.399, 8618.454
421.882, 8650.299
422.364, 8650.584
422.846, 8657.474
423.328, 8685.363
423.810, 8721.227
424.292, 8749.144
424.774, 8742.996
425.256, 8756.651
425.738, 8814.298
426.221, 8915.292
426.703, 8975.257
427.185, 8971.797
427.667, 8951.729
428.149, 8945.548
428.631, 8952.387
429.113, 8975.823
429.595, 9020.496
430.078, 9079.643
430.560, 9137.147
431.042, 9193.790
431.524, 9244.426
432.006, 9288.795
432.488, 9326.629
432.970, 9338.459
433.452, 9315.615
433.934, 9293.243
434.417, 9331.314
434.899, 9420.389
435.381, 9491.854
435.863, 9508.277
436.345, 9495.523
436.827, 9507.113
437.309, 9542.323
437.791, 9574.717
438.273, 9573.193
438.756, 9557.848
439.238, 9562.093
439.720, 9605.094
440.202, 9651.053
440.684, 9678.453
441.166, 9686.916
441.648, 9675.526
442.130, 9607.943
442.612, 9545.358
443.095, 9534.308
443.577, 9592.370
444.059, 9647.842
444.541, 9691.054
445.023, 9714.989
445.505, 9711.217
445.987, 9641.008
446.470, 9581.752
446.952, 9554.582
447.434, 9559.945
447.916, 9562.206
448.398, 9561.673
448.880, 9557.971
449.362, 9551.291
449.844, 9544.009
450.326, 9527.365
450.809, 9494.533
451.291, 9455.138
451.773, 9434.688
452.255, 9437.180
452.737, 9443.481
453.219, 9445.278
453.701, 9442.673
454.183, 9443.989
454.665, 9450.506
455.148, 9455.495
455.630, 9451.313
456.112, 9438.566
456.594, 9421.608
457.076, 9402.252
457.558, 9378.787
458.040, 9340.463
458.522, 9290.810
459.004, 9253.714
459.487, 9258.250
459.969, 9281.203
460.451, 9288.969
460.933, 9270.593
461.415, 9255.389
461.897, 9273.955
462.379, 9309.401
462.862, 9331.858
463.344, 9316.932
463.826, 9296.815
464.308, 9285.438
464.790, 9283.705
465.272, 9288.447
465.754, 9311.762
466.236, 9333.620
466.718, 9339.552
467.201, 9299.090
467.683, 9277.552
468.165, 9283.888
468.647, 9311.604
469.129, 9341.816
469.611, 9339.199
470.093, 9382.272
470.575, 9414.254
471.057, 9435.741
471.539, 9415.294
472.022, 9448.995
472.504, 9461.000
472.986, 9472.110
473.468, 9513.431
473.950, 9499.084
474.432, 9539.926
474.914, 9558.738
475.397, 9572.447
475.879, 9577.970
476.361, 9585.250
476.843, 9601.564
477.325, 9622.210
477.807, 9635.418
478.289, 9637.543
478.771, 9641.592
479.253, 9660.837
479.736, 9691.316
480.218, 9724.810
480.700, 9764.095
481.182, 9800.160
481.664, 9820.060
482.146, 9824.771
482.628, 9842.121
483.110, 9897.949
483.592, 9961.164
484.075, 10008.790
484.557, 10026.500
485.039, 10041.190
485.521, 10046.730
486.003, 10051.600
486.485, 10077.410
486.967, 10150.480
487.449, 10210.400
487.931, 10235.020
488.414, 10219.410
488.896, 10216.800
489.378, 10233.200
489.860, 10254.150
490.342, 10262.540
490.824, 10255.790
491.306, 10262.440
491.788, 10289.630
492.271, 10331.270
492.753, 10371.730
493.235, 10411.720
493.717, 10455.920
494.199, 10520.090
494.681, 10589.010
495.163, 10624.600
495.645, 10621.630
496.128, 10610.460
496.610, 10613.710
497.092, 10628.580
497.574, 10650.370
498.056, 10675.510
498.538, 10709.170
499.020, 10764.840
499.502, 10835.380
499.984, 10891.420
500.466, 10908.520
500.949, 10918.320
501.431, 10940.260
501.913, 10983.830
502.395, 11020.380
502.877, 11044.860
503.359, 11061.300
503.841, 11074.050
504.323, 11074.490
504.806, 11084.940
505.288, 11116.810
505.770, 11164.110
506.252, 11181.840
506.734, 11162.050
507.216, 11131.920
507.698, 11105.150
508.180, 11081.620
508.663, 11068.870
509.145, 11070.910
509.627, 11073.890
510.109, 11059.530
510.591, 11029.160
511.073, 10989.470
511.555, 10941.350
512.037, 10886.770
512.519, 10827.930
513.002, 10765.430
513.484, 10699.370
513.966, 10630.010
514.448, 10557.110
514.930, 10477.610
515.412, 10385.260
515.894, 10302.920
516.376, 10256.360
516.859, 10222.980
517.341, 10168.520
517.823, 10060.800
518.305, 9954.692
518.787, 9866.869
519.269, 9797.704
519.751, 9724.265
520.233, 9637.411
520.715, 9556.407
521.198, 9496.117
521.680, 9470.250
522.162, 9422.610
522.644, 9345.203
523.126, 9254.361
523.608, 9173.592
524.090, 9103.315
524.572, 9039.263
525.054, 8984.510
525.537, 8934.374
526.019, 8873.601
526.501, 8803.001
526.983, 8735.232
527.465, 8683.771
527.947, 8641.030
528.429, 8591.663
528.911, 8532.064
529.393, 8471.933
529.876, 8416.330
530.358, 8365.537
530.840, 8319.028
531.322, 8281.668
531.804, 8243.973
532.286, 8197.871
532.768, 8145.611
533.250, 8101.407
533.732, 8074.626
534.215, 8052.419
534.697, 8028.664
535.179, 8001.828
535.661, 7976.681
536.143, 7953.910
536.625, 7932.263
537.107, 7910.015
537.589, 7887.457
538.072, 7863.319
538.554, 7839.163
539.036, 7812.349
539.518, 7764.557
540.000, 7693.107
540.482, 7635.494
540.964, 7629.335
541.446, 7656.168
541.929, 7667.152
542.411, 7657.471
542.893, 7636.429
543.375, 7599.264
543.857, 7558.582
544.339, 7537.446
544.821, 7566.234
545.303, 7593.648
545.786, 7583.546
546.268, 7545.652
546.750, 7516.577
547.232, 7506.453
547.714, 7510.002
548.196, 7531.372
548.678, 7583.620
549.160, 7606.685
549.642, 7582.661
550.125, 7542.007
550.607, 7511.718
551.089, 7493.610
551.571, 7481.695
552.053, 7476.654
552.535, 7476.464
553.017, 7473.347
553.499, 7466.169
553.981, 7467.757
554.464, 7496.221
554.946, 7539.815
555.428, 7547.898
555.910, 7519.598
556.392, 7486.175
556.874, 7473.277
557.356, 7473.457
557.838, 7474.921
558.320, 7474.777
558.803, 7475.973
559.285, 7481.376
559.767, 7489.572
560.249, 7497.680
560.731, 7512.434
561.213, 7519.567
561.695, 7505.194
562.177, 7468.813
562.659, 7456.225
563.142, 7492.148
563.624, 7531.484
564.106, 7548.000
564.588, 7525.855
565.070, 7524.858
565.552, 7552.465
566.034, 7591.003
566.516, 7613.906
566.999, 7620.012
567.481, 7631.267
567.963, 7657.217
568.445, 7689.313
568.927, 7706.390
569.409, 7710.411
569.891, 7718.294
570.373, 7751.214
570.856, 7745.736
571.338, 7789.857
571.820, 7821.944
572.302, 7842.631
572.784, 7817.806
573.266, 7851.754
573.748, 7862.148
574.230, 7871.575
574.713, 7913.799
575.195, 7895.591
575.677, 7937.292
576.159, 7955.079
576.641, 7983.810
577.123, 7988.840
577.605, 8001.192
578.087, 8037.251
578.569, 8060.182
579.052, 8062.490
579.534, 8091.917
580.016, 8083.688
580.498, 8114.211
580.980, 8130.164
581.462, 8127.697
581.944, 8121.779
582.426, 8133.003
582.908, 8156.894
583.391, 8179.112
583.873, 8178.653
584.355, 8188.550
584.837, 8253.204
585.319, 8357.815
585.801, 8445.123
586.283, 8472.883
586.765, 8486.705
587.247, 8512.458
587.730, 8555.519
588.212, 8596.732
588.694, 8630.548
589.176, 8663.941
589.658, 8703.018
590.140, 8753.092
590.622, 8796.728
591.104, 8831.246
591.586, 8859.780
592.069, 8888.637
592.551, 8917.749
593.033, 8948.842
593.515, 8984.049
593.997, 9021.178
594.479, 9054.250
594.961, 9083.712
595.443, 9113.957
595.925, 9139.904
596.408, 9172.452
596.890, 9232.740
597.372, 9330.103
597.854, 9416.831
598.336, 9463.517
598.818, 9485.839
599.300, 9501.160
599.782, 9484.907
600.265, 9495.627
600.747, 9556.778
601.229, 9652.874
601.711, 9745.350
602.193, 9843.129
602.675, 9921.678
603.157, 9965.335
603.639, 9976.691
604.122, 10013.120
604.604, 10078.880
605.086, 10151.030
605.568, 10213.330
606.050, 10267.400
606.532, 10318.000
607.014, 10364.580
607.496, 10412.810
607.979, 10462.450
608.461, 10518.980
608.943, 10594.200
609.425, 10707.910
609.907, 10824.200
610.389, 10940.420
610.871, 11043.920
611.353, 11101.860
