##NAMES=Jamesonite
##RRUFFID=R050432
##IDEAL CHEMISTRY=Pb^2+^_4_Fe^2+^Sb^3+^_6_S^2-^_14_
##LOCALITY=San Jose mine, Oruro District, Bolivia
##OWNER=RRUFF
##SOURCE=University of Arizona Mineral Museum
##DESCRIPTION=Grayish black coarse acicular crystals
##STATUS=The identification of this mineral has been confirmed by X-ray diffraction and chemical analysis
##URL=rruff.info/R050432
##MEASURED CHEMISTRY=Pb_4.00_Fe_1.00_(Sb_5.95_As_0.05_)_Î£=6_S_14.00_
176.489, 16342.160
176.971, 16318.080
177.453, 16301.710
177.935, 16316.680
178.417, 16369.240
178.900, 16413.391
179.382, 16440.770
179.864, 16465.920
180.346, 16491.641
180.828, 16520.500
181.310, 16568.949
181.792, 16652.320
182.274, 16776.461
182.757, 16917.789
183.239, 17081.199
183.721, 17258.279
184.203, 17437.641
184.685, 17619.449
185.167, 17820.939
185.649, 18065.131
186.131, 18355.090
186.613, 18608.961
187.096, 18882.141
187.578, 19082.039
188.060, 19119.631
188.542, 18993.359
189.024, 18777.881
189.506, 18507.320
189.988, 18185.721
190.470, 17903.510
190.952, 17675.500
191.435, 17480.840
191.917, 17297.199
192.399, 17124.910
192.881, 16993.439
193.363, 16934.711
193.845, 16947.039
194.327, 16958.490
194.809, 16972.859
195.292, 16982.430
195.774, 16976.270
196.256, 16955.561
196.738, 16939.311
197.220, 16942.189
197.702, 16962.439
198.184, 16979.580
198.666, 16992.561
199.148, 17003.070
199.631, 17009.641
200.113, 17013.061
200.595, 17021.350
201.077, 17043.240
201.559, 17074.211
202.041, 17092.590
202.523, 17084.740
203.005, 17075.301
203.488, 17085.539
203.970, 17112.240
204.452, 17131.230
204.934, 17127.279
205.416, 17103.949
205.898, 17080.439
206.380, 17055.920
206.862, 17031.660
207.344, 17008.340
207.827, 16985.811
208.309, 16963.250
208.791, 16939.160
209.273, 16915.400
209.755, 16896.801
210.237, 16885.650
210.719, 16876.189
211.201, 16862.830
211.684, 16847.789
212.166, 16841.619
212.648, 16854.850
213.130, 16874.490
213.612, 16892.289
214.094, 16943.432
214.576, 16986.480
215.058, 17021.877
215.540, 17037.779
216.023, 17195.510
216.505, 17272.920
216.987, 17292.430
217.469, 17297.381
217.951, 17283.189
218.433, 17270.410
218.915, 17281.570
219.397, 17300.061
219.880, 17280.711
220.362, 17197.881
220.844, 17094.910
221.326, 17050.730
221.808, 17072.400
222.290, 17097.410
222.772, 17109.590
223.254, 17111.750
223.736, 17108.590
224.219, 17101.270
224.701, 17088.660
225.183, 17063.961
225.665, 17023.221
226.147, 16997.590
226.629, 17008.141
227.111, 17032.471
227.593, 17036.090
228.076, 17010.000
228.558, 16980.461
229.040, 16981.471
229.522, 17015.561
230.004, 17044.740
230.486, 17065.381
230.968, 17078.109
231.450, 17080.811
231.932, 17073.240
232.415, 17063.859
232.897, 17057.359
233.379, 17054.160
233.861, 17070.189
234.343, 17125.939
234.825, 17187.650
235.307, 17228.070
235.789, 17246.270
236.271, 17254.930
236.754, 17258.939
237.236, 17260.010
237.718, 17284.061
238.200, 17351.789
238.682, 17423.250
239.164, 17471.430
239.646, 17500.369
240.128, 17531.539
240.611, 17575.930
241.093, 17635.400
241.575, 17719.289
242.057, 17839.740
242.539, 17967.711
243.021, 18083.830
243.503, 18198.170
243.985, 18333.939
244.467, 18503.631
244.950, 18704.961
245.432, 18932.510
245.914, 19199.529
246.396, 19472.230
246.878, 19749.600
247.360, 20028.801
247.842, 20318.270
248.324, 20623.779
248.807, 20916.811
249.289, 21126.160
249.771, 21280.381
250.253, 21307.080
250.735, 21164.270
251.217, 20906.301
251.699, 20569.100
252.181, 20166.080
252.663, 19735.721
253.146, 19338.061
253.628, 18965.510
254.110, 18653.010
254.592, 18424.270
255.074, 18234.680
255.556, 18053.689
256.038, 17875.391
256.520, 17708.721
257.003, 17564.131
257.485, 17441.320
257.967, 17345.750
258.449, 17254.279
258.931, 17222.809
259.413, 17191.340
259.895, 17159.867
260.377, 17128.398
260.859, 17096.920
261.342, 17065.449
261.824, 17033.980
262.306, 17002.510
262.788, 16971.039
263.270, 16915.980
263.752, 16866.461
264.234, 16831.760
264.716, 16820.369
265.198, 16825.730
265.681, 16806.340
266.163, 16735.650
266.645, 16670.131
267.127, 16613.500
267.609, 16568.820
268.091, 16542.170
268.573, 16537.000
269.056, 16543.660
269.538, 16536.119
270.020, 16495.920
270.502, 16477.461
270.984, 16511.801
271.466, 16552.961
271.948, 16557.539
272.430, 16514.939
272.912, 16455.301
273.395, 16420.980
273.877, 16417.020
274.359, 16418.971
274.841, 16438.221
275.323, 16452.141
275.805, 16440.619
276.287, 16406.211
276.769, 16375.110
277.251, 16380.180
277.734, 16422.170
278.216, 16438.000
278.698, 16394.211
279.180, 16358.990
279.662, 16381.230
280.144, 16442.260
280.626, 16486.211
281.108, 16458.730
281.591, 16387.529
282.073, 16380.650
282.555, 16477.230
283.037, 16555.990
283.519, 16529.721
284.001, 16450.680
284.483, 16398.971
284.965, 16412.150
285.447, 16456.160
285.930, 16491.619
286.412, 16520.949
286.894, 16520.580
287.376, 16452.680
287.858, 16361.260
288.340, 16305.180
288.822, 16299.690
289.304, 16309.680
289.786, 16312.410
290.269, 16308.540
290.751, 16301.020
291.233, 16289.760
291.715, 16276.720
292.197, 16266.630
292.679, 16261.300
293.161, 16248.180
293.643, 16208.270
294.125, 16160.090
294.608, 16143.490
295.090, 16170.850
295.572, 16205.310
296.054, 16201.670
296.536, 16158.820
297.018, 16128.600
297.500, 16115.900
297.983, 16118.980
298.465, 16142.400
298.947, 16183.990
299.429, 16228.320
299.911, 16266.930
300.393, 16297.830
300.875, 16305.430
301.357, 16254.000
301.839, 16217.510
302.322, 16245.990
302.804, 16313.800
303.286, 16360.160
303.768, 16352.120
304.250, 16306.470
304.732, 16279.480
305.214, 16274.440
305.696, 16284.690
306.178, 16329.830
306.661, 16381.200
307.143, 16400.840
307.625, 16379.420
308.107, 16348.880
308.589, 16363.440
309.071, 16468.100
309.553, 16511.170
310.035, 16453.570
310.517, 16377.330
311.000, 16325.970
311.482, 16303.320
311.964, 16291.290
312.446, 16271.390
312.928, 16242.590
313.410, 16239.090
313.892, 16304.940
314.374, 16350.750
314.857, 16333.380
315.339, 16281.380
315.821, 16246.730
316.303, 16261.960
316.785, 16306.510
317.267, 16320.260
317.749, 16287.730
318.231, 16259.160
318.714, 16251.280
319.196, 16251.930
319.678, 16249.350
320.160, 16239.860
320.642, 16232.470
321.124, 16241.140
321.606, 16266.290
322.088, 16282.910
322.570, 16284.340
323.052, 16275.640
323.535, 16253.410
324.017, 16219.780
324.499, 16202.080
324.981, 16225.840
325.463, 16275.530
325.945, 16314.350
326.427, 16337.200
326.909, 16354.540
327.392, 16378.180
327.874, 16403.439
328.356, 16413.910
328.838, 16403.039
329.320, 16378.870
329.802, 16338.040
330.284, 16284.590
330.766, 16250.360
331.249, 16260.070
331.731, 16294.890
332.213, 16293.670
332.695, 16229.040
333.177, 16178.130
333.659, 16176.450
334.141, 16199.860
334.623, 16212.760
335.105, 16204.370
335.588, 16183.610
336.070, 16162.610
336.552, 16140.580
337.034, 16121.490
337.516, 16107.790
337.998, 16095.230
338.480, 16080.250
338.962, 16063.410
339.444, 16047.450
339.927, 16033.690
340.409, 16022.220
340.891, 16023.300
341.373, 16058.860
341.855, 16083.130
342.337, 16080.730
342.819, 16062.440
343.301, 16040.130
343.784, 16018.590
344.266, 16004.460
344.748, 16016.280
345.230, 16068.900
345.712, 16110.680
346.194, 16127.860
346.676, 16136.810
347.158, 16144.420
347.641, 16153.190
348.123, 16169.190
348.605, 16207.760
349.087, 16265.970
349.569, 16293.780
350.051, 16268.570
350.533, 16241.390
351.015, 16250.500
351.497, 16282.410
351.979, 16302.410
352.462, 16283.830
352.944, 16253.720
353.426, 16257.260
353.908, 16296.740
354.390, 16326.140
354.872, 16320.670
355.354, 16290.780
355.836, 16263.550
356.319, 16242.430
356.801, 16216.840
357.283, 16176.190
357.765, 16128.090
358.247, 16087.460
358.729, 16057.860
359.211, 16039.150
359.693, 16034.650
360.176, 16051.300
360.658, 16052.500
361.140, 16021.450
361.622, 15986.990
362.104, 15968.550
362.586, 15966.370
363.068, 15973.950
363.550, 15989.050
364.032, 16009.180
364.515, 16009.920
364.997, 15956.160
365.479, 15923.900
365.961, 15941.130
366.443, 15979.680
366.925, 16003.590
367.407, 16000.230
367.889, 15989.760
368.371, 16008.550
368.854, 16070.430
369.336, 16117.930
369.818, 16141.970
370.300, 16155.880
370.782, 16164.370
371.264, 16168.190
371.746, 16167.070
372.228, 16159.440
372.711, 16146.630
373.193, 16135.960
373.675, 16131.460
374.157, 16119.250
374.639, 16072.830
375.121, 16020.220
375.603, 16004.660
376.085, 16052.070
376.568, 16104.930
377.050, 16104.690
377.532, 16061.480
378.014, 16031.360
378.496, 16034.770
378.978, 16051.730
379.460, 16057.000
379.942, 16052.210
380.424, 16033.790
380.906, 15989.330
381.389, 15937.930
381.871, 15893.920
382.353, 15860.440
382.835, 15846.210
383.317, 15863.470
383.799, 15908.610
384.281, 15922.420
384.763, 15874.850
385.246, 15836.580
385.728, 15834.300
386.210, 15848.730
386.692, 15852.300
387.174, 15835.010
387.656, 15807.930
388.138, 15790.340
388.620, 15788.900
389.103, 15780.620
389.585, 15740.260
390.067, 15715.080
390.549, 15745.120
391.031, 15815.790
391.513, 15873.720
391.995, 15872.810
392.477, 15831.500
392.959, 15826.810
393.442, 15875.210
393.924, 15921.000
394.406, 15933.200
394.888, 15933.830
395.370, 15948.510
395.852, 15985.900
396.334, 16024.150
396.816, 16045.710
397.298, 16052.880
397.781, 16056.400
398.263, 16060.790
398.745, 16056.350
399.227, 16019.000
399.709, 15950.430
400.191, 15916.370
400.673, 15954.130
401.155, 16008.960
401.638, 16044.680
402.120, 16059.190
402.602, 16054.800
403.084, 16030.600
403.566, 15992.140
404.048, 15959.700
404.530, 15942.940
405.012, 15920.570
405.495, 15875.850
405.977, 15834.070
406.459, 15825.930
406.941, 15853.390
407.423, 15885.300
407.905, 15882.840
408.387, 15840.820
408.869, 15822.280
409.351, 15847.350
409.833, 15875.010
410.316, 15888.360
410.798, 15895.720
411.280, 15913.500
411.762, 15952.120
412.244, 15995.710
412.726, 16018.460
413.208, 16018.840
413.690, 16016.920
414.173, 16019.560
414.655, 16019.600
415.137, 16002.790
415.619, 15968.290
416.101, 15953.190
416.583, 15990.710
417.065, 16047.660
417.547, 16076.240
418.030, 16073.230
418.512, 16065.440
418.994, 16071.120
419.476, 16087.740
419.958, 16098.390
420.440, 16101.270
420.922, 16101.600
421.404, 16100.080
421.886, 16097.230
422.369, 16092.140
422.851, 16085.080
423.333, 16080.300
423.815, 16084.150
424.297, 16099.460
424.779, 16111.180
425.261, 16124.230
425.743, 16128.840
426.225, 16117.440
426.708, 16095.290
427.190, 16069.930
427.672, 16042.160
428.154, 16020.930
428.636, 16030.140
429.118, 16077.070
429.600, 16111.450
430.082, 16112.590
430.565, 16101.390
431.047, 16096.390
431.529, 16098.190
432.011, 16100.930
432.493, 16086.843
432.975, 16121.045
433.457, 16143.525
433.939, 16154.915
434.422, 16121.990
434.904, 16146.286
435.386, 16147.651
435.868, 16148.076
436.350, 16180.426
436.832, 16175.230
437.314, 16174.020
437.796, 16178.220
438.278, 16195.510
438.760, 16226.810
439.243, 16262.620
439.725, 16289.600
440.207, 16303.780
440.689, 16335.250
441.171, 16414.211
441.653, 16479.109
442.135, 16495.330
442.617, 16488.830
443.100, 16504.439
443.582, 16564.789
444.064, 16641.740
444.546, 16690.820
445.028, 16709.980
445.510, 16724.711
445.992, 16733.391
446.474, 16746.830
446.957, 16780.721
447.439, 16831.551
447.921, 16868.461
448.403, 16890.039
448.885, 16885.980
449.367, 16827.840
449.849, 16723.100
450.331, 16634.721
450.813, 16598.109
451.296, 16596.520
451.778, 16582.721
452.260, 16556.869
452.742, 16519.961
453.224, 16463.580
453.706, 16402.141
454.188, 16341.160
454.670, 16285.820
455.152, 16250.440
455.635, 16252.370
456.117, 16286.500
456.599, 16293.440
457.081, 16252.870
457.563, 16214.970
458.045, 16195.931
458.527, 16208.579
459.009, 16213.535
459.492, 16211.213
459.974, 16179.812
460.456, 16185.960
460.938, 16177.061
461.420, 16167.543
461.902, 16178.976
462.384, 16151.804
462.866, 16162.905
463.349, 16158.729
463.831, 16161.544
464.313, 16146.090
464.795, 16145.700
465.277, 16130.900
465.759, 16107.950
466.241, 16088.580
466.723, 16076.590
467.205, 16069.560
467.688, 16064.380
468.170, 16061.800
468.652, 16058.630
469.134, 16053.240
469.616, 16049.010
470.098, 16043.050
470.580, 16039.900
471.062, 16051.200
471.544, 16085.180
472.027, 16121.870
472.509, 16120.720
472.991, 16075.500
473.473, 16040.190
473.955, 16030.390
474.437, 16027.160
474.919, 16015.720
475.401, 15996.950
475.884, 15976.760
476.366, 15948.730
476.848, 15926.190
477.330, 15931.010
477.812, 15958.010
478.294, 15976.980
478.776, 15974.340
479.258, 15956.120
479.741, 15933.180
480.223, 15897.420
480.705, 15874.140
481.187, 15876.290
481.669, 15881.030
482.151, 15872.310
482.633, 15851.860
483.115, 15828.460
483.597, 15805.420
484.079, 15788.610
484.562, 15802.790
485.044, 15867.150
485.526, 15913.060
486.008, 15908.800
486.490, 15891.580
486.972, 15884.610
487.454, 15889.550
487.936, 15898.910
488.419, 15909.890
488.901, 15921.720
489.383, 15936.440
489.865, 15953.740
490.347, 15960.040
490.829, 15945.420
491.311, 15916.630
491.793, 15891.870
492.276, 15869.150
492.758, 15853.120
493.240, 15847.310
493.722, 15846.730
494.204, 15849.790
494.686, 15854.590
495.168, 15855.590
495.650, 15846.980
496.132, 15832.360
496.615, 15834.570
497.097, 15876.890
497.579, 15890.280
498.061, 15829.050
498.543, 15755.360
499.025, 15725.730
499.507, 15744.400
499.989, 15759.960
500.471, 15726.870
500.954, 15669.900
501.436, 15644.250
501.918, 15653.730
502.400, 15664.600
502.882, 15656.670
503.364, 15637.720
503.846, 15632.770
504.328, 15653.360
504.810, 15663.860
505.293, 15645.880
505.775, 15622.890
506.257, 15617.030
506.739, 15629.290
507.221, 15646.430
507.703, 15656.910
508.185, 15664.690
508.668, 15658.938
509.150, 15670.410
509.632, 15677.702
510.114, 15681.037
510.596, 15668.562
511.078, 15676.502
511.560, 15676.261
512.042, 15675.685
512.524, 15686.497
513.006, 15676.322
513.489, 15686.954
513.971, 15687.760
514.453, 15679.050
514.935, 15673.650
515.417, 15672.380
515.899, 15679.310
516.381, 15705.260
516.864, 15716.340
517.346, 15694.340
517.828, 15666.200
518.310, 15653.430
518.792, 15655.730
519.274, 15660.240
519.756, 15657.190
520.238, 15651.020
520.720, 15658.970
521.203, 15687.800
521.685, 15712.990
522.167, 15735.030
522.649, 15746.970
523.131, 15740.190
523.613, 15716.160
524.095, 15689.530
524.577, 15656.510
525.059, 15631.290
525.542, 15642.290
526.024, 15683.870
526.506, 15714.630
526.988, 15717.030
527.470, 15697.010
527.952, 15664.430
528.434, 15609.860
528.916, 15564.340
529.398, 15522.940
529.881, 15495.290
530.363, 15489.310
530.845, 15501.440
531.327, 15528.460
531.809, 15571.730
532.291, 15611.790
532.773, 15598.820
533.255, 15521.940
533.737, 15484.600
534.220, 15532.830
534.702, 15587.000
535.184, 15578.700
535.666, 15523.060
536.148, 15476.920
536.630, 15447.940
537.112, 15439.510
537.594, 15463.970
538.077, 15509.880
538.559, 15555.740
539.041, 15594.700
539.523, 15616.170
540.005, 15599.840
540.487, 15533.170
540.969, 15512.420
541.451, 15588.880
541.933, 15653.220
542.416, 15676.770
542.898, 15670.730
543.380, 15646.590
543.862, 15607.820
544.344, 15567.660
544.826, 15537.150
545.308, 15516.530
545.791, 15508.510
546.273, 15515.760
546.755, 15526.130
547.237, 15537.020
547.719, 15543.890
548.201, 15531.720
548.683, 15483.050
549.165, 15444.190
549.647, 15432.010
550.130, 15432.730
550.612, 15431.230
551.094, 15426.840
551.576, 15430.790
552.058, 15454.800
552.540, 15491.150
553.022, 15501.500
553.504, 15472.330
553.987, 15448.910
554.469, 15434.740
554.951, 15435.180
555.433, 15467.360
555.915, 15526.430
556.397, 15565.400
556.879, 15551.200
557.361, 15513.580
557.843, 15473.830
558.326, 15438.210
558.808, 15438.200
559.290, 15491.040
559.772, 15563.960
560.254, 15604.030
560.736, 15606.750
561.218, 15588.190
561.700, 15511.880
562.182, 15455.300
562.665, 15468.910
563.147, 15518.840
563.629, 15547.130
564.111, 15530.660
564.593, 15498.520
565.075, 15486.000
565.557, 15490.160
566.039, 15488.620
566.521, 15478.660
567.004, 15463.700
567.486, 15444.310
567.968, 15421.690
568.450, 15400.800
568.932, 15376.240
569.414, 15361.410
569.896, 15369.110
570.378, 15383.120
570.860, 15386.090
571.343, 15376.910
571.825, 15363.590
572.307, 15349.870
572.789, 15340.110
573.271, 15358.070
573.753, 15420.910
574.235, 15461.910
574.718, 15448.360
575.200, 15421.920
575.682, 15410.400
576.164, 15414.860
576.646, 15433.990
577.128, 15491.690
577.610, 15543.710
578.092, 15540.420
578.574, 15497.440
579.057, 15460.620
579.539, 15446.080
580.021, 15443.850
580.503, 15439.590
580.985, 15430.610
581.467, 15435.820
581.949, 15481.590
582.431, 15511.990
582.914, 15492.730
583.396, 15458.740
583.878, 15459.000
584.360, 15506.410
584.842, 15554.240
585.324, 15564.420
585.806, 15545.910
586.288, 15510.180
586.770, 15457.830
587.253, 15427.550
587.735, 15447.890
588.217, 15498.180
588.699, 15523.190
589.181, 15507.410
589.663, 15493.190
590.145, 15485.530
590.627, 15475.880
591.109, 15452.580
591.592, 15423.270
592.074, 15406.660
592.556, 15413.130
593.038, 15431.730
593.520, 15447.430
594.002, 15460.210
594.484, 15469.520
594.966, 15476.830
595.448, 15476.300
595.931, 15458.830
596.413, 15428.090
596.895, 15405.950
597.377, 15386.090
597.859, 15382.790
598.341, 15416.540
598.823, 15459.300
599.305, 15476.990
599.787, 15469.260
600.270, 15463.650
600.752, 15484.370
601.234, 15520.360
601.716, 15527.840
602.198, 15497.290
602.680, 15481.000
603.162, 15505.350
603.644, 15533.920
604.127, 15529.810
604.609, 15497.220
605.091, 15469.190
605.573, 15447.840
606.055, 15438.670
606.537, 15455.020
607.019, 15483.110
607.501, 15497.620
607.984, 15492.010
608.466, 15478.420
608.948, 15468.870
609.430, 15463.330
609.912, 15465.210
610.394, 15481.890
610.876, 15491.450
611.358, 15480.460
611.841, 15463.280
612.323, 15454.020
612.805, 15453.590
613.287, 15448.570
613.769, 15423.210
614.251, 15398.230
614.733, 15401.410
615.215, 15423.730
615.697, 15429.490
616.180, 15403.710
616.662, 15378.570
617.144, 15408.650
617.626, 15510.570
618.108, 15560.510
618.590, 15512.340
619.072, 15471.050
619.554, 15481.600
620.036, 15510.380
620.519, 15515.580
621.001, 15488.210
621.483, 15457.470
621.965, 15440.940
622.447, 15431.260
622.929, 15411.310
623.411, 15384.970
623.893, 15384.810
624.375, 15430.430
624.858, 15491.650
625.340, 15507.240
625.822, 15454.600
626.304, 15426.110
626.786, 15447.710
627.268, 15466.480
627.750, 15455.690
628.232, 15434.130
628.714, 15433.920
629.197, 15466.420
629.679, 15498.340
630.161, 15503.510
630.643, 15491.970
631.125, 15478.190
631.607, 15464.440
632.089, 15459.390
632.571, 15469.600
633.054, 15486.860
633.536, 15491.360
634.018, 15476.730
634.500, 15463.080
634.982, 15453.220
635.464, 15441.190
635.946, 15414.100
636.428, 15385.550
636.911, 15381.460
637.393, 15413.300
637.875, 15452.910
638.357, 15483.160
638.839, 15502.670
639.321, 15503.750
639.803, 15487.040
640.285, 15475.060
640.768, 15482.610
641.250, 15501.270
641.732, 15506.390
642.214, 15477.530
642.696, 15475.350
643.178, 15537.060
643.660, 15586.130
644.142, 15576.240
644.624, 15530.540
645.107, 15494.220
645.589, 15482.320
646.071, 15482.240
646.553, 15493.140
647.035, 15505.820
647.517, 15497.980
647.999, 15468.690
648.481, 15435.690
648.963, 15407.490
649.446, 15388.380
649.928, 15392.970
650.410, 15445.870
650.892, 15471.780
651.374, 15441.710
651.856, 15413.850
652.338, 15417.490
652.820, 15441.290
653.302, 15462.990
653.785, 15476.030
654.267, 15483.740
654.749, 15488.070
655.231, 15488.770
655.713, 15480.780
656.195, 15465.730
656.677, 15462.760
657.159, 15485.470
657.641, 15520.630
658.124, 15534.020
658.606, 15515.000
659.088, 15500.390
659.570, 15492.850
660.052, 15487.820
660.534, 15491.580
661.016, 15494.410
661.498, 15475.110
661.981, 15420.900
662.463, 15376.930
662.945, 15383.520
663.427, 15411.260
663.909, 15414.230
664.391, 15394.860
664.873, 15391.850
665.355, 15428.660
665.838, 15477.230
666.320, 15473.830
666.802, 15397.800
667.284, 15350.730
667.766, 15344.080
668.248, 15353.280
668.730, 15379.670
669.212, 15409.370
669.695, 15419.140
670.177, 15401.500
670.659, 15383.870
671.141, 15369.540
671.623, 15367.310
