##NAMES=Jamesonite
##RRUFFID=R050430
##IDEAL CHEMISTRY=Pb^2+^_4_Fe^2+^Sb^3+^_6_S^2-^_14_
##LOCALITY=Zacatecas, Mexico
##OWNER=RRUFF
##SOURCE=University of Arizona Mineral Museum
##DESCRIPTION=Grayish black coarsely acicular crystals
##STATUS=The identification of this mineral has been confirmed by X-ray diffraction and chemical analysis
##URL=rruff.info/R050430
##MEASURED CHEMISTRY=Pb_4.02_Fe_1.00_Sb_5.98_S_14.00_
103.685, 333.053
104.167, 363.909
104.649, 388.495
105.131, 404.914
105.613, 428.843
106.095, 464.181
106.577, 505.536
107.060, 544.253
107.542, 575.732
108.024, 609.234
108.506, 648.466
108.988, 700.241
109.470, 747.227
109.952, 785.946
110.434, 818.684
110.916, 854.577
111.399, 892.348
111.881, 934.269
112.363, 982.046
112.845, 1040.312
113.327, 1099.449
113.809, 1161.806
114.291, 1227.447
114.773, 1283.041
115.256, 1313.048
115.738, 1334.771
116.220, 1366.324
116.702, 1430.919
117.184, 1493.619
117.666, 1537.081
118.148, 1557.278
118.630, 1566.942
119.113, 1563.594
119.595, 1553.548
120.077, 1550.856
120.559, 1571.339
121.041, 1598.284
121.523, 1616.423
122.005, 1619.688
122.487, 1616.340
122.969, 1608.278
123.451, 1596.839
123.934, 1591.673
124.416, 1602.351
124.898, 1623.849
125.380, 1647.377
125.862, 1672.035
126.344, 1696.096
126.826, 1716.808
127.308, 1733.635
127.791, 1749.000
128.273, 1766.122
128.755, 1784.166
129.237, 1799.563
129.719, 1806.576
130.201, 1809.029
130.683, 1819.547
131.165, 1840.753
131.648, 1867.333
132.130, 1892.649
132.612, 1916.698
133.094, 1938.023
133.576, 1955.794
134.058, 1969.834
134.540, 1979.929
135.022, 1984.629
135.504, 1985.659
135.986, 1990.469
136.469, 2000.081
136.951, 2009.963
137.433, 2014.057
137.915, 2010.712
138.397, 2011.894
138.879, 2025.111
139.361, 2051.227
139.844, 2058.837
140.326, 2042.430
140.808, 2014.364
141.290, 1993.520
141.772, 1982.290
142.254, 1973.455
142.736, 1962.844
143.218, 1944.458
143.700, 1941.305
144.182, 1961.505
144.665, 1995.775
145.147, 2014.062
145.629, 2003.963
146.111, 1991.708
146.593, 1991.816
147.075, 2013.806
147.557, 2033.811
148.039, 2051.511
148.522, 2066.688
149.004, 2074.815
149.486, 2070.163
149.968, 2061.814
150.450, 2056.834
150.932, 2059.669
151.414, 2061.525
151.896, 2061.496
152.378, 2059.754
152.861, 2055.833
153.343, 2046.777
153.825, 2036.551
154.307, 2030.025
154.789, 2028.724
155.271, 2030.541
155.753, 2036.130
156.235, 2049.308
156.717, 2057.435
157.200, 2053.138
157.682, 2042.098
158.164, 2036.600
158.646, 2042.925
159.128, 2053.461
159.610, 2064.050
160.092, 2071.616
160.574, 2081.636
161.057, 2101.658
161.539, 2127.889
162.021, 2142.652
162.503, 2123.504
162.985, 2096.634
163.467, 2083.938
163.949, 2106.809
164.431, 2133.380
164.913, 2149.012
165.396, 2153.728
165.878, 2155.194
166.360, 2154.042
166.842, 2152.893
167.324, 2155.104
167.806, 2167.488
168.288, 2180.357
168.770, 2186.070
169.253, 2183.371
169.735, 2179.150
170.217, 2179.544
170.699, 2181.961
171.181, 2181.097
171.663, 2169.155
172.145, 2154.784
172.627, 2147.025
173.109, 2147.444
173.592, 2153.300
174.074, 2167.055
174.556, 2185.904
175.038, 2199.052
175.520, 2195.431
176.002, 2182.632
176.484, 2172.654
176.966, 2167.365
177.449, 2166.374
177.931, 2172.487
178.413, 2184.691
178.895, 2194.029
179.377, 2189.675
179.859, 2176.815
180.341, 2168.151
180.823, 2168.369
181.305, 2174.395
181.788, 2181.815
182.270, 2190.588
182.752, 2200.005
183.234, 2210.609
183.716, 2221.680
184.198, 2229.887
184.680, 2235.691
185.162, 2237.646
185.645, 2228.772
186.127, 2206.957
186.609, 2185.021
187.091, 2182.650
187.573, 2197.816
188.055, 2211.287
188.537, 2212.057
189.019, 2202.791
189.501, 2196.226
189.984, 2193.332
190.466, 2192.202
190.948, 2188.809
191.430, 2183.087
191.912, 2179.770
192.394, 2182.997
192.876, 2192.126
193.358, 2199.646
193.840, 2204.180
194.323, 2207.550
194.805, 2216.777
195.287, 2233.335
195.769, 2244.167
196.251, 2236.237
196.733, 2209.029
197.215, 2186.408
197.697, 2170.924
198.180, 2162.951
198.662, 2166.586
199.144, 2184.330
199.626, 2203.582
200.108, 2211.135
200.590, 2205.299
201.072, 2204.318
201.554, 2215.500
202.036, 2235.781
202.519, 2239.110
203.001, 2219.213
203.483, 2197.185
203.965, 2199.056
204.447, 2230.238
204.929, 2257.425
205.411, 2269.360
205.893, 2266.116
206.376, 2268.037
206.858, 2277.984
207.340, 2288.545
207.822, 2286.294
208.304, 2265.153
208.786, 2252.321
209.268, 2261.963
209.750, 2299.073
210.232, 2317.631
210.715, 2312.055
211.197, 2294.229
211.679, 2284.614
212.161, 2284.906
212.643, 2289.393
213.125, 2296.438
213.607, 2307.092
214.089, 2316.379
214.572, 2323.276
215.054, 2329.354
215.536, 2340.266
216.018, 2361.376
216.500, 2376.424
216.982, 2374.583
217.464, 2347.669
217.946, 2328.619
218.428, 2319.199
218.911, 2318.525
219.393, 2326.034
219.875, 2348.340
220.357, 2367.703
220.839, 2370.559
221.321, 2345.596
221.803, 2334.459
222.285, 2345.442
222.768, 2374.205
223.250, 2395.257
223.732, 2409.276
224.214, 2415.139
224.696, 2409.746
225.178, 2383.561
225.660, 2367.947
226.142, 2370.052
226.624, 2388.233
227.107, 2400.209
227.589, 2404.404
228.071, 2404.273
228.553, 2402.062
229.035, 2395.456
229.517, 2391.309
229.999, 2391.948
230.481, 2397.359
230.964, 2397.688
231.446, 2387.770
231.928, 2377.859
232.410, 2379.754
232.892, 2405.242
233.374, 2420.225
233.856, 2415.129
234.338, 2388.304
234.820, 2365.920
235.303, 2345.615
235.785, 2332.043
236.267, 2332.384
236.749, 2357.868
237.231, 2377.617
237.713, 2383.690
238.195, 2374.740
238.677, 2361.253
239.159, 2338.036
239.642, 2314.159
240.124, 2302.489
240.606, 2310.245
241.088, 2318.316
241.570, 2321.620
242.052, 2319.535
242.534, 2315.628
243.016, 2309.641
243.499, 2301.934
243.981, 2292.578
244.463, 2279.057
244.945, 2267.868
245.427, 2262.089
245.909, 2264.481
246.391, 2261.349
246.873, 2249.233
247.355, 2233.291
247.837, 2223.866
248.320, 2227.730
248.802, 2226.960
249.284, 2213.494
249.766, 2181.501
250.248, 2156.265
250.730, 2140.214
251.212, 2129.824
251.695, 2118.255
252.177, 2105.014
252.659, 2091.562
253.141, 2077.360
253.623, 2059.271
254.105, 2051.284
254.587, 2060.498
255.069, 2076.648
255.551, 2074.345
256.034, 2042.772
256.516, 2011.890
256.998, 1995.991
257.480, 2002.993
257.962, 2003.118
258.444, 1993.033
258.926, 1977.210
259.408, 1967.725
259.890, 1969.480
260.373, 1968.344
260.855, 1954.426
261.337, 1917.989
261.819, 1900.315
262.301, 1910.723
262.783, 1936.831
263.265, 1944.295
263.747, 1927.331
264.229, 1903.822
264.712, 1880.472
265.194, 1855.033
265.676, 1839.201
266.158, 1836.442
266.640, 1842.450
267.122, 1846.475
267.604, 1849.803
268.086, 1848.269
268.569, 1838.205
269.051, 1817.002
269.533, 1798.226
270.015, 1782.240
270.497, 1769.464
270.979, 1762.310
271.461, 1762.927
271.943, 1762.953
272.426, 1758.770
272.908, 1751.023
273.390, 1734.079
273.872, 1703.890
274.354, 1667.103
274.836, 1641.296
275.318, 1627.035
275.800, 1620.811
276.282, 1625.243
276.764, 1642.635
277.247, 1645.609
277.729, 1627.974
278.211, 1597.869
278.693, 1575.511
279.175, 1561.887
279.657, 1550.846
280.139, 1538.268
280.621, 1524.019
281.104, 1513.210
281.586, 1507.781
282.068, 1504.380
282.550, 1494.859
283.032, 1478.763
283.514, 1460.629
283.996, 1443.430
284.478, 1427.046
284.961, 1407.379
285.443, 1381.141
285.925, 1355.458
286.407, 1349.057
286.889, 1362.505
287.371, 1376.259
287.853, 1376.758
288.335, 1365.820
288.817, 1356.343
289.299, 1349.553
289.782, 1344.985
290.264, 1343.842
290.746, 1345.832
291.228, 1344.289
291.710, 1332.650
292.192, 1313.306
292.674, 1296.321
293.156, 1282.524
293.639, 1271.676
294.121, 1264.391
294.603, 1260.459
295.085, 1256.884
295.567, 1250.318
296.049, 1242.809
296.531, 1239.118
297.013, 1239.495
297.496, 1238.379
297.978, 1246.995
298.460, 1253.249
298.942, 1257.268
299.424, 1252.355
299.906, 1258.975
300.388, 1260.973
300.870, 1265.259
301.352, 1277.477
301.835, 1284.222
302.317, 1286.985
302.799, 1290.742
303.281, 1298.477
303.763, 1308.638
304.245, 1319.627
304.727, 1331.802
305.209, 1342.601
305.691, 1346.877
306.174, 1347.717
306.656, 1352.851
307.138, 1370.032
307.620, 1391.398
308.102, 1409.254
308.584, 1422.319
309.066, 1434.622
309.548, 1450.574
310.030, 1467.834
310.513, 1482.405
310.995, 1487.162
311.477, 1492.232
311.959, 1506.275
312.441, 1530.711
312.923, 1556.658
313.405, 1579.747
313.888, 1600.936
314.370, 1621.228
314.852, 1639.653
315.334, 1658.849
315.816, 1680.755
316.298, 1705.707
316.780, 1730.550
317.262, 1751.121
317.744, 1772.100
318.227, 1798.781
318.709, 1844.975
319.191, 1886.458
319.673, 1912.543
320.155, 1922.296
320.637, 1929.318
321.119, 1934.246
321.601, 1939.533
322.083, 1947.384
322.566, 1969.484
323.048, 1982.876
323.530, 1977.243
324.012, 1952.406
324.494, 1933.469
324.976, 1959.763
325.458, 1973.296
325.940, 1931.522
326.422, 1718.579
326.905, 1676.225
327.387, 1653.521
327.869, 1626.038
328.351, 1594.049
328.833, 1544.032
329.315, 1517.297
329.797, 1481.230
330.279, 1444.782
330.762, 1421.322
331.244, 1394.050
331.726, 1389.516
332.208, 1379.464
332.690, 1364.189
333.172, 1328.052
333.654, 1318.853
334.136, 1298.856
334.618, 1284.207
335.101, 1241.095
335.583, 1200.145
336.065, 1173.968
336.547, 1170.636
337.029, 1166.220
337.511, 1147.127
337.993, 1108.582
338.475, 1075.079
338.957, 1046.192
339.440, 1023.626
339.922, 1015.467
340.404, 1026.134
340.886, 1031.276
341.368, 1016.833
341.850, 981.619
342.332, 951.476
342.815, 926.193
343.297, 905.684
343.779, 889.292
344.261, 877.117
344.743, 869.667
345.225, 870.323
345.707, 876.826
346.189, 875.926
346.671, 866.651
347.154, 855.062
347.636, 848.118
348.118, 845.071
348.600, 841.471
349.082, 834.526
349.564, 826.289
350.046, 821.781
350.528, 821.042
351.010, 820.583
351.493, 815.935
351.975, 809.153
352.457, 805.327
352.939, 808.742
353.421, 813.375
353.903, 811.994
354.385, 805.049
354.867, 795.962
355.349, 785.476
355.832, 774.805
356.314, 765.413
356.796, 757.454
357.278, 751.268
357.760, 747.115
358.242, 745.043
358.724, 745.032
359.206, 751.645
359.689, 757.683
360.171, 756.609
360.653, 743.519
361.135, 731.403
361.617, 726.444
362.099, 726.534
362.581, 727.192
363.063, 731.448
363.546, 732.359
364.028, 723.720
364.510, 698.920
364.992, 684.422
365.474, 699.808
365.956, 725.563
366.438, 733.509
366.920, 697.571
367.402, 665.242
367.884, 650.765
368.367, 658.479
368.849, 662.677
369.331, 657.966
369.813, 652.265
370.295, 653.345
370.777, 670.877
371.259, 681.241
371.741, 678.051
372.224, 662.013
372.706, 651.456
373.188, 647.326
373.670, 647.583
374.152, 653.017
374.634, 669.287
375.116, 672.899
375.598, 656.045
376.081, 626.164
376.563, 609.709
377.045, 608.720
377.527, 614.793
378.009, 625.995
378.491, 642.693
378.973, 651.445
379.455, 649.487
379.937, 642.439
380.419, 642.271
380.902, 649.120
381.384, 651.356
381.866, 637.465
382.348, 612.575
382.830, 601.053
383.312, 604.310
383.794, 615.736
384.276, 633.455
384.759, 654.435
385.241, 666.813
385.723, 662.804
386.205, 648.528
386.687, 629.683
387.169, 606.331
387.651, 587.866
388.133, 586.680
388.616, 594.076
389.098, 596.533
389.580, 584.337
390.062, 571.863
390.544, 571.368
391.026, 580.719
391.508, 589.825
391.990, 592.455
392.472, 593.165
392.955, 596.038
393.437, 604.556
393.919, 610.362
394.401, 608.081
394.883, 600.749
395.365, 594.802
395.847, 590.924
396.329, 589.656
396.811, 592.756
397.294, 603.489
397.776, 608.130
398.258, 596.594
398.740, 580.711
399.222, 575.278
399.704, 591.478
400.186, 606.058
400.668, 615.558
401.151, 619.987
401.633, 618.602
402.115, 607.024
402.597, 594.032
403.079, 587.144
403.561, 589.857
404.043, 589.968
404.525, 585.687
405.008, 577.648
405.490, 567.058
405.972, 551.360
406.454, 540.742
406.936, 545.849
407.418, 567.885
407.900, 575.048
408.382, 561.365
408.864, 539.463
409.346, 530.549
409.829, 534.451
410.311, 542.386
410.793, 554.199
411.275, 567.002
411.757, 570.962
412.239, 565.452
412.721, 555.715
413.203, 543.886
413.686, 531.783
414.168, 524.002
414.650, 523.202
415.132, 526.560
415.614, 532.200
416.096, 539.751
416.578, 546.870
417.060, 551.346
417.543, 554.822
418.025, 559.474
418.507, 568.341
418.989, 573.915
419.471, 569.368
419.953, 558.346
420.435, 549.620
420.917, 548.259
421.399, 548.409
421.882, 546.732
422.364, 541.708
422.846, 539.128
423.328, 544.142
423.810, 550.740
424.292, 551.623
424.774, 540.375
425.256, 529.724
425.738, 522.451
426.221, 518.647
426.703, 511.988
427.185, 498.300
427.667, 486.299
428.149, 483.001
428.631, 492.179
429.113, 499.630
429.595, 502.774
430.078, 503.845
430.560, 510.529
431.042, 524.451
431.524, 537.054
432.006, 544.273
432.488, 546.128
432.970, 541.521
433.452, 528.276
433.934, 515.441
434.417, 518.307
434.899, 534.496
435.381, 546.921
435.863, 548.017
436.345, 541.663
436.827, 533.121
437.309, 522.545
437.791, 515.444
438.273, 519.007
438.756, 528.110
439.238, 535.144
439.720, 539.030
440.202, 538.967
440.684, 532.039
441.166, 520.281
441.648, 509.429
442.130, 500.212
442.612, 494.380
443.095, 493.762
443.577, 499.427
444.059, 506.398
444.541, 519.212
445.023, 530.432
445.505, 531.135
445.987, 500.803
446.470, 479.348
446.952, 479.912
447.434, 502.646
447.916, 518.750
448.398, 528.046
448.880, 530.759
449.362, 526.055
449.844, 509.319
450.326, 495.070
450.809, 482.942
451.291, 474.164
451.773, 472.510
452.255, 479.245
452.737, 488.662
453.219, 501.121
453.701, 516.431
454.183, 518.443
454.665, 504.808
455.148, 487.807
455.630, 481.216
456.112, 484.014
456.594, 490.819
457.076, 504.801
457.558, 517.581
458.040, 509.405
458.522, 483.307
459.004, 460.758
459.487, 462.367
459.969, 474.501
460.451, 477.443
460.933, 464.743
461.415, 453.601
461.897, 460.320
462.379, 476.836
462.862, 488.977
463.344, 489.540
463.826, 485.690
464.308, 479.320
464.790, 470.490
465.272, 463.722
465.754, 461.002
466.236, 460.465
466.718, 460.756
467.201, 467.335
467.683, 467.652
468.165, 454.062
468.647, 433.513
469.129, 428.855
469.611, 452.153
470.093, 473.430
470.575, 479.657
471.057, 467.539
471.539, 461.398
472.022, 462.814
472.504, 467.590
472.986, 470.745
473.468, 472.167
473.950, 474.363
474.432, 480.371
474.914, 486.086
475.397, 476.328
475.879, 451.539
476.361, 429.690
476.843, 425.850
477.325, 434.082
477.807, 442.950
478.289, 451.893
478.771, 457.504
479.253, 453.570
479.736, 444.010
480.218, 436.765
480.700, 434.637
481.182, 436.614
481.664, 445.347
482.146, 460.147
482.628, 469.074
483.110, 459.860
483.592, 447.349
484.075, 442.701
484.557, 458.596
485.039, 468.020
485.521, 461.555
486.003, 446.211
486.485, 438.899
486.967, 444.274
487.449, 452.042
487.931, 461.097
488.414, 472.451
488.896, 474.002
489.378, 461.999
489.860, 446.125
490.342, 435.853
490.824, 431.766
491.306, 427.422
491.788, 420.935
492.271, 414.305
492.753, 411.737
493.235, 413.244
493.717, 419.536
494.199, 439.018
494.681, 462.478
495.163, 465.596
495.645, 445.130
496.128, 422.295
496.610, 419.264
497.092, 426.956
497.574, 430.133
498.056, 417.259
498.538, 404.377
499.020, 403.783
499.502, 412.566
499.984, 418.467
500.466, 412.889
500.949, 405.914
501.431, 403.472
501.913, 407.913
502.395, 412.448
502.877, 418.947
503.359, 424.042
503.841, 423.253
504.323, 409.186
504.806, 400.946
505.288, 405.493
505.770, 419.926
506.252, 422.021
506.734, 407.286
507.216, 391.299
507.698, 383.151
508.180, 382.952
508.663, 388.323
509.145, 401.204
509.627, 413.717
510.109, 410.625
510.591, 395.323
511.073, 387.341
511.555, 400.461
512.037, 420.692
512.519, 426.333
513.002, 418.668
513.484, 407.788
513.966, 398.141
514.448, 389.726
514.930, 382.247
515.412, 375.062
515.894, 370.581
516.376, 370.513
516.859, 373.732
517.341, 378.552
517.823, 390.019
518.305, 397.483
518.787, 396.187
519.269, 386.091
519.751, 378.277
520.233, 371.783
520.715, 368.749
521.198, 370.704
521.680, 379.044
522.162, 389.209
522.644, 403.797
523.126, 416.968
523.608, 416.426
524.090, 400.522
524.572, 390.145
525.054, 395.828
525.537, 410.672
526.019, 412.956
526.501, 402.969
526.983, 392.094
527.465, 390.536
527.947, 393.583
528.429, 392.066
528.911, 383.332
529.393, 374.918
529.876, 373.983
530.358, 377.115
530.840, 378.751
531.322, 375.021
531.804, 370.965
532.286, 367.479
532.768, 365.021
533.250, 366.618
533.732, 382.201
534.215, 394.767
534.697, 393.593
535.179, 365.328
535.661, 354.019
536.143, 368.437
536.625, 392.955
537.107, 407.369
537.589, 410.393
538.072, 408.113
538.554, 400.802
539.036, 389.583
539.518, 377.694
540.000, 364.851
540.482, 354.183
540.964, 348.097
541.446, 345.839
541.929, 346.370
542.411, 350.088
542.893, 353.223
543.375, 349.969
543.857, 343.945
544.339, 341.594
544.821, 346.392
545.303, 354.220
545.786, 367.857
546.268, 383.864
546.750, 389.672
547.232, 366.732
547.714, 344.470
548.196, 338.990
548.678, 359.129
549.160, 369.144
549.642, 361.510
550.125, 348.630
550.607, 341.994
551.089, 344.109
551.571, 346.287
552.053, 348.265
552.535, 349.113
553.017, 343.629
553.499, 330.566
553.981, 324.175
554.464, 337.944
554.946, 364.757
555.428, 376.630
555.910, 373.407
556.392, 363.396
556.874, 349.603
557.356, 334.854
557.838, 323.445
558.320, 315.933
558.803, 312.899
559.285, 319.003
559.767, 329.529
560.249, 335.376
560.731, 329.589
561.213, 322.308
561.695, 315.690
562.177, 309.859
562.659, 309.320
563.142, 321.697
563.624, 332.433
564.106, 332.432
564.588, 313.890
565.070, 306.231
565.552, 312.814
566.034, 325.688
566.516, 334.406
566.999, 338.894
567.481, 340.132
567.963, 336.569
568.445, 331.524
568.927, 333.133
569.409, 340.806
569.891, 348.959
570.373, 357.743
570.856, 363.307
571.338, 359.030
571.820, 343.651
572.302, 327.156
572.784, 312.106
573.266, 300.931
573.748, 296.075
574.230, 304.030
574.713, 311.552
575.195, 314.800
575.677, 315.498
576.159, 318.505
576.641, 329.262
577.123, 334.952
577.605, 329.352
578.087, 312.604
578.569, 305.562
579.052, 311.398
579.534, 318.758
580.016, 319.356
580.498, 313.437
580.980, 302.310
581.462, 284.159
581.944, 267.610
582.426, 265.682
582.908, 274.741
583.391, 283.734
583.873, 288.686
584.355, 291.590
584.837, 292.636
585.319, 292.673
585.801, 295.163
586.283, 303.273
586.765, 313.078
587.247, 323.883
587.730, 337.239
588.212, 343.446
588.694, 334.325
589.176, 322.212
589.658, 317.206
590.140, 325.574
590.622, 326.310
591.104, 314.931
591.586, 297.518
592.069, 286.302
592.551, 281.636
593.033, 279.063
593.515, 278.043
593.997, 277.467
594.479, 272.215
594.961, 262.772
595.443, 257.210
595.925, 264.219
596.408, 277.164
596.890, 289.580
597.372, 301.792
597.854, 306.095
598.336, 290.761
598.818, 267.767
599.300, 251.456
599.782, 247.697
600.265, 247.586
600.747, 249.592
601.229, 254.110
601.711, 263.465
602.193, 284.971
602.675, 298.618
603.157, 293.771
603.639, 271.703
604.122, 267.962
604.604, 286.508
605.086, 304.666
605.568, 300.738
606.050, 280.042
606.532, 267.075
607.014, 265.403
607.496, 267.803
607.979, 268.753
608.461, 268.110
608.943, 265.469
609.425, 255.740
609.907, 249.248
610.389, 253.169
610.871, 265.142
611.353, 278.209
611.835, 300.805
612.318, 314.377
612.800, 305.308
613.282, 270.688
613.764, 257.272
614.246, 277.598
614.728, 301.394
615.210, 305.182
615.692, 286.430
616.174, 271.769
616.657, 262.437
617.139, 258.122
617.621, 260.164
618.103, 267.349
618.585, 274.390
619.067, 280.547
619.549, 284.561
620.031, 284.824
620.513, 281.697
620.996, 276.320
621.478, 265.603
621.960, 255.777
622.442, 250.154
622.924, 248.922
623.406, 251.536
623.888, 262.754
624.370, 274.026
624.852, 280.910
625.335, 283.436
625.817, 280.303
626.299, 267.808
626.781, 254.503
627.263, 253.486
627.745, 265.303
628.227, 273.932
628.709, 275.053
629.192, 272.011
629.674, 270.131
630.156, 269.283
630.638, 268.824
631.120, 270.059
631.602, 270.414
632.084, 266.837
632.566, 259.551
633.049, 252.200
633.531, 245.241
634.013, 239.664
634.495, 235.959
634.977, 233.484
635.459, 234.996
635.941, 244.579
636.423, 254.779
636.906, 256.734
637.388, 246.279
637.870, 243.498
638.352, 253.587
638.834, 269.009
639.316, 275.524
639.798, 273.453
640.280, 265.308
640.762, 247.855
641.245, 227.795
641.727, 215.396
642.209, 209.912
642.691, 208.371
643.173, 210.672
643.655, 215.144
644.137, 221.266
644.619, 229.500
