##NAMES=Jamesonite
##RRUFFID=R050481
##IDEAL CHEMISTRY=Pb^2+^_4_Fe^2+^Sb^3+^_6_S^2-^_14_
##LOCALITY=Itos mine, Oruro City, Bolivia
##OWNER=RRUFF
##SOURCE=California Institute of Technology
##DESCRIPTION=A group of gray-black thickly acicular crystals
##STATUS=The identification of this mineral has been confirmed by X-ray diffraction and chemical analysis
##URL=rruff.info/R050481
##MEASURED CHEMISTRY=Pb_4.00_Fe_1.00_(Sb_5.97_As_0.03_)_Î£=6_S_14.00_
132.134, 7511.461
132.616, 7430.891
133.098, 7341.567
133.581, 7301.549
134.063, 7343.437
134.545, 7410.674
135.027, 7479.684
135.509, 7552.833
135.991, 7648.717
136.473, 7786.750
136.955, 7971.372
137.438, 8185.741
137.920, 8420.568
138.402, 8687.656
138.884, 8998.396
139.366, 9349.979
139.848, 9730.626
140.330, 10124.890
140.812, 10539.590
141.294, 10953.980
141.777, 11384.530
142.259, 11801.980
142.741, 12181.900
143.223, 12521.750
143.705, 12838.740
144.187, 13159.520
144.669, 13498.080
145.151, 13809.940
145.633, 14122.990
146.116, 14396.030
146.598, 14589.890
147.080, 14696.780
147.562, 14750.830
148.044, 14807.700
148.526, 14901.120
149.008, 14932.500
149.490, 14858.560
149.973, 14746.450
150.455, 14658.160
150.937, 14612.510
151.419, 14589.350
151.901, 14553.590
152.383, 14502.330
152.865, 14442.640
153.347, 14364.540
153.829, 14282.420
154.312, 14204.780
154.794, 14133.510
155.276, 14083.560
155.758, 14091.680
156.240, 14188.920
156.722, 14275.260
157.204, 14319.310
157.686, 14347.650
158.169, 14399.880
158.651, 14491.450
159.133, 14604.720
159.615, 14702.030
160.097, 14770.410
160.579, 14857.040
161.061, 14987.690
161.543, 15142.470
162.025, 15287.320
162.508, 15409.370
162.990, 15515.920
163.472, 15620.980
163.954, 15730.000
164.436, 15823.470
164.918, 15883.490
165.400, 15922.810
165.882, 15973.450
166.365, 16053.220
166.847, 16136.630
167.329, 16171.770
167.811, 16145.500
168.293, 16125.090
168.775, 16149.710
169.257, 16203.430
169.739, 16242.270
170.221, 16252.750
170.704, 16239.730
171.186, 16213.080
171.668, 16173.770
172.150, 16122.970
172.632, 16046.640
173.114, 15956.110
173.596, 15893.000
174.078, 15879.410
174.561, 15889.380
175.043, 15881.670
175.525, 15851.980
176.007, 15826.320
176.489, 15825.890
176.971, 15843.980
177.453, 15849.220
177.935, 15826.170
178.417, 15792.730
178.900, 15768.560
179.382, 15751.860
179.864, 15751.840
180.346, 15777.720
180.828, 15826.640
181.310, 15887.650
181.792, 15977.430
182.274, 16054.640
182.757, 16069.170
183.239, 16014.030
183.721, 15952.970
184.203, 15921.140
184.685, 15917.040
185.167, 15935.980
185.649, 15998.250
186.131, 16059.960
186.613, 16070.210
187.096, 16025.390
187.578, 15982.820
188.060, 15988.200
188.542, 16034.170
189.024, 16068.680
189.506, 16075.550
189.988, 16072.380
190.470, 16085.240
190.952, 16114.410
191.435, 16121.640
191.917, 16042.020
192.399, 15897.450
192.881, 15851.760
193.363, 16005.290
193.845, 16187.150
194.327, 16243.960
194.809, 16180.580
195.292, 16109.930
195.774, 16121.210
196.256, 16198.690
196.738, 16237.600
197.220, 16209.520
197.702, 16152.760
198.184, 16090.390
198.666, 16024.960
199.148, 15974.670
199.631, 15958.400
200.113, 15970.380
200.595, 15979.520
201.077, 15989.780
201.559, 15984.960
202.041, 15941.320
202.523, 15868.490
203.005, 15815.280
203.488, 15833.550
203.970, 15902.900
204.452, 15919.020
204.934, 15826.050
205.416, 15750.790
205.898, 15811.040
206.380, 15965.190
206.862, 16073.770
207.344, 16018.170
207.827, 15845.900
208.309, 15737.610
208.791, 15724.200
209.273, 15735.930
209.755, 15730.510
210.237, 15713.840
210.719, 15700.750
211.201, 15709.740
211.684, 15728.170
212.166, 15713.550
212.648, 15647.370
213.130, 15584.730
213.612, 15552.030
214.094, 15544.700
214.576, 15557.730
215.058, 15608.850
215.540, 15673.050
216.023, 15686.790
216.505, 15630.760
216.987, 15573.870
217.469, 15562.340
217.951, 15572.590
218.433, 15568.810
218.915, 15529.400
219.397, 15475.100
219.880, 15445.810
220.362, 15450.940
220.844, 15448.530
221.326, 15408.260
221.808, 15350.700
222.290, 15298.500
222.772, 15256.990
223.254, 15224.590
223.736, 15198.420
224.219, 15177.980
224.701, 15166.380
225.183, 15182.630
225.665, 15201.020
226.147, 15188.800
226.629, 15128.340
227.111, 15058.920
227.593, 15025.030
228.076, 15028.720
228.558, 15031.050
229.040, 15010.230
229.522, 14985.630
230.004, 14981.100
230.486, 15004.120
230.968, 15029.250
231.450, 15034.480
231.932, 15020.660
232.415, 15003.420
232.897, 14991.380
233.379, 14973.310
233.861, 14932.440
234.343, 14864.300
234.825, 14804.060
235.307, 14779.360
235.789, 14784.550
236.271, 14791.560
236.754, 14797.130
237.236, 14798.300
237.718, 14797.250
238.200, 14794.540
238.682, 14773.840
239.164, 14706.660
239.646, 14614.540
240.128, 14561.380
240.611, 14572.100
241.093, 14594.540
241.575, 14570.000
242.057, 14506.230
242.539, 14452.680
243.021, 14444.050
243.503, 14452.380
243.985, 14422.080
244.467, 14338.400
244.950, 14256.390
245.432, 14239.900
245.914, 14271.700
246.396, 14283.050
246.878, 14242.600
247.360, 14183.460
247.842, 14140.910
248.324, 14117.320
248.807, 14104.120
249.289, 14098.170
249.771, 14098.440
250.253, 14099.250
250.735, 14106.440
251.217, 14108.950
251.699, 14097.780
252.181, 14073.450
252.663, 14039.910
253.146, 13993.230
253.628, 13941.170
254.110, 13911.030
254.592, 13920.610
255.074, 13930.520
255.556, 13914.700
256.038, 13882.270
256.520, 13863.160
257.003, 13874.690
257.485, 13902.570
257.967, 13904.760
258.449, 13854.840
258.931, 13831.790
259.413, 13887.810
259.895, 13979.970
260.377, 14037.230
260.859, 14035.030
261.341, 13995.620
261.824, 13955.570
262.306, 13918.180
262.788, 13872.500
263.270, 13802.030
263.752, 13729.920
264.234, 13680.770
264.716, 13659.530
265.198, 13655.700
265.681, 13658.400
266.163, 13671.380
266.645, 13677.600
267.127, 13681.310
267.609, 13675.570
268.091, 13648.980
268.573, 13605.030
269.055, 13562.440
269.538, 13538.660
270.020, 13535.520
270.502, 13530.660
270.984, 13528.760
271.466, 13521.120
271.948, 13500.030
272.430, 13470.090
272.912, 13443.430
273.394, 13429.540
273.877, 13424.870
274.359, 13401.460
274.841, 13315.840
275.323, 13260.210
275.805, 13284.850
276.287, 13338.420
276.769, 13345.210
277.251, 13268.490
277.733, 13146.130
278.216, 13078.720
278.698, 13110.470
279.180, 13130.720
279.662, 13116.500
280.144, 13096.860
280.626, 13101.370
281.108, 13136.270
281.590, 13178.840
282.073, 13198.160
282.555, 13193.120
283.037, 13166.430
283.519, 13104.460
284.001, 13033.240
284.483, 12956.830
284.965, 12880.900
285.447, 12821.570
285.930, 12805.590
286.412, 12835.730
286.894, 12827.550
287.376, 12738.540
287.858, 12656.900
288.340, 12622.450
288.822, 12623.160
289.304, 12630.370
289.786, 12631.810
290.268, 12625.430
290.751, 12599.050
291.233, 12536.510
291.715, 12488.580
292.197, 12480.780
292.679, 12496.870
293.161, 12521.570
293.643, 12556.260
294.125, 12584.310
294.608, 12579.010
295.090, 12536.860
295.572, 12489.730
296.054, 12433.160
296.536, 12386.750
297.018, 12373.770
297.500, 12400.850
297.982, 12437.090
298.465, 12470.330
298.947, 12496.540
299.429, 12491.340
299.911, 12435.900
300.393, 12367.860
300.875, 12329.320
301.357, 12318.630
301.839, 12313.860
302.321, 12311.880
302.804, 12309.340
303.286, 12300.610
303.768, 12284.710
304.250, 12265.450
304.732, 12244.020
305.214, 12221.240
305.696, 12204.630
306.178, 12197.630
306.660, 12194.690
307.143, 12198.020
307.625, 12204.330
308.107, 12197.400
308.589, 12165.090
309.071, 12113.010
309.553, 12071.290
310.035, 12034.610
310.517, 12011.710
311.000, 12021.350
311.482, 12042.680
311.964, 12038.030
312.446, 11992.180
312.928, 11928.530
313.410, 11891.750
313.892, 11886.090
314.374, 11905.840
314.857, 11984.070
315.339, 12065.660
315.821, 12103.880
316.303, 12094.400
316.785, 12065.880
317.267, 12047.030
317.749, 12037.750
318.231, 12040.700
318.713, 12071.850
319.195, 12098.790
319.678, 12104.940
320.160, 12097.050
320.642, 12090.990
321.124, 12096.580
321.606, 12112.920
322.088, 12138.540
322.570, 12194.970
323.052, 12225.500
323.535, 12206.130
324.017, 12162.410
324.499, 12119.450
324.981, 12085.290
325.463, 12057.840
325.945, 12037.970
326.427, 12029.710
326.909, 12006.900
327.392, 11953.980
327.874, 11891.910
328.356, 11832.800
328.838, 11777.760
329.320, 11724.280
329.802, 11678.070
330.284, 11634.020
330.766, 11565.340
331.248, 11459.390
331.731, 11351.230
332.213, 11264.460
332.695, 11195.590
333.177, 11136.510
333.659, 11087.680
334.141, 11046.460
334.623, 11015.490
335.105, 10994.480
335.587, 10963.960
336.070, 10909.880
336.552, 10840.520
337.034, 10780.400
337.516, 10738.600
337.998, 10691.280
338.480, 10610.000
338.962, 10518.060
339.444, 10471.290
339.927, 10492.500
340.409, 10532.310
340.891, 10511.160
341.373, 10390.540
341.855, 10316.470
342.337, 10327.610
342.819, 10363.620
343.301, 10381.410
343.784, 10376.650
344.266, 10365.780
344.748, 10364.380
345.230, 10372.820
345.712, 10358.600
346.194, 10296.520
346.676, 10240.420
347.158, 10201.420
347.640, 10178.240
348.122, 10170.590
348.605, 10179.030
349.087, 10194.120
349.569, 10191.520
350.051, 10158.830
350.533, 10115.398
351.015, 10129.981
351.497, 10130.481
351.979, 10117.654
352.462, 10051.592
352.944, 10054.275
353.426, 10029.407
353.908, 10003.411
354.390, 10015.769
354.872, 9957.447
355.354, 9969.197
355.836, 9952.978
356.319, 9949.558
356.801, 9912.694
357.283, 9881.536
357.765, 9837.406
358.247, 9804.089
358.729, 9781.187
359.211, 9776.961
359.693, 9812.131
360.175, 9859.133
360.658, 9867.483
361.140, 9819.374
361.622, 9775.374
362.104, 9774.354
362.586, 9799.807
363.068, 9815.104
363.550, 9810.499
364.032, 9798.110
364.514, 9794.053
364.997, 9801.647
365.479, 9794.805
365.961, 9749.075
366.443, 9706.764
366.925, 9707.608
367.407, 9742.920
367.889, 9770.160
368.371, 9758.385
368.853, 9715.198
369.336, 9692.314
369.818, 9711.965
370.300, 9725.590
370.782, 9715.961
371.264, 9702.034
371.746, 9712.646
372.228, 9754.498
372.711, 9798.131
373.193, 9789.067
373.675, 9695.288
374.157, 9654.992
374.639, 9739.651
375.121, 9719.976
375.603, 9739.031
376.085, 9748.687
376.567, 9749.444
377.049, 9714.660
377.532, 9725.771
378.014, 9718.489
378.496, 9710.453
378.978, 9728.024
379.460, 9698.410
379.942, 9715.574
380.424, 9710.646
380.906, 9682.540
381.389, 9647.497
381.871, 9617.808
382.353, 9594.218
382.835, 9581.469
383.317, 9582.686
383.799, 9590.670
384.281, 9597.352
384.763, 9602.744
385.246, 9610.238
385.728, 9634.644
386.210, 9651.526
386.692, 9628.605
387.174, 9572.018
387.656, 9524.156
388.138, 9512.876
388.620, 9532.642
389.102, 9550.965
389.585, 9564.988
390.067, 9581.056
390.549, 9611.421
391.031, 9639.114
391.513, 9637.103
391.995, 9600.694
392.477, 9560.254
392.959, 9561.679
393.441, 9620.347
393.924, 9658.576
394.406, 9654.977
394.888, 9650.228
395.370, 9666.676
395.852, 9694.329
396.334, 9706.651
396.816, 9681.678
397.298, 9638.351
397.780, 9628.511
398.263, 9663.809
398.745, 9689.843
399.227, 9681.953
399.709, 9658.438
400.191, 9633.369
400.673, 9607.387
401.155, 9587.261
401.638, 9582.573
402.120, 9586.812
402.602, 9578.858
403.084, 9551.474
403.566, 9532.297
404.048, 9557.520
404.530, 9622.159
405.012, 9647.390
405.494, 9591.063
405.977, 9530.638
406.459, 9512.291
406.941, 9525.095
407.423, 9540.177
407.905, 9545.022
408.387, 9540.900
408.869, 9529.354
409.351, 9489.743
409.833, 9477.899
410.316, 9517.209
410.798, 9565.011
411.280, 9592.760
411.762, 9598.830
412.244, 9597.053
412.726, 9598.519
413.208, 9602.536
413.690, 9601.256
414.172, 9584.338
414.655, 9578.768
415.137, 9605.363
415.619, 9640.326
416.101, 9653.924
416.583, 9635.391
417.065, 9608.841
417.547, 9599.587
418.029, 9605.777
418.512, 9608.537
418.994, 9599.717
419.476, 9595.022
419.958, 9618.453
420.440, 9663.652
420.922, 9693.109
421.404, 9682.422
421.886, 9664.493
422.368, 9674.813
422.851, 9706.592
423.333, 9720.404
423.815, 9690.419
424.297, 9639.801
424.779, 9633.435
425.261, 9722.925
425.743, 9777.781
426.225, 9761.202
426.708, 9726.700
427.190, 9720.775
427.672, 9746.792
428.154, 9778.134
428.636, 9790.088
429.118, 9783.347
429.600, 9784.440
430.082, 9801.655
430.565, 9815.479
431.047, 9811.994
431.529, 9806.332
432.011, 9818.971
432.493, 9857.349
432.975, 9903.523
433.457, 9938.610
433.939, 9962.980
434.421, 9980.010
434.904, 9988.289
435.386, 9992.405
435.868, 9990.266
436.350, 9985.241
436.832, 9994.941
437.314, 10052.080
437.796, 10103.650
438.278, 10093.700
438.760, 10034.060
439.243, 9975.447
439.725, 9937.839
440.207, 9923.257
440.689, 9939.056
441.171, 10019.270
441.653, 10068.780
442.135, 10075.450
442.617, 10057.950
443.099, 10012.780
443.582, 9952.350
444.064, 9915.374
444.546, 9938.380
445.028, 10008.670
445.510, 10037.520
445.992, 9998.469
446.474, 9962.203
446.957, 9956.719
447.439, 9955.021
447.921, 9923.224
448.403, 9854.647
448.885, 9794.251
449.367, 9793.247
449.849, 9836.889
450.331, 9858.330
450.813, 9847.040
451.296, 9825.815
451.778, 9812.430
452.260, 9802.611
452.742, 9780.955
453.224, 9724.524
453.706, 9678.821
454.188, 9677.985
454.670, 9704.344
455.152, 9723.369
455.635, 9723.953
456.117, 9711.612
456.599, 9692.069
457.081, 9659.359
457.563, 9641.381
458.045, 9632.610
458.527, 9641.238
459.009, 9684.555
459.491, 9746.152
459.974, 9798.581
460.456, 9828.697
460.938, 9834.456
461.420, 9803.513
461.902, 9723.912
462.384, 9659.673
462.866, 9621.158
463.348, 9604.655
463.831, 9620.109
464.313, 9660.837
464.795, 9685.711
465.277, 9664.280
465.759, 9621.617
466.241, 9588.013
466.723, 9564.433
467.205, 9553.445
467.687, 9560.612
468.170, 9576.660
468.652, 9576.506
469.134, 9549.873
469.616, 9531.382
470.098, 9534.727
470.580, 9542.132
471.062, 9537.746
471.544, 9521.034
472.026, 9499.898
472.509, 9479.540
472.991, 9460.786
473.473, 9451.935
473.955, 9462.640
474.437, 9467.282
474.919, 9457.087
475.401, 9441.928
475.883, 9425.794
476.366, 9410.716
476.848, 9408.582
477.330, 9448.525
477.812, 9510.888
478.294, 9517.003
478.776, 9450.182
479.258, 9381.829
479.740, 9356.922
480.223, 9364.433
480.705, 9366.583
481.187, 9358.131
481.669, 9351.634
482.151, 9350.727
482.633, 9355.337
483.115, 9370.692
483.597, 9396.009
484.079, 9414.394
484.561, 9406.917
485.044, 9372.520
485.526, 9344.011
486.008, 9334.223
486.490, 9315.923
486.972, 9272.197
487.454, 9222.005
487.936, 9184.469
488.418, 9165.770
488.901, 9166.335
489.383, 9201.482
489.865, 9265.595
490.347, 9287.560
490.829, 9242.780
491.311, 9194.796
491.793, 9196.063
492.275, 9226.875
492.758, 9241.173
493.240, 9210.304
493.722, 9230.440
494.204, 9238.194
494.686, 9234.233
495.168, 9183.468
495.650, 9193.142
496.132, 9178.594
496.614, 9163.053
497.097, 9181.231
497.579, 9137.273
498.061, 9154.919
498.543, 9147.974
499.025, 9135.329
499.507, 9142.406
499.989, 9141.522
500.471, 9123.533
500.953, 9095.225
501.436, 9058.531
501.918, 9013.917
502.400, 8990.426
502.882, 8999.491
503.364, 9013.642
503.846, 9014.979
504.328, 9007.310
504.810, 8998.551
505.293, 8992.755
505.775, 8982.813
506.257, 8957.791
506.739, 8926.596
507.221, 8907.315
507.703, 8904.827
508.185, 8912.138
508.667, 8922.776
509.150, 8937.907
509.632, 8946.100
510.114, 8947.251
510.596, 8942.027
511.078, 8930.322
511.560, 8912.359
512.042, 8885.244
512.524, 8848.405
513.006, 8813.288
513.489, 8795.762
513.971, 8794.561
514.453, 8788.913
514.935, 8773.748
515.417, 8761.733
515.899, 8769.782
516.381, 8786.235
516.863, 8783.737
517.346, 8743.639
517.828, 8707.479
518.310, 8703.485
518.792, 8715.384
519.274, 8719.554
519.756, 8710.414
520.238, 8687.723
520.720, 8647.720
521.202, 8590.201
521.685, 8555.135
522.167, 8565.673
522.649, 8572.427
523.131, 8565.055
523.613, 8550.952
524.095, 8538.809
524.577, 8530.353
525.059, 8519.308
525.541, 8493.799
526.024, 8459.766
526.506, 8447.221
526.988, 8463.469
527.470, 8473.882
527.952, 8452.931
528.434, 8414.623
528.916, 8396.620
529.398, 8412.347
529.880, 8373.663
530.363, 8403.542
530.845, 8416.778
531.327, 8414.267
531.809, 8348.834
532.291, 8364.649
532.773, 8347.904
533.255, 8329.825
533.737, 8357.074
534.219, 8300.796
534.702, 8322.878
535.184, 8281.515
535.666, 8310.825
536.148, 8322.980
536.630, 8318.901
537.112, 8308.912
537.594, 8294.774
538.076, 8246.029
538.559, 8243.896
539.041, 8184.714
539.523, 8145.817
540.005, 8169.376
540.487, 8219.146
540.969, 8228.558
541.451, 8178.624
541.933, 8145.071
542.416, 8137.462
542.898, 8140.862
543.380, 8160.374
543.862, 8182.209
544.344, 8168.061
544.826, 8153.848
545.308, 8165.400
545.790, 8170.699
546.273, 8170.078
546.755, 8145.814
547.237, 8152.082
547.719, 8146.114
548.201, 8139.644
548.683, 8150.208
549.165, 8140.739
549.647, 8102.333
550.129, 8074.027
550.612, 8076.304
551.094, 8099.128
551.576, 8127.175
552.058, 8156.016
552.540, 8171.890
553.022, 8157.843
553.504, 8112.792
553.986, 8075.209
554.468, 8030.863
554.951, 8012.488
555.433, 8052.160
555.915, 8105.898
556.397, 8128.823
556.879, 8112.223
557.361, 8078.183
557.843, 8033.155
558.325, 7985.938
558.807, 7967.022
559.290, 7979.725
559.772, 7998.063
560.254, 8012.034
560.736, 8021.181
561.218, 8023.676
561.700, 8018.743
562.182, 8010.655
562.664, 7996.963
563.146, 7982.746
563.629, 7974.382
564.111, 7969.098
564.593, 7957.985
565.075, 7935.601
565.557, 7906.948
566.039, 7882.288
566.521, 7861.619
567.003, 7844.997
567.486, 7831.019
567.968, 7823.146
568.450, 7827.016
568.932, 7838.629
569.414, 7845.290
569.896, 7834.499
570.378, 7829.329
570.860, 7852.054
571.343, 7890.917
571.825, 7924.295
572.307, 7946.666
572.789, 7959.765
573.271, 7964.753
573.753, 7961.698
574.235, 7955.639
574.717, 7952.127
575.200, 7937.656
575.682, 7883.737
576.164, 7834.721
576.646, 7845.053
577.128, 7915.826
577.610, 7978.336
578.092, 7971.435
578.574, 7927.851
579.056, 7913.307
579.539, 7927.935
580.021, 7941.403
580.503, 7939.635
580.985, 7931.529
581.467, 7931.598
581.949, 7938.077
582.431, 7930.188
582.913, 7948.116
583.395, 7959.776
583.878, 7965.508
584.360, 7947.546
584.842, 7960.178
585.324, 7960.550
585.806, 7960.419
586.288, 7977.356
586.770, 7962.842
587.252, 7977.835
587.734, 7996.705
588.217, 7998.469
588.699, 7971.765
589.181, 7930.199
589.663, 7912.568
590.145, 7933.819
590.627, 7952.288
591.109, 7946.503
591.591, 7937.815
592.073, 7952.391
592.556, 7987.344
593.038, 8020.870
593.520, 8039.697
594.002, 8042.797
594.484, 8022.408
594.966, 7969.030
595.448, 7927.150
595.930, 7897.951
596.413, 7888.933
596.895, 7918.026
597.377, 7972.473
597.859, 8005.094
598.341, 7981.263
598.823, 7957.058
599.305, 7977.451
599.787, 8022.270
600.269, 7990.576
600.752, 8027.280
601.234, 8047.381
601.716, 8051.771
602.198, 7993.394
602.680, 8016.068
603.162, 8006.260
603.644, 7995.120
604.127, 8029.201
604.609, 7979.954
605.091, 8013.318
605.573, 8013.705
606.055, 8029.185
606.537, 8011.982
607.019, 8004.874
607.501, 8002.797
607.983, 8000.634
608.466, 7992.100
608.948, 7978.372
609.430, 7970.830
609.912, 7988.209
610.394, 8037.394
610.876, 8061.684
611.358, 8030.076
611.840, 8009.414
612.322, 8031.193
612.805, 8063.691
613.287, 8068.882
613.769, 8039.833
614.251, 8003.403
614.733, 7975.197
615.215, 7955.266
615.697, 7946.611
616.179, 7948.619
616.661, 7947.372
617.144, 7933.665
617.626, 7921.579
618.108, 7939.833
618.590, 8010.978
619.072, 8041.718
619.554, 7992.257
620.036, 7948.939
620.518, 7956.473
621.000, 7989.456
621.483, 8009.150
621.965, 8003.065
622.447, 7984.455
622.929, 7956.220
623.411, 7926.136
623.893, 7922.707
624.375, 7948.975
624.857, 7980.388
625.340, 8008.848
625.822, 8028.708
626.304, 8025.500
626.786, 7982.477
627.268, 7952.455
627.750, 7937.456
628.232, 7934.569
628.714, 7948.531
629.196, 7972.115
629.679, 7997.175
630.161, 8021.334
630.643, 8031.252
631.125, 7997.904
631.607, 7933.819
632.089, 7900.990
632.571, 7907.484
633.054, 7926.578
633.536, 7945.260
634.018, 7963.967
634.500, 7986.071
634.982, 8028.333
635.464, 8039.450
635.946, 7977.867
636.428, 7919.056
636.910, 7920.896
637.393, 7961.172
637.875, 7983.140
638.357, 7960.230
638.839, 7923.419
639.321, 7914.724
639.803, 7928.856
640.285, 7932.753
640.767, 7921.486
641.250, 7908.421
641.732, 7898.934
642.214, 7894.968
642.696, 7904.277
