##NAMES=Jamesonite
##RRUFFID=R050430
##IDEAL CHEMISTRY=Pb^2+^_4_Fe^2+^Sb^3+^_6_S^2-^_14_
##LOCALITY=Zacatecas, Mexico
##OWNER=RRUFF
##SOURCE=University of Arizona Mineral Museum
##DESCRIPTION=Grayish black coarsely acicular crystals
##STATUS=The identification of this mineral has been confirmed by X-ray diffraction and chemical analysis
##URL=rruff.info/R050430
##MEASURED CHEMISTRY=Pb_4.02_Fe_1.00_Sb_5.98_S_14.00_
144.669, 11945.660
145.151, 12535.130
145.633, 13118.270
146.116, 13672.660
146.598, 14186.180
147.080, 14654.390
147.562, 15078.060
148.044, 15463.260
148.526, 15820.750
149.008, 16106.620
149.490, 16329.330
149.973, 16480.539
150.455, 16543.551
150.937, 16514.180
151.419, 16422.580
151.901, 16319.880
152.383, 16218.860
152.865, 16081.150
153.347, 15886.860
153.829, 15661.940
154.312, 15423.580
154.794, 15176.710
155.276, 14941.010
155.758, 14761.490
156.240, 14653.070
156.722, 14562.030
157.204, 14482.000
157.686, 14414.060
158.169, 14353.200
158.651, 14293.430
159.133, 14256.070
159.615, 14292.680
160.097, 14410.350
160.579, 14560.820
161.061, 14755.670
161.543, 14972.840
162.025, 15171.160
162.508, 15331.560
162.990, 15474.480
163.472, 15640.970
163.954, 15836.580
164.436, 16029.840
164.918, 16205.280
165.400, 16370.030
165.882, 16543.420
166.365, 16737.740
166.847, 16931.830
167.329, 17087.910
167.811, 17207.520
168.293, 17298.971
168.775, 17358.189
169.257, 17391.029
169.739, 17411.680
170.221, 17422.900
170.704, 17426.619
171.186, 17428.250
171.668, 17430.820
172.150, 17423.289
172.632, 17396.631
173.114, 17354.980
173.596, 17313.359
174.078, 17280.100
174.561, 17243.840
175.043, 17184.670
175.525, 17096.461
176.007, 17015.420
176.489, 16960.160
176.971, 16928.461
177.453, 16910.770
177.935, 16911.900
178.417, 16917.900
178.900, 16904.920
179.382, 16866.971
179.864, 16843.311
180.346, 16873.631
180.828, 16945.789
181.310, 16989.529
181.792, 16963.660
182.274, 16925.480
182.757, 16946.500
183.239, 17033.420
183.721, 17122.381
184.203, 17161.080
184.685, 17159.529
185.167, 17185.061
185.649, 17273.109
186.131, 17373.980
186.613, 17434.689
187.096, 17452.660
187.578, 17461.400
188.060, 17485.711
188.542, 17522.020
189.024, 17544.150
189.506, 17536.490
189.988, 17523.529
190.470, 17534.641
190.952, 17570.240
191.435, 17594.240
191.917, 17557.760
192.399, 17475.410
192.881, 17451.869
193.363, 17529.449
193.845, 17649.051
194.327, 17765.920
194.809, 17878.770
195.292, 17978.369
195.774, 18067.779
196.256, 18143.051
196.738, 18174.320
197.220, 18139.430
197.702, 18077.840
198.184, 18008.471
198.666, 17935.561
199.148, 17890.301
199.631, 17909.910
200.113, 17981.529
200.595, 18032.949
201.077, 18052.100
201.559, 18052.770
202.041, 18039.289
202.523, 18015.430
203.005, 18000.520
203.488, 18018.660
203.970, 18059.221
204.452, 18068.061
204.934, 18016.500
205.416, 17968.670
205.898, 17978.029
206.380, 18028.480
206.862, 18066.619
207.344, 18051.000
207.827, 17996.480
208.309, 17957.391
208.791, 17934.881
209.273, 17930.680
209.755, 17953.160
210.237, 17993.330
210.719, 18028.811
211.201, 18047.260
211.684, 18052.529
212.166, 18052.711
212.648, 18039.590
213.130, 18038.609
213.612, 18081.119
214.094, 18144.410
214.576, 18184.961
215.058, 18169.340
215.540, 18122.311
216.023, 18099.119
216.505, 18104.891
216.987, 18122.660
217.469, 18157.600
217.951, 18196.150
218.433, 18214.539
218.915, 18190.010
219.397, 18151.189
219.880, 18153.859
220.362, 18212.199
220.844, 18263.721
221.326, 18276.770
221.808, 18264.619
222.290, 18236.939
222.772, 18187.900
223.254, 18135.631
223.736, 18106.539
224.219, 18104.150
224.701, 18103.961
225.183, 18093.789
225.665, 18080.320
226.147, 18071.670
226.629, 18071.830
227.111, 18071.699
227.593, 18058.230
228.076, 18030.289
228.558, 18008.449
229.040, 18005.199
229.522, 18009.061
230.004, 18007.279
230.486, 17997.510
230.968, 17985.500
231.450, 17971.750
231.932, 17957.010
232.415, 17956.160
232.897, 17981.881
233.379, 18016.881
233.861, 18043.039
234.343, 18059.529
234.825, 18068.400
235.307, 18059.221
235.789, 18039.150
236.271, 18049.051
236.754, 18117.150
237.236, 18194.090
237.718, 18225.641
238.200, 18212.160
238.682, 18192.961
239.164, 18186.330
239.646, 18188.910
240.128, 18192.590
240.611, 18197.830
241.093, 18200.119
241.575, 18195.670
242.057, 18185.189
242.539, 18168.400
243.021, 18141.699
243.503, 18109.830
243.985, 18069.641
244.467, 18050.262
244.950, 18071.693
245.432, 18083.221
245.914, 18085.371
246.396, 18050.076
246.878, 18063.137
247.360, 18056.816
247.842, 18049.703
248.324, 18069.570
248.807, 18039.721
249.289, 18059.158
249.771, 18055.320
250.253, 18051.189
250.735, 17995.570
251.217, 17942.949
251.699, 17944.420
252.181, 17993.961
252.663, 18037.289
253.146, 18037.850
253.628, 18009.789
254.110, 18008.221
254.592, 18052.301
255.074, 18099.301
255.556, 18131.359
256.038, 18149.670
256.520, 18155.500
257.003, 18145.631
257.485, 18128.600
257.967, 18129.551
258.449, 18163.471
258.931, 18184.869
259.413, 18161.760
259.895, 18121.430
260.377, 18116.039
260.859, 18166.770
261.341, 18236.801
261.824, 18257.689
262.306, 18202.199
262.788, 18169.131
263.270, 18188.230
263.752, 18225.221
264.234, 18241.070
264.716, 18228.119
265.198, 18210.340
265.681, 18220.381
266.163, 18277.199
266.645, 18291.279
267.127, 18223.631
267.609, 18144.939
268.091, 18101.980
268.573, 18096.930
269.055, 18106.141
269.538, 18107.600
270.020, 18098.721
270.502, 18115.020
270.984, 18203.119
271.466, 18265.311
271.948, 18240.000
272.430, 18154.760
272.912, 18078.199
273.394, 18056.580
273.877, 18082.750
274.359, 18101.670
274.841, 18109.551
275.323, 18113.869
275.805, 18119.500
276.287, 18121.029
276.769, 18108.760
277.251, 18077.770
277.733, 18036.240
278.216, 18004.650
278.698, 17978.510
279.180, 17971.369
279.662, 17993.891
280.144, 18027.801
280.626, 18064.980
281.108, 18100.539
281.590, 18122.100
282.073, 18103.770
282.555, 18020.119
283.037, 17970.391
283.519, 17995.570
284.001, 18023.230
284.483, 18008.180
284.965, 17953.539
285.447, 17897.850
285.930, 17882.689
286.412, 17910.100
286.894, 17919.670
287.376, 17909.711
287.858, 17881.439
288.340, 17819.689
288.822, 17740.881
289.304, 17680.510
289.786, 17667.070
290.268, 17685.561
290.751, 17683.230
291.233, 17648.510
291.715, 17617.430
292.197, 17612.080
292.679, 17616.650
293.161, 17609.811
293.643, 17580.270
294.125, 17545.381
294.608, 17534.670
295.090, 17552.600
295.572, 17554.551
296.054, 17498.760
296.536, 17436.010
297.018, 17424.811
297.500, 17478.670
297.982, 17539.750
298.465, 17564.439
298.947, 17558.770
299.429, 17548.170
299.911, 17527.391
300.393, 17521.109
300.875, 17567.221
301.357, 17662.949
301.839, 17747.119
302.321, 17796.039
302.804, 17820.430
303.286, 17832.811
303.768, 17833.520
304.250, 17832.600
304.732, 17838.900
305.214, 17852.020
305.696, 17864.131
306.178, 17868.520
306.660, 17876.971
307.143, 17912.080
307.625, 17965.141
308.107, 17988.529
308.589, 17945.881
309.071, 17854.570
309.553, 17805.830
310.035, 17830.119
310.517, 17852.180
311.000, 17847.090
311.482, 17827.551
311.964, 17815.051
312.446, 17818.119
312.928, 17827.080
313.410, 17822.369
313.892, 17781.561
314.374, 17765.850
314.857, 17803.350
315.339, 17847.400
315.821, 17854.100
316.303, 17821.580
316.785, 17786.471
317.267, 17791.150
317.749, 17846.189
318.231, 17878.850
318.713, 17867.920
319.195, 17857.270
319.678, 17830.170
320.160, 17816.400
320.642, 17890.410
321.124, 17848.561
321.606, 17918.156
322.088, 17960.699
322.570, 17977.645
323.052, 17892.320
323.535, 17939.057
324.017, 17932.867
324.499, 17952.881
324.981, 17970.721
325.463, 18008.189
325.945, 18024.100
326.427, 18014.221
326.909, 18005.580
327.392, 17953.430
327.874, 17968.209
328.356, 17966.738
328.838, 17949.893
329.320, 17871.631
329.802, 17872.680
330.284, 17841.945
330.766, 17809.906
331.248, 17822.117
331.731, 17752.787
332.213, 17764.295
332.695, 17743.537
333.177, 17737.545
333.659, 17699.574
334.141, 17671.480
334.623, 17675.375
335.105, 17661.559
335.587, 17619.906
336.070, 17614.854
336.552, 17544.410
337.034, 17531.348
337.516, 17543.041
337.998, 17502.996
338.480, 17498.529
338.962, 17447.340
339.444, 17420.150
339.927, 17353.221
340.409, 17276.760
340.891, 17235.350
341.373, 17237.381
341.855, 17255.270
342.337, 17308.680
342.819, 17362.859
343.301, 17389.061
343.784, 17386.881
344.266, 17376.680
344.748, 17376.900
345.230, 17387.850
345.712, 17379.439
346.194, 17307.551
346.676, 17265.320
347.158, 17301.920
347.640, 17378.820
348.122, 17432.891
348.605, 17432.830
349.087, 17404.730
349.569, 17416.320
350.051, 17504.699
350.533, 17555.539
351.015, 17520.961
351.497, 17474.211
351.979, 17475.230
352.462, 17528.240
352.944, 17583.061
353.426, 17578.650
353.908, 17516.029
354.390, 17493.609
354.872, 17547.971
355.354, 17598.689
355.836, 17604.230
356.319, 17574.189
356.801, 17528.170
357.283, 17455.779
357.765, 17386.279
358.247, 17376.789
358.729, 17433.740
359.211, 17476.670
359.693, 17435.820
360.175, 17380.199
360.658, 17434.670
361.140, 17648.900
361.622, 17853.410
362.104, 17964.539
362.586, 18001.539
363.068, 17999.711
363.550, 17963.801
364.032, 17911.100
364.514, 17849.211
364.997, 17766.910
365.479, 17761.141
365.961, 17966.711
366.443, 18147.590
366.925, 18095.230
367.407, 17848.580
367.889, 17599.740
368.371, 17476.029
368.853, 17463.551
369.336, 17466.551
369.818, 17508.061
370.300, 17537.240
370.782, 17522.900
371.264, 17503.750
371.746, 17537.699
372.228, 17638.230
372.711, 17746.830
373.193, 17762.990
373.675, 17641.260
374.157, 17576.949
374.639, 17625.100
375.121, 17687.080
375.603, 17731.600
376.085, 17753.730
376.567, 17752.900
377.049, 17718.020
377.532, 17663.340
378.014, 17638.289
378.496, 17651.561
378.978, 17670.320
379.460, 17685.119
379.942, 17695.369
380.424, 17700.949
380.906, 17703.789
381.389, 17695.939
381.871, 17663.830
382.353, 17613.689
382.835, 17569.789
383.317, 17534.859
383.799, 17515.221
384.281, 17527.740
384.763, 17571.830
385.246, 17606.590
385.728, 17623.131
386.210, 17628.939
386.692, 17631.430
387.174, 17630.070
387.656, 17614.340
388.138, 17571.100
388.620, 17511.180
389.102, 17502.570
389.585, 17584.689
390.067, 17665.199
390.549, 17734.609
391.031, 17793.080
391.513, 17843.320
391.995, 17885.189
392.477, 17913.279
392.959, 17917.039
393.441, 17888.770
393.924, 17866.730
394.406, 17844.230
394.888, 17834.650
395.370, 17853.789
395.852, 17890.109
396.334, 17918.010
396.816, 17920.699
397.298, 17906.840
397.780, 17895.180
398.263, 17883.141
398.745, 17882.730
399.227, 17912.420
399.709, 17947.779
400.191, 17964.211
400.673, 17957.289
401.155, 17945.779
401.638, 17947.699
402.120, 17953.881
402.602, 17937.221
403.084, 17889.971
403.566, 17836.801
404.048, 17797.529
404.530, 17772.381
405.012, 17753.539
405.494, 17746.240
405.977, 17740.529
406.459, 17728.240
406.941, 17713.170
407.423, 17705.199
407.905, 17709.131
408.387, 17721.770
408.869, 17735.961
409.351, 17751.721
409.833, 17769.689
410.316, 17790.881
410.798, 17813.410
411.280, 17834.939
411.762, 17855.980
412.244, 17880.400
412.726, 17913.939
413.208, 17954.350
413.690, 17976.660
414.172, 17961.430
414.655, 17958.631
415.137, 17983.350
415.619, 18026.301
416.101, 18084.039
416.583, 18159.020
417.065, 18222.420
417.547, 18231.760
418.029, 18194.211
418.512, 18183.711
418.994, 18228.631
419.476, 18277.670
419.958, 18273.760
420.440, 18227.029
420.922, 18188.350
421.404, 18169.510
421.886, 18163.850
422.368, 18172.520
422.851, 18191.500
423.333, 18204.301
423.815, 18202.279
424.297, 18188.830
424.779, 18172.510
425.261, 18144.230
425.743, 18127.289
426.225, 18136.580
426.708, 18148.840
427.190, 18137.650
427.672, 18104.900
428.154, 18079.119
428.636, 18089.061
429.118, 18133.260
429.600, 18160.670
430.082, 18144.131
430.565, 18148.510
431.047, 18209.920
431.529, 18291.730
432.011, 18351.070
432.493, 18374.119
432.975, 18375.859
433.457, 18365.260
433.939, 18343.859
434.421, 18337.320
434.904, 18358.160
435.386, 18381.160
435.868, 18372.881
436.350, 18343.561
436.832, 18341.311
437.314, 18416.170
437.796, 18493.449
438.278, 18498.590
438.760, 18445.359
439.243, 18397.869
439.725, 18385.680
440.207, 18395.850
440.689, 18399.330
441.171, 18384.199
441.653, 18384.211
442.135, 18403.490
442.617, 18435.590
443.099, 18484.990
443.582, 18544.971
444.064, 18595.439
444.546, 18621.311
445.028, 18623.369
445.510, 18603.650
445.992, 18531.811
446.474, 18490.789
446.957, 18529.410
447.439, 18587.020
447.921, 18600.080
448.403, 18555.500
448.885, 18506.721
449.367, 18517.221
449.849, 18567.510
450.331, 18558.760
450.813, 18459.480
451.296, 18368.779
451.778, 18378.561
452.260, 18458.490
452.742, 18501.910
453.224, 18472.240
453.706, 18432.230
454.188, 18412.789
454.670, 18407.670
455.152, 18404.461
455.635, 18399.170
456.117, 18394.061
456.599, 18392.650
457.081, 18396.779
457.563, 18397.330
458.045, 18373.051
458.527, 18366.240
459.009, 18416.119
459.491, 18494.840
459.974, 18543.619
460.456, 18528.150
460.938, 18483.160
461.420, 18488.779
461.902, 18563.051
462.384, 18606.260
462.866, 18569.680
463.348, 18522.439
463.831, 18517.750
464.313, 18551.199
464.795, 18581.029
465.277, 18583.311
465.759, 18573.020
466.241, 18569.881
466.723, 18574.250
467.205, 18580.539
467.687, 18585.490
468.170, 18591.480
468.652, 18605.439
469.134, 18632.051
469.616, 18655.539
470.098, 18675.150
470.580, 18689.609
471.062, 18684.949
471.544, 18669.211
472.026, 18682.430
472.509, 18765.109
472.991, 18899.850
473.473, 18957.240
473.955, 18908.869
474.437, 18824.240
474.919, 18665.061
475.401, 18512.949
475.883, 18452.471
476.366, 18494.869
476.848, 18557.311
477.330, 18569.699
477.812, 18546.930
478.294, 18545.289
478.776, 18574.609
479.258, 18595.211
479.740, 18574.699
480.223, 18527.910
480.705, 18501.840
481.187, 18504.211
481.669, 18516.689
482.151, 18534.980
482.633, 18558.061
483.115, 18589.020
483.597, 18626.820
484.079, 18654.199
484.561, 18644.721
485.044, 18594.270
485.526, 18618.150
486.008, 18837.119
486.490, 18995.109
486.972, 19015.131
487.454, 18958.730
487.936, 18889.180
488.418, 18826.811
488.901, 18781.320
489.383, 18769.631
489.865, 18788.740
490.347, 18804.240
490.829, 18810.270
491.311, 18818.631
491.793, 18843.240
492.275, 18875.990
492.758, 18899.070
493.240, 18917.199
493.722, 18915.600
494.204, 18870.311
494.686, 18802.740
495.168, 18756.100
495.650, 18741.789
496.132, 18734.391
496.614, 18703.141
497.097, 18642.699
497.579, 18602.660
498.061, 18596.410
498.543, 18594.240
499.025, 18582.789
499.507, 18572.369
499.989, 18582.750
500.471, 18620.590
500.953, 18660.000
501.436, 18661.990
501.918, 18627.381
502.400, 18609.961
502.882, 18616.439
503.364, 18636.711
503.846, 18681.461
504.328, 18734.500
504.810, 18754.900
505.293, 18710.029
505.775, 18665.100
506.257, 18666.561
506.739, 18695.650
507.221, 18711.561
507.703, 18703.551
508.185, 18694.891
508.667, 18714.340
509.150, 18767.260
509.632, 18800.381
510.114, 18805.830
510.596, 18801.801
511.078, 18783.260
511.560, 18761.971
512.042, 18752.289
512.524, 18758.801
513.006, 18775.199
513.489, 18804.160
513.971, 18842.980
514.453, 18843.779
514.935, 18784.891
515.417, 18726.461
515.899, 18712.289
516.381, 18727.510
516.863, 18741.260
517.346, 18746.670
517.828, 18754.650
518.310, 18778.711
518.792, 18806.391
519.274, 18812.779
519.756, 18794.020
520.238, 18773.391
520.720, 18774.590
521.202, 18797.699
521.685, 18817.189
522.167, 18830.760
522.649, 18842.900
523.131, 18858.881
523.613, 18871.250
524.095, 18868.449
524.577, 18849.100
525.059, 18831.090
525.541, 18837.490
526.024, 18860.369
526.506, 18859.119
526.988, 18823.551
527.470, 18803.510
527.952, 18840.461
528.434, 18908.381
528.916, 18938.910
529.398, 18915.260
529.880, 18891.270
530.363, 18886.211
530.845, 18887.699
531.327, 18876.650
531.809, 18855.510
532.291, 18850.029
532.773, 18793.162
533.255, 18871.463
533.737, 18916.951
534.219, 18931.395
534.702, 18821.799
535.184, 18872.371
535.666, 18858.756
536.148, 18842.510
536.630, 18915.625
537.112, 18824.070
537.594, 18895.771
538.076, 18902.303
538.559, 18938.658
539.041, 18910.432
539.523, 18902.152
540.005, 18958.477
540.487, 18979.031
540.969, 18943.369
541.451, 18981.621
541.933, 18887.811
542.416, 18909.887
542.898, 18981.965
543.380, 18949.551
543.862, 18988.982
544.344, 19001.053
544.826, 18888.764
545.308, 18940.789
545.790, 18907.359
546.273, 18899.971
546.755, 18902.400
547.237, 18922.221
547.719, 18939.859
548.201, 18945.260
548.683, 18938.881
549.165, 18919.980
549.647, 18872.689
550.129, 18833.109
550.612, 18822.449
551.094, 18838.650
551.576, 18889.250
552.058, 18974.740
552.540, 19053.311
553.022, 19078.689
553.504, 19048.930
553.986, 19026.000
554.468, 19018.660
554.951, 19008.180
555.433, 18966.750
555.915, 18934.430
556.397, 18967.760
556.879, 19072.039
557.361, 19171.990
557.843, 19199.211
558.325, 19172.980
558.807, 19144.580
559.290, 19113.971
559.772, 19096.400
560.254, 19102.801
560.736, 19124.570
561.218, 19143.949
561.700, 19165.080
562.182, 19173.020
562.664, 19143.910
563.146, 19118.010
563.629, 19131.010
564.111, 19174.930
564.593, 19223.230
565.075, 19262.539
565.557, 19287.131
566.039, 19275.461
566.521, 19214.480
567.003, 19186.471
567.486, 19241.330
567.968, 19283.680
568.450, 19232.160
568.932, 19117.061
569.414, 19029.279
569.896, 18989.520
570.378, 18988.320
570.860, 19048.980
571.343, 19137.939
571.825, 19182.830
572.307, 19167.490
572.789, 19134.490
573.271, 19126.711
573.753, 19143.980
574.235, 19149.051
574.717, 19116.811
575.200, 19107.020
575.682, 19146.131
576.164, 19200.990
576.646, 19247.369
577.128, 19279.189
577.610, 19289.961
578.092, 19256.221
578.574, 19204.770
579.056, 19194.051
579.539, 19223.480
580.021, 19246.150
580.503, 19237.080
580.985, 19219.561
581.467, 19237.891
581.949, 19314.520
582.431, 19364.090
582.913, 19361.750
583.395, 19356.779
583.878, 19380.410
584.360, 19418.381
584.842, 19440.240
585.324, 19433.131
585.806, 19417.789
586.288, 19429.461
586.770, 19465.160
587.252, 19466.590
587.734, 19417.100
588.217, 19366.061
588.699, 19345.320
589.181, 19346.010
589.663, 19341.500
590.145, 19330.020
590.627, 19315.900
591.109, 19291.490
591.591, 19270.949
592.073, 19271.529
592.556, 19291.400
593.038, 19315.750
593.520, 19335.100
594.002, 19350.641
594.484, 19370.350
594.966, 19404.061
595.448, 19401.699
595.930, 19311.740
596.413, 19230.391
596.895, 19235.359
597.377, 19306.580
597.859, 19368.811
598.341, 19394.750
598.823, 19413.820
599.305, 19449.510
599.787, 19491.279
600.269, 19518.350
600.752, 19526.529
601.234, 19527.600
601.716, 19530.980
602.198, 19537.561
602.680, 19562.760
603.162, 19645.250
603.644, 19679.920
604.127, 19597.109
604.609, 19498.051
605.091, 19470.119
605.573, 19513.910
606.055, 19563.000
606.537, 19587.471
607.019, 19596.080
607.501, 19597.730
607.983, 19592.289
608.466, 19575.439
608.948, 19544.039
609.430, 19513.301
609.912, 19503.689
610.394, 19517.051
610.876, 19537.250
611.358, 19595.131
611.840, 19623.029
612.322, 19563.760
612.805, 19487.619
613.287, 19487.539
613.769, 19578.189
614.251, 19662.680
614.733, 19652.619
615.215, 19591.699
615.697, 19570.160
616.179, 19588.170
616.661, 19592.471
617.144, 19553.949
617.626, 19503.170
618.108, 19495.410
618.590, 19548.211
619.072, 19591.279
619.554, 19621.359
620.036, 19646.240
620.518, 19675.381
621.000, 19699.029
621.483, 19696.420
621.965, 19660.820
622.447, 19626.400
622.929, 19631.320
623.411, 19663.939
623.893, 19686.359
624.375, 19695.430
624.857, 19710.330
625.340, 19745.061
625.822, 19787.600
626.304, 19810.109
626.786, 19802.750
627.268, 19796.520
627.750, 19799.061
628.232, 19796.100
628.714, 19775.971
629.196, 19745.750
629.679, 19713.770
630.161, 19682.350
630.643, 19669.311
631.125, 19709.600
631.607, 19789.561
632.089, 19843.699
632.571, 19865.000
633.054, 19869.080
633.536, 19860.250
634.018, 19843.641
634.500, 19811.035
634.982, 19852.295
635.464, 19875.625
635.946, 19881.988
636.428, 19820.568
636.910, 19846.676
637.393, 19837.707
637.875, 19827.299
638.357, 19865.727
638.839, 19814.166
639.321, 19851.818
639.803, 19853.857
640.285, 19872.197
640.767, 19855.242
