##NAMES=Jamesonite
##RRUFFID=R050430
##IDEAL CHEMISTRY=Pb^2+^_4_Fe^2+^Sb^3+^_6_S^2-^_14_
##LOCALITY=Zacatecas, Mexico
##OWNER=RRUFF
##SOURCE=University of Arizona Mineral Museum
##DESCRIPTION=Grayish black coarsely acicular crystals
##STATUS=The identification of this mineral has been confirmed by X-ray diffraction and chemical analysis
##URL=rruff.info/R050430
##MEASURED CHEMISTRY=Pb_4.02_Fe_1.00_Sb_5.98_S_14.00_
147.080, 4360.383
147.562, 4485.468
148.044, 4607.546
148.526, 4726.120
149.008, 4841.679
149.490, 4969.842
149.973, 5088.056
150.455, 5169.953
150.937, 5208.154
151.419, 5225.642
151.901, 5264.374
152.383, 5352.805
152.865, 5411.866
153.347, 5420.157
153.829, 5402.762
154.312, 5388.589
154.794, 5387.517
155.276, 5389.560
155.758, 5374.086
156.240, 5332.018
156.722, 5292.361
157.204, 5258.332
157.686, 5229.389
158.169, 5202.459
158.651, 5174.935
159.133, 5154.869
159.615, 5163.028
160.097, 5207.758
160.579, 5252.722
161.061, 5283.349
161.543, 5309.059
162.025, 5345.964
162.508, 5398.985
162.990, 5466.427
163.472, 5547.357
163.954, 5643.965
164.436, 5741.882
164.918, 5831.497
165.400, 5918.601
165.882, 6018.018
166.365, 6138.099
166.847, 6266.375
167.329, 6378.752
167.811, 6472.342
168.293, 6563.372
168.775, 6657.673
169.257, 6754.499
169.739, 6850.794
170.221, 6946.222
170.704, 7039.698
171.186, 7132.122
171.668, 7225.977
172.150, 7311.098
172.632, 7380.958
173.114, 7438.092
173.596, 7492.474
174.078, 7552.499
174.561, 7604.099
175.043, 7630.050
175.525, 7629.028
176.007, 7613.872
176.489, 7581.634
176.971, 7537.916
177.453, 7510.277
177.935, 7520.575
178.417, 7534.573
178.900, 7506.221
179.382, 7429.392
179.864, 7347.660
180.346, 7282.960
180.828, 7234.351
181.310, 7188.909
181.792, 7101.383
182.274, 7065.086
182.757, 7082.359
183.239, 7086.628
183.721, 7078.592
184.203, 7021.397
184.685, 7027.681
185.167, 7008.526
185.649, 6988.328
186.131, 7003.546
186.613, 6953.503
187.096, 6968.157
187.578, 6952.257
188.060, 6977.206
188.542, 7047.707
189.024, 7098.363
189.506, 7109.213
189.988, 7100.491
190.470, 7092.766
190.952, 7086.322
191.435, 7077.043
191.917, 7047.082
192.399, 7004.178
192.881, 7006.534
193.363, 7091.715
193.845, 7196.375
194.327, 7270.790
194.809, 7314.961
195.292, 7341.958
195.774, 7346.121
196.256, 7334.055
196.738, 7352.977
197.220, 7434.311
197.702, 7518.648
198.184, 7555.180
198.666, 7548.981
199.148, 7542.405
199.631, 7568.455
200.113, 7620.069
200.595, 7659.247
201.077, 7686.064
201.559, 7691.229
202.041, 7653.817
202.523, 7584.789
203.005, 7539.241
203.488, 7565.179
203.970, 7646.978
204.452, 7712.655
204.934, 7753.104
205.416, 7780.550
205.898, 7802.976
206.380, 7820.762
206.862, 7834.919
207.344, 7839.653
207.827, 7839.962
208.309, 7858.455
208.791, 7910.114
209.273, 7955.317
209.755, 7956.020
210.237, 7930.244
210.719, 7923.722
211.201, 7970.519
211.684, 8054.187
212.166, 8126.069
212.648, 8181.255
213.130, 8234.179
213.612, 8298.846
214.094, 8367.336
214.576, 8424.948
215.058, 8458.772
215.540, 8478.958
216.023, 8506.676
216.505, 8541.892
216.987, 8585.305
217.469, 8640.560
217.951, 8703.564
218.433, 8769.124
218.915, 8838.310
219.397, 8906.980
219.880, 8965.506
220.362, 9010.212
220.844, 9058.816
221.326, 9127.136
221.808, 9202.662
222.290, 9270.176
222.772, 9324.039
223.254, 9370.304
223.736, 9417.479
224.219, 9466.100
224.701, 9512.712
225.183, 9554.651
225.665, 9594.156
226.147, 9633.081
226.629, 9670.875
227.111, 9709.580
227.593, 9757.735
228.076, 9816.580
228.558, 9856.341
229.040, 9846.609
229.522, 9822.927
230.004, 9826.904
230.486, 9869.081
230.968, 9916.866
231.450, 9939.670
231.932, 9939.088
232.415, 9945.486
232.897, 9982.698
233.379, 10016.330
233.861, 10008.810
234.343, 9955.318
234.825, 9887.142
235.307, 9817.005
235.789, 9747.357
236.271, 9690.727
236.754, 9655.819
237.236, 9627.365
237.718, 9588.936
238.200, 9540.874
238.682, 9489.210
239.164, 9439.628
239.646, 9388.998
240.128, 9325.661
240.611, 9242.979
241.093, 9157.562
241.575, 9092.481
242.057, 9043.628
242.539, 8980.646
243.021, 8883.460
243.503, 8767.894
243.985, 8658.733
244.467, 8558.440
244.950, 8466.095
245.432, 8387.923
245.914, 8319.677
246.396, 8243.593
246.878, 8149.868
247.360, 8049.661
247.842, 7956.240
248.324, 7870.995
248.807, 7785.174
249.289, 7693.455
249.771, 7596.052
250.253, 7493.347
250.735, 7373.862
251.217, 7258.586
251.699, 7164.168
252.181, 7089.604
252.663, 7023.157
253.146, 6962.378
253.628, 6903.444
254.110, 6834.448
254.592, 6745.454
255.074, 6658.037
255.556, 6582.338
256.038, 6516.952
256.520, 6459.527
257.003, 6411.743
257.485, 6367.724
257.967, 6309.682
258.449, 6225.723
258.931, 6152.277
259.413, 6100.972
259.895, 6066.979
260.377, 6048.158
260.859, 6046.657
261.341, 6044.033
261.824, 6002.160
262.306, 5893.484
262.788, 5817.708
263.270, 5806.545
263.752, 5822.493
264.234, 5825.237
264.716, 5806.350
265.198, 5784.261
265.681, 5783.126
266.163, 5814.769
266.645, 5825.117
267.127, 5787.526
267.609, 5749.791
268.091, 5748.660
268.573, 5782.802
269.055, 5823.306
269.538, 5842.225
270.020, 5835.574
270.502, 5856.190
270.984, 5911.573
271.466, 5980.153
271.948, 6072.311
272.430, 6171.325
272.912, 6241.845
273.394, 6257.895
273.877, 6226.588
274.359, 6203.053
274.841, 6197.332
275.323, 6188.143
275.805, 6176.633
276.287, 6158.257
276.769, 6126.893
277.251, 6079.615
277.733, 6019.357
278.216, 5952.734
278.698, 5867.916
279.180, 5795.331
279.662, 5769.348
280.144, 5736.781
280.626, 5643.807
281.108, 5479.345
281.590, 5284.137
282.073, 5117.991
282.555, 4992.874
283.037, 4860.261
283.519, 4708.620
284.001, 4557.855
284.483, 4420.040
284.965, 4294.413
285.447, 4174.010
285.930, 4054.425
286.412, 3936.131
286.894, 3811.906
287.376, 3675.862
287.858, 3540.853
288.340, 3401.816
288.822, 3268.425
289.304, 3162.027
289.786, 3104.756
290.268, 3080.730
290.751, 3034.234
291.233, 2951.899
291.715, 2875.094
292.197, 2824.331
292.679, 2787.269
293.161, 2749.041
293.643, 2703.866
294.125, 2657.287
294.608, 2615.500
295.090, 2578.136
295.572, 2549.070
296.054, 2541.844
296.536, 2535.529
297.018, 2502.690
297.500, 2434.766
297.982, 2372.391
298.465, 2349.871
298.947, 2360.426
299.429, 2370.979
299.911, 2372.086
300.393, 2374.246
300.875, 2392.819
301.357, 2426.991
301.839, 2454.856
302.321, 2462.996
302.804, 2461.901
303.286, 2467.428
303.768, 2481.862
304.250, 2499.554
304.732, 2515.605
305.214, 2530.467
305.696, 2548.419
306.178, 2573.846
306.660, 2599.366
307.143, 2620.329
307.625, 2636.701
308.107, 2647.275
308.589, 2647.668
309.071, 2643.374
309.553, 2662.804
310.035, 2723.331
310.517, 2782.368
311.000, 2828.433
311.482, 2865.686
311.964, 2900.573
312.446, 2935.687
312.928, 2967.735
313.410, 2989.117
313.892, 2980.910
314.374, 2994.697
314.857, 3036.752
315.339, 3096.138
315.821, 3168.163
316.303, 3250.112
316.785, 3336.586
317.267, 3422.949
317.749, 3509.055
318.231, 3592.755
318.713, 3659.693
319.195, 3738.546
319.678, 3843.567
320.160, 3969.600
320.642, 4104.901
321.124, 4245.137
321.606, 4385.998
322.088, 4508.635
322.570, 4607.409
323.052, 4694.465
323.535, 4764.177
324.017, 4828.412
324.499, 4904.997
324.981, 5002.195
325.463, 5094.978
325.945, 5143.816
326.427, 5142.449
326.909, 5131.530
327.392, 5178.445
327.874, 5167.973
328.356, 4964.913
328.838, 4580.730
329.320, 4248.594
329.802, 4060.942
330.284, 4054.786
330.766, 4004.578
331.248, 3912.672
331.731, 3654.190
332.213, 3610.802
332.695, 3501.101
333.177, 3235.123
333.659, 3152.363
334.141, 3143.714
334.623, 3090.656
335.105, 2993.616
335.587, 2885.859
336.070, 2782.970
336.552, 2681.894
337.034, 2572.400
337.516, 2441.322
337.998, 2323.912
338.480, 2238.517
338.962, 2177.263
339.444, 2129.099
339.927, 2092.663
340.409, 2054.157
340.891, 1988.189
341.373, 1872.296
341.855, 1792.822
342.337, 1783.198
342.819, 1789.888
343.301, 1773.727
343.784, 1731.420
344.266, 1677.467
344.748, 1622.476
345.230, 1566.403
345.712, 1519.691
346.194, 1483.910
346.676, 1454.615
347.158, 1432.356
347.640, 1415.372
348.122, 1400.710
348.605, 1386.874
349.087, 1375.794
349.569, 1350.571
350.051, 1366.655
350.533, 1372.711
351.015, 1369.280
351.497, 1327.943
351.979, 1335.552
352.462, 1323.547
352.944, 1310.737
353.426, 1325.236
353.908, 1289.413
354.390, 1303.479
354.872, 1297.629
355.354, 1300.895
355.836, 1284.424
356.319, 1273.529
356.801, 1273.655
357.283, 1253.089
357.765, 1223.119
358.247, 1199.124
358.729, 1180.964
359.211, 1171.909
359.693, 1180.162
360.175, 1194.942
360.658, 1196.722
361.140, 1179.988
361.622, 1163.186
362.104, 1156.417
362.586, 1156.529
363.068, 1158.653
363.550, 1162.759
364.032, 1162.128
364.514, 1146.953
364.997, 1114.156
365.479, 1084.426
365.961, 1045.371
366.443, 1020.207
366.925, 1042.502
367.407, 1099.098
367.889, 1135.184
368.371, 1109.558
368.853, 1034.321
369.336, 991.265
369.818, 1018.596
370.300, 1033.030
370.782, 1004.981
371.264, 967.096
371.746, 961.435
372.228, 999.394
372.711, 948.829
373.193, 1005.464
373.675, 1036.078
374.157, 1042.068
374.639, 949.683
375.121, 984.328
375.603, 968.065
376.085, 949.715
376.567, 1002.240
377.049, 924.163
377.532, 968.612
378.014, 942.953
378.496, 951.399
378.978, 966.856
379.460, 983.386
379.942, 997.973
380.424, 1005.398
380.906, 1002.366
381.389, 999.754
381.871, 1015.478
382.353, 1041.585
382.835, 1037.997
383.317, 983.918
383.799, 922.712
384.281, 913.622
384.763, 955.080
385.246, 991.676
385.728, 1017.585
386.210, 1032.064
386.692, 1030.704
387.174, 1015.459
387.656, 995.678
388.138, 975.656
388.620, 956.970
389.102, 950.090
389.585, 976.976
390.067, 987.660
390.549, 960.416
391.031, 919.424
391.513, 890.104
391.995, 880.246
392.477, 883.522
392.959, 893.312
393.441, 912.638
393.924, 926.144
394.406, 931.055
394.888, 932.434
395.370, 930.715
395.852, 926.932
396.334, 922.598
396.816, 918.078
397.298, 914.220
397.780, 914.159
398.263, 919.692
398.745, 922.280
399.227, 911.264
399.709, 900.382
400.191, 905.572
400.673, 930.516
401.155, 954.661
401.638, 965.523
402.120, 965.457
402.602, 957.809
403.084, 941.028
403.566, 927.089
404.048, 931.489
404.530, 952.057
405.012, 955.347
405.494, 924.899
405.977, 890.766
406.459, 861.832
406.941, 842.583
407.423, 848.517
407.905, 889.557
408.387, 943.386
408.869, 959.145
409.351, 900.798
409.833, 861.235
410.316, 820.325
410.798, 869.753
411.280, 897.252
411.762, 904.001
412.244, 827.850
412.726, 858.747
413.208, 846.743
413.690, 832.981
414.172, 878.945
414.655, 814.851
415.137, 859.868
415.619, 861.329
416.101, 882.724
416.583, 852.039
417.065, 877.567
417.547, 886.830
418.029, 882.020
418.512, 886.472
418.994, 912.055
419.476, 934.509
419.958, 920.036
420.440, 876.857
420.922, 852.085
421.404, 873.990
421.886, 905.635
422.368, 913.928
422.851, 902.105
423.333, 889.147
423.815, 883.812
424.297, 885.510
424.779, 892.462
425.261, 808.471
425.743, 913.589
426.225, 972.803
426.708, 988.580
427.190, 830.817
427.672, 897.143
428.154, 873.665
428.636, 846.505
429.118, 944.371
429.600, 811.849
430.082, 907.733
430.565, 912.441
431.047, 958.878
431.529, 914.955
432.011, 898.942
432.493, 896.837
432.975, 875.924
433.457, 900.225
433.939, 913.550
434.421, 916.490
434.904, 877.939
435.386, 892.965
435.868, 886.520
436.350, 879.194
436.832, 901.761
437.314, 869.244
437.796, 891.337
438.278, 891.631
438.760, 901.901
439.243, 890.568
439.725, 885.907
440.207, 902.858
440.689, 883.806
441.171, 877.623
441.653, 865.552
442.135, 833.900
442.617, 806.557
443.099, 805.707
443.582, 828.319
444.064, 855.122
444.546, 873.068
445.028, 880.971
445.510, 867.135
445.992, 803.692
446.474, 767.088
446.957, 793.864
447.439, 841.627
447.921, 872.162
448.403, 877.239
448.885, 870.305
449.367, 861.123
449.849, 849.556
450.331, 832.569
450.813, 806.423
451.296, 785.518
451.778, 781.319
452.260, 791.334
452.742, 806.669
453.224, 836.769
453.706, 861.190
454.188, 865.112
454.670, 855.928
455.152, 847.666
455.635, 844.795
456.117, 846.664
456.599, 854.404
457.081, 875.288
457.563, 874.518
458.045, 827.172
458.527, 786.372
459.009, 782.772
459.491, 802.753
459.974, 816.014
460.456, 805.574
460.938, 785.512
461.420, 788.999
461.902, 824.382
462.384, 846.062
462.866, 837.598
463.348, 819.198
463.831, 800.471
464.313, 783.329
464.795, 775.453
465.277, 787.782
465.759, 807.732
466.241, 818.891
466.723, 821.047
467.205, 817.043
467.687, 805.143
468.170, 791.167
468.652, 791.789
469.134, 818.105
469.616, 833.373
470.098, 823.386
470.580, 806.381
471.062, 796.946
471.544, 796.670
472.026, 800.998
472.509, 806.779
472.991, 813.774
473.473, 821.005
473.955, 837.854
474.437, 838.729
474.919, 799.700
475.401, 756.735
475.883, 746.233
476.366, 773.158
476.848, 803.959
477.330, 809.226
477.812, 795.904
478.294, 788.940
478.776, 791.349
479.258, 792.675
479.740, 783.612
480.223, 769.093
480.705, 764.588
481.187, 779.160
481.669, 789.981
482.151, 781.502
482.633, 766.461
483.115, 766.322
483.597, 784.166
484.079, 800.402
484.561, 792.586
485.044, 759.192
485.526, 744.994
486.008, 770.315
486.490, 792.931
486.972, 807.641
487.454, 813.882
487.936, 809.564
488.418, 794.260
488.901, 775.976
489.383, 763.684
489.865, 756.876
490.347, 748.521
490.829, 734.730
491.311, 726.246
491.793, 732.234
492.275, 749.137
492.758, 771.214
493.240, 813.620
493.722, 839.908
494.204, 812.181
494.686, 757.335
495.168, 728.751
495.650, 740.297
496.132, 765.333
496.614, 773.394
497.097, 761.981
497.579, 754.354
498.061, 756.610
498.543, 755.534
499.025, 738.992
499.507, 719.937
499.989, 719.453
500.471, 744.752
500.953, 774.789
501.436, 782.227
501.918, 767.355
502.400, 750.427
502.882, 727.847
503.364, 712.963
503.846, 724.513
504.328, 750.281
504.810, 761.860
505.293, 744.744
505.775, 724.929
506.257, 717.482
506.739, 718.922
507.221, 722.340
507.703, 725.897
508.185, 730.896
508.667, 738.353
509.150, 747.910
509.632, 763.715
510.114, 804.745
510.596, 830.145
511.078, 820.881
511.560, 792.553
512.042, 763.112
512.524, 738.672
513.006, 719.790
513.489, 705.856
513.971, 697.214
514.453, 701.454
514.935, 725.446
515.417, 748.932
515.899, 760.330
516.381, 761.067
516.863, 752.363
517.346, 727.381
517.828, 703.690
518.310, 687.433
518.792, 679.410
519.274, 683.961
519.756, 701.161
520.238, 721.375
520.720, 736.026
521.202, 745.128
521.685, 744.784
522.167, 719.647
522.649, 703.167
523.131, 707.479
523.613, 719.652
524.095, 726.045
524.577, 723.640
525.059, 719.246
525.541, 721.011
526.024, 726.441
526.506, 721.669
526.988, 702.156
527.470, 690.654
527.952, 705.953
528.434, 736.354
528.916, 751.345
529.398, 745.383
529.880, 736.178
530.363, 726.981
530.845, 741.939
531.327, 751.034
531.809, 754.581
532.291, 735.961
532.773, 745.965
533.255, 744.498
533.737, 742.560
534.219, 756.592
534.702, 741.197
535.184, 753.409
535.666, 753.269
536.148, 747.984
536.630, 738.256
537.112, 726.137
537.594, 711.582
538.076, 696.035
538.559, 680.250
539.041, 664.486
539.523, 654.856
540.005, 655.461
540.487, 660.729
540.969, 659.339
541.451, 644.653
541.933, 643.835
542.416, 670.573
542.898, 699.964
543.380, 721.903
543.862, 733.774
544.344, 730.508
544.826, 708.589
545.308, 680.791
545.790, 673.671
546.273, 691.337
546.755, 700.095
547.237, 689.646
547.719, 678.186
548.201, 679.641
548.683, 689.517
549.165, 696.016
549.647, 698.993
550.129, 694.091
550.612, 664.436
551.094, 626.957
551.576, 623.406
552.058, 663.478
552.540, 711.537
553.022, 731.004
553.504, 721.185
553.986, 704.107
554.468, 668.431
554.951, 638.786
555.433, 616.041
555.915, 603.070
556.397, 607.202
556.879, 628.150
557.361, 648.124
557.843, 650.399
558.325, 640.104
558.807, 631.940
559.290, 626.393
559.772, 623.007
560.254, 624.604
560.736, 626.010
561.218, 611.535
561.700, 569.007
562.182, 546.530
562.664, 568.583
563.146, 599.369
563.629, 613.112
564.111, 611.217
564.593, 604.644
565.075, 598.969
565.557, 596.058
566.039, 601.994
566.521, 619.737
567.003, 631.585
567.486, 636.926
567.968, 633.538
568.450, 617.658
568.932, 592.485
569.414, 567.124
569.896, 536.904
570.378, 515.985
570.860, 520.542
571.343, 540.482
571.825, 556.942
572.307, 565.198
572.789, 568.075
573.271, 568.141
573.753, 565.404
574.235, 559.999
574.717, 545.087
575.200, 536.996
575.682, 544.476
576.164, 555.892
576.646, 563.253
577.128, 564.304
577.610, 555.047
578.092, 521.631
578.574, 479.809
579.056, 462.256
579.539, 468.884
580.021, 481.662
580.503, 495.086
580.985, 506.406
581.467, 509.506
581.949, 498.405
582.431, 496.117
582.913, 506.964
583.395, 522.324
583.878, 543.148
584.360, 563.980
584.842, 574.976
585.324, 571.885
585.806, 564.314
586.288, 569.054
586.770, 584.605
587.252, 581.841
587.734, 553.038
588.217, 520.471
588.699, 495.306
589.181, 477.174
589.663, 464.126
590.145, 459.427
590.627, 453.586
591.109, 436.377
591.591, 421.426
592.073, 424.664
592.556, 444.796
593.038, 470.950
593.520, 497.674
594.002, 519.871
594.484, 520.755
594.966, 495.947
595.448, 465.061
595.930, 414.353
596.413, 376.651
596.895, 380.121
597.377, 415.842
597.859, 450.879
598.341, 485.993
598.823, 506.810
599.305, 487.001
599.787, 450.263
600.269, 448.314
600.752, 490.289
601.234, 530.470
601.716, 521.182
602.198, 467.305
602.680, 445.168
603.162, 481.464
603.644, 504.633
604.127, 495.339
604.609, 430.120
605.091, 502.733
605.573, 541.889
606.055, 549.385
606.537, 430.397
607.019, 474.736
607.501, 453.622
607.983, 429.823
608.466, 497.150
608.948, 396.559
609.430, 462.442
609.912, 461.870
610.394, 491.714
610.876, 455.698
611.358, 440.024
611.840, 490.231
612.322, 503.958
612.805, 460.360
613.287, 423.078
613.769, 385.939
614.251, 426.097
614.733, 447.492
615.215, 451.132
615.697, 383.838
616.179, 408.141
616.661, 395.736
617.144, 381.826
617.626, 419.020
618.108, 362.044
618.590, 398.426
619.072, 397.543
619.554, 413.715
620.036, 392.954
620.518, 383.600
621.000, 411.192
621.483, 418.326
621.965, 393.313
622.447, 371.841
622.929, 378.923
623.411, 414.119
623.893, 425.918
624.375, 409.822
624.857, 394.806
625.340, 396.012
625.822, 408.167
626.304, 420.300
626.786, 437.943
627.268, 442.997
627.750, 430.473
628.232, 409.936
628.714, 374.955
629.196, 338.436
629.679, 324.116
630.161, 342.241
630.643, 373.140
631.125, 400.415
631.607, 421.893
632.089, 422.663
632.571, 397.787
633.054, 378.091
633.536, 383.883
634.018, 406.114
634.500, 419.789
634.982, 424.730
635.464, 421.901
635.946, 408.878
636.428, 390.394
636.910, 361.454
637.393, 330.483
637.875, 314.621
638.357, 322.214
638.839, 340.870
639.321, 358.047
639.803, 373.139
640.285, 381.565
640.767, 382.765
641.250, 377.229
641.732, 361.578
642.214, 341.051
642.696, 333.041
643.178, 344.063
643.660, 354.180
644.142, 362.577
644.624, 368.955
645.106, 376.452
645.589, 381.329
646.071, 373.465
646.553, 346.877
647.035, 317.055
647.517, 300.971
647.999, 298.618
648.481, 316.159
648.963, 359.049
649.445, 390.302
649.928, 381.558
650.410, 346.940
650.892, 331.944
651.374, 356.788
651.856, 363.661
652.338, 327.812
652.820, 293.238
653.302, 288.220
653.784, 305.975
654.267, 331.490
654.749, 360.476
655.231, 379.052
655.713, 358.894
656.195, 312.788
656.677, 298.375
657.159, 324.225
657.641, 347.148
658.123, 338.513
658.606, 311.227
659.088, 300.345
659.570, 315.259
660.052, 330.311
660.534, 354.399
661.016, 369.891
661.498, 362.487
661.981, 340.861
662.463, 319.637
662.945, 303.341
663.427, 295.009
663.909, 298.865
664.391, 312.687
664.873, 337.789
665.355, 373.484
665.837, 388.957
666.320, 363.332
666.802, 316.013
667.284, 288.670
667.766, 284.947
668.248, 293.081
668.730, 337.305
669.212, 366.211
669.694, 344.758
670.177, 300.682
670.659, 277.225
671.141, 286.479
671.623, 302.768
672.105, 310.551
672.587, 312.003
673.069, 308.958
673.551, 302.398
674.033, 297.174
674.516, 295.667
674.998, 295.595
675.480, 293.844
675.962, 291.626
676.444, 280.768
676.926, 243.925
677.408, 221.835
677.890, 234.171
678.372, 263.573
678.855, 294.952
679.337, 326.393
679.819, 344.214
680.301, 334.662
680.783, 313.840
681.265, 289.917
681.747, 268.792
682.229, 268.558
682.711, 294.692
683.194, 324.023
683.676, 327.184
684.158, 304.869
684.640, 281.203
685.122, 249.430
685.604, 232.422
686.086, 245.748
686.568, 270.815
687.050, 289.780
687.533, 302.575
688.015, 310.787
