##NAMES=Jamesonite
##RRUFFID=R050432
##IDEAL CHEMISTRY=Pb^2+^_4_Fe^2+^Sb^3+^_6_S^2-^_14_
##LOCALITY=San Jose mine, Oruro District, Bolivia
##OWNER=RRUFF
##SOURCE=University of Arizona Mineral Museum
##DESCRIPTION=Grayish black coarse acicular crystals
##STATUS=The identification of this mineral has been confirmed by X-ray diffraction and chemical analysis
##URL=rruff.info/R050432
##MEASURED CHEMISTRY=Pb_4.00_Fe_1.00_(Sb_5.95_As_0.05_)_Î£=6_S_14.00_
91.00781, 3.382827
91.48993, 3.176948
91.97205, 3.094729
92.45416, 3.206700
92.93628, 3.438770
93.41840, 3.630894
93.90051, 3.754632
94.38263, 3.833986
94.86475, 3.924906
95.34686, 4.026697
95.82898, 4.073289
96.31110, 3.949424
96.79321, 3.678458
97.27533, 3.517783
97.75745, 3.539416
98.23956, 3.713535
98.72168, 3.935637
99.20380, 4.213460
99.68591, 4.507978
100.1680, 4.704611
100.6501, 4.726498
101.1323, 5.026311
101.6144, 5.814157
102.0965, 7.141800
102.5786, 8.332607
103.0607, 9.401587
103.5428, 10.33044
104.0250, 11.06946
104.5071, 11.43918
104.9892, 11.91009
105.4713, 12.65957
105.9534, 13.78567
106.4355, 14.96733
106.9177, 16.15499
107.3998, 17.39444
107.8819, 18.89215
108.3640, 21.17417
108.8461, 23.27583
109.3282, 24.77056
109.8104, 24.48473
110.2925, 24.90119
110.7746, 26.42826
111.2567, 28.91695
111.7388, 31.26815
112.2209, 33.41472
112.7031, 35.33833
113.1852, 37.04937
113.6673, 37.98882
114.1494, 39.22833
114.6315, 41.21805
115.1136, 44.01311
115.5958, 46.67044
116.0779, 48.70511
116.5600, 50.50437
117.0421, 52.49367
117.5242, 55.05087
118.0063, 57.68487
118.4885, 60.11164
118.9706, 62.24821
119.4527, 64.49509
119.9348, 67.27608
120.4169, 70.30501
120.8990, 73.10152
121.3812, 75.16620
121.8633, 76.99024
122.3454, 79.07823
122.8275, 81.66728
123.3096, 84.16026
123.7917, 86.06126
124.2739, 87.43014
124.7560, 88.48659
125.2381, 89.02295
125.7202, 89.39494
126.2023, 90.20561
126.6844, 91.65354
127.1666, 93.51418
127.6487, 95.64474
128.1308, 98.03152
128.6129, 100.2926
129.0950, 102.1890
129.5771, 103.7363
130.0593, 104.9319
130.5414, 105.3844
131.0235, 105.6259
131.5056, 107.1491
131.9877, 109.6705
132.4698, 111.9585
132.9520, 113.2664
133.4341, 113.6517
133.9162, 113.9239
134.3983, 114.2443
134.8804, 114.6396
135.3625, 115.4220
135.8447, 116.6851
136.3268, 118.1009
136.8089, 119.2964
137.2910, 120.2961
137.7731, 121.0067
138.2552, 121.4393
138.7374, 121.6184
139.2195, 121.2836
139.7016, 120.2655
140.1837, 118.8944
140.6658, 117.8894
141.1479, 117.3585
141.6301, 116.8996
142.1122, 116.2817
142.5943, 115.3315
143.0764, 114.6937
143.5585, 114.5006
144.0406, 114.6074
144.5228, 114.4838
145.0049, 113.9674
145.4870, 113.4260
145.9691, 113.0713
146.4512, 113.0264
146.9333, 112.9672
147.4155, 112.9534
147.8976, 112.9555
148.3797, 112.6707
148.8618, 111.8564
149.3439, 110.9302
149.8260, 110.1607
150.3082, 109.4958
150.7903, 109.0331
151.2724, 108.8181
151.7545, 108.8559
152.2366, 108.9097
152.7188, 108.9416
153.2009, 108.9955
153.6830, 109.1062
154.1651, 109.6924
154.6472, 109.9282
155.1293, 109.4456
155.6115, 108.1204
156.0936, 107.0789
156.5757, 106.5514
157.0578, 106.3819
157.5399, 106.4102
158.0220, 106.8685
158.5042, 107.2916
158.9863, 107.4737
159.4684, 107.3486
159.9505, 107.2551
160.4326, 107.3849
160.9147, 107.5986
161.3969, 107.6872
161.8790, 107.3998
162.3611, 107.0993
162.8432, 106.9947
163.3253, 107.1635
163.8074, 107.3721
164.2896, 107.5633
164.7717, 107.7171
165.2538, 107.7946
165.7359, 107.6502
166.2180, 107.4921
166.7001, 107.4730
167.1823, 107.6274
167.6644, 107.9016
168.1465, 108.3172
168.6286, 108.8354
169.1107, 109.3496
169.5928, 109.8544
170.0750, 110.3028
170.5571, 110.6551
171.0392, 110.8977
171.5213, 111.0458
172.0034, 111.0972
172.4855, 111.0596
172.9677, 110.9638
173.4498, 110.7643
173.9319, 110.5355
174.4140, 110.4069
174.8961, 110.5426
175.3782, 110.6420
175.8604, 110.2140
176.3425, 109.3301
176.8246, 108.6078
177.3067, 108.7317
177.7888, 109.3358
178.2709, 109.6633
178.7531, 109.3766
179.2352, 108.7944
179.7173, 108.3050
180.1994, 107.9078
180.6815, 107.6901
181.1636, 107.8254
181.6458, 108.2208
182.1279, 108.5954
182.6100, 108.8559
183.0921, 109.0416
183.5742, 109.3069
184.0563, 109.6593
184.5385, 109.8565
185.0206, 109.4870
185.5027, 108.6763
185.9848, 108.0459
186.4669, 107.8035
186.9490, 107.8967
187.4312, 108.2900
187.9133, 109.0292
188.3954, 109.7124
188.8775, 109.7055
189.3596, 109.0922
189.8417, 108.6739
190.3239, 108.8910
190.8060, 109.5956
191.2881, 109.9918
191.7702, 110.0225
192.2523, 109.9588
192.7344, 110.1704
193.2166, 110.6572
193.6987, 111.1342
194.1808, 111.5395
194.6629, 111.8628
195.1450, 111.9456
195.6271, 111.7203
196.1093, 111.4277
196.5914, 111.4326
197.0735, 111.7523
197.5556, 112.1437
198.0377, 112.5156
198.5198, 112.8705
199.0020, 113.2238
199.4841, 113.5731
199.9662, 113.9231
200.4483, 114.3049
200.9304, 114.7307
201.4125, 115.1110
201.8947, 115.4657
202.3768, 115.8176
202.8589, 115.7723
203.3410, 115.1453
203.8231, 114.3609
204.3052, 114.2811
204.7874, 115.0449
205.2695, 115.9196
205.7516, 116.5921
206.2337, 117.0382
206.7158, 117.4633
207.1979, 117.9021
207.6801, 118.2912
208.1622, 118.3995
208.6443, 118.0598
209.1264, 117.9542
209.6085, 118.5531
210.0906, 120.1351
210.5728, 121.0890
211.0549, 121.1546
211.5370, 120.7465
212.0191, 120.8142
212.5012, 121.4923
212.9833, 122.3157
213.4655, 123.1166
213.9476, 123.9687
214.4297, 124.5456
214.9118, 124.8132
215.3939, 124.8175
215.8760, 124.6032
216.3581, 123.9850
216.8403, 123.5330
217.3224, 123.5439
217.8045, 124.1327
218.2866, 124.8478
218.7687, 125.7650
219.2508, 126.7663
219.7330, 127.4972
220.2151, 127.8608
220.6972, 128.1241
221.1793, 128.3990
221.6614, 128.6848
222.1435, 128.9855
222.6257, 129.3219
223.1078, 129.6662
223.5899, 129.9768
224.0720, 130.3541
224.5541, 130.5383
225.0362, 130.3150
225.5184, 129.2798
226.0005, 128.8849
226.4826, 129.4109
226.9647, 130.5260
227.4468, 131.3379
227.9289, 131.8140
228.4111, 132.0335
228.8932, 131.9729
229.3753, 131.3919
229.8574, 131.1462
230.3395, 131.5125
230.8216, 132.1632
231.3038, 132.1375
231.7859, 131.0127
232.2680, 129.8308
232.7501, 129.0323
233.2322, 128.6431
233.7143, 128.6167
234.1965, 129.2263
234.6786, 130.1404
235.1607, 130.4054
235.6428, 129.6768
236.1249, 128.7964
236.6070, 128.1329
237.0892, 127.8046
237.5713, 127.4223
238.0534, 126.9403
238.5355, 126.4145
239.0176, 126.0192
239.4997, 125.9318
239.9819, 125.7093
240.4640, 125.1285
240.9461, 123.9562
241.4282, 122.9775
241.9103, 122.2636
242.3924, 121.7218
242.8746, 121.1542
243.3567, 120.6573
243.8388, 119.9895
244.3209, 118.9892
244.8030, 117.4193
245.2851, 116.1941
245.7673, 115.4443
246.2494, 114.9872
246.7315, 114.4211
247.2136, 113.6495
247.6957, 112.9221
248.1778, 112.3097
248.6600, 111.7729
249.1421, 111.5344
249.6242, 111.8742
250.1063, 112.3624
250.5884, 112.1216
251.0705, 110.8167
251.5527, 109.3438
252.0348, 108.0141
252.5169, 106.8296
252.9990, 105.7183
253.4811, 104.5827
253.9632, 103.5701
254.4454, 103.0543
254.9275, 103.4693
255.4096, 103.5356
255.8917, 102.6478
256.3738, 100.4445
256.8560, 99.04770
257.3381, 98.84397
257.8202, 99.11068
258.3023, 98.69607
258.7844, 97.30139
259.2665, 95.88316
259.7487, 94.68604
260.2308, 93.71007
260.7129, 93.03436
261.1950, 92.76500
261.6771, 92.68042
262.1592, 92.48634
262.6414, 92.15015
263.1235, 91.79444
263.6056, 91.48878
264.0877, 91.24654
264.5698, 90.79727
265.0519, 90.09487
265.5341, 89.25256
266.0162, 88.32164
266.4983, 87.18478
266.9804, 86.36033
267.4625, 86.08771
267.9446, 86.35652
268.4268, 86.26485
268.9089, 85.68124
269.3910, 84.97349
269.8731, 84.58243
270.3552, 84.65161
270.8373, 84.45232
271.3195, 83.74387
271.8016, 82.58546
272.2837, 81.55669
272.7658, 80.62428
273.2479, 79.86903
273.7300, 79.36811
274.2122, 79.14342
274.6943, 79.06541
275.1764, 79.20096
275.6585, 79.46515
276.1406, 79.37608
276.6227, 78.87228
277.1049, 78.22179
277.5870, 77.63193
278.0691, 77.11055
278.5512, 76.55045
279.0333, 75.89726
279.5154, 75.21281
279.9976, 74.70680
280.4797, 74.39014
280.9618, 74.19005
281.4439, 74.12784
281.9260, 74.20613
282.4081, 74.06267
282.8903, 73.57402
283.3724, 72.92212
283.8545, 72.59404
284.3366, 72.62245
284.8187, 72.62653
285.3008, 72.36954
285.7830, 71.86190
286.2651, 71.18248
286.7472, 70.22486
287.2293, 69.30553
287.7114, 69.17842
288.1935, 69.83569
288.6757, 70.37381
289.1578, 70.12216
289.6399, 69.25636
290.1220, 68.69102
290.6041, 68.50185
291.0862, 68.52518
291.5684, 68.59972
292.0505, 68.71375
292.5326, 68.75752
293.0147, 68.67882
293.4968, 68.48969
293.9789, 68.17349
294.4611, 67.70687
294.9432, 67.27362
295.4253, 67.15577
295.9074, 67.28291
296.3895, 67.35118
296.8716, 67.08708
297.3538, 66.71162
297.8359, 66.77924
298.3180, 67.31252
298.8001, 67.80336
299.2822, 67.56420
299.7643, 66.88946
300.2465, 66.56865
300.7286, 67.20995
301.2107, 68.13475
301.6928, 68.30449
302.1749, 67.76540
302.6570, 67.24670
303.1392, 67.32222
303.6213, 67.81359
304.1034, 68.44762
304.5855, 69.34644
305.0676, 70.12668
305.5497, 70.29973
306.0319, 69.96272
306.5140, 69.62903
306.9961, 69.55251
307.4782, 69.69960
307.9603, 70.06573
308.4424, 70.75057
308.9246, 71.45892
309.4067, 71.93066
309.8888, 72.23186
310.3709, 72.56142
310.8530, 73.09737
311.3351, 73.66424
311.8173, 74.09308
312.2994, 74.31815
312.7815, 74.54117
313.2636, 74.96185
313.7457, 75.45625
314.2278, 75.80312
314.7100, 75.62480
315.1921, 75.47351
315.6742, 75.70547
316.1563, 76.39635
316.6384, 77.21252
317.1205, 78.07393
317.6027, 78.95169
318.0848, 79.80436
318.5669, 80.86911
319.0490, 81.68343
319.5311, 81.86528
320.0132, 81.36669
320.4954, 81.21095
320.9775, 81.95857
321.4596, 83.03987
321.9417, 83.96225
322.4238, 84.60135
322.9059, 85.09758
323.3881, 85.47083
323.8702, 85.72023
324.3523, 85.86906
324.8344, 85.93619
325.3165, 85.89391
325.7986, 85.72739
326.2808, 85.37115
326.7629, 84.96825
327.2450, 84.64046
327.7271, 84.30300
328.2092, 83.61882
328.6913, 82.32823
329.1735, 80.91863
329.6556, 79.54395
330.1377, 78.13487
330.6198, 76.90013
331.1019, 75.98318
331.5840, 75.19963
332.0662, 74.17674
332.5483, 72.80070
333.0304, 71.33005
333.5125, 69.82747
333.9946, 68.22692
334.4767, 66.86179
334.9589, 65.81837
335.4410, 64.94171
335.9231, 64.04563
336.4052, 63.12434
336.8873, 62.22017
337.3694, 61.35085
337.8516, 60.51921
338.3336, 59.71553
338.8158, 58.96540
339.2979, 58.18768
339.7800, 57.17606
340.2621, 55.83967
340.7442, 55.00974
341.2263, 55.00728
341.7085, 55.53407
342.1906, 55.53890
342.6727, 54.94320
343.1548, 54.31896
343.6369, 54.16042
344.1190, 54.42416
344.6012, 54.32349
345.0833, 53.67965
345.5654, 52.82238
346.0475, 52.34464
346.5296, 52.22795
347.0117, 52.16459
347.4939, 52.00232
347.9760, 51.76597
348.4581, 51.50562
348.9402, 51.21001
349.4223, 50.97040
349.9044, 50.98543
350.3866, 51.16209
350.8687, 51.18271
351.3508, 50.84332
351.8329, 50.30282
352.3150, 49.72237
352.7971, 49.10614
353.2793, 48.65676
353.7614, 48.63668
354.2435, 48.85998
354.7256, 49.01444
355.2077, 48.92533
355.6898, 48.84117
356.1720, 49.09163
356.6541, 49.57958
357.1362, 49.88958
357.6183, 49.59864
358.1004, 49.12397
358.5826, 48.86453
359.0647, 48.98576
359.5468, 49.09175
360.0289, 48.99163
360.5110, 48.72533
360.9931, 48.36734
361.4753, 47.63318
361.9574, 47.06867
362.4395, 47.08594
362.9216, 47.84725
363.4037, 48.36629
363.8858, 48.12045
364.3680, 47.57527
364.8501, 47.21965
365.3322, 47.37127
365.8143, 47.50687
366.2964, 47.46880
366.7785, 47.26022
367.2607, 47.13360
367.7428, 47.22295
368.2249, 47.32814
368.7070, 47.32714
369.1891, 47.12824
369.6712, 46.94155
370.1534, 46.72384
370.6355, 46.51920
371.1176, 46.48939
371.5997, 46.86847
372.0818, 47.11723
372.5639, 46.97886
373.0461, 46.27761
373.5282, 45.75249
374.0103, 45.42231
374.4924, 45.23764
374.9745, 45.14512
375.4566, 45.17250
375.9388, 45.20321
376.4209, 45.20600
376.9030, 45.18250
377.3851, 45.14242
377.8672, 45.07197
378.3493, 45.02979
378.8315, 45.05046
379.3136, 45.13385
379.7957, 45.39719
380.2778, 46.00247
380.7599, 46.66494
381.2420, 46.53793
381.7242, 45.62427
382.2063, 44.77348
382.6884, 44.69984
383.1705, 45.16574
383.6526, 45.30603
384.1347, 44.97615
384.6169, 44.56565
385.0990, 44.65015
385.5811, 45.08625
386.0632, 45.40778
386.5453, 45.33406
387.0274, 45.04948
387.5096, 44.76445
387.9917, 44.48492
388.4738, 44.23804
388.9559, 44.01745
389.4380, 43.85670
389.9201, 43.80963
390.4023, 44.00705
390.8844, 44.19390
391.3665, 44.10014
391.8486, 43.82378
392.3307, 43.72828
392.8128, 44.20379
393.2950, 44.77714
393.7771, 45.15548
394.2592, 45.30764
394.7413, 45.21918
395.2234, 44.58485
395.7055, 43.76342
396.1877, 43.30999
396.6698, 43.90844
397.1519, 44.35610
397.6340, 44.15963
398.1161, 43.19908
398.5982, 42.55569
399.0804, 42.49514
399.5625, 42.66039
400.0446, 42.80647
400.5267, 43.04769
401.0088, 43.08995
401.4909, 42.73562
401.9731, 42.14861
402.4552, 42.05325
402.9373, 42.78500
403.4194, 43.46160
403.9015, 43.61250
404.3836, 43.05827
404.8658, 42.71535
405.3479, 42.67910
405.8300, 42.72821
406.3121, 42.44021
406.7942, 41.72950
407.2763, 41.28441
407.7585, 41.39270
408.2406, 41.95861
408.7227, 42.49511
409.2048, 43.01189
409.6869, 43.40192
410.1690, 43.50909
410.6512, 43.38353
411.1333, 43.27226
411.6154, 43.22203
412.0975, 43.20541
412.5796, 43.18146
413.0617, 43.15356
413.5439, 43.13707
414.0260, 43.13639
414.5081, 43.15441
414.9902, 43.25433
415.4723, 43.46278
415.9544, 43.52122
416.4366, 43.00836
416.9187, 42.25410
417.4008, 41.75420
417.8829, 41.90641
418.3650, 42.18005
418.8471, 42.26294
419.3293, 42.18530
419.8114, 42.14168
420.2935, 42.23138
420.7756, 42.37348
421.2577, 42.53744
421.7398, 42.84705
422.2220, 42.93373
422.7041, 42.43692
423.1862, 41.70729
423.6683, 41.37251
424.1504, 42.09792
424.6325, 42.63330
425.1147, 42.53533
425.5968, 41.69568
426.0789, 41.20267
426.5610, 41.23978
427.0431, 41.45603
427.5252, 41.55166
428.0074, 41.39370
428.4895, 41.44681
428.9716, 41.87137
429.4537, 42.50147
429.9358, 42.77839
430.4179, 42.62263
430.9001, 42.39377
431.3822, 42.31238
431.8643, 42.38369
432.3464, 42.18826
432.8285, 41.65377
433.3106, 41.08520
433.7928, 40.91531
434.2749, 41.09794
434.7570, 41.23982
435.2391, 41.18530
435.7212, 41.04353
436.2033, 41.04980
436.6855, 41.18929
437.1676, 41.31109
437.6497, 41.23269
438.1318, 41.08990
438.6139, 41.10029
439.0960, 41.31882
439.5782, 41.61744
440.0603, 42.09978
440.5424, 42.57144
441.0245, 42.66500
441.5066, 41.82849
441.9887, 40.89746
442.4709, 40.27564
442.9530, 39.98249
443.4351, 40.02628
443.9172, 40.92442
444.3993, 41.85696
444.8814, 42.20208
445.3636, 41.26107
445.8457, 40.53569
446.3278, 40.34198
446.8099, 40.50825
447.2920, 40.60128
447.7741, 40.50439
448.2563, 40.45367
448.7384, 40.54938
449.2205, 40.82817
449.7026, 40.96477
450.1847, 40.90354
450.6668, 40.76986
451.1490, 40.66616
451.6311, 40.58542
452.1132, 40.57015
452.5953, 40.64944
453.0774, 40.78115
453.5595, 40.83779
454.0417, 40.80816
454.5238, 40.80913
455.0059, 40.98183
455.4880, 41.26272
455.9701, 41.30120
456.4522, 41.06603
456.9344, 40.72221
457.4165, 40.34996
457.8986, 40.00132
458.3807, 39.84953
458.8628, 40.06670
459.3449, 40.36947
459.8271, 40.44573
460.3092, 40.32558
460.7913, 40.14238
461.2734, 39.86626
461.7555, 39.62687
462.2376, 39.53587
462.7198, 39.62168
463.2019, 39.80024
463.6840, 40.19247
464.1661, 40.60165
464.6482, 40.78976
465.1303, 40.53343
465.6125, 40.21693
466.0946, 39.80265
466.5767, 39.33596
467.0588, 39.24981
467.5409, 40.03199
468.0230, 40.79810
468.5052, 41.13531
468.9873, 40.79752
469.4694, 40.66462
469.9515, 40.89467
470.4336, 41.19401
470.9157, 41.09016
471.3979, 40.42729
471.8800, 39.90974
472.3621, 39.77688
472.8442, 39.92636
473.3263, 39.76831
473.8084, 39.24054
474.2906, 38.88636
474.7727, 39.32552
475.2548, 40.34412
475.7369, 40.88251
476.2190, 40.78996
476.7011, 40.38432
477.1833, 39.92514
477.6654, 39.45052
478.1475, 39.06528
478.6296, 38.81902
479.1117, 38.67901
479.5938, 38.59339
480.0760, 38.57335
480.5581, 38.69194
481.0402, 39.16133
481.5223, 39.68497
482.0044, 40.02461
482.4865, 40.10733
482.9687, 40.07895
483.4508, 39.94586
483.9329, 39.74126
484.4150, 39.51484
484.8971, 39.15704
485.3792, 38.90090
485.8614, 38.83757
486.3435, 38.95140
486.8256, 39.03618
487.3077, 39.10575
487.7898, 39.12921
488.2719, 39.07309
488.7541, 38.89005
489.2362, 38.79632
489.7183, 38.83701
490.2004, 38.90881
490.6825, 38.81342
491.1646, 38.52242
491.6468, 38.35419
492.1289, 38.42685
492.6110, 38.67370
493.0931, 38.97767
493.5752, 39.33661
494.0573, 39.54225
494.5395, 39.31895
495.0216, 38.85786
495.5037, 38.55526
495.9858, 38.47574
496.4679, 38.48185
496.9500, 38.55910
497.4322, 38.62214
497.9143, 38.52744
498.3964, 37.98016
498.8785, 37.47391
499.3606, 37.33235
499.8427, 37.49139
500.3249, 37.65699
500.8070, 37.67910
501.2891, 37.71889
501.7712, 37.89970
502.2533, 38.36223
502.7354, 38.59526
503.2176, 38.39185
503.6997, 38.02659
504.1818, 37.76640
504.6639, 37.61916
505.1460, 37.56592
505.6281, 37.62960
506.1103, 37.78110
506.5924, 37.89741
507.0745, 37.95871
507.5566, 38.05299
508.0387, 38.31345
508.5208, 38.71704
509.0030, 38.71671
509.4851, 38.24963
509.9672, 37.73296
510.4493, 37.65343
510.9314, 37.90133
511.4135, 38.09928
511.8957, 38.12399
512.3778, 38.10871
512.8599, 38.21258
513.3420, 38.40562
513.8242, 38.59844
514.3063, 38.85016
514.7884, 39.01218
515.2705, 38.91669
515.7526, 38.55233
516.2347, 38.21434
516.7169, 38.00456
517.1990, 37.87606
517.6811, 37.79546
518.1632, 37.81430
518.6453, 37.80154
519.1274, 37.69263
519.6096, 37.55255
520.0917, 37.51472
520.5738, 37.70170
521.0559, 37.78185
521.5380, 37.61852
522.0201, 37.23428
522.5023, 37.05524
522.9844, 37.14861
523.4665, 37.25581
523.9486, 37.14786
524.4307, 36.84017
524.9128, 36.66872
525.3950, 36.67388
525.8771, 36.77409
526.3592, 36.91409
526.8413, 37.06889
527.3234, 37.15036
527.8055, 37.09566
528.2877, 36.97952
528.7698, 36.89826
529.2519, 36.83556
529.7340, 36.71933
530.2161, 36.27183
530.6982, 35.91659
531.1804, 36.09820
531.6625, 36.99856
532.1446, 37.61853
532.6267, 37.41800
533.1088, 36.88773
533.5909, 36.48346
534.0731, 36.29701
534.5552, 36.19906
535.0373, 36.23128
535.5194, 36.33665
536.0015, 36.35878
536.4836, 36.22597
536.9658, 36.15702
537.4479, 36.24757
537.9300, 36.48816
538.4121, 36.70233
538.8942, 36.89967
539.3763, 37.02173
539.8585, 37.01959
540.3406, 36.89824
540.8227, 36.65177
541.3048, 36.23867
541.7869, 35.84119
542.2690, 35.68215
542.7512, 35.71568
543.2333, 35.82743
543.7154, 35.99632
544.1975, 36.20215
544.6796, 36.52727
545.1617, 36.91153
545.6439, 37.07503
546.1260, 36.70640
546.6081, 36.22034
547.0902, 35.80534
547.5723, 35.43980
548.0544, 35.34790
548.5366, 35.81549
549.0187, 36.42648
549.5008, 36.82442
549.9829, 36.98078
550.4650, 36.95254
550.9471, 36.61135
551.4293, 36.16015
551.9114, 36.17184
552.3935, 36.79251
552.8756, 37.15691
553.3577, 36.79035
553.8398, 35.90129
554.3220, 35.47659
554.8041, 35.52606
555.2862, 35.72775
555.7683, 35.90760
556.2504, 36.04345
556.7325, 36.09582
557.2147, 36.05944
557.6968, 35.93923
558.1789, 35.59844
558.6610, 35.20986
559.1431, 35.03151
559.6252, 35.33283
560.1074, 35.67796
560.5895, 35.99659
561.0716, 36.24054
561.5537, 36.24695
562.0358, 35.53980
562.5179, 35.02166
563.0001, 35.11945
563.4822, 35.92142
563.9643, 36.35658
564.4464, 36.27410
564.9285, 36.03716
565.4106, 35.90979
565.8928, 35.91132
566.3749, 35.89249
566.8570, 35.83685
567.3391, 35.76866
567.8212, 35.75546
568.3033, 35.78007
568.7855, 35.70533
569.2676, 35.40709
569.7497, 35.06247
570.2318, 34.94448
570.7139, 35.01902
571.1960, 35.12732
571.6782, 35.26301
572.1603, 35.33530
572.6424, 35.21953
573.1245, 34.88939
573.6066, 34.63580
574.0887, 34.63609
574.5709, 34.71620
575.0530, 34.73826
575.5351, 34.60120
576.0172, 34.53165
576.4993, 34.62154
576.9814, 34.74169
577.4636, 34.64852
577.9457, 34.20846
578.4278, 33.91413
578.9099, 33.90969
579.3920, 34.13207
579.8741, 34.40423
580.3563, 34.73692
580.8384, 34.94984
581.3205, 34.86950
581.8026, 34.58871
582.2847, 34.32563
582.7668, 34.08294
583.2490, 33.99618
583.7311, 34.32796
584.2132, 34.82626
584.6953, 35.16424
585.1774, 35.22536
585.6595, 35.20744
586.1416, 35.23472
