##NAMES=Jamesonite
##RRUFFID=R050481
##IDEAL CHEMISTRY=Pb^2+^_4_Fe^2+^Sb^3+^_6_S^2-^_14_
##LOCALITY=Itos mine, Oruro City, Bolivia
##OWNER=RRUFF
##SOURCE=California Institute of Technology
##DESCRIPTION=A group of gray-black thickly acicular crystals
##STATUS=The identification of this mineral has been confirmed by X-ray diffraction and chemical analysis
##URL=rruff.info/R050481
##MEASURED CHEMISTRY=Pb_4.00_Fe_1.00_(Sb_5.97_As_0.03_)_Î£=6_S_14.00_
105.131, 6609.560
105.613, 6921.792
106.095, 7215.949
106.577, 7523.392
107.060, 7896.188
107.542, 8341.783
108.024, 8841.790
108.506, 9396.818
108.988, 10019.840
109.470, 10671.460
109.952, 11373.960
110.434, 12109.310
110.916, 12807.240
111.399, 13492.540
111.881, 14119.270
112.363, 14669.390
112.845, 15108.560
113.327, 15496.130
113.809, 15857.450
114.291, 16192.870
114.773, 16455.471
115.256, 16597.170
115.738, 16670.760
116.220, 16729.770
116.702, 16773.881
117.184, 16820.410
117.666, 16867.869
118.148, 16903.961
118.630, 16984.051
119.113, 17139.000
119.595, 17357.449
120.077, 17614.160
120.559, 17897.180
121.041, 18211.971
121.523, 18563.939
122.005, 18955.270
122.487, 19383.311
122.969, 19856.230
123.451, 20368.461
123.934, 20868.670
124.416, 21344.250
124.898, 21781.289
125.380, 22155.449
125.862, 22416.881
126.344, 22625.051
126.826, 22883.561
127.308, 23196.029
127.791, 23484.689
128.273, 23675.520
128.755, 23774.301
129.237, 23804.619
129.719, 23770.080
130.201, 23675.320
130.683, 23531.131
131.165, 23331.641
131.648, 23093.770
132.130, 22842.199
132.612, 22576.930
133.094, 22275.301
133.576, 21897.631
134.058, 21452.369
134.540, 21033.510
135.022, 20663.811
135.504, 20327.250
135.986, 19979.590
136.469, 19616.279
136.951, 19245.080
137.433, 18876.430
137.915, 18517.789
138.397, 18137.490
138.879, 17707.699
139.361, 17226.891
139.844, 16823.590
140.326, 16520.490
140.808, 16269.930
141.290, 15996.080
141.772, 15683.580
142.254, 15388.100
142.736, 15136.340
143.218, 14939.630
143.700, 14748.790
144.182, 14556.830
144.665, 14369.800
145.147, 14201.230
145.629, 14055.610
146.111, 13923.760
146.593, 13804.720
147.075, 13721.750
147.557, 13612.300
148.039, 13456.170
148.522, 13256.080
149.004, 13086.560
149.486, 12951.360
149.968, 12843.520
150.450, 12756.050
150.932, 12746.730
151.414, 12700.870
151.896, 12582.870
152.378, 12370.250
152.861, 12207.260
153.343, 12149.420
153.825, 12131.280
154.307, 12070.470
154.789, 11894.350
155.271, 11729.170
155.753, 11618.610
156.235, 11586.290
156.717, 11566.350
157.200, 11554.660
157.682, 11547.450
158.164, 11536.970
158.646, 11521.010
159.128, 11500.390
159.610, 11474.070
160.092, 11429.490
160.574, 11394.110
161.057, 11384.410
161.539, 11393.990
162.021, 11394.420
162.503, 11365.750
162.985, 11326.170
163.467, 11290.780
163.949, 11264.750
164.431, 11243.790
164.913, 11230.380
165.396, 11224.180
165.878, 11211.390
166.360, 11181.020
166.842, 11141.140
167.324, 11102.060
167.806, 11057.860
168.288, 11023.310
168.770, 11012.890
169.253, 11030.670
169.735, 11053.030
170.217, 11079.090
170.699, 11098.750
171.181, 11091.190
171.663, 11019.500
172.145, 10926.610
172.627, 10858.600
173.109, 10824.900
173.592, 10805.820
174.074, 10786.690
174.556, 10767.760
175.038, 10750.610
175.520, 10733.350
176.002, 10718.560
176.484, 10711.420
176.966, 10715.200
177.449, 10723.430
177.931, 10726.520
178.413, 10725.300
178.895, 10728.100
179.377, 10746.630
179.859, 10774.500
180.341, 10795.250
180.823, 10793.970
181.305, 10788.430
181.788, 10814.850
182.270, 10873.900
182.752, 10937.600
183.234, 10976.660
183.716, 10995.980
184.198, 11014.250
184.680, 11040.700
185.162, 11071.200
185.645, 11095.100
186.127, 11111.190
186.609, 11125.000
187.091, 11135.920
187.573, 11145.940
188.055, 11173.750
188.537, 11245.540
189.019, 11348.060
189.501, 11410.900
189.984, 11420.830
190.466, 11416.200
190.948, 11461.660
191.430, 11558.060
191.912, 11667.690
192.394, 11767.740
192.876, 11860.020
193.358, 11964.540
193.840, 12084.970
194.323, 12216.220
194.805, 12338.250
195.287, 12445.240
195.769, 12585.110
196.251, 12799.610
196.733, 13093.010
197.215, 13394.870
197.697, 13685.740
198.180, 13983.080
198.662, 14356.260
199.144, 14812.850
199.626, 15309.790
200.108, 15810.370
200.590, 16317.550
201.072, 16826.109
201.554, 17363.039
202.036, 17910.311
202.519, 18348.340
203.001, 18689.449
203.483, 18889.631
203.965, 18888.539
204.447, 18668.410
204.929, 18326.770
205.411, 17866.770
205.893, 17286.740
206.376, 16719.779
206.858, 16164.990
207.340, 15624.740
207.822, 15092.810
208.304, 14555.340
208.786, 14073.410
209.268, 13676.440
209.750, 13366.960
210.232, 13102.080
210.715, 12890.060
211.197, 12712.630
211.679, 12538.760
212.161, 12368.020
212.643, 12201.990
213.125, 12040.220
213.607, 11873.360
214.089, 11743.910
214.572, 11665.720
215.054, 11617.190
215.536, 11541.010
216.018, 11417.760
216.500, 11304.240
216.982, 11235.160
217.464, 11231.270
217.946, 11205.110
218.428, 11144.090
218.911, 11059.330
219.393, 10988.970
219.875, 10932.640
220.357, 10892.050
220.839, 10867.640
221.321, 10856.290
221.803, 10874.210
222.285, 10947.170
222.768, 11056.320
223.250, 11078.680
223.732, 10967.480
224.214, 10835.640
224.696, 10762.180
225.178, 10774.620
225.660, 10786.910
226.142, 10790.670
226.624, 10786.100
227.107, 10774.570
227.589, 10750.540
228.071, 10725.360
228.553, 10710.050
229.035, 10714.710
229.517, 10706.890
229.999, 10671.270
230.481, 10607.770
230.964, 10582.420
231.446, 10612.950
231.928, 10663.800
232.410, 10701.750
232.892, 10723.650
233.374, 10738.480
233.856, 10746.680
234.338, 10747.870
234.820, 10748.680
235.303, 10746.700
235.785, 10746.660
236.267, 10754.250
236.749, 10772.670
237.231, 10793.550
237.713, 10815.480
238.195, 10839.120
238.677, 10860.400
239.159, 10877.600
239.642, 10893.930
240.124, 10912.520
240.606, 10928.990
241.088, 10956.210
241.570, 11003.350
242.052, 11080.910
242.534, 11128.710
243.016, 11128.040
243.499, 11109.050
243.981, 11119.200
244.463, 11172.330
244.945, 11231.420
245.427, 11284.420
245.909, 11327.060
246.391, 11378.360
246.873, 11452.880
247.355, 11527.570
247.837, 11555.160
248.320, 11498.790
248.802, 11455.380
249.284, 11464.440
249.766, 11547.940
250.248, 11615.110
250.730, 11669.770
251.212, 11707.060
251.695, 11711.490
252.177, 11660.010
252.659, 11616.650
253.141, 11611.790
253.623, 11668.460
254.105, 11697.280
254.587, 11683.090
255.069, 11648.820
255.551, 11647.780
256.034, 11693.460
256.516, 11748.780
256.998, 11797.150
257.480, 11831.620
257.962, 11877.310
258.444, 11938.900
258.926, 12009.480
259.408, 12073.730
259.890, 12129.820
260.373, 12182.000
260.855, 12233.570
261.337, 12286.500
261.819, 12329.270
262.301, 12355.560
262.783, 12373.770
263.265, 12407.490
263.747, 12463.590
264.229, 12520.980
264.712, 12570.170
265.194, 12609.830
265.676, 12644.860
266.158, 12676.300
266.640, 12702.510
267.122, 12712.860
267.604, 12696.960
268.086, 12690.790
268.569, 12719.370
269.051, 12794.340
269.533, 12853.940
270.015, 12889.180
270.497, 12910.370
270.979, 12946.310
271.461, 13001.170
271.943, 13060.760
272.426, 13122.780
272.908, 13191.550
273.390, 13230.680
273.872, 13221.460
274.354, 13191.640
274.836, 13219.030
275.318, 13314.560
275.800, 13428.490
276.282, 13536.430
276.764, 13639.010
277.247, 13726.070
277.729, 13794.960
278.211, 13849.850
278.693, 13904.900
279.175, 13961.150
279.657, 14011.090
280.139, 14046.530
280.621, 14066.720
281.104, 14091.110
281.586, 14119.190
282.068, 14154.780
282.550, 14213.990
283.032, 14299.950
283.514, 14381.010
283.996, 14434.590
284.478, 14462.140
284.961, 14491.810
285.443, 14530.330
285.925, 14567.480
286.407, 14579.890
286.889, 14567.370
287.371, 14544.450
287.853, 14519.510
288.335, 14492.160
288.817, 14457.010
289.299, 14409.810
289.782, 14360.820
290.264, 14329.600
290.746, 14315.320
291.228, 14305.550
291.710, 14285.770
292.192, 14262.110
292.674, 14262.210
293.156, 14291.860
293.639, 14339.290
294.121, 14387.210
294.603, 14435.730
295.085, 14492.120
295.567, 14564.200
296.049, 14647.550
296.531, 14728.610
297.013, 14802.080
297.496, 14886.550
297.978, 15003.780
298.460, 15153.890
298.942, 15330.140
299.424, 15534.960
299.906, 15763.100
300.388, 16021.130
300.870, 16323.960
301.352, 16610.400
301.835, 16797.760
302.317, 16907.381
302.799, 17011.789
303.281, 17201.061
303.763, 17388.930
304.245, 17447.029
304.727, 17349.721
305.209, 17178.939
305.691, 16994.000
306.174, 16791.910
306.656, 16560.750
307.138, 16278.000
307.620, 15971.430
308.102, 15659.220
308.584, 15342.900
309.066, 15036.820
309.548, 14743.080
310.030, 14467.140
310.513, 14211.370
310.995, 13966.820
311.477, 13747.320
311.959, 13539.220
312.441, 13331.800
312.923, 13176.934
313.405, 13200.411
313.888, 13180.607
314.370, 13119.839
314.852, 12895.392
315.334, 12882.301
315.816, 12784.510
316.298, 12683.227
316.780, 12699.878
317.262, 12499.241
317.744, 12514.027
318.227, 12442.815
318.709, 12351.680
319.191, 12326.020
319.673, 12310.890
320.155, 12306.550
320.637, 12293.820
321.119, 12266.100
321.601, 12227.910
322.083, 12183.830
322.566, 12124.410
323.048, 12068.680
323.530, 12021.130
324.012, 11981.720
324.494, 11946.050
324.976, 11902.590
325.458, 11868.430
325.940, 11856.000
326.422, 11922.360
326.905, 11948.990
327.387, 11899.760
327.869, 11779.660
328.351, 11691.450
328.833, 11656.080
329.315, 11637.130
329.797, 11613.990
330.279, 11591.450
330.762, 11557.940
331.244, 11505.860
331.726, 11440.380
332.208, 11390.830
332.690, 11368.420
333.172, 11349.220
333.654, 11317.660
334.136, 11257.180
334.618, 11198.592
335.101, 11200.011
335.583, 11186.862
336.065, 11159.933
336.547, 11077.936
337.029, 11067.038
337.511, 11027.652
337.993, 10987.099
338.475, 10986.215
338.957, 10912.229
339.440, 10910.716
339.922, 10880.266
340.404, 10843.120
340.886, 10806.980
341.368, 10785.720
341.850, 10780.380
342.332, 10755.770
342.815, 10709.410
343.297, 10649.060
343.779, 10575.140
344.261, 10487.470
344.743, 10422.740
345.225, 10407.250
345.707, 10431.140
346.189, 10442.470
346.671, 10441.510
347.154, 10426.390
347.636, 10383.130
348.118, 10318.450
348.600, 10267.770
349.082, 10253.720
349.564, 10259.240
350.046, 10244.630
350.528, 10209.160
351.010, 10175.880
351.493, 10178.270
351.975, 10198.320
352.457, 10193.370
352.939, 10130.040
353.421, 10053.590
353.903, 10024.580
354.385, 10037.490
354.867, 10048.900
355.349, 10024.670
355.832, 9983.045
356.314, 9946.641
356.796, 9920.432
357.278, 9902.943
357.760, 9903.006
358.242, 9914.000
358.724, 9912.397
359.206, 9864.561
359.689, 9811.732
360.171, 9788.269
360.653, 9811.950
361.135, 9839.864
361.617, 9864.804
362.099, 9880.024
362.581, 9872.351
363.063, 9815.264
363.546, 9751.271
364.028, 9697.238
364.510, 9651.854
364.992, 9626.985
365.474, 9650.061
365.956, 9689.365
366.438, 9699.211
366.920, 9643.334
367.402, 9587.184
367.884, 9548.072
368.367, 9529.517
368.849, 9512.578
369.331, 9490.068
369.813, 9472.981
370.295, 9472.807
370.777, 9510.735
371.259, 9534.869
371.741, 9529.848
372.224, 9497.408
372.706, 9487.329
373.188, 9516.595
373.670, 9546.362
374.152, 9543.795
374.634, 9492.405
375.116, 9456.360
375.598, 9446.578
376.081, 9455.641
376.563, 9456.225
377.045, 9445.656
377.527, 9434.908
378.009, 9435.849
378.491, 9450.023
378.973, 9441.396
379.455, 9401.993
379.937, 9348.808
380.419, 9308.591
380.902, 9281.875
381.384, 9267.104
381.866, 9272.026
382.348, 9290.777
382.830, 9294.679
383.312, 9281.670
383.794, 9262.593
384.276, 9247.600
384.759, 9236.581
385.241, 9229.902
385.723, 9232.965
386.205, 9237.748
386.687, 9231.565
387.169, 9214.243
387.651, 9191.554
388.133, 9163.126
388.616, 9133.121
389.098, 9107.052
389.580, 9081.978
390.062, 9066.807
390.544, 9078.534
391.026, 9110.113
391.508, 9128.795
391.990, 9104.635
392.472, 9067.935
392.955, 9043.934
393.437, 9044.655
393.919, 9046.379
394.401, 9043.494
394.883, 9035.220
395.365, 9019.641
395.847, 8980.834
396.329, 8947.317
396.811, 8935.746
397.294, 8958.686
397.776, 8966.078
398.258, 8933.984
398.740, 8888.350
399.222, 8861.628
399.704, 8880.130
400.186, 8888.542
400.668, 8872.688
401.151, 8830.755
401.633, 8794.905
402.115, 8752.939
402.597, 8729.519
403.079, 8752.235
403.561, 8853.519
404.043, 8918.513
404.525, 8922.170
405.008, 8879.751
405.490, 8858.135
405.972, 8863.416
406.454, 8870.153
406.936, 8859.001
407.418, 8828.578
407.900, 8812.101
408.382, 8811.950
408.864, 8826.132
409.346, 8858.819
409.829, 8909.683
410.311, 8951.723
410.793, 8968.761
411.275, 8967.669
411.757, 8966.980
412.239, 8966.325
412.721, 8971.878
413.203, 8995.447
413.686, 9030.574
414.168, 9060.420
414.650, 9073.448
415.132, 9082.997
415.614, 9103.878
416.096, 9135.046
416.578, 9123.927
417.060, 9176.686
417.543, 9213.939
418.025, 9236.519
418.507, 9200.479
418.989, 9240.139
419.471, 9256.455
419.953, 9267.104
420.435, 9324.204
420.917, 9370.027
421.399, 9405.183
421.882, 9397.713
422.364, 9445.283
422.846, 9470.803
423.328, 9495.413
423.810, 9550.729
424.292, 9549.461
424.774, 9604.290
425.256, 9636.726
425.738, 9679.418
426.221, 9699.911
426.703, 9727.257
427.185, 9776.806
427.667, 9789.367
428.149, 9821.740
428.631, 9872.966
429.113, 9915.287
429.595, 9942.227
430.078, 9959.684
430.560, 9986.334
431.042, 10023.780
431.524, 10062.770
432.006, 10098.440
432.488, 10130.840
432.970, 10162.720
433.452, 10194.580
433.934, 10224.690
434.417, 10251.590
434.899, 10275.150
435.381, 10293.590
435.863, 10302.210
436.345, 10307.260
436.827, 10323.190
437.309, 10349.770
437.791, 10375.170
438.273, 10384.750
438.756, 10388.500
439.238, 10402.860
439.720, 10436.580
440.202, 10473.760
440.684, 10509.820
441.166, 10540.280
441.648, 10552.750
442.130, 10527.910
442.612, 10491.930
443.095, 10456.880
443.577, 10419.230
444.059, 10402.980
444.541, 10424.580
445.023, 10468.840
445.505, 10517.740
445.987, 10591.950
446.470, 10645.200
446.952, 10671.440
447.434, 10670.220
447.916, 10631.420
448.398, 10503.180
448.880, 10385.810
449.362, 10346.100
449.844, 10435.060
450.326, 10489.700
450.809, 10494.170
451.291, 10463.880
451.773, 10434.060
452.255, 10403.160
452.737, 10376.780
453.219, 10355.910
453.701, 10340.440
454.183, 10343.260
454.665, 10369.990
455.148, 10391.840
455.630, 10362.300
456.112, 10290.870
456.594, 10242.910
457.076, 10244.140
457.558, 10272.390
458.040, 10289.140
458.522, 10296.390
459.004, 10308.780
459.487, 10358.820
459.969, 10412.020
460.451, 10413.890
460.933, 10341.940
461.415, 10264.700
461.897, 10237.200
462.379, 10238.590
462.862, 10233.460
463.344, 10183.590
463.826, 10144.220
464.308, 10151.020
464.790, 10207.060
465.272, 10255.010
465.754, 10284.010
466.236, 10295.970
466.718, 10292.280
467.201, 10240.650
467.683, 10212.840
468.165, 10226.150
468.647, 10266.260
469.129, 10287.630
469.611, 10273.690
470.093, 10265.140
470.575, 10280.380
471.057, 10324.440
471.539, 10358.600
472.022, 10380.210
472.504, 10395.580
472.986, 10411.480
473.468, 10427.920
473.950, 10445.960
474.432, 10467.650
474.914, 10490.340
475.397, 10507.090
475.879, 10518.150
476.361, 10524.800
476.843, 10509.840
477.325, 10494.000
477.807, 10532.750
478.289, 10648.020
478.771, 10762.630
479.253, 10790.440
479.736, 10763.690
480.218, 10747.440
480.700, 10787.610
481.182, 10835.090
481.664, 10845.950
482.146, 10821.920
482.628, 10822.000
483.110, 10701.988
483.592, 10898.621
484.075, 11018.396
484.557, 11065.434
485.039, 10821.897
485.521, 10953.578
486.003, 10934.889
486.485, 10910.033
486.967, 11094.526
487.449, 10893.255
487.931, 11074.425
488.414, 11102.932
488.896, 11201.307
489.378, 11148.387
489.860, 11142.199
490.342, 11287.356
490.824, 11348.710
491.306, 11278.372
491.788, 11381.189
492.271, 11174.633
492.753, 11239.560
493.235, 11421.616
493.717, 11358.885
494.199, 11464.469
494.681, 11505.949
495.163, 11256.105
495.645, 11512.907
496.128, 11550.601
496.610, 11433.350
497.092, 11407.220
497.574, 11418.480
498.056, 11534.650
498.538, 11639.580
499.020, 11631.560
499.502, 11540.610
499.984, 11492.020
500.466, 11580.740
500.949, 11691.920
501.431, 11759.890
501.913, 11763.450
502.395, 11760.240
502.877, 11760.830
503.359, 11756.820
503.841, 11736.370
504.323, 11674.160
504.806, 11634.910
505.288, 11640.630
505.770, 11682.310
506.252, 11696.510
506.734, 11677.770
507.216, 11644.440
507.698, 11602.700
508.180, 11552.040
508.663, 11514.940
509.145, 11495.960
509.627, 11481.530
510.109, 11453.260
510.591, 11412.730
511.073, 11368.510
511.555, 11329.220
512.037, 11284.730
512.519, 11208.910
513.002, 11107.550
513.484, 11018.560
513.966, 10983.250
514.448, 10964.960
514.930, 10926.740
515.412, 10858.870
515.894, 10779.530
516.376, 10677.190
516.859, 10573.420
517.341, 10498.530
517.823, 10498.210
518.305, 10488.880
518.787, 10443.150
519.269, 10360.440
519.751, 10282.370
520.233, 10206.800
520.715, 10139.180
521.198, 10085.870
521.680, 10055.790
522.162, 10011.810
522.644, 9947.684
523.126, 9876.422
523.608, 9818.037
524.090, 9773.431
524.572, 9732.229
525.054, 9692.838
525.537, 9654.446
526.019, 9614.981
526.501, 9574.785
526.983, 9535.833
527.465, 9502.753
527.947, 9471.339
528.429, 9431.260
528.911, 9378.273
529.393, 9328.086
529.876, 9290.826
530.358, 9264.857
530.840, 9246.836
531.322, 9247.813
531.804, 9245.067
532.286, 9225.093
532.768, 9189.975
533.250, 9158.611
533.732, 9138.467
534.215, 9120.885
534.697, 9101.361
535.179, 9076.404
535.661, 9058.165
536.143, 9054.200
536.625, 9051.153
537.107, 9027.657
537.589, 8975.147
538.072, 8932.026
538.554, 8905.075
539.036, 8894.475
539.518, 8911.469
540.000, 8958.947
540.482, 8988.987
540.964, 8942.575
541.446, 8854.422
541.929, 8826.788
542.411, 8874.658
542.893, 8936.801
543.375, 8955.722
543.857, 8930.764
544.339, 8963.147
544.821, 8981.612
545.303, 8986.906
545.786, 8939.577
546.268, 8960.199
546.750, 8953.589
547.232, 8945.862
547.714, 8976.048
548.196, 8936.373
548.678, 8965.957
549.160, 8967.895
549.642, 8982.485
550.125, 8964.016
550.607, 8966.077
551.089, 8994.339
551.571, 9012.297
552.053, 9010.502
552.535, 8998.930
553.017, 9007.396
553.499, 9038.146
553.981, 9065.212
554.464, 9074.368
554.946, 9069.374
555.428, 9061.160
555.910, 9049.372
556.392, 9043.997
556.874, 9052.989
557.356, 9074.289
557.838, 9108.471
558.320, 9167.313
558.803, 9214.227
559.285, 9215.977
559.767, 9188.402
560.249, 9161.491
560.731, 9131.148
561.213, 9116.888
561.695, 9133.515
562.177, 9181.510
562.659, 9217.993
563.142, 9229.938
563.624, 9238.978
564.106, 9257.330
564.588, 9292.865
565.070, 9314.438
565.552, 9314.982
566.034, 9311.023
566.516, 9332.376
566.999, 9381.546
567.481, 9412.793
567.963, 9403.080
568.445, 9376.766
568.927, 9394.962
569.409, 9453.085
569.891, 9507.869
570.373, 9522.653
570.856, 9522.317
571.338, 9542.205
571.820, 9586.869
572.302, 9631.446
572.784, 9657.360
573.266, 9675.987
573.748, 9699.517
574.230, 9742.685
574.713, 9777.034
575.195, 9793.479
575.677, 9796.400
576.159, 9795.927
576.641, 9774.668
577.123, 9775.618
577.605, 9823.904
578.087, 9918.966
578.569, 9959.369
579.052, 9923.994
579.534, 9889.383
580.016, 9929.134
580.498, 10036.800
580.980, 10106.100
581.462, 10119.940
581.944, 10116.810
582.426, 10146.900
582.908, 10201.250
583.391, 10252.370
583.873, 10285.080
584.355, 10314.560
584.837, 10353.190
585.319, 10399.590
585.801, 10449.740
586.283, 10514.270
586.765, 10571.580
587.247, 10606.730
587.730, 10612.590
588.212, 10620.480
588.694, 10626.410
589.176, 10641.010
589.658, 10674.160
590.140, 10736.110
590.622, 10794.270
591.104, 10847.800
591.586, 10894.770
592.069, 10926.950
592.551, 10942.220
593.033, 10969.490
593.515, 11025.400
593.997, 11099.200
594.479, 11167.740
594.961, 11230.830
595.443, 11280.850
595.925, 11297.670
596.408, 11305.370
596.890, 11338.020
597.372, 11404.460
597.854, 11471.640
598.336, 11498.250
598.818, 11524.380
599.300, 11595.480
599.782, 11814.120
600.265, 11973.490
600.747, 11996.210
601.229, 11930.730
601.711, 11909.980
602.193, 11947.900
602.675, 12008.540
603.157, 12087.060
603.639, 12182.730
604.122, 12259.210
604.604, 12314.370
605.086, 12362.980
605.568, 12418.900
606.050, 12479.480
606.532, 12526.210
607.014, 12552.070
607.496, 12587.890
