##NAMES=Janhaugite
##RRUFFID=R070731
##IDEAL CHEMISTRY=Na_3_Mn^2+^_3_Ti^4+^_2_(Si_2_O_7_)_2_(O,OH,F)_4_
##LOCALITY=Gjerdingselva (Gjerdingen), Nordmarka, Lunner, Oppland, Norway
##OWNER=RRUFF
##SOURCE=Michael Scott
##DESCRIPTION=Reddish brown prismatic crystals associated with quartz and aegirine
##STATUS=The identification of this mineral has been confirmed by single-crystal X-ray diffraction.
##URL=rruff.info/R070731
89.15009, 27399.34
89.63220, 28265.83
90.11432, 29191.01
90.59644, 30040.45
91.07855, 30768.59
91.56067, 31471.10
92.04279, 32225.42
92.52490, 33043.76
93.00702, 33866.79
93.48914, 34592.50
93.97125, 35142.76
94.45337, 35619.16
94.93549, 35723.45
95.41760, 35603.95
95.89972, 35467.99
96.38184, 35282.32
96.86395, 35088.83
97.34607, 35006.32
97.82819, 35086.77
98.31030, 35192.25
98.79242, 35239.78
99.27454, 35230.22
99.75665, 35217.80
100.2388, 35228.33
100.7209, 35258.07
101.2030, 35305.58
101.6851, 35372.09
102.1672, 35453.64
102.6494, 35543.94
103.1315, 35646.07
103.6136, 35746.18
104.0957, 35830.88
104.5778, 35905.34
105.0599, 35984.22
105.5421, 36089.14
106.0242, 36226.00
106.5063, 36321.53
106.9884, 36331.25
107.4705, 36329.66
107.9526, 36351.63
108.4348, 36399.70
108.9169, 36449.71
109.3990, 36464.48
109.8811, 36418.25
110.3632, 36375.20
110.8453, 36315.56
111.3275, 36267.64
111.8096, 36256.91
112.2917, 36294.32
112.7738, 36373.22
113.2559, 36473.01
113.7380, 36621.36
114.2202, 36757.09
114.7023, 36846.94
115.1844, 36911.27
115.6665, 37001.17
116.1486, 37152.39
116.6307, 37360.44
117.1129, 37556.86
117.5950, 37734.43
118.0771, 37905.84
118.5592, 38075.44
119.0413, 38242.61
119.5234, 38414.16
120.0056, 38590.77
120.4877, 38774.07
120.9698, 38975.89
121.4519, 39227.68
121.9340, 39499.42
122.4161, 39716.02
122.8982, 39847.98
123.3804, 39954.66
123.8625, 40094.28
124.3446, 40257.35
124.8267, 40396.16
125.3088, 40463.60
125.7909, 40453.90
126.2731, 40454.66
126.7552, 40505.61
127.2373, 40549.39
127.7194, 40562.33
128.2015, 40538.79
128.6837, 40481.57
129.1658, 40394.52
129.6479, 40277.25
130.1300, 40123.65
130.6121, 39899.34
131.0942, 39662.82
131.5764, 39464.09
132.0585, 39326.30
132.5406, 39233.12
133.0227, 39130.02
133.5048, 39027.84
133.9869, 38902.19
134.4691, 38729.99
134.9512, 38533.15
135.4333, 38347.58
135.9154, 38195.66
136.3975, 38077.04
136.8796, 37971.30
137.3618, 37878.21
137.8439, 37795.39
138.3260, 37725.76
138.8081, 37667.76
139.2902, 37612.23
139.7723, 37549.11
140.2545, 37479.42
140.7366, 37423.38
141.2187, 37381.92
141.7008, 37354.82
142.1829, 37349.65
142.6650, 37373.60
143.1472, 37392.94
143.6293, 37349.13
144.1114, 37258.14
144.5935, 37207.09
145.0756, 37257.00
145.5577, 37379.05
146.0399, 37476.04
146.5220, 37515.76
147.0041, 37545.75
147.4862, 37598.29
147.9683, 37673.87
148.4504, 37770.41
148.9326, 37897.50
149.4147, 38060.95
149.8968, 38201.30
150.3789, 38288.87
150.8610, 38360.69
151.3431, 38430.74
151.8252, 38502.88
152.3074, 38580.83
152.7895, 38677.18
153.2716, 38822.01
153.7537, 38917.28
154.2358, 38934.56
154.7179, 38916.78
155.2001, 38903.59
155.6822, 38912.10
156.1643, 38926.72
156.6464, 38899.37
157.1285, 38792.01
157.6106, 38680.04
158.0928, 38574.74
158.5749, 38468.94
159.0570, 38350.89
159.5391, 38213.10
160.0212, 38057.13
160.5033, 37906.13
160.9855, 37767.13
161.4676, 37625.24
161.9497, 37480.22
162.4318, 37329.39
162.9139, 37163.08
163.3960, 36967.41
163.8782, 36741.98
164.3603, 36565.21
164.8424, 36468.50
165.3245, 36389.52
165.8066, 36280.34
166.2887, 36139.16
166.7709, 36014.17
167.2530, 35966.40
167.7351, 35993.67
168.2172, 35973.90
168.6993, 35847.90
169.1814, 35686.27
169.6636, 35579.96
170.1457, 35549.72
170.6278, 35543.26
171.1099, 35510.64
171.5920, 35456.35
172.0741, 35394.36
172.5563, 35313.20
173.0384, 35226.73
173.5205, 35179.39
174.0026, 35195.20
174.4847, 35229.45
174.9668, 35233.83
175.4490, 35211.57
175.9311, 35203.96
176.4132, 35254.71
176.8953, 35361.86
177.3774, 35440.08
177.8595, 35448.07
178.3417, 35442.93
178.8238, 35455.79
179.3059, 35490.40
179.7880, 35541.63
180.2701, 35608.42
180.7522, 35696.61
181.2344, 35776.52
181.7165, 35850.71
182.1986, 35911.11
182.6807, 35938.93
183.1628, 35931.16
183.6449, 35921.95
184.1271, 35975.48
184.6092, 36138.55
185.0913, 36272.52
185.5734, 36358.34
186.0555, 36416.61
186.5376, 36455.96
187.0198, 36480.41
187.5019, 36503.33
187.9840, 36562.11
188.4661, 36703.98
188.9482, 36823.84
189.4303, 36904.39
189.9125, 36962.39
190.3946, 37019.46
190.8767, 37087.96
191.3588, 37160.45
191.8409, 37202.89
192.3230, 37178.71
192.8052, 37164.97
193.2873, 37176.01
193.7694, 37206.47
194.2515, 37249.67
194.7336, 37304.99
195.2157, 37368.29
195.6979, 37397.50
196.1800, 37386.42
196.6621, 37357.09
197.1442, 37319.52
197.6263, 37270.80
198.1084, 37199.29
198.5906, 37092.13
199.0727, 36952.11
199.5548, 36824.99
200.0369, 36722.62
200.5190, 36622.71
201.0011, 36514.13
201.4833, 36396.41
201.9654, 36271.11
202.4475, 36135.36
202.9296, 35991.32
203.4117, 35855.07
203.8938, 35735.13
204.3760, 35618.13
204.8581, 35485.04
205.3402, 35332.83
205.8223, 35196.61
206.3044, 35119.68
206.7865, 35085.03
207.2687, 35031.91
207.7508, 34948.00
208.2329, 34839.83
208.7150, 34709.22
209.1971, 34550.21
209.6792, 34392.22
210.1614, 34252.93
210.6435, 34131.28
211.1256, 34032.64
211.6077, 33982.90
212.0898, 33954.76
212.5719, 33879.99
213.0541, 33729.32
213.5362, 33585.52
214.0183, 33514.96
214.5004, 33495.63
214.9825, 33474.93
215.4646, 33430.20
215.9468, 33362.89
216.4289, 33274.11
216.9110, 33135.54
217.3931, 33017.15
217.8752, 32967.06
218.3573, 32967.74
218.8395, 32968.62
219.3216, 32927.38
219.8037, 32849.02
220.2858, 32796.93
220.7679, 32802.68
221.2500, 32802.35
221.7322, 32746.50
222.2143, 32654.28
222.6964, 32586.31
223.1785, 32611.21
223.6606, 32735.34
224.1427, 32808.12
224.6249, 32779.87
225.1070, 32739.27
225.5891, 32721.96
226.0712, 32723.96
226.5533, 32720.74
227.0354, 32684.97
227.5176, 32609.90
227.9997, 32548.97
228.4818, 32495.21
228.9639, 32461.75
229.4460, 32462.63
229.9281, 32492.87
230.4103, 32533.92
230.8924, 32568.05
231.3745, 32594.82
231.8566, 32616.37
232.3387, 32644.68
232.8208, 32658.57
233.3030, 32625.66
233.7851, 32558.54
234.2672, 32511.56
234.7493, 32555.96
235.2314, 32739.21
235.7135, 32839.60
236.1957, 32809.29
236.6778, 32751.42
237.1599, 32701.33
237.6420, 32672.26
238.1241, 32676.40
238.6062, 32732.99
239.0884, 32866.80
239.5705, 32972.63
240.0526, 33051.34
240.5347, 33107.09
241.0168, 33133.10
241.4989, 33133.46
241.9811, 33126.45
242.4632, 33134.12
242.9453, 33165.54
243.4274, 33182.58
243.9095, 33161.37
244.3916, 33145.15
244.8738, 33169.48
245.3559, 33234.83
245.8380, 33307.03
246.3201, 33343.56
246.8022, 33322.38
247.2843, 33338.57
247.7665, 33421.33
248.2486, 33517.31
248.7307, 33602.14
249.2128, 33667.50
249.6949, 33697.83
250.1770, 33670.42
250.6592, 33561.09
251.1413, 33473.27
251.6234, 33416.87
252.1055, 33373.93
252.5876, 33333.76
253.0697, 33294.21
253.5519, 33253.30
254.0340, 33207.24
254.5161, 33151.21
254.9982, 33115.60
255.4803, 33134.22
255.9624, 33150.85
256.4445, 33109.98
256.9267, 33007.89
257.4088, 32899.52
257.8909, 32846.67
258.3730, 32868.09
258.8551, 32847.75
259.3372, 32750.89
259.8194, 32634.84
260.3015, 32539.23
260.7836, 32470.00
261.2657, 32424.73
261.7478, 32408.67
262.2299, 32428.54
262.7121, 32419.04
263.1942, 32352.50
263.6763, 32274.10
264.1584, 32218.48
264.6405, 32189.27
265.1227, 32175.00
265.6048, 32170.32
266.0869, 32175.82
266.5690, 32166.54
267.0511, 32130.79
267.5332, 32087.54
268.0154, 32053.04
268.4975, 32028.22
268.9796, 32003.70
269.4617, 31974.65
269.9438, 31939.09
270.4259, 31888.21
270.9081, 31797.28
271.3902, 31707.87
271.8723, 31654.43
272.3544, 31637.48
272.8365, 31635.36
273.3186, 31635.97
273.8008, 31638.39
274.2829, 31635.25
274.7650, 31624.38
275.2471, 31609.67
275.7292, 31589.99
276.2113, 31566.59
276.6935, 31552.53
277.1756, 31567.62
277.6577, 31600.59
278.1398, 31589.22
278.6219, 31474.55
279.1040, 31362.92
279.5862, 31340.55
280.0683, 31398.13
280.5504, 31457.88
281.0325, 31482.14
281.5146, 31465.82
281.9967, 31412.79
282.4789, 31255.14
282.9610, 31122.36
283.4431, 31127.86
283.9252, 31246.72
284.4073, 31334.19
284.8894, 31302.89
285.3716, 31190.04
285.8537, 31121.96
286.3358, 31123.70
286.8179, 31136.42
287.3000, 31132.57
287.7821, 31113.73
288.2643, 31083.05
288.7464, 31033.62
289.2285, 30980.54
289.7106, 30960.87
290.1927, 30990.77
290.6748, 31021.72
291.1570, 31042.71
291.6391, 31048.81
292.1212, 31016.37
292.6033, 30920.08
293.0854, 30802.63
293.5675, 30755.92
294.0497, 30802.67
294.5318, 30844.32
295.0139, 30830.50
295.4960, 30782.88
295.9781, 30750.03
296.4602, 30747.53
296.9424, 30766.25
297.4245, 30796.76
297.9066, 30844.54
298.3887, 30878.46
298.8708, 30874.30
299.3529, 30852.41
299.8351, 30852.86
300.3172, 30890.55
300.7993, 30936.06
301.2814, 30943.85
301.7635, 30911.36
302.2456, 30881.79
302.7278, 30862.66
303.2099, 30852.54
303.6920, 30850.45
304.1741, 30856.37
304.6562, 30868.45
305.1383, 30888.44
305.6205, 30917.29
306.1026, 30935.89
306.5847, 30941.90
307.0668, 30936.46
307.5489, 30913.00
308.0310, 30870.89
308.5132, 30835.36
308.9953, 30829.91
309.4774, 30857.00
309.9595, 30893.20
310.4416, 30967.74
310.9237, 31030.11
311.4059, 31023.62
311.8880, 30952.58
312.3701, 30889.82
312.8522, 30898.41
313.3343, 30972.46
313.8164, 30998.42
314.2986, 30941.27
314.7807, 30869.40
315.2628, 30811.38
315.7449, 30770.07
316.2270, 30751.74
316.7091, 30766.79
317.1913, 30806.54
317.6734, 30819.99
318.1555, 30799.40
318.6376, 30765.79
319.1197, 30721.96
319.6018, 30670.82
320.0840, 30617.69
320.5661, 30564.90
321.0482, 30512.97
321.5303, 30464.74
322.0124, 30407.41
322.4945, 30369.57
322.9767, 30374.29
323.4588, 30398.27
323.9409, 30405.76
324.4230, 30382.75
324.9051, 30342.56
325.3872, 30311.24
325.8694, 30294.97
326.3515, 30277.04
326.8336, 30258.67
327.3157, 30237.13
327.7978, 30206.94
328.2799, 30167.29
328.7621, 30126.50
329.2442, 30096.15
329.7263, 30083.20
330.2084, 30064.15
330.6905, 30035.13
331.1726, 30003.18
331.6548, 29970.63
332.1369, 29939.07
332.6190, 29912.40
333.1011, 29895.32
333.5832, 29890.03
334.0653, 29882.17
334.5475, 29855.46
335.0296, 29841.23
335.5117, 29871.05
335.9938, 29930.16
336.4759, 29972.90
336.9580, 29961.40
337.4402, 29896.73
337.9223, 29848.04
338.4044, 29831.74
338.8865, 29813.18
339.3686, 29772.53
339.8507, 29724.68
340.3329, 29698.54
340.8150, 29712.25
341.2971, 29754.46
341.7792, 29776.35
342.2613, 29768.13
342.7434, 29749.47
343.2256, 29715.88
343.7077, 29676.17
344.1898, 29636.62
344.6719, 29599.92
345.1540, 29570.55
345.6361, 29562.64
346.1183, 29609.03
346.6004, 29610.69
347.0825, 29518.38
347.5646, 29415.82
348.0467, 29365.92
348.5288, 29380.13
349.0110, 29421.33
349.4931, 29449.44
349.9752, 29468.46
350.4573, 29458.05
350.9394, 29358.94
351.4215, 29279.03
351.9037, 29288.80
352.3858, 29372.08
352.8679, 29452.31
353.3500, 29457.42
353.8321, 29390.20
354.3142, 29345.59
354.7964, 29354.89
355.2785, 29348.67
355.7606, 29281.88
356.2427, 29181.47
356.7248, 29102.46
357.2069, 29085.21
357.6891, 29105.05
358.1712, 29084.74
358.6533, 28994.83
359.1354, 28931.70
359.6175, 28959.17
360.0996, 29023.20
360.5818, 29065.11
361.0639, 29066.15
361.5460, 29039.21
362.0281, 28995.43
362.5102, 28932.42
362.9923, 28872.23
363.4745, 28820.54
363.9566, 28776.15
364.4387, 28738.90
364.9208, 28709.13
365.4029, 28684.34
365.8850, 28670.17
366.3672, 28662.44
366.8493, 28633.78
367.3314, 28566.15
367.8135, 28494.61
368.2956, 28455.80
368.7777, 28447.38
369.2599, 28446.50
369.7420, 28451.20
370.2241, 28455.71
370.7062, 28448.55
371.1883, 28427.06
371.6704, 28401.64
372.1526, 28375.50
372.6347, 28351.11
373.1168, 28342.88
373.5989, 28366.59
374.0810, 28396.62
374.5631, 28418.37
375.0453, 28429.86
375.5274, 28418.80
376.0095, 28367.20
376.4916, 28290.94
376.9737, 28257.63
377.4558, 28305.13
377.9380, 28346.56
378.4201, 28343.98
378.9022, 28313.99
379.3843, 28290.50
379.8664, 28288.22
380.3485, 28292.18
380.8307, 28269.75
381.3128, 28194.93
381.7949, 28142.11
382.2770, 28140.80
382.7591, 28149.81
383.2412, 28122.04
383.7234, 28052.06
384.2055, 27980.27
384.6876, 27957.98
385.1697, 28005.56
385.6518, 28014.52
386.1339, 27957.12
386.6161, 27893.97
387.0982, 27854.32
387.5803, 27834.90
388.0624, 27821.38
388.5445, 27806.19
389.0266, 27786.74
389.5088, 27735.31
389.9909, 27608.35
390.4730, 27498.04
390.9551, 27426.65
391.4372, 27378.57
391.9193, 27338.41
392.4015, 27300.15
392.8836, 27254.89
393.3657, 27178.83
393.8478, 27052.46
394.3299, 26944.52
394.8120, 26872.01
395.2942, 26814.04
395.7763, 26760.36
396.2584, 26708.08
396.7405, 26655.01
397.2226, 26594.26
397.7047, 26525.91
398.1869, 26476.27
398.6690, 26477.14
399.1511, 26459.67
399.6332, 26372.06
400.1153, 26235.04
400.5974, 26108.00
401.0796, 26014.12
401.5617, 25953.85
402.0438, 25937.88
402.5259, 25978.87
403.0080, 26015.00
403.4901, 26010.06
403.9723, 25979.54
404.4544, 25944.38
404.9365, 25905.80
405.4186, 25866.83
405.9007, 25823.24
406.3828, 25778.57
406.8650, 25755.97
407.3471, 25771.57
407.8292, 25802.62
408.3113, 25809.18
408.7934, 25785.60
409.2755, 25769.48
409.7577, 25787.22
410.2398, 25813.18
410.7219, 25812.80
411.2040, 25779.88
411.6861, 25725.37
412.1682, 25653.92
412.6504, 25561.75
413.1325, 25495.85
413.6146, 25458.01
414.0967, 25443.05
414.5788, 25467.40
415.0609, 25514.84
415.5431, 25542.38
416.0252, 25523.23
416.5073, 25464.57
416.9894, 25398.81
417.4715, 25302.07
417.9536, 25227.57
418.4358, 25198.12
418.9179, 25185.63
419.4000, 25155.03
419.8821, 25097.27
420.3642, 25037.40
420.8463, 25019.09
421.3285, 25068.88
421.8106, 25087.10
422.2927, 25050.21
422.7748, 25004.25
423.2569, 24968.15
423.7390, 24942.72
424.2212, 24920.11
424.7033, 24890.21
425.1854, 24857.47
425.6675, 24855.24
426.1496, 24912.93
426.6317, 24949.97
427.1139, 24921.45
427.5960, 24862.19
428.0781, 24816.55
428.5602, 24802.43
429.0423, 24799.47
429.5244, 24785.09
430.0066, 24759.29
430.4887, 24722.67
430.9708, 24661.91
431.4529, 24603.65
431.9350, 24580.21
432.4171, 24593.47
432.8993, 24606.06
433.3814, 24605.65
433.8635, 24591.54
434.3456, 24557.05
434.8277, 24499.03
435.3098, 24440.06
435.7920, 24395.26
436.2741, 24366.17
436.7562, 24354.59
437.2383, 24387.68
437.7204, 24413.37
438.2025, 24390.12
438.6847, 24332.92
439.1668, 24287.47
439.6489, 24277.09
440.1310, 24289.75
440.6131, 24293.32
441.0952, 24289.18
441.5774, 24273.41
442.0595, 24223.96
442.5416, 24175.62
443.0237, 24165.27
443.5058, 24196.32
443.9879, 24239.54
444.4701, 24257.88
444.9522, 24241.11
445.4343, 24272.27
445.9164, 24406.69
446.3985, 24533.62
446.8806, 24634.37
447.3628, 24699.45
447.8449, 24714.70
448.3270, 24667.76
448.8091, 24578.33
449.2912, 24492.41
449.7733, 24410.29
450.2555, 24331.48
450.7376, 24255.94
451.2197, 24183.75
451.7018, 24106.98
452.1839, 24025.42
452.6660, 23967.99
453.1482, 23973.78
453.6303, 24028.07
454.1124, 24064.15
454.5945, 24076.58
455.0766, 24066.09
455.5587, 24003.95
456.0409, 23913.67
456.5230, 23872.87
457.0051, 23940.76
457.4872, 24033.04
457.9693, 24069.59
458.4514, 24059.80
458.9336, 24062.14
459.4156, 24108.69
459.8978, 24179.68
460.3799, 24220.51
460.8620, 24215.87
461.3441, 24215.42
461.8262, 24227.97
462.3083, 24248.52
462.7905, 24279.57
463.2726, 24318.22
463.7547, 24341.92
464.2368, 24320.21
464.7189, 24241.38
465.2010, 24220.26
465.6832, 24301.88
466.1653, 24389.23
466.6474, 24462.86
467.1295, 24518.78
467.6116, 24553.60
468.0938, 24563.96
468.5759, 24560.15
469.0580, 24565.19
469.5401, 24582.85
470.0222, 24598.79
470.5043, 24617.81
470.9865, 24628.96
471.4686, 24616.66
471.9507, 24583.49
472.4328, 24558.83
472.9149, 24587.48
473.3970, 24644.93
473.8792, 24633.78
474.3613, 24531.50
474.8434, 24415.66
475.3255, 24330.19
475.8076, 24267.56
476.2897, 24212.66
476.7719, 24162.26
477.2540, 24120.63
477.7361, 24103.80
478.2182, 24099.75
478.7003, 24067.65
479.1824, 23989.88
479.6646, 23892.88
480.1467, 23818.09
480.6288, 23772.53
481.1109, 23727.24
481.5930, 23679.27
482.0751, 23632.69
482.5573, 23591.00
483.0394, 23553.46
483.5215, 23518.83
484.0036, 23488.42
484.4857, 23458.09
484.9678, 23398.73
485.4500, 23257.22
485.9321, 23158.19
486.4142, 23146.88
486.8963, 23167.75
487.3784, 23166.82
487.8605, 23130.79
488.3427, 23085.53
488.8248, 23057.13
489.3069, 23045.77
489.7890, 23053.35
490.2711, 23106.28
490.7532, 23142.17
491.2354, 23113.86
491.7175, 23045.06
492.1996, 22992.41
492.6817, 22994.96
493.1638, 23005.76
493.6459, 22947.86
494.1281, 22829.03
494.6102, 22766.57
495.0923, 22829.37
495.5744, 22941.72
496.0565, 22962.40
496.5386, 22872.15
497.0208, 22800.09
497.5029, 22799.68
497.9850, 22817.00
498.4671, 22796.30
498.9492, 22734.52
499.4313, 22659.09
499.9135, 22587.96
500.3956, 22522.94
500.8777, 22486.49
501.3598, 22508.20
501.8419, 22523.22
502.3240, 22524.18
502.8062, 22511.92
503.2883, 22485.45
503.7704, 22445.43
504.2525, 22399.61
504.7346, 22355.92
505.2167, 22314.16
505.6989, 22278.93
506.1810, 22256.68
506.6631, 22234.12
507.1452, 22201.55
507.6273, 22164.16
508.1094, 22134.19
508.5916, 22121.50
509.0737, 22112.83
509.5558, 22086.54
510.0379, 22043.52
510.5200, 22007.61
511.0021, 21984.92
511.4843, 21975.77
511.9664, 21990.77
512.4485, 22038.17
512.9306, 22051.19
513.4127, 21975.27
513.8948, 21881.27
514.3770, 21844.34
514.8591, 21863.93
515.3412, 21891.27
515.8233, 21894.17
516.3054, 21874.48
516.7875, 21843.87
517.2697, 21783.88
517.7518, 21735.60
518.2339, 21709.81
518.7160, 21693.41
519.1981, 21671.33
519.6802, 21641.62
520.1624, 21616.71
520.6445, 21611.64
521.1266, 21626.85
521.6087, 21645.93
522.0908, 21686.82
522.5729, 21703.40
523.0551, 21651.32
523.5372, 21570.91
524.0193, 21527.09
524.5014, 21545.56
524.9835, 21590.86
525.4656, 21648.50
525.9478, 21709.18
526.4299, 21716.74
526.9120, 21643.22
527.3941, 21547.18
527.8762, 21496.78
528.3583, 21493.49
528.8405, 21492.80
529.3226, 21482.23
529.8047, 21480.37
530.2868, 21512.92
530.7689, 21565.04
531.2510, 21596.54
531.7332, 21586.59
532.2153, 21546.97
532.6974, 21504.71
533.1795, 21448.28
533.6616, 21411.31
534.1437, 21404.37
534.6259, 21405.97
535.1080, 21405.95
535.5901, 21402.60
536.0722, 21395.81
536.5543, 21381.74
537.0364, 21366.42
537.5186, 21372.25
538.0007, 21406.10
538.4828, 21435.28
538.9649, 21443.56
539.4470, 21443.18
539.9291, 21447.67
540.4113, 21458.21
540.8934, 21470.63
541.3755, 21484.27
541.8576, 21497.83
542.3397, 21512.15
542.8218, 21526.80
543.3040, 21530.30
543.7861, 21509.79
544.2682, 21470.04
544.7503, 21453.10
545.2324, 21480.84
545.7145, 21500.75
546.1967, 21496.98
546.6788, 21483.36
547.1609, 21477.78
547.6430, 21482.76
548.1251, 21482.85
548.6072, 21455.36
549.0894, 21398.55
549.5715, 21371.44
550.0536, 21391.29
550.5357, 21417.53
551.0178, 21456.86
551.4999, 21485.32
551.9821, 21458.53
552.4642, 21348.62
552.9463, 21243.26
553.4284, 21238.17
553.9105, 21308.73
554.3926, 21355.94
554.8748, 21357.87
555.3569, 21346.28
555.8390, 21351.57
556.3211, 21372.89
556.8032, 21379.16
557.2853, 21357.54
557.7675, 21333.34
558.2496, 21317.27
558.7317, 21306.85
559.2138, 21300.43
559.6959, 21297.01
560.1780, 21288.35
560.6602, 21256.98
561.1423, 21188.87
561.6244, 21154.85
562.1065, 21197.78
562.5886, 21234.11
563.0707, 21229.70
563.5529, 21199.22
564.0350, 21170.55
564.5171, 21154.50
564.9992, 21148.37
565.4813, 21154.51
565.9634, 21171.52
566.4456, 21176.57
566.9277, 21165.14
567.4098, 21139.24
567.8919, 21091.21
568.3740, 21024.33
568.8561, 20974.42
569.3383, 20957.25
569.8204, 20948.46
570.3025, 20934.89
570.7846, 20916.68
571.2667, 20894.85
571.7488, 20869.75
572.2310, 20844.73
572.7131, 20827.13
573.1952, 20822.12
573.6773, 20810.20
574.1594, 20789.25
574.6415, 20764.02
575.1237, 20729.54
575.6058, 20693.03
576.0879, 20671.22
576.5700, 20677.54
577.0521, 20688.10
577.5342, 20656.55
578.0164, 20582.61
578.4985, 20533.19
578.9806, 20533.82
579.4627, 20549.06
579.9448, 20535.88
580.4269, 20498.72
580.9091, 20482.45
581.3912, 20523.33
581.8733, 20562.65
582.3554, 20549.82
582.8375, 20502.96
583.3196, 20469.82
583.8018, 20470.44
584.2839, 20492.45
584.7660, 20517.88
585.2481, 20557.60
