##NAMES=Jarlite
##RRUFFID=R050667
##IDEAL CHEMISTRY=Na_2_(Sr,Na)_14_(Mg,[box])_2_Al_12_F_64_(OH)_4__
##LOCALITY=Ivigtut, Greenland
##OWNER=RRUFF
##SOURCE=University of Arizona Mineral Museum
##DESCRIPTION=Colorless elongated prisms
##STATUS=The identification of this mineral is confirmed by single-crystal X-ray diffraction and chemical analysis.
##URL=rruff.info/R050667
##MEASURED CHEMISTRY=lighter phase: (Na_0.65_K_0.35_)_Σ=1_(Sr_5.92_Na_0.72_Ca_0.18_Li_0.10_Ba_0.08_)_Σ=7_(Mg_0.50_[box]_0.50_)_Σ=1_Al_6.00_F_32.00_((OH)_1.18_(H2O)_0.82_)_Σ=2_; Li not measured but estimated by charge balance
105.0599, 5661.375
105.5421, 5680.049
106.0242, 5724.289
106.5063, 5762.093
106.9884, 5805.950
107.4705, 5833.139
107.9526, 5828.770
108.4348, 5792.617
108.9169, 5737.828
109.3990, 5682.415
109.8811, 5619.980
110.3632, 5568.066
110.8453, 5528.516
111.3275, 5497.196
111.8096, 5470.131
112.2917, 5445.708
112.7738, 5425.011
113.2559, 5413.396
113.7380, 5420.741
114.2202, 5425.301
114.7023, 5421.968
115.1844, 5412.390
115.6665, 5400.101
116.1486, 5386.581
116.6307, 5372.308
117.1129, 5360.865
117.5950, 5353.540
118.0771, 5347.798
118.5592, 5345.284
119.0413, 5346.655
119.5234, 5341.053
120.0056, 5312.604
120.4877, 5268.346
120.9698, 5227.207
121.4519, 5188.140
121.9340, 5156.275
122.4161, 5146.772
122.8982, 5172.975
123.3804, 5204.543
123.8625, 5227.041
124.3446, 5238.967
124.8267, 5232.596
125.3088, 5193.032
125.7909, 5116.963
126.2731, 5053.991
126.7552, 5019.412
127.2373, 4993.712
127.7194, 4969.916
128.2015, 4946.189
128.6837, 4923.428
129.1658, 4902.538
129.6479, 4882.754
130.1300, 4866.890
130.6121, 4863.106
131.0942, 4858.904
131.5764, 4840.325
132.0585, 4801.327
132.5406, 4750.391
133.0227, 4718.097
133.5048, 4728.428
133.9869, 4732.479
134.4691, 4721.167
134.9512, 4699.949
135.4333, 4677.845
135.9154, 4660.093
136.3975, 4646.862
136.8796, 4638.729
137.3618, 4636.818
137.8439, 4637.771
138.3260, 4641.105
138.8081, 4646.429
139.2902, 4652.446
139.7723, 4660.357
140.2545, 4669.251
140.7366, 4666.812
141.2187, 4644.298
141.7008, 4613.755
142.1829, 4585.192
142.6650, 4558.275
143.1472, 4540.404
143.6293, 4546.493
144.1114, 4571.249
144.5935, 4591.132
145.0756, 4588.972
145.5577, 4572.962
146.0399, 4573.904
146.5220, 4614.944
147.0041, 4651.410
147.4862, 4641.847
147.9683, 4588.517
148.4504, 4534.503
148.9326, 4518.880
149.4147, 4545.196
149.8968, 4570.789
150.3789, 4592.441
150.8610, 4608.174
151.3431, 4614.696
151.8252, 4611.509
152.3074, 4603.476
152.7895, 4596.279
153.2716, 4584.910
153.7537, 4586.490
154.2358, 4615.974
154.7179, 4650.414
155.2001, 4668.529
155.6822, 4661.176
156.1643, 4637.082
156.6464, 4623.248
157.1285, 4632.535
157.6106, 4638.143
158.0928, 4636.334
158.5749, 4629.476
159.0570, 4620.824
159.5391, 4612.255
160.0212, 4603.699
160.5033, 4594.726
160.9855, 4576.371
161.4676, 4566.468
161.9497, 4577.737
162.4318, 4603.777
162.9139, 4627.219
163.3960, 4635.680
163.8782, 4627.846
164.3603, 4610.796
164.8424, 4563.634
165.3245, 4523.741
165.8066, 4525.795
166.2887, 4569.886
166.7709, 4613.961
167.2530, 4614.426
167.7351, 4571.733
168.2172, 4541.676
168.6993, 4541.860
169.1814, 4553.021
169.6636, 4549.390
170.1457, 4524.474
170.6278, 4496.338
171.1099, 4484.660
171.5920, 4486.441
172.0741, 4490.371
172.5563, 4496.240
173.0384, 4501.354
173.5205, 4496.393
174.0026, 4473.719
174.4847, 4449.090
174.9668, 4438.985
175.4490, 4442.089
175.9311, 4442.135
176.4132, 4420.813
176.8953, 4379.015
177.3774, 4354.385
177.8595, 4361.990
178.3417, 4383.412
178.8238, 4413.437
179.3059, 4450.409
179.7880, 4481.486
180.2701, 4490.234
180.7522, 4471.695
181.2344, 4451.282
181.7165, 4424.999
182.1986, 4402.991
182.6807, 4394.766
183.1628, 4402.438
183.6449, 4416.098
184.1271, 4417.709
184.6092, 4396.503
185.0913, 4384.816
185.5734, 4390.670
186.0555, 4403.290
186.5376, 4415.280
187.0198, 4423.571
187.5019, 4427.174
187.9840, 4422.945
188.4661, 4396.367
188.9482, 4380.513
189.4303, 4379.217
189.9125, 4389.162
190.3946, 4410.784
190.8767, 4445.593
191.3588, 4486.340
191.8409, 4498.942
192.3230, 4440.882
192.8052, 4401.828
193.2873, 4407.633
193.7694, 4442.682
194.2515, 4481.142
194.7336, 4509.295
195.2157, 4526.669
195.6979, 4527.083
196.1800, 4478.163
196.6621, 4448.726
197.1442, 4483.388
197.6263, 4563.160
198.1084, 4627.595
198.5906, 4631.472
199.0727, 4579.746
199.5548, 4555.452
200.0369, 4580.879
200.5190, 4611.906
201.0011, 4617.771
201.4833, 4600.729
201.9654, 4592.395
202.4475, 4625.558
202.9296, 4692.526
203.4117, 4722.605
203.8938, 4678.474
204.3760, 4618.595
204.8581, 4599.069
205.3402, 4624.617
205.8223, 4654.583
206.3044, 4650.400
206.7865, 4622.951
207.2687, 4611.943
207.7508, 4642.109
208.2329, 4686.177
208.7150, 4703.110
209.1971, 4683.797
209.6792, 4663.938
210.1614, 4675.986
210.6435, 4709.521
211.1256, 4743.045
211.6077, 4775.112
212.0898, 4801.167
212.5719, 4808.542
213.0541, 4789.235
213.5362, 4765.833
214.0183, 4753.679
214.5004, 4749.744
214.9825, 4747.031
215.4646, 4740.321
215.9468, 4731.462
216.4289, 4728.601
216.9110, 4734.200
217.3931, 4743.271
217.8752, 4753.508
218.3573, 4764.579
218.8395, 4775.481
219.3216, 4786.076
219.8037, 4796.249
220.2858, 4805.378
220.7679, 4822.248
221.2500, 4827.221
221.7322, 4802.720
222.2143, 4757.040
222.6964, 4715.582
223.1785, 4700.906
223.6606, 4714.241
224.1427, 4726.340
224.6249, 4731.733
225.1070, 4740.932
225.5891, 4767.245
226.0712, 4803.970
226.5533, 4829.154
227.0354, 4815.720
227.5176, 4755.177
227.9997, 4715.635
228.4818, 4711.804
228.9639, 4717.385
229.4460, 4728.695
229.9281, 4741.938
230.4103, 4750.392
230.8924, 4745.983
231.3745, 4725.369
231.8566, 4706.613
232.3387, 4687.387
232.8208, 4671.639
233.3030, 4663.794
233.7851, 4662.441
234.2672, 4661.313
234.7493, 4653.054
235.2314, 4634.872
235.7135, 4619.727
236.1957, 4608.720
236.6778, 4599.267
237.1599, 4584.231
237.6420, 4566.514
238.1241, 4560.912
238.6062, 4589.564
239.0884, 4676.846
239.5705, 4715.440
240.0526, 4665.130
240.5347, 4606.768
241.0168, 4593.975
241.4989, 4628.719
241.9811, 4673.054
242.4632, 4683.157
242.9453, 4647.594
243.4274, 4608.473
243.9095, 4533.559
244.3916, 4478.848
244.8738, 4499.820
245.3559, 4593.869
245.8380, 4695.225
246.3201, 4726.110
246.8022, 4659.020
247.2843, 4601.207
247.7665, 4552.371
248.2486, 4511.588
248.7307, 4477.020
249.2128, 4448.860
249.6949, 4431.274
250.1770, 4430.788
250.6592, 4455.353
251.1413, 4469.875
251.6234, 4474.157
252.1055, 4469.288
252.5876, 4448.793
253.0697, 4414.534
253.5519, 4384.952
254.0340, 4382.445
254.5161, 4416.871
254.9982, 4441.363
255.4803, 4448.083
255.9624, 4450.200
256.4445, 4459.868
256.9267, 4478.062
257.4088, 4494.076
257.8909, 4495.525
258.3730, 4477.841
258.8551, 4467.738
259.3372, 4469.292
259.8194, 4475.803
260.3015, 4482.781
260.7836, 4489.510
261.2657, 4496.213
261.7478, 4503.554
262.2299, 4511.789
262.7121, 4516.865
263.1942, 4511.996
263.6763, 4508.327
264.1584, 4518.256
264.6405, 4542.208
265.1227, 4565.126
265.6048, 4570.004
266.0869, 4555.466
266.5690, 4558.652
267.0511, 4609.198
267.5332, 4658.527
268.0154, 4657.549
268.4975, 4605.033
268.9796, 4549.794
269.4617, 4534.072
269.9438, 4558.221
270.4259, 4570.427
270.9081, 4557.738
271.3902, 4540.879
271.8723, 4537.139
272.3544, 4546.884
272.8365, 4558.567
273.3186, 4564.538
273.8008, 4564.482
274.2829, 4561.919
274.7650, 4549.802
275.2471, 4540.480
275.7292, 4549.525
276.2113, 4575.100
276.6935, 4591.769
277.1756, 4577.110
277.6577, 4536.898
278.1398, 4515.426
278.6219, 4530.024
279.1040, 4549.350
279.5862, 4550.636
280.0683, 4535.590
280.5504, 4520.034
281.0325, 4513.612
281.5146, 4514.557
281.9967, 4513.357
282.4789, 4501.873
282.9610, 4495.559
283.4431, 4513.757
283.9252, 4550.568
284.4073, 4569.953
284.8894, 4545.152
285.3716, 4492.973
285.8537, 4468.062
286.3358, 4492.849
286.8179, 4515.590
287.3000, 4501.740
287.7821, 4459.526
288.2643, 4421.137
288.7464, 4398.390
289.2285, 4391.583
289.7106, 4399.651
290.1927, 4431.436
290.6748, 4460.797
291.1570, 4474.786
291.6391, 4476.455
292.1212, 4473.621
292.6033, 4466.792
293.0854, 4460.608
293.5675, 4465.366
294.0497, 4484.803
294.5318, 4503.171
295.0139, 4510.322
295.4960, 4511.839
295.9781, 4520.914
296.4602, 4542.622
296.9424, 4571.888
297.4245, 4599.460
297.9066, 4623.983
298.3887, 4652.637
298.8708, 4692.207
299.3529, 4736.524
299.8351, 4775.425
300.3172, 4806.539
300.7993, 4830.727
301.2814, 4845.863
301.7635, 4850.424
302.2456, 4861.035
302.7278, 4895.512
303.2099, 4933.068
303.6920, 4940.233
304.1741, 4908.243
304.6562, 4866.665
305.1383, 4848.063
305.6205, 4853.411
306.1026, 4862.768
306.5847, 4884.441
307.0668, 4903.133
307.5489, 4894.783
308.0310, 4856.575
308.5132, 4823.769
308.9953, 4833.141
309.4774, 4886.988
309.9595, 4927.598
310.4416, 4942.917
310.9237, 4951.283
311.4059, 4969.987
311.8880, 4998.439
312.3701, 5019.575
312.8522, 5016.593
313.3343, 4991.690
313.8164, 4984.951
314.2986, 5012.126
314.7807, 5042.537
315.2628, 5064.247
315.7449, 5075.353
316.2270, 5069.671
316.7091, 5038.687
317.1913, 4988.876
317.6734, 4958.490
318.1555, 4960.525
318.6376, 4964.560
319.1197, 4964.176
319.6018, 4957.311
320.0840, 4938.382
320.5661, 4903.554
321.0482, 4857.218
321.5303, 4814.063
322.0124, 4769.375
322.4945, 4733.201
322.9767, 4710.414
323.4588, 4696.798
323.9409, 4688.396
324.4230, 4684.343
324.9051, 4679.804
325.3872, 4664.435
325.8694, 4631.407
326.3515, 4599.564
326.8336, 4565.934
327.3157, 4536.345
327.7978, 4519.178
328.2799, 4516.134
328.7621, 4517.893
329.2442, 4511.297
329.7263, 4491.021
330.2084, 4475.478
330.6905, 4468.102
331.1726, 4462.770
331.6548, 4455.063
332.1369, 4444.550
332.6190, 4433.157
333.1011, 4422.252
333.5832, 4410.803
334.0653, 4406.629
334.5475, 4419.149
335.0296, 4428.955
335.5117, 4425.691
335.9938, 4411.084
336.4759, 4392.352
336.9580, 4374.395
337.4402, 4357.267
337.9223, 4344.782
338.4044, 4329.708
338.8865, 4326.797
339.3686, 4356.379
339.8507, 4398.829
340.3329, 4418.525
340.8150, 4393.371
341.2971, 4336.086
341.7792, 4301.120
342.2613, 4300.145
342.7434, 4309.560
343.2256, 4337.526
343.7077, 4369.771
344.1898, 4390.682
344.6719, 4394.203
345.1540, 4387.045
345.6361, 4382.226
346.1183, 4380.049
346.6004, 4379.953
347.0825, 4385.114
347.5646, 4389.805
348.0467, 4388.326
348.5288, 4380.244
349.0110, 4371.567
349.4931, 4370.684
349.9752, 4380.128
350.4573, 4387.233
350.9394, 4389.579
351.4215, 4391.331
351.9037, 4390.693
352.3858, 4390.112
352.8679, 4397.348
353.3500, 4425.461
353.8321, 4473.190
354.3142, 4497.736
354.7964, 4485.983
355.2785, 4464.750
355.7606, 4437.775
356.2427, 4410.316
356.7248, 4391.708
357.2069, 4388.848
357.6891, 4397.490
358.1712, 4407.377
358.6533, 4422.174
359.1354, 4429.651
359.6175, 4424.890
360.0996, 4410.822
360.5818, 4387.461
361.0639, 4350.938
361.5460, 4314.825
362.0281, 4299.876
362.5102, 4308.370
362.9923, 4317.407
363.4745, 4326.182
363.9566, 4327.320
364.4387, 4310.087
364.9208, 4270.922
365.4029, 4232.220
365.8850, 4207.320
366.3672, 4196.185
366.8493, 4201.444
367.3314, 4234.310
367.8135, 4267.961
368.2956, 4269.790
368.7777, 4242.547
369.2599, 4221.779
369.7420, 4228.280
370.2241, 4248.765
370.7062, 4260.384
371.1883, 4259.684
371.6704, 4255.820
372.1526, 4255.991
372.6347, 4259.589
373.1168, 4263.019
373.5989, 4266.979
374.0810, 4269.762
374.5631, 4266.483
375.0453, 4258.607
375.5274, 4258.327
376.0095, 4275.149
376.4916, 4304.578
376.9737, 4326.434
377.4558, 4334.233
377.9380, 4342.923
378.4201, 4361.622
378.9022, 4384.673
379.3843, 4398.979
379.8664, 4398.289
380.3485, 4391.983
380.8307, 4400.201
381.3128, 4435.894
381.7949, 4462.138
382.2770, 4470.167
382.7591, 4471.333
383.2412, 4476.316
383.7234, 4487.086
384.2055, 4498.565
384.6876, 4504.085
385.1697, 4500.515
385.6518, 4504.937
386.1339, 4521.553
386.6161, 4540.760
387.0982, 4564.280
387.5803, 4587.109
388.0624, 4596.775
388.5445, 4582.286
389.0266, 4546.700
389.5088, 4523.677
389.9909, 4525.569
390.4730, 4526.792
390.9551, 4527.559
391.4372, 4523.734
391.9193, 4509.322
392.4015, 4481.505
392.8836, 4445.953
393.3657, 4411.365
393.8478, 4371.306
394.3299, 4349.557
394.8120, 4362.956
395.2942, 4384.830
395.7763, 4401.162
396.2584, 4408.505
396.7405, 4405.620
397.2226, 4388.803
397.7047, 4358.038
398.1869, 4325.498
398.6690, 4284.195
399.1511, 4251.167
399.6332, 4240.784
400.1153, 4246.431
400.5974, 4248.673
401.0796, 4232.132
401.5617, 4206.831
402.0438, 4197.757
402.5259, 4209.753
403.0080, 4219.004
403.4901, 4211.031
403.9723, 4192.387
404.4544, 4171.341
404.9365, 4145.495
405.4186, 4123.688
405.9007, 4112.721
406.3828, 4112.057
406.8650, 4120.460
407.3471, 4140.859
407.8292, 4165.765
408.3113, 4183.714
408.7934, 4194.900
409.2755, 4200.776
409.7577, 4201.994
410.2398, 4197.931
410.7219, 4183.882
411.2040, 4159.047
411.6861, 4137.003
412.1682, 4132.338
412.6504, 4147.873
413.1325, 4160.176
413.6146, 4162.519
414.0967, 4167.883
414.5788, 4189.375
415.0609, 4221.007
415.5431, 4244.487
416.0252, 4248.055
416.5073, 4235.649
416.9894, 4225.708
417.4715, 4221.882
417.9536, 4216.182
418.4358, 4199.191
418.9179, 4184.016
419.4000, 4189.290
419.8821, 4219.187
420.3642, 4255.265
420.8463, 4267.267
421.3285, 4242.014
421.8106, 4228.845
422.2927, 4240.022
422.7748, 4251.841
423.2569, 4249.770
423.7390, 4236.983
424.2212, 4227.924
424.7033, 4235.674
425.1854, 4256.731
425.6675, 4269.201
426.1496, 4268.276
426.6317, 4266.430
427.1139, 4274.214
427.5960, 4282.064
428.0781, 4274.868
428.5602, 4243.077
429.0423, 4207.257
429.5244, 4197.018
430.0066, 4213.081
430.4887, 4221.653
430.9708, 4208.307
431.4529, 4188.094
431.9350, 4177.497
432.4171, 4176.773
432.8993, 4180.503
433.3814, 4190.618
433.8635, 4202.367
434.3456, 4208.878
434.8277, 4209.844
435.3098, 4199.828
435.7920, 4166.397
436.2741, 4113.039
436.7562, 4083.563
437.2383, 4098.325
437.7204, 4119.936
438.2025, 4123.985
438.6847, 4116.488
439.1668, 4119.770
439.6489, 4147.354
440.1310, 4185.315
440.6131, 4195.349
441.0952, 4146.169
441.5774, 4112.838
442.0595, 4105.013
442.5416, 4110.779
443.0237, 4125.245
443.5058, 4144.563
443.9879, 4157.958
444.4701, 4151.507
444.9522, 4121.215
445.4343, 4099.740
445.9164, 4080.060
446.3985, 4076.751
446.8806, 4112.684
447.3628, 4166.515
447.8449, 4197.920
448.3270, 4181.497
448.8091, 4138.663
449.2912, 4125.023
449.7733, 4153.199
450.2555, 4175.526
450.7376, 4179.790
451.2197, 4173.382
451.7018, 4157.539
452.1839, 4132.748
452.6660, 4109.883
453.1482, 4097.878
453.6303, 4095.321
454.1124, 4096.603
454.5945, 4102.878
455.0766, 4109.036
455.5587, 4116.527
456.0409, 4121.821
456.5230, 4110.392
457.0051, 4053.080
457.4872, 3997.282
457.9693, 3992.435
458.4514, 4030.766
458.9336, 4068.471
459.4156, 4087.255
459.8978, 4088.908
460.3799, 4073.990
460.8620, 4024.255
461.3441, 3994.861
461.8262, 4015.386
462.3083, 4050.277
462.7905, 4060.127
463.2726, 4038.844
463.7547, 4008.355
464.2368, 3991.265
464.7189, 3989.300
465.2010, 3985.823
465.6832, 3968.429
466.1653, 3962.735
466.6474, 3989.308
467.1295, 4030.718
467.6116, 4058.874
468.0938, 4059.149
468.5759, 4040.436
469.0580, 4021.569
469.5401, 4002.640
470.0222, 3983.142
470.5043, 3956.216
470.9865, 3933.779
471.4686, 3927.189
471.9507, 3935.661
472.4328, 3943.554
472.9149, 3935.856
473.3970, 3917.818
473.8792, 3908.503
474.3613, 3909.740
474.8434, 3916.758
475.3255, 3931.998
475.8076, 3950.297
476.2897, 3960.361
476.7719, 3954.576
477.2540, 3947.805
477.7361, 3953.470
478.2182, 3966.811
478.7003, 3971.429
479.1824, 3959.879
479.6646, 3944.259
480.1467, 3944.959
480.6288, 3970.281
481.1109, 3985.353
481.5930, 3977.714
482.0751, 3967.659
482.5573, 3972.255
483.0394, 3989.162
483.5215, 4003.229
484.0036, 4002.761
484.4857, 3990.737
484.9678, 3987.272
485.4500, 4003.419
485.9321, 4013.485
486.4142, 4005.862
486.8963, 3995.335
487.3784, 3998.738
487.8605, 4019.373
488.3427, 4042.732
488.8248, 4048.369
489.3069, 4034.968
489.7890, 4037.657
490.2711, 4073.935
490.7532, 4105.254
491.2354, 4104.404
491.7175, 4083.295
492.1996, 4069.970
492.6817, 4077.859
493.1638, 4095.462
493.6459, 4114.752
494.1281, 4134.738
494.6102, 4139.133
495.0923, 4115.470
495.5744, 4080.594
496.0565, 4064.318
496.5386, 4068.220
497.0208, 4076.782
497.5029, 4086.383
497.9850, 4098.913
498.4671, 4118.670
498.9492, 4144.667
499.4313, 4168.723
499.9135, 4183.387
500.3956, 4189.723
500.8777, 4203.082
501.3598, 4222.137
501.8419, 4249.836
502.3240, 4300.406
502.8062, 4353.519
503.2883, 4381.246
503.7704, 4377.160
504.2525, 4368.351
504.7346, 4394.704
505.2167, 4463.125
505.6989, 4516.380
506.1810, 4547.750
506.6631, 4568.743
507.1452, 4573.592
507.6273, 4573.378
508.1094, 4593.229
508.5916, 4652.329
509.0737, 4725.789
509.5558, 4778.361
510.0379, 4810.625
510.5200, 4846.014
511.0021, 4894.679
511.4843, 4947.599
511.9664, 4988.461
512.4485, 5014.411
512.9306, 5050.027
513.4127, 5105.015
513.8948, 5170.045
514.3770, 5240.167
514.8591, 5313.055
515.3412, 5380.683
515.8233, 5437.173
516.3054, 5483.965
516.7875, 5528.671
517.2697, 5564.110
517.7518, 5606.787
518.2339, 5670.898
518.7160, 5736.009
519.1981, 5778.564
519.6802, 5796.039
520.1624, 5808.931
520.6445, 5842.353
521.1266, 5897.103
521.6087, 5940.510
522.0908, 5973.487
522.5729, 5992.328
523.0551, 5991.211
523.5372, 5977.789
524.0193, 5963.333
524.5014, 5950.304
524.9835, 5939.333
525.4656, 5936.484
525.9478, 5938.218
526.4299, 5925.086
526.9120, 5890.769
527.3941, 5843.883
527.8762, 5790.149
528.3583, 5728.991
528.8405, 5677.093
529.3226, 5646.880
529.8047, 5616.583
530.2868, 5569.057
530.7689, 5509.188
531.2510, 5452.195
531.7332, 5406.010
532.2153, 5365.923
532.6974, 5319.506
533.1795, 5255.916
533.6616, 5206.344
534.1437, 5184.520
534.6259, 5163.946
535.1080, 5124.414
535.5901, 5069.787
536.0722, 5020.294
536.5543, 4992.325
537.0364, 4979.053
537.5186, 4959.512
538.0007, 4932.050
538.4828, 4904.333
538.9649, 4877.275
539.4470, 4852.801
539.9291, 4834.219
540.4113, 4822.636
540.8934, 4810.646
541.3755, 4797.813
541.8576, 4781.083
542.3397, 4752.156
542.8218, 4710.680
543.3040, 4672.180
543.7861, 4649.075
544.2682, 4639.224
544.7503, 4624.505
545.2324, 4603.446
545.7145, 4580.030
546.1967, 4550.989
546.6788, 4522.215
547.1609, 4499.702
547.6430, 4484.954
548.1251, 4476.350
548.6072, 4476.022
549.0894, 4484.877
549.5715, 4471.967
550.0536, 4414.428
550.5357, 4368.019
551.0178, 4362.917
551.4999, 4376.286
551.9821, 4376.710
552.4642, 4353.979
552.9463, 4322.218
553.4284, 4286.504
553.9105, 4251.092
554.3926, 4238.153
554.8748, 4257.167
555.3569, 4278.686
555.8390, 4273.066
556.3211, 4240.520
556.8032, 4218.042
557.2853, 4213.951
557.7675, 4211.877
558.2496, 4208.267
558.7317, 4200.515
559.2138, 4181.677
559.6959, 4149.797
560.1780, 4115.982
560.6602, 4097.860
561.1423, 4099.442
561.6244, 4100.793
562.1065, 4104.935
562.5886, 4105.765
563.0707, 4099.490
563.5529, 4088.668
564.0350, 4076.797
564.5171, 4063.862
564.9992, 4055.095
565.4813, 4064.160
565.9634, 4089.072
566.4456, 4095.067
566.9277, 4067.264
567.4098, 4030.913
567.8919, 4015.370
568.3740, 4018.028
568.8561, 4013.280
569.3383, 3983.950
569.8204, 3958.407
570.3025, 3961.322
570.7846, 3982.376
571.2667, 3995.583
571.7488, 3990.081
572.2310, 3974.269
572.7131, 3962.656
573.1952, 3955.564
573.6773, 3951.880
574.1594, 3956.792
574.6415, 3959.803
575.1237, 3951.769
575.6058, 3938.802
576.0879, 3935.109
576.5700, 3950.078
577.0521, 3970.757
577.5342, 3975.027
578.0164, 3962.756
578.4985, 3955.272
578.9806, 3958.988
579.4627, 3966.809
579.9448, 3973.553
580.4269, 3979.051
580.9091, 3978.567
581.3912, 3963.133
581.8733, 3948.769
582.3554, 3947.954
582.8375, 3957.075
583.3196, 3966.536
583.8018, 3972.361
584.2839, 3976.134
584.7660, 3981.185
585.2481, 3990.709
585.7302, 3992.109
586.2123, 3976.915
586.6945, 3962.554
587.1766, 3951.923
587.6587, 3948.142
588.1408, 3958.616
588.6229, 3990.682
589.1050, 4025.586
589.5872, 4031.260
590.0693, 4009.144
590.5514, 3999.491
591.0335, 4015.321
591.5156, 4037.053
591.9977, 4042.490
592.4799, 4034.500
592.9620, 4035.522
593.4441, 4058.654
593.9262, 4081.579
594.4083, 4087.282
594.8904, 4083.903
595.3726, 4091.541
595.8547, 4116.915
596.3368, 4142.111
596.8189, 4137.794
