##NAMES=Jarlite
##RRUFFID=R050667
##IDEAL CHEMISTRY=Na_2_(Sr,Na)_14_(Mg,[box])_2_Al_12_F_64_(OH)_4__
##LOCALITY=Ivigtut, Greenland
##OWNER=RRUFF
##SOURCE=University of Arizona Mineral Museum
##DESCRIPTION=Colorless elongated prisms
##STATUS=The identification of this mineral is confirmed by single-crystal X-ray diffraction and chemical analysis.
##URL=rruff.info/R050667
##MEASURED CHEMISTRY=lighter phase: (Na_0.65_K_0.35_)_Σ=1_(Sr_5.92_Na_0.72_Ca_0.18_Li_0.10_Ba_0.08_)_Σ=7_(Mg_0.50_[box]_0.50_)_Σ=1_Al_6.00_F_32.00_((OH)_1.18_(H2O)_0.82_)_Σ=2_; Li not measured but estimated by charge balance
120.6094, 1560.017
121.0915, 1617.042
121.5737, 1712.742
122.0558, 1799.750
122.5379, 1847.041
123.0200, 1863.233
123.5021, 1863.872
123.9842, 1843.313
124.4664, 1816.037
124.9485, 1800.365
125.4306, 1800.626
125.9127, 1805.351
126.3948, 1799.844
126.8769, 1786.699
127.3591, 1778.363
127.8412, 1785.435
128.3233, 1803.670
128.8054, 1824.026
129.2875, 1848.170
129.7696, 1868.374
130.2518, 1867.811
130.7339, 1847.806
131.2160, 1823.176
131.6981, 1800.474
132.1802, 1779.964
132.6623, 1762.863
133.1445, 1747.532
133.6266, 1734.901
134.1087, 1734.019
134.5908, 1747.078
135.0729, 1765.951
135.5550, 1775.488
136.0372, 1773.790
136.5193, 1776.591
137.0014, 1790.523
137.4835, 1815.151
137.9656, 1856.539
138.4477, 1929.008
138.9299, 2013.414
139.4120, 2037.373
139.8941, 1983.396
140.3762, 1907.933
140.8583, 1849.596
141.3404, 1808.399
141.8226, 1785.604
142.3047, 1786.009
142.7868, 1810.367
143.2689, 1828.892
143.7510, 1840.785
144.2331, 1847.598
144.7152, 1850.616
145.1974, 1846.479
145.6795, 1843.892
146.1616, 1845.999
146.6437, 1856.066
147.1258, 1862.276
147.6079, 1860.233
148.0901, 1854.443
148.5722, 1857.429
149.0543, 1882.046
149.5364, 1904.085
150.0185, 1912.854
150.5006, 1895.379
150.9828, 1880.007
151.4649, 1864.649
151.9470, 1850.096
152.4291, 1846.028
152.9112, 1858.136
153.3933, 1877.760
153.8755, 1898.950
154.3576, 1930.659
154.8397, 1954.428
155.3218, 1965.617
155.8039, 1963.190
156.2860, 1955.029
156.7682, 1936.505
157.2503, 1914.669
157.7324, 1898.191
158.2145, 1885.165
158.6966, 1881.038
159.1787, 1890.677
159.6609, 1923.186
160.1430, 1950.050
160.6251, 1961.856
161.1072, 1961.671
161.5893, 1956.308
162.0714, 1941.209
162.5536, 1925.851
163.0357, 1917.077
163.5178, 1924.814
163.9999, 1930.224
164.4820, 1920.604
164.9641, 1898.660
165.4463, 1881.755
165.9284, 1876.374
166.4105, 1881.159
166.8926, 1894.652
167.3747, 1943.196
167.8568, 1981.503
168.3390, 1967.090
168.8211, 1895.422
169.3032, 1829.998
169.7853, 1819.257
170.2674, 1842.639
170.7495, 1864.273
171.2317, 1868.979
171.7138, 1863.140
172.1959, 1851.453
172.6780, 1833.006
173.1601, 1814.092
173.6422, 1797.240
174.1244, 1783.611
174.6065, 1777.199
175.0886, 1786.300
175.5707, 1802.558
176.0528, 1813.939
176.5349, 1817.734
177.0171, 1816.033
177.4992, 1806.928
177.9813, 1791.733
178.4634, 1781.293
178.9455, 1790.125
179.4276, 1810.162
179.9098, 1822.719
180.3919, 1816.027
180.8740, 1801.504
181.3561, 1797.921
181.8382, 1805.511
182.3203, 1819.218
182.8025, 1841.501
183.2846, 1868.169
183.7667, 1883.005
184.2488, 1867.921
184.7309, 1835.341
185.2130, 1820.421
185.6951, 1824.353
186.1773, 1842.519
186.6594, 1881.896
187.1415, 1938.956
187.6236, 1976.931
188.1057, 1958.424
188.5878, 1898.245
189.0700, 1870.836
189.5521, 1891.305
190.0342, 1933.834
190.5163, 1950.820
190.9984, 1941.346
191.4805, 1927.563
191.9627, 1923.713
192.4448, 1929.317
192.9269, 1939.970
193.4090, 1957.364
193.8911, 1977.878
194.3732, 1990.032
194.8554, 1993.052
195.3375, 1992.843
195.8196, 1992.271
196.3017, 1991.197
196.7838, 1998.357
197.2659, 2021.763
197.7481, 2056.933
198.2302, 2070.686
198.7123, 2058.638
199.1944, 2038.052
199.6765, 2029.146
200.1586, 2032.946
200.6408, 2040.180
201.1229, 2050.916
201.6050, 2065.284
202.0871, 2066.571
202.5692, 2050.571
203.0513, 2027.885
203.5335, 2015.766
204.0156, 2015.290
204.4977, 2020.595
204.9798, 2032.528
205.4619, 2053.355
205.9440, 2062.395
206.4262, 2056.003
206.9083, 2039.593
207.3904, 2026.149
207.8725, 2015.668
208.3546, 2008.037
208.8367, 2002.452
209.3189, 1997.830
209.8010, 2000.478
210.2831, 2013.368
210.7652, 2033.662
211.2473, 2048.853
211.7294, 2058.089
212.2116, 2064.067
212.6937, 2069.030
213.1758, 2073.912
213.6579, 2074.437
214.1400, 2066.214
214.6221, 2050.798
215.1043, 2052.936
215.5864, 2080.929
216.0685, 2114.657
216.5506, 2131.855
217.0327, 2123.749
217.5148, 2122.282
217.9970, 2137.084
218.4791, 2169.352
218.9612, 2195.790
219.4433, 2218.467
219.9254, 2232.828
220.4075, 2229.053
220.8897, 2193.858
221.3718, 2167.998
221.8539, 2167.620
222.3360, 2200.573
222.8181, 2220.260
223.3002, 2222.164
223.7824, 2213.421
224.2645, 2206.834
224.7466, 2204.192
225.2287, 2200.529
225.7108, 2193.072
226.1929, 2178.479
226.6750, 2170.348
227.1572, 2173.801
227.6393, 2182.336
228.1214, 2178.058
228.6035, 2154.087
229.0856, 2127.655
229.5677, 2106.202
230.0499, 2088.468
230.5320, 2079.452
231.0141, 2082.480
231.4962, 2094.541
231.9783, 2104.536
232.4604, 2116.557
232.9426, 2121.078
233.4247, 2108.661
233.9068, 2060.358
234.3889, 2036.426
234.8710, 2056.918
235.3531, 2113.685
235.8353, 2127.164
236.3174, 2069.703
236.7995, 2000.408
237.2816, 1964.730
237.7637, 1980.426
238.2458, 1995.763
238.7280, 2004.416
239.2101, 2006.448
239.6922, 2005.034
240.1743, 1999.426
240.6564, 1991.108
241.1385, 1981.097
241.6207, 1967.428
242.1028, 1955.159
242.5849, 1944.193
243.0670, 1934.121
243.5491, 1931.588
244.0313, 1944.412
244.5134, 1958.252
244.9955, 1954.273
245.4776, 1917.041
245.9597, 1888.915
246.4418, 1882.652
246.9240, 1903.150
247.4061, 1917.813
247.8882, 1928.209
248.3703, 1931.583
248.8524, 1922.299
249.3345, 1892.188
249.8167, 1863.376
250.2988, 1841.577
250.7809, 1826.856
251.2630, 1819.799
251.7451, 1825.591
252.2272, 1836.007
252.7094, 1836.026
253.1915, 1821.986
253.6736, 1803.546
254.1557, 1782.268
254.6378, 1753.475
255.1199, 1736.597
255.6021, 1735.578
256.0842, 1744.670
256.5663, 1752.562
257.0484, 1761.825
257.5305, 1765.409
258.0126, 1757.420
258.4948, 1728.214
258.9769, 1716.077
259.4590, 1730.034
259.9411, 1758.168
260.4232, 1765.844
260.9053, 1741.592
261.3875, 1717.941
261.8696, 1713.595
262.3517, 1737.400
262.8338, 1752.084
263.3159, 1752.425
263.7980, 1743.174
264.2802, 1740.120
264.7623, 1743.918
265.2444, 1752.485
265.7265, 1767.695
266.2086, 1794.432
266.6907, 1807.999
267.1729, 1802.531
267.6550, 1782.932
268.1371, 1767.269
268.6192, 1756.062
269.1013, 1747.856
269.5834, 1741.024
270.0656, 1734.541
270.5477, 1735.654
271.0298, 1750.051
271.5119, 1772.027
271.9940, 1773.052
272.4761, 1744.481
272.9583, 1717.049
273.4404, 1716.821
273.9225, 1749.575
274.4046, 1778.289
274.8867, 1798.251
275.3688, 1810.025
275.8510, 1816.365
276.3331, 1817.452
276.8152, 1812.452
277.2973, 1796.739
277.7794, 1768.237
278.2615, 1748.841
278.7437, 1743.220
279.2258, 1749.779
279.7079, 1764.091
280.1900, 1788.447
280.6721, 1811.751
281.1542, 1823.117
281.6364, 1822.141
282.1185, 1819.184
282.6006, 1814.815
283.0827, 1810.518
283.5648, 1813.403
284.0469, 1824.465
284.5291, 1837.584
285.0112, 1846.699
285.4933, 1851.948
285.9754, 1857.913
286.4575, 1865.539
286.9396, 1874.680
287.4217, 1885.209
287.9038, 1897.261
288.3860, 1909.417
288.8681, 1919.540
289.3502, 1927.895
289.8323, 1937.965
290.3144, 1950.072
290.7965, 1964.655
291.2787, 1985.086
291.7608, 2012.124
292.2429, 2037.296
292.7250, 2046.767
293.2071, 2045.066
293.6892, 2055.477
294.1714, 2092.791
294.6535, 2143.759
295.1356, 2181.893
295.6177, 2207.293
296.0998, 2221.423
296.5819, 2213.885
297.0641, 2193.871
297.5462, 2192.716
298.0283, 2233.529
298.5104, 2292.608
298.9925, 2331.326
299.4746, 2349.696
299.9568, 2359.060
300.4389, 2367.151
300.9210, 2373.868
301.4031, 2379.268
301.8852, 2384.282
302.3673, 2387.279
302.8495, 2386.995
303.3316, 2383.342
303.8137, 2374.384
304.2958, 2353.922
304.7779, 2327.401
305.2600, 2304.974
305.7422, 2293.795
306.2243, 2286.188
306.7064, 2275.901
307.1885, 2262.820
307.6706, 2246.189
308.1527, 2223.713
308.6349, 2197.712
309.1170, 2171.850
309.5991, 2140.795
310.0812, 2114.949
310.5633, 2102.040
311.0454, 2101.652
311.5276, 2108.575
312.0097, 2130.853
312.4918, 2154.913
312.9739, 2165.801
313.4560, 2143.676
313.9381, 2118.813
314.4203, 2111.573
314.9024, 2120.199
315.3845, 2122.833
315.8666, 2098.975
316.3487, 2068.571
316.8308, 2050.463
317.3130, 2064.265
317.7951, 2078.350
318.2772, 2082.620
318.7593, 2077.061
319.2414, 2062.469
319.7235, 2026.779
320.2057, 1988.462
320.6878, 1962.157
321.1699, 1966.843
321.6520, 1967.943
322.1341, 1951.093
322.6162, 1918.836
323.0984, 1898.296
323.5805, 1909.178
324.0626, 1925.012
324.5447, 1927.948
325.0268, 1897.749
325.5089, 1874.247
325.9911, 1866.241
326.4732, 1872.211
326.9553, 1874.541
327.4374, 1874.341
327.9195, 1868.747
328.4016, 1855.913
328.8838, 1819.539
329.3659, 1796.364
329.8480, 1794.713
330.3301, 1810.589
330.8122, 1818.485
331.2943, 1809.878
331.7765, 1801.751
332.2586, 1804.530
332.7407, 1828.943
333.2228, 1844.833
333.7049, 1848.751
334.1870, 1842.885
334.6692, 1835.197
335.1513, 1821.738
335.6334, 1812.762
336.1155, 1816.466
336.5976, 1840.186
337.0797, 1852.586
337.5619, 1847.827
338.0440, 1832.419
338.5261, 1824.311
339.0082, 1823.481
339.4903, 1829.816
339.9724, 1847.798
340.4546, 1880.530
340.9367, 1897.121
341.4188, 1891.582
341.9009, 1874.681
342.3830, 1864.711
342.8651, 1860.635
343.3473, 1872.608
343.8294, 1920.115
344.3115, 1998.678
344.7936, 2039.794
345.2757, 2033.542
345.7578, 2005.959
346.2400, 1994.696
346.7221, 1999.384
347.2042, 2010.458
347.6863, 2028.690
348.1684, 2050.048
348.6505, 2060.504
349.1327, 2058.329
349.6148, 2050.596
350.0969, 2041.656
350.5790, 2033.140
351.0611, 2031.518
351.5432, 2036.290
352.0254, 2050.844
352.5075, 2092.746
352.9896, 2166.550
353.4717, 2223.661
353.9538, 2199.815
354.4359, 2127.360
354.9181, 2070.378
355.4002, 2073.220
355.8823, 2093.541
356.3644, 2091.893
356.8465, 2067.398
357.3286, 2039.023
357.8108, 2017.516
358.2929, 1999.818
358.7750, 1981.441
359.2571, 1956.830
359.7392, 1934.429
360.2213, 1917.919
360.7035, 1907.384
361.1856, 1903.221
361.6677, 1912.623
362.1498, 1925.075
362.6319, 1931.565
363.1140, 1927.887
363.5962, 1919.753
364.0783, 1903.616
364.5604, 1881.709
365.0425, 1869.582
365.5246, 1879.597
366.0067, 1894.932
366.4889, 1905.195
366.9710, 1906.738
367.4531, 1906.129
367.9352, 1898.926
368.4173, 1888.416
368.8994, 1889.365
369.3815, 1913.452
369.8636, 1939.012
370.3458, 1956.222
370.8279, 1957.675
371.3100, 1963.868
371.7921, 1977.449
372.2742, 1995.206
372.7563, 2008.370
373.2385, 2011.322
373.7206, 2018.672
374.2027, 2034.975
374.6848, 2058.890
375.1669, 2100.385
375.6490, 2172.154
376.1312, 2248.233
376.6133, 2281.978
377.0954, 2263.410
377.5775, 2242.702
378.0596, 2236.498
378.5417, 2244.705
379.0239, 2264.679
379.5060, 2299.700
379.9881, 2336.239
380.4702, 2352.970
380.9523, 2350.919
381.4344, 2355.464
381.9166, 2379.226
382.3987, 2414.929
382.8808, 2442.617
383.3629, 2461.878
383.8450, 2475.434
384.3271, 2483.236
384.8093, 2486.845
385.2914, 2491.189
385.7735, 2499.610
386.2556, 2507.581
386.7377, 2507.722
387.2198, 2500.794
387.7020, 2492.481
388.1841, 2483.857
388.6662, 2477.337
389.1483, 2477.916
389.6304, 2494.772
390.1125, 2506.112
390.5947, 2491.269
391.0768, 2456.634
391.5589, 2422.422
392.0410, 2397.615
392.5231, 2377.983
393.0052, 2361.712
393.4874, 2352.150
393.9695, 2336.889
394.4516, 2302.471
394.9337, 2259.750
395.4158, 2228.625
395.8979, 2226.658
396.3801, 2226.966
396.8622, 2218.356
397.3443, 2197.094
397.8264, 2176.772
398.3085, 2157.914
398.7906, 2141.404
399.2728, 2128.579
399.7549, 2127.166
400.2370, 2120.740
400.7191, 2105.026
401.2012, 2079.368
401.6833, 2053.987
402.1655, 2025.035
402.6476, 2000.519
403.1297, 1989.169
403.6118, 1998.567
404.0939, 2002.294
404.5760, 1993.891
405.0582, 1976.510
405.5403, 1968.413
406.0224, 1972.420
406.5045, 1977.677
406.9866, 1975.307
407.4688, 1964.613
407.9509, 1958.390
408.4330, 1958.354
408.9151, 1962.749
409.3972, 1970.313
409.8793, 1980.994
410.3615, 1987.462
410.8436, 1980.611
411.3257, 1965.657
411.8078, 1961.239
412.2899, 1969.604
412.7720, 1983.618
413.2542, 1996.593
413.7363, 2008.477
414.2184, 2019.315
414.7005, 2028.264
415.1826, 2036.489
415.6647, 2047.779
416.1469, 2062.245
416.6290, 2070.247
417.1111, 2053.164
417.5932, 2028.443
418.0753, 2019.342
418.5574, 2053.096
419.0396, 2086.832
419.5217, 2097.035
420.0038, 2086.460
420.4859, 2074.545
420.9680, 2065.888
421.4501, 2060.324
421.9323, 2058.037
422.4144, 2060.934
422.8965, 2064.485
423.3786, 2068.807
423.8607, 2073.422
424.3428, 2076.897
424.8250, 2080.362
425.3071, 2081.740
425.7892, 2080.628
426.2713, 2077.742
426.7534, 2070.079
427.2355, 2053.812
427.7177, 2035.079
428.1998, 2024.031
428.6819, 2025.342
429.1640, 2023.299
429.6461, 2010.230
430.1282, 1986.727
430.6104, 1980.562
431.0925, 1998.571
431.5746, 2016.194
432.0567, 2001.840
432.5388, 1954.201
433.0209, 1923.550
433.5031, 1926.945
433.9852, 1948.573
434.4673, 1947.708
434.9494, 1924.889
435.4315, 1899.580
435.9136, 1882.336
436.3958, 1873.540
436.8779, 1877.599
437.3600, 1900.128
437.8421, 1921.246
438.3242, 1912.366
438.8063, 1883.128
439.2885, 1860.517
439.7706, 1866.305
440.2527, 1880.427
440.7348, 1882.844
441.2169, 1870.682
441.6990, 1861.132
442.1812, 1869.024
442.6633, 1883.143
443.1454, 1890.234
443.6275, 1878.617
444.1096, 1866.522
444.5917, 1859.231
445.0739, 1856.808
445.5560, 1858.337
446.0381, 1875.460
446.5202, 1888.506
447.0023, 1885.775
447.4844, 1841.776
447.9666, 1814.048
448.4487, 1811.023
448.9308, 1823.889
449.4129, 1828.714
449.8950, 1821.661
450.3771, 1812.810
450.8593, 1805.543
451.3413, 1799.854
451.8235, 1796.097
452.3056, 1794.036
452.7877, 1794.305
453.2698, 1799.661
453.7519, 1810.890
454.2340, 1817.397
454.7162, 1813.386
455.1983, 1802.885
455.6804, 1802.489
456.1625, 1812.875
456.6446, 1821.353
457.1267, 1814.456
457.6089, 1797.094
458.0910, 1782.992
458.5731, 1776.902
459.0552, 1771.865
459.5373, 1756.563
460.0194, 1734.722
460.5016, 1718.426
460.9837, 1719.911
461.4658, 1727.112
461.9479, 1729.719
462.4300, 1726.309
462.9121, 1719.901
463.3943, 1710.934
463.8764, 1700.183
464.3585, 1688.772
464.8406, 1670.681
465.3227, 1658.164
465.8048, 1659.194
466.2870, 1673.737
466.7691, 1680.888
467.2512, 1669.986
467.7333, 1656.795
468.2154, 1650.800
468.6975, 1654.284
469.1797, 1661.625
469.6618, 1675.330
470.1439, 1691.945
470.6260, 1702.742
471.1081, 1707.977
471.5902, 1706.623
472.0724, 1695.371
472.5545, 1673.051
473.0366, 1659.635
473.5187, 1656.608
474.0008, 1658.638
474.4829, 1661.273
474.9651, 1664.207
475.4472, 1663.488
475.9293, 1657.159
476.4114, 1647.017
476.8935, 1631.837
477.3756, 1612.887
477.8578, 1604.217
478.3399, 1628.453
478.8220, 1665.985
479.3041, 1686.147
479.7862, 1677.980
480.2683, 1664.516
480.7505, 1661.737
481.2326, 1666.501
481.7147, 1672.081
482.1968, 1674.376
482.6789, 1677.816
483.1610, 1685.708
483.6432, 1698.959
484.1253, 1710.169
484.6074, 1718.712
485.0895, 1723.630
485.5716, 1724.155
486.0537, 1715.087
486.5359, 1707.537
487.0180, 1701.500
487.5001, 1697.447
487.9822, 1696.141
488.4643, 1690.984
488.9464, 1699.409
489.4286, 1741.289
489.9107, 1831.982
490.3928, 1865.487
490.8749, 1824.443
491.3570, 1756.162
491.8391, 1731.279
492.3213, 1749.786
492.8034, 1769.844
493.2855, 1774.402
493.7676, 1771.178
494.2497, 1783.153
494.7318, 1809.870
495.2140, 1833.643
495.6961, 1834.231
496.1782, 1823.145
496.6603, 1820.808
497.1424, 1834.100
497.6245, 1851.070
498.1067, 1858.744
498.5888, 1862.815
499.0709, 1876.499
499.5530, 1916.831
500.0351, 1959.225
500.5172, 1988.865
500.9994, 2001.831
501.4815, 2019.320
501.9636, 2054.847
502.4457, 2092.716
502.9278, 2118.708
503.4099, 2116.037
503.8921, 2121.814
504.3742, 2141.242
504.8563, 2171.727
505.3384, 2202.698
505.8205, 2234.463
506.3026, 2266.391
506.7848, 2299.816
507.2669, 2336.570
507.7490, 2360.264
508.2311, 2364.414
508.7132, 2370.887
509.1953, 2419.626
509.6775, 2505.604
510.1596, 2572.440
510.6417, 2587.898
511.1238, 2581.292
511.6059, 2611.766
512.0880, 2677.018
512.5701, 2749.404
513.0522, 2815.882
513.5344, 2875.944
514.0165, 2928.269
514.4986, 2971.233
514.9807, 3010.402
515.4628, 3044.794
515.9449, 3078.541
516.4271, 3118.106
516.9092, 3174.464
517.3913, 3229.228
517.8734, 3274.581
518.3555, 3309.943
518.8376, 3345.836
519.3198, 3392.374
519.8019, 3433.421
520.2840, 3458.968
520.7661, 3461.079
521.2482, 3462.336
521.7303, 3461.185
522.2125, 3461.126
522.6946, 3473.817
523.1767, 3504.857
523.6588, 3524.980
524.1409, 3517.316
524.6230, 3486.440
525.1052, 3469.298
525.5873, 3468.136
526.0694, 3462.855
526.5515, 3427.361
527.0336, 3371.595
527.5157, 3324.886
527.9979, 3298.474
528.4800, 3277.960
528.9621, 3248.908
529.4442, 3213.638
529.9263, 3178.053
530.4084, 3152.128
530.8906, 3122.306
531.3727, 3074.833
531.8548, 3004.959
532.3369, 2945.180
532.8190, 2911.952
533.3011, 2890.682
533.7833, 2868.603
534.2654, 2842.417
534.7475, 2817.114
535.2296, 2796.147
535.7117, 2776.350
536.1938, 2744.925
536.6760, 2690.592
537.1581, 2645.201
537.6402, 2626.122
538.1223, 2636.517
538.6044, 2632.702
539.0865, 2611.944
539.5687, 2584.929
540.0508, 2564.027
540.5329, 2548.202
541.0150, 2531.687
541.4971, 2512.830
541.9792, 2492.839
542.4614, 2472.605
542.9435, 2452.709
543.4256, 2435.838
543.9077, 2426.368
544.3898, 2419.100
544.8719, 2409.402
545.3541, 2396.790
545.8362, 2381.724
546.3183, 2361.881
546.8004, 2340.564
547.2825, 2321.206
547.7646, 2303.937
548.2468, 2289.672
548.7289, 2279.306
549.2110, 2272.278
549.6931, 2266.381
550.1752, 2262.254
550.6573, 2258.409
551.1395, 2254.542
551.6216, 2250.988
552.1037, 2244.728
552.5858, 2234.320
553.0679, 2224.296
553.5500, 2222.432
554.0322, 2228.208
554.5143, 2227.656
554.9964, 2216.528
555.4785, 2198.529
555.9606, 2176.480
556.4427, 2151.955
556.9249, 2134.090
557.4070, 2134.764
557.8891, 2141.810
558.3712, 2142.787
558.8533, 2136.560
559.3354, 2123.500
559.8176, 2092.018
560.2997, 2058.798
560.7818, 2040.906
561.2639, 2058.866
561.7460, 2074.543
562.2281, 2081.516
562.7103, 2080.351
563.1924, 2073.822
563.6745, 2058.630
564.1566, 2042.589
564.6387, 2028.309
565.1208, 2015.781
565.6030, 2004.120
566.0851, 1992.607
566.5672, 1983.981
567.0493, 1985.648
567.5314, 1996.662
568.0135, 1992.594
568.4957, 1962.491
568.9778, 1926.829
569.4599, 1925.777
569.9420, 1951.400
570.4241, 1970.014
570.9063, 1953.718
571.3884, 1927.744
571.8705, 1918.795
572.3526, 1928.025
572.8347, 1937.173
573.3168, 1936.637
573.7990, 1931.814
574.2811, 1926.911
574.7632, 1917.661
575.2453, 1915.587
575.7274, 1930.027
576.2095, 1951.617
576.6917, 1961.563
577.1738, 1955.478
577.6559, 1944.541
578.1380, 1928.763
578.6201, 1909.031
579.1022, 1901.843
579.5844, 1909.905
580.0665, 1920.411
580.5486, 1921.167
581.0307, 1914.363
581.5128, 1916.873
581.9949, 1932.405
582.4771, 1951.021
582.9592, 1961.065
583.4413, 1964.609
583.9234, 1966.768
584.4055, 1970.038
584.8876, 1972.520
585.3698, 1970.618
585.8519, 1965.722
586.3340, 1965.332
586.8161, 1977.087
587.2982, 1990.873
587.7803, 2001.105
588.2625, 2006.271
588.7446, 2010.071
589.2267, 2008.425
589.7088, 2008.310
590.1909, 2018.874
590.6730, 2046.358
591.1552, 2066.900
591.6373, 2075.255
592.1194, 2074.931
592.6015, 2074.031
593.0836, 2072.197
593.5657, 2075.844
594.0479, 2093.332
594.5300, 2118.557
595.0121, 2133.888
595.4942, 2138.768
595.9763, 2141.290
596.4584, 2149.141
596.9406, 2158.335
597.4227, 2163.909
597.9048, 2164.765
598.3869, 2161.447
598.8690, 2144.197
599.3511, 2124.056
599.8333, 2122.112
600.3154, 2174.104
600.7975, 2211.974
601.2796, 2210.233
601.7617, 2170.282
602.2438, 2151.514
602.7260, 2162.990
603.2081, 2180.030
603.6902, 2186.463
604.1723, 2181.284
604.6544, 2180.869
605.1365, 2187.631
605.6187, 2194.291
606.1008, 2190.513
606.5829, 2177.982
607.0650, 2163.050
607.5471, 2143.158
608.0292, 2126.836
608.5114, 2126.162
608.9935, 2138.159
609.4756, 2152.506
609.9577, 2169.396
610.4398, 2182.351
610.9219, 2187.214
611.4041, 2183.374
611.8862, 2173.533
612.3683, 2147.337
