##NAMES=Jarosite
##RRUFFID=R060236
##IDEAL CHEMISTRY=KFe^3+^_3_(S^6+^O_4_)_2_(OH)_6_
##LOCALITY=Gold Hill, Tooele County, Utah, USA
##OWNER=RRUFF
##SOURCE=Michael Scott
##DESCRIPTION=Spherical groups of brown bladed crystals
##STATUS=The identification of this mineral has been confirmed by single-crystal X-ray diffraction.
##URL=rruff.info/R060236
92.07813, 5.799661
92.56024, 5.859596
93.04236, 5.828562
93.52448, 5.724842
94.00659, 5.616088
94.48871, 5.513680
94.97083, 5.433905
95.45294, 5.428094
95.93506, 5.518450
96.41718, 5.652300
96.89929, 5.743458
97.38141, 5.790809
97.86353, 5.819506
98.34564, 5.844172
98.82776, 5.864393
99.30988, 5.883765
99.79199, 5.912516
100.2741, 5.937572
100.7562, 5.901406
101.2383, 5.789536
101.7205, 5.655983
102.2026, 5.534261
102.6847, 5.412806
103.1668, 5.353498
103.6489, 5.381114
104.1310, 5.497320
104.6132, 5.620490
105.0953, 5.784600
105.5774, 5.922324
106.0595, 5.936219
106.5416, 5.726276
107.0237, 5.545372
107.5059, 5.456141
107.9880, 5.477508
108.4701, 5.538300
108.9522, 5.720410
109.4343, 5.926689
109.9164, 5.983096
110.3986, 5.630538
110.8807, 5.345030
111.3628, 5.277527
111.8449, 5.593419
112.3270, 5.864392
112.8091, 6.073688
113.2913, 6.221309
113.7734, 6.310874
114.2555, 6.266860
114.7376, 6.215896
115.2197, 6.225138
115.7018, 6.326157
116.1840, 6.465414
116.6661, 6.582787
117.1482, 6.705243
117.6303, 6.971585
118.1124, 7.577148
118.5945, 8.290166
119.0767, 8.906184
119.5588, 9.007808
120.0409, 9.292777
120.5230, 10.18193
121.0051, 11.65080
121.4872, 13.29027
121.9694, 14.86825
122.4515, 16.45281
122.9336, 18.14566
123.4157, 19.83453
123.8978, 21.71793
124.3799, 23.97809
124.8621, 26.62859
125.3442, 29.57042
125.8263, 32.80716
126.3084, 36.28075
126.7905, 39.86470
127.2726, 43.47186
127.7548, 47.12567
128.2369, 50.86844
128.7190, 54.72741
129.2011, 58.58006
129.6832, 62.21832
130.1653, 65.65672
130.6474, 69.18510
131.1296, 73.15325
131.6117, 77.36018
132.0938, 81.14751
132.5759, 84.29360
133.0580, 87.25777
133.5401, 90.55811
134.0223, 94.18605
134.5044, 98.81638
134.9865, 104.8542
135.4686, 112.3687
135.9507, 121.2513
136.4328, 131.8473
136.9150, 143.7714
137.3971, 155.8037
137.8792, 168.2146
138.3613, 179.9602
138.8434, 191.1553
139.3255, 202.4599
139.8077, 208.8065
140.2898, 209.0147
140.7719, 203.3933
141.2540, 193.9773
141.7361, 179.2650
142.2182, 163.4136
142.7004, 150.2899
143.1825, 140.3777
143.6646, 132.2881
144.1467, 126.0594
144.6288, 121.6617
145.1109, 118.2780
145.5931, 116.1079
146.0752, 114.7648
146.5573, 113.7782
147.0394, 113.1867
147.5215, 112.9112
148.0036, 112.9555
148.4858, 113.3501
148.9679, 113.9516
149.4500, 114.8645
149.9321, 115.9525
150.4142, 116.9913
150.8963, 117.8452
151.3785, 118.7950
151.8606, 119.8773
152.3427, 121.0371
152.8248, 122.4902
153.3069, 124.3580
153.7890, 126.5153
154.2712, 128.3671
154.7533, 129.4928
155.2354, 130.4939
155.7175, 131.3799
156.1996, 132.1962
156.6817, 132.7791
157.1639, 132.8542
157.6460, 132.6831
158.1281, 132.8299
158.6102, 133.7898
159.0923, 134.8149
159.5744, 135.5016
160.0566, 135.4113
160.5387, 135.5687
161.0208, 136.3277
161.5029, 137.5563
161.9850, 138.8761
162.4671, 140.1325
162.9493, 141.4504
163.4314, 142.9163
163.9135, 144.6048
164.3956, 146.3766
164.8777, 148.2556
165.3598, 150.2052
165.8420, 152.0706
166.3241, 153.4163
166.8062, 154.8052
167.2883, 156.7664
167.7704, 160.0414
168.2525, 163.3131
168.7346, 165.7930
169.2168, 167.5597
169.6989, 169.1063
170.1810, 170.7122
170.6631, 172.2699
171.1452, 173.6473
171.6273, 174.4885
172.1095, 175.3611
172.5916, 176.8304
173.0737, 178.8526
173.5558, 180.9269
174.0379, 182.5245
174.5201, 183.9526
175.0022, 185.7326
175.4843, 188.0869
175.9664, 190.8879
176.4485, 193.9973
176.9306, 197.4336
177.4128, 200.9848
177.8949, 204.6964
178.3770, 208.3801
178.8591, 211.7041
179.3412, 214.5536
179.8233, 216.9555
180.3055, 219.2025
180.7876, 221.3671
181.2697, 222.6036
181.7518, 221.8791
182.2339, 219.5163
182.7160, 216.5079
183.1982, 212.9573
183.6803, 209.1185
184.1624, 205.5220
184.6445, 202.1820
185.1266, 199.1354
185.6087, 196.5856
186.0909, 194.4250
186.5730, 192.2189
187.0551, 189.6561
187.5372, 186.8818
188.0193, 184.2361
188.5014, 181.6943
188.9836, 179.4297
189.4657, 177.5439
189.9478, 176.0539
190.4299, 175.0083
190.9120, 174.6209
191.3941, 174.7700
191.8763, 174.7691
192.3584, 174.5599
192.8405, 174.3385
193.3226, 174.3197
193.8047, 174.5036
194.2868, 174.9734
194.7690, 175.8721
195.2511, 177.1647
195.7332, 178.3607
196.2153, 179.3768
196.6974, 180.4626
197.1795, 181.9910
197.6617, 183.9801
198.1438, 186.2495
198.6259, 188.7017
199.1080, 191.3250
199.5901, 194.2376
200.0722, 197.3598
200.5544, 200.8889
201.0365, 205.1760
201.5186, 210.2909
202.0007, 215.8121
202.4828, 221.4227
202.9649, 227.0632
203.4471, 233.5376
203.9292, 240.9272
204.4113, 249.1653
204.8934, 258.2702
205.3755, 268.2114
205.8576, 278.7573
206.3398, 289.8856
206.8219, 301.6714
207.3040, 313.6002
207.7861, 325.6457
208.2682, 337.6957
208.7503, 349.5113
209.2325, 361.0434
209.7146, 372.1461
210.1967, 382.6318
210.6788, 392.3565
211.1609, 402.1095
211.6430, 411.6959
212.1252, 421.5177
212.6073, 432.1625
213.0894, 443.3134
213.5715, 455.9510
214.0536, 470.5641
214.5357, 487.4408
215.0179, 505.3742
215.5000, 524.2448
215.9821, 544.3502
216.4642, 566.3911
216.9463, 590.1664
217.4284, 615.9082
217.9105, 644.4625
218.3927, 676.7231
218.8748, 707.9710
219.3569, 738.4825
219.8390, 767.7697
220.3211, 795.8847
220.8032, 824.4621
221.2854, 848.9703
221.7675, 868.4788
222.2496, 883.6188
222.7317, 891.4308
223.2138, 892.2153
223.6959, 885.5344
224.1781, 870.0393
224.6602, 844.7455
225.1423, 812.4422
225.6244, 774.0765
226.1065, 726.7709
226.5886, 680.2067
227.0708, 633.2350
227.5529, 587.1819
228.0350, 544.3812
228.5171, 504.1606
228.9992, 467.5399
229.4813, 434.9839
229.9635, 407.1145
230.4456, 381.5680
230.9277, 358.3068
231.4098, 337.6352
231.8919, 320.0043
232.3740, 306.4751
232.8562, 294.4781
233.3383, 283.0252
233.8204, 271.6864
234.3025, 262.4142
234.7846, 256.1599
235.2667, 251.4343
235.7489, 245.5894
236.2310, 237.7390
236.7131, 230.2337
237.1952, 223.7334
237.6773, 218.4283
238.1594, 213.8106
238.6416, 210.0022
239.1237, 206.8051
239.6058, 203.9639
240.0879, 201.6832
240.5700, 199.3697
241.0521, 196.7333
241.5343, 193.6011
242.0164, 191.0285
242.4985, 189.1864
242.9806, 187.7818
243.4627, 186.3981
243.9448, 184.9985
244.4270, 183.6713
244.9091, 182.4187
245.3912, 181.2117
245.8733, 180.2229
246.3554, 179.5780
246.8375, 179.0385
247.3197, 178.2232
247.8018, 176.7284
248.2839, 175.7029
248.7660, 175.6530
249.2481, 176.7998
249.7302, 177.1392
250.2124, 176.3416
250.6945, 175.0532
251.1766, 173.9795
251.6587, 173.1638
252.1408, 172.5010
252.6229, 172.0964
253.1051, 171.9972
253.5872, 171.3403
254.0693, 169.9411
254.5514, 168.1880
255.0335, 166.3913
255.5156, 164.3455
255.9978, 162.7535
256.4799, 161.8541
256.9620, 161.6375
257.4441, 161.3123
257.9262, 160.7708
258.4083, 160.2559
258.8904, 160.0340
259.3726, 160.2791
259.8547, 160.3596
260.3368, 160.0552
260.8189, 159.4288
261.3010, 159.2558
261.7831, 159.6960
262.2653, 160.3355
262.7474, 160.8425
263.2295, 161.1588
263.7116, 161.5258
264.1937, 161.9799
264.6758, 162.5121
265.1580, 163.0671
265.6401, 163.5659
266.1222, 164.2333
266.6043, 165.3253
267.0864, 167.0820
267.5685, 168.3984
268.0507, 168.9934
268.5328, 169.1210
269.0149, 169.7784
269.4970, 171.1303
269.9791, 172.6422
270.4612, 174.0259
270.9434, 175.2310
271.4255, 176.5363
271.9076, 178.0552
272.3897, 179.6317
272.8718, 180.7670
273.3539, 181.2651
273.8361, 181.9534
274.3182, 183.4084
274.8003, 185.7689
275.2824, 187.7030
275.7645, 189.0380
276.2466, 190.0525
276.7288, 191.2348
277.2109, 192.5609
277.6930, 194.1444
278.1751, 196.0506
278.6572, 198.2992
279.1393, 200.6165
279.6215, 202.9966
280.1036, 205.4619
280.5857, 208.0347
281.0678, 210.7017
281.5499, 213.5408
282.0320, 216.5631
282.5142, 219.7712
282.9963, 222.9174
283.4784, 225.8956
283.9605, 229.1389
284.4426, 233.3094
284.9247, 238.4223
285.4069, 243.6626
285.8890, 248.8462
286.3711, 253.9218
286.8532, 258.8606
287.3353, 263.6524
287.8174, 268.3788
288.2996, 272.8979
288.7817, 277.2770
289.2638, 282.1159
289.7459, 287.7422
290.2280, 293.8446
290.7101, 299.4916
291.1923, 304.6527
291.6744, 310.2928
292.1565, 317.7350
292.6386, 326.6011
293.1207, 334.9526
293.6028, 342.3327
294.0850, 349.0471
294.5671, 355.8858
295.0492, 362.8423
295.5313, 369.9004
296.0134, 377.5057
296.4955, 385.1997
296.9777, 391.5509
297.4598, 396.1943
297.9419, 399.5925
298.4240, 402.6752
298.9061, 405.2041
299.3882, 405.9549
299.8704, 404.2688
300.3525, 400.2878
300.8346, 394.0406
301.3167, 385.4116
301.7988, 375.2188
302.2809, 363.6867
302.7631, 351.1895
303.2452, 338.4416
303.7273, 325.8094
304.2094, 313.2293
304.6915, 300.6446
305.1736, 287.8741
305.6558, 275.8303
306.1379, 265.2365
306.6200, 255.9020
307.1021, 247.5052
307.5842, 239.5915
308.0663, 232.6757
308.5485, 227.4242
309.0306, 223.8214
309.5127, 220.6582
309.9948, 217.1653
310.4769, 213.5984
310.9590, 210.2928
311.4412, 207.2746
311.9233, 204.5844
312.4054, 202.2923
312.8875, 200.3535
313.3696, 198.6420
313.8517, 197.2431
314.3339, 195.9838
314.8160, 194.7149
315.2981, 193.4508
315.7802, 192.1192
316.2623, 190.5340
316.7444, 188.8444
317.2266, 187.4169
317.7087, 186.6754
318.1908, 186.0824
318.6729, 185.2451
319.1550, 183.9344
319.6371, 182.8377
320.1193, 182.2926
320.6014, 182.0942
321.0835, 181.9013
321.5656, 181.5285
322.0477, 181.2154
322.5298, 181.0600
323.0120, 181.0834
323.4941, 181.1786
323.9762, 181.2294
324.4583, 181.3731
324.9404, 181.7583
325.4225, 182.5682
325.9047, 183.4692
326.3868, 184.3720
326.8689, 185.2819
327.3510, 186.2574
327.8331, 187.3820
328.3152, 188.5325
328.7974, 189.6220
329.2795, 190.2500
329.7616, 191.3086
330.2437, 193.1433
330.7258, 195.5563
331.2079, 197.4878
331.6901, 198.5912
332.1722, 199.5545
332.6543, 200.7079
333.1364, 202.1140
333.6185, 203.5767
334.1006, 205.1194
334.5828, 206.7020
335.0649, 208.1773
335.5470, 209.4734
336.0291, 210.8081
336.5112, 212.2759
336.9933, 213.9365
337.4755, 215.4607
337.9576, 216.7966
338.4397, 218.0397
338.9218, 219.4165
339.4039, 221.0596
339.8860, 222.2840
340.3681, 222.6557
340.8503, 222.2925
341.3324, 222.8495
341.8145, 224.5455
342.2966, 226.5691
342.7787, 228.2087
343.2608, 229.4304
343.7430, 230.6628
344.2251, 231.8487
344.7072, 233.1862
345.1893, 235.4151
345.6714, 238.6304
346.1535, 241.7913
346.6357, 243.7783
347.1178, 244.9004
347.5999, 247.1543
348.0820, 251.0075
348.5641, 255.5159
349.0462, 259.3676
349.5284, 262.6019
350.0105, 265.6570
350.4926, 268.9387
350.9747, 272.1812
351.4568, 274.7771
351.9389, 276.6753
352.4211, 278.1158
352.9032, 279.4764
353.3853, 280.5591
353.8674, 280.8824
354.3495, 280.1768
354.8316, 278.6703
355.3138, 276.4876
355.7959, 273.6619
356.2780, 270.5389
356.7601, 267.5490
357.2422, 264.3141
357.7243, 260.2081
358.2065, 254.4880
358.6886, 248.8189
359.1707, 244.4820
359.6528, 241.1643
360.1349, 237.9239
360.6170, 234.2491
361.0992, 230.5126
361.5813, 226.9897
362.0634, 223.8237
362.5455, 220.6396
363.0276, 216.8584
363.5097, 213.0536
363.9919, 210.0792
364.4740, 209.2039
364.9561, 208.2843
365.4382, 206.2891
365.9203, 203.0354
366.4024, 200.3088
366.8846, 198.7199
367.3667, 197.6368
367.8488, 196.5481
368.3309, 195.3295
368.8130, 194.1795
369.2951, 193.0667
369.7773, 192.0144
370.2594, 191.1892
370.7415, 190.7741
371.2236, 190.4151
371.7057, 189.9178
372.1878, 188.9676
372.6700, 188.5028
373.1521, 188.7290
373.6342, 189.3535
374.1163, 189.8251
374.5984, 190.1045
375.0805, 190.2914
375.5627, 190.3598
376.0448, 190.2791
376.5269, 190.4667
377.0090, 190.9877
377.4911, 191.6602
377.9732, 192.3692
378.4554, 193.1551
378.9375, 193.6402
379.4196, 193.6082
379.9017, 193.2733
380.3838, 193.5140
380.8659, 194.3992
381.3481, 195.3124
381.8302, 195.9135
382.3123, 196.1876
382.7944, 195.9006
383.2765, 194.8728
383.7586, 193.6770
384.2408, 193.2448
384.7229, 193.4760
385.2050, 193.7216
385.6871, 193.6296
386.1692, 193.3372
386.6513, 193.1615
387.1335, 193.1236
387.6156, 192.9226
388.0977, 191.9735
388.5798, 190.7043
389.0619, 189.9109
389.5440, 190.1353
390.0262, 190.6792
390.5083, 190.9674
390.9904, 191.0352
391.4725, 191.0412
391.9546, 190.9750
392.4367, 190.9419
392.9189, 191.0574
393.4010, 191.4107
393.8831, 191.7382
394.3652, 191.9150
394.8473, 191.9795
395.3294, 191.9942
395.8116, 191.6075
396.2937, 191.5031
396.7758, 192.1310
397.2579, 193.6108
397.7400, 194.8310
398.2221, 195.4280
398.7043, 195.7414
399.1864, 196.0435
399.6685, 195.8811
400.1506, 196.2685
400.6327, 197.6736
401.1148, 199.8165
401.5970, 201.3649
402.0791, 201.9361
402.5612, 202.3346
403.0433, 202.8510
403.5254, 203.3665
404.0075, 204.3647
404.4897, 206.0027
404.9718, 207.9935
405.4539, 209.9231
405.9360, 211.7996
406.4181, 213.6129
406.9002, 215.3405
407.3824, 216.9924
407.8645, 218.7850
408.3466, 220.7096
408.8287, 222.8047
409.3108, 225.1465
409.7929, 227.7162
410.2751, 230.2934
410.7572, 232.7734
411.2393, 235.3970
411.7214, 238.7456
412.2035, 242.7486
412.6856, 246.6489
413.1678, 249.7805
413.6499, 252.5396
414.1320, 255.7958
414.6141, 259.6334
415.0962, 263.8124
415.5783, 267.9576
416.0605, 272.3279
416.5426, 277.5073
417.0247, 284.1340
417.5068, 291.2905
417.9889, 298.1523
418.4710, 304.8073
418.9532, 311.8510
419.4353, 319.3803
419.9174, 327.4994
420.3995, 336.1563
420.8816, 345.3806
421.3637, 355.2802
421.8459, 366.4698
422.3280, 378.1951
422.8101, 389.4754
423.2922, 398.7982
423.7743, 408.7172
424.2564, 419.9081
424.7386, 432.3699
425.2207, 445.8052
425.7028, 460.2738
426.1849, 475.5797
426.6670, 491.5435
427.1491, 507.5529
427.6313, 525.1730
428.1134, 544.6311
428.5955, 565.6428
429.0776, 587.6837
429.5597, 612.2645
430.0418, 635.4349
430.5240, 655.6346
431.0061, 672.5801
431.4882, 689.7886
431.9703, 707.6912
432.4524, 724.6694
432.9345, 739.6832
433.4167, 752.7626
433.8988, 761.2990
434.3809, 764.4235
434.8630, 762.6202
435.3451, 756.6947
435.8272, 746.6669
436.3094, 733.1561
436.7915, 715.3845
437.2736, 694.4451
437.7557, 672.9257
438.2378, 650.7566
438.7199, 629.1601
439.2020, 609.0978
439.6841, 590.5324
440.1663, 573.3866
440.6484, 557.5439
441.1305, 543.1113
441.6126, 530.6679
442.0947, 519.9811
442.5768, 509.9998
443.0590, 500.0167
443.5411, 490.6041
444.0232, 482.0966
444.5053, 474.2232
444.9874, 467.9714
445.4695, 464.2638
445.9517, 462.3243
446.4338, 460.8639
446.9159, 459.6548
447.3980, 458.8890
447.8801, 458.5820
448.3622, 458.7258
448.8444, 459.5327
449.3265, 461.3954
449.8086, 463.5895
450.2907, 465.7317
450.7728, 468.1787
451.2549, 469.9316
451.7371, 471.3399
452.2192, 471.7815
452.7013, 469.8954
453.1834, 465.6735
453.6655, 459.2398
454.1476, 450.7461
454.6298, 440.2049
455.1119, 426.6810
455.5940, 409.9941
456.0761, 391.8626
456.5582, 373.5579
457.0403, 355.2156
457.5225, 337.7909
458.0046, 321.6410
458.4867, 306.8597
458.9688, 294.0908
459.4509, 283.1249
459.9330, 273.6397
460.4152, 265.8910
460.8973, 259.1467
461.3794, 252.5793
461.8615, 246.0449
462.3436, 240.0753
462.8257, 234.9056
463.3079, 230.4619
463.7900, 226.6651
464.2721, 223.8029
464.7542, 221.1431
465.2363, 218.3330
465.7184, 215.4898
466.2006, 212.9450
466.6827, 211.1344
467.1648, 209.3288
467.6469, 207.1602
468.1290, 204.3969
468.6111, 202.1340
469.0933, 200.6035
469.5754, 199.4207
470.0575, 198.2363
470.5396, 197.0515
471.0217, 195.8669
471.5038, 194.6594
471.9860, 193.4502
472.4681, 192.2532
472.9502, 191.0076
473.4323, 189.9744
473.9144, 189.4080
474.3965, 189.2812
474.8787, 188.8213
475.3608, 187.9811
475.8429, 187.0310
476.3250, 186.2925
476.8071, 185.7221
477.2892, 185.0864
477.7714, 184.2751
478.2535, 183.4558
478.7356, 182.9254
479.2177, 182.6236
479.6998, 182.3027
480.1819, 181.8109
480.6641, 181.2274
481.1462, 180.6243
481.6283, 180.0040
482.1104, 179.4063
482.5925, 178.8686
483.0746, 178.3628
483.5568, 177.8574
484.0389, 177.3083
484.5210, 176.8081
485.0031, 176.4709
485.4852, 176.2179
485.9673, 175.7911
486.4495, 174.9400
486.9316, 174.1117
487.4137, 173.4720
487.8958, 173.0687
488.3779, 172.6030
488.8600, 172.1058
489.3422, 171.5040
489.8243, 170.6831
490.3064, 169.5552
490.7885, 168.5466
491.2706, 167.7619
491.7527, 167.0863
492.2349, 166.1451
492.7170, 164.9134
493.1991, 163.8042
493.6812, 163.1045
494.1633, 162.7166
494.6454, 162.2715
495.1276, 161.7791
495.6097, 161.1399
496.0918, 160.2189
496.5739, 159.0876
497.0560, 157.8649
497.5381, 156.3840
498.0203, 155.1983
498.5024, 155.1400
498.9845, 155.7446
499.4666, 155.9790
499.9487, 154.9832
500.4308, 153.7920
500.9130, 153.0158
501.3951, 152.6842
501.8772, 152.3341
502.3593, 151.7879
502.8414, 151.2076
503.3235, 150.6901
503.8057, 150.2123
504.2878, 149.8572
504.7699, 149.6266
505.2520, 149.5164
505.7341, 149.5635
506.2162, 149.9835
506.6984, 150.1123
507.1805, 149.6633
507.6626, 148.7202
508.1447, 148.1049
508.6268, 147.8660
509.1089, 147.7681
509.5911, 147.6196
510.0732, 147.4399
510.5553, 147.5425
511.0374, 148.0390
511.5195, 148.4782
512.0016, 148.1248
512.4838, 147.2014
512.9659, 146.4577
513.4480, 146.1817
513.9301, 146.1771
514.4122, 146.3457
514.8943, 146.6303
515.3765, 146.7861
515.8586, 146.3887
516.3407, 145.9980
516.8228, 146.1628
517.3049, 147.0901
517.7870, 147.7526
518.2692, 147.5449
518.7513, 147.0168
519.2334, 146.6963
519.7155, 146.8231
520.1976, 146.9652
520.6797, 146.9860
521.1619, 146.9922
521.6440, 147.3259
522.1261, 148.2083
522.6082, 149.0240
523.0903, 149.5744
523.5724, 149.8592
524.0546, 149.9097
524.5367, 149.6441
525.0188, 149.4025
525.5009, 149.4981
525.9830, 149.9118
526.4651, 150.3883
526.9473, 150.8806
527.4294, 151.4628
527.9115, 152.3682
528.3936, 153.4723
528.8757, 154.3798
529.3578, 154.6172
529.8400, 154.7440
530.3221, 155.3985
530.8042, 156.5058
531.2863, 157.6265
531.7684, 158.4984
532.2505, 159.2872
532.7327, 160.0944
533.2148, 160.9210
533.6969, 161.8050
534.1790, 162.7238
534.6611, 163.7149
535.1432, 164.8058
535.6254, 166.1222
536.1075, 167.4089
536.5896, 168.6053
537.0717, 169.7578
537.5538, 170.9588
538.0359, 172.2217
538.5181, 173.5362
539.0002, 174.9856
539.4823, 176.5559
539.9644, 177.7061
540.4465, 178.3390
540.9286, 179.0424
541.4108, 180.4802
541.8929, 182.4977
542.3750, 184.3598
542.8571, 185.9225
543.3392, 187.3417
543.8214, 188.7695
544.3035, 190.2031
544.7856, 191.6852
545.2677, 193.4404
545.7498, 195.0840
546.2319, 196.2876
546.7141, 197.0927
547.1962, 197.7646
547.6783, 198.0430
548.1604, 198.4970
548.6425, 199.5291
549.1246, 201.4260
549.6068, 203.1398
550.0889, 204.4140
550.5710, 205.5708
551.0531, 206.9294
551.5352, 208.7028
552.0173, 210.2173
552.4995, 211.3244
552.9816, 212.1615
553.4637, 213.0169
553.9458, 213.8792
554.4279, 214.8375
554.9100, 215.8784
555.3922, 217.0486
555.8743, 218.6530
556.3564, 220.6800
556.8385, 222.6628
557.3206, 223.9750
557.8027, 225.0478
558.2849, 226.7045
558.7670, 229.1515
559.2491, 231.7813
559.7312, 234.0951
560.2133, 236.2925
560.6954, 238.6420
561.1776, 241.5202
561.6597, 244.2297
562.1418, 246.3370
562.6239, 248.0497
563.1060, 250.0782
563.5881, 252.7990
564.0703, 255.5942
564.5524, 258.4113
565.0345, 261.2684
565.5166, 263.5714
565.9987, 265.1317
566.4808, 266.4663
566.9630, 268.0439
567.4451, 269.8972
567.9272, 271.4554
568.4093, 272.6832
568.8914, 273.6191
569.3735, 274.3711
569.8557, 274.9075
570.3378, 275.1087
570.8199, 274.9743
571.3020, 274.4353
571.7841, 273.3731
572.2662, 271.8208
572.7484, 269.9094
573.2305, 267.4530
573.7126, 264.8387
574.1947, 262.4977
574.6768, 260.5281
575.1589, 257.7864
575.6411, 253.3226
576.1232, 248.3793
576.6053, 243.8799
577.0874, 240.2552
577.5695, 236.4861
578.0516, 232.5985
578.5338, 228.5893
579.0159, 224.2709
579.4980, 219.4859
579.9801, 215.2245
580.4622, 211.9003
580.9443, 209.1283
581.4265, 205.7158
581.9086, 201.6657
582.3907, 197.7934
582.8728, 194.6038
583.3549, 191.8919
583.8370, 189.1407
584.3192, 186.3414
584.8013, 183.5897
585.2834, 180.8600
585.7655, 178.2322
586.2476, 175.7598
586.7297, 173.3985
587.2118, 171.3338
587.6939, 169.7999
588.1760, 168.5312
588.6581, 167.1896
589.1403, 165.5767
589.6224, 164.0490
590.1045, 162.6183
