##NAMES=Jarosite
##RRUFFID=R070493
##IDEAL CHEMISTRY=KFe^3+^_3_(S^6+^O_4_)_2_(OH)_6_
##LOCALITY=Maria Josefa mine, Rhodalquilar, Almeria Province, Spain
##OWNER=RRUFF
##SOURCE=Bob Jenkins
##DESCRIPTION=Dark brown rhombohedral crystals
##STATUS=The identification of this mineral has been confirmed only by single crystal X-ray diffraction.
##URL=rruff.info/R070493
98.74017, 740.6849
99.22229, 729.7662
99.70441, 722.9077
100.1865, 721.0856
100.6686, 722.7250
101.1508, 727.6349
101.6329, 738.3138
102.1150, 740.9720
102.5971, 727.2178
103.0792, 704.4311
103.5613, 684.9210
104.0435, 672.0839
104.5256, 664.2195
105.0077, 659.4106
105.4898, 658.0364
105.9719, 656.5824
106.4540, 651.7716
106.9362, 644.9185
107.4183, 642.6178
107.9004, 651.3850
108.3825, 661.3920
108.8646, 659.4415
109.3467, 642.7792
109.8289, 623.5590
110.3110, 609.5265
110.7931, 600.6620
111.2752, 598.4440
111.7573, 610.7656
112.2394, 626.2446
112.7216, 632.9482
113.2037, 626.3129
113.6858, 618.4003
114.1679, 626.8196
114.6500, 657.1308
115.1321, 683.7607
115.6143, 696.7550
116.0964, 703.4823
116.5785, 709.2410
117.0606, 715.4981
117.5427, 722.8290
118.0248, 732.0632
118.5070, 741.8784
118.9891, 756.6959
119.4712, 781.6398
119.9533, 809.6960
120.4354, 833.2085
120.9175, 848.1895
121.3997, 856.2805
121.8818, 862.8149
122.3639, 856.9058
122.8460, 864.5490
123.3281, 899.1716
123.8102, 947.9044
124.2924, 992.5807
124.7745, 1020.356
125.2566, 1034.329
125.7387, 1062.818
126.2208, 1117.550
126.7029, 1176.112
127.1851, 1237.062
127.6672, 1298.730
128.1493, 1358.844
128.6314, 1415.654
129.1135, 1469.366
129.5956, 1522.548
130.0778, 1572.436
130.5599, 1624.852
131.0420, 1677.808
131.5241, 1734.432
132.0062, 1801.901
132.4883, 1887.195
132.9705, 1992.635
133.4526, 2093.713
133.9347, 2173.860
134.4168, 2264.748
134.8989, 2386.283
135.3810, 2535.444
135.8632, 2694.540
136.3453, 2849.429
136.8274, 2999.365
137.3095, 3136.539
137.7916, 3284.831
138.2737, 3404.601
138.7559, 3473.209
139.2380, 3487.412
139.7201, 3448.578
140.2022, 3348.002
140.6843, 3173.384
141.1664, 3013.863
141.6486, 2868.343
142.1307, 2740.459
142.6128, 2636.524
143.0949, 2557.436
143.5770, 2494.113
144.0591, 2433.175
144.5413, 2374.806
145.0234, 2351.830
145.5055, 2381.228
145.9876, 2443.270
146.4697, 2519.302
146.9518, 2608.827
147.4340, 2701.855
147.9161, 2787.162
148.3982, 2866.153
148.8803, 2946.627
149.3624, 3033.536
149.8445, 3123.186
150.3266, 3210.904
150.8088, 3298.341
151.2909, 3378.014
151.7730, 3443.038
152.2551, 3495.286
152.7372, 3536.346
153.2193, 3568.731
153.7015, 3590.091
154.1836, 3596.328
154.6657, 3589.154
155.1478, 3560.469
155.6299, 3495.787
156.1120, 3401.854
156.5942, 3309.141
157.0763, 3235.609
157.5584, 3176.069
158.0405, 3110.278
158.5226, 3028.107
159.0047, 2952.143
159.4869, 2899.007
159.9690, 2865.895
160.4511, 2839.961
160.9332, 2809.791
161.4153, 2772.766
161.8974, 2738.466
162.3796, 2729.186
162.8617, 2726.445
163.3438, 2719.674
163.8259, 2709.073
164.3080, 2695.579
164.7901, 2678.634
165.2723, 2658.814
165.7544, 2641.503
166.2365, 2630.168
166.7186, 2618.128
167.2007, 2603.290
167.6828, 2585.458
168.1650, 2563.949
168.6471, 2537.510
169.1292, 2506.349
169.6113, 2475.173
170.0934, 2446.644
170.5755, 2415.604
171.0577, 2375.181
171.5398, 2328.821
172.0219, 2287.976
172.5040, 2262.671
172.9861, 2253.030
173.4682, 2247.140
173.9504, 2249.640
174.4325, 2251.276
174.9146, 2248.516
175.3967, 2241.445
175.8788, 2231.518
176.3609, 2218.329
176.8431, 2201.359
177.3252, 2188.917
177.8073, 2188.025
178.2894, 2185.206
178.7715, 2171.478
179.2536, 2150.330
179.7358, 2132.973
180.2179, 2129.251
180.7000, 2139.706
181.1821, 2153.544
181.6642, 2184.277
182.1463, 2206.049
182.6285, 2204.166
183.1106, 2184.427
183.5927, 2164.013
184.0748, 2158.169
184.5569, 2167.700
185.0390, 2174.244
185.5212, 2165.901
186.0033, 2165.617
186.4854, 2185.609
186.9675, 2220.622
187.4496, 2256.408
187.9317, 2281.818
188.4139, 2296.389
188.8960, 2310.801
189.3781, 2324.003
189.8602, 2337.955
190.3423, 2351.502
190.8244, 2366.074
191.3066, 2385.254
191.7887, 2413.106
192.2708, 2449.579
192.7529, 2478.381
193.2350, 2484.272
193.7171, 2497.313
194.1993, 2528.995
194.6814, 2574.027
195.1635, 2619.978
195.6456, 2656.533
196.1277, 2684.827
196.6098, 2728.030
197.0920, 2806.451
197.5741, 2880.313
198.0562, 2929.439
198.5383, 2968.783
199.0204, 3024.302
199.5025, 3113.964
199.9847, 3235.626
200.4668, 3365.161
200.9489, 3499.419
201.4310, 3647.485
201.9131, 3801.369
202.3952, 3971.743
202.8774, 4173.749
203.3595, 4416.843
203.8416, 4698.015
204.3237, 4997.838
204.8058, 5318.926
205.2879, 5657.832
205.7701, 6008.790
206.2522, 6377.498
206.7343, 6780.938
207.2164, 7229.563
207.6985, 7706.916
208.1806, 8146.543
208.6628, 8529.942
209.1449, 8892.545
209.6270, 9223.348
210.1091, 9541.069
210.5912, 9861.832
211.0733, 10193.29
211.5555, 10540.17
212.0376, 10921.08
212.5197, 11344.30
213.0018, 11796.27
213.4839, 12270.62
213.9660, 12771.63
214.4482, 13295.15
214.9303, 13838.19
215.4124, 14417.83
215.8945, 15059.23
216.3766, 15758.09
216.8587, 16537.73
217.3409, 17384.10
217.8230, 18308.34
218.3051, 19331.31
218.7872, 20455.23
219.2693, 21639.67
219.7514, 22822.76
220.2336, 24032.04
220.7157, 25179.43
221.1978, 26400.82
221.6799, 27482.14
222.1620, 28315.05
222.6441, 28862.44
223.1263, 29074.09
223.6084, 28870.06
224.0905, 28183.82
224.5726, 27208.11
225.0547, 25853.13
225.5368, 24330.80
226.0190, 22703.79
226.5011, 21015.28
226.9832, 19312.19
227.4653, 17641.02
227.9474, 15978.50
228.4296, 14462.70
228.9117, 13110.70
229.3938, 11880.53
229.8759, 10774.52
230.3580, 9784.193
230.8401, 8893.407
231.3223, 8083.608
231.8044, 7356.021
232.2865, 6716.029
232.7686, 6199.193
233.2507, 5744.981
233.7328, 5348.384
234.2150, 5000.283
234.6971, 4687.238
235.1792, 4397.705
235.6613, 4131.793
236.1434, 3900.824
236.6255, 3724.163
237.1077, 3562.683
237.5898, 3404.827
238.0719, 3255.296
238.5540, 3122.070
239.0361, 3011.963
239.5182, 2920.504
240.0004, 2829.644
240.4825, 2737.874
240.9646, 2649.865
241.4467, 2563.591
241.9288, 2482.137
242.4109, 2409.965
242.8931, 2349.226
243.3752, 2297.519
243.8573, 2250.750
244.3394, 2214.138
244.8215, 2171.539
245.3036, 2111.170
245.7858, 2049.002
246.2679, 2001.007
246.7500, 1972.015
247.2321, 1950.855
247.7142, 1919.114
248.1963, 1871.401
248.6785, 1831.220
249.1606, 1808.766
249.6427, 1790.259
250.1248, 1767.466
250.6069, 1739.018
251.0890, 1708.139
251.5712, 1675.617
252.0533, 1640.391
252.5354, 1614.625
253.0175, 1610.358
253.4996, 1606.801
253.9817, 1589.350
254.4639, 1560.206
254.9460, 1534.998
255.4281, 1531.891
255.9102, 1548.323
256.3923, 1548.619
256.8744, 1519.123
257.3565, 1489.369
257.8387, 1476.513
258.3208, 1476.121
258.8029, 1476.445
259.2850, 1471.209
259.7671, 1461.633
260.2492, 1451.464
260.7314, 1440.653
261.2135, 1429.258
261.6956, 1414.869
262.1777, 1400.342
262.6598, 1390.486
263.1419, 1388.628
263.6241, 1390.880
264.1062, 1391.024
264.5883, 1388.360
265.0704, 1387.479
265.5525, 1392.049
266.0346, 1399.088
266.5168, 1404.286
266.9989, 1404.859
267.4810, 1407.974
267.9631, 1422.946
268.4452, 1448.993
268.9273, 1472.199
269.4095, 1489.546
269.8916, 1499.719
270.3737, 1500.121
270.8558, 1487.558
271.3379, 1480.167
271.8200, 1490.729
272.3022, 1514.983
272.7843, 1539.564
273.2664, 1561.690
273.7485, 1582.726
274.2306, 1603.938
274.7127, 1625.236
275.1949, 1648.206
275.6770, 1672.650
276.1591, 1699.322
276.6412, 1729.573
277.1233, 1763.920
277.6054, 1799.955
278.0876, 1835.064
278.5697, 1869.552
279.0518, 1907.384
279.5339, 1948.081
280.0160, 1993.039
280.4981, 2045.069
280.9803, 2103.544
281.4624, 2162.547
281.9445, 2216.648
282.4266, 2267.901
282.9087, 2330.028
283.3908, 2416.594
283.8730, 2498.778
284.3551, 2557.239
284.8372, 2602.011
285.3193, 2657.094
285.8014, 2733.454
286.2835, 2827.203
286.7657, 2927.168
287.2478, 3047.614
287.7299, 3153.995
288.2120, 3228.386
288.6941, 3291.097
289.1762, 3363.808
289.6584, 3453.309
290.1405, 3556.775
290.6226, 3671.816
291.1047, 3806.321
291.5868, 3934.313
292.0689, 4049.192
292.5511, 4162.776
293.0332, 4279.638
293.5153, 4402.251
293.9974, 4537.155
294.4795, 4692.736
294.9616, 4873.440
295.4438, 5036.519
295.9259, 5170.975
296.4080, 5300.575
296.8901, 5448.830
297.3722, 5597.775
297.8543, 5711.716
298.3365, 5768.938
298.8186, 5772.605
299.3007, 5739.518
299.7828, 5670.739
300.2649, 5557.460
300.7470, 5399.003
301.2292, 5199.664
301.7113, 4957.311
302.1934, 4670.557
302.6755, 4361.099
303.1576, 4061.247
303.6397, 3765.582
304.1219, 3498.645
304.6040, 3278.271
305.0861, 3078.135
305.5682, 2881.470
306.0503, 2688.001
306.5324, 2508.156
307.0146, 2352.025
307.4967, 2220.057
307.9788, 2108.644
308.4609, 2026.403
308.9430, 1956.002
309.4251, 1887.404
309.9073, 1820.930
310.3894, 1758.342
310.8715, 1698.841
311.3536, 1644.079
311.8357, 1600.036
312.3178, 1568.881
312.8000, 1539.904
313.2821, 1504.338
313.7642, 1467.596
314.2463, 1438.618
314.7284, 1421.591
315.2105, 1408.967
315.6927, 1395.178
316.1748, 1380.221
316.6569, 1363.121
317.1390, 1341.992
317.6211, 1320.165
318.1032, 1303.401
318.5854, 1292.311
319.0675, 1283.281
319.5496, 1275.916
320.0317, 1269.481
320.5138, 1262.490
320.9959, 1254.536
321.4781, 1246.886
321.9602, 1240.882
322.4423, 1236.644
322.9244, 1234.165
323.4065, 1237.453
323.8886, 1239.485
324.3708, 1233.839
324.8529, 1221.419
325.3350, 1208.034
325.8171, 1197.407
326.2992, 1189.606
326.7813, 1185.863
327.2635, 1193.173
327.7456, 1195.951
328.2277, 1188.020
328.7098, 1173.628
329.1919, 1157.739
329.6740, 1142.447
330.1562, 1129.656
330.6383, 1123.898
331.1204, 1131.082
331.6025, 1135.656
332.0846, 1137.645
332.5667, 1137.119
333.0489, 1132.267
333.5310, 1124.010
334.0131, 1116.819
334.4952, 1114.943
334.9773, 1118.364
335.4594, 1127.307
335.9416, 1150.822
336.4237, 1170.682
336.9058, 1175.767
337.3879, 1173.063
337.8700, 1176.665
338.3521, 1195.668
338.8343, 1224.483
339.3164, 1249.364
339.7985, 1270.023
340.2806, 1287.452
340.7627, 1298.821
341.2448, 1308.714
341.7270, 1320.800
342.2091, 1335.793
342.6912, 1353.419
343.1733, 1371.484
343.6554, 1390.849
344.1375, 1419.957
344.6197, 1466.038
345.1018, 1514.401
345.5839, 1549.868
346.0660, 1573.614
346.5481, 1596.900
347.0302, 1619.209
347.5124, 1645.318
347.9945, 1684.432
348.4766, 1737.351
348.9587, 1790.968
349.4408, 1836.602
349.9229, 1875.005
350.4051, 1913.947
350.8872, 1957.326
351.3693, 1997.159
351.8514, 2032.155
352.3335, 2061.015
352.8156, 2080.627
353.2978, 2089.354
353.7799, 2090.067
354.2620, 2088.647
354.7441, 2091.397
355.2262, 2079.649
355.7083, 2047.086
356.1905, 2004.160
356.6726, 1956.562
357.1547, 1906.290
357.6368, 1855.128
358.1189, 1803.531
358.6010, 1750.914
359.0832, 1709.848
359.5653, 1691.182
360.0474, 1673.072
360.5295, 1648.157
361.0116, 1620.725
361.4937, 1599.165
361.9759, 1588.324
362.4580, 1581.884
362.9401, 1564.947
363.4222, 1533.291
363.9043, 1502.908
364.3864, 1480.086
364.8686, 1457.404
365.3507, 1426.404
365.8328, 1387.270
366.3149, 1353.216
366.7970, 1341.840
367.2791, 1347.325
367.7613, 1335.705
368.2434, 1297.247
368.7255, 1255.761
369.2076, 1226.854
369.6897, 1207.650
370.1718, 1192.451
370.6540, 1184.037
371.1361, 1175.583
371.6182, 1156.493
372.1003, 1128.829
372.5824, 1109.932
373.0645, 1109.895
373.5467, 1120.705
374.0288, 1123.898
374.5109, 1116.728
374.9930, 1110.528
375.4751, 1106.588
375.9572, 1105.857
376.4394, 1110.752
376.9215, 1121.346
377.4036, 1133.429
377.8857, 1142.917
378.3678, 1149.724
378.8499, 1154.191
379.3321, 1152.484
379.8142, 1152.777
380.2963, 1158.573
380.7784, 1168.705
381.2605, 1180.862
381.7426, 1193.895
382.2248, 1207.519
382.7069, 1220.988
383.1890, 1235.181
383.6711, 1247.325
384.1532, 1254.903
384.6353, 1262.169
385.1175, 1275.164
385.5996, 1292.943
386.0817, 1305.542
386.5638, 1299.890
387.0459, 1277.914
387.5280, 1263.836
388.0102, 1261.469
388.4923, 1261.158
388.9744, 1256.890
389.4565, 1251.037
389.9386, 1248.480
390.4207, 1254.084
390.9029, 1258.768
391.3850, 1249.960
391.8671, 1229.410
392.3492, 1213.423
392.8313, 1208.821
393.3134, 1209.966
393.7956, 1207.637
394.2777, 1201.018
394.7598, 1196.653
395.2419, 1199.890
395.7240, 1204.085
396.2061, 1199.078
396.6883, 1185.293
397.1704, 1176.344
397.6525, 1185.198
398.1346, 1210.428
398.6167, 1221.800
399.0988, 1201.631
399.5810, 1190.222
400.0631, 1205.304
400.5452, 1232.042
401.0273, 1250.637
401.5094, 1254.085
401.9915, 1249.829
402.4737, 1249.407
402.9558, 1253.882
403.4379, 1259.049
403.9200, 1258.276
404.4021, 1264.162
404.8842, 1287.102
405.3664, 1322.271
405.8485, 1355.578
406.3306, 1377.621
406.8127, 1392.256
407.2948, 1407.602
407.7769, 1422.053
408.2591, 1443.720
408.7412, 1480.429
409.2233, 1523.885
409.7054, 1564.295
410.1875, 1599.977
410.6696, 1637.668
411.1518, 1676.243
411.6339, 1720.616
412.1160, 1784.985
412.5981, 1873.067
413.0802, 1968.135
413.5623, 2050.551
414.0445, 2121.029
414.5266, 2214.938
415.0087, 2335.843
415.4908, 2476.494
415.9729, 2638.665
416.4550, 2817.461
416.9372, 3002.824
417.4193, 3190.979
417.9014, 3386.086
418.3835, 3597.690
418.8656, 3815.364
419.3477, 4071.219
419.8299, 4388.118
420.3120, 4717.539
420.7941, 5034.833
421.2762, 5338.435
421.7583, 5638.162
422.2404, 5939.507
422.7226, 6242.821
423.2047, 6557.162
423.6868, 6876.365
424.1689, 7219.838
424.6510, 7602.327
425.1331, 8006.404
425.6153, 8410.597
426.0974, 8808.643
426.5795, 9233.839
427.0616, 9709.037
427.5437, 10233.67
428.0258, 10807.21
428.5080, 11435.86
428.9901, 12110.78
429.4722, 12833.90
429.9543, 13603.88
430.4364, 14391.86
430.9185, 15225.37
431.4007, 16052.17
431.8828, 16896.30
432.3649, 17708.84
432.8470, 18398.96
433.3291, 18931.69
433.8112, 19295.76
434.2934, 19468.76
434.7755, 19457.85
435.2576, 19208.27
435.7397, 18637.63
436.2218, 17932.57
436.7039, 17152.21
437.1861, 16329.42
437.6682, 15488.55
438.1503, 14638.15
438.6324, 13802.89
439.1145, 13070.48
439.5966, 12453.76
440.0788, 11915.89
440.5609, 11474.18
441.0430, 11094.40
441.5251, 10763.66
442.0072, 10480.37
442.4893, 10208.81
442.9715, 9921.040
443.4536, 9627.308
443.9357, 9352.103
444.4178, 9099.161
444.8999, 8846.613
445.3820, 8588.693
445.8642, 8316.512
446.3463, 8004.218
446.8284, 7601.242
447.3105, 7215.121
447.7926, 6881.052
448.2747, 6592.162
448.7569, 6344.042
449.2390, 6135.442
449.7211, 5953.997
450.2032, 5787.056
450.6853, 5638.277
451.1674, 5486.935
451.6496, 5337.953
452.1317, 5180.487
452.6138, 5015.970
453.0959, 4839.633
453.5780, 4643.832
454.0602, 4424.755
454.5423, 4188.604
455.0244, 3939.492
455.5065, 3675.381
455.9886, 3417.772
456.4707, 3161.903
456.9529, 2924.373
457.4349, 2711.551
457.9171, 2524.591
458.3992, 2361.940
458.8813, 2233.573
459.3634, 2122.663
459.8455, 2007.400
460.3276, 1889.579
460.8098, 1785.434
461.2919, 1704.196
461.7740, 1638.573
462.2561, 1574.370
462.7382, 1509.300
463.2203, 1450.264
463.7025, 1397.546
464.1846, 1351.587
464.6667, 1314.131
465.1488, 1284.026
465.6309, 1258.517
466.1130, 1236.272
466.5952, 1216.022
467.0773, 1191.107
467.5594, 1158.017
468.0415, 1126.709
468.5236, 1099.203
469.0057, 1073.903
469.4879, 1049.121
469.9700, 1024.774
470.4521, 1002.549
470.9342, 983.9307
471.4163, 968.4232
471.8984, 955.2393
472.3806, 944.9026
472.8627, 934.0877
473.3448, 920.4606
473.8269, 905.1567
474.3090, 891.4694
474.7911, 880.0347
475.2733, 869.0656
475.7554, 857.5578
476.2375, 846.2827
476.7196, 837.8768
477.2017, 832.2248
477.6838, 823.3465
478.1660, 803.7978
478.6481, 773.4836
479.1302, 757.0470
479.6123, 770.3688
480.0944, 779.4555
480.5765, 776.6899
481.0587, 767.5316
481.5408, 757.8245
482.0229, 749.2790
482.5050, 740.9583
482.9871, 731.1998
483.4692, 720.2162
483.9514, 711.6261
484.4335, 706.4923
484.9156, 702.0892
485.3977, 694.9123
485.8798, 687.5236
486.3619, 685.6678
486.8441, 695.1351
487.3262, 702.2946
487.8083, 697.1057
488.2904, 683.6702
488.7725, 668.7524
489.2546, 653.8884
489.7368, 643.0485
490.2189, 641.5129
490.7010, 650.5095
491.1831, 654.7919
491.6652, 654.3210
492.1473, 649.9172
492.6295, 638.2150
493.1116, 624.1467
493.5937, 613.7751
494.0758, 609.2648
494.5579, 608.4854
495.0400, 610.3940
495.5222, 615.3790
496.0043, 614.3317
496.4864, 602.1932
496.9685, 591.0596
497.4506, 588.3762
497.9327, 591.3543
498.4149, 595.2840
498.8970, 600.5626
499.3791, 603.8707
499.8612, 601.1273
500.3433, 594.5552
500.8254, 589.4489
501.3076, 587.0459
501.7897, 587.0098
502.2718, 589.6101
502.7539, 595.3177
503.2360, 598.0350
503.7181, 595.4941
504.2003, 592.9493
504.6824, 591.8519
505.1645, 591.8718
505.6466, 592.1074
506.1287, 592.3427
506.6108, 593.7731
507.0930, 600.3926
507.5751, 612.9661
508.0572, 614.5756
508.5393, 597.3865
509.0214, 580.8389
509.5035, 574.8038
509.9857, 576.1509
510.4678, 580.8105
510.9499, 590.3826
511.4320, 597.5607
511.9141, 593.3679
512.3962, 583.4311
512.8784, 582.6527
513.3605, 594.3447
513.8426, 605.5773
514.3247, 602.7536
514.8068, 585.5604
515.2889, 578.7054
515.7711, 589.9299
516.2532, 600.6915
516.7353, 606.7529
517.2174, 610.0441
517.6995, 613.6680
518.1816, 618.0467
518.6638, 619.9659
519.1459, 613.4158
519.6280, 599.3445
520.1101, 593.7566
520.5922, 599.8458
521.0743, 607.7274
521.5565, 613.3758
522.0386, 617.6328
522.5207, 621.6541
523.0028, 626.0239
523.4849, 628.6091
523.9670, 626.8328
524.4492, 623.1634
524.9313, 618.0947
525.4134, 612.7669
525.8955, 619.0313
526.3776, 649.6542
526.8597, 697.8010
527.3419, 719.2079
527.8240, 681.0194
528.3061, 657.9490
528.7882, 666.9624
529.2703, 684.3837
529.7524, 690.3980
530.2346, 684.0792
530.7167, 677.9680
531.1988, 681.7342
531.6809, 692.9084
532.1630, 705.1268
532.6451, 719.1603
533.1273, 729.5838
533.6094, 732.2383
534.0915, 732.0296
534.5736, 736.3055
535.0557, 745.6584
535.5378, 754.2051
536.0200, 757.8399
536.5021, 761.9743
536.9842, 769.7822
537.4663, 782.1111
537.9484, 802.7675
538.4305, 834.5333
538.9127, 869.1296
539.3948, 885.6960
539.8769, 872.3813
540.3590, 869.8794
540.8411, 887.9666
541.3232, 908.7365
541.8054, 924.2128
542.2875, 935.8615
542.7696, 947.9451
543.2517, 961.5070
543.7338, 977.8714
544.2159, 1001.246
544.6981, 1029.796
545.1802, 1053.141
545.6623, 1068.329
546.1444, 1079.285
546.6265, 1088.226
547.1086, 1095.132
547.5908, 1108.590
548.0729, 1134.514
548.5550, 1160.018
549.0371, 1179.817
549.5192, 1196.931
550.0013, 1215.161
550.4835, 1235.705
550.9656, 1257.304
551.4477, 1278.845
551.9298, 1300.260
552.4119, 1322.158
552.8940, 1344.924
553.3762, 1367.165
553.8583, 1383.776
554.3404, 1401.641
554.8225, 1430.834
555.3046, 1474.589
555.7867, 1514.917
556.2689, 1536.130
556.7510, 1552.590
557.2331, 1582.499
557.7152, 1626.463
558.1973, 1678.101
558.6794, 1735.378
559.1616, 1794.355
559.6437, 1844.299
560.1258, 1879.080
560.6079, 1915.544
561.0900, 1953.281
561.5721, 1993.553
562.0543, 2036.901
562.5364, 2083.259
563.0185, 2133.088
563.5006, 2187.865
563.9827, 2243.633
564.4648, 2293.384
564.9470, 2337.929
565.4291, 2385.379
565.9112, 2438.819
566.3933, 2492.349
566.8754, 2540.325
567.3575, 2582.438
567.8397, 2621.975
568.3218, 2660.789
568.8039, 2694.883
569.2860, 2720.148
569.7681, 2740.833
570.2502, 2765.464
570.7324, 2794.204
571.2145, 2814.119
571.6966, 2811.119
572.1787, 2787.235
572.6608, 2761.105
573.1429, 2734.493
573.6251, 2700.815
574.1072, 2655.128
574.5893, 2602.358
575.0714, 2548.531
575.5535, 2494.169
576.0356, 2433.842
576.5178, 2358.820
576.9999, 2281.977
577.4820, 2222.052
577.9641, 2172.771
578.4462, 2108.490
578.9283, 2015.761
579.4105, 1910.942
579.8926, 1826.101
580.3747, 1768.394
580.8568, 1707.829
581.3389, 1639.383
581.8210, 1572.642
582.3032, 1511.546
582.7853, 1454.462
583.2674, 1399.160
583.7495, 1345.372
584.2316, 1291.116
584.7137, 1230.966
585.1959, 1169.506
585.6780, 1120.230
586.1601, 1085.127
586.6422, 1055.533
587.1243, 1026.530
587.6064, 997.9653
588.0886, 969.1564
588.5707, 936.0532
589.0528, 908.4095
589.5349, 890.5998
590.0170, 875.0711
590.4991, 855.7404
590.9813, 833.6269
591.4634, 813.5035
591.9455, 798.0130
592.4276, 786.6514
592.9097, 780.1113
593.3918, 778.2003
593.8740, 774.3270
594.3561, 767.7908
594.8382, 756.9740
595.3203, 737.2435
595.8024, 709.5948
596.2845, 691.2679
