##NAMES=Jarosite
##RRUFFID=R060236
##IDEAL CHEMISTRY=KFe^3+^_3_(S^6+^O_4_)_2_(OH)_6_
##LOCALITY=Gold Hill, Tooele County, Utah, USA
##OWNER=RRUFF
##SOURCE=Michael Scott
##DESCRIPTION=Spherical groups of brown bladed crystals
##STATUS=The identification of this mineral has been confirmed by single-crystal X-ray diffraction.
##URL=rruff.info/R060236
91.82715, 103.1965
92.30927, 102.1931
92.79138, 102.3767
93.27350, 102.7905
93.75562, 103.1424
94.23773, 103.9482
94.71985, 105.1997
95.20197, 105.6120
95.68408, 104.6084
96.16620, 102.8115
96.64832, 100.8134
97.13043, 98.68374
97.61255, 96.50898
98.09467, 94.31300
98.57678, 91.91634
99.05890, 89.76497
99.54102, 88.30886
100.0231, 87.26647
100.5052, 86.38296
100.9874, 85.52222
101.4695, 84.67231
101.9516, 83.84779
102.4337, 82.71648
102.9158, 81.93360
103.3979, 81.65234
103.8801, 81.78638
104.3622, 82.20728
104.8443, 82.85047
105.3264, 83.76157
105.8085, 84.34435
106.2906, 84.64992
106.7728, 84.65199
107.2549, 84.31419
107.7370, 83.64282
108.2191, 82.68919
108.7012, 81.42009
109.1833, 79.80415
109.6655, 78.30685
110.1476, 76.85461
110.6297, 75.58463
111.1118, 74.69170
111.5939, 74.22544
112.0760, 74.17404
112.5582, 74.53471
113.0403, 75.26855
113.5224, 76.19306
114.0045, 77.17999
114.4866, 78.23879
114.9687, 79.47806
115.4509, 80.76479
115.9330, 82.40296
116.4151, 84.63631
116.8972, 87.48768
117.3793, 90.74204
117.8614, 94.24712
118.3436, 98.26084
118.8257, 101.8329
119.3078, 105.0014
119.7899, 107.7223
120.2720, 109.9276
120.7541, 111.5931
121.2363, 112.7873
121.7184, 113.7152
122.2005, 114.1353
122.6826, 114.5059
123.1647, 114.6954
123.6468, 114.8782
124.1290, 115.2819
124.6111, 116.0413
125.0932, 117.1405
125.5753, 118.4513
126.0574, 119.7739
126.5395, 121.4296
127.0217, 123.8065
127.5038, 126.7613
127.9859, 129.5434
128.4680, 131.5069
128.9501, 132.8129
129.4323, 134.5408
129.9144, 137.1724
130.3965, 140.0261
130.8786, 142.4746
131.3607, 144.4997
131.8428, 146.1049
132.3250, 146.9259
132.8071, 147.3365
133.2892, 147.9887
133.7713, 149.1004
134.2534, 150.6563
134.7355, 152.6584
135.2176, 155.3087
135.6998, 158.1781
136.1819, 161.6561
136.6640, 165.2566
137.1461, 167.8515
137.6282, 168.9170
138.1103, 168.5697
138.5925, 165.3275
139.0746, 157.3638
139.5567, 147.8839
140.0388, 137.0229
140.5209, 125.3932
141.0030, 114.1545
141.4852, 104.6731
141.9673, 97.24895
142.4494, 91.11534
142.9315, 86.45263
143.4136, 82.68580
143.8957, 79.51373
144.3779, 76.84968
144.8600, 74.60041
145.3421, 72.62645
145.8242, 70.92740
146.3063, 69.57856
146.7884, 68.76536
147.2706, 68.24315
147.7527, 67.69370
148.2348, 66.99044
148.7169, 66.27940
149.1990, 65.87138
149.6811, 65.75591
150.1633, 65.79801
150.6454, 65.99934
151.1275, 66.33009
151.6096, 66.71173
152.0917, 67.17940
152.5738, 67.61504
153.0560, 67.85831
153.5381, 67.86952
154.0202, 67.80925
154.5023, 67.81501
154.9844, 67.89217
155.4665, 67.90762
155.9487, 67.59519
156.4308, 67.31689
156.9129, 67.37493
157.3950, 67.85481
157.8771, 68.61839
158.3592, 69.47062
158.8414, 70.38368
159.3235, 71.46889
159.8056, 72.85444
160.2877, 74.34776
160.7698, 75.80191
161.2519, 77.14944
161.7341, 78.41392
162.2162, 79.64697
162.6983, 80.80640
163.1804, 81.99782
163.6625, 83.27746
164.1446, 84.58646
164.6268, 85.83019
165.1089, 86.95689
165.5910, 87.99455
166.0731, 89.15878
166.5552, 90.49494
167.0373, 91.90795
167.5195, 93.47868
168.0016, 95.11749
168.4837, 96.69650
168.9658, 98.15144
169.4479, 99.46994
169.9300, 100.3951
170.4122, 100.5576
170.8943, 100.7655
171.3764, 101.4067
171.8585, 102.4314
172.3406, 103.5395
172.8227, 104.4607
173.3049, 105.2738
173.7870, 106.4950
174.2691, 108.4817
174.7512, 110.6328
175.2333, 112.3965
175.7154, 113.7446
176.1976, 115.1561
176.6797, 117.1700
177.1618, 119.5147
177.6439, 121.4691
178.1260, 122.9095
178.6081, 123.8712
179.0903, 124.4443
179.5724, 124.6719
180.0545, 124.3409
180.5366, 123.3743
181.0187, 121.8110
181.5008, 119.5758
181.9830, 116.3721
182.4651, 112.5097
182.9472, 108.8948
183.4293, 105.5613
183.9114, 102.4881
184.3935, 99.60868
184.8757, 96.94141
185.3578, 94.51228
185.8399, 92.40073
186.3220, 90.57100
186.8041, 88.69090
187.2862, 86.74822
187.7684, 84.75062
188.2505, 82.44073
188.7326, 80.07113
189.2147, 78.12228
189.6968, 77.02580
190.1789, 76.80949
190.6611, 76.56888
191.1432, 76.15356
191.6253, 75.85479
192.1074, 75.78494
192.5895, 75.91898
193.0716, 76.17319
193.5538, 76.47958
194.0359, 76.84193
194.5180, 77.24055
195.0001, 77.58755
195.4822, 78.03574
195.9643, 78.59705
196.4465, 79.30434
196.9286, 80.25656
197.4107, 81.56113
197.8928, 83.27170
198.3749, 85.02977
198.8570, 86.77728
199.3392, 88.60762
199.8213, 90.50514
200.3034, 92.49766
200.7855, 94.75386
201.2676, 97.46943
201.7497, 100.6939
202.2319, 104.0577
202.7140, 107.6118
203.1961, 111.2692
203.6782, 115.0152
204.1603, 118.8737
204.6424, 122.6319
205.1246, 126.1285
205.6067, 129.3886
206.0888, 132.4277
206.5709, 135.1876
207.0530, 137.7519
207.5351, 140.2159
208.0173, 142.5894
208.4994, 144.8892
208.9815, 147.1015
209.4636, 149.2546
209.9457, 151.3958
210.4278, 153.4486
210.9100, 155.5186
211.3921, 157.8442
211.8742, 160.4185
212.3563, 163.2681
212.8384, 166.5757
213.3205, 170.1289
213.8027, 173.5432
214.2848, 176.5054
214.7669, 179.1789
215.2490, 182.1333
215.7311, 185.6117
216.2132, 189.0094
216.6953, 192.0626
217.1775, 194.8725
217.6596, 197.6665
218.1417, 200.7055
218.6238, 203.8425
219.1059, 206.1557
219.5880, 207.3278
220.0702, 207.9291
220.5523, 208.4321
221.0344, 208.5040
221.5165, 207.6486
221.9986, 205.5780
222.4807, 202.2891
222.9629, 197.7182
223.4450, 191.0830
223.9271, 183.8652
224.4092, 176.1767
224.8913, 168.1091
225.3734, 159.6809
225.8556, 150.7661
226.3377, 141.5253
226.8198, 133.1934
227.3019, 126.1820
227.7840, 119.7532
228.2661, 113.7849
228.7483, 108.3096
229.2304, 103.4901
229.7125, 99.42250
230.1946, 96.06510
230.6767, 93.08501
231.1588, 90.38635
231.6410, 88.12521
232.1231, 86.55019
232.6052, 85.43481
233.0873, 84.35509
233.5694, 83.05391
234.0515, 81.57293
234.5337, 80.21921
235.0158, 78.98360
235.4979, 77.84516
235.9800, 76.79832
236.4621, 75.84651
236.9442, 75.00596
237.4264, 74.30786
237.9085, 73.70812
238.3906, 72.99609
238.8727, 71.95767
239.3548, 71.06761
239.8369, 70.65296
240.3191, 70.52565
240.8012, 70.17727
241.2833, 69.27086
241.7654, 68.08115
242.2475, 67.41554
242.7296, 67.45113
243.2118, 67.61456
243.6939, 67.72379
244.1760, 67.77975
244.6581, 67.75877
245.1402, 67.59202
245.6223, 67.41837
246.1045, 67.53295
246.5866, 68.03904
247.0687, 68.51226
247.5508, 68.72936
248.0329, 68.73581
248.5150, 68.68678
248.9972, 68.60306
249.4793, 68.52154
249.9614, 68.56911
250.4435, 68.80915
250.9256, 68.80836
251.4077, 68.18261
251.8899, 67.06785
252.3720, 66.04117
252.8541, 65.25811
253.3362, 64.61288
253.8183, 64.01359
254.3004, 63.45934
254.7826, 62.85265
255.2647, 62.08855
255.7468, 61.20512
256.2289, 60.37868
256.7110, 59.57181
257.1931, 58.93872
257.6753, 58.57174
258.1574, 58.45591
258.6395, 58.49704
259.1216, 58.71560
259.6037, 59.07090
260.0858, 59.32489
260.5680, 59.36959
261.0501, 59.42842
261.5322, 59.59942
262.0143, 59.88597
262.4964, 60.29605
262.9785, 60.94020
263.4607, 61.75146
263.9428, 62.32747
264.4249, 62.49476
264.9070, 62.66240
265.3891, 62.97081
265.8712, 63.42318
266.3534, 64.03798
266.8355, 64.92215
267.3176, 65.96690
267.7997, 66.68226
268.2818, 66.82494
268.7639, 66.99763
269.2461, 67.39874
269.7282, 67.96928
270.2103, 68.63508
270.6924, 69.37785
271.1745, 70.16598
271.6566, 70.89642
272.1388, 71.60210
272.6209, 72.17141
273.1030, 72.31756
273.5851, 72.42650
274.0672, 73.00241
274.5493, 74.31216
275.0315, 76.02235
275.5136, 77.26894
275.9957, 77.72485
276.4778, 78.32964
276.9599, 79.32144
277.4420, 80.47648
277.9242, 81.60325
278.4063, 82.63811
278.8884, 83.61411
279.3705, 84.58244
279.8526, 85.45896
280.3347, 86.51439
280.8169, 87.81558
281.2990, 89.24306
281.7811, 90.75393
282.2632, 92.32012
282.7453, 93.86263
283.2274, 95.22932
283.7096, 96.26564
284.1917, 97.52150
284.6738, 99.32731
285.1559, 101.0844
285.6380, 102.3029
286.1201, 103.0076
286.6023, 103.7074
287.0844, 105.0520
287.5665, 107.2783
288.0486, 109.1700
288.5307, 110.4714
289.0128, 111.6894
289.4950, 113.0176
289.9771, 114.4706
290.4592, 116.0043
290.9413, 117.6496
291.4234, 119.4597
291.9055, 120.6223
292.3877, 120.5958
292.8698, 120.4774
293.3519, 120.6997
293.8340, 121.1100
294.3161, 121.2907
294.7982, 120.9119
295.2804, 120.0342
295.7625, 119.4602
296.2446, 119.9830
296.7267, 119.9540
297.2088, 118.8251
297.6909, 116.9912
298.1731, 115.0563
298.6552, 113.3621
299.1373, 111.7879
299.6194, 109.8810
300.1015, 107.4112
300.5836, 104.8587
301.0658, 102.2672
301.5479, 99.63191
302.0300, 96.89169
302.5121, 94.03690
302.9942, 91.16982
303.4763, 88.44717
303.9585, 85.77264
304.4406, 83.46856
304.9227, 81.55720
305.4048, 79.97189
305.8869, 78.73293
306.3690, 77.81399
306.8512, 77.04353
307.3333, 76.18703
307.8154, 75.20395
308.2975, 74.23988
308.7796, 73.06957
309.2617, 72.08336
309.7439, 71.65289
310.2260, 71.70518
310.7081, 71.80627
311.1902, 71.51568
311.6723, 70.75954
312.1544, 70.13081
312.6366, 69.58458
313.1187, 69.18274
313.6008, 69.06340
314.0829, 69.11732
314.5650, 69.07338
315.0471, 68.70837
315.5293, 68.06696
316.0114, 67.74644
316.4935, 68.26225
316.9756, 68.52192
317.4577, 68.05970
317.9398, 67.24821
318.4220, 66.63972
318.9041, 66.51628
319.3862, 66.77288
319.8683, 67.08575
320.3504, 67.62701
320.8326, 67.99412
321.3147, 67.99340
321.7968, 67.89693
322.2789, 67.97862
322.7610, 68.32426
323.2431, 68.81676
323.7253, 69.25690
324.2074, 69.61874
324.6895, 69.97706
325.1716, 70.24673
325.6537, 70.57632
326.1358, 71.10294
326.6180, 71.82055
327.1001, 72.58821
327.5822, 73.23548
328.0643, 73.69308
328.5464, 74.40735
329.0285, 75.58861
329.5107, 76.78880
329.9928, 77.78032
330.4749, 78.62852
330.9570, 79.54777
331.4391, 80.72262
331.9212, 82.12177
332.4034, 83.27359
332.8855, 83.92097
333.3676, 84.59758
333.8497, 85.37789
334.3318, 86.25275
334.8139, 87.20767
335.2961, 88.23044
335.7782, 89.30865
336.2603, 90.40536
336.7424, 91.87143
337.2245, 92.78966
337.7066, 92.77181
338.1888, 92.41735
338.6708, 92.23392
339.1530, 92.36473
339.6351, 92.63496
340.1172, 92.77396
340.5993, 92.69008
341.0814, 92.70916
341.5635, 92.96920
342.0457, 93.20353
342.5278, 93.21005
343.0099, 93.02586
343.4920, 92.87012
343.9741, 92.98185
344.4562, 93.38756
344.9384, 93.49165
345.4205, 93.85822
345.9026, 94.09557
346.3847, 94.21067
346.8668, 93.83733
347.3489, 94.09471
347.8311, 94.09933
348.3132, 94.09359
348.7953, 94.43974
349.2774, 94.13744
349.7595, 94.59054
350.2416, 94.69130
350.7238, 94.55498
351.2059, 94.20361
351.6880, 93.64684
352.1701, 92.93491
352.6522, 92.13421
353.1343, 91.21233
353.6165, 90.30037
354.0986, 89.61746
354.5807, 88.79036
355.0628, 87.51834
355.5449, 85.82894
356.0270, 84.05031
356.5092, 82.49876
356.9913, 81.19250
357.4734, 79.83425
357.9555, 78.35358
358.4376, 76.90376
358.9197, 75.52743
359.4019, 74.23206
359.8840, 73.02329
360.3661, 71.88074
360.8482, 70.84518
361.3303, 70.05357
361.8124, 69.61597
362.2946, 69.19235
362.7767, 68.63276
363.2588, 68.03908
363.7409, 67.50942
364.2230, 67.06938
364.7051, 66.70538
365.1873, 66.38438
365.6694, 66.09605
366.1515, 65.93748
366.6336, 66.00335
367.1157, 66.15655
367.5978, 66.28617
368.0800, 66.39256
368.5621, 66.55776
369.0442, 66.85030
369.5263, 67.25424
370.0084, 67.71633
370.4905, 68.30456
370.9727, 68.81450
371.4548, 69.05748
371.9369, 69.12501
372.4190, 69.21668
372.9011, 69.37618
373.3832, 69.61979
373.8654, 70.01134
374.3475, 70.57021
374.8296, 71.09766
375.3117, 71.46379
375.7938, 71.75198
376.2759, 72.08195
376.7581, 72.46220
377.2402, 72.89244
377.7223, 73.49486
378.2044, 74.18404
378.6865, 74.53856
379.1686, 74.31876
379.6508, 73.93208
380.1329, 73.99338
380.6150, 74.49253
381.0971, 74.71407
381.5792, 74.23241
382.0613, 73.42017
382.5435, 72.76979
383.0256, 72.33440
383.5077, 72.04043
383.9898, 71.87798
384.4719, 71.82388
384.9540, 71.68846
385.4362, 71.42268
385.9183, 71.11494
386.4004, 70.80870
386.8825, 70.50429
387.3646, 70.19761
387.8467, 69.89216
388.3289, 69.57735
388.8110, 69.21300
389.2931, 68.73537
389.7752, 68.34691
390.2573, 68.09924
390.7394, 67.95796
391.2216, 67.92048
391.7037, 67.97926
392.1858, 68.02634
392.6679, 67.90987
393.1500, 67.55896
393.6321, 67.44978
394.1143, 67.79606
394.5964, 68.16796
395.0785, 68.31453
395.5606, 68.27683
396.0427, 68.20827
396.5248, 68.19368
397.0070, 68.24898
397.4891, 68.46815
397.9712, 68.99576
398.4533, 69.51582
398.9354, 69.90129
399.4175, 70.30629
399.8997, 70.96265
400.3818, 71.92046
400.8639, 72.94953
401.3460, 73.68315
401.8281, 73.96684
402.3102, 74.38083
402.7924, 74.93728
403.2745, 75.59472
403.7566, 76.39399
404.2387, 77.28533
404.7208, 78.13656
405.2029, 78.81357
405.6851, 79.36768
406.1672, 80.19490
406.6493, 81.67669
407.1314, 82.86600
407.6135, 83.21155
408.0956, 83.32731
408.5778, 83.95258
409.0599, 85.35323
409.5420, 87.04372
410.0241, 88.23760
410.5062, 88.76836
410.9883, 89.67988
411.4705, 91.45369
411.9526, 93.38271
412.4347, 95.08404
412.9168, 96.56493
413.3989, 98.01870
413.8810, 99.51765
414.3632, 101.0844
414.8453, 102.8213
415.3274, 104.7756
415.8095, 106.7848
416.2916, 108.7566
416.7737, 110.7320
417.2559, 112.7898
417.7380, 115.0045
418.2201, 117.1920
418.7022, 119.1273
419.1843, 120.8436
419.6664, 122.6877
420.1486, 124.8401
420.6307, 127.0431
421.1128, 128.8921
421.5949, 130.4016
422.0770, 132.0464
422.5591, 134.0513
423.0413, 136.2633
423.5234, 138.5237
424.0055, 140.8072
424.4876, 143.0626
424.9697, 145.2158
425.4518, 147.2929
425.9340, 149.4685
426.4161, 151.9019
426.8982, 154.2604
427.3803, 156.2375
427.8624, 158.0405
428.3445, 160.1501
428.8267, 162.7806
429.3088, 165.5921
429.7909, 168.0076
430.2730, 169.8906
430.7551, 171.6315
431.2372, 173.5527
431.7194, 175.0853
432.2015, 175.7537
432.6836, 175.5943
433.1657, 175.0007
433.6478, 174.3000
434.1299, 173.4605
434.6121, 172.0020
435.0942, 169.2580
435.5763, 166.6413
436.0584, 164.4550
436.5405, 162.4789
437.0226, 160.4789
437.5048, 158.3700
437.9869, 156.1249
438.4690, 153.6431
438.9511, 150.7742
439.4332, 148.1654
439.9153, 145.7200
440.3975, 143.6213
440.8796, 142.0670
441.3617, 140.9526
441.8438, 140.0027
442.3259, 139.0250
442.8080, 138.0928
443.2902, 137.5232
443.7723, 137.4637
444.2544, 137.3937
444.7365, 136.9618
445.2186, 136.5262
445.7007, 136.4409
446.1829, 136.7840
446.6650, 137.3092
447.1471, 137.8821
447.6292, 138.4762
448.1113, 138.9801
448.5934, 139.4420
449.0756, 139.6729
449.5577, 139.4393
450.0398, 138.8446
450.5219, 138.1374
451.0040, 137.7017
451.4861, 136.9491
451.9683, 135.2969
452.4504, 132.7962
452.9325, 129.7898
453.4146, 126.3777
453.8967, 122.6128
454.3788, 118.5556
454.8610, 114.2165
455.3431, 109.7220
455.8252, 104.7418
456.3073, 99.82182
456.7894, 95.43945
457.2715, 91.69704
457.7537, 88.57996
458.2358, 86.08740
458.7179, 84.21664
459.2000, 82.78183
459.6821, 82.53197
460.1642, 81.78407
460.6464, 79.58659
461.1285, 76.76343
461.6106, 74.50639
462.0927, 73.25443
462.5748, 72.53967
463.0569, 71.56271
463.5391, 70.10845
464.0212, 68.99751
464.5033, 68.64811
464.9854, 68.23162
465.4675, 67.20912
465.9496, 65.78190
466.4318, 64.52724
466.9139, 63.84446
467.3960, 63.55875
467.8781, 63.11809
468.3602, 62.46461
468.8423, 61.80239
469.3245, 61.12234
469.8066, 60.49537
470.2887, 60.02929
470.7708, 59.73308
471.2529, 59.40614
471.7350, 58.80795
472.2172, 58.03807
472.6993, 57.51063
473.1814, 57.32178
473.6635, 57.19603
474.1456, 56.92638
474.6277, 56.57607
475.1099, 56.28709
475.5920, 56.08381
476.0741, 55.94529
476.5562, 55.95760
477.0383, 56.03281
477.5204, 55.85347
478.0026, 55.26747
478.4847, 54.59011
478.9668, 54.30544
479.4489, 54.53027
479.9310, 54.56806
480.4131, 54.30630
480.8953, 53.91198
481.3774, 53.41000
481.8595, 52.86465
482.3416, 52.45345
482.8237, 52.29881
483.3058, 52.29155
483.7880, 52.04985
484.2701, 51.31327
484.7522, 50.71040
485.2343, 50.32756
485.7164, 50.03037
486.1985, 49.74329
486.6807, 49.44017
487.1628, 49.10114
487.6449, 48.68984
488.1270, 48.21537
488.6091, 47.81974
489.0912, 47.59431
489.5734, 47.29785
490.0555, 46.81794
490.5376, 46.25618
491.0197, 45.72254
491.5018, 45.24759
491.9839, 44.80183
492.4661, 44.36948
492.9482, 43.94612
493.4303, 43.49588
493.9124, 42.97890
494.3945, 42.50220
494.8766, 42.23668
495.3588, 42.08788
495.8409, 41.79325
496.3230, 41.15333
496.8051, 40.47160
497.2872, 40.03168
497.7693, 39.77306
498.2515, 39.45496
498.7336, 38.96923
499.2157, 38.44532
499.6978, 38.09824
500.1799, 37.98671
500.6620, 37.82896
501.1442, 37.53394
501.6263, 37.24959
502.1084, 36.79117
502.5905, 36.92974
503.0726, 36.93912
503.5547, 36.82624
504.0368, 36.22493
504.5190, 36.25429
505.0011, 36.03093
505.4832, 35.79720
505.9653, 35.91536
506.4474, 35.38509
506.9295, 35.49767
507.4117, 35.35360
507.8938, 35.32701
508.3759, 35.04611
508.8580, 34.84375
509.3401, 34.89580
509.8222, 34.80698
510.3044, 34.49675
510.7865, 34.25662
511.2686, 34.14861
511.7507, 33.93665
512.2328, 33.59282
512.7150, 33.26931
513.1971, 33.08551
513.6792, 33.01028
514.1613, 32.93551
514.6434, 32.83263
515.1255, 32.81748
515.6077, 33.06561
516.0898, 33.47934
516.5719, 33.63854
517.0540, 33.34930
517.5361, 33.02131
518.0182, 32.76941
518.5004, 32.61882
518.9825, 32.62611
519.4646, 32.80544
519.9467, 33.10506
520.4288, 33.49701
520.9109, 34.03406
521.3931, 34.29615
521.8752, 34.11464
522.3573, 33.89201
522.8394, 33.70712
523.3215, 33.58973
523.8036, 33.57736
524.2858, 33.68346
524.7679, 33.86188
525.2500, 34.03358
525.7321, 34.18535
526.2142, 34.39767
526.6964, 34.74553
527.1785, 35.07854
527.6606, 35.26402
528.1427, 35.38546
528.6248, 35.65574
529.1069, 36.25795
529.5891, 36.88631
530.0712, 37.06173
530.5533, 36.81446
531.0354, 36.64922
531.5175, 36.66938
531.9996, 36.87634
532.4818, 37.40887
532.9639, 38.23231
533.4460, 38.80931
533.9281, 38.76292
534.4102, 38.65461
534.8923, 38.99129
535.3745, 39.65794
535.8566, 40.21514
536.3387, 40.44662
536.8208, 40.50535
537.3029, 40.69949
537.7850, 41.09912
538.2672, 41.50346
538.7493, 41.91590
539.2314, 42.32815
539.7135, 42.75621
540.1956, 43.18251
540.6777, 43.55985
541.1599, 43.85077
541.6420, 44.10974
542.1241, 44.47224
542.6062, 44.95094
543.0883, 45.50123
543.5704, 46.26622
544.0526, 46.97211
544.5347, 47.43827
545.0168, 47.68385
545.4989, 47.83208
545.9810, 47.84642
546.4631, 47.86069
546.9453, 48.15958
547.4274, 48.73248
547.9095, 49.13974
548.3916, 49.10204
548.8737, 48.92842
549.3558, 49.24420
549.8380, 50.14048
550.3201, 50.80458
550.8022, 50.84069
551.2843, 50.77301
551.7664, 51.05775
552.2485, 51.64007
552.7307, 52.21508
553.2128, 52.61502
553.6949, 52.87953
554.1770, 53.11354
554.6591, 53.24669
555.1412, 53.47902
555.6234, 53.84486
556.1055, 54.27164
556.5876, 54.75309
557.0697, 55.26160
557.5518, 55.74421
558.0339, 56.18452
558.5161, 56.55712
558.9982, 56.75294
559.4803, 56.72012
559.9624, 56.82436
560.4445, 57.21507
560.9266, 57.73500
561.4088, 58.31104
561.8909, 58.91901
562.3730, 59.31178
562.8551, 59.29297
563.3372, 59.08949
563.8193, 58.83744
564.3015, 58.58518
564.7836, 58.59407
565.2657, 59.04369
565.7478, 59.61451
566.2299, 59.68933
566.7120, 58.94033
567.1942, 58.48575
567.6763, 58.53170
568.1584, 58.68015
568.6405, 58.81426
569.1226, 58.85668
569.6047, 58.68684
570.0869, 58.23691
570.5690, 57.60468
571.0511, 57.01226
571.5332, 56.50553
572.0153, 55.83807
572.4974, 54.87291
572.9796, 53.85028
573.4617, 52.84637
573.9438, 51.88362
574.4259, 51.02908
574.9080, 50.40364
575.3901, 49.75734
575.8723, 48.72919
576.3544, 47.39579
576.8365, 46.18262
577.3186, 45.22694
577.8007, 44.36886
578.2828, 43.42668
578.7650, 42.39295
579.2471, 41.45998
579.7292, 40.70294
580.2113, 39.97710
580.6934, 39.15856
581.1755, 38.33959
581.6577, 37.66900
582.1398, 37.19948
582.6219, 36.85180
583.1040, 36.55257
583.5861, 36.32922
584.0682, 35.93689
584.5504, 35.24792
585.0325, 34.52976
585.5145, 33.77905
585.9966, 33.08173
586.4788, 32.55009
586.9609, 32.21576
587.4430, 31.99882
587.9251, 31.88213
588.4072, 31.82696
588.8893, 31.67903
589.3715, 31.41385
589.8536, 31.08932
