##NAMES=Jarosite
##RRUFFID=R060113
##IDEAL CHEMISTRY=KFe^3+^_3_(S^6+^O_4_)_2_(OH)_6_
##LOCALITY=Iron Blossom mine, East Tintic District, Eureka, Utah, USA
##OWNER=RRUFF
##SOURCE=University of Arizona Mineral Museum
##DESCRIPTION=Amber-yellow to dark brown rhombohedral crystals
##STATUS=The identification of this mineral has been confirmed by X-ray diffraction and chemical analysis
##URL=rruff.info/R060113
##MEASURED CHEMISTRY=(K_0.88_Sr_0.12_)(Fe^3+^_0.96_Al_0.04_)_3_((S_0.94_P_0.06_)O_4_)_2_(OH)_6_
89.78156, 0.0000000E+00
90.26367, 27.51581
90.74579, 27.36687
91.22791, 27.52645
91.71002, 27.94254
92.19214, 28.14624
92.67426, 27.34569
93.15638, 25.97872
93.63850, 25.24001
94.12061, 25.80233
94.60273, 27.17526
95.08485, 28.31460
95.56696, 29.21679
96.04908, 29.83939
96.53120, 30.15195
97.01331, 30.14710
97.49543, 29.77536
97.97755, 28.77889
98.45966, 27.21877
98.94178, 26.08995
99.42390, 25.43895
99.90602, 25.16395
100.3881, 25.12263
100.8703, 25.37537
101.3524, 25.64895
101.8345, 25.88381
102.3166, 26.16545
102.7987, 26.06771
103.2808, 25.68736
103.7630, 24.90058
104.2451, 22.90624
104.7272, 18.34400
105.2093, 14.34823
105.6914, 13.09446
106.1735, 16.38917
106.6557, 19.37598
107.1378, 21.61468
107.6199, 23.12542
108.1020, 23.72371
108.5841, 22.39785
109.0662, 20.69366
109.5484, 19.98029
110.0305, 21.11991
110.5126, 22.38422
110.9947, 23.53571
111.4768, 24.59616
111.9590, 25.46688
112.4411, 25.92476
112.9232, 26.24527
113.4053, 26.76896
113.8874, 27.93792
114.3695, 29.01680
114.8517, 29.60402
115.3338, 29.30753
115.8159, 29.40513
116.2980, 30.02273
116.7801, 31.29491
117.2622, 33.48159
117.7444, 36.13215
118.2265, 40.06070
118.7086, 45.99005
119.1907, 55.31046
119.6728, 64.87788
120.1549, 73.12337
120.6371, 80.20364
121.1192, 86.78179
121.6013, 93.04097
122.0834, 99.00582
122.5655, 104.6191
123.0476, 109.2175
123.5298, 114.0229
124.0119, 120.6665
124.4940, 129.0009
124.9761, 136.9726
125.4582, 142.3287
125.9404, 146.1104
126.4225, 150.3084
126.9046, 155.5349
127.3867, 161.6996
127.8688, 168.8820
128.3509, 177.1506
128.8331, 185.7684
129.3152, 193.4892
129.7973, 200.6837
130.2794, 208.9861
130.7615, 218.9011
131.2436, 230.4867
131.7258, 243.5328
132.2079, 257.7449
132.6900, 274.2608
133.1721, 294.2829
133.6542, 317.7352
134.1364, 345.9323
134.6185, 379.9709
135.1006, 419.9750
135.5827, 465.0062
136.0648, 516.9895
136.5469, 572.1746
137.0291, 626.5790
137.5112, 683.8517
137.9933, 723.4627
138.4754, 731.8524
138.9575, 706.9103
139.4396, 661.4047
139.9218, 590.3849
140.4039, 500.2652
140.8860, 422.6308
141.3681, 358.7388
141.8502, 306.1470
142.3323, 265.2475
142.8145, 237.8399
143.2966, 216.0013
143.7787, 199.3566
144.2608, 187.7377
144.7429, 179.2135
145.2250, 174.9840
145.7072, 172.6814
146.1893, 170.0078
146.6714, 166.0674
147.1535, 163.1090
147.6356, 161.8137
148.1178, 162.4572
148.5999, 162.8919
149.0820, 162.7913
149.5641, 162.6177
150.0462, 162.9182
150.5283, 164.1105
151.0105, 165.3559
151.4926, 164.8740
151.9747, 163.6730
152.4568, 163.1897
152.9389, 164.5215
153.4210, 166.3302
153.9032, 166.7477
154.3853, 164.7688
154.8674, 162.1546
155.3495, 159.2787
155.8316, 155.5999
156.3137, 152.9118
156.7959, 152.1849
157.2780, 152.5555
157.7601, 152.4064
158.2422, 150.3057
158.7243, 148.3893
159.2065, 147.7621
159.6886, 149.3652
160.1707, 150.8652
160.6528, 151.4477
161.1349, 151.4021
161.6170, 151.4928
162.0992, 152.3164
162.5813, 153.1698
163.0634, 153.6260
163.5455, 153.7981
164.0276, 153.2917
164.5097, 151.2339
164.9919, 148.1149
165.4740, 145.8521
165.9561, 145.9590
166.4382, 147.0746
166.9203, 147.9875
167.4024, 148.4220
167.8846, 148.5010
168.3667, 148.1259
168.8488, 147.3712
169.3309, 146.7141
169.8130, 146.7186
170.2952, 146.9072
170.7773, 146.6717
171.2594, 145.0420
171.7415, 143.4866
172.2236, 143.4699
172.7057, 144.8984
173.1879, 146.4457
173.6700, 147.3204
174.1521, 147.6284
174.6342, 147.5603
175.1163, 146.3310
175.5984, 145.1748
176.0806, 145.7951
176.5627, 148.1966
177.0448, 151.0034
177.5269, 153.0686
178.0090, 154.6038
178.4911, 156.1699
178.9733, 158.3098
179.4554, 160.5143
179.9375, 161.6567
180.4196, 161.5854
180.9017, 161.7578
181.3838, 164.0071
181.8660, 167.8609
182.3481, 171.7334
182.8302, 174.8936
183.3123, 177.5388
183.7944, 179.9229
184.2766, 181.9793
184.7587, 184.2912
185.2408, 187.6149
185.7229, 191.8562
186.2050, 196.6583
186.6871, 202.0859
187.1693, 208.0008
187.6514, 213.3728
188.1335, 218.0529
188.6156, 222.8080
189.0977, 229.1615
189.5798, 237.0006
190.0620, 244.6671
190.5441, 251.2129
191.0262, 256.8169
191.5083, 262.5755
191.9904, 268.5862
192.4725, 274.8988
192.9547, 281.4946
193.4368, 288.4178
193.9189, 296.0228
194.4010, 304.8478
194.8831, 314.7982
195.3652, 324.0597
195.8474, 332.0138
196.3295, 340.0326
196.8116, 350.7627
197.2937, 364.2212
197.7758, 379.6495
198.2579, 396.2785
198.7401, 414.0727
199.2222, 434.4062
199.7043, 456.9650
200.1864, 482.1180
200.6685, 511.3057
201.1507, 544.6970
201.6328, 580.6241
202.1149, 618.5973
202.5970, 658.7979
203.0791, 699.2377
203.5612, 739.3244
204.0434, 779.4193
204.5255, 820.4991
205.0076, 863.1733
205.4897, 904.7602
205.9718, 943.6570
206.4539, 979.7248
206.9361, 1014.281
207.4182, 1048.335
207.9003, 1080.504
208.3824, 1106.299
208.8645, 1123.654
209.3466, 1140.235
209.8288, 1160.763
210.3109, 1185.714
210.7930, 1212.278
211.2751, 1239.519
211.7572, 1268.273
212.2393, 1302.709
212.7215, 1342.641
213.2036, 1387.772
213.6857, 1437.849
214.1678, 1493.130
214.6499, 1553.062
215.1320, 1617.982
215.6142, 1688.049
216.0963, 1763.103
216.5784, 1844.731
217.0605, 1927.650
217.5426, 2009.533
218.0247, 2091.269
218.5069, 2167.728
218.9890, 2241.983
219.4711, 2310.700
219.9532, 2360.692
220.4353, 2394.864
220.9175, 2406.556
221.3996, 2392.063
221.8817, 2351.698
222.3638, 2284.073
222.8459, 2185.328
223.3280, 2058.055
223.8102, 1922.854
224.2923, 1773.935
224.7744, 1622.450
225.2565, 1474.732
225.7386, 1327.068
226.2207, 1192.842
226.7029, 1075.056
227.1850, 971.8548
227.6671, 879.6320
228.1492, 799.5483
228.6313, 728.7465
229.1134, 665.9866
229.5956, 611.3798
230.0777, 563.4532
230.5598, 522.5179
231.0419, 488.0739
231.5240, 456.8602
232.0062, 429.2676
232.4883, 404.3617
232.9704, 381.6205
233.4525, 361.1363
233.9346, 342.7362
234.4167, 326.8548
234.8989, 313.1814
235.3810, 300.3108
235.8631, 287.8415
236.3452, 276.4850
236.8273, 266.5885
237.3094, 258.6455
237.7916, 251.0989
238.2737, 243.6911
238.7558, 236.5717
239.2379, 230.2734
239.7200, 225.0510
240.2021, 220.2943
240.6843, 215.6468
241.1664, 211.0841
241.6485, 206.6807
242.1306, 202.4268
242.6127, 198.3199
243.0948, 194.5132
243.5770, 191.1060
244.0591, 187.8554
244.5412, 184.6716
245.0233, 181.4974
245.5054, 178.4920
245.9876, 175.7323
246.4697, 173.1479
246.9518, 170.3639
247.4339, 167.0360
247.9160, 164.0093
248.3981, 161.7518
248.8803, 160.5228
249.3624, 159.4393
249.8445, 158.6955
250.3266, 158.0291
250.8087, 156.5831
251.2908, 153.6806
251.7730, 151.1030
252.2551, 149.7529
252.7372, 150.1474
253.2193, 150.4626
253.7014, 150.9005
254.1835, 151.1694
254.6657, 150.4409
255.1478, 148.0054
255.6299, 145.8166
256.1120, 144.6796
256.5941, 144.8446
257.0763, 145.3754
257.5584, 146.5866
258.0405, 147.9741
258.5226, 148.4884
259.0047, 147.8913
259.4868, 146.9134
259.9690, 145.5819
260.4511, 143.5302
260.9332, 142.9035
261.4153, 144.1708
261.8974, 146.4442
262.3795, 148.2135
262.8617, 149.3188
263.3438, 150.3456
263.8259, 151.5631
264.3080, 153.0457
264.7901, 154.0067
265.2722, 154.0420
265.7544, 154.0308
266.2365, 155.3887
266.7186, 158.5591
267.2007, 161.7456
267.6828, 164.5767
268.1649, 167.1286
268.6471, 168.2895
269.1292, 167.5689
269.6113, 166.2671
270.0934, 165.9524
270.5755, 166.7450
271.0576, 168.0506
271.5398, 169.6645
272.0219, 171.6111
272.5040, 174.3892
272.9861, 178.2093
273.4682, 182.3248
273.9503, 185.9210
274.4325, 188.8510
274.9146, 191.9458
275.3967, 195.2480
275.8788, 198.8556
276.3610, 203.3100
276.8431, 208.5629
277.3252, 214.6618
277.8073, 221.8400
278.2894, 230.1860
278.7715, 238.4526
279.2537, 246.0555
279.7358, 253.5289
280.2179, 263.5959
280.7000, 276.7264
281.1821, 290.5180
281.6642, 303.3357
282.1464, 315.1801
282.6285, 326.4868
283.1106, 337.1624
283.5927, 347.4820
284.0748, 358.2445
284.5569, 369.5424
285.0391, 380.7968
285.5212, 391.7478
286.0033, 402.3989
286.4854, 412.6967
286.9675, 422.3732
287.4496, 432.0790
287.9318, 443.0026
288.4139, 455.2497
288.8960, 468.4954
289.3781, 483.1558
289.8602, 498.9850
290.3423, 514.5262
290.8245, 529.3707
291.3066, 544.7097
291.7887, 562.0144
292.2708, 581.3093
292.7529, 602.3066
293.2350, 625.4215
293.7172, 650.1523
294.1993, 674.1521
294.6814, 697.3689
295.1635, 720.3035
295.6456, 744.4092
296.1277, 769.0049
296.6099, 790.8604
297.0920, 809.4374
297.5741, 823.7686
298.0562, 831.7156
298.5383, 833.1878
299.0204, 828.2301
299.5026, 816.9188
299.9847, 799.2379
300.4668, 774.5405
300.9489, 740.5947
301.4311, 700.9177
301.9132, 659.9750
302.3953, 617.5087
302.8774, 576.0311
303.3595, 536.2333
303.8416, 498.6982
304.3238, 463.3433
304.8059, 430.4429
305.2880, 400.3647
305.7701, 374.4742
306.2522, 352.3429
306.7343, 332.9416
307.2165, 315.7106
307.6986, 300.5112
308.1807, 287.2056
308.6628, 275.9150
309.1449, 265.9524
309.6270, 256.7372
310.1092, 248.2337
310.5913, 240.6295
311.0734, 234.0329
311.5555, 228.3368
312.0376, 223.5750
312.5197, 219.8232
313.0019, 216.7850
313.4840, 214.6922
313.9661, 213.1367
314.4482, 211.2658
314.9303, 208.2820
315.4124, 205.1804
315.8946, 202.6078
316.3767, 200.6952
316.8588, 198.9909
317.3409, 197.2102
317.8230, 195.5385
318.3051, 194.2247
318.7873, 193.6559
319.2694, 193.1719
319.7515, 192.4518
320.2336, 191.4520
320.7157, 190.6007
321.1978, 190.0388
321.6800, 189.6751
322.1621, 189.4302
322.6442, 189.1002
323.1263, 189.0784
323.6084, 189.6323
324.0905, 190.7131
324.5727, 191.5785
325.0548, 191.9372
325.5369, 192.1607
326.0190, 192.4728
326.5012, 192.8360
326.9833, 193.3588
327.4654, 193.8315
327.9475, 194.4119
328.4296, 195.7266
328.9117, 198.2230
329.3939, 201.0591
329.8760, 203.9240
330.3581, 206.7842
330.8402, 209.7177
331.3223, 212.4584
331.8044, 215.3534
332.2866, 219.1699
332.7687, 224.3359
333.2508, 229.7205
333.7329, 234.8820
334.2150, 239.6038
334.6971, 245.3134
335.1793, 252.5218
335.6614, 260.2928
336.1435, 267.2820
336.6256, 273.2437
337.1077, 279.2245
337.5898, 285.2332
338.0720, 291.3780
338.5541, 298.3069
339.0362, 306.3116
339.5183, 314.5957
340.0004, 322.2722
340.4825, 329.3006
340.9647, 336.4965
341.4468, 343.8592
341.9289, 351.5327
342.4110, 360.2326
342.8931, 369.9448
343.3752, 380.2827
343.8574, 390.8496
344.3395, 401.7411
344.8216, 413.0483
345.3037, 424.7362
345.7858, 436.9177
346.2679, 449.9185
346.7501, 463.7980
347.2322, 477.7234
347.7143, 491.7666
348.1964, 505.6295
348.6785, 518.8944
349.1607, 531.9064
349.6428, 543.0790
350.1249, 550.4666
350.6070, 554.6518
351.0891, 557.6137
351.5713, 561.7427
352.0534, 564.3079
352.5355, 561.0148
353.0176, 551.9725
353.4997, 539.3753
353.9818, 524.0655
354.4640, 506.6046
354.9461, 487.4217
355.4282, 465.7824
355.9103, 443.8240
356.3924, 423.1879
356.8745, 403.6955
357.3567, 385.1318
357.8388, 367.3804
358.3209, 350.3475
358.8030, 333.5345
359.2851, 316.5107
359.7672, 301.0123
360.2494, 288.3153
360.7315, 277.7137
361.2136, 268.0905
361.6957, 259.0711
362.1778, 250.7569
362.6599, 243.3060
363.1421, 236.7944
363.6242, 230.5931
364.1063, 224.4924
364.5884, 218.5907
365.0705, 213.0404
365.5526, 207.6607
366.0348, 202.8650
366.5169, 198.9209
366.9990, 195.7839
367.4811, 192.7057
367.9632, 189.8596
368.4453, 186.8752
368.9275, 183.5447
369.4096, 179.3315
369.8917, 175.5356
370.3738, 172.2851
370.8559, 169.4505
371.3380, 166.7715
371.8202, 164.5457
372.3023, 162.0296
372.7844, 158.8210
373.2665, 154.6077
373.7487, 151.0467
374.2308, 148.2735
374.7129, 146.0182
375.1950, 143.9207
375.6771, 142.0194
376.1592, 140.1312
376.6414, 138.1424
377.1235, 136.0933
377.6056, 134.3724
378.0877, 133.0615
378.5698, 131.7657
379.0519, 129.9565
379.5341, 127.6429
380.0162, 125.8095
380.4983, 124.7024
380.9804, 124.0876
381.4625, 123.6320
381.9446, 123.3229
382.4268, 122.8044
382.9089, 121.5074
383.3910, 119.7956
383.8731, 118.9488
384.3552, 119.1926
384.8373, 119.7105
385.3195, 119.4295
385.8016, 118.6183
386.2837, 118.0678
386.7658, 118.4504
387.2479, 119.1331
387.7300, 119.2886
388.2122, 118.9297
388.6943, 118.4554
389.1764, 117.9081
389.6585, 117.5018
390.1406, 117.5300
390.6227, 118.1563
391.1049, 119.1150
391.5870, 120.5164
392.0691, 122.1590
392.5512, 123.4362
393.0333, 123.6417
393.5154, 123.6904
393.9976, 124.2420
394.4797, 125.5862
394.9618, 126.7368
395.4439, 126.8730
395.9260, 126.7768
396.4081, 127.4843
396.8903, 130.3940
397.3724, 132.9724
397.8545, 134.1307
398.3366, 133.7626
398.8188, 134.4428
399.3009, 137.5777
399.7830, 140.9972
400.2651, 143.2785
400.7472, 142.9025
401.2293, 143.6984
401.7115, 146.3102
402.1936, 150.1773
402.6757, 153.6021
403.1578, 156.3656
403.6399, 159.0672
404.1220, 161.8303
404.6042, 164.5760
405.0863, 167.9731
405.5684, 172.1318
406.0505, 176.7004
406.5326, 181.1199
407.0147, 185.3270
407.4969, 189.9813
407.9790, 195.1973
408.4611, 201.0409
408.9432, 207.8131
409.4253, 215.4985
409.9074, 223.9695
410.3896, 233.0546
410.8717, 242.8583
411.3538, 253.8394
411.8359, 265.8953
412.3180, 279.2784
412.8001, 294.3289
413.2823, 310.8165
413.7644, 328.9385
414.2465, 348.4201
414.7286, 369.6539
415.2107, 393.7247
415.6928, 420.4950
416.1750, 449.1364
416.6571, 479.9907
417.1392, 511.8140
417.6213, 543.9946
418.1034, 575.6614
418.5855, 607.8879
419.0677, 641.2119
419.5498, 675.5893
420.0319, 709.5349
420.5140, 742.5370
420.9961, 775.3148
421.4782, 808.2037
421.9604, 840.6891
422.4425, 874.5730
422.9246, 909.5956
423.4067, 946.0398
423.8889, 984.8085
424.3710, 1024.036
424.8531, 1067.508
425.3352, 1115.555
425.8173, 1168.081
426.2994, 1224.079
426.7816, 1283.332
427.2637, 1345.823
427.7458, 1411.538
428.2279, 1482.204
428.7100, 1554.068
429.1921, 1626.928
429.6743, 1700.273
430.1564, 1771.733
430.6385, 1842.778
431.1206, 1906.412
431.6027, 1961.382
432.0848, 2007.833
432.5670, 2039.205
433.0491, 2056.225
433.5312, 2055.280
434.0133, 2031.589
434.4954, 1986.085
434.9775, 1923.923
435.4597, 1843.801
435.9418, 1751.124
436.4239, 1652.329
436.9060, 1549.396
437.3881, 1449.394
437.8702, 1355.517
438.3524, 1268.021
438.8345, 1186.780
439.3166, 1111.482
439.7987, 1044.386
440.2808, 988.3728
440.7629, 941.3293
441.2451, 900.5248
441.7272, 866.1379
442.2093, 836.5610
442.6914, 811.1480
443.1735, 789.9085
443.6556, 772.9789
444.1378, 760.6410
444.6199, 752.4431
445.1020, 748.3183
445.5841, 748.9262
446.0662, 752.2732
446.5483, 758.7458
447.0305, 767.6912
447.5126, 778.1550
447.9947, 791.5510
448.4768, 804.5336
448.9590, 816.5305
449.4411, 827.4841
449.9232, 837.7618
450.4053, 848.8182
450.8874, 857.2271
451.3695, 861.3007
451.8517, 862.1307
452.3338, 853.9730
452.8159, 836.2498
453.2980, 809.4711
453.7801, 772.2971
454.2622, 724.5203
454.7444, 673.9892
455.2265, 623.3594
455.7086, 572.8326
456.1907, 524.7217
456.6728, 478.2967
457.1549, 436.5423
457.6371, 401.7220
458.1192, 372.9195
458.6013, 346.9969
459.0834, 323.5150
459.5655, 302.6123
460.0476, 285.2379
460.5298, 270.7758
461.0119, 258.2802
461.4940, 247.9058
461.9761, 238.4850
462.4582, 228.8890
462.9403, 218.8504
463.4225, 209.9656
463.9046, 203.7706
464.3867, 198.6404
464.8688, 193.1884
465.3509, 185.9928
465.8330, 179.6121
466.3152, 174.7433
466.7973, 171.1559
467.2794, 168.0352
467.7615, 165.7111
468.2436, 163.4221
468.7257, 160.8611
469.2079, 157.9462
469.6900, 155.3035
470.1721, 153.1086
470.6542, 151.0150
471.1363, 148.5577
471.6184, 145.5224
472.1006, 142.9998
472.5827, 141.2915
473.0648, 140.1502
473.5469, 138.9359
474.0291, 137.6691
474.5112, 136.0923
474.9933, 133.7104
475.4754, 130.8219
475.9575, 128.8948
476.4396, 128.0852
476.9218, 127.4187
477.4039, 125.7743
477.8860, 123.4867
478.3681, 121.3480
478.8502, 119.6571
479.3323, 118.1569
479.8145, 116.6802
480.2966, 115.1876
480.7787, 113.6095
481.2608, 111.6697
481.7429, 109.7631
482.2250, 108.2447
482.7072, 107.2449
483.1893, 106.0933
483.6714, 104.0742
484.1535, 102.0023
484.6356, 100.6953
485.1177, 101.2301
485.5999, 101.4404
486.0820, 100.9450
486.5641, 99.87223
487.0462, 98.59116
487.5283, 96.59946
488.0104, 95.08228
488.4926, 94.65181
488.9747, 95.56238
489.4568, 95.90530
489.9389, 95.50268
490.4210, 94.84765
490.9031, 94.46122
491.3853, 94.34942
491.8674, 94.40356
492.3495, 94.73396
492.8316, 95.05846
493.3137, 94.57044
493.7958, 93.34726
494.2780, 92.28540
494.7601, 92.11682
495.2422, 92.41821
495.7243, 92.34517
496.2064, 91.84350
496.6885, 91.36143
497.1707, 91.15567
497.6528, 91.21657
498.1349, 91.58228
498.6170, 92.68826
499.0992, 93.47777
499.5813, 92.99899
500.0634, 91.75389
500.5455, 90.97234
501.0276, 91.72163
501.5097, 92.41934
501.9919, 92.27184
502.4740, 91.04642
502.9561, 90.28433
503.4382, 90.29146
503.9203, 90.65604
504.4024, 91.15926
504.8846, 92.08784
505.3667, 92.50977
505.8488, 92.10317
506.3309, 91.32471
506.8130, 91.21304
507.2951, 91.89894
507.7773, 92.67046
508.2594, 93.31513
508.7415, 93.82593
509.2236, 94.06384
509.7057, 93.99043
510.1878, 94.12992
510.6700, 95.35622
511.1521, 97.16651
511.6342, 97.88081
512.1163, 96.96043
512.5984, 95.89993
513.0806, 96.48323
513.5627, 98.08920
514.0448, 99.41977
514.5269, 99.40319
515.0090, 99.33157
515.4911, 100.2364
515.9733, 101.9722
516.4554, 103.4726
516.9375, 103.8527
517.4196, 104.2282
517.9017, 105.3576
518.3839, 107.8265
518.8660, 109.8236
519.3481, 110.8657
519.8302, 111.4660
520.3123, 112.0858
520.7944, 112.4285
521.2766, 113.3703
521.7587, 115.2798
522.2408, 117.8512
522.7229, 119.9271
523.2050, 121.4024
523.6871, 122.7810
524.1693, 124.2811
524.6514, 125.8827
525.1335, 127.6551
525.6156, 129.6138
526.0977, 131.6937
526.5798, 133.9850
527.0620, 136.3853
527.5441, 138.4347
528.0262, 139.7035
528.5083, 141.2427
528.9904, 144.6503
529.4725, 149.2222
529.9547, 153.2253
530.4368, 154.9522
530.9189, 156.4731
531.4010, 159.0979
531.8831, 162.9006
532.3652, 166.9233
532.8474, 171.5277
533.3295, 175.8456
533.8116, 179.2843
534.2937, 180.4512
534.7758, 182.9805
535.2579, 187.6698
535.7401, 193.4071
536.2222, 198.4708
536.7043, 202.7949
537.1864, 206.7610
537.6685, 210.2615
538.1506, 213.5109
538.6328, 217.4388
539.1149, 222.1936
539.5970, 226.9570
540.0791, 231.0750
540.5612, 234.7539
541.0433, 238.7761
541.5255, 243.2117
542.0076, 247.5613
542.4897, 251.0938
542.9718, 254.2421
543.4539, 257.9698
543.9360, 262.7396
544.4182, 267.7107
544.9003, 272.2250
545.3824, 276.3886
545.8645, 280.4404
546.3466, 284.6211
546.8287, 288.5790
547.3109, 292.0752
547.7930, 295.0643
548.2751, 297.9689
548.7572, 300.6332
549.2393, 303.3996
549.7214, 306.4886
550.2036, 310.2070
550.6857, 313.5377
551.1678, 316.3203
551.6499, 318.8978
552.1320, 321.7049
552.6141, 324.7858
553.0963, 327.8778
553.5784, 330.8124
554.0605, 333.8167
554.5426, 337.5903
555.0247, 342.1003
555.5068, 346.7563
555.9890, 351.0522
556.4711, 355.2682
556.9532, 359.8793
557.4353, 364.9019
557.9174, 370.1546
558.3995, 375.0484
558.8817, 380.2389
559.3638, 386.6071
559.8459, 395.0307
560.3281, 403.1446
560.8102, 409.4056
561.2923, 414.8219
561.7744, 420.9366
562.2565, 428.8924
562.7386, 436.6308
563.2208, 443.8871
563.7029, 450.6148
564.1850, 456.8798
564.6671, 462.3242
565.1492, 467.8372
565.6313, 474.0531
566.1135, 481.0370
566.5956, 487.1477
567.0777, 492.2968
567.5598, 496.7379
568.0419, 500.7051
568.5240, 504.1875
569.0062, 507.3858
569.4883, 510.4017
569.9704, 512.9065
570.4525, 514.8699
570.9346, 515.9969
571.4167, 515.4682
571.8989, 512.2551
572.3810, 507.8263
572.8631, 503.4592
573.3452, 498.9629
573.8273, 492.7076
574.3094, 483.5063
574.7916, 472.8839
575.2737, 461.5375
575.7558, 449.4162
576.2379, 437.0200
576.7200, 424.5425
577.2021, 411.8077
577.6843, 398.3635
578.1664, 383.8168
578.6485, 370.0144
579.1306, 357.0556
579.6127, 344.8369
580.0948, 332.8377
580.5770, 321.1056
581.0591, 309.4940
581.5412, 298.0017
582.0233, 286.6840
582.5054, 275.5508
582.9875, 264.7585
583.4697, 254.3357
