##NAMES=Jensenite
##RRUFFID=R080008
##IDEAL CHEMISTRY=Cu^2+^_3_Te^6+^O_6_&#183;2H_2_O
##LOCALITY=Montezuma mine, Sonora, Mexico
##OWNER=RRUFF
##SOURCE=William W. Pinch
##DESCRIPTION=Bright green equant crystals found on the holotype specimen of cesbronite, R080003
##STATUS=The identification of this mineral has been confirmed by single-crystal X-ray diffraction.
##URL=rruff.info/R080008
150.2960, 90.34753
150.7781, 90.82284
151.2602, 91.58961
151.7424, 92.55472
152.2245, 93.87061
152.7066, 95.20444
153.1887, 96.53767
153.6708, 97.85891
154.1529, 99.17834
154.6351, 100.4553
155.1172, 101.7647
155.5993, 103.1539
156.0814, 104.8969
156.5635, 106.4650
157.0456, 107.9530
157.5278, 109.3437
158.0099, 109.9624
158.4920, 109.2670
158.9741, 107.9363
159.4562, 106.5745
159.9383, 105.3109
160.4205, 104.0518
160.9026, 102.6319
161.3847, 101.0142
161.8668, 99.81517
162.3489, 99.44518
162.8310, 99.54790
163.3132, 99.70833
163.7953, 99.53159
164.2774, 99.57133
164.7595, 100.1333
165.2416, 101.2777
165.7237, 102.6886
166.2059, 104.4449
166.6880, 106.3410
167.1701, 108.0643
167.6522, 109.2292
168.1343, 110.3321
168.6164, 111.7597
169.0986, 113.6160
169.5807, 115.5331
170.0628, 117.2522
170.5449, 118.8595
171.0270, 120.5091
171.5091, 122.3989
171.9913, 124.3108
172.4734, 126.0527
172.9555, 127.6166
173.4376, 128.9799
173.9197, 130.1800
174.4018, 131.1840
174.8840, 131.8821
175.3661, 132.2874
175.8482, 132.3213
176.3303, 131.7960
176.8124, 130.5427
177.2945, 129.0584
177.7767, 127.8713
178.2588, 126.9093
178.7409, 125.9294
179.2230, 124.5092
179.7051, 122.9848
180.1872, 122.0544
180.6694, 121.9680
181.1515, 122.2500
181.6336, 122.2799
182.1157, 122.0884
182.5978, 121.8945
183.0799, 122.0058
183.5621, 122.2433
184.0442, 122.1131
184.5263, 121.4794
185.0084, 120.4928
185.4905, 119.3714
185.9726, 118.1182
186.4547, 116.6997
186.9369, 115.0121
187.4190, 113.1054
187.9011, 111.2651
188.3832, 109.5471
188.8653, 107.9070
189.3474, 106.2327
189.8296, 104.5088
190.3117, 102.7946
190.7938, 101.1212
191.2759, 99.49059
191.7580, 97.92400
192.2401, 96.41012
192.7223, 94.95601
193.2044, 93.55354
193.6865, 92.18355
194.1686, 90.90318
194.6507, 89.80457
195.1328, 88.87874
195.6150, 87.94407
196.0971, 86.89192
196.5792, 85.81876
197.0613, 85.12807
197.5434, 84.85074
198.0255, 84.80393
198.5077, 84.82780
198.9898, 84.91911
199.4719, 85.14429
199.9540, 85.55937
200.4361, 86.12192
200.9182, 86.65331
201.4004, 87.18658
201.8825, 87.57941
202.3646, 87.63420
202.8467, 87.31116
203.3288, 86.98750
203.8109, 86.74126
204.2931, 86.57031
204.7752, 86.48418
205.2573, 86.52864
205.7394, 86.54971
206.2215, 86.35850
206.7036, 85.91393
207.1858, 85.48373
207.6679, 85.13322
208.1500, 84.85752
208.6321, 84.60918
209.1142, 84.43436
209.5963, 84.20064
210.0785, 83.78038
210.5606, 83.18198
211.0427, 82.35629
211.5248, 81.17934
212.0069, 79.66658
212.4890, 78.54570
212.9712, 77.95570
213.4533, 77.54105
213.9354, 76.86746
214.4175, 75.77064
214.8996, 74.90032
215.3817, 74.44131
215.8639, 74.39762
216.3460, 74.36415
216.8281, 74.36092
217.3102, 74.33997
217.7923, 74.24422
218.2744, 74.05184
218.7566, 73.82646
219.2387, 73.52122
219.7208, 73.12272
220.2029, 73.08919
220.6850, 73.60400
221.1671, 74.26596
221.6493, 74.60493
222.1314, 74.47267
222.6135, 74.36230
223.0956, 74.37981
223.5777, 74.52837
224.0598, 74.72825
224.5420, 74.98482
225.0241, 75.28855
225.5062, 75.61234
225.9883, 75.86863
226.4704, 76.33620
226.9525, 77.13918
227.4347, 78.30949
227.9168, 79.25146
228.3989, 79.80299
228.8810, 80.29867
229.3631, 81.10465
229.8452, 82.44088
230.3274, 83.66233
230.8095, 84.57059
231.2916, 85.14556
231.7737, 85.99986
232.2558, 87.29633
232.7379, 88.70334
233.2201, 89.83707
233.7022, 90.45258
234.1843, 91.27895
234.6664, 92.53548
235.1485, 94.21898
235.6306, 95.71507
236.1128, 96.99199
236.5949, 98.13245
237.0770, 99.20998
237.5591, 100.1924
238.0412, 101.1776
238.5233, 102.2413
239.0055, 103.3872
239.4876, 104.2082
239.9697, 104.6373
240.4518, 104.8257
240.9339, 104.8725
241.4160, 104.6467
241.8982, 104.5456
242.3803, 104.7047
242.8624, 105.1118
243.3445, 105.2780
243.8266, 105.0183
244.3087, 104.7275
244.7909, 104.7445
245.2730, 105.2179
245.7551, 105.6972
246.2372, 106.1016
246.7193, 106.4415
247.2014, 106.8898
247.6836, 107.5358
248.1657, 108.1746
248.6478, 108.6688
249.1299, 109.0911
249.6120, 109.2122
250.0941, 108.9482
250.5762, 108.3370
251.0584, 107.6893
251.5405, 107.0814
252.0226, 106.3450
252.5047, 105.3612
252.9868, 104.0469
253.4689, 102.6658
253.9511, 101.1991
254.4332, 99.67399
254.9153, 98.28298
255.3974, 97.06057
255.8795, 95.92436
256.3617, 94.80432
256.8438, 93.57214
257.3259, 92.68893
257.8080, 92.28773
258.2901, 92.25645
258.7722, 92.11472
259.2544, 91.71382
259.7365, 91.45139
260.2186, 91.57741
260.7007, 92.22579
261.1828, 92.84834
261.6649, 93.39387
262.1471, 93.89783
262.6292, 94.48099
263.1113, 95.13235
263.5934, 95.87454
264.0755, 96.69866
264.5576, 97.58104
265.0398, 98.66792
265.5219, 100.0322
266.0040, 101.5631
266.4861, 103.0381
266.9682, 104.4094
267.4503, 105.8227
267.9325, 107.3480
268.4146, 109.0689
268.8967, 110.6154
269.3788, 111.9419
269.8609, 113.1436
270.3430, 114.3490
270.8252, 115.5343
271.3073, 116.7979
271.7894, 118.1793
272.2715, 119.6931
272.7536, 121.1668
273.2357, 122.5791
273.7179, 123.9574
274.2000, 125.3536
274.6821, 126.7529
275.1642, 128.1962
275.6463, 129.6989
276.1284, 131.2600
276.6106, 132.8384
277.0927, 134.4089
277.5748, 136.0497
278.0569, 137.8953
278.5390, 139.9639
279.0211, 142.0368
279.5032, 144.0527
279.9854, 145.9978
280.4675, 147.9114
280.9496, 149.8082
281.4317, 151.6302
281.9138, 153.3191
282.3959, 154.8751
282.8781, 156.3249
283.3602, 157.6928
283.8423, 158.9634
284.3244, 160.0459
284.8065, 160.9478
285.2886, 161.6563
285.7708, 162.1981
286.2529, 162.5648
286.7350, 162.6008
287.2171, 162.2439
287.6992, 161.5504
288.1813, 160.6345
288.6635, 159.4836
289.1456, 158.2576
289.6277, 157.0779
290.1098, 155.9279
290.5919, 154.7089
291.0740, 153.3252
291.5562, 151.9625
292.0383, 151.0888
292.5204, 150.6750
293.0025, 150.2732
293.4846, 149.4051
293.9667, 148.2776
294.4489, 147.7329
294.9310, 148.0501
295.4131, 148.5242
295.8952, 148.1028
296.3773, 146.8789
296.8594, 145.4446
297.3416, 144.0461
297.8237, 142.6729
298.3058, 141.4234
298.7879, 140.3669
299.2700, 139.0744
299.7521, 136.8861
300.2343, 134.0101
300.7164, 131.2192
301.1985, 129.0210
301.6806, 127.0552
302.1627, 124.7261
302.6448, 121.9684
303.1270, 119.2208
303.6091, 116.7564
304.0912, 114.5952
304.5733, 112.6630
305.0554, 110.8984
305.5375, 109.3876
306.0197, 108.3981
306.5018, 107.9035
306.9839, 107.3742
307.4660, 106.3146
307.9481, 105.0059
308.4302, 103.8403
308.9124, 102.8529
309.3945, 102.1269
309.8766, 101.8564
310.3587, 101.9642
310.8408, 102.0557
311.3229, 101.7421
311.8051, 101.3599
312.2872, 101.2791
312.7693, 101.7283
313.2514, 102.2500
313.7335, 102.4712
314.2156, 102.5333
314.6978, 102.8504
315.1799, 103.8033
315.6620, 104.9693
316.1441, 106.0181
316.6262, 106.8426
317.1083, 107.7113
317.5905, 108.7196
318.0726, 109.8441
318.5547, 111.0623
319.0368, 112.4123
319.5189, 113.8104
320.0010, 115.2469
320.4832, 116.7674
320.9653, 118.1193
321.4474, 119.2866
321.9295, 120.2307
322.4116, 120.9066
322.8937, 121.1563
323.3759, 121.2831
323.8580, 121.3955
324.3401, 121.5040
324.8222, 121.4434
325.3043, 121.4762
325.7864, 121.1786
326.2686, 120.2236
326.7507, 118.1156
327.2328, 115.8636
327.7149, 113.4976
328.1970, 111.0577
328.6791, 108.7334
329.1613, 106.6487
329.6434, 104.6036
330.1255, 102.4994
330.6076, 100.2262
331.0897, 98.05204
331.5718, 96.00098
332.0540, 94.05135
332.5361, 92.10974
333.0182, 90.03051
333.5003, 88.12263
333.9824, 86.51592
334.4645, 85.20436
334.9467, 84.20950
335.4288, 83.71212
335.9109, 83.40992
336.3930, 82.78495
336.8751, 81.64925
337.3572, 80.61988
337.8394, 79.89342
338.3215, 79.48913
338.8036, 79.07336
339.2857, 78.62411
339.7678, 78.20044
340.2499, 77.87553
340.7321, 77.67535
341.2142, 77.46115
341.6963, 77.23513
342.1784, 76.96956
342.6605, 76.51745
343.1426, 75.86318
343.6248, 75.11155
344.1069, 74.26720
344.5890, 73.35194
345.0711, 72.66348
345.5532, 72.28919
346.0353, 72.11282
346.5175, 71.98840
346.9996, 71.91147
347.4817, 71.67083
347.9638, 70.95969
348.4459, 69.95228
348.9280, 69.36573
349.4102, 69.33613
349.8923, 69.38167
350.3744, 68.73109
350.8565, 67.57864
351.3386, 66.66571
351.8207, 66.50669
352.3029, 66.76250
352.7850, 66.88478
353.2671, 66.86595
353.7492, 66.83121
354.2313, 66.89475
354.7134, 67.01668
355.1956, 67.13094
355.6777, 67.24233
356.1598, 67.31026
356.6419, 67.22218
357.1240, 67.02200
357.6061, 66.94362
358.0883, 67.27615
358.5704, 67.73190
359.0525, 68.00937
359.5346, 67.96506
360.0167, 67.89291
360.4988, 67.91745
360.9810, 68.03789
361.4631, 68.25443
361.9452, 68.66848
362.4273, 69.10079
362.9094, 69.40824
363.3915, 69.51722
363.8737, 69.77407
364.3558, 70.44163
364.8379, 71.26466
365.3200, 71.94218
365.8021, 72.35975
366.2842, 72.67123
366.7664, 72.79967
367.2485, 72.74438
367.7306, 72.99075
368.2127, 73.84260
368.6948, 74.86119
369.1769, 75.76293
369.6591, 76.40533
370.1412, 77.09606
370.6233, 77.79007
371.1054, 78.53587
371.5875, 79.54424
372.0696, 81.07549
372.5518, 82.53909
373.0339, 83.67640
373.5160, 84.34940
373.9981, 85.08409
374.4802, 85.84547
374.9623, 86.70483
375.4445, 87.80447
375.9266, 89.26840
376.4087, 90.65682
376.8908, 91.82626
377.3729, 92.78820
377.8550, 93.71124
378.3372, 94.55401
378.8193, 95.44751
379.3014, 96.49606
379.7835, 97.71009
380.2656, 99.08321
380.7477, 100.6995
381.2299, 102.3908
381.7120, 103.6780
382.1941, 104.5406
382.6762, 105.4450
383.1583, 106.7168
383.6404, 108.2907
384.1226, 109.8530
384.6047, 111.3526
385.0868, 112.9047
385.5689, 114.7208
386.0510, 116.7420
386.5331, 118.7664
387.0153, 120.5963
387.4974, 122.4357
387.9795, 124.6748
388.4616, 127.3168
388.9437, 129.9482
389.4258, 132.0944
389.9080, 134.0763
390.3901, 136.3277
390.8722, 139.1240
391.3543, 142.0668
391.8364, 144.8219
392.3185, 147.4371
392.8007, 150.1827
393.2828, 153.4353
393.7649, 156.7053
394.2470, 159.5901
394.7291, 161.9140
395.2112, 164.1620
395.6934, 166.8502
396.1755, 169.4917
396.6576, 171.3593
397.1397, 171.9886
397.6218, 172.0888
398.1039, 171.8307
398.5861, 171.2162
399.0682, 170.3402
399.5503, 169.4029
400.0324, 168.0836
400.5145, 166.1640
400.9966, 163.3294
401.4788, 160.3315
401.9609, 157.2696
402.4430, 154.0884
402.9251, 150.5346
403.4072, 146.3875
403.8893, 142.1875
404.3714, 138.1969
404.8535, 134.4062
405.3357, 130.7606
405.8178, 127.2985
406.2999, 123.9828
406.7820, 120.7845
407.2641, 117.7029
407.7462, 114.7265
408.2284, 111.7498
408.7105, 108.8990
409.1926, 106.6268
409.6747, 104.9871
410.1568, 103.5286
410.6389, 101.8634
411.1211, 100.0464
411.6032, 98.26655
412.0853, 96.47953
412.5674, 94.88770
413.0495, 93.84341
413.5316, 93.25989
414.0138, 92.71966
414.4959, 91.88871
414.9780, 90.98473
415.4601, 90.38709
415.9422, 90.12495
416.4243, 89.92403
416.9065, 89.53738
417.3886, 89.06949
417.8707, 88.68346
418.3528, 88.45596
418.8349, 88.30325
419.3170, 88.21811
419.7992, 88.17640
420.2813, 88.07344
420.7634, 87.65946
421.2455, 87.30171
421.7276, 87.31746
422.2097, 88.03958
422.6919, 88.44743
423.1740, 87.98827
423.6561, 87.12991
424.1382, 86.57853
424.6203, 86.66499
425.1024, 86.85989
425.5846, 87.18640
426.0667, 87.67513
426.5488, 87.64030
427.0309, 86.71085
427.5130, 85.58311
427.9951, 84.73647
428.4773, 84.30151
428.9594, 83.86836
429.4415, 83.42036
429.9236, 82.95492
430.4057, 82.45169
430.8878, 81.90514
431.3700, 81.34685
431.8521, 80.74677
432.3342, 80.10539
432.8163, 79.73019
433.2984, 79.69566
433.7805, 79.67099
434.2627, 79.18445
434.7448, 78.29361
435.2269, 77.58302
435.7090, 77.22139
436.1911, 77.09502
436.6732, 77.05143
437.1554, 77.07259
437.6375, 77.01562
438.1196, 76.70606
438.6017, 76.27773
439.0838, 75.96403
439.5659, 75.80870
440.0481, 75.66549
440.5302, 75.36362
441.0123, 74.99381
441.4944, 74.70856
441.9765, 74.57527
442.4586, 74.54206
442.9408, 74.60806
443.4229, 74.76257
443.9050, 74.92663
444.3871, 75.16612
444.8692, 75.33938
445.3513, 75.31335
445.8335, 74.78671
446.3156, 74.56853
446.7977, 75.19640
447.2798, 76.16251
447.7619, 76.56395
448.2440, 75.56737
448.7262, 74.84248
449.2083, 74.85932
449.6904, 75.66434
450.1725, 76.23171
450.6546, 76.41647
451.1367, 76.53683
451.6189, 76.86413
452.1010, 77.51363
452.5831, 77.97404
453.0652, 78.16505
453.5473, 78.18689
454.0294, 78.25291
454.5116, 78.36436
454.9937, 78.51633
455.4758, 78.75185
455.9579, 79.03855
456.4400, 79.19787
456.9221, 79.22662
457.4043, 79.16596
457.8864, 79.03555
458.3685, 78.84660
458.8506, 78.63257
459.3327, 78.41615
459.8148, 78.15481
460.2970, 77.76689
460.7791, 77.28214
461.2612, 76.81128
461.7433, 76.47868
462.2254, 76.14697
462.7076, 75.66849
463.1897, 75.01089
463.6718, 74.40173
464.1539, 74.07015
464.6360, 73.80238
465.1181, 73.39089
465.6003, 72.58006
466.0824, 71.83858
466.5645, 71.29343
467.0466, 70.91666
467.5287, 70.59799
468.0108, 70.35654
468.4930, 70.14156
468.9751, 69.90864
469.4572, 69.59675
469.9393, 69.51208
470.4214, 69.82976
470.9035, 70.21378
471.3857, 70.24902
471.8678, 69.76248
472.3499, 69.49550
472.8320, 69.66732
473.3141, 70.10564
473.7962, 70.15286
474.2784, 69.75007
474.7605, 69.38631
475.2426, 69.38476
475.7247, 69.68938
476.2068, 69.98087
476.6889, 70.25811
477.1711, 70.46931
477.6532, 70.46870
478.1353, 70.34836
478.6174, 70.36100
479.0995, 70.59715
479.5816, 70.99291
480.0638, 71.63132
480.5459, 72.41219
481.0280, 72.95057
481.5101, 72.69366
481.9922, 72.32024
482.4743, 72.44443
482.9565, 73.23516
483.4386, 73.94494
483.9207, 74.12700
484.4028, 74.12957
484.8849, 74.31761
485.3670, 74.96629
485.8492, 75.58223
486.3313, 76.11533
486.8134, 76.55330
487.2955, 76.83408
487.7776, 76.64426
488.2597, 76.67273
488.7419, 77.30378
489.2240, 78.75942
489.7061, 79.66183
490.1882, 79.77174
490.6703, 79.68363
491.1524, 80.16362
491.6346, 81.32984
492.1167, 82.13975
492.5988, 82.30220
493.0809, 82.08792
493.5630, 82.18381
494.0451, 82.58125
494.5273, 83.01233
495.0094, 83.35849
495.4915, 83.61880
495.9736, 83.82838
496.4557, 83.99464
496.9378, 83.99171
497.4200, 83.59821
497.9021, 82.98853
498.3842, 82.43624
498.8663, 82.03500
499.3484, 81.68746
499.8305, 81.34403
500.3127, 81.00732
500.7948, 80.68400
501.2769, 80.45884
501.7590, 80.17418
502.2411, 79.72959
502.7232, 79.08717
503.2054, 78.48501
503.6875, 77.89834
504.1696, 77.40474
504.6517, 77.08566
505.1338, 77.15672
505.6159, 77.00536
506.0981, 76.45809
506.5802, 75.73034
507.0623, 75.35925
507.5444, 75.45896
508.0265, 75.52982
508.5086, 75.33215
508.9908, 74.92239
509.4729, 74.81775
509.9550, 75.05294
510.4371, 75.32233
510.9192, 75.32355
511.4013, 75.12659
511.8835, 75.02148
512.3655, 75.08852
512.8477, 75.14039
513.3298, 74.86831
513.8119, 74.40820
514.2940, 74.08218
514.7761, 74.36852
515.2582, 74.59089
515.7404, 74.06921
516.2225, 72.91118
516.7046, 71.94535
517.1867, 71.52741
517.6688, 71.43253
518.1509, 71.57881
518.6331, 72.14659
519.1152, 72.47712
519.5973, 72.25904
520.0794, 71.82070
520.5615, 71.59556
521.0436, 71.88951
521.5258, 71.89931
522.0079, 71.35378
522.4900, 70.41124
522.9721, 69.88895
523.4542, 69.92075
523.9363, 70.00475
524.4185, 69.82488
524.9006, 69.38431
525.3827, 69.25578
525.8648, 69.48210
526.3469, 69.80236
526.8290, 69.98914
527.3112, 70.04076
527.7933, 69.91142
528.2754, 69.47315
528.7575, 69.06828
529.2396, 69.21087
529.7217, 69.73949
530.2039, 70.17522
530.6860, 70.17588
531.1681, 70.06757
531.6502, 70.09187
532.1323, 70.25739
532.6144, 70.40627
533.0966, 70.42456
533.5787, 70.43598
534.0608, 70.53213
534.5429, 70.79890
535.0250, 71.03033
535.5071, 71.16711
535.9893, 71.27302
536.4714, 71.44307
536.9535, 71.72906
537.4356, 71.98513
537.9177, 72.20909
538.3998, 72.38187
538.8820, 72.31601
539.3641, 71.95116
539.8462, 71.63232
540.3283, 71.64159
540.8104, 71.92034
541.2925, 72.02861
541.7747, 71.92763
542.2568, 71.79087
542.7389, 71.84328
543.2210, 72.00230
543.7031, 72.06851
544.1852, 71.95579
544.6674, 71.78133
545.1495, 71.57185
545.6316, 71.38049
546.1137, 71.33981
546.5958, 71.69788
547.0779, 72.06284
547.5601, 72.21484
548.0422, 72.13731
548.5243, 72.04234
549.0064, 71.90169
549.4885, 71.80931
549.9706, 71.83818
550.4528, 72.16430
550.9349, 72.26918
551.4170, 72.06949
551.8991, 71.71473
552.3812, 71.40916
552.8633, 71.15020
553.3455, 70.96521
553.8276, 70.92043
554.3097, 70.92143
554.7918, 70.59954
555.2739, 69.96090
555.7560, 69.33878
556.2382, 68.95316
556.7203, 68.72832
557.2024, 68.53104
557.6845, 68.35828
558.1666, 68.12407
558.6487, 67.77469
559.1309, 67.31698
559.6130, 66.71403
560.0951, 65.72749
560.5772, 65.03731
561.0593, 65.22929
561.5414, 65.89812
562.0236, 66.32439
562.5057, 66.12363
562.9878, 65.88409
563.4699, 65.73780
563.9520, 65.68378
564.4341, 65.69691
564.9163, 65.78029
565.3984, 65.92574
565.8805, 66.12497
566.3626, 66.37409
566.8447, 66.73251
567.3268, 67.23186
567.8090, 67.76339
568.2911, 68.22240
568.7732, 68.61046
569.2553, 68.89717
569.7374, 69.06416
570.2195, 69.16096
570.7017, 69.19347
571.1838, 69.20715
571.6659, 69.34286
572.1480, 69.82337
572.6301, 70.34472
573.1122, 70.62139
573.5944, 70.67962
574.0765, 70.76189
574.5586, 70.99194
575.0407, 71.26675
575.5228, 71.53960
576.0049, 71.83073
576.4871, 72.03793
576.9692, 72.05065
577.4513, 72.04308
577.9334, 72.18774
578.4155, 72.55251
578.8976, 72.91392
579.3798, 73.27322
579.8619, 73.59440
580.3440, 73.68842
580.8261, 73.51762
581.3082, 73.59889
581.7903, 74.27759
582.2725, 75.33361
582.7546, 76.06962
583.2367, 76.51182
583.7188, 77.00432
584.2009, 77.87556
584.6830, 78.90881
585.1652, 79.78798
585.6473, 80.44296
586.1294, 81.16600
586.6115, 82.03055
587.0936, 83.10324
587.5757, 84.44465
588.0579, 86.28060
588.5400, 88.13675
589.0221, 90.01588
589.5042, 91.84837
589.9863, 93.45125
590.4684, 94.46585
590.9506, 95.81026
591.4327, 97.79853
591.9148, 100.3524
592.3969, 102.8062
592.8790, 105.1634
593.3611, 107.4074
593.8433, 109.4395
594.3254, 111.3005
594.8075, 113.3840
595.2896, 115.7006
595.7717, 118.2921
596.2538, 121.3503
596.7360, 124.6848
597.2181, 127.9693
597.7002, 131.0125
598.1823, 134.0714
598.6644, 137.2458
599.1465, 140.5510
599.6287, 144.0278
600.1108, 147.6407
600.5929, 151.4283
601.0750, 155.4447
601.5571, 159.6618
602.0392, 163.9415
602.5214, 168.2908
603.0035, 172.7418
603.4856, 177.2694
603.9677, 181.9135
604.4498, 186.6025
604.9319, 191.3887
605.4141, 196.1655
605.8962, 200.7844
606.3783, 205.2793
606.8604, 209.4135
607.3425, 213.1293
607.8246, 216.7193
608.3068, 220.7000
608.7889, 224.7926
609.2710, 228.3124
609.7531, 230.9617
610.2352, 233.0204
610.7173, 234.7206
611.1995, 235.9924
611.6816, 236.6698
612.1637, 236.7812
612.6458, 236.2297
613.1279, 234.8634
613.6100, 232.6707
614.0922, 230.2635
614.5743, 227.7585
615.0564, 224.8524
615.5385, 221.3521
616.0206, 217.1581
616.5027, 212.7496
616.9849, 208.1302
617.4670, 203.3064
617.9491, 198.2254
618.4312, 192.9797
618.9133, 188.2264
619.3954, 184.1490
619.8776, 180.3335
620.3597, 176.1990
620.8418, 171.9132
621.3239, 167.9350
621.8060, 164.2790
622.2881, 161.0451
622.7703, 158.4808
623.2524, 156.4328
623.7345, 154.2805
624.2166, 151.8468
624.6987, 149.2793
625.1808, 146.4992
625.6630, 143.4332
626.1451, 141.0974
626.6272, 139.7337
627.1093, 138.6663
627.5914, 137.4110
628.0735, 135.9409
628.5557, 134.6618
629.0378, 133.6011
629.5199, 132.7314
630.0020, 131.9904
630.4841, 131.4046
630.9662, 131.0739
631.4484, 131.0779
631.9305, 131.2334
632.4126, 131.4081
632.8947, 131.6023
633.3768, 131.8186
633.8589, 131.8705
634.3411, 132.1322
634.8232, 132.8808
635.3053, 134.0298
635.7874, 135.0551
636.2695, 135.8681
636.7516, 136.5713
637.2338, 137.1337
637.7159, 137.5433
638.1980, 138.2144
638.6801, 139.2731
639.1622, 140.2318
639.6443, 140.6400
640.1265, 140.5542
640.6086, 140.5682
641.0907, 140.7604
641.5728, 140.8281
642.0549, 140.4179
642.5370, 139.6623
643.0192, 138.7890
643.5013, 137.8301
643.9834, 136.8268
644.4655, 135.8314
644.9476, 134.8054
645.4297, 133.6428
645.9119, 132.1042
646.3940, 130.6762
646.8761, 129.5631
647.3582, 128.6725
