##NAMES=Jensenite
##RRUFFID=R080008
##IDEAL CHEMISTRY=Cu^2+^_3_Te^6+^O_6_&#183;2H_2_O
##LOCALITY=Montezuma mine, Sonora, Mexico
##OWNER=RRUFF
##SOURCE=William W. Pinch
##DESCRIPTION=Bright green equant crystals found on the holotype specimen of cesbronite, R080003
##STATUS=The identification of this mineral has been confirmed by single-crystal X-ray diffraction.
##URL=rruff.info/R080008
142.7217, 22.92880
143.2038, 22.81970
143.6860, 22.86190
144.1681, 22.93728
144.6502, 22.95151
145.1323, 22.92443
145.6144, 22.89429
146.0965, 22.87042
146.5787, 22.85449
147.0608, 22.84844
147.5429, 22.83714
148.0250, 22.86238
148.5071, 22.97837
148.9892, 23.15188
149.4714, 23.29156
149.9535, 23.29910
150.4356, 23.16010
150.9177, 23.08087
151.3998, 23.17349
151.8819, 23.23946
152.3641, 23.18183
152.8462, 23.01150
153.3283, 22.81605
153.8104, 22.68838
154.2925, 22.63117
154.7746, 22.64749
155.2568, 22.83327
155.7389, 23.00910
156.2210, 23.04415
156.7031, 22.92065
157.1852, 22.72991
157.6673, 22.61173
158.1495, 22.59977
158.6316, 22.61977
159.1137, 22.75373
159.5958, 22.88332
160.0779, 22.84613
160.5600, 22.57924
161.0422, 22.23706
161.5243, 22.16411
162.0064, 22.48014
162.4885, 22.74114
162.9706, 22.83684
163.4527, 22.81218
163.9349, 22.74024
164.4170, 22.62520
164.8991, 22.51242
165.3812, 22.49211
165.8633, 22.59188
166.3454, 22.68858
166.8276, 22.70116
167.3097, 22.64077
167.7918, 22.59316
168.2739, 22.60138
168.7560, 22.63201
169.2381, 22.65405
169.7203, 22.67297
170.2024, 22.65653
170.6845, 22.53061
171.1666, 22.26086
171.6487, 22.08845
172.1308, 22.19328
172.6130, 22.38523
173.0951, 22.53248
173.5772, 22.59496
174.0593, 22.60074
174.5414, 22.60349
175.0235, 22.62870
175.5057, 22.59020
175.9878, 22.38641
176.4699, 22.15909
176.9520, 22.06742
177.4341, 22.19245
177.9162, 22.43501
178.3984, 22.47770
178.8805, 22.04058
179.3626, 21.75641
179.8447, 21.79963
180.3268, 22.00632
180.8089, 22.17964
181.2911, 22.21005
181.7732, 22.11723
182.2553, 22.00793
182.7374, 21.80492
183.2195, 21.67006
183.7016, 21.66243
184.1838, 21.74396
184.6659, 21.86185
185.1480, 21.99780
185.6301, 22.13641
186.1122, 22.11425
186.5943, 21.70511
187.0765, 21.40122
187.5586, 21.48933
188.0407, 21.86983
188.5228, 22.20119
189.0049, 22.25054
189.4870, 22.04740
189.9692, 21.88507
190.4513, 21.79381
190.9334, 21.71540
191.4155, 21.60019
191.8976, 21.45199
192.3797, 21.32628
192.8619, 21.24813
193.3440, 21.22771
193.8261, 21.27972
194.3082, 21.44919
194.7903, 21.66363
195.2724, 21.86002
195.7546, 22.04144
196.2367, 22.18418
196.7188, 22.29249
197.2009, 22.34738
197.6830, 22.29856
198.1651, 22.07527
198.6473, 21.77838
199.1294, 21.57907
199.6115, 21.49817
200.0936, 21.47024
200.5757, 21.48739
201.0578, 21.52718
201.5400, 21.56029
202.0221, 21.56601
202.5042, 21.56088
202.9863, 21.59699
203.4684, 21.69971
203.9505, 21.80377
204.4327, 21.93045
204.9148, 22.03681
205.3969, 22.04786
205.8790, 21.89623
206.3611, 21.63501
206.8432, 21.54111
207.3254, 21.82979
207.8075, 22.03591
208.2896, 21.99205
208.7717, 21.81396
209.2538, 21.67876
209.7359, 21.70470
210.2181, 21.86945
210.7002, 21.96464
211.1823, 21.87678
211.6644, 21.83426
212.1465, 21.94798
212.6286, 22.13355
213.1108, 22.23448
213.5929, 22.13740
214.0750, 21.86120
214.5571, 21.68655
215.0392, 21.70295
215.5213, 21.71382
216.0035, 21.64124
216.4856, 21.51991
216.9677, 21.43425
217.4498, 21.44334
217.9319, 21.53937
218.4140, 21.61485
218.8961, 21.66406
219.3783, 21.70338
219.8604, 21.73663
220.3425, 21.76479
220.8246, 21.79401
221.3067, 21.83596
221.7888, 21.87936
222.2710, 21.86040
222.7531, 21.41322
223.2352, 21.77576
223.7173, 21.97069
224.1994, 22.00700
224.6815, 21.40964
225.1637, 21.63054
225.6458, 21.52351
226.1279, 21.40304
226.6100, 21.73911
227.0921, 21.23391
227.5742, 21.56274
228.0564, 21.55863
228.5385, 21.70690
229.0206, 21.52523
229.5027, 21.44546
229.9848, 21.69575
230.4669, 21.76328
230.9491, 21.54362
231.4312, 21.70158
231.9133, 21.18486
232.3954, 21.32416
232.8775, 21.33049
233.3596, 21.34226
233.8418, 21.34535
234.3239, 21.33431
234.8060, 21.32195
235.2881, 21.32886
235.7702, 21.35914
236.2523, 21.36964
236.7345, 21.30596
237.2166, 21.23443
237.6987, 21.22127
238.1808, 21.28773
238.6629, 21.37927
239.1451, 21.44187
239.6272, 21.48033
240.1093, 21.46564
240.5914, 21.30934
241.0735, 21.14021
241.5556, 21.05457
242.0378, 21.07586
242.5199, 21.14665
243.0020, 21.19957
243.4841, 21.23423
243.9662, 21.24944
244.4483, 21.26143
244.9305, 20.97198
245.4126, 21.30061
245.8947, 21.26949
246.3768, 21.45600
246.8589, 21.54346
247.3410, 21.53720
247.8232, 21.15649
248.3053, 21.25930
248.7874, 21.16834
249.2695, 21.06943
249.7516, 21.24030
250.2337, 20.91405
250.7159, 21.39150
251.1980, 21.46335
251.6801, 21.44878
252.1622, 21.27386
252.6443, 21.08373
253.1264, 20.95754
253.6086, 20.90624
254.0907, 20.89339
254.5728, 20.87232
255.0549, 20.82648
255.5370, 20.82588
256.0191, 20.92219
256.5013, 21.01392
256.9834, 21.04318
257.4655, 21.00776
257.9476, 20.93985
258.4297, 20.86633
258.9118, 20.76654
259.3940, 20.75144
259.8761, 20.88284
260.3582, 21.02627
260.8403, 21.11923
261.3224, 21.15753
261.8045, 21.16635
262.2867, 21.16660
262.7688, 21.15543
263.2509, 21.15583
263.7330, 21.17738
264.2151, 21.19902
264.6972, 21.20994
265.1794, 21.21161
265.6615, 21.21299
266.1436, 21.22214
266.6257, 21.23981
267.1078, 21.24833
267.5899, 21.20362
268.0721, 21.19388
268.5542, 21.29372
269.0363, 21.46713
269.5184, 21.60807
270.0005, 21.63633
270.4826, 21.56182
270.9648, 21.53261
271.4469, 21.58739
271.9290, 21.63634
272.4111, 21.63190
272.8932, 21.59437
273.3753, 21.57891
273.8575, 21.62247
274.3396, 21.70893
274.8217, 21.75317
275.3038, 21.68655
275.7859, 21.66358
276.2680, 21.79904
276.7502, 22.01085
277.2323, 22.10527
277.7144, 21.96564
278.1965, 21.70165
278.6786, 21.66590
279.1607, 22.00996
279.6429, 22.25810
280.1250, 22.21637
280.6071, 22.00053
281.0892, 21.81385
281.5713, 21.72750
282.0534, 21.70620
282.5356, 21.68305
283.0177, 21.64567
283.4998, 21.64195
283.9819, 21.75041
284.4640, 21.88298
284.9461, 21.87425
285.4283, 21.66006
285.9104, 21.39674
286.3925, 21.31840
286.8746, 21.43359
287.3567, 21.55804
287.8388, 21.67742
288.3210, 21.77742
288.8031, 21.84621
289.2852, 21.88450
289.7673, 21.86986
290.2494, 21.73989
290.7315, 21.50300
291.2137, 21.34452
291.6958, 21.30076
292.1779, 21.34360
292.6600, 21.49512
293.1421, 21.76173
293.6242, 21.96558
294.1064, 21.92110
294.5885, 21.40265
295.0706, 21.74177
295.5527, 21.92851
296.0348, 21.97106
296.5169, 21.43754
296.9991, 21.64789
297.4812, 21.56013
297.9633, 21.46015
298.4454, 21.77519
298.9275, 21.32546
299.4096, 21.63393
299.8918, 21.63973
300.3739, 21.77420
300.8560, 21.81254
301.3381, 21.82162
301.8202, 21.87871
302.3023, 21.92249
302.7845, 21.81764
303.2666, 21.47042
303.7487, 21.20099
304.2308, 21.29315
304.7129, 21.63539
305.1950, 21.81274
305.6772, 21.63308
306.1593, 21.31420
306.6414, 21.16738
307.1235, 21.19596
307.6056, 21.28095
308.0877, 21.44335
308.5699, 21.62144
309.0520, 21.63921
309.5341, 21.40531
310.0162, 21.14319
310.4983, 21.14545
310.9804, 21.36893
311.4626, 21.55547
311.9447, 21.62014
312.4268, 21.59959
312.9089, 21.52435
313.3910, 21.38054
313.8731, 21.26881
314.3553, 21.33366
314.8374, 21.50913
315.3195, 21.57858
315.8016, 21.37732
316.2837, 21.12182
316.7658, 21.08104
317.2480, 21.26607
317.7301, 21.42740
318.2122, 21.38596
318.6943, 21.21927
319.1764, 21.12244
319.6585, 21.13093
320.1407, 21.18581
320.6228, 21.30084
321.1049, 21.45444
321.5870, 21.46492
322.0691, 21.16849
322.5512, 20.75874
323.0334, 20.61711
323.5155, 20.85167
323.9976, 21.00801
324.4797, 20.72538
324.9618, 20.15799
325.4439, 19.79189
325.9261, 19.79643
326.4082, 19.97601
326.8903, 20.08782
327.3724, 20.13307
327.8545, 20.17591
328.3366, 20.26312
328.8188, 20.35509
329.3009, 20.36507
329.7830, 20.26168
330.2651, 20.16558
330.7472, 20.24967
331.2293, 20.46811
331.7115, 20.55356
332.1936, 20.36417
332.6757, 20.07403
333.1578, 19.84759
333.6399, 19.69307
334.1220, 19.59026
334.6042, 19.54539
335.0863, 19.54198
335.5684, 19.51068
336.0505, 19.38117
336.5326, 19.29328
337.0147, 19.41131
337.4969, 19.67702
337.9790, 19.80442
338.4611, 19.61111
338.9432, 19.25825
339.4253, 19.11173
339.9074, 19.23548
340.3896, 19.36787
340.8717, 19.41231
341.3538, 19.39374
341.8359, 19.35446
342.3180, 19.30026
342.8001, 19.24998
343.2822, 19.23646
343.7643, 19.26283
344.2465, 19.28187
344.7286, 19.30462
345.2107, 19.30569
345.6928, 19.23901
346.1749, 19.09903
346.6570, 18.95452
347.1392, 18.84852
347.6213, 18.79128
348.1034, 18.84371
348.5855, 19.16897
349.0676, 19.46766
349.5497, 19.50424
350.0319, 19.32048
350.5140, 19.14394
350.9961, 19.11593
351.4782, 19.19812
351.9603, 19.20581
352.4424, 19.03560
352.9246, 18.92800
353.4067, 19.02419
353.8888, 19.22277
354.3709, 19.34036
354.8530, 19.30490
355.3351, 19.17237
355.8173, 19.03587
356.2994, 18.85038
356.7815, 18.76659
357.2636, 18.87360
357.7457, 19.04608
358.2278, 19.17803
358.7100, 19.24632
359.1921, 19.25781
359.6742, 19.20279
360.1563, 19.05392
360.6384, 19.02614
361.1205, 19.27512
361.6027, 19.49181
362.0848, 19.48812
362.5669, 19.29964
363.0490, 19.06237
363.5311, 18.85753
364.0132, 18.69205
364.4954, 18.63385
364.9775, 18.81889
365.4596, 18.94356
365.9417, 18.88188
366.4238, 18.74424
366.9059, 18.70257
367.3881, 18.82590
367.8702, 19.01438
368.3523, 19.05902
368.8344, 18.82945
369.3165, 18.66138
369.7986, 18.52192
370.2808, 18.45946
370.7629, 18.57032
371.2450, 18.83102
371.7271, 19.07061
372.2092, 19.08203
372.6913, 18.80481
373.1735, 18.69392
373.6556, 18.92920
374.1377, 19.14071
374.6198, 19.17396
375.1019, 19.08130
375.5840, 18.98776
376.0662, 18.97290
376.5483, 19.02195
377.0304, 19.06373
377.5125, 19.07220
377.9946, 19.11327
378.4767, 19.25374
378.9589, 19.40136
379.4410, 19.44496
379.9231, 19.35188
380.4052, 19.21419
380.8873, 19.18090
381.3694, 19.29108
381.8516, 19.37808
382.3337, 19.39138
382.8158, 19.40998
383.2979, 19.51349
383.7800, 19.67564
384.2621, 19.77581
384.7443, 19.67157
385.2264, 19.38781
385.7085, 19.23769
386.1906, 19.29306
386.6727, 19.38766
387.1548, 19.49356
387.6370, 19.58143
388.1191, 19.60272
388.6012, 19.52792
389.0833, 19.39543
389.5654, 19.25137
390.0475, 19.07583
390.5297, 18.98113
391.0118, 19.08795
391.4939, 19.24134
391.9760, 19.32648
392.4581, 19.32734
392.9402, 19.27736
393.4224, 19.16742
393.9045, 19.01515
394.3866, 18.93127
394.8687, 18.94032
395.3508, 19.00809
395.8329, 19.14567
396.3151, 19.32428
396.7972, 19.44417
397.2793, 19.43618
397.7614, 19.36263
398.2435, 19.31227
398.7256, 19.28869
399.2078, 19.25371
399.6899, 19.17523
400.1720, 19.07568
400.6541, 19.00055
401.1362, 18.94775
401.6183, 18.92753
402.1005, 18.98144
402.5826, 19.07543
403.0647, 19.11220
403.5468, 19.05788
404.0289, 18.94802
404.5110, 18.79932
404.9932, 18.59562
405.4753, 18.50024
405.9574, 18.61844
406.4395, 18.81128
406.9216, 18.96391
407.4037, 19.06198
407.8859, 19.10876
408.3680, 19.10177
408.8501, 19.04273
409.3322, 18.96888
409.8143, 18.86460
410.2964, 18.76460
410.7786, 18.68781
411.2607, 18.62229
411.7428, 18.53039
412.2249, 18.39462
412.7070, 18.26778
413.1891, 18.25977
413.6713, 18.48708
414.1534, 18.62654
414.6355, 18.59356
415.1176, 18.53894
415.5997, 18.59935
416.0818, 18.76348
416.5640, 18.90060
417.0461, 18.88444
417.5282, 18.71247
418.0103, 18.58939
418.4924, 18.49577
418.9745, 18.47677
419.4567, 18.62937
419.9388, 18.83710
420.4209, 18.93067
420.9030, 18.83142
421.3851, 18.63387
421.8672, 18.53156
422.3494, 18.55727
422.8315, 18.59551
423.3136, 18.66011
423.7957, 18.71377
424.2778, 18.73822
424.7599, 18.73035
425.2421, 18.69158
425.7242, 18.61869
426.2063, 18.51367
426.6884, 18.38754
427.1705, 18.18806
427.6526, 18.05970
428.1348, 18.08331
428.6169, 18.20208
429.0990, 18.35328
429.5811, 18.54079
430.0632, 18.69056
430.5453, 18.67706
431.0275, 18.49629
431.5096, 18.35169
431.9917, 18.31065
432.4738, 18.32058
432.9559, 18.30819
433.4380, 18.27429
433.9202, 18.28840
434.4023, 18.46767
434.8844, 18.69180
435.3665, 18.70662
435.8486, 18.46716
436.3307, 18.23422
436.8129, 18.23276
437.2950, 18.39578
437.7771, 18.42553
438.2592, 18.18635
438.7413, 17.94974
439.2234, 17.83831
439.7056, 17.84121
440.1877, 17.97152
440.6698, 18.25901
441.1519, 18.56008
441.6340, 18.62213
442.1161, 18.32502
442.5983, 18.13930
443.0804, 18.13809
443.5625, 18.21719
444.0446, 18.32733
444.5267, 18.44925
445.0089, 18.55639
445.4910, 18.63096
445.9731, 18.67184
446.4552, 18.66909
446.9373, 18.63646
447.4194, 18.54119
447.9016, 18.01314
448.3837, 18.35056
448.8658, 18.53559
449.3479, 18.57643
449.8300, 18.04120
450.3121, 18.24985
450.7943, 18.16038
451.2764, 18.05869
451.7585, 18.37203
452.2406, 17.92059
452.7227, 18.22735
453.2048, 18.23145
453.6870, 18.37407
454.1691, 18.21673
454.6512, 18.15205
455.1333, 18.38741
455.6154, 18.45663
456.0975, 18.26477
456.5797, 18.41619
457.0618, 17.95428
457.5439, 18.03057
458.0260, 18.33909
458.5081, 18.16231
458.9902, 18.31922
459.4724, 18.34904
459.9545, 17.80131
460.4366, 18.25800
460.9187, 18.28031
461.4008, 17.85661
461.8829, 18.27888
462.3651, 17.91667
462.8472, 17.83447
463.3293, 17.96300
463.8114, 17.87185
464.2935, 18.12705
464.7756, 18.04859
465.2578, 17.94032
465.7399, 17.96214
466.2220, 17.61531
466.7041, 17.95241
467.1862, 17.82232
467.6683, 17.92447
468.1505, 18.07925
468.6326, 17.79792
469.1147, 17.91064
469.5968, 17.99264
470.0789, 17.89808
470.5610, 17.66270
471.0432, 17.52901
471.5253, 17.54816
472.0074, 17.60950
472.4895, 17.78262
472.9716, 17.94950
473.4537, 17.95433
473.9359, 17.78127
474.4180, 17.59028
474.9001, 17.58988
475.3822, 17.81110
475.8643, 17.96520
476.3464, 18.03247
476.8286, 18.04575
477.3107, 17.99764
477.7928, 17.90730
478.2749, 17.78935
478.7570, 17.63766
479.2391, 17.50813
479.7213, 17.52069
480.2034, 17.69812
480.6855, 17.82130
481.1676, 17.82256
481.6497, 17.76929
482.1318, 17.71053
482.6140, 17.64800
483.0961, 17.58651
483.5782, 17.50905
484.0603, 17.44179
484.5424, 17.44659
485.0245, 17.52844
485.5067, 17.57933
485.9888, 17.53443
486.4709, 17.42035
486.9530, 17.30729
487.4351, 17.17562
487.9172, 17.08633
488.3994, 17.03050
488.8815, 17.04068
489.3636, 17.22512
489.8457, 17.58877
490.3278, 17.89676
490.8099, 17.90261
491.2921, 17.58883
491.7742, 17.41214
492.2563, 17.45579
492.7384, 17.51700
493.2205, 17.57991
493.7026, 17.60789
494.1848, 17.52497
494.6669, 17.30949
495.1490, 17.07070
495.6311, 16.99063
496.1132, 17.12484
496.5953, 17.23946
497.0775, 17.34358
497.5596, 17.41899
498.0417, 17.43814
498.5238, 17.42336
499.0059, 17.43029
499.4880, 17.50578
499.9702, 17.58531
500.4523, 17.14991
500.9344, 17.50989
501.4165, 17.70225
501.8986, 17.73600
502.3807, 17.13608
502.8629, 17.35441
503.3450, 17.24482
503.8271, 17.12179
504.3092, 17.45529
504.7913, 16.94753
505.2734, 17.27379
505.7556, 17.26712
506.2377, 17.41283
506.7198, 17.22859
507.2019, 17.14626
507.6840, 17.39398
508.1661, 17.45895
508.6482, 17.23673
509.1303, 17.39212
509.6125, 17.43100
510.0946, 17.59838
510.5767, 17.50970
511.0588, 17.35311
511.5409, 17.29529
512.0231, 17.33572
512.5052, 17.40424
512.9873, 17.65022
513.4694, 17.74589
513.9515, 17.46976
514.4337, 17.08384
514.9158, 16.90173
515.3979, 17.00648
515.8800, 17.21524
516.3621, 17.29468
516.8442, 17.22800
517.3264, 17.21346
517.8085, 17.32396
518.2906, 17.39223
518.7727, 17.31380
519.2548, 17.15499
519.7369, 17.02662
520.2191, 16.96815
520.7012, 16.94496
521.1833, 16.91658
521.6654, 16.88681
522.1475, 16.88570
522.6296, 16.92103
523.1118, 16.98557
523.5939, 17.12085
524.0760, 17.30796
524.5581, 17.36041
525.0402, 17.12823
525.5223, 16.85632
526.0045, 16.68732
526.4866, 16.62219
526.9687, 16.66594
527.4508, 16.83158
527.9329, 17.03724
528.4150, 17.12405
528.8972, 17.00804
529.3793, 16.96574
529.8614, 17.08418
530.3435, 17.19152
530.8256, 17.17391
531.3077, 17.06448
531.7899, 16.95589
532.2720, 16.89887
532.7541, 16.89339
533.2362, 16.96498
533.7183, 17.18555
534.2004, 17.27901
534.6826, 17.04519
535.1647, 16.79017
535.6468, 16.70127
536.1289, 16.76309
536.6110, 16.84335
537.0931, 16.84748
537.5753, 16.82886
538.0574, 16.90615
538.5395, 17.08521
539.0216, 17.23527
539.5037, 17.30939
539.9858, 17.31639
540.4680, 17.26097
540.9501, 17.13005
541.4322, 17.02154
541.9143, 17.01314
542.3964, 17.00676
542.8785, 16.85022
543.3607, 16.57619
543.8428, 16.40806
544.3249, 16.50856
544.8070, 16.78671
545.2891, 16.90416
545.7712, 16.64971
546.2534, 16.52235
546.7355, 16.64875
547.2176, 16.81828
547.6997, 16.86782
548.1818, 16.80024
548.6639, 16.71867
549.1461, 16.69637
549.6282, 16.72850
550.1103, 16.81861
550.5924, 17.03144
551.0745, 17.13440
551.5566, 16.93875
552.0388, 16.67683
552.5209, 16.50438
553.0030, 16.43917
553.4851, 16.47642
553.9672, 16.71270
554.4493, 17.01472
554.9315, 17.10729
555.4136, 16.97572
555.8957, 16.88269
556.3778, 17.01160
556.8599, 17.24396
557.3420, 17.23536
557.8242, 16.87694
558.3063, 16.58396
558.7884, 16.46168
559.2705, 16.42124
559.7526, 16.37933
560.2347, 16.33688
560.7169, 16.35999
561.1990, 16.50857
561.6811, 16.73850
562.1632, 16.84063
562.6453, 16.71536
563.1274, 16.62936
563.6096, 16.67264
564.0917, 16.71338
564.5738, 16.61702
565.0559, 16.40814
565.5380, 16.25537
566.0201, 16.29630
566.5023, 16.47006
566.9844, 16.63803
567.4665, 16.81021
567.9486, 16.91253
568.4307, 16.88419
568.9128, 16.79701
569.3950, 16.74281
569.8771, 16.72081
570.3592, 16.73422
570.8413, 16.84002
571.3234, 16.94407
571.8055, 16.89486
572.2877, 16.73100
572.7698, 16.68781
573.2519, 16.91664
573.7340, 17.28030
574.2161, 17.42343
574.6982, 17.18592
575.1804, 16.99665
575.6625, 16.89408
576.1446, 16.80335
576.6267, 16.62526
577.1088, 16.41925
577.5909, 16.35806
578.0731, 16.56846
578.5552, 16.90666
579.0373, 17.02729
579.5194, 16.87595
580.0015, 16.81506
580.4836, 17.00663
580.9658, 17.21334
581.4479, 17.22160
581.9300, 17.07932
582.4121, 17.00020
582.8942, 17.10770
583.3763, 17.27384
583.8585, 17.39324
584.3406, 17.46780
584.8227, 17.50495
585.3048, 17.50719
585.7869, 17.47107
586.2690, 17.38204
586.7512, 17.21910
587.2333, 17.11134
587.7154, 17.04653
588.1975, 17.04462
588.6796, 17.18054
589.1617, 17.36502
589.6438, 17.43699
590.1259, 17.34270
590.6080, 17.21712
591.0901, 17.29412
591.5723, 17.61345
592.0544, 17.73071
592.5365, 17.48937
593.0186, 17.26510
593.5007, 17.21196
593.9828, 17.29081
594.4650, 17.47688
594.9471, 17.80514
595.4292, 18.07883
595.9113, 18.10854
596.3934, 17.97662
596.8755, 17.86506
597.3577, 17.80103
597.8398, 17.76493
598.3219, 17.74781
598.8040, 17.74617
599.2861, 17.73523
599.7682, 17.68725
600.2504, 17.66835
600.7325, 17.70534
601.2146, 17.76515
601.6967, 17.81618
602.1788, 17.85680
602.6609, 17.90778
603.1431, 17.98945
603.6252, 18.09065
604.1073, 18.16189
604.5894, 18.20320
605.0715, 18.21395
605.5536, 18.14513
606.0358, 18.08179
606.5179, 18.08515
607.0000, 18.15476
607.4821, 18.25566
607.9642, 18.46199
608.4464, 18.63182
608.9285, 18.52759
609.4106, 18.19856
609.8927, 17.94833
610.3748, 17.90216
610.8569, 17.95331
611.3391, 17.94557
611.8212, 17.85946
612.3033, 17.78757
612.7854, 17.73587
613.2675, 17.69156
613.7496, 17.60795
614.2318, 17.53987
614.7139, 17.60372
615.1960, 17.83476
615.6781, 18.09291
616.1602, 18.18042
616.6423, 18.08969
617.1245, 17.99854
617.6066, 17.90068
618.0887, 17.81828
618.5708, 17.77048
619.0529, 17.74068
619.5350, 17.71611
620.0172, 17.70637
620.4993, 17.65247
620.9814, 17.43740
621.4635, 17.19144
621.9456, 17.15055
622.4277, 17.32258
622.9099, 17.51573
623.3920, 17.61691
623.8741, 17.63026
624.3562, 17.56683
624.8383, 17.32203
625.3204, 17.15310
625.8026, 17.13605
626.2847, 17.12784
626.7668, 16.98053
627.2489, 16.76012
627.7310, 16.67831
628.2131, 16.88114
628.6953, 17.19094
629.1774, 17.26800
629.6595, 17.10094
630.1416, 16.99276
630.6237, 17.00171
631.1058, 17.07592
631.5880, 17.22009
632.0701, 17.40137
632.5522, 17.50610
633.0343, 17.49688
633.5164, 17.43249
633.9985, 17.30514
634.4807, 17.15496
634.9628, 17.03773
635.4449, 16.96667
635.9270, 16.93701
636.4091, 16.94865
636.8912, 16.99755
637.3734, 17.04136
637.8555, 17.08652
638.3376, 17.11533
638.8197, 17.11495
639.3018, 17.10720
639.7839, 17.11833
