##NAMES=Jerrygibbsite
##RRUFFID=R100042
##IDEAL CHEMISTRY=Mn^2+^_9_(SiO_4_)_4_(OH)_2_
##LOCALITY=Kombat mine, Otavi Mountains, Namibia
##OWNER=RRUFF
##SOURCE=William W Pinch
##DESCRIPTION=Tan transparent cleavages, associated with hausmannite, calcite, and an orange-red granular vesuvianite-group mineral
##STATUS=The identification of this mineral has been confirmed by single-crystal X-ray diffraction.
##URL=rruff.info/R100042
92.49744, 1285.505
92.97955, 1304.626
93.46167, 1329.752
93.94379, 1339.586
94.42590, 1340.752
94.90802, 1337.569
95.39014, 1331.147
95.87225, 1321.033
96.35437, 1310.311
96.83649, 1301.790
97.31860, 1294.166
97.80072, 1285.690
98.28284, 1273.614
98.76495, 1257.853
99.24707, 1244.389
99.72919, 1234.288
100.2113, 1225.829
100.6934, 1218.477
101.1755, 1212.062
101.6577, 1206.639
102.1398, 1202.260
102.6219, 1199.062
103.1040, 1195.906
103.5861, 1192.467
104.0682, 1189.068
104.5504, 1185.855
105.0325, 1182.822
105.5146, 1179.732
105.9967, 1175.997
106.4788, 1170.719
106.9609, 1166.932
107.4431, 1165.430
107.9252, 1165.256
108.4073, 1165.200
108.8894, 1164.880
109.3715, 1164.427
109.8536, 1164.233
110.3358, 1164.485
110.8179, 1164.227
111.3000, 1162.469
111.7821, 1159.405
112.2642, 1156.945
112.7463, 1155.888
113.2285, 1155.830
113.7106, 1156.549
114.1927, 1158.235
114.6748, 1160.067
115.1569, 1160.882
115.6390, 1160.406
116.1212, 1159.541
116.6033, 1158.011
117.0854, 1156.467
117.5675, 1155.642
118.0496, 1155.965
118.5317, 1157.153
119.0139, 1157.859
119.4960, 1157.449
119.9781, 1157.168
120.4602, 1157.100
120.9423, 1157.317
121.4244, 1158.025
121.9066, 1159.520
122.3887, 1161.970
122.8708, 1162.659
123.3529, 1160.004
123.8350, 1157.423
124.3171, 1156.466
124.7993, 1157.201
125.2814, 1158.855
125.7635, 1160.878
126.2456, 1163.450
126.7277, 1164.960
127.2098, 1164.746
127.6920, 1163.731
128.1741, 1162.732
128.6562, 1161.848
129.1383, 1161.252
129.6204, 1161.335
130.1025, 1162.006
130.5847, 1162.679
131.0668, 1163.243
131.5489, 1163.649
132.0310, 1163.713
132.5131, 1163.269
132.9952, 1162.574
133.4774, 1161.580
133.9595, 1160.314
134.4416, 1159.643
134.9237, 1160.934
135.4058, 1164.690
135.8879, 1166.992
136.3701, 1165.320
136.8522, 1163.114
137.3343, 1162.426
137.8164, 1163.749
138.2985, 1165.985
138.7806, 1167.253
139.2628, 1166.976
139.7449, 1166.724
140.2270, 1166.209
140.7091, 1165.977
141.1912, 1166.871
141.6733, 1169.257
142.1555, 1172.364
142.6376, 1173.496
143.1197, 1170.339
143.6018, 1167.622
144.0839, 1165.862
144.5660, 1164.842
145.0482, 1164.417
145.5303, 1164.693
146.0124, 1165.319
146.4945, 1163.654
146.9766, 1158.644
147.4587, 1152.967
147.9409, 1147.298
148.4230, 1141.768
148.9051, 1136.811
149.3872, 1132.891
149.8693, 1129.868
150.3514, 1126.446
150.8336, 1122.156
151.3157, 1117.743
151.7978, 1113.914
152.2799, 1110.726
152.7620, 1107.671
153.2441, 1104.248
153.7263, 1100.692
154.2084, 1097.369
154.6905, 1094.474
155.1726, 1091.912
155.6547, 1089.521
156.1368, 1087.499
156.6190, 1085.288
157.1011, 1082.118
157.5832, 1078.547
158.0653, 1075.699
158.5474, 1074.955
159.0295, 1076.028
159.5117, 1074.992
159.9938, 1069.125
160.4759, 1063.699
160.9580, 1060.699
161.4401, 1059.765
161.9222, 1059.635
162.4044, 1059.267
162.8865, 1058.631
163.3686, 1057.887
163.8507, 1057.300
164.3328, 1056.390
164.8149, 1054.750
165.2971, 1052.467
165.7792, 1050.037
166.2613, 1047.945
166.7434, 1046.010
167.2255, 1045.208
167.7076, 1047.150
168.1898, 1048.989
168.6719, 1048.488
169.1540, 1045.280
169.6361, 1040.863
170.1182, 1037.245
170.6003, 1034.631
171.0825, 1032.492
171.5646, 1030.959
172.0467, 1029.846
172.5288, 1029.117
173.0109, 1028.831
173.4930, 1028.517
173.9752, 1027.137
174.4573, 1024.507
174.9394, 1022.318
175.4215, 1021.444
175.9036, 1021.349
176.3857, 1020.823
176.8679, 1019.405
177.3500, 1017.583
177.8321, 1016.059
178.3142, 1014.859
178.7963, 1013.591
179.2784, 1011.718
179.7606, 1009.373
180.2427, 1007.821
180.7248, 1007.860
181.2069, 1008.478
181.6890, 1008.854
182.1711, 1008.933
182.6533, 1008.761
183.1354, 1008.334
183.6175, 1007.626
184.0996, 1006.882
184.5817, 1006.084
185.0638, 1005.314
185.5460, 1004.634
186.0281, 1004.055
186.5102, 1003.537
186.9923, 1003.001
187.4744, 1002.365
187.9565, 1001.934
188.4387, 1001.735
188.9208, 1001.721
189.4029, 1002.110
189.8850, 1002.911
190.3671, 1003.572
190.8492, 1002.901
191.3314, 999.4117
191.8135, 997.0140
192.2956, 995.9268
192.7777, 995.8873
193.2598, 997.1033
193.7419, 999.5928
194.2241, 1002.508
194.7062, 1003.801
195.1883, 1001.614
195.6704, 999.8013
196.1525, 998.8790
196.6346, 998.2346
197.1168, 997.0038
197.5989, 994.7811
198.0810, 992.0737
198.5631, 990.3730
199.0452, 989.7324
199.5273, 989.9100
200.0095, 991.6517
200.4916, 994.0909
200.9737, 995.7225
201.4558, 995.7697
201.9379, 994.8287
202.4200, 994.6235
202.9022, 995.3046
203.3843, 996.2385
203.8664, 997.5953
204.3485, 999.0963
204.8306, 999.8712
205.3127, 999.3288
205.7949, 998.0600
206.2770, 997.3967
206.7591, 997.4709
207.2412, 997.7736
207.7233, 998.2580
208.2054, 998.8358
208.6876, 998.9000
209.1697, 997.9134
209.6518, 996.4733
210.1339, 995.4462
210.6160, 994.8720
211.0981, 994.6954
211.5803, 995.1016
212.0624, 996.0932
212.5445, 996.7711
213.0266, 996.3647
213.5087, 995.7819
213.9908, 995.8663
214.4730, 996.7797
214.9551, 998.1546
215.4372, 999.9857
215.9193, 1002.553
216.4014, 1003.889
216.8836, 1001.794
217.3657, 999.1514
217.8478, 997.8439
218.3299, 998.3348
218.8120, 999.8401
219.2941, 1001.518
219.7763, 1003.606
220.2584, 1005.034
220.7405, 1005.181
221.2226, 1004.911
221.7047, 1004.722
222.1868, 1004.760
222.6690, 1004.979
223.1511, 1005.304
223.6332, 1005.695
224.1153, 1006.307
224.5974, 1007.169
225.0795, 1008.205
225.5617, 1009.460
226.0438, 1010.920
226.5259, 1012.387
227.0080, 1013.495
227.4901, 1014.012
227.9722, 1014.586
228.4544, 1015.540
228.9365, 1016.388
229.4186, 1016.633
229.9007, 1016.180
230.3828, 1015.437
230.8649, 1015.132
231.3471, 1015.731
231.8292, 1016.023
232.3113, 1015.729
232.7934, 1015.312
233.2755, 1015.087
233.7576, 1015.159
234.2398, 1015.523
234.7219, 1016.216
235.2040, 1017.809
235.6861, 1018.630
236.1682, 1017.852
236.6503, 1016.757
237.1325, 1016.527
237.6146, 1017.464
238.0967, 1019.073
238.5788, 1020.744
239.0609, 1022.938
239.5430, 1023.910
240.0252, 1022.805
240.5073, 1020.832
240.9894, 1018.900
241.4715, 1017.227
241.9536, 1016.211
242.4357, 1016.672
242.9179, 1019.151
243.4000, 1020.662
243.8821, 1020.190
244.3642, 1018.955
244.8463, 1018.151
245.3284, 1018.001
245.8106, 1018.438
246.2927, 1019.768
246.7748, 1022.073
247.2569, 1023.323
247.7390, 1022.921
248.2211, 1021.436
248.7033, 1019.079
249.1854, 1015.700
249.6675, 1012.858
250.1496, 1012.794
250.6317, 1015.033
251.1138, 1016.355
251.5960, 1015.603
252.0781, 1013.793
252.5602, 1012.212
253.0423, 1011.028
253.5244, 1009.816
254.0065, 1007.985
254.4887, 1005.813
254.9708, 1004.117
255.4529, 1003.578
255.9350, 1003.446
256.4171, 1002.573
256.8992, 1000.766
257.3813, 998.9694
257.8635, 997.9078
258.3456, 997.3146
258.8277, 996.7858
259.3098, 995.9891
259.7919, 995.3255
260.2740, 995.5453
260.7562, 996.8646
261.2383, 998.1080
261.7204, 998.8376
262.2025, 999.0203
262.6846, 998.3751
263.1667, 996.3167
263.6489, 994.0050
264.1310, 993.2552
264.6131, 994.4247
265.0952, 995.5988
265.5773, 995.9622
266.0594, 995.8834
266.5416, 995.6892
267.0237, 995.5144
267.5058, 995.1395
267.9879, 994.1409
268.4700, 992.3627
268.9521, 990.7349
269.4343, 989.3598
269.9164, 988.3947
270.3985, 988.1121
270.8806, 988.6100
271.3627, 989.4664
271.8448, 990.3525
272.3270, 991.4072
272.8091, 991.7651
273.2912, 990.9213
273.7733, 989.4503
274.2554, 987.2415
274.7375, 984.3370
275.2197, 981.8240
275.7018, 981.1841
276.1839, 982.7669
276.6660, 983.9249
277.1481, 984.1711
277.6302, 983.9529
278.1124, 982.9633
278.5945, 981.4199
279.0766, 980.4506
279.5587, 981.8527
280.0408, 986.1312
280.5229, 988.2588
281.0051, 985.1528
281.4872, 982.2451
281.9693, 982.4030
282.4514, 985.0027
282.9335, 987.3573
283.4156, 986.8100
283.8978, 983.2714
284.3799, 981.0897
284.8620, 981.2497
285.3441, 981.9053
285.8262, 982.5878
286.3083, 983.2615
286.7905, 984.0049
287.2726, 984.9377
287.7547, 986.0001
288.2368, 986.5975
288.7189, 986.3118
289.2010, 986.0176
289.6832, 985.6864
290.1653, 985.5490
290.6474, 986.0600
291.1295, 987.6151
291.6116, 989.7881
292.0938, 990.7838
292.5759, 989.7721
293.0580, 988.6855
293.5401, 987.8325
294.0222, 987.1531
294.5043, 986.5496
294.9865, 985.9746
295.4686, 985.5092
295.9507, 985.3939
296.4328, 985.9728
296.9149, 986.2875
297.3970, 986.0897
297.8792, 985.6932
298.3613, 985.1943
298.8434, 984.6657
299.3255, 984.4393
299.8076, 985.2988
300.2897, 988.3404
300.7719, 989.9105
301.2540, 988.9394
301.7361, 987.3467
302.2182, 986.2878
302.7003, 985.9682
303.1824, 985.8904
303.6646, 985.3558
304.1467, 984.0325
304.6288, 983.4898
305.1109, 984.5206
305.5930, 985.5849
306.0751, 986.0814
306.5573, 985.9552
307.0394, 985.3649
307.5215, 984.3611
308.0036, 982.8844
308.4857, 981.7844
308.9678, 981.7112
309.4500, 981.3812
309.9321, 979.9101
310.4142, 977.8970
310.8963, 976.6659
311.3784, 977.2563
311.8605, 979.3302
312.3427, 980.2076
312.8248, 978.9563
313.3069, 977.4876
313.7890, 976.0436
314.2711, 974.6282
314.7532, 973.0593
315.2354, 971.2246
315.7175, 969.4778
316.1996, 969.0222
316.6817, 971.6614
317.1638, 972.6742
317.6459, 970.4865
318.1281, 967.2203
318.6102, 964.6979
319.0923, 963.5114
319.5744, 963.1288
320.0565, 962.6777
320.5386, 961.9902
321.0208, 961.6376
321.5029, 962.0530
321.9850, 962.4418
322.4671, 962.2224
322.9492, 961.3790
323.4313, 960.3740
323.9135, 959.6864
324.3956, 959.3522
324.8777, 959.1483
325.3598, 959.2626
325.8419, 959.3246
326.3240, 959.4333
326.8062, 959.3928
327.2883, 958.7328
327.7704, 956.9323
328.2525, 954.0925
328.7346, 951.9479
329.2167, 950.9082
329.6989, 950.1779
330.1810, 949.6569
330.6631, 949.2980
331.1452, 949.0721
331.6273, 948.9713
332.1094, 948.9739
332.5916, 948.9892
333.0737, 948.8755
333.5558, 949.0526
334.0379, 950.0391
334.5200, 951.0768
335.0021, 951.2452
335.4843, 950.2795
335.9664, 949.0427
336.4485, 949.0937
336.9306, 951.0986
337.4127, 952.3829
337.8948, 952.0987
338.3770, 951.4999
338.8591, 951.2179
339.3412, 951.3487
339.8233, 951.7178
340.3055, 952.2306
340.7876, 952.9166
341.2697, 953.4059
341.7518, 953.3870
342.2339, 953.4707
342.7160, 954.0876
343.1982, 955.0106
343.6803, 955.6551
344.1624, 955.4830
344.6445, 954.7402
345.1266, 954.7463
345.6087, 956.1807
346.0909, 957.2618
346.5730, 957.0343
347.0551, 956.3030
347.5372, 956.0882
348.0193, 956.8372
348.5014, 958.1674
348.9836, 959.4807
349.4657, 960.8511
349.9478, 961.9335
350.4299, 962.6605
350.9120, 963.0504
351.3941, 962.8593
351.8763, 962.0717
352.3584, 961.4440
352.8405, 961.8495
353.3226, 963.3170
353.8047, 964.8572
354.2868, 966.8337
354.7690, 968.2983
355.2511, 968.1520
355.7332, 966.8220
356.2153, 966.0990
356.6974, 967.8552
357.1795, 971.2706
357.6617, 972.9077
358.1438, 971.8353
358.6259, 970.8282
359.1080, 971.9676
359.5901, 974.1101
360.0722, 975.3615
360.5544, 974.6205
361.0365, 973.1917
361.5186, 972.9001
362.0007, 973.8472
362.4828, 975.2370
362.9649, 977.9795
363.4471, 980.2354
363.9292, 979.3474
364.4113, 974.2872
364.8934, 969.5039
365.3755, 968.7067
365.8576, 971.3028
366.3398, 974.1766
366.8219, 977.0156
367.3040, 979.3327
367.7861, 980.1762
368.2682, 979.7296
368.7503, 980.1152
369.2325, 982.8986
369.7146, 986.8513
370.1967, 989.9229
370.6788, 991.9099
371.1609, 993.2204
371.6430, 993.7638
372.1252, 993.8372
372.6073, 994.4255
373.0894, 996.4508
373.5715, 998.3975
374.0536, 998.6371
374.5357, 997.4952
375.0179, 996.9144
375.5000, 997.8021
375.9821, 999.8987
376.4642, 1002.654
376.9463, 1006.499
377.4284, 1009.912
377.9106, 1012.187
378.3927, 1013.688
378.8748, 1015.014
379.3569, 1016.317
379.8390, 1017.481
380.3211, 1018.108
380.8033, 1017.890
381.2854, 1019.175
381.7675, 1023.457
382.2496, 1028.340
382.7317, 1032.111
383.2138, 1034.637
383.6960, 1036.418
384.1781, 1037.749
384.6602, 1038.649
385.1423, 1039.557
385.6244, 1040.927
386.1065, 1041.793
386.5887, 1041.449
387.0708, 1040.445
387.5529, 1039.598
388.0350, 1039.245
388.5171, 1039.452
388.9992, 1040.404
389.4814, 1043.373
389.9635, 1045.090
390.4456, 1045.246
390.9277, 1044.391
391.4098, 1042.400
391.8919, 1039.586
392.3741, 1037.178
392.8562, 1036.557
393.3383, 1038.015
393.8204, 1039.082
394.3025, 1039.557
394.7846, 1039.894
395.2668, 1040.414
395.7489, 1040.894
396.2310, 1040.908
396.7131, 1040.199
397.1952, 1038.874
397.6773, 1037.222
398.1595, 1034.583
398.6416, 1032.741
399.1237, 1032.160
399.6058, 1032.207
400.0879, 1032.473
400.5700, 1032.813
401.0522, 1033.111
401.5343, 1033.237
402.0164, 1033.179
402.4985, 1032.996
402.9806, 1032.767
403.4627, 1032.309
403.9449, 1031.212
404.4270, 1029.792
404.9091, 1028.896
405.3912, 1029.372
405.8733, 1030.584
406.3554, 1030.459
406.8376, 1028.553
407.3197, 1026.390
407.8018, 1024.113
408.2839, 1022.106
408.7660, 1020.909
409.2481, 1020.717
409.7303, 1020.898
410.2124, 1021.001
410.6945, 1021.005
411.1766, 1020.492
411.6587, 1018.976
412.1408, 1017.439
412.6230, 1017.223
413.1051, 1018.073
413.5872, 1017.974
414.0693, 1014.755
414.5514, 1010.559
415.0335, 1009.271
415.5157, 1011.357
415.9978, 1013.540
416.4799, 1013.789
416.9620, 1012.466
417.4441, 1010.973
417.9262, 1009.174
418.4084, 1007.449
418.8905, 1006.029
419.3726, 1004.854
419.8547, 1003.727
420.3368, 1002.535
420.8189, 1001.527
421.3011, 1001.169
421.7832, 1001.595
422.2653, 1002.075
422.7474, 1003.183
423.2295, 1003.885
423.7116, 1002.794
424.1938, 1000.108
424.6759, 997.8122
425.1580, 997.6848
425.6401, 999.5099
426.1222, 999.2003
426.6043, 993.7539
427.0865, 989.9895
427.5686, 990.7313
428.0507, 993.8012
428.5328, 996.2225
429.0149, 996.8447
429.4970, 996.3467
429.9792, 995.8863
430.4613, 995.4344
430.9434, 995.0797
431.4255, 994.6663
431.9076, 994.4610
432.3897, 994.9915
432.8719, 995.9423
433.3540, 996.3713
433.8361, 995.5211
434.3182, 993.5175
434.8003, 991.0690
435.2824, 987.0238
435.7646, 984.4305
436.2467, 984.6361
436.7288, 986.1975
437.2109, 987.7571
437.6930, 988.8965
438.1751, 989.6583
438.6573, 990.3939
439.1394, 991.2070
439.6215, 990.2451
440.1036, 985.4293
440.5857, 980.8009
441.0678, 979.3010
441.5500, 980.2802
442.0321, 981.1396
442.5142, 980.1928
442.9963, 978.4440
443.4784, 977.8156
443.9605, 978.4410
444.4427, 979.1599
444.9248, 979.4494
445.4069, 979.4496
445.8890, 979.4185
446.3711, 979.3677
446.8532, 979.2908
447.3354, 979.4566
447.8175, 979.5656
448.2996, 978.9901
448.7817, 977.5992
449.2638, 975.4020
449.7459, 971.7546
450.2281, 966.5344
450.7102, 964.1330
451.1923, 967.4383
451.6744, 971.1804
452.1565, 971.9879
452.6386, 970.4151
453.1208, 968.5211
453.6029, 967.3195
454.0850, 966.6581
454.5671, 966.1193
455.0492, 965.6708
455.5313, 965.4083
456.0135, 965.9265
456.4956, 966.2371
456.9777, 965.1858
457.4598, 962.8712
457.9419, 960.6403
458.4240, 959.8528
458.9062, 960.5416
459.3883, 960.7000
459.8704, 959.7478
460.3525, 958.8997
460.8346, 958.4489
461.3167, 958.2400
461.7989, 958.1806
462.2810, 958.2429
462.7631, 958.0847
463.2452, 956.9797
463.7273, 954.6779
464.2094, 952.9090
464.6916, 952.4806
465.1737, 952.0668
465.6558, 950.5375
466.1379, 948.2665
466.6200, 946.6722
467.1021, 946.9541
467.5843, 948.2191
468.0664, 948.6827
468.5485, 948.2646
469.0306, 947.6522
469.5127, 947.2844
469.9948, 946.8015
470.4770, 945.4709
470.9591, 942.8707
471.4412, 940.9583
471.9233, 941.0997
472.4054, 942.5027
472.8875, 943.9308
473.3697, 945.2042
473.8518, 945.9571
474.3339, 945.7636
474.8160, 944.6044
475.2981, 943.4737
475.7802, 942.3558
476.2624, 941.2813
476.7445, 940.1779
477.2266, 939.1269
477.7087, 938.2958
478.1908, 937.7419
478.6729, 937.3779
479.1551, 937.0032
479.6372, 936.2454
480.1193, 936.4079
480.6014, 938.6306
481.0835, 940.6226
481.5656, 940.8867
482.0478, 939.7867
482.5299, 938.5937
483.0120, 938.1500
483.4941, 938.2399
483.9762, 938.0510
484.4583, 937.4304
484.9405, 936.8550
485.4226, 936.7484
485.9047, 936.5084
486.3868, 935.3976
486.8689, 933.4354
487.3510, 931.7278
487.8332, 931.3036
488.3153, 931.9568
488.7974, 932.8492
489.2795, 934.2996
489.7616, 935.1153
490.2437, 933.9008
490.7259, 931.7201
491.2080, 930.1885
491.6901, 929.8480
492.1722, 929.6962
492.6543, 928.8744
493.1364, 927.6603
493.6186, 926.8140
494.1007, 926.4941
494.5828, 926.7443
495.0649, 927.9724
495.5470, 930.3487
496.0291, 931.2272
496.5113, 929.3867
496.9934, 927.0911
497.4755, 925.5866
497.9576, 924.6965
498.4397, 923.8309
498.9218, 922.7184
499.4040, 921.4322
499.8861, 920.1346
500.3682, 918.7366
500.8503, 917.5185
501.3324, 916.3781
501.8145, 915.4723
502.2967, 915.1578
502.7788, 915.1949
503.2609, 914.8738
503.7430, 913.6435
504.2251, 911.7369
504.7072, 910.0253
505.1894, 908.4160
505.6715, 907.2089
506.1536, 907.0491
506.6357, 906.9374
507.1178, 905.9156
507.5999, 903.9205
508.0821, 902.0050
508.5642, 901.0522
509.0463, 900.7815
509.5284, 900.3373
510.0105, 899.6295
510.4926, 898.9775
510.9748, 898.7816
511.4569, 898.7239
511.9390, 897.9979
512.4211, 896.0190
512.9032, 894.3708
513.3853, 894.1564
513.8674, 894.7009
514.3495, 895.0170
514.8317, 894.8787
515.3138, 894.0421
515.7959, 892.0882
516.2780, 888.8793
516.7601, 886.5416
517.2422, 885.5618
517.7244, 884.7414
518.2065, 884.0280
518.6886, 883.1070
519.1707, 881.2313
519.6528, 878.2267
520.1349, 875.2803
520.6171, 874.4548
521.0992, 876.4929
521.5813, 877.6484
522.0634, 877.5107
522.5455, 876.8390
523.0276, 875.5484
523.5098, 873.9693
523.9919, 872.6965
524.4740, 872.0480
524.9561, 871.6318
525.4382, 870.7513
525.9203, 869.3947
526.4025, 868.4850
526.8846, 868.5013
527.3667, 868.6761
527.8488, 868.1843
528.3309, 867.1328
528.8130, 866.2126
529.2952, 865.9720
529.7773, 865.6793
530.2594, 864.3874
530.7415, 862.3466
531.2236, 860.7565
531.7057, 860.1942
532.1879, 860.2223
532.6700, 859.9770
533.1521, 859.0956
533.6342, 858.8144
534.1163, 859.9188
534.5984, 860.9830
535.0806, 860.9063
535.5627, 859.9510
536.0448, 859.0439
536.5269, 858.7479
537.0090, 858.9363
537.4911, 859.3274
537.9733, 860.3360
538.4554, 860.6120
538.9375, 859.1561
539.4196, 857.6484
539.9017, 857.2241
540.3839, 857.7663
540.8660, 858.3716
541.3481, 858.6142
541.8302, 858.4485
542.3123, 857.5022
542.7944, 855.6246
543.2766, 854.3902
543.7587, 854.8591
544.2408, 855.9445
544.7229, 856.0208
545.2050, 854.9901
545.6871, 853.9515
546.1693, 853.1330
546.6514, 852.5880
547.1335, 852.6018
547.6156, 853.0527
548.0977, 853.1503
548.5798, 852.3486
549.0620, 850.9403
549.5441, 849.9260
550.0262, 849.1050
550.5083, 848.9954
550.9904, 850.3989
551.4725, 851.8980
551.9547, 852.4267
552.4368, 851.9968
552.9189, 851.2255
553.4010, 850.5763
553.8831, 849.9388
554.3652, 848.4786
554.8474, 844.8995
555.3295, 843.8116
555.8116, 850.4083
556.2937, 857.1588
556.7758, 857.9743
557.2579, 852.8124
557.7401, 847.0624
558.2222, 843.3522
558.7043, 841.2869
559.1864, 840.5815
559.6685, 841.2348
560.1506, 841.5706
560.6328, 840.6800
561.1149, 839.0634
561.5970, 837.7422
562.0791, 836.6992
562.5612, 835.9092
563.0433, 835.8541
563.5255, 835.6830
564.0076, 834.3044
564.4897, 832.0228
564.9718, 830.2227
565.4539, 829.8130
565.9360, 830.4541
566.4182, 830.9905
566.9003, 831.1885
567.3824, 831.7601
567.8645, 833.9742
568.3466, 835.5273
568.8287, 834.2619
569.3109, 830.8620
569.7930, 828.0853
570.2751, 827.9052
570.7572, 829.1292
571.2393, 829.2793
571.7214, 828.2910
572.2036, 827.0179
572.6857, 825.5995
573.1678, 824.1478
573.6499, 822.6766
574.1320, 821.1885
574.6141, 820.1031
575.0963, 819.9332
575.5784, 819.8973
576.0605, 819.3927
576.5426, 818.4393
577.0247, 817.1989
577.5068, 815.7423
577.9890, 814.0705
578.4711, 812.1494
578.9532, 809.7524
579.4353, 807.7053
579.9174, 805.4254
580.3995, 804.0197
580.8817, 804.8178
581.3638, 806.7549
581.8459, 807.8090
582.3280, 806.9930
582.8101, 805.1749
583.2922, 803.6199
583.7744, 802.3305
584.2565, 801.3307
584.7386, 800.7468
585.2207, 800.2664
585.7029, 799.3033
586.1850, 798.2506
586.6671, 798.2582
587.1492, 800.5549
587.6313, 802.6949
588.1135, 802.0297
