##NAMES=Jerrygibbsite
##RRUFFID=R070726
##IDEAL CHEMISTRY=Mn^2+^_9_(SiO_4_)_4_(OH)_2_
##LOCALITY=Parker Shaft, Franklin Mine, Franklin, Franklin Mining District, Sussex County, New Jersey, USA
##OWNER=RRUFF
##SOURCE=Michael Scott
##DESCRIPTION=Pale pink interlocking anhedral grains associated with zincite, franklinite, and hodgkinsonite.
##STATUS=The identification of this mineral is not yet confirmed.
##URL=rruff.info/R070726
80.59375, 2010.505
81.07587, 1989.400
81.55798, 1985.185
82.04010, 1994.554
82.52222, 2003.234
83.00433, 2011.586
83.48645, 2015.887
83.96857, 2013.237
84.45068, 1996.951
84.93280, 1978.259
85.41492, 1958.905
85.89703, 1937.821
86.37915, 1925.871
86.86127, 1939.794
87.34338, 1966.911
87.82550, 1984.126
88.30762, 1967.348
88.78973, 1940.499
89.27185, 1928.575
89.75397, 1942.626
90.23608, 1963.245
90.71820, 1970.192
91.20031, 1964.997
91.68243, 1959.297
92.16454, 1962.401
92.64666, 1971.898
93.12878, 1981.724
93.61089, 1983.936
94.09301, 1985.502
94.57513, 2003.930
95.05724, 2041.136
95.53936, 2088.704
96.02148, 2140.651
96.50359, 2196.746
96.98571, 2249.458
97.46783, 2287.110
97.94994, 2311.433
98.43206, 2355.188
98.91418, 2426.825
99.39629, 2516.843
99.87841, 2594.019
100.3605, 2652.625
100.8426, 2712.945
101.3248, 2793.969
101.8069, 2901.756
102.2890, 3010.001
102.7711, 3111.737
103.2532, 3206.184
103.7353, 3308.849
104.2175, 3419.956
104.6996, 3540.311
105.1817, 3674.590
105.6638, 3824.981
106.1459, 3984.815
106.6280, 4149.534
107.1102, 4308.407
107.5923, 4489.287
108.0744, 4697.764
108.5565, 4932.549
109.0386, 5168.848
109.5207, 5407.338
110.0029, 5648.923
110.4850, 5893.700
110.9671, 6155.885
111.4492, 6410.309
111.9313, 6653.635
112.4134, 6887.555
112.8956, 7113.363
113.3777, 7325.559
113.8598, 7530.187
114.3419, 7738.304
114.8240, 7935.196
115.3061, 8147.798
115.7883, 8386.958
116.2704, 8668.185
116.7525, 8958.378
117.2346, 9258.274
117.7167, 9561.404
118.1988, 9845.034
118.6810, 10076.80
119.1631, 10297.42
119.6452, 10541.93
120.1273, 10853.88
120.6094, 11171.57
121.0915, 11456.97
121.5737, 11709.74
122.0558, 11949.27
122.5379, 12206.94
123.0200, 12460.04
123.5021, 12667.60
123.9842, 12769.28
124.4664, 12830.61
124.9485, 12935.36
125.4306, 13105.02
125.9127, 13281.75
126.3948, 13390.48
126.8769, 13445.84
127.3591, 13518.53
127.8412, 13671.13
128.3233, 13876.61
128.8054, 14066.44
129.2875, 14209.68
129.7696, 14324.78
130.2518, 14460.49
130.7339, 14634.52
131.2160, 14809.67
131.6981, 14900.14
132.1802, 14915.65
132.6623, 14939.37
133.1445, 15001.36
133.6266, 15096.76
134.1087, 15198.64
134.5908, 15311.73
135.0729, 15420.21
135.5550, 15489.66
136.0372, 15513.32
136.5193, 15544.09
137.0014, 15614.74
137.4835, 15727.97
137.9656, 15835.09
138.4477, 15937.74
138.9299, 16029.55
139.4120, 16080.24
139.8941, 16067.59
140.3762, 16062.94
140.8583, 16134.33
141.3404, 16315.53
141.8226, 16468.30
142.3047, 16586.31
142.7868, 16672.40
143.2689, 16628.13
143.7510, 16373.93
144.2331, 16059.84
144.7152, 15883.28
145.1974, 15916.59
145.6795, 15970.77
146.1616, 15993.55
146.6437, 15974.60
147.1258, 15949.75
147.6079, 15912.14
148.0901, 15868.46
148.5722, 15838.72
149.0543, 15833.87
149.5364, 15832.36
150.0185, 15824.79
150.5006, 15801.76
150.9828, 15783.35
151.4649, 15771.15
151.9470, 15764.59
152.4291, 15758.87
152.9112, 15750.67
153.3933, 15744.45
153.8755, 15743.22
154.3576, 15755.46
154.8397, 15764.22
155.3218, 15769.03
155.8039, 15771.52
156.2860, 15757.16
156.7682, 15712.12
157.2503, 15651.92
157.7324, 15595.50
158.2145, 15511.88
158.6966, 15460.78
159.1787, 15483.13
159.6609, 15638.85
160.1430, 15743.28
160.6251, 15704.10
161.1072, 15570.56
161.5893, 15454.87
162.0714, 15408.19
162.5536, 15388.95
163.0357, 15369.53
163.5178, 15343.59
163.9999, 15316.36
164.4820, 15282.81
164.9641, 15246.04
165.4463, 15227.05
165.9284, 15252.69
166.4105, 15296.01
166.8926, 15327.91
167.3747, 15324.95
167.8568, 15315.78
168.3390, 15320.34
168.8211, 15339.69
169.3032, 15360.08
169.7853, 15377.75
170.2674, 15389.80
170.7495, 15391.31
171.2317, 15367.29
171.7138, 15337.62
172.1959, 15324.14
172.6780, 15332.66
173.1601, 15346.06
173.6422, 15349.32
174.1244, 15345.43
174.6065, 15343.52
175.0886, 15354.02
175.5707, 15368.90
176.0528, 15373.98
176.5349, 15358.27
177.0171, 15343.31
177.4992, 15359.74
177.9813, 15403.98
178.4634, 15448.16
178.9455, 15479.48
179.4276, 15494.44
179.9098, 15484.32
180.3919, 15424.14
180.8740, 15348.21
181.3561, 15318.13
181.8382, 15335.71
182.3203, 15363.95
182.8025, 15361.53
183.2846, 15336.80
183.7667, 15323.17
184.2488, 15354.84
184.7309, 15409.82
185.2130, 15418.61
185.6951, 15374.23
186.1773, 15310.67
186.6594, 15260.47
187.1415, 15225.36
187.6236, 15218.18
188.1057, 15270.63
188.5878, 15364.99
189.0700, 15413.62
189.5521, 15398.23
190.0342, 15348.93
190.5163, 15317.36
190.9984, 15303.73
191.4805, 15295.05
191.9627, 15274.56
192.4448, 15244.59
192.9269, 15244.18
193.4090, 15295.35
193.8911, 15370.91
194.3732, 15378.46
194.8554, 15307.58
195.3375, 15228.94
195.8196, 15217.59
196.3017, 15275.62
196.7838, 15317.98
197.2659, 15321.12
197.7481, 15290.54
198.2302, 15254.81
198.7123, 15209.30
199.1944, 15173.25
199.6765, 15168.30
200.1586, 15195.34
200.6408, 15248.86
201.1229, 15352.31
201.6050, 15506.79
202.0871, 15567.29
202.5692, 15511.02
203.0513, 15395.38
203.5335, 15307.13
204.0156, 15244.89
204.4977, 15213.78
204.9798, 15229.69
205.4619, 15303.04
205.9440, 15340.84
206.4262, 15328.60
206.9083, 15287.08
207.3904, 15272.15
207.8725, 15293.59
208.3546, 15313.78
208.8367, 15308.07
209.3189, 15268.95
209.8010, 15234.07
210.2831, 15205.46
210.7652, 15183.42
211.2473, 15169.67
211.7294, 15165.88
212.2116, 15167.97
212.6937, 15175.78
213.1758, 15194.76
213.6579, 15203.25
214.1400, 15195.06
214.6221, 15172.13
215.1043, 15157.05
215.5864, 15149.36
216.0685, 15151.02
216.5506, 15168.31
217.0327, 15213.75
217.5148, 15242.56
217.9970, 15234.68
218.4791, 15185.55
218.9612, 15179.24
219.4433, 15237.46
219.9254, 15315.55
220.4075, 15351.37
220.8897, 15320.99
221.3718, 15295.65
221.8539, 15299.81
222.3360, 15342.06
222.8181, 15370.16
223.3002, 15380.25
223.7824, 15378.02
224.2645, 15371.06
224.7466, 15350.24
225.2287, 15340.81
225.7108, 15357.44
226.1929, 15418.63
226.6750, 15452.40
227.1572, 15440.13
227.6393, 15406.06
228.1214, 15418.57
228.6035, 15513.76
229.0856, 15601.76
229.5677, 15633.20
230.0499, 15571.73
230.5320, 15536.66
231.0141, 15540.24
231.4962, 15573.99
231.9783, 15604.87
232.4604, 15633.15
232.9426, 15657.46
233.4247, 15679.61
233.9068, 15710.23
234.3889, 15714.11
234.8710, 15673.87
235.3531, 15597.19
235.8353, 15558.74
236.3174, 15578.54
236.7995, 15614.29
237.2816, 15633.37
237.7637, 15622.72
238.2458, 15621.63
238.7280, 15640.94
239.2101, 15680.17
239.6922, 15703.05
240.1743, 15703.56
240.6564, 15693.60
241.1385, 15680.99
241.6207, 15650.51
242.1028, 15644.95
242.5849, 15682.12
243.0670, 15767.56
243.5491, 15823.80
244.0313, 15842.09
244.5134, 15838.53
244.9955, 15829.45
245.4776, 15806.65
245.9597, 15792.97
246.4418, 15797.40
246.9240, 15825.20
247.4061, 15840.15
247.8882, 15834.19
248.3703, 15821.28
248.8524, 15824.19
249.3345, 15859.63
249.8167, 15881.63
250.2988, 15869.73
250.7809, 15807.31
251.2630, 15779.46
251.7451, 15805.97
252.2272, 15855.23
252.7094, 15867.42
253.1915, 15819.01
253.6736, 15773.10
254.1557, 15754.74
254.6378, 15775.69
255.1199, 15785.54
255.6021, 15776.24
256.0842, 15759.67
256.5663, 15764.69
257.0484, 15806.18
257.5305, 15843.67
258.0126, 15858.54
258.4948, 15842.93
258.9769, 15828.31
259.4590, 15817.53
259.9411, 15807.44
260.4232, 15787.29
260.9053, 15751.19
261.3875, 15716.22
261.8696, 15687.80
262.3517, 15661.51
262.8338, 15659.50
263.3159, 15691.44
263.7980, 15746.38
264.2802, 15788.18
264.7623, 15818.71
265.2444, 15832.46
265.7265, 15818.92
266.2086, 15764.58
266.6907, 15732.55
267.1729, 15731.51
267.6550, 15755.60
268.1371, 15785.10
268.6192, 15820.81
269.1013, 15858.73
269.5834, 15903.85
270.0656, 15965.51
270.5477, 15984.75
271.0298, 15938.21
271.5119, 15846.34
271.9940, 15796.79
272.4761, 15798.01
272.9583, 15821.69
273.4404, 15858.38
273.9225, 15917.06
274.4046, 15934.86
274.8867, 15887.49
275.3688, 15794.66
275.8510, 15748.88
276.3331, 15761.59
276.8152, 15788.35
277.2973, 15791.73
277.7794, 15769.20
278.2615, 15747.25
278.7437, 15729.53
279.2258, 15716.40
279.7079, 15708.54
280.1900, 15705.16
280.6721, 15710.28
281.1542, 15735.67
281.6364, 15783.13
282.1185, 15811.12
282.6006, 15806.17
283.0827, 15776.23
283.5648, 15748.76
284.0469, 15722.18
284.5291, 15706.72
285.0112, 15719.49
285.4933, 15759.34
285.9754, 15790.75
286.4575, 15804.48
286.9396, 15802.71
287.4217, 15787.53
287.9038, 15756.36
288.3860, 15727.86
288.8681, 15725.27
289.3502, 15745.19
289.8323, 15758.75
290.3144, 15755.82
290.7965, 15740.94
291.2787, 15724.79
291.7608, 15706.92
292.2429, 15691.77
292.7250, 15691.76
293.2071, 15701.66
293.6892, 15692.33
294.1714, 15632.37
294.6535, 15557.40
295.1356, 15558.07
295.6177, 15637.90
296.0998, 15726.40
296.5819, 15759.98
297.0641, 15749.02
297.5462, 15726.33
298.0283, 15696.10
298.5104, 15664.68
298.9925, 15643.10
299.4746, 15631.32
299.9568, 15622.87
300.4389, 15604.20
300.9210, 15583.79
301.4031, 15581.43
301.8852, 15612.30
302.3673, 15659.62
302.8495, 15714.29
303.3316, 15774.87
303.8137, 15810.19
304.2958, 15764.73
304.7779, 15678.13
305.2600, 15622.31
305.7422, 15652.55
306.2243, 15707.09
306.7064, 15720.24
307.1885, 15694.27
307.6706, 15671.70
308.1527, 15697.65
308.6349, 15742.61
309.1170, 15765.20
309.5991, 15724.29
310.0812, 15675.05
310.5633, 15659.73
311.0454, 15676.83
311.5276, 15699.70
312.0097, 15723.14
312.4918, 15740.15
312.9739, 15743.02
313.4560, 15709.24
313.9381, 15676.90
314.4203, 15668.21
314.9024, 15681.79
315.3845, 15701.63
315.8666, 15734.11
316.3487, 15763.21
316.8308, 15773.75
317.3130, 15743.87
317.7951, 15710.33
318.2772, 15683.30
318.7593, 15663.20
319.2414, 15654.91
319.7235, 15678.34
320.2057, 15704.95
320.6878, 15712.20
321.1699, 15670.47
321.6520, 15633.99
322.1341, 15620.97
322.6162, 15629.04
323.0984, 15632.57
323.5805, 15626.55
324.0626, 15614.92
324.5447, 15600.34
325.0268, 15552.93
325.5089, 15535.96
325.9911, 15577.18
326.4732, 15669.00
326.9553, 15734.52
327.4374, 15768.68
327.9195, 15774.99
328.4016, 15755.34
328.8838, 15664.69
329.3659, 15603.62
329.8480, 15589.33
330.3301, 15613.81
330.8122, 15627.39
331.2943, 15621.05
331.7765, 15612.43
332.2586, 15611.25
332.7407, 15620.14
333.2228, 15633.24
333.7049, 15659.42
334.1870, 15690.48
334.6692, 15688.57
335.1513, 15633.89
335.6334, 15578.88
336.1155, 15558.04
336.5976, 15590.00
337.0797, 15595.53
337.5619, 15562.65
338.0440, 15503.85
338.5261, 15452.92
339.0082, 15407.53
339.4903, 15376.33
339.9724, 15369.15
340.4546, 15389.26
340.9367, 15403.35
341.4188, 15410.33
341.9009, 15409.87
342.3830, 15396.95
342.8651, 15369.85
343.3473, 15349.26
343.8294, 15353.31
344.3115, 15379.55
344.7936, 15390.45
345.2757, 15382.50
345.7578, 15364.41
346.2400, 15339.41
346.7221, 15309.62
347.2042, 15302.29
347.6863, 15355.44
348.1684, 15443.96
348.6505, 15474.86
349.1327, 15433.29
349.6148, 15383.51
350.0969, 15424.53
350.5790, 15530.64
351.0611, 15603.63
351.5432, 15553.54
352.0254, 15454.45
352.5075, 15434.15
352.9896, 15503.86
353.4717, 15582.92
353.9538, 15603.64
354.4359, 15580.03
354.9181, 15538.46
355.4002, 15454.84
355.8823, 15380.69
356.3644, 15382.55
356.8465, 15462.18
357.3286, 15528.72
357.8108, 15504.22
358.2929, 15437.39
358.7750, 15391.49
359.2571, 15406.03
359.7392, 15434.18
360.2213, 15455.25
360.7035, 15468.71
361.1856, 15472.91
361.6677, 15459.21
362.1498, 15439.39
362.6319, 15423.49
363.1140, 15400.43
363.5962, 15395.01
364.0783, 15429.25
364.5604, 15495.39
365.0425, 15539.49
365.5246, 15539.04
366.0067, 15519.06
366.4889, 15495.15
366.9710, 15452.87
367.4531, 15425.81
367.9352, 15416.35
368.4173, 15424.34
368.8994, 15449.65
369.3815, 15517.22
369.8636, 15580.22
370.3458, 15617.80
370.8279, 15619.27
371.3100, 15612.59
371.7921, 15583.16
372.2742, 15548.55
372.7563, 15557.36
373.2385, 15640.17
373.7206, 15715.40
374.2027, 15742.23
374.6848, 15699.85
375.1669, 15698.17
375.6490, 15753.64
376.1312, 15832.59
376.6133, 15878.69
377.0954, 15885.01
377.5775, 15886.48
378.0596, 15892.24
378.5417, 15902.58
379.0239, 15933.19
379.5060, 15989.98
379.9881, 16048.96
380.4702, 16073.99
380.9523, 16066.64
381.4344, 16064.83
381.9166, 16079.86
382.3987, 16109.74
382.8808, 16156.41
383.3629, 16220.68
383.8450, 16279.60
384.3271, 16306.98
384.8093, 16309.95
385.2914, 16308.95
385.7735, 16303.80
386.2556, 16303.17
386.7377, 16329.15
387.2198, 16377.11
387.7020, 16412.78
388.1841, 16396.97
388.6662, 16358.61
389.1483, 16337.41
389.6304, 16351.75
390.1125, 16372.67
390.5947, 16383.66
391.0768, 16385.07
391.5589, 16376.81
392.0410, 16339.99
392.5231, 16305.76
393.0052, 16302.02
393.4874, 16351.07
393.9695, 16387.10
394.4516, 16378.74
394.9337, 16340.54
395.4158, 16299.28
395.8979, 16254.72
396.3801, 16214.20
396.8622, 16181.28
397.3443, 16157.29
397.8264, 16135.39
398.3085, 16111.78
398.7906, 16090.54
399.2728, 16077.19
399.7549, 16095.80
400.2370, 16094.99
400.7191, 16052.55
401.2012, 15963.20
401.6833, 15916.48
402.1655, 15934.42
402.6476, 15974.29
403.1297, 16003.14
403.6118, 16026.11
404.0939, 16024.12
404.5760, 15983.55
405.0582, 15914.98
405.5403, 15881.51
406.0224, 15895.21
406.5045, 15909.58
406.9866, 15883.70
407.4688, 15813.62
407.9509, 15772.71
408.4330, 15776.61
408.9151, 15801.36
409.3972, 15789.26
409.8793, 15740.25
410.3615, 15704.35
410.8436, 15726.33
411.3257, 15786.06
411.8078, 15812.99
412.2899, 15799.77
412.7720, 15767.84
413.2542, 15729.59
413.7363, 15691.57
414.2184, 15672.44
414.7005, 15702.46
415.1826, 15745.49
415.6647, 15759.08
416.1469, 15741.64
416.6290, 15710.47
417.1111, 15661.80
417.5932, 15610.74
418.0753, 15578.53
418.5574, 15576.05
419.0396, 15589.40
419.5217, 15625.68
420.0038, 15678.41
420.4859, 15707.61
420.9680, 15685.88
421.4501, 15642.13
421.9323, 15595.48
422.4144, 15527.85
422.8965, 15486.78
423.3786, 15503.80
423.8607, 15556.39
424.3428, 15579.16
424.8250, 15536.41
425.3071, 15491.35
425.7892, 15467.37
426.2713, 15475.09
426.7534, 15474.65
427.2355, 15459.22
427.7177, 15439.61
428.1998, 15432.44
428.6819, 15442.04
429.1640, 15452.57
429.6461, 15457.71
430.1282, 15457.23
430.6104, 15469.82
431.0925, 15502.05
431.5746, 15528.62
432.0567, 15513.20
432.5388, 15453.76
433.0209, 15419.99
433.5031, 15435.36
433.9852, 15478.28
434.4673, 15498.13
434.9494, 15495.42
435.4315, 15480.57
435.9136, 15454.22
436.3958, 15422.07
436.8779, 15398.35
437.3600, 15386.51
437.8421, 15381.52
438.3242, 15376.00
438.8063, 15372.71
439.2885, 15379.05
439.7706, 15419.31
440.2527, 15458.73
440.7348, 15458.62
441.2169, 15412.01
441.6990, 15367.11
442.1812, 15358.10
442.6633, 15363.05
443.1454, 15355.73
443.6275, 15295.12
444.1096, 15252.14
444.5917, 15269.22
445.0739, 15340.54
445.5560, 15380.75
446.0381, 15334.23
446.5202, 15277.64
447.0023, 15256.23
447.4844, 15322.53
447.9666, 15360.32
448.4487, 15358.10
448.9308, 15328.00
449.4129, 15300.40
449.8950, 15270.53
450.3771, 15252.53
450.8593, 15256.86
451.3413, 15290.31
451.8235, 15305.50
452.3056, 15297.22
452.7877, 15279.11
453.2698, 15267.83
453.7519, 15263.59
454.2340, 15264.90
454.7162, 15274.42
455.1983, 15288.36
455.6804, 15290.43
456.1625, 15279.72
456.6446, 15271.67
457.1267, 15291.36
457.6089, 15324.50
458.0910, 15327.98
458.5731, 15279.67
459.0552, 15222.63
459.5373, 15211.57
460.0194, 15236.15
460.5016, 15261.89
460.9837, 15229.36
461.4658, 15285.83
461.9479, 15315.71
462.4300, 15320.45
462.9121, 15224.72
463.3943, 15258.72
463.8764, 15240.73
464.3585, 15220.61
464.8406, 15272.88
465.3227, 15191.76
465.8048, 15242.88
466.2870, 15241.21
466.7691, 15263.70
467.2512, 15233.87
467.7333, 15220.21
468.2154, 15258.87
468.6975, 15268.56
469.1797, 15232.71
469.6618, 15256.74
470.1439, 15173.79
470.6260, 15184.71
471.1081, 15236.14
471.5902, 15202.92
472.0724, 15227.90
472.5545, 15230.72
473.0366, 15132.81
473.5187, 15210.07
474.0008, 15211.58
474.4829, 15135.30
474.9651, 15147.22
475.4472, 15137.63
475.9293, 15130.48
476.4114, 15126.51
476.8935, 15129.86
477.3756, 15140.01
477.8578, 15147.77
478.3399, 15142.01
478.8220, 15131.23
479.3041, 15129.38
479.7862, 15143.09
480.2683, 15156.58
480.7505, 15108.29
481.2326, 15168.63
481.7147, 15202.39
482.1968, 15211.00
482.6789, 15119.14
483.1610, 15157.02
483.6432, 15142.90
484.1253, 15126.65
484.6074, 15182.79
485.0895, 15105.54
485.5716, 15160.53
486.0537, 15162.74
486.5359, 15189.10
487.0180, 15163.15
487.5001, 15153.35
487.9822, 15195.89
488.4643, 15209.45
488.9464, 15177.48
489.4286, 15205.37
489.9107, 15126.30
490.3928, 15141.09
490.8749, 15196.39
491.3570, 15167.05
491.8391, 15195.90
492.3213, 15202.59
492.8034, 15108.55
493.2855, 15189.69
493.7676, 15195.07
494.2497, 15122.66
494.7318, 15197.80
495.2140, 15136.11
495.6961, 15123.26
496.1782, 15147.17
496.6603, 15132.76
497.1424, 15178.76
497.6245, 15166.56
498.1067, 15149.16
498.5888, 15154.46
499.0709, 15138.82
499.5530, 15155.74
500.0351, 15134.54
500.5172, 15153.84
500.9994, 15182.33
501.4815, 15154.33
501.9636, 15134.03
502.4457, 15103.17
502.9278, 15086.70
503.4099, 15102.11
503.8921, 15112.33
504.3742, 15116.41
504.8563, 15113.86
505.3384, 15099.05
505.8205, 15062.84
506.3026, 15033.66
506.7848, 15026.82
507.2669, 15045.40
507.7490, 15070.76
508.2311, 15108.24
508.7132, 15141.38
509.1953, 15144.00
509.6775, 15118.59
510.1596, 15093.20
510.6417, 15075.43
511.1238, 15063.81
511.6059, 15051.85
512.0880, 15040.31
512.5701, 15042.30
513.0522, 15082.29
513.5344, 15134.52
514.0165, 15165.38
514.4986, 15164.44
514.9807, 15154.20
515.4628, 15143.22
515.9449, 15133.30
516.4271, 15127.61
516.9092, 15138.96
517.3913, 15144.31
517.8734, 15127.40
518.3555, 15086.61
518.8376, 15067.41
519.3198, 15119.70
519.8019, 15163.58
520.2840, 15144.64
520.7661, 15001.57
521.2482, 14919.86
521.7303, 14928.91
522.2125, 14991.40
522.6946, 15024.71
523.1767, 15024.28
523.6588, 15014.01
524.1409, 14997.80
524.6230, 14978.09
525.1052, 14976.05
525.5873, 14993.96
526.0694, 15011.55
526.5515, 14996.02
527.0336, 14963.24
527.5157, 14965.27
527.9979, 15034.90
528.4800, 15107.56
528.9621, 15102.77
529.4442, 15042.05
529.9263, 14988.80
530.4084, 14982.69
530.8906, 14991.10
531.3727, 14989.19
531.8548, 14971.97
532.3369, 14967.13
532.8190, 15005.15
533.3011, 15048.85
533.7833, 15063.86
534.2654, 14997.40
534.7475, 14960.60
535.2296, 14978.44
535.7117, 15033.92
536.1938, 15068.80
536.6760, 15083.10
537.1581, 15077.76
537.6402, 15042.96
538.1223, 14973.91
538.6044, 14946.93
539.0865, 14970.98
539.5687, 15010.91
540.0508, 15023.75
540.5329, 15013.98
541.0150, 15013.67
541.4971, 15038.20
541.9792, 15067.34
542.4614, 15063.13
542.9435, 15032.28
543.4256, 15005.84
543.9077, 15009.45
544.3898, 15022.35
544.8719, 15023.51
545.3541, 15009.21
545.8362, 14994.60
546.3183, 14980.57
546.8004, 14972.34
547.2825, 14975.46
547.7646, 15010.53
548.2468, 15035.16
548.7289, 15035.59
549.2110, 15017.42
549.6931, 15004.57
550.1752, 14994.62
550.6573, 14993.16
551.1395, 15003.63
551.6216, 15027.85
552.1037, 15056.58
552.5858, 15094.94
553.0679, 15127.48
553.5500, 15130.83
554.0322, 15106.44
554.5143, 15088.19
554.9964, 15086.11
555.4785, 15092.11
555.9606, 15092.80
556.4427, 15088.74
556.9249, 15082.51
557.4070, 15071.32
557.8891, 15060.94
558.3712, 15054.66
558.8533, 15051.64
559.3354, 15064.07
559.8176, 15116.18
560.2997, 15179.20
560.7818, 15223.73
561.2639, 15215.07
561.7460, 15216.67
562.2281, 15252.51
562.7103, 15310.56
563.1924, 15344.05
563.6745, 15328.57
564.1566, 15320.54
564.6387, 15343.43
565.1208, 15401.92
565.6030, 15447.06
566.0851, 15476.14
566.5672, 15498.15
567.0493, 15524.05
567.5314, 15553.05
568.0135, 15569.27
568.4957, 15562.99
568.9778, 15554.81
569.4599, 15587.86
569.9420, 15652.37
570.4241, 15705.18
570.9063, 15713.12
571.3884, 15704.60
571.8705, 15706.74
572.3526, 15720.73
572.8347, 15740.51
573.3168, 15775.96
573.7990, 15808.44
574.2811, 15821.86
574.7632, 15810.08
575.2453, 15783.33
575.7274, 15727.52
576.2095, 15659.81
