##NAMES=Jerrygibbsite
##RRUFFID=R070726
##IDEAL CHEMISTRY=Mn^2+^_9_(SiO_4_)_4_(OH)_2_
##LOCALITY=Parker Shaft, Franklin Mine, Franklin, Franklin Mining District, Sussex County, New Jersey, USA
##OWNER=RRUFF
##SOURCE=Michael Scott
##DESCRIPTION=Pale pink interlocking anhedral grains associated with zincite, franklinite, and hodgkinsonite.
##STATUS=The identification of this mineral is not yet confirmed.
##URL=rruff.info/R070726
89.15009, 8150.953
89.63220, 8241.162
90.11432, 8299.129
90.59644, 8367.967
91.07855, 8454.598
91.56067, 8544.690
92.04279, 8636.956
92.52490, 8728.650
93.00702, 8809.442
93.48914, 8859.063
93.97125, 8839.948
94.45337, 8823.397
94.93549, 8756.106
95.41760, 8656.773
95.89972, 8548.969
96.38184, 8411.348
96.86395, 8258.534
97.34607, 8132.865
97.82819, 8033.126
98.31030, 7952.132
98.79242, 7886.417
99.27454, 7834.887
99.75665, 7796.526
100.2388, 7785.703
100.7209, 7785.067
101.2030, 7763.778
101.6851, 7697.083
102.1672, 7606.692
102.6494, 7540.966
103.1315, 7509.854
103.6136, 7485.743
104.0957, 7446.565
104.5778, 7399.411
105.0599, 7362.127
105.5421, 7352.525
106.0242, 7373.666
106.5063, 7389.906
106.9884, 7402.104
107.4705, 7407.794
107.9526, 7408.771
108.4348, 7403.672
108.9169, 7386.473
109.3990, 7344.973
109.8811, 7248.720
110.3632, 7178.768
110.8453, 7147.203
111.3275, 7133.838
111.8096, 7120.544
112.2917, 7099.443
112.7738, 7074.733
113.2559, 7062.739
113.7380, 7077.096
114.2202, 7087.755
114.7023, 7086.583
115.1844, 7076.780
115.6665, 7065.621
116.1486, 7057.069
116.6307, 7051.448
117.1129, 7048.681
117.5950, 7046.597
118.0771, 7048.431
118.5592, 7060.732
119.0413, 7084.582
119.5234, 7104.751
120.0056, 7104.953
120.4877, 7090.332
120.9698, 7073.251
121.4519, 7049.556
121.9340, 7026.068
122.4161, 7021.598
122.8982, 7049.104
123.3804, 7079.265
123.8625, 7086.137
124.3446, 7074.522
124.8267, 7068.033
125.3088, 7094.778
125.7909, 7159.156
126.2731, 7196.068
126.7552, 7157.750
127.2373, 7116.024
127.7194, 7109.193
128.2015, 7142.798
128.6837, 7191.389
129.1658, 7216.279
129.6479, 7201.756
130.1300, 7193.058
130.6121, 7193.175
131.0942, 7199.840
131.5764, 7214.177
132.0585, 7236.587
132.5406, 7262.203
133.0227, 7273.401
133.5048, 7249.232
133.9869, 7232.583
134.4691, 7230.599
134.9512, 7239.378
135.4333, 7252.736
135.9154, 7267.379
136.3975, 7283.066
136.8796, 7295.577
137.3618, 7300.624
137.8439, 7307.085
138.3260, 7317.698
138.8081, 7333.073
139.2902, 7356.231
139.7723, 7397.873
140.2545, 7455.738
140.7366, 7479.593
141.2187, 7444.649
141.7008, 7384.311
142.1829, 7332.162
142.6650, 7292.233
143.1472, 7261.404
143.6293, 7240.497
144.1114, 7227.413
144.5935, 7212.744
145.0756, 7188.755
145.5577, 7159.429
146.0399, 7139.283
146.5220, 7137.963
147.0041, 7137.610
147.4862, 7122.528
147.9683, 7093.304
148.4504, 7062.729
148.9326, 7046.732
149.4147, 7048.130
149.8968, 7033.139
150.3789, 6974.517
150.8610, 6910.084
151.3431, 6859.210
151.8252, 6826.348
152.3074, 6804.248
152.7895, 6783.292
153.2716, 6765.671
153.7537, 6744.009
154.2358, 6711.164
154.7179, 6677.500
155.2001, 6654.090
155.6822, 6645.676
156.1643, 6645.350
156.6464, 6631.875
157.1285, 6596.189
157.6106, 6555.385
158.0928, 6499.238
158.5749, 6441.314
159.0570, 6401.865
159.5391, 6394.567
160.0212, 6415.351
160.5033, 6419.022
160.9855, 6394.126
161.4676, 6366.659
161.9497, 6338.134
162.4318, 6312.389
162.9139, 6299.348
163.3960, 6310.078
163.8782, 6345.324
164.3603, 6358.870
164.8424, 6338.576
165.3245, 6308.633
165.8066, 6277.896
166.2887, 6248.308
166.7709, 6231.664
167.2530, 6245.923
167.7351, 6290.518
168.2172, 6320.468
168.6993, 6320.911
169.1814, 6308.249
169.6636, 6305.393
170.1457, 6318.820
170.6278, 6329.005
171.1099, 6309.435
171.5920, 6265.851
172.0741, 6225.005
172.5563, 6190.725
173.0384, 6166.370
173.5205, 6166.221
174.0026, 6209.125
174.4847, 6253.474
174.9668, 6260.188
175.4490, 6231.962
175.9311, 6200.869
176.4132, 6194.415
176.8953, 6211.503
177.3774, 6212.383
177.8595, 6169.076
178.3417, 6124.123
178.8238, 6106.149
179.3059, 6117.432
179.7880, 6139.011
180.2701, 6152.396
180.7522, 6157.770
181.2344, 6153.775
181.7165, 6126.789
182.1986, 6099.164
182.6807, 6087.043
183.1628, 6094.439
183.6449, 6109.763
184.1271, 6113.164
184.6092, 6097.822
185.0913, 6083.403
185.5734, 6064.158
186.0555, 6050.364
186.5376, 6056.529
187.0198, 6088.307
187.5019, 6130.551
187.9840, 6143.030
188.4661, 6087.825
188.9482, 6048.882
189.4303, 6043.430
189.9125, 6054.014
190.3946, 6061.833
190.8767, 6057.587
191.3588, 6041.842
191.8409, 6016.503
192.3230, 5956.325
192.8052, 5914.597
193.2873, 5912.830
193.7694, 5935.485
194.2515, 5955.347
194.7336, 5955.872
195.2157, 5939.401
195.6979, 5928.810
196.1800, 5929.008
196.6621, 5928.583
197.1442, 5921.083
197.6263, 5908.916
198.1084, 5900.151
198.5906, 5901.201
199.0727, 5911.147
199.5548, 5915.759
200.0369, 5911.521
200.5190, 5905.540
201.0011, 5898.301
201.4833, 5890.998
201.9654, 5892.227
202.4475, 5913.432
202.9296, 5951.287
203.4117, 5973.582
203.8938, 5972.970
204.3760, 5960.495
204.8581, 5943.355
205.3402, 5921.676
205.8223, 5899.894
206.3044, 5880.312
206.7865, 5863.323
207.2687, 5850.952
207.7508, 5847.231
208.2329, 5847.005
208.7150, 5842.390
209.1971, 5831.538
209.6792, 5821.767
210.1614, 5820.811
210.6435, 5825.567
211.1256, 5829.360
211.6077, 5831.102
212.0898, 5830.057
212.5719, 5822.020
213.0541, 5800.376
213.5362, 5785.268
214.0183, 5796.276
214.5004, 5824.570
214.9825, 5848.570
215.4646, 5856.057
215.9468, 5849.695
216.4289, 5840.138
216.9110, 5826.928
217.3931, 5811.138
217.8752, 5789.781
218.3573, 5765.876
218.8395, 5748.106
219.3216, 5745.773
219.8037, 5757.420
220.2858, 5763.667
220.7679, 5755.928
221.2500, 5752.095
221.7322, 5768.293
222.2143, 5797.370
222.6964, 5817.027
223.1785, 5797.701
223.6606, 5736.047
224.1427, 5711.514
224.6249, 5773.484
225.1070, 5831.186
225.5891, 5845.152
226.0712, 5821.103
226.5533, 5789.151
227.0354, 5775.285
227.5176, 5780.888
227.9997, 5795.376
228.4818, 5841.782
228.9639, 5877.633
229.4460, 5876.276
229.9281, 5843.781
230.4103, 5808.913
230.8924, 5802.770
231.3745, 5833.203
231.8566, 5857.148
232.3387, 5869.840
232.8208, 5880.732
233.3030, 5897.788
233.7851, 5919.080
234.2672, 5933.901
234.7493, 5927.389
235.2314, 5887.656
235.7135, 5870.758
236.1957, 5895.466
236.6778, 5923.657
237.1599, 5935.241
237.6420, 5928.884
238.1241, 5914.987
238.6062, 5904.542
239.0884, 5896.259
239.5705, 5896.864
240.0526, 5915.056
240.5347, 5933.647
241.0168, 5942.793
241.4989, 5941.389
241.9811, 5933.696
242.4632, 5923.891
242.9453, 5909.685
243.4274, 5901.024
243.9095, 5900.940
244.3916, 5903.236
244.8738, 5903.105
245.3559, 5900.370
245.8380, 5899.277
246.3201, 5905.340
246.8022, 5922.367
247.2843, 5934.331
247.7665, 5943.985
248.2486, 5947.394
248.7307, 5936.382
249.2128, 5912.182
249.6949, 5890.047
250.1770, 5889.391
250.6592, 5921.766
251.1413, 5934.070
251.6234, 5904.993
252.1055, 5871.449
252.5876, 5865.368
253.0697, 5889.163
253.5519, 5917.355
254.0340, 5921.115
254.5161, 5891.940
254.9982, 5869.237
255.4803, 5857.355
255.9624, 5848.990
256.4445, 5836.653
256.9267, 5819.933
257.4088, 5806.649
257.8909, 5805.142
258.3730, 5818.231
258.8551, 5833.611
259.3372, 5868.312
259.8194, 5894.331
260.3015, 5879.171
260.7836, 5821.630
261.2657, 5761.240
261.7478, 5737.833
262.2299, 5758.740
262.7121, 5771.312
263.1942, 5775.098
263.6763, 5770.303
264.1584, 5751.832
264.6405, 5720.331
265.1227, 5690.864
265.6048, 5676.564
266.0869, 5679.212
266.5690, 5689.027
267.0511, 5722.500
267.5332, 5752.050
268.0154, 5747.424
268.4975, 5708.265
268.9796, 5669.536
269.4617, 5661.873
269.9438, 5685.702
270.4259, 5701.281
270.9081, 5700.301
271.3902, 5695.887
271.8723, 5701.006
272.3544, 5715.553
272.8365, 5725.077
273.3186, 5715.117
273.8008, 5688.147
274.2829, 5674.935
274.7650, 5685.274
275.2471, 5702.554
275.7292, 5716.513
276.2113, 5726.644
276.6935, 5733.402
277.1756, 5736.375
277.6577, 5735.788
278.1398, 5735.115
278.6219, 5737.743
279.1040, 5737.605
279.5862, 5727.630
280.0683, 5709.183
280.5504, 5693.430
281.0325, 5687.939
281.5146, 5690.845
281.9967, 5691.858
282.4789, 5688.313
282.9610, 5685.280
283.4431, 5688.355
283.9252, 5695.957
284.4073, 5698.624
284.8894, 5689.527
285.3716, 5672.662
285.8537, 5661.844
286.3358, 5667.037
286.8179, 5665.690
287.3000, 5635.116
287.7821, 5583.957
288.2643, 5549.219
288.7464, 5552.277
289.2285, 5578.784
289.7106, 5591.273
290.1927, 5584.899
290.6748, 5575.003
291.1570, 5565.952
291.6391, 5558.637
292.1212, 5557.430
292.6033, 5567.206
293.0854, 5579.644
293.5675, 5577.222
294.0497, 5556.448
294.5318, 5533.659
295.0139, 5509.441
295.4960, 5488.008
295.9781, 5481.566
296.4602, 5497.622
296.9424, 5522.808
297.4245, 5534.680
297.9066, 5534.058
298.3887, 5524.705
298.8708, 5496.464
299.3529, 5462.283
299.8351, 5448.354
300.3172, 5464.962
300.7993, 5490.610
301.2814, 5491.406
301.7635, 5464.494
302.2456, 5447.481
302.7278, 5461.317
303.2099, 5485.446
303.6920, 5487.406
304.1741, 5458.805
304.6562, 5427.514
305.1383, 5430.255
305.6205, 5469.643
306.1026, 5492.923
306.5847, 5482.924
307.0668, 5459.114
307.5489, 5438.560
308.0310, 5423.470
308.5132, 5414.908
308.9953, 5416.203
309.4774, 5427.803
309.9595, 5433.806
310.4416, 5424.201
310.9237, 5415.454
311.4059, 5424.816
311.8880, 5451.251
312.3701, 5475.029
312.8522, 5479.936
313.3343, 5466.838
313.8164, 5461.000
314.2986, 5455.251
314.7807, 5462.508
315.2628, 5507.009
315.7449, 5576.927
316.2270, 5623.774
316.7091, 5613.801
317.1913, 5556.271
317.6734, 5509.644
318.1555, 5474.655
318.6376, 5447.448
319.1197, 5428.223
319.6018, 5415.652
320.0840, 5406.396
320.5661, 5398.626
321.0482, 5393.540
321.5303, 5396.245
322.0124, 5418.252
322.4945, 5431.416
322.9767, 5421.420
323.4588, 5400.999
323.9409, 5391.151
324.4230, 5400.500
324.9051, 5417.565
325.3872, 5418.641
325.8694, 5389.862
326.3515, 5369.623
326.8336, 5372.153
327.3157, 5379.089
327.7978, 5367.370
328.2799, 5331.988
328.7621, 5292.002
329.2442, 5273.533
329.7263, 5286.333
330.2084, 5299.677
330.6905, 5325.423
331.1726, 5343.417
331.6548, 5332.141
332.1369, 5293.083
332.6190, 5251.231
333.1011, 5232.907
333.5832, 5243.510
334.0653, 5248.151
334.5475, 5246.276
335.0296, 5240.270
335.5117, 5228.744
335.9938, 5213.670
336.4759, 5199.813
336.9580, 5191.070
337.4402, 5187.344
337.9223, 5182.312
338.4044, 5176.083
338.8865, 5168.528
339.3686, 5154.671
339.8507, 5140.038
340.3329, 5135.941
340.8150, 5150.005
341.2971, 5175.628
341.7792, 5184.251
342.2613, 5160.482
342.7434, 5137.772
343.2256, 5117.237
343.7077, 5100.678
344.1898, 5090.631
344.6719, 5088.012
345.1540, 5089.897
345.6361, 5090.807
346.1183, 5091.791
346.6004, 5089.418
347.0825, 5078.868
347.5646, 5068.588
348.0467, 5064.572
348.5288, 5068.061
349.0110, 5076.230
349.4931, 5086.476
349.9752, 5099.950
350.4573, 5110.990
350.9394, 5125.578
351.4215, 5132.514
351.9037, 5122.414
352.3858, 5098.215
352.8679, 5071.835
353.3500, 5051.337
353.8321, 5036.829
354.3142, 5032.110
354.7964, 5040.677
355.2785, 5055.950
355.7606, 5083.807
356.2427, 5115.464
356.7248, 5133.152
357.2069, 5120.905
357.6891, 5091.465
358.1712, 5084.661
358.6533, 5114.749
359.1354, 5135.013
359.6175, 5113.626
360.0996, 5077.692
360.5818, 5060.012
361.0639, 5075.654
361.5460, 5101.211
362.0281, 5101.917
362.5102, 5074.169
362.9923, 5054.278
363.4745, 5059.096
363.9566, 5074.062
364.4387, 5084.792
364.9208, 5089.275
365.4029, 5094.440
365.8850, 5108.575
366.3672, 5129.158
366.8493, 5141.698
367.3314, 5139.622
367.8135, 5133.663
368.2956, 5132.737
368.7777, 5136.621
369.2599, 5148.102
369.7420, 5181.949
370.2241, 5220.320
370.7062, 5226.044
371.1883, 5189.676
371.6704, 5152.251
372.1526, 5153.401
372.6347, 5185.863
373.1168, 5207.016
373.5989, 5201.535
374.0810, 5190.333
374.5631, 5191.035
375.0453, 5202.854
375.5274, 5214.734
376.0095, 5219.196
376.4916, 5219.052
376.9737, 5226.364
377.4558, 5242.581
377.9380, 5263.500
378.4201, 5290.706
378.9022, 5321.294
379.3843, 5350.853
379.8664, 5378.256
380.3485, 5400.615
380.8307, 5410.236
381.3128, 5393.507
381.7949, 5389.547
382.2770, 5412.620
382.7591, 5443.074
383.2412, 5459.606
383.7234, 5459.344
384.2055, 5457.209
384.6876, 5470.621
385.1697, 5502.967
385.6518, 5537.663
386.1339, 5588.850
386.6161, 5629.228
387.0982, 5640.862
387.5803, 5629.430
388.0624, 5611.850
388.5445, 5599.476
389.0266, 5592.307
389.5088, 5590.578
389.9909, 5606.252
390.4730, 5613.466
390.9551, 5600.363
391.4372, 5578.877
391.9193, 5563.140
392.4015, 5559.205
392.8836, 5564.733
393.3657, 5578.416
393.8478, 5610.561
394.3299, 5624.428
394.8120, 5598.929
395.2942, 5565.972
395.7763, 5548.783
396.2584, 5549.951
396.7405, 5552.597
397.2226, 5537.265
397.7047, 5503.847
398.1869, 5478.226
398.6690, 5468.373
399.1511, 5459.138
399.6332, 5441.487
400.1153, 5417.502
400.5974, 5393.025
401.0796, 5362.452
401.5617, 5336.014
402.0438, 5346.579
402.5259, 5408.091
403.0080, 5451.529
403.4901, 5422.343
403.9723, 5355.465
404.4544, 5301.394
404.9365, 5268.969
405.4186, 5250.143
405.9007, 5242.212
406.3828, 5243.648
406.8650, 5246.637
407.3471, 5249.250
407.8292, 5251.028
408.3113, 5252.233
408.7934, 5254.210
409.2755, 5250.284
409.7577, 5230.713
410.2398, 5206.958
410.7219, 5196.644
411.2040, 5202.904
411.6861, 5213.139
412.1682, 5215.367
412.6504, 5208.437
413.1325, 5199.718
413.6146, 5190.719
414.0967, 5178.693
414.5788, 5156.780
415.0609, 5129.761
415.5431, 5112.573
416.0252, 5115.989
416.5073, 5133.830
416.9894, 5136.767
417.4715, 5115.973
417.9536, 5090.264
418.4358, 5046.523
418.9179, 5005.688
419.4000, 4995.104
419.8821, 5021.347
420.3642, 5060.666
420.8463, 5074.955
421.3285, 5050.090
421.8106, 5038.992
422.2927, 5060.767
422.7748, 5078.806
423.2569, 5071.603
423.7390, 5043.208
424.2212, 5012.667
424.7033, 4993.506
425.1854, 4984.598
425.6675, 4980.242
426.1496, 4987.070
426.6317, 4986.708
427.1139, 4962.553
427.5960, 4931.309
428.0781, 4915.836
428.5602, 4927.161
429.0423, 4947.776
429.5244, 4957.057
430.0066, 4954.856
430.4887, 4948.318
430.9708, 4937.736
431.4529, 4924.938
431.9350, 4910.217
432.4171, 4893.106
432.8993, 4882.383
433.3814, 4890.044
433.8635, 4904.967
434.3456, 4902.754
434.8277, 4877.935
435.3098, 4855.853
435.7920, 4862.957
436.2741, 4896.059
436.7562, 4909.851
437.2383, 4881.490
437.7204, 4853.077
438.2025, 4857.754
438.6847, 4883.736
439.1668, 4891.177
439.6489, 4856.846
440.1310, 4802.170
440.6131, 4786.032
441.0952, 4859.777
441.5774, 4899.793
442.0595, 4870.375
442.5416, 4822.533
443.0237, 4804.556
443.5058, 4823.438
443.9879, 4853.039
444.4701, 4865.000
444.9522, 4857.324
445.4343, 4845.779
445.9164, 4811.678
446.3985, 4792.802
446.8806, 4823.448
447.3628, 4875.608
447.8449, 4894.293
448.3270, 4843.781
448.8091, 4756.775
449.2912, 4717.447
449.7733, 4744.050
450.2555, 4767.950
450.7376, 4767.644
451.2197, 4760.239
451.7018, 4758.706
452.1839, 4765.083
452.6660, 4770.890
453.1482, 4767.015
453.6303, 4756.141
454.1124, 4751.052
454.5945, 4754.368
455.0766, 4761.018
455.5587, 4770.527
456.0409, 4780.761
456.5230, 4783.708
457.0051, 4768.669
457.4872, 4752.439
457.9693, 4753.369
458.4514, 4768.267
458.9336, 4777.654
459.4156, 4770.632
459.8978, 4754.250
460.3799, 4748.111
460.8620, 4759.571
461.3441, 4765.539
461.8262, 4754.507
462.3083, 4739.974
462.7905, 4739.952
463.2726, 4755.991
463.7547, 4770.594
464.2368, 4763.939
464.7189, 4732.250
465.2010, 4712.341
465.6832, 4708.871
466.1653, 4711.489
466.6474, 4726.118
467.1295, 4742.809
467.6116, 4743.504
468.0938, 4717.686
468.5759, 4680.536
469.0580, 4669.512
469.5401, 4698.226
470.0222, 4714.204
470.5043, 4691.094
470.9865, 4665.027
471.4686, 4661.704
471.9507, 4681.500
472.4328, 4702.173
472.9149, 4705.614
473.3970, 4696.380
473.8792, 4691.460
474.3613, 4693.187
474.8434, 4694.356
475.3255, 4687.553
475.8076, 4677.166
476.2897, 4672.305
476.7719, 4674.798
477.2540, 4682.537
477.7361, 4702.539
478.2182, 4727.613
478.7003, 4731.736
479.1824, 4702.183
479.6646, 4662.299
480.1467, 4650.736
480.6288, 4681.179
481.1109, 4696.185
481.5930, 4679.510
482.0751, 4657.024
482.5573, 4647.043
483.0394, 4649.065
483.5215, 4653.305
484.0036, 4652.960
484.4857, 4648.516
484.9678, 4643.194
485.4500, 4635.810
485.9321, 4629.045
486.4142, 4621.736
486.8963, 4615.969
487.3784, 4614.439
487.8605, 4617.578
488.3427, 4622.227
488.8248, 4624.783
489.3069, 4625.140
489.7890, 4625.931
490.2711, 4627.732
490.7532, 4629.421
491.2354, 4631.578
491.7175, 4633.208
492.1996, 4631.548
492.6817, 4621.570
493.1638, 4611.930
493.6459, 4616.088
494.1281, 4632.808
494.6102, 4644.488
495.0923, 4643.959
495.5744, 4635.565
496.0565, 4625.504
496.5386, 4612.513
497.0208, 4603.028
497.5029, 4597.470
497.9850, 4596.705
498.4671, 4604.170
498.9492, 4618.749
499.4313, 4633.273
499.9135, 4642.804
500.3956, 4647.062
500.8777, 4642.433
501.3598, 4615.779
501.8419, 4596.082
502.3240, 4583.120
502.8062, 4581.880
503.2883, 4608.821
503.7704, 4665.185
504.2525, 4714.842
504.7346, 4698.773
505.2167, 4602.451
505.6989, 4547.281
506.1810, 4564.968
506.6631, 4592.909
507.1452, 4604.875
507.6273, 4603.778
508.1094, 4597.407
508.5916, 4586.637
509.0737, 4575.146
509.5558, 4566.763
510.0379, 4561.586
510.5200, 4563.265
511.0021, 4577.458
511.4843, 4593.853
511.9664, 4593.536
512.4485, 4573.258
512.9306, 4562.451
513.4127, 4575.646
513.8948, 4597.173
514.3770, 4612.191
514.8591, 4619.953
515.3412, 4627.060
515.8233, 4638.842
516.3054, 4653.539
516.7875, 4659.456
517.2697, 4648.509
517.7518, 4638.505
518.2339, 4628.851
518.7160, 4622.155
519.1981, 4623.450
519.6802, 4632.420
520.1624, 4640.460
520.6445, 4638.181
521.1266, 4625.421
521.6087, 4608.057
522.0908, 4579.383
522.5729, 4556.456
523.0551, 4549.780
523.5372, 4552.217
524.0193, 4552.842
524.5014, 4548.202
524.9835, 4541.199
525.4656, 4533.348
525.9478, 4525.210
526.4299, 4519.936
526.9120, 4518.960
527.3941, 4519.491
527.8762, 4517.664
528.3583, 4513.245
528.8405, 4512.238
529.3226, 4524.831
529.8047, 4532.486
530.2868, 4514.813
530.7689, 4481.611
531.2510, 4461.605
531.7332, 4470.205
532.2153, 4495.272
532.6974, 4507.105
533.1795, 4499.455
533.6616, 4489.261
534.1437, 4474.107
534.6259, 4459.261
535.1080, 4445.989
535.5901, 4435.694
536.0722, 4431.963
536.5543, 4439.544
537.0364, 4454.335
537.5186, 4462.521
538.0007, 4461.851
538.4828, 4463.527
538.9649, 4477.295
539.4470, 4492.006
539.9291, 4491.699
540.4113, 4472.372
540.8934, 4459.374
541.3755, 4474.856
541.8576, 4500.798
542.3397, 4505.426
542.8218, 4485.814
543.3040, 4467.856
543.7861, 4472.927
544.2682, 4496.876
544.7503, 4503.883
545.2324, 4473.975
545.7145, 4454.404
546.1967, 4463.682
546.6788, 4483.035
547.1609, 4494.482
547.6430, 4493.038
548.1251, 4480.673
548.6072, 4453.579
549.0894, 4410.351
549.5715, 4398.078
550.0536, 4441.938
550.5357, 4481.233
551.0178, 4489.716
551.4999, 4482.239
551.9821, 4480.006
552.4642, 4490.697
552.9463, 4500.669
553.4284, 4490.639
553.9105, 4467.900
554.3926, 4467.099
554.8748, 4501.160
555.3569, 4532.740
555.8390, 4519.235
556.3211, 4461.977
556.8032, 4436.564
557.2853, 4477.132
557.7675, 4515.296
558.2496, 4513.481
558.7317, 4488.796
559.2138, 4470.206
559.6959, 4468.351
560.1780, 4477.754
560.6602, 4492.112
561.1423, 4514.997
561.6244, 4528.536
562.1065, 4519.586
562.5886, 4514.026
563.0707, 4525.321
563.5529, 4545.641
564.0350, 4559.766
564.5171, 4560.020
564.9992, 4555.030
565.4813, 4553.598
565.9634, 4556.020
566.4456, 4568.958
566.9277, 4599.033
567.4098, 4631.166
567.8919, 4646.562
568.3740, 4647.254
568.8561, 4652.997
569.3383, 4671.815
569.8204, 4691.801
570.3025, 4705.135
570.7846, 4713.535
571.2667, 4723.190
571.7488, 4736.844
572.2310, 4748.326
572.7131, 4744.409
573.1952, 4713.024
573.6773, 4699.063
574.1594, 4717.154
574.6415, 4737.124
575.1237, 4750.378
575.6058, 4755.092
576.0879, 4749.111
576.5700, 4729.415
577.0521, 4703.899
577.5342, 4684.915
578.0164, 4672.549
578.4985, 4659.951
578.9806, 4648.925
579.4627, 4632.312
579.9448, 4596.398
580.4269, 4544.025
580.9091, 4502.432
581.3912, 4483.436
581.8733, 4470.685
582.3554, 4453.250
582.8375, 4432.802
583.3196, 4413.096
583.8018, 4395.589
584.2839, 4383.140
584.7660, 4382.146
