##NAMES=Jerrygibbsite
##RRUFFID=R100042
##IDEAL CHEMISTRY=Mn^2+^_9_(SiO_4_)_4_(OH)_2_
##LOCALITY=Kombat mine, Otavi Mountains, Namibia
##OWNER=RRUFF
##SOURCE=William W Pinch
##DESCRIPTION=Tan transparent cleavages, associated with hausmannite, calcite, and an orange-red granular vesuvianite-group mineral
##STATUS=The identification of this mineral has been confirmed by single-crystal X-ray diffraction.
##URL=rruff.info/R100042
90.49219, 21.33454
90.97430, 19.68256
91.45642, 19.09581
91.93854, 20.51273
92.42065, 22.72280
92.90277, 23.94154
93.38489, 23.99010
93.86700, 23.41480
94.34912, 22.61641
94.83124, 21.65293
95.31335, 20.88256
95.79547, 20.67329
96.27759, 20.88375
96.75970, 20.65361
97.24182, 19.32483
97.72394, 18.16227
98.20605, 21.15848
98.68817, 28.95624
99.17029, 35.74736
99.65240, 35.92597
100.1345, 28.94770
100.6166, 23.37899
101.0988, 21.07634
101.5809, 21.69188
102.0630, 22.25400
102.5451, 22.84101
103.0272, 23.24492
103.5093, 23.16272
103.9915, 22.37503
104.4736, 21.67160
104.9557, 21.28677
105.4378, 21.28341
105.9199, 21.23385
106.4020, 21.03233
106.8842, 20.83555
107.3663, 20.94286
107.8484, 21.70619
108.3305, 22.36420
108.8126, 22.62193
109.2947, 22.04178
109.7769, 21.79016
110.2590, 22.13258
110.7411, 22.85085
111.2232, 23.25770
111.7053, 22.77077
112.1874, 22.37152
112.6696, 22.50464
113.1517, 24.46523
113.6338, 25.61133
114.1159, 25.02121
114.5980, 22.98781
115.0801, 21.59976
115.5623, 21.66455
116.0444, 22.41631
116.5265, 23.25918
117.0086, 24.38528
117.4907, 25.28285
117.9728, 25.67627
118.4550, 25.54607
118.9371, 25.38328
119.4192, 25.52580
119.9013, 25.73569
120.3834, 25.70678
120.8655, 24.97716
121.3477, 24.17624
121.8298, 23.71226
122.3119, 23.61183
122.7940, 23.86754
123.2761, 24.79789
123.7582, 26.10953
124.2404, 27.14922
124.7225, 27.06001
125.2046, 26.68252
125.6867, 27.14256
126.1688, 28.80913
126.6509, 30.83565
127.1331, 32.22854
127.6152, 33.12153
128.0973, 34.17921
128.5794, 35.80305
129.0615, 37.92781
129.5436, 40.43901
130.0258, 43.44112
130.5079, 46.67911
130.9900, 49.65470
131.4721, 52.34273
131.9542, 55.27723
132.4363, 58.74835
132.9185, 62.78862
133.4006, 67.63009
133.8827, 73.44006
134.3648, 80.04332
134.8469, 87.10198
135.3290, 94.52188
135.8112, 102.8510
136.2933, 112.7933
136.7754, 124.4620
137.2575, 136.6063
137.7396, 148.8376
138.2217, 160.9670
138.7039, 174.0844
139.1860, 188.5559
139.6681, 203.4738
140.1502, 217.9131
140.6323, 231.8360
141.1144, 244.9317
141.5966, 256.8832
142.0787, 267.2720
142.5608, 278.1878
143.0429, 289.9698
143.5250, 302.0624
144.0071, 312.9099
144.4893, 321.3456
144.9714, 330.2811
145.4535, 340.8876
145.9356, 353.7060
146.4177, 367.3504
146.8998, 381.8691
147.3820, 397.2307
147.8641, 414.0070
148.3462, 432.5373
148.8283, 451.9482
149.3104, 472.0311
149.7925, 493.3259
150.2747, 514.4573
150.7568, 535.2109
151.2389, 555.5665
151.7210, 575.2020
152.2031, 593.7924
152.6852, 611.6661
153.1674, 629.2325
153.6495, 647.7241
154.1316, 664.4606
154.6137, 678.5660
155.0958, 689.9931
155.5779, 701.2875
156.0601, 713.3447
156.5422, 725.1531
157.0243, 735.7031
157.5064, 743.2841
157.9885, 751.0197
158.4706, 759.6377
158.9528, 769.1806
159.4349, 779.6539
159.9170, 791.7905
160.3991, 804.6432
160.8812, 817.1172
161.3633, 828.0673
161.8455, 839.2379
162.3276, 851.2177
162.8097, 863.7723
163.2918, 877.8090
163.7739, 894.8951
164.2560, 912.4568
164.7382, 922.2657
165.2203, 926.0543
165.7024, 929.9648
166.1845, 937.1910
166.6666, 949.4531
167.1487, 960.6858
167.6309, 967.1073
168.1130, 970.2333
168.5951, 973.1254
169.0772, 977.4283
169.5593, 982.0699
170.0414, 986.0220
170.5236, 988.7819
171.0057, 991.6181
171.4878, 996.4933
171.9699, 1002.490
172.4520, 1006.712
172.9341, 1006.008
173.4163, 1003.251
173.8984, 1001.837
174.3805, 1002.828
174.8626, 1004.748
175.3447, 1006.060
175.8268, 1006.977
176.3090, 1008.560
176.7911, 1012.759
177.2732, 1017.860
177.7553, 1020.837
178.2374, 1019.767
178.7195, 1017.560
179.2017, 1018.115
179.6838, 1021.197
180.1659, 1024.666
180.6480, 1026.812
181.1301, 1028.098
181.6122, 1029.669
182.0944, 1031.940
182.5765, 1034.593
183.0586, 1037.339
183.5407, 1040.129
184.0228, 1042.599
184.5049, 1044.351
184.9871, 1045.481
185.4692, 1046.223
185.9513, 1046.474
186.4334, 1046.463
186.9155, 1046.550
187.3976, 1046.692
187.8798, 1047.416
188.3619, 1049.655
188.8440, 1053.182
189.3261, 1056.440
189.8082, 1059.366
190.2903, 1061.639
190.7725, 1061.661
191.2546, 1059.101
191.7367, 1056.056
192.2188, 1054.842
192.7009, 1055.382
193.1830, 1056.579
193.6652, 1058.420
194.1473, 1060.709
194.6294, 1061.927
195.1115, 1061.859
195.5936, 1061.447
196.0757, 1061.982
196.5579, 1063.491
197.0400, 1065.097
197.5221, 1066.611
198.0042, 1068.008
198.4863, 1068.771
198.9684, 1068.723
199.4506, 1068.442
199.9327, 1068.796
200.4148, 1069.835
200.8969, 1071.030
201.3790, 1072.161
201.8611, 1073.207
202.3433, 1074.474
202.8254, 1076.023
203.3075, 1077.664
203.7896, 1079.135
204.2717, 1080.471
204.7538, 1081.405
205.2360, 1081.642
205.7181, 1081.053
206.2002, 1080.854
206.6823, 1081.079
207.1644, 1081.636
207.6465, 1082.466
208.1287, 1083.699
208.6108, 1084.752
209.0929, 1085.338
209.5750, 1085.395
210.0571, 1085.417
210.5392, 1085.373
211.0214, 1085.376
211.5035, 1085.662
211.9856, 1086.310
212.4677, 1087.080
212.9498, 1087.928
213.4319, 1088.927
213.9140, 1089.675
214.3962, 1090.071
214.8783, 1090.270
215.3604, 1090.673
215.8425, 1091.441
216.3246, 1092.011
216.8067, 1091.987
217.2889, 1091.015
217.7710, 1090.564
218.2531, 1090.564
218.7352, 1091.107
219.2173, 1092.704
219.6994, 1096.225
220.1816, 1099.111
220.6637, 1100.009
221.1458, 1097.928
221.6279, 1096.743
222.1100, 1096.731
222.5921, 1097.570
223.0743, 1098.442
223.5564, 1099.352
224.0385, 1100.337
224.5206, 1101.485
225.0027, 1103.102
225.4848, 1104.139
225.9670, 1104.339
226.4491, 1104.041
226.9312, 1104.086
227.4133, 1104.442
227.8954, 1105.189
228.3775, 1106.367
228.8597, 1108.093
229.3418, 1110.042
229.8239, 1112.730
230.3060, 1115.461
230.7881, 1115.949
231.2702, 1112.278
231.7524, 1109.200
232.2345, 1109.037
232.7166, 1113.226
233.1987, 1116.988
233.6808, 1120.577
234.1629, 1123.647
234.6451, 1125.172
235.1272, 1124.294
235.6093, 1123.187
236.0914, 1122.917
236.5735, 1124.269
237.0556, 1124.731
237.5378, 1124.031
238.0199, 1122.572
238.5020, 1121.284
238.9841, 1120.002
239.4662, 1119.156
239.9483, 1118.930
240.4305, 1119.394
240.9126, 1120.385
241.3947, 1122.442
241.8768, 1124.836
242.3589, 1125.566
242.8410, 1123.237
243.3232, 1121.331
243.8053, 1121.522
244.2874, 1125.154
244.7695, 1127.555
245.2516, 1128.329
245.7337, 1128.044
246.2159, 1127.881
246.6980, 1127.600
247.1801, 1127.843
247.6622, 1129.060
248.1443, 1131.968
248.6264, 1133.821
249.1086, 1134.223
249.5907, 1133.797
250.0728, 1133.888
250.5549, 1135.034
251.0370, 1135.773
251.5191, 1135.203
252.0013, 1132.327
252.4834, 1131.641
252.9655, 1134.356
253.4476, 1138.508
253.9297, 1140.251
254.4118, 1138.138
254.8940, 1136.260
255.3761, 1136.314
255.8582, 1139.111
256.3403, 1140.493
256.8224, 1139.830
257.3046, 1138.251
257.7867, 1137.748
258.2688, 1138.956
258.7509, 1139.926
259.2330, 1139.901
259.7151, 1138.651
260.1973, 1137.861
260.6794, 1137.508
261.1615, 1137.683
261.6436, 1138.777
262.1257, 1141.522
262.6078, 1143.377
263.0900, 1143.048
263.5721, 1140.096
264.0542, 1139.377
264.5363, 1141.745
265.0184, 1145.283
265.5005, 1147.601
265.9827, 1148.328
266.4648, 1148.804
266.9469, 1149.392
267.4290, 1150.090
267.9111, 1150.459
268.3932, 1150.388
268.8754, 1150.141
269.3575, 1149.950
269.8396, 1149.746
270.3217, 1149.905
270.8038, 1150.742
271.2859, 1152.197
271.7681, 1152.693
272.2502, 1151.878
272.7323, 1150.848
273.2144, 1150.817
273.6965, 1151.979
274.1786, 1153.118
274.6608, 1154.092
275.1429, 1154.854
275.6250, 1154.942
276.1071, 1154.153
276.5892, 1153.287
277.0714, 1153.096
277.5535, 1153.633
278.0356, 1154.406
278.5177, 1155.453
278.9998, 1156.647
279.4819, 1157.395
279.9641, 1157.642
280.4462, 1157.748
280.9283, 1157.990
281.4104, 1158.379
281.8925, 1158.731
282.3746, 1158.902
282.8568, 1159.112
283.3389, 1160.239
283.8210, 1162.424
284.3031, 1164.370
284.7852, 1164.707
285.2673, 1163.558
285.7495, 1163.596
286.2316, 1165.465
286.7137, 1168.162
287.1958, 1169.312
287.6779, 1168.839
288.1600, 1168.738
288.6422, 1170.955
289.1243, 1175.009
289.6064, 1177.051
290.0885, 1176.326
290.5706, 1174.692
291.0527, 1175.240
291.5349, 1177.859
292.0170, 1180.781
292.4991, 1183.611
292.9812, 1186.070
293.4633, 1186.765
293.9454, 1185.425
294.4276, 1183.278
294.9097, 1181.507
295.3918, 1180.180
295.8739, 1179.708
296.3560, 1180.809
296.8381, 1182.848
297.3203, 1184.395
297.8024, 1185.401
298.2845, 1185.950
298.7666, 1185.980
299.2487, 1185.583
299.7308, 1185.043
300.2130, 1183.738
300.6951, 1182.641
301.1772, 1183.995
301.6593, 1187.793
302.1414, 1191.282
302.6235, 1191.440
303.1057, 1189.570
303.5878, 1188.276
304.0699, 1188.627
304.5520, 1189.830
305.0341, 1191.340
305.5162, 1193.072
305.9984, 1194.319
306.4805, 1194.026
306.9626, 1193.053
307.4447, 1192.601
307.9268, 1193.072
308.4089, 1194.021
308.8911, 1195.292
309.3732, 1196.773
309.8553, 1198.036
310.3374, 1199.017
310.8195, 1199.560
311.3016, 1199.381
311.7838, 1198.068
312.2659, 1196.794
312.7480, 1196.015
313.2301, 1195.858
313.7122, 1196.597
314.1943, 1199.036
314.6765, 1202.019
315.1586, 1204.902
315.6407, 1207.756
316.1228, 1209.935
316.6049, 1210.730
317.0870, 1210.681
317.5692, 1210.667
318.0513, 1211.123
318.5334, 1211.565
319.0155, 1211.709
319.4976, 1211.475
319.9797, 1211.219
320.4619, 1210.892
320.9440, 1210.627
321.4261, 1210.581
321.9082, 1210.300
322.3903, 1210.684
322.8724, 1212.408
323.3546, 1215.516
323.8367, 1218.026
324.3188, 1218.867
324.8009, 1219.385
325.2830, 1220.601
325.7651, 1223.780
326.2473, 1226.464
326.7294, 1228.221
327.2115, 1229.150
327.6936, 1229.954
328.1757, 1231.743
328.6578, 1232.645
329.1400, 1231.695
329.6221, 1226.699
330.1042, 1222.818
330.5863, 1220.145
331.0684, 1218.584
331.5505, 1217.922
332.0327, 1218.468
332.5148, 1219.503
332.9969, 1220.926
333.4790, 1223.233
333.9611, 1224.314
334.4432, 1223.247
334.9254, 1221.469
335.4075, 1221.680
335.8896, 1225.234
336.3717, 1228.030
336.8538, 1228.424
337.3359, 1226.081
337.8180, 1225.102
338.3001, 1225.668
338.7823, 1227.339
339.2644, 1229.956
339.7465, 1233.957
340.2286, 1237.061
340.7107, 1238.550
341.1928, 1238.642
341.6750, 1238.619
342.1571, 1238.383
342.6392, 1238.353
343.1213, 1239.135
343.6034, 1240.736
344.0855, 1241.656
344.5677, 1241.523
345.0498, 1240.668
345.5319, 1239.549
346.0140, 1238.131
346.4961, 1237.496
346.9782, 1239.025
347.4604, 1242.171
347.9425, 1244.125
348.4246, 1244.538
348.9067, 1244.103
349.3888, 1243.506
349.8709, 1242.835
350.3531, 1242.506
350.8352, 1242.885
351.3173, 1243.727
351.7994, 1244.464
352.2815, 1245.041
352.7636, 1245.975
353.2458, 1248.182
353.7279, 1251.110
354.2100, 1253.563
354.6921, 1254.606
355.1742, 1255.254
355.6563, 1257.011
356.1385, 1259.688
356.6206, 1261.511
357.1027, 1259.609
357.5848, 1256.768
358.0669, 1256.515
358.5490, 1261.681
359.0312, 1266.782
359.5133, 1267.890
359.9954, 1266.007
360.4775, 1264.299
360.9596, 1264.698
361.4417, 1265.509
361.9239, 1265.351
362.4060, 1263.404
362.8881, 1262.268
363.3702, 1263.787
363.8523, 1266.563
364.3344, 1268.453
364.8166, 1268.045
365.2987, 1267.381
365.7808, 1267.072
366.2629, 1267.126
366.7450, 1267.843
367.2271, 1270.385
367.7093, 1273.088
368.1914, 1274.490
368.6735, 1273.411
369.1556, 1272.213
369.6377, 1270.810
370.1198, 1269.332
370.6020, 1269.111
371.0841, 1270.926
371.5662, 1273.281
372.0483, 1275.372
372.5304, 1277.060
373.0125, 1278.826
373.4947, 1281.042
373.9768, 1283.191
374.4589, 1283.842
374.9410, 1282.035
375.4231, 1280.710
375.9052, 1281.242
376.3874, 1283.988
376.8695, 1285.687
377.3516, 1285.991
377.8337, 1285.872
378.3158, 1286.619
378.7979, 1288.355
379.2801, 1290.120
379.7622, 1291.804
380.2443, 1293.302
380.7264, 1294.012
381.2085, 1293.813
381.6906, 1293.621
382.1728, 1294.270
382.6549, 1295.646
383.1370, 1296.984
383.6191, 1298.068
384.1012, 1299.216
384.5833, 1301.306
385.0655, 1304.175
385.5476, 1306.593
386.0297, 1307.665
386.5118, 1307.888
386.9939, 1308.183
387.4760, 1308.644
387.9582, 1309.036
388.4403, 1308.806
388.9224, 1308.359
389.4045, 1308.526
389.8866, 1310.761
390.3687, 1312.991
390.8509, 1313.004
391.3330, 1310.990
391.8151, 1309.219
392.2972, 1309.026
392.7793, 1309.733
393.2614, 1310.780
393.7436, 1312.695
394.2257, 1313.944
394.7078, 1313.092
395.1899, 1310.998
395.6720, 1309.915
396.1541, 1311.556
396.6363, 1313.596
397.1184, 1314.913
397.6005, 1315.144
398.0826, 1315.462
398.5647, 1316.262
399.0468, 1317.175
399.5290, 1317.752
400.0111, 1317.065
400.4932, 1317.033
400.9753, 1318.530
401.4574, 1321.544
401.9395, 1322.896
402.4217, 1321.436
402.9038, 1319.522
403.3859, 1318.715
403.8680, 1319.397
404.3501, 1320.295
404.8322, 1321.443
405.3144, 1322.682
405.7965, 1323.547
406.2786, 1323.976
406.7607, 1324.250
407.2428, 1324.466
407.7249, 1324.621
408.2071, 1324.754
408.6892, 1324.828
409.1713, 1324.981
409.6534, 1325.632
410.1355, 1326.725
410.6176, 1327.124
411.0998, 1326.018
411.5819, 1324.318
412.0640, 1324.655
412.5461, 1326.938
413.0282, 1328.948
413.5103, 1328.252
413.9925, 1326.131
414.4746, 1325.391
414.9567, 1326.812
415.4388, 1328.746
415.9209, 1329.674
416.4030, 1329.790
416.8852, 1329.600
417.3673, 1329.142
417.8494, 1328.624
418.3315, 1328.530
418.8136, 1328.900
419.2957, 1328.349
419.7779, 1324.221
420.2600, 1319.578
420.7421, 1317.556
421.2242, 1321.497
421.7063, 1325.625
422.1884, 1328.523
422.6706, 1330.231
423.1527, 1330.996
423.6348, 1330.218
424.1169, 1329.044
424.5990, 1327.983
425.0811, 1327.188
425.5633, 1326.276
426.0454, 1324.497
426.5275, 1322.911
427.0096, 1322.972
427.4917, 1326.203
427.9738, 1328.758
428.4560, 1329.558
428.9381, 1328.713
429.4202, 1328.783
429.9023, 1330.112
430.3844, 1331.686
430.8665, 1332.664
431.3487, 1332.868
431.8308, 1333.618
432.3129, 1335.284
432.7950, 1337.178
433.2771, 1337.459
433.7592, 1336.025
434.2414, 1335.226
434.7235, 1336.682
435.2056, 1339.717
435.6877, 1341.599
436.1698, 1342.270
436.6519, 1342.391
437.1341, 1342.417
437.6162, 1342.393
438.0983, 1342.444
438.5804, 1342.607
439.0625, 1342.869
439.5446, 1343.277
440.0268, 1343.801
440.5089, 1344.311
440.9910, 1344.372
441.4731, 1344.615
441.9552, 1346.061
442.4373, 1349.230
442.9195, 1351.255
443.4016, 1349.739
443.8837, 1346.566
444.3658, 1344.029
444.8479, 1342.780
445.3300, 1342.298
445.8122, 1342.721
446.2943, 1343.927
446.7764, 1344.934
447.2585, 1345.338
447.7406, 1345.699
448.2227, 1346.328
448.7049, 1347.541
449.1870, 1348.386
449.6691, 1348.632
450.1512, 1348.618
450.6333, 1348.862
451.1154, 1349.413
451.5976, 1350.139
452.0797, 1351.129
452.5618, 1352.336
453.0439, 1352.836
453.5260, 1352.355
454.0081, 1351.985
454.4903, 1352.940
454.9724, 1355.180
455.4545, 1356.336
455.9366, 1355.772
456.4187, 1354.727
456.9008, 1355.795
457.3830, 1358.655
457.8651, 1360.704
458.3472, 1360.138
458.8293, 1358.157
459.3114, 1356.591
459.7935, 1355.486
460.2757, 1355.296
460.7578, 1356.762
461.2399, 1359.273
461.7220, 1362.130
462.2041, 1365.854
462.6862, 1368.713
463.1684, 1368.876
463.6505, 1367.297
464.1326, 1366.183
464.6147, 1366.574
465.0968, 1367.508
465.5789, 1368.660
466.0611, 1370.062
466.5432, 1371.101
467.0253, 1371.489
467.5074, 1371.522
467.9895, 1371.445
468.4716, 1371.138
468.9538, 1370.889
469.4359, 1370.905
469.9180, 1371.002
470.4001, 1370.434
470.8822, 1368.530
471.3643, 1367.235
471.8465, 1367.740
472.3286, 1370.383
472.8107, 1371.296
473.2928, 1370.110
473.7749, 1368.159
474.2570, 1366.408
474.7392, 1364.876
475.2213, 1365.388
475.7034, 1369.230
476.1855, 1374.263
476.6676, 1375.551
477.1497, 1373.456
477.6319, 1371.441
478.1140, 1371.598
478.5961, 1373.144
479.0782, 1374.691
479.5603, 1376.090
480.0424, 1378.123
480.5246, 1382.740
481.0067, 1388.023
481.4888, 1391.234
481.9709, 1390.185
482.4530, 1388.391
482.9352, 1387.236
483.4173, 1386.718
483.8994, 1386.836
484.3815, 1388.935
484.8636, 1390.568
485.3457, 1390.181
485.8279, 1386.817
486.3100, 1384.696
486.7921, 1384.850
487.2742, 1386.039
487.7563, 1387.215
488.2384, 1388.266
488.7206, 1389.563
489.2027, 1391.423
489.6848, 1393.529
490.1669, 1394.694
490.6490, 1394.793
491.1311, 1394.340
491.6133, 1393.300
492.0954, 1391.697
492.5775, 1391.045
493.0596, 1391.511
493.5417, 1392.283
494.0238, 1392.354
494.5060, 1391.916
494.9881, 1391.855
495.4702, 1392.427
495.9523, 1393.422
496.4344, 1394.621
496.9165, 1396.000
497.3987, 1397.471
497.8808, 1399.223
498.3629, 1400.908
498.8450, 1402.282
499.3271, 1403.340
499.8092, 1403.831
500.2914, 1403.036
500.7735, 1401.877
501.2556, 1401.204
501.7377, 1401.073
502.2198, 1401.617
502.7019, 1403.598
503.1841, 1406.313
503.6662, 1407.866
504.1483, 1406.708
504.6304, 1405.904
505.1125, 1406.706
505.5946, 1409.383
506.0768, 1410.182
506.5589, 1408.151
507.0410, 1405.684
507.5231, 1404.865
508.0052, 1405.998
508.4873, 1406.755
508.9695, 1406.658
509.4516, 1406.435
509.9337, 1407.721
510.4158, 1410.424
510.8979, 1412.867
511.3800, 1414.315
511.8622, 1415.001
512.3443, 1415.248
512.8264, 1415.079
513.3085, 1415.099
513.7906, 1416.196
514.2728, 1417.588
514.7549, 1418.179
515.2370, 1417.551
515.7191, 1416.750
516.2012, 1416.041
516.6833, 1415.674
517.1655, 1416.019
517.6476, 1418.533
518.1297, 1420.468
518.6118, 1420.218
519.0939, 1418.064
519.5760, 1417.282
520.0582, 1420.542
520.5403, 1423.290
521.0224, 1423.270
521.5045, 1418.875
521.9866, 1416.393
522.4688, 1416.173
522.9509, 1417.459
523.4330, 1419.902
523.9151, 1424.034
524.3972, 1426.083
524.8793, 1424.364
525.3615, 1420.771
525.8436, 1420.907
526.3257, 1424.709
526.8078, 1427.929
527.2899, 1427.422
527.7720, 1424.684
528.2542, 1423.091
528.7363, 1422.820
529.2184, 1422.994
529.7005, 1423.028
530.1826, 1423.018
530.6647, 1423.026
531.1469, 1422.759
531.6290, 1423.045
532.1111, 1424.889
532.5932, 1427.577
533.0753, 1429.648
533.5574, 1430.245
534.0396, 1430.570
534.5217, 1430.773
535.0038, 1430.816
535.4859, 1431.785
535.9680, 1434.844
536.4501, 1437.672
536.9323, 1438.845
537.4144, 1437.697
537.8965, 1436.695
538.3786, 1435.742
538.8607, 1435.146
539.3428, 1435.583
539.8250, 1437.155
540.3071, 1438.643
540.7892, 1439.973
541.2713, 1440.801
541.7534, 1439.576
542.2355, 1436.537
542.7177, 1434.164
543.1998, 1434.566
543.6819, 1436.431
544.1640, 1437.945
544.6461, 1438.991
545.1282, 1439.368
545.6104, 1438.356
546.0925, 1436.813
546.5746, 1435.640
547.0567, 1434.383
547.5388, 1434.484
548.0209, 1437.344
548.5031, 1441.856
548.9852, 1445.642
549.4673, 1448.620
549.9494, 1450.506
550.4315, 1450.804
550.9136, 1449.526
551.3958, 1449.251
551.8779, 1450.441
552.3600, 1451.867
552.8421, 1452.648
553.3242, 1452.658
553.8063, 1453.429
554.2885, 1455.322
554.7706, 1457.158
555.2527, 1456.940
555.7348, 1455.031
556.2169, 1453.707
556.6990, 1453.792
557.1812, 1454.624
557.6633, 1455.511
558.1454, 1456.402
558.6275, 1457.105
559.1096, 1456.897
559.5917, 1456.876
560.0739, 1458.221
560.5560, 1461.039
561.0381, 1463.565
561.5202, 1465.136
562.0023, 1466.086
562.4844, 1466.667
562.9666, 1467.269
563.4487, 1466.881
563.9308, 1464.176
564.4129, 1461.003
564.8950, 1460.419
565.3771, 1463.789
565.8593, 1466.625
566.3414, 1467.776
566.8235, 1467.622
567.3056, 1467.811
567.7877, 1468.301
568.2698, 1469.361
568.7520, 1471.653
569.2341, 1474.698
569.7162, 1476.923
570.1983, 1478.289
570.6804, 1478.502
571.1625, 1476.017
571.6447, 1472.517
572.1268, 1470.934
572.6089, 1472.862
573.0910, 1474.907
573.5731, 1474.739
574.0552, 1473.240
574.5374, 1471.940
575.0195, 1471.454
575.5016, 1471.164
575.9837, 1470.661
576.4658, 1470.042
576.9479, 1470.453
577.4301, 1473.486
577.9122, 1475.682
578.3943, 1475.015
578.8764, 1470.501
579.3585, 1469.014
579.8406, 1471.431
580.3228, 1474.911
580.8049, 1476.306
581.2870, 1475.747
581.7691, 1475.976
582.2512, 1477.683
582.7333, 1479.752
583.2155, 1480.351
583.6975, 1479.856
584.1796, 1479.513
584.6617, 1479.941
585.1439, 1480.704
585.6260, 1481.368
586.1081, 1481.985
