##NAMES=Jinshajiangite
##RRUFFID=R060580
##IDEAL CHEMISTRY=BaNaFe^2+^_4_Ti^4+^_2_(Si_2_O_7_)_2_O_2_(OH)_2_F
##LOCALITY=Norra Karr, Sweden
##OWNER=RRUFF
##SOURCE=Michael Scott
##DESCRIPTION=Brownish red vein material with pronounced cleavage
##STATUS=The identification of this mineral is confirmed by single-crystal X-ray diffraction and chemical analysis.
##URL=rruff.info/R060580
##MEASURED CHEMISTRY=Na_0.94_(Ba_0.67_K_0.33_)_Σ=1.00_(Fe_2.97_Mn_0.71_Ca_0.33_Mg_0.03_)_Σ=4.04_(Ti_1.90_Zr_0.06_)_Σ=1.96_(Si_1.92_Fe^+3^_0.08_O_7_)_2_O_2_(OH)_2_F_0.83_
171.0057, 295.0770
171.4878, 293.0108
171.9699, 291.3824
172.4520, 292.2267
172.9341, 295.3441
173.4163, 298.1860
173.8984, 298.0315
174.3805, 296.4664
174.8626, 296.1237
175.3447, 298.7743
175.8268, 302.7021
176.3090, 306.0021
176.7911, 308.6387
177.2732, 311.3776
177.7553, 314.1714
178.2374, 316.1631
178.7195, 316.8727
179.2017, 315.0280
179.6838, 312.2831
180.1659, 311.3965
180.6480, 312.4686
181.1301, 313.9567
181.6122, 314.4605
182.0944, 314.1706
182.5765, 313.6751
183.0586, 312.4301
183.5407, 311.2664
184.0228, 312.3128
184.5049, 315.8367
184.9871, 320.0194
185.4692, 322.6393
185.9513, 323.9510
186.4334, 325.1634
186.9155, 327.1229
187.3976, 329.4683
187.8798, 330.6546
188.3619, 330.2867
188.8440, 330.0281
189.3261, 332.8366
189.8082, 338.4742
190.2903, 343.5423
190.7725, 345.5855
191.2546, 345.2982
191.7367, 346.7184
192.2188, 350.3362
192.7009, 354.8756
193.1830, 357.9704
193.6652, 359.5993
194.1473, 361.5974
194.6294, 365.6813
195.1115, 371.5609
195.5936, 374.9805
196.0757, 374.9180
196.5579, 373.6667
197.0400, 375.9287
197.5221, 381.9724
198.0042, 388.5018
198.4863, 394.2442
198.9684, 399.1924
199.4506, 402.2431
199.9327, 402.9582
200.4148, 402.1983
200.8969, 401.6352
201.3790, 401.2486
201.8611, 401.1436
202.3433, 401.1846
202.8254, 401.2871
203.3075, 402.6879
203.7896, 405.9161
204.2717, 410.0847
204.7538, 412.7261
205.2360, 413.4579
205.7181, 414.0623
206.2002, 415.6857
206.6823, 418.5136
207.1644, 421.0856
207.6465, 423.2465
208.1287, 425.0872
208.6108, 427.0996
209.0929, 429.5594
209.5750, 431.4342
210.0571, 431.8340
210.5392, 430.3560
211.0214, 429.4093
211.5035, 429.4845
211.9856, 430.1474
212.4677, 429.8031
212.9498, 428.1681
213.4319, 426.1909
213.9140, 424.3708
214.3962, 422.6867
214.8783, 421.3266
215.3604, 420.6060
215.8425, 420.1881
216.3246, 418.4913
216.8067, 414.6570
217.2889, 411.1576
217.7710, 409.7988
218.2531, 411.6985
218.7352, 412.2333
219.2173, 410.1951
219.6994, 406.4641
220.1816, 405.5519
220.6637, 408.8026
221.1458, 412.4852
221.6279, 414.0238
222.1100, 412.2260
222.5921, 411.5552
223.0743, 412.9247
223.5564, 415.7218
224.0385, 416.9378
224.5206, 415.5824
225.0027, 414.1894
225.4848, 414.3371
225.9670, 416.5153
226.4491, 419.1092
226.9312, 422.2456
227.4133, 425.7338
227.8954, 428.8208
228.3775, 431.4854
228.8597, 433.7062
229.3418, 435.1521
229.8239, 434.6639
230.3060, 436.1178
230.7881, 440.2518
231.2702, 446.6005
231.7524, 452.9183
232.2345, 459.3573
232.7166, 465.4207
233.1987, 470.7375
233.6808, 475.1831
234.1629, 479.0780
234.6451, 482.2265
235.1272, 484.8271
235.6093, 487.7842
236.0914, 490.9871
236.5735, 494.6917
237.0556, 499.1168
237.5378, 504.6649
238.0199, 510.1185
238.5020, 515.6711
238.9841, 521.1313
239.4662, 525.4082
239.9483, 527.9595
240.4305, 530.1116
240.9126, 532.5755
241.3947, 535.4914
241.8768, 538.4493
242.3589, 541.4824
242.8410, 544.5383
243.3232, 547.4208
243.8053, 549.7142
244.2874, 552.3881
244.7695, 556.0563
245.2516, 561.6342
245.7337, 566.1182
246.2159, 568.9109
246.6980, 570.6096
247.1801, 573.1422
247.6622, 577.0450
248.1443, 580.9852
248.6264, 584.2452
249.1086, 586.4464
249.5907, 588.9247
250.0728, 591.8011
250.5549, 594.9443
251.0370, 597.9100
251.5191, 600.2521
252.0013, 603.1556
252.4834, 607.4629
252.9655, 614.2932
253.4476, 619.4412
253.9297, 622.2923
254.4118, 623.7405
254.8940, 625.9074
255.3761, 629.3353
255.8582, 632.5336
256.3403, 634.9132
256.8224, 636.4412
257.3046, 637.2394
257.7867, 637.3679
258.2688, 636.7072
258.7509, 634.7742
259.2330, 630.7758
259.7151, 627.1555
260.1973, 625.1619
260.6794, 625.5554
261.1615, 624.3076
261.6436, 621.1771
262.1257, 616.6521
262.6078, 611.5694
263.0900, 606.1780
263.5721, 599.7535
264.0542, 591.7541
264.5363, 581.6581
265.0184, 572.9434
265.5005, 565.7263
265.9827, 559.5860
266.4648, 553.8499
266.9469, 548.6109
267.4290, 543.6481
267.9111, 539.0108
268.3932, 534.7741
268.8754, 529.5594
269.3575, 522.6503
269.8396, 515.8467
270.3217, 511.9799
270.8038, 511.9767
271.2859, 511.2554
271.7681, 508.1863
272.2502, 502.8947
272.7323, 498.7379
273.2144, 495.6558
273.6965, 493.9756
274.1786, 494.7009
274.6608, 498.4911
275.1429, 501.1084
275.6250, 501.2465
276.1071, 499.2567
276.5892, 497.6709
277.0714, 496.5208
277.5535, 495.7598
278.0356, 495.1918
278.5177, 494.7364
278.9998, 495.3306
279.4819, 497.4092
279.9641, 500.6328
280.4462, 503.4472
280.9283, 505.7843
281.4104, 508.0315
281.8925, 510.6067
282.3746, 513.5200
282.8568, 516.1429
283.3389, 518.2139
283.8210, 520.0745
284.3031, 522.8180
284.7852, 526.5694
285.2673, 530.3506
285.7495, 533.6395
286.2316, 536.4434
286.7137, 538.6620
287.1958, 540.1805
287.6779, 541.2792
288.1600, 542.3040
288.6422, 543.2435
289.1243, 544.6837
289.6064, 547.3315
290.0885, 550.9048
290.5706, 553.7978
291.0527, 555.7495
291.5349, 557.2248
292.0170, 558.9932
292.4991, 560.9935
292.9812, 562.8141
293.4633, 563.7841
293.9454, 564.3397
294.4276, 566.1002
294.9097, 569.3375
295.3918, 572.8770
295.8739, 574.9276
296.3560, 575.8254
296.8381, 577.2535
297.3203, 579.9811
297.8024, 583.7664
298.2845, 588.1380
298.7666, 593.0961
299.2487, 598.7748
299.7308, 605.5858
300.2130, 613.3459
300.6951, 621.3927
301.1772, 628.7957
301.6593, 636.6288
302.1414, 647.0754
302.6235, 659.9922
303.1057, 673.2309
303.5878, 684.5545
304.0699, 694.9029
304.5520, 705.7734
305.0341, 717.6913
305.5162, 730.2781
305.9984, 743.3450
306.4805, 756.7863
306.9626, 770.7386
307.4447, 785.4584
307.9268, 800.5918
308.4089, 815.4600
308.8911, 829.8557
309.3732, 844.0234
309.8553, 857.9066
310.3374, 871.5991
310.8195, 885.7355
311.3016, 901.5892
311.7838, 917.3593
312.2659, 931.5588
312.7480, 943.5779
313.2301, 954.5564
313.7122, 964.6328
314.1943, 974.2965
314.6765, 984.3586
315.1586, 997.1666
315.6407, 1009.085
316.1228, 1017.787
316.6049, 1022.520
317.0870, 1025.764
317.5692, 1028.388
318.0513, 1030.219
318.5334, 1030.989
319.0155, 1030.943
319.4976, 1029.546
319.9797, 1026.323
320.4619, 1021.151
320.9440, 1015.363
321.4261, 1009.550
321.9082, 1003.259
322.3903, 996.0763
322.8724, 986.8123
323.3546, 977.7361
323.8367, 969.8027
324.3188, 962.9479
324.8009, 955.1404
325.2830, 945.0428
325.7651, 934.6126
326.2473, 925.1486
326.7294, 916.8796
327.2115, 909.4911
327.6936, 903.9299
328.1757, 899.6461
328.6578, 893.5653
329.1400, 882.5399
329.6221, 872.3461
330.1042, 865.5601
330.5863, 865.8933
331.0684, 863.4044
331.5505, 856.1849
332.0327, 846.4964
332.5148, 839.4913
332.9969, 836.7668
333.4790, 834.5382
333.9611, 831.6181
334.4432, 828.0158
334.9254, 823.5292
335.4075, 818.1238
335.8896, 811.8748
336.3717, 804.5621
336.8538, 795.2984
337.3359, 787.2948
337.8180, 781.8708
338.3001, 778.9973
338.7823, 775.3161
339.2644, 770.9202
339.7465, 765.6643
340.2286, 759.3830
340.7107, 752.1233
341.1928, 743.8107
341.6750, 734.0870
342.1571, 723.5168
342.6392, 715.1783
343.1213, 709.3837
343.6034, 703.8149
344.0855, 696.3361
344.5677, 687.1221
345.0498, 678.9289
345.5319, 672.2540
346.0140, 666.5681
346.4961, 661.1898
346.9782, 656.1149
347.4604, 650.5834
347.9425, 643.7111
348.4246, 635.9673
348.9067, 629.6017
349.3888, 624.9813
349.8709, 620.4882
350.3531, 613.5588
350.8352, 604.9079
351.3173, 597.2239
351.7994, 592.5654
352.2815, 589.2250
352.7636, 584.2748
353.2458, 577.7071
353.7279, 570.5958
354.2100, 563.5043
354.6921, 556.5305
355.1742, 549.9158
355.6563, 544.0169
356.1385, 538.0964
356.6206, 531.3664
357.1027, 523.9078
357.5848, 516.3343
358.0669, 508.6612
358.5490, 501.1452
359.0312, 494.0626
359.5133, 487.4320
359.9954, 481.1578
360.4775, 475.1117
360.9596, 469.3525
361.4417, 464.0981
361.9239, 459.5799
362.4060, 455.4239
362.8881, 451.2119
363.3702, 446.6817
363.8523, 443.2995
364.3344, 442.2569
364.8166, 442.3636
365.2987, 442.2609
365.7808, 442.1009
366.2629, 441.2370
366.7450, 438.8073
367.2271, 434.8380
367.7093, 432.4232
368.1914, 432.5366
368.6735, 433.9182
369.1556, 435.7784
369.6377, 438.7980
370.1198, 441.3260
370.6020, 442.9814
371.0841, 444.0490
371.5662, 445.6090
372.0483, 448.1520
372.5304, 450.5506
373.0125, 452.1078
373.4947, 451.8978
373.9768, 453.6438
374.4589, 458.3846
374.9410, 464.2690
375.4231, 467.9926
375.9052, 468.5365
376.3874, 469.9080
376.8695, 473.5943
377.3516, 479.5793
377.8337, 484.8461
378.3158, 489.6494
378.7979, 493.2978
379.2801, 494.4067
379.7622, 492.8256
380.2443, 492.4341
380.7264, 494.3214
381.2085, 497.5962
381.6906, 499.9131
382.1728, 501.2471
382.6549, 502.3349
383.1370, 503.8844
383.6191, 505.6326
384.1012, 506.3942
384.5833, 505.9061
385.0655, 504.8839
385.5476, 503.9011
386.0297, 503.0831
386.5118, 502.9648
386.9939, 504.6625
387.4760, 506.8661
387.9582, 507.6411
388.4403, 506.9510
388.9224, 505.6122
389.4045, 503.3383
389.8866, 501.0942
390.3687, 500.2959
390.8509, 502.2737
391.3330, 504.9335
391.8151, 507.0616
392.2972, 508.6992
392.7793, 510.0450
393.2614, 510.7234
393.7436, 511.4416
394.2257, 512.7982
394.7078, 515.1796
395.1899, 517.4735
395.6720, 519.0684
396.1541, 520.3566
396.6363, 521.9700
397.1184, 524.1400
397.6005, 526.5801
398.0826, 529.1506
398.5647, 531.8107
399.0468, 534.8894
399.5290, 540.0436
400.0111, 544.7118
400.4932, 546.7977
400.9753, 543.3405
401.4574, 541.2866
401.9395, 541.6809
402.4217, 544.0416
402.9038, 546.1711
403.3859, 548.2034
403.8680, 549.8123
404.3501, 550.6243
404.8322, 550.0814
405.3144, 550.8815
405.7965, 553.7075
406.2786, 557.0511
406.7607, 558.1641
407.2428, 556.5589
407.7249, 555.4672
408.2071, 556.6396
408.6892, 559.3890
409.1713, 559.1176
409.6534, 555.5675
410.1355, 550.3948
410.6176, 544.0497
411.0998, 536.9702
411.5819, 532.1672
412.0640, 530.8195
412.5461, 530.9858
413.0282, 529.8593
413.5103, 527.4934
413.9925, 524.2302
414.4746, 519.6949
414.9567, 514.5364
415.4388, 509.8408
415.9209, 505.6809
416.4030, 501.7115
416.8852, 497.3953
417.3673, 493.0722
417.8494, 489.2778
418.3315, 486.9437
418.8136, 484.5808
419.2957, 480.7138
419.7779, 475.6917
420.2600, 471.5541
420.7421, 469.8717
421.2242, 469.0742
421.7063, 468.1207
422.1884, 466.8867
422.6706, 465.3405
423.1527, 463.2917
423.6348, 460.9377
424.1169, 458.6443
424.5990, 456.5512
425.0811, 454.4059
425.5633, 451.9211
426.0454, 448.9109
426.5275, 446.8583
427.0096, 446.7220
427.4917, 446.7480
427.9738, 445.5684
428.4560, 443.2209
428.9381, 439.4088
429.4202, 433.1140
429.9023, 425.5820
430.3844, 421.2872
430.8665, 421.4884
431.3487, 421.4207
431.8308, 418.4055
432.3129, 412.2964
432.7950, 406.5719
433.2771, 401.1846
433.7592, 396.4678
434.2414, 393.5216
434.7235, 392.1030
435.2056, 389.0941
435.6877, 382.6821
436.1698, 374.6716
436.6519, 368.8145
437.1341, 365.0432
437.6162, 361.9617
438.0983, 358.8569
438.5804, 355.6293
439.0625, 352.0083
439.5446, 347.8143
440.0268, 343.6861
440.5089, 340.2319
440.9910, 337.2477
441.4731, 334.3722
441.9552, 331.3117
442.4373, 328.3709
442.9195, 325.8112
443.4016, 323.6225
443.8837, 321.3195
444.3658, 318.3118
444.8479, 315.3090
445.3300, 312.9281
445.8122, 312.2592
446.2943, 310.9084
446.7764, 307.8827
447.2585, 303.8553
447.7406, 300.5501
448.2227, 297.7270
448.7049, 296.0260
449.1870, 296.1920
449.6691, 298.9024
450.1512, 299.2404
450.6333, 295.7873
451.1154, 291.5157
451.5976, 289.3487
452.0797, 289.9608
452.5618, 290.4975
453.0439, 290.4797
453.5260, 290.1373
454.0081, 290.1875
454.4903, 290.6722
454.9724, 291.2970
455.4545, 292.0507
455.9366, 292.8626
456.4187, 293.0089
456.9008, 292.2827
457.3830, 291.8867
457.8651, 293.7404
458.3472, 297.1797
458.8293, 299.9978
459.3114, 301.4841
459.7935, 302.0140
460.2757, 301.4516
460.7578, 300.1053
461.2399, 299.5278
461.7220, 301.2780
462.2041, 303.9215
462.6862, 306.1140
463.1684, 307.6006
463.6505, 308.8983
464.1326, 310.4024
464.6147, 311.8212
465.0968, 312.7966
465.5789, 312.1040
466.0611, 312.0693
466.5432, 313.8913
467.0253, 317.3614
467.5074, 320.0441
467.9895, 320.8946
468.4716, 321.5203
468.9538, 322.6947
469.4359, 324.7854
469.9180, 326.5973
470.4001, 328.1860
470.8822, 329.4682
471.3643, 330.2789
471.8465, 330.4738
472.3286, 330.6311
472.8107, 331.0485
473.2928, 331.5606
473.7749, 331.0045
474.2570, 329.1778
474.7392, 327.3455
475.2213, 326.9112
475.7034, 327.5290
476.1855, 326.6247
476.6676, 323.6759
477.1497, 320.0417
477.6319, 317.2627
478.1140, 315.2865
478.5961, 313.9953
479.0782, 313.8314
479.5603, 314.0237
480.0424, 313.8143
480.5246, 313.1958
481.0067, 312.1353
481.4888, 309.8877
481.9709, 307.5888
482.4530, 306.4589
482.9352, 307.4253
483.4173, 307.8172
483.8994, 305.9166
484.3815, 302.9144
484.8636, 300.6451
485.3457, 300.4213
485.8279, 300.0530
486.3100, 298.9867
486.7921, 297.1947
487.2742, 295.1388
487.7563, 292.3044
488.2384, 289.7139
488.7206, 288.0858
489.2027, 288.0969
489.6848, 287.2230
490.1669, 285.1497
490.6490, 282.4962
491.1311, 280.1374
491.6133, 278.1030
492.0954, 276.2884
492.5775, 274.6187
493.0596, 273.1563
493.5417, 272.0115
494.0238, 271.1780
494.5060, 270.9448
494.9881, 272.1644
495.4702, 274.1116
495.9523, 274.9411
496.4344, 274.2980
496.9165, 273.0092
497.3987, 271.3317
497.8808, 269.6449
498.3629, 268.7004
498.8450, 269.8286
499.3271, 270.9397
499.8092, 270.5663
500.2914, 268.9088
500.7735, 267.1407
501.2556, 264.9900
501.7377, 263.3806
502.2198, 262.9892
502.7019, 264.4337
503.1841, 265.6671
503.6662, 266.3404
504.1483, 266.7181
504.6304, 267.1249
505.1125, 267.9098
505.5946, 268.1110
506.0768, 267.2223
506.5589, 265.5963
507.0410, 265.0659
507.5231, 265.8871
508.0052, 267.0701
508.4873, 268.3463
508.9695, 269.7032
509.4516, 270.0404
509.9337, 269.1163
510.4158, 268.1447
510.8979, 268.6442
511.3800, 270.3528
511.8622, 272.1474
512.3443, 273.9319
512.8264, 275.3676
513.3085, 275.6760
513.7906, 275.1747
514.2728, 275.0015
514.7549, 276.1931
515.2370, 277.7350
515.7191, 278.9988
516.2012, 279.9659
516.6833, 280.0005
517.1655, 277.3802
517.6476, 274.4700
518.1297, 273.3271
518.6118, 277.2001
519.0939, 279.3459
519.5760, 277.7565
520.0582, 273.7715
520.5403, 270.5868
521.0224, 268.4615
521.5045, 266.8294
521.9866, 265.6174
522.4688, 264.8200
522.9509, 264.0471
523.4330, 263.1228
523.9151, 262.6065
524.3972, 263.1671
524.8793, 264.8316
525.3615, 266.0641
525.8436, 266.7384
526.3257, 266.9346
526.8078, 266.5378
527.2899, 265.6808
527.7720, 265.0322
528.2542, 265.2288
528.7363, 265.4884
529.2184, 264.4575
529.7005, 262.3904
530.1826, 260.6230
530.6647, 260.0833
531.1469, 260.1432
531.6290, 260.2834
532.1111, 260.4269
532.5932, 260.6957
533.0753, 261.4737
533.5574, 262.2628
534.0396, 262.5335
534.5217, 260.9792
535.0038, 260.3484
535.4859, 261.8522
535.9680, 264.6049
536.4501, 265.6800
536.9323, 263.8971
537.4144, 262.4461
537.8965, 262.6293
538.3786, 264.4874
538.8607, 265.9290
539.3428, 266.8511
539.8250, 267.6284
540.3071, 268.6742
540.7892, 269.9210
541.2713, 270.7997
541.7534, 271.1217
542.2355, 271.3113
542.7177, 272.0273
543.1998, 273.1234
543.6819, 274.1158
544.1640, 274.5329
544.6461, 274.9078
545.1282, 275.8586
545.6104, 277.2868
546.0925, 278.5954
546.5746, 278.9706
547.0567, 279.4713
547.5388, 280.9503
548.0209, 283.8831
548.5031, 286.5696
548.9852, 288.4302
549.4673, 289.9994
549.9494, 291.8256
550.4315, 293.7592
550.9136, 296.2495
551.3958, 299.8238
551.8779, 303.8733
552.3600, 306.2676
552.8421, 306.4330
553.3242, 306.9721
553.8063, 308.8244
554.2885, 311.9609
554.7706, 316.6938
555.2527, 323.2135
555.7348, 329.3241
556.2169, 332.4115
556.6990, 333.6144
557.1812, 335.9331
557.6633, 339.8945
558.1454, 344.8224
558.6275, 351.1713
559.1096, 357.8551
559.5917, 363.0958
560.0739, 364.3133
560.5560, 365.5987
561.0381, 369.5857
561.5202, 375.5491
562.0023, 380.3958
562.4844, 381.3004
562.9666, 382.6818
563.4487, 386.8654
563.9308, 394.6151
564.4129, 401.2723
564.8950, 406.3476
565.3771, 410.8593
565.8593, 415.6089
566.3414, 420.5692
566.8235, 425.9509
567.3056, 431.8492
567.7877, 438.1578
568.2698, 444.7700
568.7520, 451.7291
569.2341, 458.7301
569.7162, 465.3330
570.1983, 472.1967
570.6804, 481.0698
571.1625, 491.6833
571.6447, 502.3617
572.1268, 511.1270
572.6089, 519.9661
573.0910, 530.8447
573.5731, 544.2833
574.0552, 558.1725
574.5374, 571.0953
575.0195, 584.3997
575.5016, 599.3884
575.9837, 618.1805
576.4658, 636.2673
576.9479, 653.1542
577.4301, 669.2053
577.9122, 685.1672
578.3943, 701.0296
578.8764, 717.0755
579.3585, 733.2594
579.8406, 749.6574
580.3228, 767.4584
580.8049, 787.0641
581.2870, 805.3608
581.7691, 820.2814
582.2512, 832.2348
582.7333, 843.1846
583.2155, 853.3293
583.6975, 862.0488
584.1796, 869.5602
584.6617, 875.2883
585.1439, 878.3416
585.6260, 878.4272
586.1081, 875.9159
586.5902, 870.4381
587.0723, 862.5609
587.5544, 853.5209
588.0366, 844.6293
588.5187, 833.4525
589.0008, 818.6744
589.4829, 800.3555
589.9650, 781.4308
590.4471, 761.4261
590.9293, 741.3128
591.4114, 721.8996
591.8935, 703.3190
592.3756, 683.5446
592.8577, 662.0298
593.3398, 640.6661
593.8220, 621.0560
594.3041, 603.1228
594.7862, 586.3009
595.2683, 570.5379
595.7504, 555.6445
596.2325, 541.0734
596.7147, 526.9180
597.1968, 513.6699
597.6789, 501.0296
598.1610, 489.6423
598.6431, 480.5614
599.1252, 473.3652
599.6074, 465.9447
600.0895, 456.6881
600.5716, 447.6812
601.0537, 440.0266
601.5358, 434.2072
602.0179, 428.1639
602.5001, 421.4204
602.9822, 414.8754
603.4643, 409.1489
603.9464, 404.2060
604.4285, 400.1915
604.9106, 397.4111
605.3928, 394.9533
605.8749, 391.0536
606.3570, 385.8475
606.8391, 381.3693
607.3212, 378.4217
607.8033, 376.2858
608.2855, 373.9391
608.7676, 371.4578
609.2497, 369.0410
609.7318, 366.6754
610.2139, 364.5289
610.6960, 363.1032
611.1782, 362.3562
611.6603, 360.8014
612.1424, 356.7853
612.6245, 352.6031
613.1066, 349.6585
613.5887, 348.2845
614.0709, 347.6893
614.5530, 348.6770
615.0351, 349.7241
615.5172, 349.0444
615.9993, 346.1449
616.4814, 343.7202
616.9636, 342.1525
617.4457, 341.2443
617.9278, 340.6925
618.4099, 340.4826
618.8920, 340.4672
619.3741, 340.6960
619.8563, 340.9926
620.3384, 341.0104
620.8205, 340.8193
621.3026, 340.7837
621.7847, 341.3295
622.2668, 341.9540
622.7490, 342.3661
623.2311, 342.5609
623.7132, 342.3039
624.1953, 340.9962
624.6774, 339.5903
625.1595, 338.6808
625.6417, 337.7663
626.1238, 338.5415
626.6059, 342.0001
627.0880, 346.0628
627.5701, 347.5507
628.0522, 346.0942
628.5344, 345.8404
629.0165, 348.1146
629.4986, 351.3714
629.9807, 352.2391
630.4628, 351.1818
630.9449, 350.6890
631.4271, 352.6232
631.9092, 355.3315
632.3913, 356.9632
632.8734, 357.6719
633.3555, 358.4751
633.8376, 359.6690
634.3198, 361.2816
634.8019, 363.6320
635.2840, 367.0948
635.7661, 369.4291
636.2482, 369.3248
636.7303, 368.9520
637.2125, 369.8711
637.6946, 372.7232
638.1767, 374.9476
638.6588, 376.1772
639.1409, 377.2362
639.6230, 379.6881
640.1052, 383.3912
640.5873, 385.8417
641.0694, 386.0082
641.5515, 385.2855
642.0336, 385.5875
642.5157, 386.7100
642.9979, 388.0705
643.4800, 389.1933
643.9621, 390.5963
644.4442, 392.6798
644.9263, 395.3839
645.4084, 398.3076
645.8906, 401.6015
646.3727, 404.8217
646.8548, 407.9433
647.3369, 411.1026
647.8190, 412.9647
648.3011, 412.5533
648.7833, 412.2882
649.2654, 414.2841
649.7475, 418.8265
650.2296, 422.2130
650.7117, 424.0021
651.1938, 425.5698
651.6760, 428.3739
652.1581, 432.3219
652.6402, 437.2225
653.1223, 443.5430
653.6044, 449.7036
654.0865, 454.4537
654.5687, 458.0994
655.0508, 461.2665
655.5329, 463.5314
656.0150, 466.0806
656.4971, 469.2931
656.9792, 473.1546
657.4614, 477.5742
657.9435, 483.1549
658.4256, 488.3566
658.9077, 492.1429
659.3898, 494.6666
659.8719, 500.3900
660.3541, 510.0511
660.8362, 519.4139
661.3183, 524.6979
661.8004, 527.1132
662.2825, 532.1318
662.7646, 540.1819
663.2468, 548.4984
663.7289, 554.2431
