##NAMES=Jinshajiangite
##RRUFFID=R061018
##IDEAL CHEMISTRY=BaNaFe^2+^_4_Ti^4+^_2_(Si_2_O_7_)_2_O_2_(OH)_2_F
##LOCALITY=Jinshajiang River, western Sichuan Province, China
##OWNER=RRUFF
##SOURCE=Pingqiu Fu
##DESCRIPTION=Brownish red cleavage fragments, portion of the type sample
##STATUS=The identification of this mineral is confirmed by single-crystal X-ray diffraction and chemical analysis.
##URL=rruff.info/R061018
##MEASURED CHEMISTRY=Na_0.71_(Ba_0.58_K_0.39_Ce_0.14_)_Σ=1.11_(Fe_1.93_Mn_1.91_Mg_0.03_)_Σ=3.87_(Ti_1.77_Si_0.15_Zr_0.09_Al_0.004_)_Σ=2.01_(Si_2_O_7_)_2_O_2_(OH)_2_F_0.52_
125.3794, 2290.270
125.8615, 2409.171
126.3436, 2555.796
126.8257, 2722.328
127.3078, 2888.363
127.7900, 3045.643
128.2721, 3196.276
128.7542, 3349.107
129.2363, 3505.446
129.7184, 3658.495
130.2005, 3802.682
130.6826, 3936.478
131.1648, 4058.097
131.6469, 4162.249
132.1290, 4250.893
132.6111, 4342.086
133.0932, 4442.484
133.5753, 4538.595
134.0575, 4605.777
134.5396, 4643.696
135.0217, 4650.258
135.5038, 4619.459
135.9859, 4550.117
136.4680, 4464.296
136.9502, 4361.207
137.4323, 4243.697
137.9144, 4129.495
138.3965, 4017.236
138.8786, 3909.012
139.3607, 3806.422
139.8429, 3708.700
140.3250, 3616.592
140.8071, 3526.869
141.2892, 3436.915
141.7713, 3378.689
142.2534, 3359.863
142.7356, 3365.117
143.2177, 3371.574
143.6998, 3374.698
144.1819, 3386.841
144.6640, 3413.523
145.1461, 3460.460
145.6283, 3506.369
146.1104, 3552.745
146.5925, 3597.433
147.0746, 3634.933
147.5567, 3663.513
148.0388, 3686.463
148.5210, 3704.275
149.0031, 3700.391
149.4852, 3713.664
149.9673, 3755.010
150.4494, 3820.485
150.9315, 3872.428
151.4137, 3903.389
151.8958, 3926.761
152.3779, 3950.064
152.8600, 3961.677
153.3421, 3986.286
153.8242, 4034.235
154.3064, 4106.350
154.7885, 4169.768
155.2706, 4216.675
155.7527, 4253.789
156.2348, 4286.988
156.7169, 4298.803
157.1991, 4323.251
157.6812, 4373.825
158.1633, 4455.641
158.6454, 4540.904
159.1275, 4623.859
159.6096, 4704.394
160.0918, 4783.083
160.5739, 4852.278
161.0560, 4923.930
161.5381, 5005.898
162.0202, 5104.926
162.5023, 5199.366
162.9845, 5283.860
163.4666, 5356.982
163.9487, 5417.760
164.4308, 5473.588
164.9129, 5512.522
165.3950, 5524.463
165.8772, 5498.578
166.3593, 5458.969
166.8414, 5428.786
167.3235, 5400.769
167.8056, 5342.599
168.2877, 5219.901
168.7699, 5064.120
169.2520, 4908.404
169.7341, 4765.113
170.2162, 4623.674
170.6983, 4468.571
171.1804, 4302.773
171.6626, 4145.577
172.1447, 4007.768
172.6268, 3887.408
173.1089, 3783.326
173.5910, 3699.254
174.0731, 3627.789
174.5553, 3560.049
175.0374, 3495.920
175.5195, 3441.008
176.0016, 3403.633
176.4837, 3379.083
176.9658, 3356.523
177.4480, 3325.928
177.9301, 3295.248
178.4122, 3280.001
178.8943, 3283.283
179.3764, 3290.144
179.8585, 3280.594
180.3407, 3258.977
180.8228, 3242.429
181.3049, 3244.859
181.7870, 3259.261
182.2691, 3268.860
182.7512, 3270.371
183.2334, 3270.441
183.7155, 3279.771
184.1976, 3297.363
184.6797, 3315.819
185.1618, 3331.877
185.6439, 3345.067
186.1261, 3350.806
186.6082, 3342.972
187.0903, 3334.226
187.5724, 3354.069
188.0545, 3402.383
188.5366, 3454.182
189.0188, 3484.448
189.5009, 3497.338
189.9830, 3522.156
190.4651, 3568.478
190.9472, 3628.617
191.4293, 3684.162
191.9114, 3734.460
192.3936, 3779.176
192.8757, 3815.082
193.3578, 3842.489
193.8399, 3874.161
194.3220, 3915.256
194.8041, 3963.694
195.2863, 4009.881
195.7684, 4053.690
196.2505, 4096.036
196.7326, 4139.201
197.2147, 4183.571
197.6968, 4223.070
198.1790, 4256.097
198.6611, 4282.613
199.1432, 4303.460
199.6253, 4319.140
200.1074, 4327.717
200.5895, 4321.306
201.0717, 4296.087
201.5538, 4280.959
202.0359, 4295.080
202.5180, 4340.925
203.0001, 4356.551
203.4822, 4331.129
203.9644, 4289.943
204.4465, 4281.557
204.9286, 4313.875
205.4107, 4345.292
205.8928, 4355.052
206.3749, 4338.874
206.8571, 4330.150
207.3392, 4333.260
207.8213, 4340.775
208.3034, 4334.343
208.7855, 4309.576
209.2676, 4284.213
209.7498, 4267.559
210.2319, 4261.587
210.7140, 4256.684
211.1961, 4253.008
211.6782, 4250.083
212.1603, 4247.472
212.6425, 4247.653
213.1246, 4242.883
213.6067, 4225.617
214.0888, 4188.685
214.5709, 4163.568
215.0530, 4154.556
215.5352, 4159.005
216.0173, 4166.447
216.4994, 4178.356
216.9815, 4190.091
217.4636, 4197.161
217.9457, 4194.947
218.4279, 4201.324
218.9100, 4222.948
219.3921, 4256.301
219.8742, 4273.920
220.3563, 4268.339
220.8384, 4258.182
221.3206, 4256.597
221.8027, 4263.280
222.2848, 4280.179
222.7669, 4311.617
223.2490, 4356.030
223.7311, 4393.606
224.2132, 4423.889
224.6954, 4447.693
225.1775, 4463.494
225.6596, 4463.144
226.1417, 4472.768
226.6238, 4499.611
227.1059, 4543.454
227.5881, 4584.210
228.0702, 4625.615
228.5523, 4659.406
229.0344, 4674.112
229.5165, 4652.655
229.9986, 4645.939
230.4808, 4669.081
230.9629, 4724.298
231.4450, 4768.649
231.9271, 4798.336
232.4092, 4820.189
232.8913, 4841.702
233.3735, 4864.932
233.8556, 4883.889
234.3377, 4894.504
234.8198, 4894.514
235.3019, 4907.299
235.7840, 4942.089
236.2662, 4982.355
236.7483, 5006.067
237.2304, 4999.240
237.7125, 5000.510
238.1946, 5022.325
238.6767, 5069.377
239.1589, 5108.672
239.6410, 5140.344
240.1231, 5164.392
240.6052, 5178.637
241.0873, 5175.699
241.5694, 5175.757
242.0516, 5184.971
242.5337, 5205.350
243.0158, 5224.948
243.4979, 5244.300
243.9800, 5262.226
244.4621, 5276.922
244.9443, 5287.100
245.4264, 5295.508
245.9085, 5303.681
246.3906, 5313.205
246.8727, 5314.121
247.3548, 5300.187
247.8370, 5281.405
248.3191, 5274.324
248.8012, 5284.746
249.2833, 5297.266
249.7654, 5307.964
250.2475, 5317.455
250.7297, 5323.793
251.2118, 5328.033
251.6939, 5328.954
252.1760, 5322.932
252.6581, 5303.397
253.1402, 5289.311
253.6223, 5289.010
254.1045, 5308.457
254.5866, 5319.708
255.0687, 5320.321
255.5508, 5314.525
256.0329, 5308.563
256.5150, 5298.472
256.9972, 5295.533
257.4793, 5306.210
257.9614, 5336.229
258.4435, 5355.289
258.9256, 5356.930
259.4077, 5351.603
259.8899, 5359.313
260.3720, 5385.578
260.8541, 5413.145
261.3362, 5436.251
261.8183, 5455.133
262.3004, 5468.858
262.7826, 5477.687
263.2647, 5480.869
263.7468, 5473.823
264.2289, 5448.219
264.7110, 5431.833
265.1931, 5440.221
265.6753, 5482.208
266.1574, 5504.241
266.6395, 5500.268
267.1216, 5482.455
267.6037, 5471.890
268.0858, 5469.610
268.5680, 5472.314
269.0501, 5480.230
269.5322, 5494.741
270.0143, 5505.804
270.4964, 5512.761
270.9785, 5517.094
271.4607, 5521.182
271.9428, 5524.991
272.4249, 5528.775
272.9070, 5529.967
273.3891, 5526.783
273.8712, 5538.905
274.3534, 5570.299
274.8355, 5611.229
275.3176, 5644.406
275.7997, 5668.226
276.2818, 5691.660
276.7639, 5720.131
277.2461, 5754.174
277.7282, 5778.119
278.2103, 5788.326
278.6924, 5794.642
279.1745, 5814.837
279.6566, 5850.961
280.1388, 5884.116
280.6209, 5902.981
281.1030, 5908.120
281.5851, 5924.851
282.0672, 5956.004
282.5493, 5992.461
283.0315, 6019.294
283.5136, 6035.854
283.9957, 6056.650
284.4778, 6092.913
284.9599, 6142.109
285.4420, 6174.177
285.9242, 6186.510
286.4063, 6190.873
286.8884, 6203.942
287.3705, 6225.244
287.8526, 6240.930
288.3347, 6243.905
288.8169, 6236.216
289.2990, 6227.620
289.7811, 6218.013
290.2632, 6207.327
290.7453, 6198.973
291.2274, 6191.441
291.7096, 6172.970
292.1917, 6131.460
292.6738, 6076.127
293.1559, 6031.938
293.6380, 5999.417
294.1201, 5977.201
294.6023, 5970.024
295.0844, 5974.287
295.5665, 5974.951
296.0486, 5962.792
296.5307, 5944.901
297.0128, 5935.522
297.4950, 5935.021
297.9771, 5939.312
298.4592, 5941.032
298.9413, 5944.115
299.4234, 5959.350
299.9055, 5993.739
300.3876, 6040.251
300.8698, 6089.229
301.3519, 6139.802
301.8340, 6196.251
302.3161, 6268.153
302.7982, 6347.352
303.2803, 6416.128
303.7625, 6462.035
304.2446, 6500.914
304.7267, 6555.743
305.2088, 6623.380
305.6909, 6684.181
306.1730, 6718.445
306.6552, 6737.922
307.1373, 6759.279
307.6194, 6794.165
308.1015, 6825.363
308.5836, 6829.985
309.0657, 6813.904
309.5479, 6806.966
310.0300, 6837.565
310.5121, 6882.294
310.9942, 6917.348
311.4763, 6933.377
311.9584, 6942.430
312.4406, 6945.661
312.9227, 6946.403
313.4048, 6956.871
313.8869, 6995.556
314.3690, 7039.489
314.8511, 7069.023
315.3333, 7070.920
315.8154, 7074.258
316.2975, 7089.768
316.7796, 7116.703
317.2617, 7152.267
317.7438, 7205.134
318.2260, 7260.023
318.7081, 7306.893
319.1902, 7338.784
319.6723, 7374.756
320.1544, 7420.380
320.6365, 7473.921
321.1187, 7532.243
321.6008, 7591.495
322.0829, 7656.882
322.5650, 7731.942
323.0471, 7821.335
323.5292, 7908.001
324.0114, 7986.629
324.4935, 8061.300
324.9756, 8138.553
325.4577, 8214.997
325.9398, 8296.890
326.4219, 8387.886
326.9041, 8492.001
327.3862, 8590.632
327.8683, 8687.366
328.3504, 8777.022
328.8325, 8852.216
329.3146, 8893.988
329.7968, 8943.451
330.2789, 9010.037
330.7610, 9095.739
331.2431, 9183.214
331.7252, 9279.396
332.2073, 9371.307
332.6895, 9446.896
333.1716, 9506.748
333.6537, 9549.506
334.1358, 9573.557
334.6179, 9579.563
335.1000, 9577.994
335.5822, 9564.775
336.0643, 9549.711
336.5464, 9542.045
337.0285, 9546.172
337.5106, 9544.306
337.9927, 9538.813
338.4749, 9524.763
338.9570, 9474.903
339.4391, 9378.033
339.9212, 9275.963
340.4033, 9198.360
340.8854, 9146.816
341.3676, 9099.095
341.8497, 9053.043
342.3318, 9009.956
342.8139, 8973.420
343.2960, 8944.644
343.7781, 8916.318
344.2603, 8887.430
344.7424, 8857.193
345.2245, 8815.405
345.7066, 8759.230
346.1887, 8698.604
346.6708, 8648.891
347.1530, 8609.301
347.6351, 8576.823
348.1172, 8552.780
348.5993, 8534.168
349.0814, 8517.885
349.5635, 8506.144
350.0457, 8481.524
350.5278, 8413.356
351.0099, 8313.689
351.4920, 8221.526
351.9741, 8171.840
352.4562, 8131.481
352.9384, 8049.905
353.4205, 7928.207
353.9026, 7785.806
354.3847, 7629.922
354.8668, 7467.094
355.3489, 7308.186
355.8311, 7165.154
356.3132, 7021.425
356.7953, 6850.132
357.2774, 6659.017
357.7595, 6486.297
358.2416, 6369.514
358.7238, 6275.732
359.2059, 6171.512
359.6880, 6033.458
360.1701, 5904.156
360.6522, 5815.112
361.1343, 5753.842
361.6164, 5682.269
362.0985, 5564.740
362.5807, 5445.599
363.0628, 5352.167
363.5449, 5296.865
364.0270, 5250.373
364.5091, 5213.427
364.9912, 5179.423
365.4734, 5136.295
365.9555, 5067.531
366.4376, 5001.294
366.9197, 4948.351
367.4018, 4911.529
367.8839, 4879.650
368.3661, 4849.806
368.8482, 4825.476
369.3303, 4810.883
369.8124, 4814.643
370.2945, 4817.975
370.7766, 4816.138
371.2588, 4808.389
371.7409, 4806.087
372.2230, 4810.623
372.7051, 4818.982
373.1872, 4828.273
373.6693, 4836.212
374.1515, 4849.779
374.6336, 4871.018
375.1157, 4898.564
375.5978, 4928.249
376.0799, 4963.415
376.5620, 4992.878
377.0442, 5004.912
377.5263, 4995.789
378.0084, 5002.977
378.4905, 5035.277
378.9726, 5079.132
379.4547, 5102.039
379.9369, 5101.880
380.4190, 5108.466
380.9011, 5145.134
381.3832, 5206.436
381.8653, 5249.267
382.3474, 5270.416
382.8296, 5283.147
383.3117, 5300.692
383.7938, 5323.611
384.2759, 5355.026
384.7580, 5407.533
385.2401, 5465.772
385.7223, 5501.061
386.2044, 5512.771
386.6865, 5517.477
387.1686, 5520.880
387.6507, 5528.049
388.1328, 5548.706
388.6150, 5592.363
389.0971, 5644.333
389.5792, 5697.027
390.0613, 5748.251
390.5434, 5787.637
391.0255, 5791.638
391.5077, 5789.824
391.9898, 5809.688
392.4719, 5864.572
392.9540, 5927.111
393.4361, 5993.058
393.9182, 6057.018
394.4004, 6106.583
394.8825, 6123.319
395.3646, 6136.985
395.8467, 6159.912
396.3288, 6192.557
396.8109, 6237.735
397.2931, 6299.668
397.7752, 6372.585
398.2573, 6449.550
398.7394, 6539.453
399.2215, 6622.934
399.7036, 6694.721
400.1858, 6754.404
400.6679, 6814.463
401.1500, 6871.554
401.6321, 6932.091
402.1142, 7002.159
402.5963, 7088.321
403.0785, 7171.414
403.5606, 7253.771
404.0427, 7331.371
404.5248, 7384.917
405.0069, 7403.090
405.4890, 7425.027
405.9712, 7479.239
406.4533, 7572.112
406.9354, 7634.489
407.4175, 7659.205
407.8996, 7662.126
408.3817, 7669.605
408.8639, 7681.879
409.3460, 7683.113
409.8281, 7663.170
410.3102, 7626.739
410.7923, 7592.248
411.2744, 7559.767
411.7566, 7526.701
412.2387, 7496.060
412.7208, 7463.458
413.2029, 7414.909
413.6850, 7335.229
414.1671, 7250.416
414.6493, 7196.700
415.1314, 7169.990
415.6135, 7145.505
416.0956, 7106.776
416.5777, 7061.906
417.0598, 7022.562
417.5420, 6995.807
418.0241, 6960.872
418.5062, 6890.245
418.9883, 6803.247
419.4704, 6738.063
419.9525, 6734.668
420.4347, 6735.814
420.9168, 6712.968
421.3989, 6662.686
421.8810, 6603.675
422.3631, 6520.819
422.8452, 6441.690
423.3273, 6390.782
423.8094, 6417.777
424.2916, 6423.357
424.7737, 6380.334
425.2558, 6296.463
425.7379, 6225.573
426.2200, 6180.385
426.7021, 6136.056
427.1843, 6077.320
427.6664, 5988.083
428.1485, 5922.355
428.6306, 5892.740
429.1127, 5878.925
429.5948, 5839.389
430.0770, 5767.018
430.5591, 5692.293
431.0412, 5626.700
431.5233, 5570.091
432.0054, 5505.171
432.4875, 5429.449
432.9697, 5354.147
433.4518, 5292.623
433.9339, 5243.361
434.4160, 5200.334
434.8981, 5167.099
435.3802, 5134.246
435.8624, 5079.413
436.3445, 5004.395
436.8266, 4927.458
437.3087, 4859.986
437.7908, 4800.004
438.2729, 4744.864
438.7551, 4694.172
439.2372, 4648.126
439.7193, 4606.556
440.2014, 4569.692
440.6835, 4537.931
441.1656, 4518.607
441.6478, 4499.316
442.1299, 4469.773
442.6120, 4429.420
443.0941, 4392.351
443.5762, 4370.436
444.0583, 4351.791
444.5405, 4326.396
445.0226, 4283.568
445.5047, 4243.735
445.9868, 4212.269
446.4689, 4187.520
446.9510, 4161.329
447.4332, 4122.599
447.9153, 4091.959
448.3974, 4078.238
448.8795, 4088.161
449.3616, 4096.939
449.8438, 4105.239
450.3259, 4111.878
450.8080, 4114.988
451.2901, 4113.352
451.7722, 4111.228
452.2543, 4108.542
452.7365, 4105.907
453.2186, 4109.368
453.7007, 4120.031
454.1828, 4131.563
454.6649, 4136.728
455.1470, 4136.700
455.6292, 4142.129
456.1113, 4153.480
456.5934, 4173.147
457.0755, 4209.824
457.5576, 4260.123
458.0397, 4310.065
458.5219, 4351.548
459.0040, 4388.071
459.4861, 4422.746
459.9682, 4455.952
460.4503, 4490.438
460.9324, 4525.160
461.4146, 4563.491
461.8967, 4610.028
462.3788, 4678.294
462.8609, 4742.716
463.3430, 4786.292
463.8251, 4814.209
464.3073, 4847.213
464.7894, 4901.457
465.2715, 4955.841
465.7536, 4996.983
466.2357, 5012.429
466.7178, 5041.395
467.2000, 5102.625
467.6821, 5174.528
468.1642, 5229.061
468.6463, 5264.396
469.1284, 5285.173
469.6105, 5291.091
470.0927, 5282.455
470.5748, 5261.162
471.0569, 5214.526
471.5390, 5178.449
472.0211, 5187.892
472.5032, 5252.274
472.9854, 5284.545
473.4675, 5272.244
473.9496, 5235.061
474.4317, 5206.313
474.9138, 5185.755
475.3959, 5164.931
475.8781, 5139.891
476.3602, 5112.001
476.8423, 5082.604
477.3244, 5052.011
477.8065, 5025.910
478.2886, 5011.620
478.7708, 5004.757
479.2529, 4998.121
479.7350, 4989.909
480.2171, 4981.104
480.6992, 4979.537
481.1813, 4978.692
481.6635, 4961.380
482.1456, 4895.111
482.6277, 4828.846
483.1098, 4797.754
483.5919, 4815.103
484.0740, 4809.206
484.5562, 4734.160
485.0382, 4641.116
485.5204, 4577.884
486.0025, 4580.928
486.4846, 4575.967
486.9667, 4555.132
487.4488, 4521.030
487.9309, 4483.062
488.4131, 4436.708
488.8952, 4394.200
489.3773, 4361.386
489.8594, 4339.935
490.3415, 4319.466
490.8236, 4301.014
491.3058, 4281.393
491.7879, 4256.300
492.2700, 4225.447
492.7521, 4192.377
493.2342, 4155.510
493.7163, 4118.296
494.1985, 4086.235
494.6806, 4059.310
495.1627, 4039.519
495.6448, 4034.085
496.1269, 4034.615
496.6090, 4025.712
497.0912, 4002.539
497.5733, 3981.977
498.0554, 3982.115
498.5375, 3992.321
499.0196, 3995.683
499.5017, 3979.209
499.9839, 3960.247
500.4660, 3946.635
500.9481, 3938.198
501.4302, 3930.950
501.9123, 3928.250
502.3944, 3923.484
502.8766, 3911.779
503.3587, 3878.402
503.8408, 3863.101
504.3229, 3874.032
504.8050, 3898.894
505.2871, 3919.724
505.7693, 3936.293
506.2514, 3948.849
506.7335, 3956.164
507.2156, 3958.994
507.6977, 3962.897
508.1798, 3967.280
508.6620, 3975.703
509.1441, 3995.406
509.6262, 4023.841
510.1083, 4040.588
510.5904, 4040.415
511.0725, 4037.670
511.5547, 4054.825
512.0368, 4085.920
512.5189, 4112.648
513.0010, 4117.968
513.4832, 4120.479
513.9653, 4147.143
514.4474, 4194.241
514.9295, 4225.443
515.4116, 4203.854
515.8937, 4166.946
516.3758, 4146.664
516.8579, 4158.951
517.3400, 4167.192
517.8221, 4157.754
518.3043, 4139.004
518.7864, 4124.580
519.2685, 4127.825
519.7506, 4122.257
520.2327, 4097.612
520.7148, 4055.102
521.1970, 4028.076
521.6791, 4024.875
522.1612, 4023.683
522.6433, 4007.180
523.1254, 3971.572
523.6075, 3949.928
524.0897, 3946.813
524.5718, 3953.034
525.0539, 3957.215
525.5360, 3958.995
526.0181, 3953.589
526.5002, 3934.748
526.9824, 3910.157
527.4645, 3894.050
527.9466, 3885.927
528.4287, 3880.118
528.9108, 3868.498
529.3929, 3858.885
529.8751, 3861.958
530.3572, 3883.047
530.8393, 3904.247
531.3214, 3920.336
531.8035, 3929.386
532.2856, 3929.291
532.7678, 3902.461
533.2499, 3883.998
533.7320, 3891.494
534.2141, 3921.955
534.6962, 3935.888
535.1783, 3916.877
535.6605, 3897.810
536.1426, 3894.652
536.6247, 3912.610
537.1068, 3928.210
537.5889, 3940.927
538.0710, 3951.848
538.5532, 3962.564
539.0353, 3973.063
539.5174, 3981.456
539.9995, 3984.272
540.4816, 3987.275
540.9637, 4007.590
541.4459, 4043.716
541.9280, 4077.901
542.4101, 4091.830
542.8922, 4099.042
543.3743, 4122.434
543.8564, 4164.877
544.3386, 4208.935
544.8207, 4246.176
545.3028, 4276.557
545.7849, 4299.327
546.2670, 4303.492
546.7491, 4312.224
547.2313, 4337.210
547.7134, 4373.209
548.1955, 4404.819
548.6776, 4417.767
549.1597, 4438.467
549.6418, 4479.462
550.1240, 4545.751
550.6061, 4594.464
551.0882, 4618.902
551.5703, 4635.226
552.0524, 4655.080
552.5345, 4677.667
553.0167, 4710.335
553.4988, 4755.689
553.9809, 4808.531
554.4630, 4860.299
554.9451, 4911.094
555.4272, 4962.250
555.9094, 5010.531
556.3915, 5060.320
556.8736, 5117.598
557.3557, 5182.368
557.8378, 5254.186
558.3199, 5342.312
558.8021, 5433.303
559.2842, 5508.351
559.7663, 5556.968
560.2484, 5613.823
560.7305, 5690.619
561.2126, 5784.869
561.6948, 5891.892
562.1769, 6033.813
562.6590, 6163.188
563.1411, 6259.331
563.6232, 6330.308
564.1053, 6433.931
564.5875, 6583.346
565.0696, 6743.241
565.5517, 6896.881
566.0338, 7042.857
566.5159, 7200.596
566.9980, 7370.695
567.4802, 7556.448
567.9623, 7769.861
568.4444, 8008.948
568.9265, 8252.225
569.4086, 8491.014
569.8907, 8743.390
570.3729, 9043.129
570.8550, 9380.979
571.3371, 9731.096
571.8192, 10077.01
572.3013, 10432.58
572.7834, 10797.27
573.2656, 11174.73
573.7477, 11580.42
574.2298, 12038.52
574.7119, 12521.90
575.1940, 13005.91
575.6761, 13489.41
576.1583, 13986.17
576.6404, 14492.96
577.1225, 15015.83
577.6046, 15557.49
578.0867, 16122.82
578.5688, 16696.47
579.0510, 17278.46
579.5331, 17855.06
580.0152, 18370.24
580.4973, 18818.57
580.9794, 19243.16
581.4615, 19689.39
581.9437, 20130.04
582.4258, 20500.44
582.9079, 20791.78
583.3900, 21012.22
583.8721, 21160.39
584.3542, 21242.83
584.8364, 21269.01
585.3185, 21242.56
585.8006, 21158.65
586.2827, 21014.25
586.7648, 20811.00
587.2469, 20549.84
587.7291, 20247.63
588.2112, 19871.04
588.6933, 19376.11
589.1754, 18769.48
589.6575, 18213.19
590.1396, 17734.51
590.6218, 17264.96
591.1039, 16764.21
591.5860, 16221.18
592.0681, 15711.29
592.5502, 15239.23
593.0323, 14792.49
593.5145, 14358.38
593.9966, 13934.87
594.4787, 13520.29
594.9608, 13110.64
595.4429, 12716.59
595.9250, 12349.32
596.4072, 12010.36
596.8893, 11703.36
597.3714, 11455.53
597.8535, 11223.81
598.3356, 10974.44
598.8177, 10704.92
599.2999, 10464.52
599.7820, 10289.57
600.2641, 10136.75
600.7462, 9977.914
601.2283, 9802.204
601.7104, 9641.135
602.1926, 9499.077
602.6747, 9368.504
603.1568, 9233.561
603.6389, 9090.470
604.1210, 8959.183
604.6031, 8846.839
605.0853, 8744.759
605.5674, 8629.182
606.0495, 8499.699
606.5316, 8376.691
607.0137, 8270.369
607.4958, 8175.884
607.9780, 8086.540
608.4601, 8002.563
608.9422, 7914.429
609.4243, 7809.579
609.9064, 7701.120
610.3885, 7605.127
610.8707, 7528.354
611.3528, 7451.799
611.8349, 7366.900
612.3170, 7280.273
612.7991, 7202.813
613.2813, 7137.468
613.7634, 7076.007
614.2455, 7017.908
614.7276, 6962.965
615.2097, 6913.853
615.6918, 6871.713
616.1740, 6831.220
616.6561, 6789.115
617.1382, 6746.556
