##NAMES=Jinshajiangite
##RRUFFID=R061018
##IDEAL CHEMISTRY=BaNaFe^2+^_4_Ti^4+^_2_(Si_2_O_7_)_2_O_2_(OH)_2_F
##LOCALITY=Jinshajiang River, western Sichuan Province, China
##OWNER=RRUFF
##SOURCE=Pingqiu Fu
##DESCRIPTION=Brownish red cleavage fragments, portion of the type sample
##STATUS=The identification of this mineral is confirmed by single-crystal X-ray diffraction and chemical analysis.
##URL=rruff.info/R061018
##MEASURED CHEMISTRY=Na_0.71_(Ba_0.58_K_0.39_Ce_0.14_)_Σ=1.11_(Fe_1.93_Mn_1.91_Mg_0.03_)_Σ=3.87_(Ti_1.77_Si_0.15_Zr_0.09_Al_0.004_)_Σ=2.01_(Si_2_O_7_)_2_O_2_(OH)_2_F_0.52_
147.0803, 2892.039
147.5624, 3037.500
148.0446, 3170.988
148.5267, 3293.176
149.0088, 3410.865
149.4909, 3513.015
149.9730, 3598.810
150.4551, 3666.560
150.9372, 3712.216
151.4194, 3732.100
151.9015, 3725.394
152.3836, 3706.133
152.8657, 3677.566
153.3478, 3636.403
153.8299, 3573.702
154.3121, 3494.245
154.7942, 3415.546
155.2763, 3352.147
155.7584, 3305.017
156.2405, 3256.768
156.7226, 3198.820
157.2048, 3146.648
157.6869, 3111.607
158.1690, 3092.964
158.6511, 3079.214
159.1332, 3060.133
159.6153, 3035.279
160.0975, 3020.590
160.5796, 3017.848
161.0617, 3023.459
161.5438, 3039.478
162.0259, 3064.806
162.5080, 3087.086
162.9902, 3093.380
163.4723, 3082.561
163.9544, 3079.368
164.4365, 3087.728
164.9186, 3102.120
165.4007, 3119.217
165.8829, 3138.645
166.3650, 3158.094
166.8471, 3176.655
167.3292, 3193.982
167.8113, 3205.043
168.2934, 3214.224
168.7756, 3214.378
169.2577, 3192.950
169.7398, 3147.523
170.2219, 3099.695
170.7040, 3070.117
171.1861, 3057.381
171.6683, 3045.521
172.1504, 3037.759
172.6325, 3027.265
173.1146, 3002.827
173.5967, 2961.484
174.0788, 2919.224
174.5610, 2890.886
175.0431, 2874.654
175.5252, 2861.631
176.0073, 2854.285
176.4894, 2847.417
176.9715, 2831.837
177.4537, 2804.714
177.9358, 2778.447
178.4179, 2767.305
178.9000, 2767.982
179.3821, 2767.181
179.8642, 2759.112
180.3464, 2748.471
180.8285, 2742.697
181.3106, 2743.333
181.7927, 2745.170
182.2748, 2741.884
182.7569, 2735.269
183.2391, 2732.297
183.7212, 2741.087
184.2033, 2752.818
184.6854, 2749.451
185.1675, 2724.242
185.6496, 2703.249
186.1318, 2719.610
186.6139, 2761.192
187.0960, 2792.421
187.5781, 2792.645
188.0602, 2778.781
188.5423, 2780.715
189.0245, 2805.224
189.5066, 2829.539
189.9887, 2830.114
190.4708, 2814.808
190.9529, 2803.322
191.4350, 2801.773
191.9172, 2807.984
192.3993, 2819.386
192.8814, 2836.721
193.3635, 2856.308
193.8456, 2877.777
194.3277, 2899.752
194.8099, 2918.236
195.2920, 2927.872
195.7741, 2934.556
196.2562, 2949.302
196.7383, 2975.049
197.2204, 3000.124
197.7026, 3011.866
198.1847, 3016.143
198.6668, 3025.687
199.1489, 3045.836
199.6310, 3073.023
200.1131, 3104.107
200.5953, 3140.686
201.0774, 3174.121
201.5595, 3197.191
202.0416, 3212.673
202.5237, 3223.498
203.0058, 3225.156
203.4880, 3224.845
203.9701, 3234.268
204.4522, 3255.353
204.9343, 3277.047
205.4164, 3290.963
205.8985, 3300.380
206.3807, 3310.798
206.8628, 3323.582
207.3449, 3338.067
207.8270, 3355.273
208.3091, 3376.277
208.7912, 3392.933
209.2734, 3398.398
209.7555, 3396.272
210.2376, 3391.964
210.7197, 3384.391
211.2018, 3376.876
211.6839, 3375.931
212.1661, 3382.637
212.6482, 3383.223
213.1303, 3364.122
213.6124, 3335.352
214.0945, 3314.219
214.5766, 3305.398
215.0588, 3302.800
215.5409, 3301.145
216.0230, 3300.436
216.5051, 3302.035
216.9872, 3308.269
217.4693, 3316.709
217.9515, 3322.874
218.4336, 3324.741
218.9157, 3326.664
219.3978, 3332.812
219.8799, 3342.942
220.3620, 3352.928
220.8442, 3361.015
221.3263, 3367.896
221.8084, 3374.646
222.2905, 3380.366
222.7726, 3387.709
223.2547, 3398.956
223.7369, 3413.745
224.2190, 3430.228
224.7011, 3450.319
225.1832, 3469.222
225.6653, 3478.690
226.1474, 3474.891
226.6296, 3472.453
227.1117, 3484.079
227.5938, 3504.994
228.0759, 3515.543
228.5580, 3503.117
229.0401, 3485.882
229.5223, 3494.674
230.0044, 3534.947
230.4865, 3572.290
230.9686, 3590.504
231.4507, 3594.567
231.9328, 3594.091
232.4150, 3588.458
232.8971, 3585.851
233.3792, 3602.592
233.8613, 3640.590
234.3434, 3671.598
234.8255, 3679.122
235.3077, 3675.453
235.7898, 3682.822
236.2719, 3707.754
236.7540, 3736.941
237.2361, 3752.726
237.7182, 3754.571
238.2004, 3759.840
238.6825, 3773.033
239.1646, 3790.960
239.6467, 3811.565
240.1288, 3834.891
240.6109, 3855.616
241.0931, 3866.071
241.5752, 3865.361
242.0573, 3872.834
242.5394, 3897.855
243.0215, 3926.741
243.5036, 3948.853
243.9858, 3963.100
244.4679, 3970.715
244.9500, 3970.321
245.4321, 3961.725
245.9142, 3962.525
246.3963, 3981.667
246.8785, 4002.498
247.3606, 4013.786
247.8427, 4016.530
248.3248, 4019.048
248.8069, 4027.583
249.2890, 4041.314
249.7712, 4049.990
250.2533, 4045.563
250.7354, 4044.728
251.2175, 4056.553
251.6996, 4077.567
252.1817, 4099.433
252.6639, 4117.723
253.1460, 4132.587
253.6281, 4144.775
254.1102, 4153.191
254.5923, 4160.540
255.0744, 4169.627
255.5566, 4177.614
256.0387, 4177.371
256.5208, 4164.999
257.0029, 4148.438
257.4850, 4148.467
257.9671, 4191.668
258.4492, 4219.509
258.9314, 4217.949
259.4135, 4205.400
259.8956, 4200.892
260.3777, 4210.516
260.8598, 4227.685
261.3419, 4241.647
261.8241, 4251.313
262.3062, 4259.117
262.7883, 4268.547
263.2704, 4273.999
263.7525, 4269.468
264.2346, 4254.994
264.7168, 4237.296
265.1989, 4224.309
265.6810, 4216.979
266.1631, 4211.170
266.6452, 4206.922
267.1273, 4203.902
267.6095, 4202.727
268.0916, 4202.853
268.5737, 4202.751
269.0558, 4201.072
269.5379, 4197.746
270.0201, 4194.018
270.5022, 4191.333
270.9843, 4186.683
271.4664, 4173.313
271.9485, 4157.529
272.4306, 4151.627
272.9128, 4164.970
273.3949, 4193.875
273.8770, 4219.380
274.3591, 4240.709
274.8412, 4259.383
275.3233, 4268.196
275.8055, 4277.257
276.2876, 4301.573
276.7697, 4350.278
277.2518, 4409.501
277.7339, 4448.069
278.2160, 4453.959
278.6982, 4471.811
279.1803, 4521.747
279.6624, 4583.572
280.1445, 4643.211
280.6266, 4697.112
281.1087, 4746.500
281.5909, 4790.653
282.0730, 4828.954
282.5551, 4871.526
283.0372, 4926.622
283.5193, 4982.221
284.0014, 5029.657
284.4836, 5068.521
284.9657, 5101.499
285.4478, 5129.455
285.9299, 5152.925
286.4120, 5172.793
286.8941, 5187.762
287.3763, 5201.547
287.8584, 5222.368
288.3405, 5247.185
288.8226, 5258.811
289.3047, 5242.409
289.7868, 5210.971
290.2690, 5189.017
290.7511, 5180.939
291.2332, 5165.722
291.7153, 5123.271
292.1974, 5060.073
292.6795, 4998.939
293.1617, 4948.613
293.6438, 4897.077
294.1259, 4827.982
294.6080, 4744.605
295.0901, 4673.929
295.5722, 4635.969
296.0544, 4619.541
296.5365, 4583.192
297.0186, 4507.068
297.5007, 4438.264
297.9828, 4400.502
298.4649, 4382.827
298.9471, 4363.237
299.4292, 4333.226
299.9113, 4296.539
300.3934, 4259.314
300.8755, 4212.417
301.3576, 4182.765
301.8398, 4186.811
302.3219, 4202.648
302.8040, 4205.913
303.2861, 4192.171
303.7682, 4177.196
304.2503, 4181.937
304.7325, 4217.083
305.2146, 4233.480
305.6967, 4217.627
306.1788, 4197.540
306.6609, 4185.243
307.1430, 4182.335
307.6252, 4188.114
308.1073, 4203.964
308.5894, 4229.403
309.0715, 4240.650
309.5536, 4219.945
310.0357, 4203.429
310.5179, 4198.750
311.0000, 4203.219
311.4821, 4213.906
311.9642, 4230.258
312.4463, 4247.567
312.9284, 4251.566
313.4106, 4234.089
313.8927, 4219.074
314.3748, 4213.751
314.8569, 4210.359
315.3390, 4199.014
315.8211, 4177.638
316.3033, 4160.169
316.7854, 4167.440
317.2675, 4202.856
317.7496, 4231.115
318.2317, 4243.048
318.7138, 4250.184
319.1960, 4256.796
319.6781, 4264.035
320.1602, 4275.807
320.6423, 4302.376
321.1244, 4336.523
321.6065, 4347.054
322.0887, 4320.086
322.5708, 4298.528
323.0529, 4317.712
323.5350, 4363.642
324.0171, 4409.239
324.4992, 4446.606
324.9814, 4480.188
325.4635, 4517.867
325.9456, 4559.521
326.4277, 4589.030
326.9098, 4590.460
327.3919, 4578.521
327.8741, 4590.777
328.3562, 4640.149
328.8383, 4689.793
329.3204, 4725.357
329.8025, 4749.343
330.2846, 4764.553
330.7668, 4770.589
331.2489, 4774.531
331.7310, 4788.247
332.2131, 4816.748
332.6952, 4840.108
333.1773, 4856.444
333.6595, 4867.575
334.1416, 4876.459
334.6237, 4882.599
335.1058, 4879.694
335.5879, 4859.411
336.0700, 4819.172
336.5522, 4799.211
337.0343, 4808.900
337.5164, 4825.998
337.9985, 4853.220
338.4806, 4881.155
338.9627, 4893.537
339.4449, 4880.277
339.9270, 4849.346
340.4091, 4825.421
340.8912, 4802.151
341.3733, 4798.252
341.8554, 4825.412
342.3376, 4864.444
342.8197, 4901.599
343.3018, 4932.617
343.7839, 4957.617
344.2660, 4976.348
344.7481, 4988.581
345.2303, 4995.314
345.7124, 4983.087
346.1945, 4979.248
346.6766, 5007.188
347.1587, 5058.635
347.6408, 5101.661
348.1230, 5114.567
348.6051, 5105.558
349.0872, 5092.807
349.5693, 5072.437
350.0514, 5061.752
350.5335, 5084.992
351.0157, 5121.698
351.4978, 5136.567
351.9799, 5115.402
352.4620, 5082.958
352.9441, 5057.327
353.4262, 5037.037
353.9084, 5016.471
354.3905, 4995.501
354.8726, 4970.216
355.3547, 4931.918
355.8368, 4879.176
356.3189, 4823.803
356.8011, 4768.093
357.2832, 4711.098
357.7653, 4647.586
358.2474, 4578.076
358.7295, 4516.218
359.2116, 4477.333
359.6938, 4465.495
360.1759, 4439.038
360.6580, 4378.814
361.1401, 4325.892
361.6222, 4305.253
362.1043, 4304.347
362.5865, 4294.923
363.0686, 4260.344
363.5507, 4210.801
364.0328, 4180.508
364.5149, 4184.324
364.9970, 4183.699
365.4792, 4171.904
365.9613, 4156.355
366.4434, 4142.448
366.9255, 4131.510
367.4076, 4122.880
367.8897, 4115.336
368.3719, 4108.683
368.8540, 4105.842
369.3361, 4106.843
369.8182, 4112.264
370.3003, 4124.094
370.7824, 4140.275
371.2646, 4155.736
371.7467, 4169.499
372.2288, 4180.098
372.7109, 4181.197
373.1930, 4170.779
373.6751, 4169.088
374.1573, 4189.857
374.6394, 4223.720
375.1215, 4253.446
375.6036, 4278.911
376.0857, 4299.174
376.5678, 4309.433
377.0500, 4314.510
377.5321, 4324.520
378.0142, 4342.118
378.4963, 4364.694
378.9784, 4390.755
379.4605, 4422.756
379.9427, 4445.641
380.4248, 4447.392
380.9069, 4449.960
381.3890, 4468.834
381.8711, 4501.869
382.3532, 4539.119
382.8354, 4575.355
383.3175, 4609.010
383.7996, 4631.380
384.2817, 4628.146
384.7638, 4631.095
385.2459, 4647.351
385.7281, 4669.128
386.2102, 4689.300
386.6923, 4705.776
387.1744, 4719.777
387.6565, 4730.271
388.1386, 4734.826
388.6208, 4751.564
389.1029, 4788.104
389.5850, 4830.641
390.0671, 4876.035
390.5492, 4921.819
391.0313, 4963.051
391.5135, 4996.334
391.9956, 5023.583
392.4777, 5045.728
392.9598, 5061.258
393.4419, 5082.538
393.9240, 5115.920
394.4062, 5158.611
394.8883, 5205.916
395.3704, 5261.563
395.8525, 5311.444
396.3346, 5342.958
396.8167, 5364.796
397.2989, 5394.577
397.7810, 5436.801
398.2631, 5481.009
398.7452, 5514.376
399.2273, 5533.618
399.7094, 5563.721
400.1916, 5606.209
400.6737, 5657.533
401.1558, 5721.479
401.6379, 5793.059
402.1200, 5860.016
402.6021, 5915.561
403.0843, 5964.505
403.5664, 6023.489
404.0485, 6109.180
404.5306, 6177.722
405.0127, 6214.476
405.4948, 6242.960
405.9770, 6284.584
406.4591, 6340.491
406.9412, 6391.857
407.4233, 6414.726
407.9054, 6410.894
408.3875, 6424.109
408.8697, 6469.810
409.3518, 6507.388
409.8339, 6509.117
410.3160, 6490.390
410.7981, 6477.824
411.2802, 6481.854
411.7624, 6491.189
412.2445, 6493.867
412.7266, 6490.923
413.2087, 6491.987
413.6908, 6504.408
414.1729, 6515.646
414.6551, 6500.723
415.1372, 6455.334
415.6193, 6419.578
416.1014, 6413.378
416.5835, 6412.166
417.0656, 6391.625
417.5478, 6352.125
418.0299, 6310.530
418.5120, 6279.172
418.9941, 6256.612
419.4762, 6227.925
419.9583, 6193.545
420.4405, 6152.294
420.9226, 6094.767
421.4047, 6034.623
421.8868, 5987.257
422.3689, 5956.581
422.8510, 5933.117
423.3332, 5908.303
423.8153, 5883.612
424.2974, 5843.597
424.7795, 5775.895
425.2616, 5706.315
425.7437, 5652.146
426.2259, 5605.862
426.7080, 5548.655
427.1901, 5465.456
427.6722, 5375.394
428.1543, 5306.134
428.6364, 5257.361
429.1186, 5207.272
429.6007, 5148.799
430.0828, 5083.755
430.5649, 5012.950
431.0470, 4934.205
431.5291, 4861.382
432.0113, 4805.582
432.4934, 4753.471
432.9755, 4686.479
433.4576, 4605.479
433.9397, 4531.505
434.4218, 4482.308
434.9040, 4455.298
435.3861, 4416.947
435.8682, 4361.463
436.3503, 4301.326
436.8324, 4225.502
437.3145, 4151.975
437.7967, 4105.310
438.2788, 4090.569
438.7609, 4084.952
439.2430, 4056.944
439.7251, 4003.149
440.2072, 3960.784
440.6894, 3941.999
441.1715, 3920.821
441.6536, 3880.360
442.1357, 3828.262
442.6178, 3780.860
443.0999, 3742.956
443.5821, 3714.120
444.0642, 3698.952
444.5463, 3695.485
445.0284, 3684.809
445.5105, 3659.156
445.9926, 3625.412
446.4748, 3592.596
446.9569, 3559.740
447.4390, 3532.100
447.9211, 3509.112
448.4032, 3492.809
448.8853, 3490.443
449.3675, 3498.011
449.8496, 3499.351
450.3317, 3482.920
450.8138, 3452.513
451.2959, 3426.254
451.7780, 3399.953
452.2602, 3384.885
452.7423, 3393.036
453.2244, 3405.229
453.7065, 3403.134
454.1886, 3385.343
454.6707, 3366.800
455.1529, 3363.181
455.6350, 3372.683
456.1171, 3378.400
456.5992, 3378.728
457.0813, 3378.567
457.5634, 3382.753
458.0455, 3387.541
458.5276, 3386.061
459.0098, 3372.877
459.4919, 3361.902
459.9740, 3364.232
460.4561, 3375.836
460.9382, 3387.096
461.4203, 3395.746
461.9025, 3404.176
462.3846, 3416.684
462.8667, 3435.261
463.3488, 3440.463
463.8309, 3415.038
464.3130, 3395.360
464.7952, 3402.174
465.2773, 3424.700
465.7594, 3443.176
466.2415, 3448.843
466.7236, 3447.671
467.2057, 3451.722
467.6879, 3464.737
468.1700, 3469.542
468.6521, 3456.206
469.1342, 3441.860
469.6163, 3435.229
470.0984, 3434.755
470.5806, 3434.345
471.0627, 3431.374
471.5448, 3426.444
472.0269, 3420.710
472.5090, 3414.093
472.9911, 3404.886
473.4733, 3391.123
473.9554, 3375.850
474.4375, 3364.393
474.9196, 3356.939
475.4017, 3350.675
475.8839, 3344.434
476.3660, 3339.666
476.8481, 3340.198
477.3302, 3344.081
477.8123, 3342.755
478.2944, 3329.610
478.7766, 3308.983
479.2587, 3300.578
479.7408, 3321.339
480.2229, 3325.363
480.7050, 3296.057
481.1871, 3259.085
481.6693, 3233.444
482.1514, 3220.682
482.6335, 3211.230
483.1156, 3195.742
483.5977, 3177.760
484.0798, 3170.856
484.5620, 3177.543
485.0441, 3183.647
485.5262, 3184.020
486.0083, 3178.227
486.4904, 3165.717
486.9725, 3143.087
487.4547, 3122.592
487.9368, 3106.273
488.4189, 3095.820
488.9010, 3098.512
489.3831, 3113.072
489.8652, 3122.235
490.3474, 3109.612
490.8295, 3077.994
491.3116, 3061.074
491.7937, 3073.747
492.2758, 3083.726
492.7579, 3090.419
493.2401, 3090.651
493.7222, 3078.019
494.2043, 3052.842
494.6864, 3027.938
495.1685, 3017.474
495.6506, 3019.151
496.1328, 3016.253
496.6149, 3005.970
497.0970, 2997.979
497.5791, 3001.542
498.0612, 3009.956
498.5433, 3009.880
499.0255, 2995.189
499.5076, 2982.342
499.9897, 2985.596
500.4718, 2993.407
500.9539, 2983.563
501.4360, 2953.595
501.9182, 2926.258
502.4003, 2924.197
502.8824, 2947.033
503.3645, 2960.746
503.8466, 2956.178
504.3287, 2953.042
504.8109, 2951.349
505.2930, 2954.355
505.7751, 2968.688
506.2572, 2994.636
506.7393, 3019.549
507.2214, 3029.070
507.7036, 3025.003
508.1857, 3019.365
508.6678, 3009.648
509.1499, 3006.322
509.6320, 3017.378
510.1141, 3038.981
510.5963, 3063.624
511.0784, 3091.951
511.5605, 3120.836
512.0426, 3152.625
512.5247, 3182.711
513.0068, 3205.159
513.4890, 3218.710
513.9711, 3222.971
514.4532, 3215.860
514.9353, 3197.950
515.4174, 3188.888
515.8995, 3200.890
516.3817, 3206.667
516.8638, 3199.049
517.3459, 3184.976
517.8280, 3171.180
518.3101, 3159.031
518.7922, 3146.014
519.2744, 3128.209
519.7565, 3107.346
520.2386, 3089.767
520.7207, 3075.274
521.2028, 3066.579
521.6849, 3069.493
522.1671, 3077.872
522.6492, 3076.668
523.1313, 3063.164
523.6134, 3045.899
524.0955, 3018.771
524.5776, 2994.387
525.0598, 2991.804
525.5419, 3009.708
526.0240, 3026.098
526.5061, 3023.256
526.9882, 3004.439
527.4703, 2990.217
527.9525, 2982.779
528.4346, 2976.238
528.9167, 2965.504
529.3988, 2958.116
529.8809, 2963.234
530.3630, 2980.079
530.8452, 2994.865
531.3273, 2997.365
531.8094, 2991.895
532.2915, 2986.856
532.7736, 2982.394
533.2557, 2973.845
533.7379, 2955.085
534.2200, 2935.235
534.7021, 2935.735
535.1842, 2964.874
535.6663, 2990.223
536.1484, 3008.519
536.6306, 3021.815
537.1127, 3028.470
537.5948, 3031.211
538.0769, 3038.058
538.5590, 3055.010
539.0411, 3073.795
539.5233, 3070.881
540.0054, 3038.104
540.4875, 3016.938
540.9696, 3017.898
541.4517, 3029.026
541.9338, 3046.435
542.4160, 3067.495
542.8981, 3082.534
543.3802, 3083.181
543.8623, 3080.249
544.3444, 3083.274
544.8265, 3090.825
545.3087, 3098.401
545.7908, 3104.509
546.2729, 3110.556
546.7550, 3118.418
547.2371, 3128.280
547.7192, 3139.054
548.2014, 3153.296
548.6835, 3165.607
549.1656, 3174.548
549.6477, 3180.239
550.1298, 3180.217
550.6119, 3173.563
551.0941, 3171.302
551.5762, 3193.189
552.0583, 3233.912
552.5404, 3251.897
553.0225, 3236.062
553.5046, 3223.544
553.9868, 3241.012
554.4689, 3281.439
554.9510, 3317.089
555.4331, 3351.085
555.9152, 3375.222
556.3973, 3378.886
556.8795, 3375.887
557.3616, 3379.293
557.8437, 3391.697
558.3258, 3412.698
558.8079, 3443.980
559.2900, 3482.004
559.7722, 3507.136
560.2543, 3508.741
560.7364, 3521.541
561.2185, 3570.943
561.7006, 3622.032
562.1827, 3644.268
562.6649, 3639.245
563.1470, 3640.734
563.6291, 3675.671
564.1112, 3717.668
564.5933, 3728.243
565.0754, 3715.517
565.5576, 3720.403
566.0397, 3760.248
566.5218, 3820.194
567.0039, 3876.777
567.4860, 3928.231
567.9681, 3981.607
568.4503, 4032.292
568.9324, 4089.708
569.4145, 4162.398
569.8966, 4242.590
570.3787, 4314.526
570.8608, 4371.248
571.3430, 4433.476
571.8251, 4527.238
572.3072, 4648.065
572.7893, 4769.407
573.2714, 4885.979
573.7535, 5011.012
574.2357, 5153.965
574.7178, 5312.388
575.1999, 5471.400
575.6820, 5626.720
576.1641, 5788.379
576.6462, 5953.825
577.1284, 6128.546
577.6105, 6325.393
578.0926, 6539.317
578.5747, 6745.545
579.0568, 6924.568
579.5389, 7086.228
580.0211, 7266.804
580.5032, 7473.130
580.9853, 7671.152
581.4674, 7865.885
581.9495, 8036.685
582.4316, 8161.572
582.9138, 8244.293
583.3959, 8323.389
583.8780, 8421.878
584.3601, 8508.850
584.8422, 8571.352
585.3243, 8603.664
585.8065, 8592.699
586.2886, 8534.715
586.7707, 8441.750
587.2528, 8327.074
587.7349, 8188.982
588.2170, 8045.002
588.6992, 7901.837
589.1813, 7742.758
589.6634, 7553.356
590.1455, 7352.674
590.6276, 7162.345
591.1097, 6986.976
591.5919, 6813.311
592.0740, 6628.980
592.5561, 6443.609
593.0382, 6272.048
593.5203, 6115.402
594.0024, 5968.711
594.4846, 5829.293
594.9667, 5696.530
595.4488, 5566.002
595.9309, 5430.433
596.4130, 5314.861
596.8951, 5223.993
597.3773, 5145.901
597.8594, 5080.906
598.3415, 5023.605
598.8236, 4965.219
599.3057, 4902.205
599.7878, 4836.851
600.2700, 4767.498
600.7521, 4697.216
601.2342, 4641.260
601.7163, 4603.525
602.1984, 4567.829
602.6805, 4521.339
603.1627, 4467.019
603.6448, 4421.788
604.1269, 4387.295
604.6090, 4358.578
605.0911, 4349.886
605.5732, 4335.506
606.0554, 4286.933
606.5375, 4211.243
607.0196, 4141.256
607.5017, 4099.179
607.9838, 4072.604
608.4659, 4036.798
608.9481, 3991.709
609.4302, 3948.935
609.9123, 3912.878
610.3944, 3875.462
610.8765, 3826.732
611.3586, 3767.526
611.8408, 3715.832
612.3229, 3671.513
612.8050, 3635.119
613.2871, 3613.002
613.7692, 3595.653
614.2513, 3571.639
614.7335, 3539.326
615.2156, 3505.388
615.6977, 3474.468
616.1798, 3446.889
616.6619, 3423.903
617.1440, 3405.281
617.6262, 3392.817
618.1083, 3390.696
618.5904, 3391.322
619.0725, 3385.004
619.5546, 3371.964
620.0367, 3360.858
620.5189, 3357.859
621.0010, 3352.259
621.4831, 3331.248
621.9652, 3305.682
622.4473, 3295.983
622.9294, 3306.925
623.4116, 3323.220
623.8937, 3328.556
624.3758, 3323.606
624.8579, 3313.609
625.3400, 3292.469
625.8221, 3284.851
626.3043, 3315.021
626.7864, 3352.903
627.2685, 3356.259
627.7506, 3321.004
628.2327, 3295.148
628.7148, 3295.926
629.1970, 3306.621
629.6791, 3319.415
630.1612, 3331.981
630.6433, 3339.013
631.1254, 3338.974
631.6075, 3340.814
632.0897, 3359.300
632.5718, 3395.175
633.0539, 3420.332
633.5360, 3434.517
634.0181, 3438.186
634.5002, 3422.417
634.9824, 3400.813
635.4645, 3391.674
635.9466, 3397.527
636.4287, 3404.633
636.9108, 3409.607
637.3929, 3413.140
637.8751, 3420.187
638.3572, 3426.028
638.8393, 3414.930
