##NAMES=Jinshajiangite
##RRUFFID=R060580
##IDEAL CHEMISTRY=BaNaFe^2+^_4_Ti^4+^_2_(Si_2_O_7_)_2_O_2_(OH)_2_F
##LOCALITY=Norra Karr, Sweden
##OWNER=RRUFF
##SOURCE=Michael Scott
##DESCRIPTION=Brownish red vein material with pronounced cleavage
##STATUS=The identification of this mineral is confirmed by single-crystal X-ray diffraction and chemical analysis.
##URL=rruff.info/R060580
##MEASURED CHEMISTRY=Na_0.94_(Ba_0.67_K_0.33_)_Σ=1.00_(Fe_2.97_Mn_0.71_Ca_0.33_Mg_0.03_)_Σ=4.04_(Ti_1.90_Zr_0.06_)_Σ=1.96_(Si_1.92_Fe^+3^_0.08_O_7_)_2_O_2_(OH)_2_F_0.83_
175.4918, 483.8109
175.9739, 475.8887
176.4561, 470.2122
176.9382, 467.6450
177.4203, 464.2654
177.9024, 458.6943
178.3845, 453.4660
178.8666, 450.2143
179.3488, 448.9991
179.8309, 448.5618
180.3130, 447.1942
180.7951, 444.2001
181.2772, 441.8420
181.7593, 439.8919
182.2415, 438.6173
182.7236, 438.4581
183.2057, 439.4423
183.6878, 440.9429
184.1699, 441.9968
184.6520, 442.1421
185.1342, 442.7870
185.6163, 444.3706
186.0984, 446.2911
186.5805, 447.8005
187.0626, 448.6501
187.5447, 449.3954
188.0269, 451.1201
188.5090, 454.1053
188.9911, 456.7513
189.4732, 458.0477
189.9553, 458.8727
190.4374, 460.9937
190.9196, 465.3592
191.4017, 470.2365
191.8838, 472.7989
192.3659, 472.8665
192.8480, 473.4873
193.3301, 476.6374
193.8123, 481.6101
194.2944, 485.8284
194.7765, 488.5261
195.2586, 490.3074
195.7407, 491.9845
196.2228, 493.5568
196.7050, 494.8034
197.1871, 495.0260
197.6692, 494.3242
198.1513, 495.0347
198.6334, 499.0267
199.1155, 503.4295
199.5977, 506.3119
200.0798, 507.5787
200.5619, 508.2450
201.0440, 509.3274
201.5261, 510.9545
202.0082, 512.1910
202.4904, 512.0598
202.9725, 512.1373
203.4546, 513.2460
203.9367, 515.4731
204.4188, 518.3729
204.9010, 521.5743
205.3831, 525.3975
205.8652, 528.4841
206.3473, 530.6301
206.8294, 532.2296
207.3115, 533.2047
207.7937, 533.6778
208.2758, 534.1427
208.7579, 535.4030
209.2400, 538.2987
209.7221, 540.0801
210.2042, 540.4384
210.6864, 540.1180
211.1685, 539.4993
211.6506, 538.7111
212.1327, 537.7947
212.6148, 536.7961
213.0969, 535.6908
213.5791, 534.5553
214.0612, 533.4187
214.5433, 532.2411
215.0254, 530.7507
215.5075, 528.9565
215.9896, 527.4548
216.4718, 527.2190
216.9539, 529.2148
217.4360, 530.1327
217.9181, 528.4520
218.4002, 526.3992
218.8823, 526.4610
219.3645, 529.2521
219.8466, 532.9343
220.3287, 534.8286
220.8108, 534.4420
221.2929, 535.2005
221.7750, 538.2068
222.2572, 542.3553
222.7393, 546.3648
223.2214, 549.9762
223.7035, 553.3818
224.1856, 556.7042
224.6677, 559.9386
225.1499, 563.3146
225.6320, 566.3033
226.1141, 569.6115
226.5962, 574.6604
227.0783, 582.0712
227.5604, 590.1110
228.0426, 597.0715
228.5247, 603.1629
229.0068, 609.4006
229.4889, 616.2092
229.9710, 623.3751
230.4531, 630.3595
230.9353, 636.7852
231.4174, 643.6852
231.8995, 651.8790
232.3816, 661.0893
232.8637, 670.6719
233.3458, 680.6605
233.8280, 690.8174
234.3101, 700.4910
234.7922, 709.3243
235.2743, 718.0974
235.7564, 727.4750
236.2385, 737.1120
236.7207, 746.3726
237.2028, 754.7870
237.6849, 762.4813
238.1670, 770.1783
238.6491, 778.1054
239.1312, 785.6448
239.6134, 792.7726
240.0955, 799.4170
240.5776, 805.5350
241.0597, 810.9855
241.5418, 815.8956
242.0239, 820.8129
242.5061, 826.3320
242.9882, 830.9709
243.4703, 833.4092
243.9524, 834.9773
244.4345, 837.6824
244.9166, 842.8108
245.3988, 849.8000
245.8809, 855.8941
246.3630, 860.4424
246.8451, 864.8421
247.3272, 869.1420
247.8093, 873.5400
248.2915, 878.2942
248.7736, 883.5754
249.2557, 889.2213
249.7378, 894.4985
250.2199, 898.9284
250.7020, 903.6037
251.1842, 908.7477
251.6663, 914.1580
252.1484, 919.4649
252.6305, 924.5126
253.1126, 929.5058
253.5947, 935.2647
254.0769, 943.8038
254.5590, 950.5394
255.0411, 954.2452
255.5232, 956.4160
256.0053, 958.9479
256.4874, 962.6201
256.9695, 966.4750
257.4517, 968.1974
257.9338, 966.3426
258.4159, 963.7925
258.8980, 960.9756
259.3801, 957.2930
259.8622, 952.0032
260.3444, 944.8617
260.8265, 936.3232
261.3086, 927.2476
261.7907, 917.5383
262.2728, 907.1889
262.7549, 896.1887
263.2371, 884.4984
263.7192, 871.8559
264.2013, 858.2004
264.6834, 844.3097
265.1655, 831.3156
265.6476, 819.5923
266.1298, 808.1096
266.6119, 796.8233
267.0940, 785.7307
267.5761, 774.6992
268.0582, 763.6883
268.5403, 753.3066
269.0225, 744.4297
269.5046, 737.5722
269.9867, 729.9847
270.4688, 719.8089
270.9509, 710.0315
271.4330, 703.6680
271.9152, 700.9642
272.3973, 699.3064
272.8794, 696.3107
273.3615, 691.8385
273.8436, 687.8437
274.3257, 683.4435
274.8079, 680.1447
275.2900, 679.8368
275.7721, 682.4002
276.2542, 685.1506
276.7363, 686.0441
277.2184, 685.2358
277.7006, 685.0051
278.1827, 685.6825
278.6648, 686.6764
279.1469, 686.9645
279.6290, 686.8077
280.1111, 688.4110
280.5933, 693.7336
281.0754, 701.7364
281.5575, 708.3461
282.0396, 712.6347
282.5217, 716.6676
283.0038, 721.5489
283.4860, 727.2239
283.9681, 733.4513
284.4502, 740.1562
284.9323, 747.3798
285.4144, 755.1869
285.8965, 763.8952
286.3787, 772.3924
286.8608, 779.6071
287.3429, 785.9789
287.8250, 793.4921
288.3071, 803.5308
288.7892, 813.9314
289.2714, 821.2853
289.7535, 825.2333
290.2356, 829.4372
290.7177, 835.6979
291.1998, 843.5087
291.6819, 851.8322
292.1641, 860.8699
292.6462, 869.5301
293.1283, 876.1391
293.6104, 880.9633
294.0925, 886.4569
294.5746, 893.1360
295.0568, 901.1932
295.5389, 911.3635
296.0210, 924.2224
296.5031, 937.7147
296.9852, 949.3877
297.4673, 960.1454
297.9495, 972.9420
298.4316, 989.7785
298.9137, 1008.741
299.3958, 1026.408
299.8779, 1042.090
300.3600, 1059.552
300.8422, 1082.395
301.3243, 1108.611
301.8064, 1134.630
302.2885, 1159.268
302.7706, 1184.139
303.2527, 1211.295
303.7349, 1240.955
304.2170, 1271.365
304.6991, 1301.717
305.1812, 1332.413
305.6633, 1363.940
306.1454, 1396.412
306.6276, 1429.380
307.1097, 1462.531
307.5918, 1495.800
308.0739, 1529.424
308.5560, 1563.717
309.0381, 1597.765
309.5203, 1630.516
310.0024, 1662.035
310.4845, 1692.722
310.9666, 1722.556
311.4487, 1751.664
311.9308, 1780.754
312.4130, 1810.859
312.8951, 1839.239
313.3772, 1862.854
313.8593, 1882.328
314.3414, 1900.767
314.8235, 1921.029
315.3057, 1941.383
315.7878, 1957.735
316.2699, 1969.645
316.7520, 1977.478
317.2341, 1981.398
317.7162, 1981.702
318.1984, 1978.153
318.6805, 1969.596
319.1626, 1957.634
319.6447, 1945.040
320.1268, 1932.212
320.6089, 1916.819
321.0911, 1895.696
321.5732, 1871.480
322.0553, 1847.859
322.5374, 1826.124
323.0195, 1804.073
323.5016, 1779.172
323.9838, 1751.253
324.4659, 1723.432
324.9480, 1696.383
325.4301, 1670.565
325.9122, 1646.907
326.3943, 1625.556
326.8765, 1604.731
327.3586, 1582.410
327.8407, 1559.097
328.3228, 1538.284
328.8050, 1521.515
329.2871, 1506.571
329.7692, 1491.448
330.2513, 1476.178
330.7334, 1460.554
331.2155, 1443.779
331.6977, 1426.695
332.1798, 1411.453
332.6619, 1398.659
333.1440, 1386.639
333.6261, 1373.813
334.1082, 1360.676
334.5904, 1348.423
335.0725, 1338.457
335.5546, 1329.149
336.0367, 1318.795
336.5188, 1307.499
337.0009, 1294.338
337.4831, 1277.599
337.9652, 1258.899
338.4473, 1241.456
338.9294, 1226.117
339.4115, 1211.305
339.8936, 1196.503
340.3758, 1181.478
340.8579, 1164.732
341.3400, 1144.714
341.8221, 1123.561
342.3042, 1104.654
342.7863, 1088.291
343.2685, 1071.906
343.7506, 1053.720
344.2327, 1034.589
344.7148, 1016.564
345.1969, 1000.129
345.6790, 984.7405
346.1612, 969.8184
346.6433, 955.3294
347.1254, 941.7751
347.6075, 930.2054
348.0896, 919.2141
348.5717, 907.0150
349.0539, 893.3561
349.5360, 879.9369
350.0181, 868.1073
350.5002, 857.5598
350.9823, 846.6761
351.4644, 835.0792
351.9466, 823.4365
352.4287, 812.0206
352.9108, 800.8941
353.3929, 790.1511
353.8750, 779.9918
354.3571, 770.1761
354.8393, 760.0392
355.3214, 749.3593
355.8035, 738.9249
356.2856, 729.3047
356.7677, 720.1037
357.2498, 710.6022
357.7320, 700.5607
358.2141, 690.2920
358.6962, 679.8572
359.1783, 669.0254
359.6604, 659.4747
360.1425, 652.1237
360.6247, 645.6402
361.1068, 638.7097
361.5889, 631.2042
362.0710, 624.1500
362.5531, 618.4099
363.0352, 614.0034
363.5174, 609.9168
363.9995, 606.0728
364.4816, 602.5651
364.9637, 599.3502
365.4458, 596.5092
365.9279, 594.3176
366.4101, 592.9863
366.8922, 592.2418
367.3743, 591.2145
367.8564, 589.2799
368.3385, 587.9504
368.8206, 587.3150
369.3028, 587.4249
369.7849, 588.5050
370.2670, 590.5784
370.7491, 593.1739
371.2312, 595.6166
371.7133, 597.6395
372.1955, 600.3673
372.6776, 604.7360
373.1597, 608.9641
373.6418, 611.4058
374.1239, 612.4993
374.6060, 614.3309
375.0882, 618.7668
375.5703, 625.6810
376.0524, 631.1092
376.5345, 633.1215
377.0166, 635.9232
377.4987, 641.1732
377.9809, 647.6340
378.4630, 653.6323
378.9451, 658.4023
379.4272, 662.0594
379.9093, 664.7920
380.3914, 665.8562
380.8736, 667.2215
381.3557, 669.1853
381.8378, 671.2803
382.3199, 673.2737
382.8020, 675.0792
383.2841, 676.6210
383.7663, 677.9142
384.2484, 679.0783
384.7305, 679.1525
385.2126, 677.1609
385.6947, 674.9545
386.1768, 673.1614
386.6590, 671.5842
387.1411, 669.6771
387.6232, 667.0239
388.1053, 663.9189
388.5874, 661.5142
389.0695, 660.3376
389.5517, 658.8705
390.0338, 656.1761
390.5159, 653.3810
390.9980, 651.5749
391.4801, 651.0533
391.9622, 651.1978
392.4444, 651.4092
392.9265, 651.7335
393.4086, 651.6775
393.8907, 650.5623
394.3728, 649.6547
394.8549, 650.0477
395.3371, 651.3936
395.8192, 652.3057
396.3013, 651.7581
396.7834, 650.1031
397.2655, 648.2597
397.7477, 645.7874
398.2298, 644.2930
398.7119, 645.9730
399.1940, 648.7211
399.6761, 649.7424
400.1582, 648.0233
400.6404, 645.0997
401.1225, 642.2969
401.6046, 639.5927
402.0867, 637.0850
402.5688, 635.1232
403.0509, 632.9797
403.5331, 629.6176
404.0152, 625.0087
404.4973, 620.6852
404.9794, 617.6650
405.4615, 615.2664
405.9436, 612.2990
406.4258, 608.6176
406.9079, 604.6077
407.3900, 600.5767
407.8721, 596.4941
408.3542, 592.1624
408.8363, 587.7021
409.3185, 582.8873
409.8006, 577.7987
410.2827, 572.2991
410.7648, 565.7137
411.2469, 557.4019
411.7290, 548.5310
412.2112, 541.9940
412.6933, 538.6425
413.1754, 535.0818
413.6575, 531.0291
414.1396, 526.3418
414.6217, 520.4605
415.1039, 513.4379
415.5860, 506.4531
416.0681, 500.6734
416.5502, 496.2030
417.0323, 491.9946
417.5144, 488.2919
417.9966, 484.5536
418.4787, 480.2536
418.9608, 475.7973
419.4429, 472.0015
419.9250, 469.3158
420.4071, 467.3432
420.8893, 464.9628
421.3714, 461.6035
421.8535, 458.7337
422.3356, 456.6322
422.8177, 454.8221
423.2998, 452.9088
423.7820, 450.8607
424.2641, 449.0074
424.7462, 447.8709
425.2283, 447.5712
425.7104, 446.0996
426.1925, 441.9792
426.6747, 438.2442
427.1568, 436.1180
427.6389, 434.8560
428.1210, 433.3364
428.6031, 431.0470
429.0852, 428.1268
429.5674, 424.5817
430.0495, 419.9282
430.5316, 416.3705
431.0137, 416.0883
431.4958, 415.9717
431.9779, 413.8597
432.4601, 409.6959
432.9422, 405.1993
433.4243, 401.5168
433.9064, 398.5533
434.3885, 396.1064
434.8706, 394.6992
435.3528, 392.5331
435.8349, 387.5380
436.3170, 381.1444
436.7991, 375.6924
437.2812, 372.0722
437.7633, 369.1416
438.2455, 365.8622
438.7276, 362.2993
439.2097, 359.0357
439.6918, 356.3729
440.1739, 353.9686
440.6560, 351.1816
441.1382, 347.9085
441.6203, 345.2078
442.1024, 343.7264
442.5845, 342.7812
443.0666, 341.7948
443.5487, 340.6632
444.0309, 339.0769
444.5130, 336.6395
444.9951, 333.5092
445.4772, 331.0971
445.9593, 330.4493
446.4414, 329.2165
446.9236, 326.0539
447.4057, 322.0429
447.8878, 318.6943
448.3699, 316.5338
448.8520, 315.3618
449.3341, 315.0246
449.8163, 316.2812
450.2984, 316.1427
450.7805, 313.6133
451.2626, 310.8338
451.7447, 308.6583
452.2268, 307.1735
452.7090, 306.2541
453.1911, 305.8568
453.6732, 305.8911
454.1553, 306.0090
454.6374, 306.3492
455.1195, 306.5277
455.6017, 306.2010
456.0838, 305.8873
456.5659, 305.9253
457.0480, 306.4140
457.5301, 307.4176
458.0122, 309.3588
458.4944, 312.2095
458.9765, 314.0640
459.4586, 314.3871
459.9407, 314.3869
460.4228, 314.3345
460.9049, 314.4831
461.3871, 315.3384
461.8692, 317.2247
462.3513, 319.6398
462.8334, 322.1457
463.3155, 324.7274
463.7976, 326.9615
464.2798, 328.6278
464.7619, 329.9848
465.2440, 331.2997
465.7261, 332.5664
466.2082, 333.9906
466.6903, 335.8087
467.1725, 337.7379
467.6546, 339.4181
468.1367, 340.8255
468.6188, 342.2041
469.1009, 343.7486
469.5830, 345.3729
470.0652, 346.6891
470.5473, 348.2303
471.0294, 348.8481
471.5115, 347.4833
471.9936, 345.3534
472.4757, 344.1467
472.9579, 344.2430
473.4400, 344.5320
473.9221, 343.5955
474.4042, 341.0800
474.8863, 339.3980
475.3684, 339.7082
475.8506, 339.5125
476.3327, 337.5362
476.8148, 334.4936
477.2969, 331.6741
477.7790, 329.7263
478.2611, 328.2032
478.7433, 326.0440
479.2254, 322.7163
479.7075, 320.3043
480.1896, 320.1895
480.6717, 320.1068
481.1538, 318.5755
481.6360, 315.8365
482.1181, 313.3150
482.6002, 312.3163
483.0823, 312.1322
483.5644, 310.6138
484.0465, 307.4618
484.5287, 304.0762
485.0108, 300.7339
485.4929, 297.6728
485.9750, 295.2404
486.4571, 293.5856
486.9392, 292.0637
487.4214, 290.2213
487.9035, 288.2382
488.3856, 286.6844
488.8677, 285.7228
489.3498, 284.4985
489.8319, 282.1586
490.3141, 278.7680
490.7962, 275.7585
491.2783, 272.8629
491.7604, 270.5970
492.2425, 269.6593
492.7246, 269.4209
493.2068, 268.5925
493.6889, 266.7245
494.1710, 264.6029
494.6531, 263.5259
495.1352, 264.0408
495.6173, 263.8761
496.0995, 262.2605
496.5816, 260.8144
497.0637, 260.4542
497.5458, 260.8759
498.0279, 261.4044
498.5100, 261.7022
498.9922, 261.6484
499.4743, 260.8187
499.9564, 258.7741
500.4385, 257.0672
500.9206, 255.8812
501.4027, 255.1109
501.8849, 254.8180
502.3670, 254.9410
502.8491, 255.2478
503.3312, 255.6837
503.8133, 256.1643
504.2954, 256.5467
504.7776, 256.9139
505.2597, 256.7636
505.7418, 255.4926
506.2239, 253.7599
506.7060, 252.4560
507.1881, 251.6327
507.6703, 251.2276
508.1524, 251.7259
508.6345, 252.4564
509.1166, 252.0202
509.5987, 250.2046
510.0808, 248.5336
510.5630, 248.3286
511.0451, 249.4520
511.5272, 250.1444
512.0093, 250.1721
512.4914, 250.1116
512.9735, 250.0420
513.4556, 250.0171
513.9377, 250.0163
514.4199, 250.0645
514.9020, 250.4380
515.3841, 251.7038
515.8662, 254.2497
516.3483, 255.0137
516.8304, 252.0382
517.3126, 249.3137
517.7947, 247.9919
518.2768, 247.6096
518.7589, 247.5340
519.2410, 247.5415
519.7231, 247.3717
520.2053, 246.5610
520.6874, 245.0632
521.1695, 243.5812
521.6516, 242.0082
522.1337, 240.7402
522.6158, 240.0605
523.0980, 239.8607
523.5801, 239.8470
524.0622, 240.0346
524.5443, 240.2498
525.0264, 240.3053
525.5085, 240.2214
525.9907, 240.0586
526.4728, 239.7539
526.9549, 239.5784
527.4370, 240.1577
527.9191, 241.7683
528.4012, 242.3750
528.8834, 240.9265
529.3655, 239.1425
529.8476, 237.9547
530.3297, 237.4382
530.8118, 237.6489
531.2939, 238.6687
531.7761, 240.0869
532.2582, 240.8440
532.7403, 240.5384
533.2224, 240.2777
533.7045, 239.8991
534.1866, 239.7160
534.6688, 240.1901
535.1509, 241.0543
535.6330, 241.4039
536.1151, 240.3342
536.5972, 238.7675
537.0793, 239.4951
537.5615, 243.1816
538.0436, 246.4147
538.5257, 248.0529
539.0078, 248.9202
539.4899, 249.6814
539.9720, 250.3661
540.4542, 250.8497
540.9363, 250.6743
541.4184, 250.4593
541.9005, 251.2330
542.3826, 252.9832
542.8647, 254.7769
543.3469, 256.1190
543.8290, 257.2155
544.3111, 258.6491
544.7932, 260.6826
545.2753, 262.3745
545.7574, 262.8835
546.2396, 263.5128
546.7217, 265.4649
547.2038, 268.6800
547.6859, 272.4087
548.1680, 276.2254
548.6501, 279.9737
549.1323, 282.8622
549.6144, 283.8169
550.0965, 285.7826
550.5786, 289.7885
551.0607, 294.2451
551.5428, 298.0328
552.0250, 301.0924
552.5071, 303.9456
552.9892, 306.6193
553.4713, 309.4924
553.9534, 313.9535
554.4355, 320.3203
554.9177, 326.6643
555.3998, 332.1801
555.8819, 337.3263
556.3640, 342.7101
556.8461, 348.3357
557.3282, 354.2096
557.8104, 360.5442
558.2925, 367.0424
558.7746, 373.2228
559.2567, 379.1600
559.7388, 385.3047
560.2209, 392.0403
560.7031, 399.0940
561.1852, 405.6009
561.6673, 410.4162
562.1494, 416.4366
562.6315, 424.4762
563.1136, 433.1257
563.5958, 441.6419
564.0779, 449.8646
564.5600, 457.5041
565.0421, 464.2466
565.5242, 470.5007
566.0063, 477.6671
566.4885, 485.8831
566.9706, 494.4800
567.4527, 502.9988
567.9348, 512.0776
568.4169, 522.2015
568.8990, 533.3007
569.3812, 545.1425
569.8633, 557.5390
570.3454, 570.5229
570.8275, 584.0802
571.3096, 598.2036
571.7917, 613.0350
572.2739, 628.7498
572.7560, 645.3060
573.2381, 662.6314
573.7202, 680.5654
574.2023, 700.1033
574.6844, 722.4184
575.1666, 745.5441
575.6487, 767.8251
576.1309, 789.7989
576.6130, 813.0292
577.0951, 838.4539
577.5772, 865.5137
578.0593, 893.1309
578.5414, 921.3455
579.0236, 949.9978
579.5057, 980.0900
579.9878, 1009.696
580.4699, 1038.611
580.9520, 1066.254
581.4341, 1091.950
581.9163, 1115.633
582.3984, 1136.704
582.8805, 1154.179
583.3626, 1168.187
583.8447, 1179.718
584.3268, 1189.626
584.8090, 1195.714
585.2911, 1195.295
585.7732, 1188.622
586.2553, 1177.876
586.7374, 1162.698
587.2195, 1144.066
587.7017, 1122.682
588.1838, 1098.197
588.6659, 1069.254
589.1480, 1035.630
589.6301, 999.9580
590.1122, 965.2141
590.5944, 931.5517
591.0765, 897.4424
591.5586, 861.6268
592.0407, 826.7229
592.5228, 793.0944
593.0049, 760.7800
593.4871, 730.0853
593.9692, 700.9255
594.4513, 672.9456
594.9334, 645.0072
595.4155, 617.6597
595.8976, 593.8419
596.3798, 574.1595
596.8619, 556.1722
597.3440, 538.9694
597.8261, 522.4741
598.3082, 506.3153
598.7903, 489.9067
599.2725, 475.3273
599.7546, 464.1273
600.2367, 454.5307
600.7188, 444.7969
601.2009, 434.7786
601.6830, 425.1743
602.1652, 416.4043
602.6473, 408.3893
603.1294, 400.8704
603.6115, 394.0872
604.0936, 387.3627
604.5757, 380.0519
605.0579, 373.3142
605.5400, 368.1967
606.0221, 364.3420
606.5042, 360.4095
606.9863, 355.5748
607.4684, 350.4355
607.9506, 346.0255
608.4327, 342.3157
608.9148, 338.3985
609.3969, 333.9150
609.8790, 329.3719
610.3611, 325.2164
610.8433, 321.4310
611.3254, 318.2371
611.8075, 316.1138
612.2896, 314.1119
612.7717, 311.7098
613.2538, 309.0962
613.7360, 306.5664
614.2181, 304.2163
614.7002, 302.0704
615.1823, 300.1355
615.6644, 298.4077
616.1465, 296.9490
616.6287, 295.7112
617.1108, 294.8458
617.5929, 294.7357
618.0750, 294.7954
618.5571, 294.2873
619.0392, 293.1072
619.5214, 292.1024
620.0035, 292.1820
620.4856, 292.8305
620.9677, 292.8779
621.4498, 292.2651
621.9319, 291.3877
622.4141, 290.2849
622.8962, 289.2018
623.3783, 288.6367
623.8604, 288.5237
624.3425, 289.0408
624.8246, 290.9743
625.3068, 292.8640
625.7889, 293.6628
626.2710, 293.5999
626.7531, 293.3181
627.2352, 293.1200
627.7173, 293.1812
628.1995, 293.9459
628.6816, 295.6027
629.1637, 296.9008
629.6458, 297.4688
630.1279, 298.0538
630.6100, 299.0713
631.0922, 300.3477
631.5743, 301.5812
632.0564, 302.7003
632.5385, 303.7574
633.0206, 304.8885
633.5027, 305.9593
633.9849, 306.5500
634.4670, 306.6210
634.9491, 306.9265
635.4312, 308.0917
635.9133, 309.8933
636.3954, 311.2824
636.8776, 311.2144
637.3597, 312.1551
637.8418, 315.2825
638.3239, 318.5392
638.8060, 320.2784
639.2881, 320.7762
639.7703, 321.3489
640.2524, 322.7632
640.7345, 324.7438
641.2166, 326.9861
641.6987, 329.5410
642.1808, 331.1682
642.6630, 330.9386
643.1451, 330.8519
643.6272, 333.2628
644.1093, 337.4395
644.5914, 340.6774
645.0735, 342.0765
645.5557, 343.0619
646.0378, 343.5794
646.5199, 344.3853
647.0020, 347.0507
647.4841, 351.5947
647.9662, 355.9654
648.4484, 358.2068
648.9305, 358.7097
649.4126, 360.3848
649.8947, 363.7079
650.3768, 367.3150
650.8589, 371.4991
651.3411, 375.4377
651.8232, 378.1836
652.3053, 380.0051
652.7874, 382.3956
653.2695, 386.5077
653.7516, 391.1666
654.2338, 394.8284
654.7159, 397.7101
655.1980, 400.8388
655.6801, 404.5279
656.1622, 408.3447
656.6443, 411.5908
657.1265, 414.1291
657.6086, 418.7324
658.0907, 428.0120
658.5728, 435.7870
659.0549, 439.2557
659.5370, 441.3614
660.0192, 445.1985
660.5013, 451.1992
660.9834, 457.8274
661.4655, 463.8785
661.9476, 469.5894
662.4297, 475.4565
662.9119, 481.4359
663.3940, 487.8770
663.8761, 495.0487
664.3582, 502.4948
664.8403, 509.6844
665.3224, 516.6334
665.8046, 523.4543
666.2867, 529.4792
666.7688, 536.0956
667.2509, 544.4382
667.7330, 553.7418
668.2151, 562.9147
