##NAMES=Joesmithite
##RRUFFID=R120157
##IDEAL CHEMISTRY=Pb^2+^Ca_2_Mg_3_Fe^3+^_2_(Si_6_Be_2_)O_22_(OH)_2_
##LOCALITY=Ramsorten drift, Langban, Sweden
##OWNER=RRUFF
##SOURCE=Rock Currier
##DESCRIPTION=Reddish brown to black short prismatic crystals and fragments associated with hematite, from type sample
##STATUS=The identification of this mineral has been confirmed only by single crystal X-ray diffraction.
##URL=rruff.info/R120157
99.90765, 188.0584
100.3898, 191.7710
100.8719, 195.3382
101.3540, 198.8907
101.8361, 202.4456
102.3182, 206.0133
102.8004, 209.6314
103.2825, 213.2529
103.7646, 217.0358
104.2467, 221.0866
104.7288, 225.2384
105.2109, 229.0218
105.6931, 232.1634
106.1752, 235.4230
106.6573, 239.2221
107.1394, 244.0975
107.6215, 248.5727
108.1036, 252.4543
108.5858, 255.8711
109.0679, 259.4372
109.5500, 262.9545
110.0321, 266.7738
110.5142, 271.0513
110.9963, 276.0672
111.4785, 281.2243
111.9606, 286.5052
112.4427, 291.9083
112.9248, 297.2387
113.4069, 302.7086
113.8890, 307.9802
114.3712, 312.8460
114.8533, 317.6301
115.3354, 321.6516
115.8175, 324.6542
116.2996, 326.6546
116.7817, 327.9691
117.2639, 328.6701
117.7460, 328.8001
118.2281, 328.4088
118.7102, 327.2928
119.1923, 325.8184
119.6744, 324.1205
120.1566, 322.1425
120.6387, 320.2338
121.1208, 318.3290
121.6029, 316.6364
122.0850, 315.6114
122.5671, 315.8388
123.0493, 316.6768
123.5314, 317.4673
124.0135, 318.0492
124.4956, 318.6807
124.9777, 319.5179
125.4598, 320.5724
125.9420, 321.9020
126.4241, 323.3381
126.9062, 325.0902
127.3883, 327.5717
127.8704, 330.9534
128.3525, 334.9800
128.8347, 339.4150
129.3168, 344.2617
129.7989, 349.2037
130.2810, 354.0403
130.7631, 358.7776
131.2452, 363.6588
131.7274, 368.8582
132.2095, 374.1858
132.6916, 379.2548
133.1737, 384.1460
133.6558, 388.4572
134.1379, 391.9886
134.6201, 394.7424
135.1022, 396.6661
135.5843, 397.9171
136.0664, 398.3906
136.5485, 396.9257
137.0306, 393.1002
137.5128, 388.2959
137.9949, 384.2408
138.4770, 381.2059
138.9591, 377.4530
139.4412, 371.9544
139.9233, 364.5306
140.4055, 358.5280
140.8876, 354.3255
141.3697, 351.1308
141.8518, 347.5419
142.3339, 343.1991
142.8160, 339.2913
143.2982, 336.2589
143.7803, 334.2779
144.2624, 332.7435
144.7445, 331.9383
145.2266, 331.4912
145.7087, 330.5612
146.1909, 328.7373
146.6730, 326.9413
147.1551, 325.4997
147.6372, 324.3975
148.1193, 323.7159
148.6014, 323.6262
149.0836, 323.9840
149.5657, 324.2825
150.0478, 324.2596
150.5299, 324.3823
151.0120, 324.8580
151.4941, 325.7335
151.9763, 326.8890
152.4584, 328.3128
152.9405, 330.0086
153.4226, 332.0231
153.9047, 334.1129
154.3868, 336.6780
154.8690, 339.9356
155.3511, 344.9142
155.8332, 349.5114
156.3153, 353.1555
156.7974, 355.9674
157.2795, 358.9492
157.7617, 363.1454
158.2438, 367.1573
158.7259, 369.9759
159.2080, 371.3668
159.6901, 371.5531
160.1722, 370.3472
160.6544, 367.7996
161.1365, 364.7738
161.6186, 361.3104
162.1007, 357.6388
162.5828, 353.8837
163.0649, 349.8879
163.5471, 346.0167
164.0292, 342.4893
164.5113, 339.3105
164.9934, 336.1694
165.4755, 332.4609
165.9576, 328.7987
166.4398, 325.9867
166.9219, 325.1053
167.4040, 324.5857
167.8861, 323.2351
168.3682, 320.9316
168.8503, 318.8996
169.3325, 317.8979
169.8146, 317.6909
170.2967, 317.9040
170.7788, 318.8998
171.2609, 319.9514
171.7430, 320.2534
172.2252, 319.6809
172.7073, 319.0898
173.1894, 319.0565
173.6715, 319.5165
174.1536, 320.3099
174.6357, 321.6812
175.1179, 323.2184
175.6000, 324.3383
176.0821, 324.9081
176.5642, 325.4801
177.0463, 326.5859
177.5284, 328.1394
178.0106, 329.8543
178.4927, 331.7852
178.9748, 333.7415
179.4569, 335.3383
179.9390, 336.5248
180.4211, 337.4770
180.9033, 338.4160
181.3854, 339.3253
181.8675, 340.0975
182.3496, 340.6963
182.8317, 341.1153
183.3138, 341.3883
183.7960, 341.5390
184.2781, 341.4742
184.7602, 341.1068
185.2423, 340.4235
185.7244, 339.3601
186.2065, 337.6490
186.6887, 335.4682
187.1708, 333.5217
187.6529, 331.9797
188.1350, 330.4985
188.6171, 328.4366
189.0992, 325.7905
189.5814, 323.1475
190.0635, 320.8578
190.5456, 318.8707
191.0277, 317.0350
191.5098, 315.2925
191.9919, 313.7348
192.4741, 312.6556
192.9562, 312.0741
193.4383, 311.6338
193.9204, 311.0905
194.4025, 310.4562
194.8846, 309.9590
195.3668, 309.6542
195.8489, 309.4667
196.3310, 309.1739
196.8131, 308.7454
197.2952, 308.4348
197.7773, 308.5605
198.2595, 309.1436
198.7416, 309.2956
199.2237, 308.7828
199.7058, 307.8820
200.1879, 307.4157
200.6700, 307.4753
201.1522, 307.5498
201.6343, 307.3032
202.1164, 306.7198
202.5985, 305.9619
203.0806, 304.9856
203.5627, 303.8883
204.0449, 303.0278
204.5270, 302.4668
205.0091, 301.9299
205.4912, 301.1343
205.9733, 299.9737
206.4554, 299.2115
206.9376, 299.0309
207.4197, 299.2845
207.9018, 299.4112
208.3839, 299.3787
208.8660, 299.3062
209.3481, 299.2898
209.8303, 299.3600
210.3124, 299.3404
210.7945, 299.1194
211.2766, 298.8150
211.7587, 298.9120
212.2408, 299.4871
212.7230, 300.3105
213.2051, 301.3014
213.6872, 302.5601
214.1693, 303.6118
214.6514, 304.3017
215.1335, 304.7377
215.6157, 305.4201
216.0978, 306.4393
216.5799, 307.5312
217.0620, 308.5158
217.5441, 309.3211
218.0262, 310.2414
218.5084, 311.3916
218.9905, 312.6952
219.4726, 313.6550
219.9547, 314.0428
220.4368, 314.5067
220.9189, 315.5520
221.4011, 317.5869
221.8832, 319.1240
222.3653, 319.8047
222.8474, 319.8978
223.3295, 320.6810
223.8116, 322.3936
224.2938, 324.3906
224.7759, 326.3319
225.2580, 328.2710
225.7401, 329.9493
226.2222, 331.1680
226.7043, 332.1059
227.1865, 333.6286
227.6686, 335.9662
228.1507, 338.4932
228.6328, 340.8837
229.1149, 343.2503
229.5970, 345.1760
230.0792, 346.4338
230.5613, 347.2327
231.0434, 348.3858
231.5255, 350.1625
232.0076, 351.8883
232.4897, 353.1902
232.9719, 353.9824
233.4540, 354.5077
233.9361, 354.4615
234.4182, 354.1844
234.9003, 354.9598
235.3824, 357.4760
235.8646, 360.0604
236.3467, 361.8409
236.8288, 362.3360
237.3109, 363.0862
237.7930, 364.1736
238.2751, 365.5295
238.7573, 366.8557
239.2394, 367.7809
239.7215, 369.2021
240.2036, 371.6438
240.6857, 375.7685
241.1678, 379.3820
241.6500, 382.2798
242.1321, 384.7024
242.6142, 387.3143
243.0963, 390.1725
243.5784, 393.1203
244.0605, 396.1120
244.5427, 399.3315
245.0248, 402.1854
245.5069, 404.7095
245.9890, 406.8675
246.4711, 408.5692
246.9532, 409.9330
247.4354, 410.6859
247.9175, 410.6834
248.3996, 409.7997
248.8817, 408.6237
249.3638, 407.2882
249.8459, 405.5975
250.3281, 403.1617
250.8102, 399.7966
251.2923, 395.9983
251.7744, 391.7746
252.2565, 386.9738
252.7386, 382.5609
253.2208, 378.5577
253.7029, 374.9299
254.1850, 371.5890
254.6671, 368.6486
255.1492, 365.7417
255.6313, 362.6978
256.1135, 359.4338
256.5956, 356.6190
257.0777, 354.3260
257.5598, 352.4312
258.0419, 350.8224
258.5240, 349.6186
259.0062, 348.4467
259.4883, 347.1288
259.9704, 345.6508
260.4525, 344.5981
260.9346, 344.1413
261.4167, 343.9146
261.8989, 343.4076
262.3810, 342.3270
262.8631, 341.8131
263.3452, 342.3832
263.8273, 344.0395
264.3094, 344.8356
264.7916, 344.4802
265.2737, 343.7731
265.7558, 343.5399
266.2379, 344.0011
266.7200, 344.2235
267.2021, 343.9872
267.6843, 343.3336
268.1664, 342.6755
268.6485, 342.0380
269.1306, 341.3394
269.6127, 340.4792
270.0948, 339.3992
270.5770, 338.4361
271.0591, 337.7671
271.5412, 337.2510
272.0233, 336.1405
272.5054, 334.3232
272.9875, 332.2448
273.4697, 330.2251
273.9518, 328.2657
274.4339, 326.1935
274.9160, 323.9057
275.3981, 321.5499
275.8802, 319.5201
276.3624, 317.8720
276.8445, 316.4657
277.3266, 315.3676
277.8087, 314.6268
278.2908, 313.3827
278.7729, 311.3315
279.2551, 309.0201
279.7372, 307.8914
280.2193, 308.1132
280.7014, 308.4146
281.1835, 308.0397
281.6656, 307.0016
282.1478, 306.1886
282.6299, 305.6796
283.1120, 305.3189
283.5941, 304.8380
284.0762, 304.2277
284.5583, 303.6464
285.0405, 303.0645
285.5226, 302.5185
286.0047, 302.4059
286.4868, 302.7945
286.9689, 303.3969
287.4510, 303.8414
287.9332, 304.1349
288.4153, 304.4340
288.8974, 304.8052
289.3795, 305.2261
289.8616, 305.6118
290.3438, 305.9624
290.8259, 306.2690
291.3080, 306.4315
291.7901, 306.4961
292.2722, 306.7631
292.7543, 307.4052
293.2365, 308.2748
293.7186, 308.9569
294.2007, 309.4404
294.6828, 310.0644
295.1649, 311.2120
295.6470, 312.7558
296.1292, 314.3066
296.6113, 315.7007
297.0934, 317.0991
297.5755, 318.8816
298.0576, 321.0158
298.5397, 323.0554
299.0219, 324.5707
299.5040, 325.7869
299.9861, 327.1540
300.4682, 328.7535
300.9503, 330.5461
301.4324, 332.6837
301.9146, 335.0486
302.3967, 337.2300
302.8788, 338.9439
303.3609, 340.3115
303.8430, 341.4328
304.3251, 342.2809
304.8073, 343.0372
305.2894, 344.0569
305.7715, 345.1319
306.2536, 345.7862
306.7357, 345.5399
307.2178, 344.8540
307.7000, 344.0965
308.1821, 343.2656
308.6642, 342.6115
309.1463, 342.6059
309.6284, 342.8486
310.1105, 342.7160
310.5927, 341.6374
311.0748, 340.3106
311.5569, 339.2508
312.0390, 338.4680
312.5211, 337.5844
313.0032, 336.0070
313.4854, 334.3510
313.9675, 333.2920
314.4496, 333.5800
314.9317, 334.0499
315.4138, 334.1160
315.8959, 333.8552
316.3781, 333.7263
316.8602, 334.2539
317.3423, 334.8086
317.8244, 334.8689
318.3065, 333.6222
318.7886, 332.8687
319.2708, 333.7714
319.7529, 335.7014
320.2350, 336.8938
320.7171, 335.9058
321.1992, 334.7252
321.6813, 334.3818
322.1635, 335.4019
322.6456, 336.3436
323.1277, 336.9016
323.6098, 337.2111
324.0919, 337.5019
324.5740, 337.6317
325.0562, 337.9025
325.5383, 338.5771
326.0204, 339.9387
326.5025, 340.5803
326.9846, 339.9348
327.4667, 338.7260
327.9489, 337.7153
328.4310, 337.0575
328.9131, 336.4461
329.3952, 335.8820
329.8773, 335.3726
330.3594, 334.7078
330.8416, 333.7084
331.3237, 332.7156
331.8058, 332.0079
332.2879, 331.9723
332.7700, 331.5272
333.2521, 330.3296
333.7343, 328.6056
334.2164, 327.5141
334.6985, 327.4463
335.1806, 327.4113
335.6627, 326.9088
336.1448, 325.8997
336.6270, 324.4630
337.1091, 322.3079
337.5912, 319.9640
338.0733, 318.6007
338.5554, 318.5141
339.0375, 318.4961
339.5197, 318.0360
340.0018, 317.1080
340.4839, 316.3132
340.9660, 315.6847
341.4481, 315.1485
341.9302, 314.6086
342.4124, 314.0506
342.8945, 313.6198
343.3766, 313.4436
343.8587, 313.4230
344.3408, 313.0284
344.8229, 312.2116
345.3051, 311.3546
345.7872, 310.7513
346.2693, 310.3979
346.7514, 310.2971
347.2335, 310.5414
347.7156, 310.9268
348.1978, 311.0168
348.6799, 310.8365
349.1620, 310.6720
349.6441, 310.7589
350.1262, 311.0054
350.6083, 311.1803
351.0905, 311.2441
351.5726, 311.2906
352.0547, 311.4793
352.5368, 311.7503
353.0189, 311.9238
353.5010, 311.6042
353.9832, 311.2783
354.4653, 311.7654
354.9474, 313.1396
355.4295, 314.2840
355.9116, 313.9663
356.3937, 312.9255
356.8759, 312.2737
357.3580, 312.4845
357.8401, 313.1546
358.3222, 314.3592
358.8043, 315.9590
359.2864, 317.0496
359.7686, 316.6082
360.2507, 315.7376
360.7328, 315.4298
361.2149, 316.3139
361.6970, 317.0865
362.1791, 317.0051
362.6613, 316.4190
363.1434, 316.1357
363.6255, 316.7374
364.1076, 317.4331
364.5897, 317.8255
365.0718, 317.7476
365.5540, 317.7658
366.0361, 318.1223
366.5182, 318.5796
367.0003, 318.8539
367.4824, 318.7676
367.9645, 318.6518
368.4467, 318.5066
368.9288, 318.3286
369.4109, 318.4156
369.8930, 319.0628
370.3751, 319.7584
370.8572, 320.1120
371.3394, 319.5052
371.8215, 319.6453
372.3036, 321.1183
372.7857, 323.4141
373.2678, 324.6837
373.7499, 324.5348
374.2321, 324.0646
374.7142, 323.7323
375.1963, 323.5341
375.6784, 323.4594
376.1605, 323.4905
376.6426, 323.6633
377.1248, 324.0538
377.6069, 324.6895
378.0890, 325.4002
378.5711, 326.2043
379.0532, 327.0591
379.5353, 327.5485
380.0175, 327.6294
380.4996, 327.5893
380.9817, 327.7335
381.4638, 328.0288
381.9459, 328.1683
382.4280, 328.0101
382.9102, 327.7663
383.3923, 328.0050
383.8744, 328.6591
384.3565, 329.0465
384.8386, 328.4868
385.3207, 327.3833
385.8029, 326.5192
386.2850, 325.9445
386.7671, 325.7093
387.2492, 326.0485
387.7313, 326.7708
388.2134, 327.4356
388.6956, 327.8435
389.1777, 328.1003
389.6598, 328.2160
390.1419, 328.2106
390.6240, 328.3423
391.1061, 329.0911
391.5883, 329.9313
392.0704, 330.2597
392.5525, 329.3069
393.0346, 328.6596
393.5167, 329.3914
393.9988, 331.0368
394.4810, 332.2895
394.9631, 331.9973
395.4452, 331.7428
395.9273, 332.4720
396.4094, 334.7414
396.8915, 336.5533
397.3737, 337.1698
397.8558, 337.2513
398.3379, 337.6112
398.8200, 338.5110
399.3021, 339.4937
399.7842, 340.5702
400.2664, 341.7351
400.7485, 342.5764
401.2306, 342.7471
401.7127, 342.9131
402.1948, 343.5576
402.6769, 345.1346
403.1591, 346.1796
403.6412, 346.4765
404.1233, 346.2502
404.6054, 346.0062
405.0875, 345.6779
405.5696, 345.5462
406.0518, 345.8784
406.5339, 346.7059
407.0160, 346.9619
407.4981, 346.5796
407.9802, 345.8305
408.4623, 344.8339
408.9445, 343.6033
409.4266, 342.8428
409.9087, 342.9253
410.3908, 343.4446
410.8729, 343.4045
411.3550, 342.8216
411.8372, 342.1603
412.3193, 341.7360
412.8014, 341.4771
413.2835, 341.1441
413.7656, 340.6327
414.2477, 340.3173
414.7299, 340.7819
415.2120, 341.7666
415.6941, 342.6388
416.1762, 342.9749
416.6583, 343.1455
417.1404, 343.3837
417.6226, 343.7034
418.1047, 344.2879
418.5868, 345.5345
419.0689, 346.9549
419.5510, 348.1049
420.0331, 348.8004
420.5153, 349.2780
420.9974, 349.4083
421.4795, 349.3686
421.9616, 349.6020
422.4437, 350.5794
422.9258, 351.5626
423.4080, 352.1862
423.8901, 352.2737
424.3722, 352.6103
424.8543, 353.5250
425.3364, 354.5992
425.8185, 355.4088
426.3007, 355.6722
426.7828, 356.1109
427.2649, 356.9433
427.7470, 358.0714
428.2291, 358.8697
428.7112, 359.2545
429.1934, 359.4356
429.6755, 359.4468
430.1576, 359.1883
430.6397, 359.3326
431.1218, 360.0789
431.6039, 360.9308
432.0861, 361.0784
432.5682, 360.4833
433.0503, 359.6909
433.5324, 358.8470
434.0145, 357.9577
434.4966, 357.0711
434.9788, 356.1936
435.4609, 355.2224
435.9430, 353.9962
436.4251, 352.5967
436.9072, 351.2938
437.3893, 350.1979
437.8715, 349.0329
438.3536, 347.2457
438.8357, 345.0959
439.3178, 343.3078
439.7999, 342.6935
440.2820, 342.3234
440.7642, 341.2323
441.2463, 339.3516
441.7284, 337.6318
442.2105, 336.9134
442.6926, 336.4369
443.1747, 335.4585
443.6569, 333.2340
444.1390, 331.1233
444.6211, 329.6171
445.1032, 328.5534
445.5853, 327.5148
446.0674, 326.3316
446.5496, 325.2359
447.0317, 324.3571
447.5138, 323.8076
447.9959, 323.1246
448.4780, 322.2313
448.9601, 321.2688
449.4423, 320.3492
449.9244, 319.4574
450.4065, 318.6721
450.8886, 317.9961
451.3707, 317.4410
451.8528, 317.0460
452.3350, 316.8365
452.8171, 316.6947
453.2992, 316.5652
453.7813, 316.4431
454.2634, 316.3217
454.7455, 316.2215
455.2277, 316.0264
455.7098, 315.4743
456.1919, 314.6316
456.6740, 313.9362
457.1561, 313.5616
457.6382, 313.4067
458.1204, 313.4679
458.6025, 313.6905
459.0846, 313.6675
459.5667, 312.9383
460.0488, 311.8777
460.5309, 310.9545
461.0131, 310.2450
461.4952, 309.6542
461.9773, 308.9072
462.4594, 308.2930
462.9415, 308.2286
463.4236, 309.7562
463.9058, 311.0419
464.3879, 311.1645
464.8700, 310.2119
465.3521, 309.2281
465.8342, 307.9854
466.3163, 307.1229
466.7985, 307.0746
467.2806, 308.6630
467.7627, 309.6013
468.2448, 309.5991
468.7269, 309.0272
469.2090, 308.3442
469.6912, 307.2373
470.1733, 306.5990
470.6554, 306.7904
471.1375, 307.6987
471.6196, 308.2240
472.1017, 308.3002
472.5839, 308.1759
473.0660, 307.9476
473.5481, 307.6147
474.0302, 307.4451
474.5123, 307.4818
474.9944, 307.6352
475.4766, 307.7713
475.9587, 307.9048
476.4408, 308.1160
476.9229, 308.4985
477.4050, 308.9463
477.8871, 309.2521
478.3693, 309.4360
478.8514, 309.6572
479.3335, 310.0061
479.8156, 310.4678
480.2977, 311.0349
480.7798, 311.7240
481.2620, 312.4398
481.7441, 313.0584
482.2262, 313.6773
482.7083, 314.4411
483.1904, 315.4610
483.6725, 316.5671
484.1547, 317.7371
484.6368, 318.9508
485.1189, 320.0783
485.6010, 320.9347
486.0831, 321.8297
486.5652, 322.9013
487.0474, 324.1683
487.5295, 325.6147
488.0116, 327.4517
488.4937, 329.2942
488.9758, 330.5344
489.4579, 330.9175
489.9401, 331.4762
490.4222, 332.4397
490.9043, 333.7733
491.3864, 335.4500
491.8685, 337.5272
492.3506, 339.5997
492.8328, 341.4271
493.3149, 343.0201
493.7970, 344.4494
494.2791, 345.7177
494.7612, 346.8650
495.2433, 347.6782
495.7255, 348.4108
496.2076, 349.7450
496.6897, 352.4262
497.1718, 355.3339
497.6539, 357.2504
498.1360, 358.3994
498.6182, 359.6850
499.1003, 361.7337
499.5824, 363.9754
500.0645, 365.9179
500.5466, 367.4335
501.0287, 369.1150
501.5109, 371.4040
501.9930, 373.8231
502.4751, 375.8671
502.9572, 376.9973
503.4393, 378.3120
503.9214, 380.0550
504.4036, 382.0601
504.8857, 383.7745
505.3678, 385.0262
505.8499, 386.3227
506.3320, 387.9535
506.8141, 389.9694
507.2963, 391.5297
507.7784, 392.5440
508.2605, 393.3965
508.7426, 394.5619
509.2247, 396.0067
509.7068, 397.2242
510.1890, 398.1142
510.6711, 398.7416
511.1532, 399.1888
511.6353, 399.4506
512.1174, 399.5060
512.5995, 399.3920
513.0817, 399.0400
513.5638, 398.2880
514.0459, 397.1496
514.5280, 395.9452
515.0101, 394.8055
515.4922, 393.7310
515.9744, 392.7812
516.4565, 392.1794
516.9386, 391.2763
517.4207, 389.5174
517.9028, 387.3942
518.3849, 385.7104
518.8671, 384.8398
519.3492, 384.1666
519.8313, 383.6090
520.3134, 383.1581
520.7955, 382.6196
521.2776, 381.9543
521.7598, 381.2484
522.2419, 380.6827
522.7240, 380.4311
523.2061, 379.1913
523.6882, 376.5823
524.1703, 373.7371
524.6525, 372.2282
525.1346, 371.9761
525.6167, 371.8853
526.0988, 371.8341
526.5809, 371.5850
527.0630, 370.4772
527.5452, 368.6648
528.0273, 366.9961
528.5094, 366.0807
528.9915, 365.5187
529.4736, 364.8439
529.9557, 364.0140
530.4379, 363.2241
530.9200, 362.6904
531.4021, 362.1910
531.8842, 361.4898
532.3663, 360.2734
532.8484, 359.2104
533.3306, 358.6044
533.8127, 358.2523
534.2948, 357.7459
534.7769, 357.0174
535.2590, 356.1611
535.7411, 355.1530
536.2233, 354.0065
536.7054, 352.9592
537.1875, 352.0565
537.6696, 351.1968
538.1517, 350.3410
538.6339, 349.5110
539.1160, 348.5285
539.5981, 347.3726
540.0802, 346.1158
540.5623, 344.7083
541.0444, 343.2123
541.5266, 341.9548
542.0087, 341.0907
542.4908, 340.4489
542.9729, 339.9978
543.4550, 339.6301
543.9371, 338.9117
544.4193, 337.3070
544.9014, 335.4271
545.3835, 333.6172
545.8656, 331.8856
546.3477, 330.7031
546.8298, 330.8374
547.3120, 331.2649
547.7941, 331.1375
548.2762, 329.7726
548.7583, 328.5947
549.2404, 327.8770
549.7225, 327.3557
550.2047, 326.5737
550.6868, 325.3999
551.1689, 324.2091
551.6510, 323.0850
552.1331, 322.0261
552.6152, 321.0556
553.0974, 320.1839
553.5795, 319.3703
554.0616, 318.5918
554.5437, 317.8549
555.0258, 317.2070
555.5079, 316.6681
555.9901, 316.1123
556.4722, 315.3357
556.9543, 314.4467
557.4364, 313.6704
557.9185, 313.0940
558.4006, 312.6096
558.8828, 312.2994
559.3649, 312.0070
559.8470, 311.3683
560.3291, 309.4453
560.8112, 307.8496
561.2933, 307.6081
561.7755, 308.7622
562.2576, 309.2547
562.7397, 308.1718
563.2218, 306.8563
563.7039, 305.9695
564.1860, 305.7589
564.6682, 305.3155
565.1503, 304.5321
565.6324, 303.6530
566.1145, 303.0584
566.5966, 302.7974
567.0787, 302.3599
567.5609, 301.6354
568.0430, 300.6891
568.5251, 299.5193
569.0072, 298.1757
569.4893, 297.1225
569.9714, 296.7563
570.4536, 296.7539
570.9357, 296.7383
571.4178, 296.6880
571.8999, 296.4633
572.3820, 295.8900
572.8641, 295.1450
573.3463, 294.4183
573.8284, 293.8233
574.3105, 292.9960
574.7926, 291.7290
575.2747, 290.2002
575.7568, 288.6339
576.2390, 286.8212
576.7211, 285.2499
577.2032, 284.0605
577.6853, 283.1387
578.1674, 282.1178
578.6495, 280.9415
579.1317, 279.8565
579.6138, 279.1982
580.0959, 278.8118
580.5780, 277.2333
581.0601, 274.3677
581.5422, 271.2210
582.0244, 268.5410
582.5065, 266.2220
582.9886, 264.1313
583.4707, 262.2773
583.9528, 260.3213
584.4349, 257.7142
584.9171, 254.8640
585.3992, 252.3809
585.8813, 250.9018
586.3634, 249.3616
586.8455, 247.2611
587.3276, 244.7546
587.8098, 242.3425
588.2919, 240.0339
588.7740, 237.9215
589.2561, 236.0993
589.7382, 234.5739
590.2203, 232.8279
590.7025, 230.6187
591.1846, 228.6546
591.6667, 227.5913
592.1488, 227.5258
592.6309, 226.8177
593.1130, 225.2942
593.5952, 223.5594
594.0773, 222.2966
594.5594, 221.4375
595.0415, 220.7683
595.5236, 220.3138
