##NAMES=Joesmithite
##RRUFFID=R120157
##IDEAL CHEMISTRY=Pb^2+^Ca_2_Mg_3_Fe^3+^_2_(Si_6_Be_2_)O_22_(OH)_2_
##LOCALITY=Ramsorten drift, Langban, Sweden
##OWNER=RRUFF
##SOURCE=Rock Currier
##DESCRIPTION=Reddish brown to black short prismatic crystals and fragments associated with hematite, from type sample
##STATUS=The identification of this mineral has been confirmed only by single crystal X-ray diffraction.
##URL=rruff.info/R120157
93.97052, 315.6796
94.45264, 314.4821
94.93475, 312.0592
95.41687, 309.4926
95.89898, 306.8427
96.38110, 304.3989
96.86321, 302.4818
97.34533, 301.0189
97.82745, 299.2387
98.30956, 297.3806
98.79168, 295.3588
99.27380, 293.5184
99.75591, 291.8535
100.2380, 290.3375
100.7201, 289.0049
101.2023, 287.8646
101.6844, 286.9259
102.1665, 286.1141
102.6486, 285.5692
103.1307, 285.0133
103.6128, 284.0988
104.0950, 282.7202
104.5771, 281.4325
105.0592, 280.5576
105.5413, 279.9308
106.0234, 279.3715
106.5055, 278.8281
106.9877, 278.2789
107.4698, 277.6154
107.9519, 276.4802
108.4340, 275.6677
108.9161, 275.6330
109.3982, 276.1715
109.8804, 276.7769
110.3625, 276.8893
110.8446, 276.2758
111.3267, 276.3924
111.8088, 277.7870
112.2909, 279.3906
112.7731, 280.8530
113.2552, 282.0488
113.7373, 282.9565
114.2194, 283.5376
114.7015, 283.7583
115.1836, 283.6124
115.6658, 283.0309
116.1479, 282.1396
116.6300, 280.9625
117.1121, 279.4852
117.5942, 277.9092
118.0763, 276.7816
118.5584, 276.3341
119.0406, 275.7427
119.5227, 274.5761
120.0048, 273.0510
120.4869, 271.7568
120.9690, 270.9752
121.4511, 270.6085
121.9333, 270.3561
122.4154, 270.2991
122.8975, 270.2125
123.3796, 269.7791
123.8617, 268.9252
124.3438, 268.3271
124.8260, 268.3469
125.3081, 268.7848
125.7902, 269.5753
126.2723, 270.7705
126.7544, 272.2073
127.2365, 273.4833
127.7187, 274.4212
128.2008, 275.5135
128.6829, 276.9449
129.1650, 278.5903
129.6471, 280.2984
130.1292, 282.0002
130.6114, 283.6860
131.0935, 285.1888
131.5756, 286.6491
132.0577, 287.7858
132.5398, 288.4251
133.0219, 288.6571
133.5041, 288.7005
133.9862, 288.7565
134.4683, 288.8654
134.9504, 288.6545
135.4325, 288.2973
135.9146, 287.5667
136.3968, 286.2402
136.8789, 284.3365
137.3610, 282.1207
137.8431, 279.8287
138.3252, 277.3802
138.8073, 275.3437
139.2895, 274.0366
139.7716, 273.0389
140.2537, 271.8011
140.7358, 270.1498
141.2179, 268.4908
141.7000, 267.4625
142.1821, 267.0050
142.6643, 266.5034
143.1464, 265.5841
143.6285, 264.3908
144.1106, 263.4525
144.5927, 262.9894
145.0748, 262.7184
145.5570, 262.3249
146.0391, 261.8085
146.5212, 261.3846
147.0033, 261.2964
147.4854, 261.5851
147.9675, 261.8027
148.4497, 261.6261
148.9318, 261.5094
149.4139, 261.7047
149.8960, 262.2643
150.3781, 263.0839
150.8602, 264.0228
151.3424, 265.1335
151.8245, 266.2784
152.3066, 267.2746
152.7887, 268.3821
153.2708, 269.8522
153.7529, 271.7650
154.2351, 273.9787
154.7172, 276.1479
155.1993, 278.5605
155.6814, 280.5219
156.1635, 281.8763
156.6456, 282.8104
157.1278, 283.5932
157.6099, 284.3781
158.0920, 285.0225
158.5741, 284.8520
159.0562, 283.8560
159.5383, 282.2165
160.0205, 279.6575
160.5026, 276.4525
160.9847, 273.1654
161.4668, 270.0728
161.9489, 267.2032
162.4310, 264.6383
162.9131, 262.4143
163.3953, 260.4296
163.8774, 258.6448
164.3595, 257.0575
164.8416, 255.7006
165.3237, 254.7332
165.8058, 253.9902
166.2880, 253.0528
166.7701, 251.5512
167.2522, 250.0911
167.7343, 249.5355
168.2164, 250.0982
168.6985, 250.5530
169.1807, 250.0793
169.6628, 249.0968
170.1449, 248.0356
170.6270, 246.9707
171.1091, 245.9780
171.5912, 245.2539
172.0734, 244.9012
172.5555, 244.6506
173.0376, 244.3555
173.5197, 244.0781
174.0018, 243.9171
174.4839, 243.9563
174.9661, 244.1576
175.4482, 244.2917
175.9303, 244.4216
176.4124, 244.3926
176.8945, 244.0974
177.3766, 243.6241
177.8588, 243.1168
178.3409, 242.6698
178.8230, 242.2824
179.3051, 241.9661
179.7872, 241.8852
180.2693, 241.7133
180.7515, 241.2279
181.2336, 240.5448
181.7157, 239.9936
182.1978, 239.9018
182.6799, 240.3656
183.1620, 240.2846
183.6441, 239.3436
184.1263, 238.2709
184.6084, 237.4217
185.0905, 236.7954
185.5726, 236.1810
186.0547, 235.3810
186.5368, 234.3608
187.0190, 233.4193
187.5011, 232.6066
187.9832, 231.8417
188.4653, 231.0146
188.9474, 230.1266
189.4296, 229.3672
189.9117, 229.0336
190.3938, 229.1057
190.8759, 228.8667
191.3580, 227.8441
191.8401, 226.6579
192.3223, 226.1152
192.8044, 226.4096
193.2865, 226.8038
193.7686, 226.5537
194.2507, 225.8212
194.7328, 224.9931
195.2150, 224.0929
195.6971, 223.1871
196.1792, 222.3945
196.6613, 221.7136
197.1434, 221.1792
197.6255, 220.8877
198.1077, 220.7567
198.5898, 220.5865
199.0719, 220.3470
199.5540, 220.0010
200.0361, 219.3292
200.5182, 217.9617
201.0004, 216.7885
201.4825, 216.4734
201.9646, 216.7285
202.4467, 216.8396
202.9288, 216.2053
203.4109, 214.8821
203.8930, 213.8540
204.3752, 213.3913
204.8573, 212.9754
205.3394, 212.4475
205.8215, 211.8125
206.3036, 211.1102
206.7857, 210.3584
207.2679, 209.5519
207.7500, 208.8013
208.2321, 207.8709
208.7142, 207.2215
209.1963, 207.2838
209.6784, 207.8143
210.1606, 208.1751
210.6427, 207.7369
211.1248, 206.3660
211.6069, 205.4099
212.0890, 205.1255
212.5711, 204.9707
213.0533, 204.7859
213.5354, 204.5464
214.0175, 204.2625
214.4996, 203.9233
214.9817, 203.4916
215.4638, 203.2982
215.9460, 203.6754
216.4281, 203.9455
216.9102, 203.6830
217.3923, 202.9508
217.8744, 202.1203
218.3565, 201.4800
218.8387, 201.0304
219.3208, 201.0812
219.8029, 202.1641
220.2850, 203.2549
220.7671, 203.7404
221.2492, 203.6054
221.7314, 203.1650
222.2135, 202.6143
222.6956, 201.9525
223.1777, 201.5144
223.6598, 201.4778
224.1419, 201.5300
224.6240, 201.4509
225.1062, 201.2281
225.5883, 200.9460
226.0704, 200.6365
226.5525, 200.3189
227.0346, 200.0988
227.5167, 200.0442
227.9989, 200.0528
228.4810, 200.0802
228.9631, 200.1287
229.4452, 200.0659
229.9273, 199.6983
230.4094, 199.1421
230.8916, 198.7203
231.3737, 198.6051
231.8558, 198.5822
232.3379, 198.3498
232.8200, 197.8611
233.3021, 197.4935
233.7843, 197.6192
234.2664, 198.0023
234.7485, 198.2836
235.2306, 198.2628
235.7127, 198.1953
236.1948, 198.4731
236.6770, 199.1790
237.1591, 199.8950
237.6412, 200.4727
238.1233, 200.9226
238.6054, 201.2153
239.0875, 201.2832
239.5697, 201.2751
240.0518, 201.3859
240.5339, 201.5787
241.0160, 202.0241
241.4981, 203.0913
241.9802, 204.3055
242.4624, 205.2073
242.9445, 205.6172
243.4266, 205.7176
243.9087, 205.7748
244.3908, 205.7312
244.8729, 205.8058
245.3550, 206.2239
245.8372, 206.6911
246.3193, 206.9809
246.8014, 207.0200
247.2835, 206.8206
247.7656, 206.3364
248.2477, 205.3668
248.7299, 204.6003
249.2120, 204.5116
249.6941, 204.4456
250.1762, 203.8262
250.6583, 202.4890
251.1404, 200.8257
251.6226, 199.5026
252.1047, 198.7605
252.5868, 197.8294
253.0689, 196.5376
253.5510, 195.1339
254.0331, 193.7336
254.5153, 192.3889
254.9974, 191.1491
255.4795, 190.0527
255.9616, 188.9849
256.4437, 188.3676
256.9258, 188.6913
257.4080, 189.0338
257.8901, 188.7341
258.3722, 187.7046
258.8543, 186.3680
259.3364, 185.2766
259.8185, 184.4918
260.3007, 183.8232
260.7828, 183.1561
261.2649, 182.6551
261.7470, 182.5302
262.2291, 182.7395
262.7112, 182.9822
263.1934, 182.8923
263.6755, 182.3209
264.1576, 181.9562
264.6397, 182.1051
265.1218, 182.1660
265.6039, 181.6994
266.0861, 180.7673
266.5682, 179.7934
267.0503, 179.1927
267.5324, 179.0260
268.0145, 178.8886
268.4966, 178.9837
268.9788, 178.9232
269.4609, 178.4404
269.9430, 177.6036
270.4251, 176.6899
270.9072, 175.9185
271.3893, 175.2997
271.8715, 174.6765
272.3536, 173.8542
272.8357, 173.2152
273.3178, 173.2068
273.7999, 173.5608
274.2820, 173.4834
274.7642, 172.3308
275.2463, 170.2509
275.7284, 169.1425
276.2105, 169.7044
276.6926, 170.2261
277.1747, 170.0663
277.6568, 169.4290
278.1389, 168.8189
278.6211, 168.5186
279.1032, 168.4405
279.5853, 168.2023
280.0674, 167.4978
280.5495, 167.0195
281.0316, 167.1644
281.5138, 167.6262
281.9959, 167.8442
282.4780, 167.5605
282.9601, 166.9555
283.4422, 166.4781
283.9243, 166.1035
284.4065, 165.8665
284.8886, 165.8941
285.3707, 166.0338
285.8528, 166.0212
286.3349, 165.7498
286.8170, 165.4295
287.2992, 165.4835
287.7813, 166.1108
288.2634, 166.4103
288.7455, 165.9514
289.2276, 165.2053
289.7097, 164.7507
290.1919, 164.7227
290.6740, 164.8790
291.1561, 164.9259
291.6382, 164.8363
292.1203, 164.8585
292.6024, 165.0569
293.0846, 165.3552
293.5667, 165.7834
294.0488, 166.3369
294.5309, 166.6871
295.0130, 166.3823
295.4951, 165.4279
295.9773, 165.0314
296.4594, 165.6216
296.9415, 166.5033
297.4236, 167.2692
297.9057, 167.8708
298.3878, 168.1698
298.8700, 167.9245
299.3521, 167.2712
299.8342, 167.0848
300.3163, 167.7495
300.7984, 168.5195
301.2805, 169.0631
301.7627, 169.3708
302.2448, 169.3860
302.7269, 168.9500
303.2090, 168.2953
303.6911, 168.1298
304.1732, 168.7806
304.6554, 169.3397
305.1375, 169.2872
305.6196, 168.8277
306.1017, 168.5200
306.5838, 168.6258
307.0659, 168.8846
307.5481, 168.7807
308.0302, 168.2843
308.5123, 167.6881
308.9944, 166.9889
309.4765, 166.2708
309.9586, 165.6494
310.4408, 165.1337
310.9229, 164.8197
311.4050, 164.9985
311.8871, 165.7013
312.3692, 166.0815
312.8513, 165.8001
313.3335, 165.1882
313.8156, 164.5814
314.2977, 164.0237
314.7798, 163.5487
315.2619, 163.1844
315.7440, 162.9358
316.2262, 162.7982
316.7083, 162.9081
317.1904, 163.0320
317.6725, 162.8982
318.1546, 162.5266
318.6367, 162.2859
319.1188, 162.4909
319.6010, 163.0269
320.0831, 163.3067
320.5652, 163.3241
321.0473, 163.1066
321.5294, 162.4892
322.0115, 161.6049
322.4937, 160.9313
322.9758, 160.7321
323.4579, 160.8387
323.9400, 160.8145
324.4221, 160.5816
324.9042, 160.4100
325.3864, 160.4299
325.8685, 160.5711
326.3506, 160.7144
326.8327, 160.8311
327.3148, 160.9095
327.7969, 160.9192
328.2791, 160.8531
328.7612, 160.7827
329.2433, 160.7980
329.7254, 160.7805
330.2075, 160.5408
330.6896, 160.0461
331.1718, 159.5235
331.6539, 159.1673
332.1360, 158.9966
332.6181, 159.0114
333.1002, 159.4867
333.5823, 159.9395
334.0645, 159.9495
334.5466, 159.5506
335.0287, 159.1313
335.5108, 158.9690
335.9929, 159.0204
336.4750, 158.9494
336.9572, 158.6629
337.4393, 158.3654
337.9214, 158.2043
338.4035, 158.0992
338.8856, 157.8404
339.3677, 157.3111
339.8499, 156.6159
340.3320, 156.0395
340.8141, 155.6347
341.2962, 155.2323
341.7783, 154.7832
342.2604, 154.3246
342.7426, 153.8780
343.2247, 153.4507
343.7068, 153.1215
344.1889, 153.0414
344.6710, 153.3981
345.1531, 153.4219
345.6353, 152.7834
346.1174, 152.0371
346.5995, 151.6447
347.0816, 151.6197
347.5637, 151.6402
348.0458, 151.4146
348.5280, 150.9256
349.0101, 150.5406
349.4922, 150.2065
349.9743, 150.0082
350.4564, 150.2070
350.9385, 150.5793
351.4207, 150.5542
351.9028, 149.7419
352.3849, 148.4076
352.8670, 147.6941
353.3491, 148.0774
353.8312, 148.4879
354.3134, 148.9037
354.7955, 149.2400
355.2776, 149.3765
355.7597, 149.2753
356.2418, 149.0471
356.7239, 148.8792
357.2061, 148.8229
357.6882, 148.7225
358.1703, 148.4630
358.6524, 148.2473
359.1345, 148.3240
359.6166, 148.6417
360.0987, 148.8516
360.5808, 148.5796
361.0630, 147.7529
361.5451, 147.1429
362.0272, 146.8130
362.5093, 146.6163
362.9914, 146.6062
363.4735, 146.6864
363.9557, 146.6650
364.4378, 146.4062
364.9199, 146.0152
365.4020, 145.9600
365.8841, 146.6810
366.3662, 147.1347
366.8484, 146.9174
367.3305, 146.5315
367.8126, 146.5526
368.2947, 147.1391
368.7768, 147.8744
369.2589, 148.0797
369.7411, 147.5285
370.2232, 147.0525
370.7053, 146.5205
371.1874, 146.1935
371.6695, 146.3469
372.1516, 146.8880
372.6338, 147.4192
373.1159, 147.5632
373.5980, 147.3342
374.0801, 147.2224
374.5622, 147.3426
375.0443, 147.4427
375.5265, 147.4346
376.0086, 147.3544
376.4907, 147.2366
376.9728, 147.0693
377.4549, 146.9406
377.9370, 147.0951
378.4192, 147.6716
378.9013, 148.1366
379.3834, 148.2776
379.8655, 148.2927
380.3476, 148.3377
380.8297, 148.4430
381.3119, 148.5027
381.7940, 148.3962
382.2761, 148.1265
382.7582, 147.8175
383.2403, 147.3576
383.7224, 147.0261
384.2046, 147.0895
384.6867, 147.4447
385.1688, 147.7179
385.6509, 147.6457
386.1330, 147.3618
386.6151, 147.1397
387.0973, 146.9599
387.5794, 146.9150
388.0615, 147.2401
388.5436, 147.6854
389.0257, 147.8496
389.5078, 147.4878
389.9900, 147.1387
390.4721, 147.4611
390.9542, 148.3372
391.4363, 148.8134
391.9184, 148.4876
392.4005, 147.7256
392.8827, 146.9476
393.3648, 146.1209
393.8469, 145.5782
394.3290, 145.5458
394.8111, 145.8496
395.2932, 146.3100
395.7754, 146.9334
396.2575, 147.4169
396.7396, 147.4433
397.2217, 147.0412
397.7038, 146.7055
398.1859, 146.4736
398.6681, 146.2969
399.1501, 146.1591
399.6323, 146.0521
400.1144, 145.9595
400.5965, 145.8811
401.0786, 145.7978
401.5607, 145.6389
402.0428, 145.2562
402.5250, 145.0621
403.0071, 145.3312
403.4892, 145.7321
403.9713, 145.8934
404.4534, 145.7287
404.9355, 145.3541
405.4177, 144.8619
405.8998, 144.1782
406.3819, 143.8001
406.8640, 143.9913
407.3461, 144.1974
407.8282, 144.1353
408.3104, 143.8598
408.7925, 143.5496
409.2746, 143.3047
409.7567, 143.1331
410.2388, 143.0690
410.7209, 143.3123
411.2031, 143.4011
411.6852, 143.1767
412.1673, 142.8502
412.6494, 142.6469
413.1315, 142.6145
413.6136, 142.6006
414.0958, 142.3316
414.5779, 141.6332
415.0600, 141.3819
415.5421, 142.1357
416.0242, 142.8287
416.5063, 142.9865
416.9885, 142.7437
417.4706, 142.4726
417.9527, 142.3743
418.4348, 142.4545
418.9169, 142.7980
419.3990, 143.6305
419.8812, 144.2149
420.3633, 143.9058
420.8454, 143.4815
421.3275, 143.8022
421.8096, 145.0942
422.2917, 146.4748
422.7739, 147.0617
423.2560, 146.8782
423.7381, 146.4081
424.2202, 145.4544
424.7023, 144.5995
425.1844, 144.3324
425.6666, 144.5307
426.1487, 144.7570
426.6308, 144.8846
427.1129, 144.9099
427.5950, 144.7285
428.0771, 144.3154
428.5593, 144.1389
429.0414, 144.6107
429.5235, 145.4033
430.0056, 145.7722
430.4877, 145.5738
430.9698, 145.2770
431.4520, 145.0822
431.9341, 144.9582
432.4162, 144.8610
432.8983, 144.7895
433.3804, 144.6812
433.8625, 144.4582
434.3447, 144.1054
434.8268, 143.7233
435.3089, 143.2107
435.7910, 142.7575
436.2731, 142.5587
436.7552, 142.5449
437.2374, 142.4694
437.7195, 142.1844
438.2016, 141.7399
438.6837, 141.3305
439.1658, 140.9693
439.6479, 140.6267
440.1301, 140.2954
440.6122, 139.9870
441.0943, 139.7142
441.5764, 139.4809
442.0585, 139.2839
442.5406, 139.1269
443.0227, 139.0182
443.5049, 138.8904
443.9870, 138.7280
444.4691, 138.5639
444.9512, 138.4536
445.4333, 138.3405
445.9154, 138.1154
446.3976, 137.7131
446.8797, 137.2225
447.3618, 136.8514
447.8439, 136.6527
448.3260, 136.4156
448.8081, 135.9854
449.2903, 135.5879
449.7724, 135.4049
450.2545, 135.4261
450.7366, 135.4572
451.2187, 135.3467
451.7008, 135.1218
452.1830, 134.9116
452.6651, 134.7484
453.1472, 134.5250
453.6293, 134.0486
454.1114, 133.5024
454.5935, 133.1657
455.0757, 133.1458
455.5578, 133.2529
456.0399, 133.4258
456.5220, 133.6178
457.0041, 133.5783
457.4862, 133.1465
457.9684, 132.6513
458.4505, 132.5895
458.9326, 132.9566
459.4147, 133.2036
459.8968, 133.1168
460.3789, 132.9553
460.8611, 132.9817
461.3432, 133.1686
461.8253, 133.2869
462.3074, 133.1894
462.7895, 132.9234
463.2716, 132.6798
463.7538, 132.5208
464.2359, 132.3020
464.7180, 131.8463
465.2001, 131.4073
465.6822, 131.2944
466.1643, 131.5401
466.6465, 131.8938
467.1286, 132.0906
467.6107, 132.1216
468.0928, 132.0842
468.5749, 131.9526
469.0570, 131.7758
469.5392, 131.5556
470.0213, 131.2998
470.5034, 130.9613
470.9855, 130.5074
471.4676, 130.1367
471.9497, 130.3191
472.4319, 131.2678
472.9140, 131.8322
473.3961, 131.6477
473.8782, 131.1835
474.3603, 130.5425
474.8424, 129.8195
475.3246, 129.2761
475.8067, 129.0980
476.2888, 129.1979
476.7709, 129.4585
477.2530, 129.9263
477.7351, 130.2478
478.2173, 130.1504
478.6994, 129.8622
479.1815, 129.7580
479.6636, 129.9004
480.1457, 130.0504
480.6278, 130.0826
481.1100, 130.0428
481.5920, 129.9893
482.0742, 129.9284
482.5563, 129.9481
483.0384, 130.2052
483.5205, 130.6771
484.0026, 130.7371
484.4847, 129.9375
484.9669, 129.2372
485.4490, 129.0586
485.9311, 129.2359
486.4132, 129.5439
486.8953, 129.8942
487.3774, 130.1183
487.8596, 129.8732
488.3417, 128.7410
488.8238, 128.3046
489.3059, 129.2577
489.7880, 130.1257
490.2701, 129.9554
490.7523, 129.1245
491.2344, 128.6437
491.7165, 129.1836
492.1986, 130.2952
492.6807, 130.6717
493.1628, 129.9619
493.6450, 129.4873
494.1271, 129.7448
494.6092, 130.1736
495.0913, 130.4354
495.5734, 130.5039
496.0555, 130.5126
496.5377, 130.5470
497.0198, 130.5911
497.5019, 130.5835
497.9840, 130.5022
498.4661, 130.4689
498.9482, 130.5810
499.4304, 130.7749
499.9125, 130.9198
500.3946, 130.9831
500.8767, 131.0632
501.3588, 131.2010
501.8409, 131.3912
502.3231, 131.6280
502.8052, 131.9101
503.2873, 132.2479
503.7694, 132.7041
504.2515, 133.2883
504.7336, 133.4955
505.2158, 133.0838
505.6979, 132.6123
506.1800, 132.1034
506.6621, 131.7146
507.1442, 131.7506
507.6263, 132.3019
508.1085, 133.0332
508.5906, 133.4172
509.0727, 133.3486
509.5548, 133.3130
510.0369, 133.2601
510.5190, 133.2901
511.0012, 133.5593
511.4833, 133.9240
511.9654, 134.1290
512.4475, 134.0497
512.9296, 133.7418
513.4117, 133.2160
513.8939, 132.4115
514.3760, 131.8501
514.8581, 131.7296
515.3402, 131.8156
515.8223, 132.0209
516.3044, 132.2953
516.7866, 132.3351
517.2687, 131.8609
517.7508, 131.1705
518.2329, 130.5888
518.7150, 130.1258
519.1971, 129.8250
519.6793, 129.7413
520.1614, 129.7919
520.6435, 129.8260
521.1256, 129.9220
521.6077, 129.7934
522.0898, 129.0724
522.5720, 128.3299
523.0541, 128.1946
523.5362, 128.5935
524.0183, 128.9165
524.5004, 128.7077
524.9825, 128.0832
525.4647, 127.6301
525.9468, 127.3419
526.4289, 127.2651
526.9110, 127.6306
527.3931, 128.0390
527.8752, 128.2001
528.3574, 128.0642
528.8395, 127.7039
529.3216, 127.0805
529.8037, 126.2725
530.2858, 125.8139
530.7679, 125.9218
531.2501, 125.8780
531.7322, 125.1211
532.2143, 124.1755
532.6964, 123.5791
533.1785, 123.4385
533.6606, 123.4624
534.1428, 123.6153
534.6249, 123.7665
535.1070, 123.5870
535.5891, 123.0160
536.0712, 122.3545
536.5533, 121.7842
537.0355, 121.3175
537.5176, 121.0039
537.9997, 120.7690
538.4818, 120.7590
538.9639, 121.3523
539.4460, 122.0387
539.9282, 122.0892
540.4103, 121.4025
540.8924, 120.5228
541.3745, 119.9970
541.8566, 119.8293
542.3387, 119.8705
542.8209, 120.6276
543.3029, 120.9751
543.7850, 120.4123
544.2672, 119.4582
544.7493, 118.6218
545.2314, 118.0555
545.7135, 117.7669
546.1956, 117.9578
546.6777, 118.5575
547.1599, 118.6560
547.6420, 117.9963
548.1241, 117.2817
548.6062, 116.9305
549.0883, 116.8191
549.5704, 116.7789
550.0526, 116.8069
550.5347, 116.8521
551.0168, 116.9977
551.4989, 117.1174
551.9810, 116.8570
552.4631, 116.1329
552.9453, 115.3987
553.4274, 115.0781
553.9095, 115.1736
554.3916, 115.3137
554.8737, 115.5608
555.3558, 115.7706
555.8380, 116.0489
556.3201, 116.2033
556.8022, 115.8881
557.2843, 115.0675
557.7664, 114.1832
558.2485, 113.7527
558.7307, 113.7940
559.2128, 113.8299
559.6949, 113.8646
560.1770, 113.8868
560.6591, 114.0268
561.1412, 114.0964
561.6234, 113.7905
562.1055, 112.9993
562.5876, 112.2075
563.0697, 111.8172
563.5518, 111.7659
564.0339, 111.9517
564.5161, 112.4531
564.9982, 112.7161
565.4803, 112.2270
565.9624, 111.1591
566.4445, 110.3567
566.9266, 109.9106
567.4088, 109.5967
567.8909, 109.4118
568.3730, 109.2829
568.8551, 109.0971
569.3372, 108.8465
569.8193, 108.6316
570.3015, 108.5534
570.7836, 108.6043
571.2657, 108.6499
571.7478, 108.8403
572.2299, 108.8094
572.7120, 108.3476
573.1942, 107.7457
573.6763, 107.3041
574.1584, 107.0499
574.6405, 106.7472
575.1226, 106.0959
575.6047, 105.2123
576.0869, 104.6128
576.5690, 104.3596
577.0511, 104.1278
577.5332, 103.7401
578.0153, 103.3037
578.4974, 102.9977
578.9796, 102.8511
579.4617, 102.7166
579.9438, 102.4804
580.4259, 102.2623
580.9080, 102.3372
581.3901, 102.6352
581.8723, 102.6333
582.3544, 101.9583
582.8365, 100.8223
583.3186, 99.94191
583.8007, 99.45692
584.2828, 99.02876
584.7650, 98.71633
585.2471, 98.39975
585.7292, 97.95717
586.2113, 97.43383
586.6934, 96.99330
587.1755, 96.76147
587.6577, 96.63195
588.1398, 96.34393
588.6219, 95.86552
589.1040, 95.45531
589.5861, 95.28081
