##NAMES=Johannsenite
##RRUFFID=R140753
##IDEAL CHEMISTRY=CaMn^2+^Si_2_O_6_
##LOCALITY=Franklin, Franklin Mining District, Sussex County, New Jersey, USA
##OWNER=RRUFF
##SOURCE=Rock Currier
##DESCRIPTION=Vitreous white small prismatic striated crystals on tips and edges of pink rhodochrosite crystals on beige fine granular matrix, associated with prismatic colorless willemite.
##STATUS=The identification of this mineral is confirmed by single-crystal X-ray diffraction and chemical analysis.
##URL=rruff.info/R140753
##MEASURED CHEMISTRY=(Ca_0.97_Na_0.02_)_Σ=0.99_(Mn^2+^_0.86_Mg_0.11_Fe_0.04_Zn_0.02_)_Σ=1.03_(Si_1.99_Al_0.01_)_Σ=1_O_6_
89.78320, 383.4843
90.26532, 383.0566
90.74744, 383.1717
91.22955, 383.5873
91.71167, 385.4478
92.19379, 391.5771
92.67590, 401.3289
93.15802, 408.6421
93.64014, 407.0875
94.12225, 399.4246
94.60437, 393.2173
95.08649, 390.7824
95.56860, 390.5898
96.05072, 389.6239
96.53284, 388.2379
97.01495, 386.4093
97.49707, 383.4993
97.97919, 379.5193
98.46130, 376.5003
98.94342, 374.7807
99.42554, 374.3408
99.90765, 376.2534
100.3898, 381.4352
100.8719, 387.0815
101.3540, 388.9103
101.8361, 386.2325
102.3182, 382.8195
102.8004, 379.9845
103.2825, 377.8708
103.7646, 375.8012
104.2467, 373.6264
104.7288, 371.5943
105.2109, 370.1391
105.6931, 368.4588
106.1752, 368.3715
106.6573, 370.7787
107.1394, 377.1949
107.6215, 383.4666
108.1036, 390.8418
108.5858, 398.5610
109.0679, 402.0666
109.5500, 397.9938
110.0321, 392.3599
110.5142, 388.3970
110.9963, 387.7313
111.4785, 386.8964
111.9606, 384.9044
112.4427, 381.8407
112.9248, 380.5063
113.4069, 382.7267
113.8890, 386.0581
114.3712, 388.5640
114.8533, 387.9509
115.3354, 388.1752
115.8175, 391.0782
116.2996, 397.0297
116.7817, 402.2971
117.2639, 404.9200
117.7460, 406.3184
118.2281, 408.2898
118.7102, 412.5411
119.1923, 416.8367
119.6744, 419.5209
120.1566, 420.0543
120.6387, 420.6952
121.1208, 422.8305
121.6029, 426.0641
122.0850, 429.5973
122.5671, 432.6508
123.0493, 435.9477
123.5314, 440.7847
124.0135, 448.3594
124.4956, 455.0093
124.9777, 457.0183
125.4598, 454.9823
125.9420, 451.0835
126.4241, 445.8943
126.9062, 439.8915
127.3883, 433.9149
127.8704, 428.0582
128.3525, 422.3991
128.8347, 416.8120
129.3168, 411.3136
129.7989, 406.6302
130.2810, 403.5985
130.7631, 401.9386
131.2452, 400.4221
131.7274, 398.8834
132.2095, 397.2296
132.6916, 395.0599
133.1737, 392.2807
133.6558, 389.5547
134.1379, 387.4989
134.6201, 386.1086
135.1022, 384.8560
135.5843, 383.4016
136.0664, 381.8850
136.5485, 381.5699
137.0306, 382.7035
137.5128, 384.4640
137.9949, 385.7334
138.4770, 386.2895
138.9591, 387.5111
139.4412, 390.2373
139.9233, 394.6393
140.4055, 397.8422
140.8876, 399.8114
141.3697, 400.5934
141.8518, 400.1497
142.3339, 398.1219
142.8160, 395.6737
143.2982, 393.0912
143.7803, 390.1918
144.2624, 387.8398
144.7445, 386.2430
145.2266, 385.1328
145.7087, 383.9486
146.1909, 382.4952
146.6730, 381.1989
147.1551, 380.2746
147.6372, 380.3579
148.1193, 379.7548
148.6014, 378.1172
149.0836, 375.7543
149.5657, 373.6476
150.0478, 371.7926
150.5299, 370.2439
151.0120, 369.0183
151.4941, 368.2285
151.9763, 367.6327
152.4584, 367.4884
152.9405, 367.6331
153.4226, 367.2597
153.9047, 365.2614
154.3868, 363.4034
154.8690, 362.6463
155.3511, 364.5066
155.8332, 365.9689
156.3153, 366.6232
156.7974, 366.4883
157.2795, 365.7575
157.7617, 363.3964
158.2438, 361.0280
158.7259, 359.8248
159.2080, 361.1011
159.6901, 362.5827
160.1722, 363.5883
160.6544, 364.1333
161.1365, 364.7474
161.6186, 365.2192
162.1007, 366.0034
162.5828, 367.5328
163.0649, 370.6749
163.5471, 373.9726
164.0292, 376.8624
164.5113, 379.3191
164.9934, 381.3515
165.4755, 383.0033
165.9576, 384.2208
166.4398, 384.9225
166.9219, 385.0619
167.4040, 384.6927
167.8861, 383.6225
168.3682, 381.7946
168.8503, 380.1188
169.3325, 378.8676
169.8146, 378.1889
170.2967, 378.3287
170.7788, 380.1266
171.2609, 382.3852
171.7430, 384.0162
172.2252, 384.9306
172.7073, 385.5229
173.1894, 385.6928
173.6715, 385.7547
174.1536, 386.3915
174.6357, 388.1445
175.1179, 390.5687
175.6000, 393.2452
176.0821, 396.1657
176.5642, 399.0544
177.0463, 401.3080
177.5284, 403.2314
178.0106, 405.7167
178.4927, 409.7685
178.9748, 414.5897
179.4569, 418.7950
179.9390, 422.2924
180.4211, 425.1935
180.9033, 428.0928
181.3854, 430.7523
181.8675, 431.9923
182.3496, 430.5358
182.8317, 427.2065
183.3138, 423.7081
183.7960, 420.0993
184.2781, 416.7660
184.7602, 414.4393
185.2423, 413.0221
185.7244, 411.8979
186.2065, 410.5905
186.6887, 409.2354
187.1708, 408.3183
187.6529, 407.8941
188.1350, 407.9102
188.6171, 408.3475
189.0992, 409.2038
189.5814, 410.3045
190.0635, 411.6588
190.5456, 413.2321
191.0277, 414.7574
191.5098, 416.3837
191.9919, 417.6965
192.4741, 417.7583
192.9562, 416.5494
193.4383, 414.6321
193.9204, 412.1819
194.4025, 409.2315
194.8846, 406.3578
195.3668, 403.6390
195.8489, 401.0179
196.3310, 398.3613
196.8131, 395.6638
197.2952, 392.9761
197.7773, 390.3051
198.2595, 387.6629
198.7416, 384.9423
199.2237, 382.0107
199.7058, 379.1239
200.1879, 377.1067
200.6700, 376.0540
201.1522, 375.3762
201.6343, 374.7455
202.1164, 374.1756
202.5985, 373.5282
203.0806, 372.7848
203.5627, 371.9606
204.0449, 371.0610
204.5270, 370.0212
205.0091, 369.1096
205.4912, 368.6223
205.9733, 368.6805
206.4554, 368.3995
206.9376, 367.5860
207.4197, 366.3890
207.9018, 365.2510
208.3839, 364.0485
208.8660, 363.2239
209.3481, 363.2087
209.8303, 364.2076
210.3124, 365.1288
210.7945, 365.9201
211.2766, 366.5396
211.7587, 366.7622
212.2408, 366.4151
212.7230, 366.0399
213.2051, 365.9602
213.6872, 366.1777
214.1693, 366.7369
214.6514, 367.8767
215.1335, 369.3496
215.6157, 369.8388
216.0978, 368.8472
216.5799, 367.7744
217.0620, 367.5525
217.5441, 368.4332
218.0262, 369.4575
218.5084, 370.6675
218.9905, 371.9693
219.4726, 372.7832
219.9547, 372.8663
220.4368, 372.9058
220.9189, 373.3681
221.4011, 374.4484
221.8832, 375.4688
222.3653, 376.3834
222.8474, 377.2053
223.3295, 378.0299
223.8116, 378.8701
224.2938, 379.6709
224.7759, 380.3350
225.2580, 380.6247
225.7401, 381.3634
226.2222, 382.7930
226.7043, 384.7107
227.1865, 386.3263
227.6686, 387.4535
228.1507, 388.5015
228.6328, 389.7374
229.1149, 391.4103
229.5970, 392.6751
230.0792, 393.4167
230.5613, 393.7146
231.0434, 393.7827
231.5255, 393.3463
232.0076, 393.0946
232.4897, 393.5278
232.9719, 395.3181
233.4540, 396.2732
233.9361, 396.0867
234.4182, 395.0300
234.9003, 394.0630
235.3824, 393.3832
235.8646, 392.5105
236.3467, 391.1517
236.8288, 388.9712
237.3109, 387.0182
237.7930, 385.2460
238.2751, 383.7145
238.7573, 382.7564
239.2394, 382.8939
239.7215, 382.8316
240.2036, 381.8084
240.6857, 378.8137
241.1678, 377.2271
241.6500, 377.8035
242.1321, 379.5762
242.6142, 379.9864
243.0963, 378.0923
243.5784, 376.2166
244.0605, 375.3985
244.5427, 376.1169
245.0248, 376.6612
245.5069, 377.0265
245.9890, 377.2262
246.4711, 377.2623
246.9532, 377.0341
247.4354, 376.8187
247.9175, 376.6979
248.3996, 376.6285
248.8817, 376.8555
249.3638, 377.6525
249.8459, 378.6011
250.3281, 378.8016
250.8102, 377.5645
251.2923, 376.8028
251.7744, 377.3759
252.2565, 379.7973
252.7386, 381.3496
253.2208, 381.7735
253.7029, 381.5192
254.1850, 381.1569
254.6671, 380.2549
255.1492, 380.1001
255.6313, 381.3158
256.1135, 384.1861
256.5956, 386.4617
257.0777, 388.1157
257.5598, 389.1611
258.0419, 389.4319
258.5240, 388.3864
259.0062, 387.7838
259.4883, 388.2378
259.9704, 389.8231
260.4525, 391.1841
260.9346, 392.3436
261.4167, 393.2344
261.8989, 393.6902
262.3810, 393.4840
262.8631, 393.4549
263.3452, 393.8127
263.8273, 394.5681
264.3094, 395.4482
264.7916, 396.5421
265.2737, 397.6586
265.7558, 398.6181
266.2379, 399.3730
266.7200, 400.1294
267.2021, 400.9781
267.6843, 401.8866
268.1664, 402.5616
268.6485, 402.9653
269.1306, 403.2048
269.6127, 403.3018
270.0948, 403.1802
270.5770, 403.2430
271.0591, 403.6241
271.5412, 404.2244
272.0233, 404.4824
272.5054, 404.1776
272.9875, 404.1037
273.4697, 405.0411
273.9518, 407.2322
274.4339, 408.8351
274.9160, 409.4767
275.3981, 409.4839
275.8802, 409.7684
276.3624, 410.2950
276.8445, 411.2420
277.3266, 412.9462
277.8087, 415.4920
278.2908, 417.4828
278.7729, 418.5991
279.2551, 419.3492
279.7372, 420.8582
280.2193, 423.1994
280.7014, 425.8869
281.1835, 428.8410
281.6656, 432.0539
282.1478, 434.9003
282.6299, 437.2628
283.1120, 439.4379
283.5941, 441.8627
284.0762, 444.5486
284.5583, 447.4857
285.0405, 450.8018
285.5226, 454.4481
286.0047, 457.9329
286.4868, 461.2060
286.9689, 464.4738
287.4510, 467.9452
287.9332, 471.6239
288.4153, 475.6460
288.8974, 480.0303
289.3795, 484.7542
289.8616, 489.7131
290.3438, 494.9506
290.8259, 500.1096
291.3080, 504.4431
291.7901, 508.1462
292.2722, 512.6847
292.7543, 518.7245
293.2365, 525.7678
293.7186, 532.6860
294.2007, 539.4175
294.6828, 546.1592
295.1649, 553.4453
295.6470, 560.8988
296.1292, 567.5155
296.6113, 572.8766
297.0934, 577.3392
297.5755, 581.5541
298.0576, 585.5065
298.5397, 588.8430
299.0219, 591.6544
299.5040, 593.6863
299.9861, 594.2172
300.4682, 592.7960
300.9503, 590.5048
301.4324, 588.9767
301.9146, 587.8570
302.3967, 585.5673
302.8788, 580.5764
303.3609, 573.9906
303.8430, 567.3552
304.3251, 560.8088
304.8073, 554.5002
305.2894, 548.5512
305.7715, 542.9258
306.2536, 537.3702
306.7357, 531.7816
307.2178, 526.2208
307.7000, 520.7803
308.1821, 515.4469
308.6642, 510.3462
309.1463, 505.6201
309.6284, 501.1924
310.1105, 496.8806
310.5927, 492.0145
311.0748, 487.7303
311.5569, 484.9562
312.0390, 483.7132
312.5211, 482.9724
313.0032, 482.5606
313.4854, 482.1845
313.9675, 481.5372
314.4496, 480.2168
314.9317, 478.8893
315.4138, 477.3899
315.8959, 475.9351
316.3781, 475.7495
316.8602, 478.8181
317.3423, 482.5317
317.8244, 484.9048
318.3065, 484.3443
318.7886, 484.0518
319.2708, 484.9710
319.7529, 486.9405
320.2350, 489.5181
320.7171, 493.1539
321.1992, 496.8929
321.6813, 500.1944
322.1635, 502.6627
322.6456, 505.4215
323.1277, 508.8874
323.6098, 512.7369
324.0919, 516.4476
324.5740, 519.0814
325.0562, 522.2949
325.5383, 526.8577
326.0204, 533.2956
326.5025, 539.0543
326.9846, 543.1524
327.4667, 546.8224
327.9489, 551.4318
328.4310, 558.0294
328.9131, 564.4376
329.3952, 570.4821
329.8773, 576.1735
330.3594, 581.2563
330.8416, 585.0311
331.3237, 588.7396
331.8058, 593.2809
332.2879, 599.2936
332.7700, 605.1032
333.2521, 610.7486
333.7343, 616.1501
334.2164, 621.0059
334.6985, 625.4753
335.1806, 629.0580
335.6627, 631.4789
336.1448, 632.6480
336.6270, 632.8510
337.1091, 632.0966
337.5912, 630.3777
338.0733, 627.6913
338.5554, 624.1432
339.0375, 619.3754
339.5197, 612.8615
340.0018, 604.5361
340.4839, 596.7654
340.9660, 589.8083
341.4481, 583.1558
341.9302, 576.5695
342.4124, 570.0509
342.8945, 562.6462
343.3766, 553.2327
343.8587, 542.7156
344.3408, 535.1533
344.8229, 530.8560
345.3051, 527.6823
345.7872, 523.6071
346.2693, 518.8660
346.7514, 514.9642
347.2335, 512.4402
347.7156, 510.6769
348.1978, 508.5685
348.6799, 506.1486
349.1620, 503.7919
349.6441, 501.2162
350.1262, 498.9263
350.6083, 498.3280
351.0905, 499.8357
351.5726, 502.1236
352.0547, 503.5975
352.5368, 504.5624
353.0189, 505.9433
353.5010, 508.3054
353.9832, 511.2891
354.4653, 514.5705
354.9474, 518.1727
355.4295, 521.7610
355.9116, 524.5405
356.3937, 527.2657
356.8759, 531.0258
357.3580, 537.1245
357.8401, 543.6690
358.3222, 549.1748
358.8043, 553.8898
359.2864, 558.9915
359.7686, 565.5351
360.2507, 572.5488
360.7328, 578.9857
361.2149, 583.7103
361.6970, 589.4446
362.1791, 597.8675
362.6613, 608.1088
363.1434, 618.1716
363.6255, 626.9725
364.1076, 635.7987
364.5897, 645.2169
365.0718, 655.0205
365.5540, 665.6951
366.0361, 678.0852
366.5182, 691.1234
367.0003, 703.5313
367.4824, 714.8310
367.9645, 725.8427
368.4467, 737.1201
368.9288, 748.5569
369.4109, 758.6363
369.8930, 767.4597
370.3751, 774.8763
370.8572, 780.8643
371.3394, 785.9141
371.8215, 788.6473
372.3036, 788.9456
372.7857, 786.8392
373.2678, 782.4685
373.7499, 775.6848
374.2321, 766.8054
374.7142, 755.9445
375.1963, 742.8604
375.6784, 728.4250
376.1605, 712.5411
376.6426, 695.4902
377.1248, 677.9053
377.6069, 659.3463
378.0890, 641.7605
378.5711, 626.0770
379.0532, 611.9901
379.5353, 598.3668
380.0175, 585.0804
380.4996, 572.2795
380.9817, 559.7564
381.4638, 547.6790
381.9459, 537.1277
382.4280, 528.8368
382.9102, 521.6520
383.3923, 513.2166
383.8744, 503.6514
384.3565, 494.9547
384.8386, 489.0416
385.3207, 484.8224
385.8029, 480.2928
386.2850, 475.1632
386.7671, 469.9630
387.2492, 464.9616
387.7313, 460.2592
388.2134, 456.1874
388.6956, 453.1212
389.1777, 450.6581
389.6598, 448.6275
390.1419, 447.0026
390.6240, 445.2505
391.1061, 442.6983
391.5883, 439.9869
392.0704, 437.8271
392.5525, 436.9867
393.0346, 435.9531
393.5167, 433.5978
393.9988, 430.4422
394.4810, 427.9204
394.9631, 426.7111
395.4452, 426.1181
395.9273, 425.9766
396.4094, 426.5966
396.8915, 426.6040
397.3737, 424.9994
397.8558, 422.8873
398.3379, 421.6284
398.8200, 422.1768
399.3021, 422.7089
399.7842, 422.8932
400.2664, 422.7264
400.7485, 422.4793
401.2306, 422.1000
401.7127, 421.6837
402.1948, 421.3094
402.6769, 421.0907
403.1591, 420.6541
403.6412, 419.9433
404.1233, 419.0172
404.6054, 417.9217
405.0875, 416.5250
405.5696, 415.3844
406.0518, 414.7696
406.5339, 414.6958
407.0160, 414.8639
407.4981, 415.4408
407.9802, 415.8086
408.4623, 414.9295
408.9445, 412.8383
409.4266, 411.3608
409.9087, 411.1852
410.3908, 411.7562
410.8729, 411.6634
411.3550, 410.9362
411.8372, 410.3924
412.3193, 410.9535
412.8014, 412.1044
413.2835, 412.5833
413.7656, 412.1406
414.2477, 411.3568
414.7299, 410.4516
415.2120, 409.6579
415.6941, 409.5644
416.1762, 411.3301
416.6583, 413.3266
417.1404, 413.8793
417.6226, 413.0088
418.1047, 412.1863
418.5868, 412.4494
419.0689, 413.0724
419.5510, 413.3488
420.0331, 412.7653
420.5153, 412.2402
420.9974, 412.2924
421.4795, 412.6853
421.9616, 412.8139
422.4437, 412.1035
422.9258, 411.4693
423.4080, 411.3231
423.8901, 411.8143
424.3722, 412.3766
424.8543, 413.1856
425.3364, 413.9547
425.8185, 414.4127
426.3007, 414.6577
426.7828, 414.4352
427.2649, 413.4453
427.7470, 411.8741
428.2291, 410.9520
428.7112, 410.8971
429.1934, 411.1166
429.6755, 411.2555
430.1576, 411.2313
430.6397, 411.6181
431.1218, 412.6358
431.6039, 413.7270
432.0861, 413.8041
432.5682, 412.7754
433.0503, 412.1488
433.5324, 412.7265
434.0145, 414.0531
434.4966, 414.2933
434.9788, 413.4094
435.4609, 412.6987
435.9430, 413.5997
436.4251, 415.5526
436.9072, 416.8959
437.3893, 417.1506
437.8715, 417.2117
438.3536, 418.4122
438.8357, 420.2969
439.3178, 421.5956
439.7999, 421.2084
440.2820, 420.2105
440.7642, 419.4743
441.2463, 419.0392
441.7284, 418.8503
442.2105, 419.0259
442.6926, 419.3496
443.1747, 419.6251
443.6569, 420.0665
444.1390, 420.1205
444.6211, 419.3645
445.1032, 418.0544
445.5853, 416.9567
446.0674, 416.1161
446.5496, 415.5970
447.0317, 415.5343
447.5138, 416.1830
447.9959, 416.4648
448.4780, 416.0979
448.9601, 415.5808
449.4423, 415.4220
449.9244, 415.8663
450.4065, 416.1804
450.8886, 416.2412
451.3707, 416.0925
451.8528, 415.9053
452.3350, 415.6631
452.8171, 415.4136
453.2992, 415.0471
453.7813, 414.5500
454.2634, 414.6923
454.7455, 415.6207
455.2277, 416.7386
455.7098, 417.2393
456.1919, 417.1998
456.6740, 417.2105
457.1561, 417.5007
457.6382, 417.9182
458.1204, 418.2753
458.6025, 418.5581
459.0846, 418.6292
459.5667, 418.1870
460.0488, 417.5696
460.5309, 417.2380
461.0131, 417.3027
461.4952, 417.4615
461.9773, 417.5907
462.4594, 417.6612
462.9415, 417.6300
463.4236, 417.1523
463.9058, 416.8745
464.3879, 417.1151
464.8700, 417.8422
465.3521, 418.7106
465.8342, 419.8856
466.3163, 420.9999
466.7985, 421.9254
467.2806, 423.1578
467.7627, 423.2010
468.2448, 420.8456
468.7269, 417.8025
469.2090, 416.5341
469.6912, 417.9827
470.1733, 419.4686
470.6554, 420.3258
471.1375, 420.6537
471.6196, 421.5269
472.1017, 423.1810
472.5839, 424.7184
473.0660, 425.5776
473.5481, 425.7505
474.0302, 425.4146
474.5123, 424.4160
474.9944, 423.3815
475.4766, 423.2468
475.9587, 423.9359
476.4408, 424.9698
476.9229, 426.4739
477.4050, 428.0167
477.8871, 428.6153
478.3693, 428.3931
478.8514, 428.4386
479.3335, 429.8477
479.8156, 431.8243
480.2977, 433.3478
480.7798, 434.0790
481.2620, 434.8753
481.7441, 436.4422
482.2262, 438.3340
482.7083, 439.8951
483.1904, 440.2075
483.6725, 440.8223
484.1547, 442.7202
484.6368, 445.7495
485.1189, 447.8593
485.6010, 447.9496
486.0831, 447.6773
486.5652, 447.8494
487.0474, 448.5532
487.5295, 449.5569
488.0116, 451.1661
488.4937, 452.8364
488.9758, 453.7627
489.4579, 453.7246
489.9401, 453.6118
490.4222, 453.6259
490.9043, 453.7330
491.3864, 453.8090
491.8685, 453.8673
492.3506, 453.7974
492.8328, 453.4923
493.3149, 452.9904
493.7970, 452.4269
494.2791, 451.7959
494.7612, 451.1946
495.2433, 450.8646
495.7255, 450.6558
496.2076, 450.1651
496.6897, 449.0380
497.1718, 447.7780
497.6539, 446.7689
498.1360, 446.0252
498.6182, 445.5809
499.1003, 445.9112
499.5824, 446.2411
500.0645, 445.9149
500.5466, 444.6603
501.0287, 443.6441
501.5109, 443.1727
501.9930, 443.1092
502.4751, 443.3253
502.9572, 444.1771
503.4393, 444.8552
503.9214, 445.1725
504.4036, 445.2404
504.8857, 445.4508
505.3678, 445.8171
505.8499, 446.3160
506.3320, 447.0189
506.8141, 447.9631
507.2963, 448.5851
507.7784, 448.8753
508.2605, 448.8896
508.7426, 448.3143
509.2247, 447.2495
509.7068, 447.3924
510.1890, 449.4066
510.6711, 452.0978
511.1532, 453.4858
511.6353, 453.7424
512.1174, 453.6829
512.5995, 453.1950
513.0817, 452.9111
513.5638, 453.8941
514.0459, 456.0944
514.5280, 458.1163
515.0101, 458.8058
515.4922, 459.0485
515.9744, 459.6683
516.4565, 460.9830
516.9386, 462.4201
517.4207, 463.8526
517.9028, 465.2834
518.3849, 466.7143
518.8671, 468.6354
519.3492, 470.0128
519.8313, 470.2924
520.3134, 469.5919
520.7955, 469.8338
521.2776, 471.6782
521.7598, 473.4843
522.2419, 474.2522
522.7240, 473.7715
523.2061, 473.4532
523.6882, 473.4664
524.1703, 473.3132
524.6525, 472.2622
525.1346, 470.3568
525.6167, 468.2122
526.0988, 465.7902
526.5809, 463.5059
527.0630, 462.3451
527.5452, 462.1466
528.0273, 461.9356
528.5094, 460.8493
528.9915, 459.5838
529.4736, 459.0301
529.9557, 459.2744
530.4379, 459.4790
530.9200, 458.9426
531.4021, 458.2064
531.8842, 457.8159
532.3663, 458.1995
532.8484, 458.4987
533.3306, 458.1356
533.8127, 457.5629
534.2948, 457.7677
534.7769, 460.0613
535.2590, 461.6891
535.7411, 461.5980
536.2233, 459.8785
536.7054, 459.7602
537.1875, 461.8976
537.6696, 464.3896
538.1517, 466.0504
538.6339, 466.8176
539.1160, 467.3484
539.5981, 467.5158
540.0802, 467.9101
540.5623, 469.6257
541.0444, 472.4101
541.5266, 474.8238
542.0087, 476.1510
542.4908, 477.1868
542.9729, 479.0171
543.4550, 481.5148
543.9371, 484.2345
544.4193, 487.2984
544.9014, 490.2489
545.3835, 492.6803
545.8656, 494.5406
546.3477, 496.1967
546.8298, 497.3660
547.3120, 498.6596
547.7941, 500.5788
548.2762, 503.8858
548.7583, 506.9027
549.2404, 509.8781
549.7225, 512.3830
550.2047, 513.6293
550.6868, 513.2457
551.1689, 512.3032
551.6510, 511.0302
552.1331, 509.4223
552.6152, 507.5152
553.0974, 505.3619
553.5795, 502.6849
554.0616, 499.1592
554.5437, 494.9095
555.0258, 490.3877
555.5079, 485.4901
555.9901, 481.1646
556.4722, 478.7882
556.9543, 477.6311
557.4364, 476.1354
557.9185, 473.5897
558.4006, 470.9848
558.8828, 469.2481
559.3649, 468.0356
559.8470, 466.5169
560.3291, 463.5865
560.8112, 460.9610
561.2933, 459.4974
561.7755, 459.2318
562.2576, 459.0161
562.7397, 458.8980
563.2218, 458.6161
563.7039, 458.0366
564.1860, 457.1049
564.6682, 455.9769
565.1503, 454.5124
565.6324, 453.0261
566.1145, 452.0253
566.5966, 451.5801
567.0787, 450.8851
567.5609, 449.5832
568.0430, 448.1851
568.5251, 448.0551
569.0072, 449.0362
569.4893, 449.8542
569.9714, 449.7354
570.4536, 449.0782
570.9357, 448.2191
571.4178, 447.2133
571.8999, 446.6528
572.3820, 447.4939
572.8641, 448.6279
573.3463, 448.9973
573.8284, 448.1060
574.3105, 447.2841
574.7926, 446.8524
575.2747, 446.7303
575.7568, 446.8291
576.2390, 447.5961
576.7211, 447.9597
577.2032, 447.6569
577.6853, 446.8761
578.1674, 446.2002
578.6495, 445.5251
579.1317, 445.2913
579.6138, 445.9604
580.0959, 447.3414
