##NAMES=Johachidolite
##RRUFFID=R070640
##IDEAL CHEMISTRY=CaAlB_3_O_7_
##LOCALITY=Pyant Gyi mine, Mogok Stone Tract, Mandalay Division, Burma
##OWNER=RRUFF
##SOURCE=Marcus Origlieri
##DESCRIPTION=Pale yellowish orange granular
##STATUS=The identification of this mineral has been confirmed by X-ray diffraction and chemical analysis
##URL=rruff.info/R070640
##MEASURED CHEMISTRY=Ca_1.00_Al_1.00_B_3.00_O_7_; B estimated by difference
129.2875, 1173.763
129.7696, 1169.603
130.2518, 1176.325
130.7339, 1195.971
131.2160, 1214.893
131.6981, 1210.842
132.1802, 1187.411
132.6623, 1173.434
133.1445, 1186.261
133.6266, 1220.291
134.1087, 1236.279
134.5908, 1230.735
135.0729, 1216.292
135.5550, 1211.907
136.0372, 1217.931
136.5193, 1230.390
137.0014, 1249.935
137.4835, 1277.292
137.9656, 1300.838
138.4477, 1321.576
138.9299, 1337.281
139.4120, 1339.310
139.8941, 1324.796
140.3762, 1303.116
140.8583, 1278.255
141.3404, 1245.838
141.8226, 1225.214
142.3047, 1225.064
142.7868, 1246.459
143.2689, 1250.180
143.7510, 1227.592
144.2331, 1194.973
144.7152, 1173.419
145.1974, 1168.818
145.6795, 1165.631
146.1616, 1158.521
146.6437, 1143.050
147.1258, 1135.104
147.6079, 1138.916
148.0901, 1150.120
148.5722, 1156.987
149.0543, 1160.384
149.5364, 1158.862
150.0185, 1151.713
150.5006, 1129.746
150.9828, 1112.993
151.4649, 1102.986
151.9470, 1099.347
152.4291, 1098.073
152.9112, 1096.275
153.3933, 1098.164
153.8755, 1106.727
154.3576, 1142.121
154.8397, 1164.790
155.3218, 1159.522
155.8039, 1119.887
156.2860, 1092.892
156.7682, 1095.349
157.2503, 1112.780
157.7324, 1127.294
158.2145, 1138.439
158.6966, 1142.960
159.1787, 1137.969
159.6609, 1118.076
160.1430, 1100.253
160.6251, 1091.112
161.1072, 1088.018
161.5893, 1084.872
162.0714, 1077.824
162.5536, 1070.981
163.0357, 1067.267
163.5178, 1070.391
163.9999, 1073.440
164.4820, 1073.073
164.9641, 1069.708
165.4463, 1065.860
165.9284, 1063.926
166.4105, 1061.788
166.8926, 1057.156
167.3747, 1042.925
167.8568, 1030.276
168.3390, 1028.093
168.8211, 1037.191
169.3032, 1047.898
169.7853, 1055.401
170.2674, 1060.127
170.7495, 1062.821
171.2317, 1063.002
171.7138, 1061.722
172.1959, 1059.688
172.6780, 1056.660
173.1601, 1054.079
173.6422, 1053.894
174.1244, 1055.416
174.6065, 1056.369
175.0886, 1054.566
175.5707, 1051.581
176.0528, 1049.928
176.5349, 1050.975
177.0171, 1052.302
177.4992, 1049.877
177.9813, 1044.250
178.4634, 1040.082
178.9455, 1043.684
179.4276, 1051.510
179.9098, 1055.283
180.3919, 1049.119
180.8740, 1039.094
181.3561, 1036.891
181.8382, 1042.926
182.3203, 1048.600
182.8025, 1040.443
183.2846, 1022.875
183.7667, 1013.491
184.2488, 1030.317
184.7309, 1061.489
185.2130, 1069.910
185.6951, 1051.740
186.1773, 1024.612
186.6594, 1009.187
187.1415, 1005.146
187.6236, 1007.908
188.1057, 1022.660
188.5878, 1044.665
189.0700, 1048.356
189.5521, 1025.475
190.0342, 993.1581
190.5163, 985.1241
190.9984, 1002.120
191.4805, 1022.342
191.9627, 1030.307
192.4448, 1026.815
192.9269, 1021.654
193.4090, 1015.482
193.8911, 1009.213
194.3732, 1005.173
194.8554, 1003.186
195.3375, 1004.241
195.8196, 1012.411
196.3017, 1028.028
196.7838, 1036.534
197.2659, 1032.142
197.7481, 1017.019
198.2302, 1004.086
198.7123, 992.4117
199.1944, 985.5934
199.6765, 990.9418
200.1586, 1010.526
200.6408, 1026.753
201.1229, 1031.932
201.6050, 1025.820
202.0871, 1023.903
202.5692, 1027.615
203.0513, 1033.269
203.5335, 1034.522
204.0156, 1030.594
204.4977, 1025.434
204.9798, 1019.739
205.4619, 1012.911
205.9440, 1010.706
206.4262, 1015.147
206.9083, 1022.916
207.3904, 1024.616
207.8725, 1017.762
208.3546, 1011.596
208.8367, 1013.220
209.3189, 1025.968
209.8010, 1032.270
210.2831, 1029.778
210.7652, 1019.910
211.2473, 1007.500
211.7294, 989.8960
212.2116, 974.9672
212.6937, 969.3187
213.1758, 974.9998
213.6579, 983.6995
214.1400, 996.9085
214.6221, 1013.751
215.1043, 1018.257
215.5864, 1003.792
216.0685, 986.7101
216.5506, 985.3948
217.0327, 1008.271
217.5148, 1025.132
217.9970, 1026.958
218.4791, 1012.431
218.9612, 1005.646
219.4433, 1010.407
219.9254, 1019.059
220.4075, 1020.864
220.8897, 1011.460
221.3718, 1004.077
221.8539, 1003.156
222.3360, 1010.018
222.8181, 1017.104
223.3002, 1025.938
223.7824, 1033.962
224.2645, 1035.862
224.7466, 1028.476
225.2287, 1020.446
225.7108, 1014.437
226.1929, 1009.388
226.6750, 1009.969
227.1572, 1019.882
227.6393, 1034.341
228.1214, 1040.396
228.6035, 1033.052
229.0856, 1024.689
229.5677, 1021.763
230.0499, 1028.031
230.5320, 1030.975
231.0141, 1028.413
231.4962, 1022.043
231.9783, 1019.120
232.4604, 1022.010
232.9426, 1025.307
233.4247, 1025.181
233.9068, 1017.741
234.3889, 1015.022
234.8710, 1019.358
235.3531, 1029.998
235.8353, 1040.304
236.3174, 1053.239
236.7995, 1062.539
237.2816, 1061.818
237.7637, 1041.181
238.2458, 1029.925
238.7280, 1035.283
239.2101, 1056.924
239.6922, 1073.194
240.1743, 1085.739
240.6564, 1091.307
241.1385, 1084.932
241.6207, 1054.770
242.1028, 1033.882
242.5849, 1031.644
243.0670, 1050.196
243.5491, 1059.376
244.0313, 1052.517
244.5134, 1041.858
244.9955, 1042.310
245.4776, 1060.975
245.9597, 1078.569
246.4418, 1091.081
246.9240, 1098.446
247.4061, 1100.957
247.8882, 1097.460
248.3703, 1089.961
248.8524, 1080.376
249.3345, 1064.611
249.8167, 1053.914
250.2988, 1053.149
250.7809, 1066.215
251.2630, 1073.421
251.7451, 1072.017
252.2272, 1066.301
252.7094, 1063.804
253.1915, 1065.105
253.6736, 1068.660
254.1557, 1074.527
254.6378, 1084.352
255.1199, 1091.158
255.6021, 1093.177
256.0842, 1092.978
256.5663, 1096.339
257.0484, 1104.861
257.5305, 1114.228
258.0126, 1123.433
258.4948, 1134.735
258.9769, 1138.870
259.4590, 1131.226
259.9411, 1118.032
260.4232, 1117.288
260.9053, 1134.793
261.3875, 1154.190
261.8696, 1166.953
262.3517, 1170.174
262.8338, 1174.998
263.3159, 1180.952
263.7980, 1189.101
264.2802, 1202.918
264.7623, 1223.262
265.2444, 1247.751
265.7265, 1274.499
266.2086, 1301.144
266.6907, 1337.144
267.1729, 1384.699
267.6550, 1441.470
268.1371, 1501.504
268.6192, 1566.874
269.1013, 1629.589
269.5834, 1684.108
270.0656, 1729.456
270.5477, 1766.987
271.0298, 1792.425
271.5119, 1810.364
271.9940, 1843.388
272.4761, 1896.163
272.9583, 1951.543
273.4404, 1992.641
273.9225, 2013.584
274.4046, 2054.816
274.8867, 2129.272
275.3688, 2227.635
275.8510, 2305.942
276.3331, 2356.687
276.8152, 2408.701
277.2973, 2485.246
277.7794, 2587.410
278.2615, 2702.580
278.7437, 2825.510
279.2258, 2959.896
279.7079, 3119.794
280.1900, 3303.251
280.6721, 3519.492
281.1542, 3781.505
281.6364, 4091.698
282.1185, 4427.535
282.6006, 4816.155
283.0827, 5223.076
283.5648, 5528.567
284.0469, 5740.923
284.5291, 5810.510
285.0112, 5656.533
285.4933, 5283.976
285.9754, 4847.321
286.4575, 4358.044
286.9396, 3842.628
287.4217, 3397.280
287.9038, 3023.667
288.3860, 2707.468
288.8681, 2438.444
289.3502, 2217.959
289.8323, 2037.463
290.3144, 1903.554
290.7965, 1806.637
291.2787, 1726.061
291.7608, 1662.194
292.2429, 1607.969
292.7250, 1553.934
293.2071, 1502.061
293.6892, 1462.696
294.1714, 1446.323
294.6535, 1441.999
295.1356, 1422.444
295.6177, 1386.818
296.0998, 1353.377
296.5819, 1344.196
297.0641, 1352.180
297.5462, 1353.480
298.0283, 1333.939
298.5104, 1306.312
298.9925, 1291.820
299.4746, 1290.498
299.9568, 1294.785
300.4389, 1301.514
300.9210, 1308.842
301.4031, 1312.534
301.8852, 1307.136
302.3673, 1299.491
302.8495, 1298.514
303.3316, 1304.117
303.8137, 1312.595
304.2958, 1320.938
304.7779, 1330.026
305.2600, 1341.329
305.7422, 1358.565
306.2243, 1376.224
306.7064, 1384.593
307.1885, 1384.548
307.6706, 1392.376
308.1527, 1431.273
308.6349, 1482.698
309.1170, 1520.218
309.5991, 1519.286
310.0812, 1512.204
310.5633, 1524.105
311.0454, 1554.169
311.5276, 1585.922
312.0097, 1607.345
312.4918, 1625.757
312.9739, 1649.634
313.4560, 1684.662
313.9381, 1723.646
314.4203, 1765.249
314.9024, 1809.310
315.3845, 1847.366
315.8666, 1856.235
316.3487, 1865.418
316.8308, 1902.780
317.3130, 2016.479
317.7951, 2123.176
318.2772, 2151.182
318.7593, 2114.021
319.2414, 2164.001
319.7235, 2492.942
320.2057, 2857.168
320.6878, 3063.628
321.1699, 2902.810
321.6520, 2748.256
322.1341, 2702.265
322.6162, 2755.428
323.0984, 2804.686
323.5805, 2844.259
324.0626, 2865.477
324.5447, 2862.496
325.0268, 2833.905
325.5089, 2781.843
325.9911, 2689.511
326.4732, 2563.376
326.9553, 2463.118
327.4374, 2404.701
327.9195, 2364.858
328.4016, 2329.184
328.8838, 2286.774
329.3659, 2262.187
329.8480, 2260.220
330.3301, 2278.700
330.8122, 2303.817
331.2943, 2336.537
331.7765, 2375.022
332.2586, 2418.760
332.7407, 2471.496
333.2228, 2522.755
333.7049, 2571.099
334.1870, 2617.730
334.6692, 2667.219
335.1513, 2716.569
335.6334, 2774.427
336.1155, 2844.577
336.5976, 2927.504
337.0797, 3022.036
337.5619, 3125.113
338.0440, 3240.741
338.5261, 3378.832
339.0082, 3541.582
339.4903, 3718.471
339.9724, 3895.632
340.4546, 4070.244
340.9367, 4280.702
341.4188, 4528.387
341.9009, 4816.686
342.3830, 5162.411
342.8651, 5567.644
343.3473, 5996.536
343.8294, 6450.651
344.3115, 6926.923
344.7936, 7349.942
345.2757, 7744.166
345.7578, 8027.592
346.2400, 8063.768
346.7221, 7858.028
347.2042, 7519.467
347.6863, 7047.093
348.1684, 6477.983
348.6505, 5917.084
349.1327, 5357.078
349.6148, 4834.178
350.0969, 4391.516
350.5790, 4021.780
351.0611, 3696.949
351.5432, 3395.959
352.0254, 3135.031
352.5075, 2944.488
352.9896, 2830.031
353.4717, 2750.819
353.9538, 2677.623
354.4359, 2612.655
354.9181, 2562.576
355.4002, 2532.998
355.8823, 2517.822
356.3644, 2513.456
356.8465, 2519.839
357.3286, 2531.954
357.8108, 2538.608
358.2929, 2551.342
358.7750, 2585.201
359.2571, 2662.710
359.7392, 2748.605
360.2213, 2825.094
360.7035, 2892.370
361.1856, 2956.985
361.6677, 3010.746
362.1498, 3068.247
362.6319, 3142.703
363.1140, 3257.886
363.5962, 3369.779
364.0783, 3463.362
364.5604, 3540.958
365.0425, 3619.612
365.5246, 3702.822
366.0067, 3788.791
366.4889, 3876.256
366.9710, 3954.138
367.4531, 4047.031
367.9352, 4149.245
368.4173, 4265.612
368.8994, 4418.586
369.3815, 4614.633
369.8636, 4840.664
370.3458, 5089.251
370.8279, 5369.214
371.3100, 5663.383
371.7921, 6002.365
372.2742, 6350.569
372.7563, 6630.673
373.2385, 6874.757
373.7206, 6993.528
374.2027, 6942.333
374.6848, 6701.617
375.1669, 6367.626
375.6490, 5911.599
376.1312, 5392.074
376.6133, 4885.754
377.0954, 4383.638
377.5775, 3925.404
378.0596, 3517.504
378.5417, 3166.469
379.0239, 2867.863
379.5060, 2627.915
379.9881, 2429.333
380.4702, 2259.632
380.9523, 2117.114
381.4344, 1995.217
381.9166, 1891.593
382.3987, 1806.648
382.8808, 1737.537
383.3629, 1685.247
383.8450, 1642.047
384.3271, 1604.264
384.8093, 1570.443
385.2914, 1537.014
385.7735, 1502.334
386.2556, 1468.461
386.7377, 1437.967
387.2198, 1411.148
387.7020, 1389.297
388.1841, 1375.961
388.6662, 1367.713
389.1483, 1360.031
389.6304, 1352.389
390.1125, 1344.319
390.5947, 1336.537
391.0768, 1328.225
391.5589, 1316.975
392.0410, 1294.587
392.5231, 1273.218
393.0052, 1262.970
393.4874, 1270.583
393.9695, 1277.081
394.4516, 1272.458
394.9337, 1261.963
395.4158, 1255.217
395.8979, 1258.609
396.3801, 1263.029
396.8622, 1264.435
397.3443, 1261.158
397.8264, 1259.595
398.3085, 1266.536
398.7906, 1273.582
399.2728, 1270.324
399.7549, 1239.884
400.2370, 1217.892
400.7191, 1214.343
401.2012, 1230.982
401.6833, 1239.729
402.1655, 1236.126
402.6476, 1229.017
403.1297, 1226.026
403.6118, 1228.915
404.0939, 1231.540
404.5760, 1232.145
405.0582, 1231.686
405.5403, 1237.296
406.0224, 1252.283
406.5045, 1263.577
406.9866, 1257.207
407.4688, 1231.418
407.9509, 1220.836
408.4330, 1233.372
408.9151, 1256.746
409.3972, 1263.023
409.8793, 1252.139
410.3615, 1243.585
410.8436, 1251.454
411.3257, 1270.908
411.8078, 1285.970
412.2899, 1295.815
412.7720, 1300.756
413.2542, 1299.699
413.7363, 1293.766
414.2184, 1286.176
414.7005, 1272.474
415.1826, 1260.974
415.6647, 1264.262
416.1469, 1282.824
416.6290, 1302.390
417.1111, 1310.291
417.5932, 1313.609
418.0753, 1321.327
418.5574, 1335.139
419.0396, 1355.415
419.5217, 1386.630
420.0038, 1426.567
420.4859, 1462.572
420.9680, 1481.652
421.4501, 1499.814
421.9323, 1527.881
422.4144, 1579.237
422.8965, 1625.501
423.3786, 1659.335
423.8607, 1684.525
424.3428, 1712.201
424.8250, 1746.840
425.3071, 1781.534
425.7892, 1812.818
426.2713, 1837.847
426.7534, 1868.197
427.2355, 1901.750
427.7177, 1941.973
428.1998, 1994.142
428.6819, 2061.812
429.1640, 2132.637
429.6461, 2200.774
430.1282, 2265.834
430.6104, 2350.018
431.0925, 2450.171
431.5746, 2576.410
432.0567, 2737.912
432.5388, 2934.807
433.0209, 3161.167
433.5031, 3422.823
433.9852, 3707.101
434.4673, 4024.502
434.9494, 4371.491
435.4315, 4637.396
435.9136, 4751.187
436.3958, 4720.501
436.8779, 4542.681
437.3600, 4189.910
437.8421, 3775.813
438.3242, 3390.207
438.8063, 3040.287
439.2885, 2746.414
439.7706, 2527.682
440.2527, 2364.495
440.7348, 2244.689
441.2169, 2168.530
441.6990, 2118.731
442.1812, 2092.498
442.6633, 2084.035
443.1454, 2085.991
443.6275, 2106.439
444.1096, 2126.867
444.5917, 2135.451
445.0739, 2133.933
445.5560, 2147.132
446.0381, 2184.804
446.5202, 2235.193
447.0023, 2291.395
447.4844, 2356.946
447.9666, 2423.263
448.4487, 2486.106
448.9308, 2550.269
449.4129, 2629.842
449.8950, 2727.327
450.3771, 2833.178
450.8593, 2944.652
451.3413, 3061.188
451.8235, 3184.020
452.3056, 3321.202
452.7877, 3452.265
453.2698, 3559.117
453.7519, 3642.964
454.2340, 3680.344
454.7162, 3658.110
455.1983, 3585.957
455.6804, 3494.588
456.1625, 3383.377
456.6446, 3255.669
457.1267, 3093.116
457.6089, 2915.387
458.0910, 2769.672
458.5731, 2673.885
459.0552, 2601.921
459.5373, 2518.605
460.0194, 2433.142
460.5016, 2374.785
460.9837, 2369.376
461.4658, 2394.086
461.9479, 2429.661
462.4300, 2473.413
462.9121, 2529.931
463.3943, 2608.719
463.8764, 2699.452
464.3585, 2787.646
464.8406, 2872.966
465.3227, 2951.375
465.8048, 3012.514
466.2870, 3056.662
466.7691, 3124.034
467.2512, 3235.956
467.7333, 3361.690
468.2154, 3480.816
468.6975, 3563.853
469.1797, 3689.618
469.6618, 3872.488
470.1439, 4095.466
470.6260, 4306.190
471.1081, 4483.757
471.5902, 4699.286
472.0724, 4982.529
472.5545, 5337.817
473.0366, 5729.598
473.5187, 6152.863
474.0008, 6615.167
474.4829, 7141.104
474.9651, 7724.954
475.4472, 8306.970
475.9293, 8918.763
476.4114, 9483.410
476.8935, 9881.797
477.3756, 10106.36
477.8578, 10099.62
478.3399, 9760.237
478.8220, 9179.316
479.3041, 8466.110
479.7862, 7594.374
480.2683, 6713.327
480.7505, 5893.911
481.2326, 5148.908
481.7147, 4499.810
482.1968, 3960.278
482.6789, 3507.490
483.1610, 3138.222
483.6432, 2855.763
484.1253, 2621.167
484.6074, 2445.222
485.0895, 2305.583
485.5716, 2181.489
486.0537, 2066.950
486.5359, 1973.870
487.0180, 1907.802
487.5001, 1864.618
487.9822, 1825.634
488.4643, 1792.134
488.9464, 1761.377
489.4286, 1733.127
489.9107, 1709.272
490.3928, 1676.464
490.8749, 1628.251
491.3570, 1582.460
491.8391, 1571.794
492.3213, 1596.150
492.8034, 1611.923
493.2855, 1599.887
493.7676, 1570.196
494.2497, 1544.503
494.7318, 1523.114
495.2140, 1510.220
495.6961, 1515.848
496.1782, 1531.174
496.6603, 1540.266
497.1424, 1537.848
497.6245, 1533.148
498.1067, 1531.357
498.5888, 1532.745
499.0709, 1537.876
499.5530, 1550.861
500.0351, 1564.470
500.5172, 1575.216
500.9994, 1582.475
501.4815, 1587.560
501.9636, 1588.809
502.4457, 1588.982
502.9278, 1590.552
503.4099, 1592.712
503.8921, 1597.526
504.3742, 1604.753
504.8563, 1614.757
505.3384, 1629.528
505.8205, 1651.277
506.3026, 1673.762
506.7848, 1694.451
507.2669, 1713.696
507.7490, 1729.758
508.2311, 1741.673
508.7132, 1752.889
509.1953, 1767.172
509.6775, 1784.532
510.1596, 1806.107
510.6417, 1831.192
511.1238, 1861.202
511.6059, 1904.044
512.0880, 1958.257
512.5701, 2005.931
513.0522, 2021.839
513.5344, 2029.102
514.0165, 2059.138
514.4986, 2123.370
514.9807, 2193.110
515.4628, 2252.655
515.9449, 2305.615
516.4271, 2357.275
516.9092, 2403.107
517.3913, 2454.550
517.8734, 2517.042
518.3555, 2591.114
518.8376, 2667.781
519.3198, 2753.411
519.8019, 2836.122
520.2840, 2907.910
520.7661, 2952.881
521.2482, 3017.906
521.7303, 3112.438
522.2125, 3224.273
522.6946, 3326.538
523.1767, 3420.322
523.6588, 3502.488
524.1409, 3573.513
524.6230, 3631.655
525.1052, 3676.206
525.5873, 3708.618
526.0694, 3716.050
526.5515, 3679.552
527.0336, 3607.593
527.5157, 3524.459
527.9979, 3440.354
528.4800, 3342.805
528.9621, 3208.252
529.4442, 3048.524
529.9263, 2894.239
530.4084, 2767.683
530.8906, 2649.127
531.3727, 2525.066
531.8548, 2391.507
532.3369, 2266.512
532.8190, 2153.661
533.3011, 2052.792
533.7833, 1965.520
534.2654, 1896.793
534.7475, 1835.142
535.2296, 1779.549
535.7117, 1729.730
536.1938, 1685.886
536.6760, 1650.955
537.1581, 1615.127
537.6402, 1570.022
538.1223, 1513.694
538.6044, 1479.488
539.0865, 1471.760
539.5687, 1472.458
540.0508, 1460.315
540.5329, 1437.041
541.0150, 1415.684
541.4971, 1398.481
541.9792, 1386.234
542.4614, 1384.039
542.9435, 1389.626
543.4256, 1392.389
543.9077, 1383.535
544.3898, 1370.204
544.8719, 1359.075
545.3541, 1351.024
545.8362, 1343.780
546.3183, 1336.699
546.8004, 1329.579
547.2825, 1322.140
547.7646, 1311.092
548.2468, 1303.406
548.7289, 1300.920
549.2110, 1303.016
549.6931, 1307.479
550.1752, 1318.320
550.6573, 1326.032
551.1395, 1325.954
551.6216, 1316.468
552.1037, 1308.121
552.5858, 1300.080
553.0679, 1294.857
553.5500, 1296.892
554.0322, 1305.849
554.5143, 1313.435
554.9964, 1316.814
555.4785, 1318.950
555.9606, 1325.883
556.4427, 1336.816
556.9249, 1347.255
557.4070, 1354.183
557.8891, 1359.301
558.3712, 1365.989
558.8533, 1375.189
559.3354, 1378.777
559.8176, 1363.507
560.2997, 1344.136
560.7818, 1335.786
561.2639, 1352.574
561.7460, 1369.254
562.2281, 1377.131
562.7103, 1380.339
563.1924, 1394.621
563.6745, 1429.807
564.1566, 1463.046
564.6387, 1485.394
565.1208, 1495.767
565.6030, 1506.778
566.0851, 1517.730
566.5672, 1530.735
567.0493, 1545.225
567.5314, 1561.434
568.0135, 1592.543
568.4957, 1645.290
568.9778, 1705.914
569.4599, 1744.681
569.9420, 1768.608
570.4241, 1805.745
570.9063, 1874.167
571.3884, 1961.490
571.8705, 2059.891
572.3526, 2168.044
572.8347, 2281.345
573.3168, 2394.136
573.7990, 2511.878
574.2811, 2637.471
574.7632, 2775.100
575.2453, 2917.994
575.7274, 3065.409
576.2095, 3218.866
576.6917, 3377.037
577.1738, 3532.382
577.6559, 3704.363
578.1380, 3898.216
578.6201, 4113.240
579.1022, 4334.024
579.5844, 4554.919
580.0665, 4802.310
580.5486, 5095.641
581.0307, 5435.154
581.5128, 5806.194
581.9949, 6208.893
582.4771, 6636.644
582.9592, 7077.650
583.4413, 7537.107
583.9234, 8027.948
584.4055, 8588.521
584.8876, 9156.359
585.3698, 9716.167
585.8519, 10253.02
586.3340, 10703.04
586.8161, 11112.19
587.2982, 11361.55
587.7803, 11380.04
588.2625, 11134.36
588.7446, 10715.84
589.2267, 10069.20
589.7088, 9299.483
590.1909, 8497.766
590.6730, 7632.835
591.1552, 6840.505
591.6373, 6142.129
592.1194, 5531.643
592.6015, 4994.616
593.0836, 4529.726
593.5657, 4132.261
594.0479, 3807.454
594.5300, 3542.577
595.0121, 3312.089
595.4942, 3114.315
595.9763, 2943.973
596.4584, 2802.878
596.9406, 2684.828
597.4227, 2580.070
597.9048, 2487.790
598.3869, 2405.516
598.8690, 2332.022
599.3511, 2267.308
599.8333, 2209.831
600.3154, 2159.963
600.7975, 2116.954
601.2796, 2081.648
601.7617, 2053.756
602.2438, 2025.040
602.7260, 1992.327
603.2081, 1964.426
603.6902, 1949.002
604.1723, 1947.104
604.6544, 1944.775
605.1365, 1943.234
605.6187, 1935.794
606.1008, 1905.700
606.5829, 1859.764
607.0650, 1827.676
607.5471, 1827.570
608.0292, 1835.623
608.5114, 1823.990
608.9935, 1796.768
609.4756, 1768.040
609.9577, 1740.124
610.4398, 1717.402
610.9219, 1704.096
611.4041, 1701.427
611.8862, 1700.360
612.3683, 1704.078
612.8504, 1705.417
613.3325, 1698.518
613.8146, 1676.353
614.2968, 1659.270
614.7789, 1647.840
615.2610, 1642.139
615.7431, 1645.130
616.2252, 1658.080
616.7073, 1666.825
617.1895, 1665.374
617.6716, 1656.423
618.1537, 1644.661
618.6358, 1630.517
619.1179, 1621.330
619.6000, 1626.471
620.0822, 1637.603
620.5643, 1644.642
621.0464, 1646.021
621.5285, 1645.463
622.0106, 1641.047
622.4927, 1637.457
622.9749, 1639.736
623.4570, 1657.702
623.9391, 1671.230
624.4212, 1678.885
624.9033, 1680.189
