##NAMES=Johannsenite
##RRUFFID=R150013
##IDEAL CHEMISTRY=CaMn^2+^Si_2_O_6_
##LOCALITY=Wessels mine, Kalahari manganese field, South Africa
##OWNER=RRUFF
##SOURCE=Paul Botha
##DESCRIPTION=Pale blue, massive, epimorphic
##STATUS=The identification of this mineral is confirmed by single-crystal X-ray diffraction and chemical analysis.
##URL=rruff.info/R150013
##MEASURED CHEMISTRY=Ca_1.00_Mn^2+^_1.02_Si_1.99_O_6_
9.059570e+001, 1.414236e+003
9.107782e+001, 1.394093e+003
9.155994e+001, 1.386999e+003
9.204205e+001, 1.404095e+003
9.252417e+001, 1.426605e+003
9.300629e+001, 1.447617e+003
9.348840e+001, 1.457639e+003
9.397052e+001, 1.448811e+003
9.445264e+001, 1.420200e+003
9.493475e+001, 1.388851e+003
9.541687e+001, 1.361910e+003
9.589898e+001, 1.342301e+003
9.638110e+001, 1.326180e+003
9.686321e+001, 1.309951e+003
9.734533e+001, 1.291153e+003
9.782745e+001, 1.268536e+003
9.830956e+001, 1.249915e+003
9.879168e+001, 1.234133e+003
9.927380e+001, 1.222410e+003
9.975591e+001, 1.215616e+003
1.002380e+002, 1.212727e+003
1.007201e+002, 1.211741e+003
1.012023e+002, 1.211937e+003
1.016844e+002, 1.213029e+003
1.021665e+002, 1.213660e+003
1.026486e+002, 1.215436e+003
1.031307e+002, 1.215630e+003
1.036128e+002, 1.211417e+003
1.040950e+002, 1.202358e+003
1.045771e+002, 1.191019e+003
1.050592e+002, 1.176383e+003
1.055413e+002, 1.160522e+003
1.060234e+002, 1.146875e+003
1.065055e+002, 1.136496e+003
1.069877e+002, 1.129301e+003
1.074698e+002, 1.125451e+003
1.079519e+002, 1.128112e+003
1.084340e+002, 1.130232e+003
1.089161e+002, 1.129287e+003
1.093982e+002, 1.125492e+003
1.098804e+002, 1.119652e+003
1.103625e+002, 1.111658e+003
1.108446e+002, 1.100473e+003
1.113267e+002, 1.092779e+003
1.118088e+002, 1.088516e+003
1.122909e+002, 1.087286e+003
1.127731e+002, 1.089695e+003
1.132552e+002, 1.095461e+003
1.137373e+002, 1.103305e+003
1.142194e+002, 1.111310e+003
1.147015e+002, 1.118828e+003
1.151836e+002, 1.128102e+003
1.156658e+002, 1.139306e+003
1.161479e+002, 1.152079e+003
1.166300e+002, 1.165730e+003
1.171121e+002, 1.179970e+003
1.175942e+002, 1.195725e+003
1.180763e+002, 1.215204e+003
1.185584e+002, 1.236826e+003
1.190406e+002, 1.263660e+003
1.195227e+002, 1.296540e+003
1.200048e+002, 1.335234e+003
1.204869e+002, 1.380198e+003
1.209690e+002, 1.433749e+003
1.214511e+002, 1.492263e+003
1.219333e+002, 1.550030e+003
1.224154e+002, 1.613064e+003
1.228975e+002, 1.665212e+003
1.233796e+002, 1.694749e+003
1.238617e+002, 1.702144e+003
1.243438e+002, 1.683903e+003
1.248260e+002, 1.621413e+003
1.253081e+002, 1.537566e+003
1.257902e+002, 1.447552e+003
1.262723e+002, 1.353584e+003
1.267544e+002, 1.261023e+003
1.272365e+002, 1.183056e+003
1.277187e+002, 1.122298e+003
1.282008e+002, 1.073737e+003
1.286829e+002, 1.036119e+003
1.291650e+002, 1.006961e+003
1.296471e+002, 9.836165e+002
1.301292e+002, 9.647767e+002
1.306114e+002, 9.502630e+002
1.310935e+002, 9.375245e+002
1.315756e+002, 9.267555e+002
1.320577e+002, 9.176586e+002
1.325398e+002, 9.107170e+002
1.330219e+002, 9.055329e+002
1.335041e+002, 9.012382e+002
1.339862e+002, 8.969455e+002
1.344683e+002, 8.923472e+002
1.349504e+002, 8.902545e+002
1.354325e+002, 8.904323e+002
1.359146e+002, 8.926815e+002
1.363968e+002, 8.976491e+002
1.368789e+002, 9.050881e+002
1.373610e+002, 9.133967e+002
1.378431e+002, 9.211381e+002
1.383252e+002, 9.285986e+002
1.388073e+002, 9.328804e+002
1.392895e+002, 9.333564e+002
1.397716e+002, 9.307685e+002
1.402537e+002, 9.254915e+002
1.407358e+002, 9.173031e+002
1.412179e+002, 9.076534e+002
1.417000e+002, 8.973864e+002
1.421821e+002, 8.864767e+002
1.426643e+002, 8.778983e+002
1.431464e+002, 8.746867e+002
1.436285e+002, 8.752335e+002
1.441106e+002, 8.738093e+002
1.445927e+002, 8.693926e+002
1.450748e+002, 8.620070e+002
1.455570e+002, 8.513035e+002
1.460391e+002, 8.373658e+002
1.465212e+002, 8.234332e+002
1.470033e+002, 8.121160e+002
1.474854e+002, 8.035297e+002
1.479675e+002, 7.963080e+002
1.484497e+002, 7.912306e+002
1.489318e+002, 7.868058e+002
1.494139e+002, 7.823639e+002
1.498960e+002, 7.777626e+002
1.503781e+002, 7.730787e+002
1.508602e+002, 7.682899e+002
1.513424e+002, 7.626591e+002
1.518245e+002, 7.586005e+002
1.523066e+002, 7.566244e+002
1.527887e+002, 7.557665e+002
1.532708e+002, 7.554414e+002
1.537529e+002, 7.554047e+002
1.542351e+002, 7.555378e+002
1.547172e+002, 7.555450e+002
1.551993e+002, 7.553146e+002
1.556814e+002, 7.550776e+002
1.561635e+002, 7.551404e+002
1.566456e+002, 7.551195e+002
1.571278e+002, 7.543721e+002
1.576099e+002, 7.525181e+002
1.580920e+002, 7.499905e+002
1.585741e+002, 7.486962e+002
1.590562e+002, 7.486427e+002
1.595383e+002, 7.495611e+002
1.600205e+002, 7.513083e+002
1.605026e+002, 7.539799e+002
1.609847e+002, 7.579664e+002
1.614668e+002, 7.637245e+002
1.619489e+002, 7.708610e+002
1.624310e+002, 7.772908e+002
1.629131e+002, 7.821086e+002
1.633953e+002, 7.871042e+002
1.638774e+002, 7.934566e+002
1.643595e+002, 8.010584e+002
1.648416e+002, 8.089681e+002
1.653237e+002, 8.183185e+002
1.658058e+002, 8.269313e+002
1.662880e+002, 8.303248e+002
1.667701e+002, 8.264763e+002
1.672522e+002, 8.184385e+002
1.677343e+002, 8.084510e+002
1.682164e+002, 7.957924e+002
1.686985e+002, 7.847028e+002
1.691807e+002, 7.779526e+002
1.696628e+002, 7.741980e+002
1.701449e+002, 7.723167e+002
1.706270e+002, 7.722494e+002
1.711091e+002, 7.736143e+002
1.715912e+002, 7.755529e+002
1.720734e+002, 7.780037e+002
1.725555e+002, 7.812549e+002
1.730376e+002, 7.857264e+002
1.735197e+002, 7.908741e+002
1.740018e+002, 7.958874e+002
1.744839e+002, 8.000944e+002
1.749661e+002, 8.037859e+002
1.754482e+002, 8.086068e+002
1.759303e+002, 8.137404e+002
1.764124e+002, 8.213073e+002
1.768945e+002, 8.317255e+002
1.773766e+002, 8.448729e+002
1.778588e+002, 8.601415e+002
1.783409e+002, 8.768669e+002
1.788230e+002, 8.950662e+002
1.793051e+002, 9.189534e+002
1.797872e+002, 9.539886e+002
1.802693e+002, 9.893214e+002
1.807515e+002, 1.028131e+003
1.812336e+002, 1.065487e+003
1.817157e+002, 1.091085e+003
1.821978e+002, 1.096091e+003
1.826799e+002, 1.079294e+003
1.831620e+002, 1.049883e+003
1.836441e+002, 9.966584e+002
1.841263e+002, 9.437197e+002
1.846084e+002, 9.013127e+002
1.850905e+002, 8.702995e+002
1.855726e+002, 8.475531e+002
1.860547e+002, 8.306208e+002
1.865368e+002, 8.202741e+002
1.870190e+002, 8.155457e+002
1.875011e+002, 8.177688e+002
1.879832e+002, 8.243314e+002
1.884653e+002, 8.335303e+002
1.889474e+002, 8.451212e+002
1.894296e+002, 8.596948e+002
1.899117e+002, 8.788051e+002
1.903938e+002, 9.023295e+002
1.908759e+002, 9.254520e+002
1.913580e+002, 9.504628e+002
1.918401e+002, 9.734445e+002
1.923223e+002, 9.920527e+002
1.928044e+002, 1.007062e+003
1.932865e+002, 1.012164e+003
1.937686e+002, 9.959504e+002
1.942507e+002, 9.637145e+002
1.947328e+002, 9.278715e+002
1.952150e+002, 8.886426e+002
1.956971e+002, 8.487740e+002
1.961792e+002, 8.132712e+002
1.966613e+002, 7.824096e+002
1.971434e+002, 7.565934e+002
1.976255e+002, 7.364584e+002
1.981077e+002, 7.209329e+002
1.985898e+002, 7.083901e+002
1.990719e+002, 6.986583e+002
1.995540e+002, 6.913222e+002
2.000361e+002, 6.846913e+002
2.005182e+002, 6.785588e+002
2.010004e+002, 6.734969e+002
2.014825e+002, 6.698680e+002
2.019646e+002, 6.674124e+002
2.024467e+002, 6.655618e+002
2.029288e+002, 6.642192e+002
2.034109e+002, 6.633210e+002
2.038930e+002, 6.617056e+002
2.043752e+002, 6.580344e+002
2.048573e+002, 6.550789e+002
2.053394e+002, 6.543146e+002
2.058215e+002, 6.551652e+002
2.063036e+002, 6.561671e+002
2.067857e+002, 6.561478e+002
2.072679e+002, 6.550605e+002
2.077500e+002, 6.538770e+002
2.082321e+002, 6.522922e+002
2.087142e+002, 6.508865e+002
2.091963e+002, 6.499684e+002
2.096784e+002, 6.494182e+002
2.101606e+002, 6.488735e+002
2.106427e+002, 6.479581e+002
2.111248e+002, 6.465759e+002
2.116069e+002, 6.457309e+002
2.120890e+002, 6.453445e+002
2.125711e+002, 6.454938e+002
2.130533e+002, 6.465524e+002
2.135354e+002, 6.482681e+002
2.140175e+002, 6.499355e+002
2.144996e+002, 6.508603e+002
2.149817e+002, 6.508674e+002
2.154638e+002, 6.513884e+002
2.159460e+002, 6.530067e+002
2.164281e+002, 6.545098e+002
2.169102e+002, 6.551280e+002
2.173923e+002, 6.549788e+002
2.178744e+002, 6.548242e+002
2.183565e+002, 6.553820e+002
2.188387e+002, 6.567678e+002
2.193208e+002, 6.578977e+002
2.198029e+002, 6.587257e+002
2.202850e+002, 6.593766e+002
2.207671e+002, 6.597529e+002
2.212492e+002, 6.599274e+002
2.217314e+002, 6.602858e+002
2.222135e+002, 6.611298e+002
2.226956e+002, 6.625272e+002
2.231777e+002, 6.643161e+002
2.236598e+002, 6.665715e+002
2.241419e+002, 6.691532e+002
2.246240e+002, 6.718138e+002
2.251062e+002, 6.745748e+002
2.255883e+002, 6.779222e+002
2.260704e+002, 6.825231e+002
2.265525e+002, 6.882014e+002
2.270346e+002, 6.934213e+002
2.275167e+002, 6.974407e+002
2.279989e+002, 7.013633e+002
2.284810e+002, 7.059861e+002
2.289631e+002, 7.113299e+002
2.294452e+002, 7.175248e+002
2.299273e+002, 7.247308e+002
2.304094e+002, 7.328916e+002
2.308916e+002, 7.418848e+002
2.313737e+002, 7.523955e+002
2.318558e+002, 7.633204e+002
2.323379e+002, 7.738856e+002
2.328200e+002, 7.842772e+002
2.333021e+002, 7.930148e+002
2.337843e+002, 7.997209e+002
2.342664e+002, 8.039704e+002
2.347485e+002, 8.046340e+002
2.352306e+002, 8.012577e+002
2.357127e+002, 7.942914e+002
2.361948e+002, 7.833484e+002
2.366770e+002, 7.673350e+002
2.371591e+002, 7.516104e+002
2.376412e+002, 7.393906e+002
2.381233e+002, 7.288040e+002
2.386054e+002, 7.176926e+002
2.390875e+002, 7.049781e+002
2.395697e+002, 6.920577e+002
2.400518e+002, 6.811395e+002
2.405339e+002, 6.723152e+002
2.410160e+002, 6.651484e+002
2.414981e+002, 6.601807e+002
2.419802e+002, 6.563924e+002
2.424624e+002, 6.529785e+002
2.429445e+002, 6.497081e+002
2.434266e+002, 6.466140e+002
2.439087e+002, 6.437469e+002
2.443908e+002, 6.411051e+002
2.448729e+002, 6.387183e+002
2.453550e+002, 6.363696e+002
2.458372e+002, 6.343620e+002
2.463193e+002, 6.330736e+002
2.468014e+002, 6.326531e+002
2.472835e+002, 6.327045e+002
2.477656e+002, 6.326306e+002
2.482477e+002, 6.325810e+002
2.487299e+002, 6.319919e+002
2.492120e+002, 6.301896e+002
2.496941e+002, 6.282217e+002
2.501762e+002, 6.267501e+002
2.506583e+002, 6.259988e+002
2.511404e+002, 6.260214e+002
2.516226e+002, 6.272272e+002
2.521047e+002, 6.308740e+002
2.525868e+002, 6.327504e+002
2.530689e+002, 6.314962e+002
2.535510e+002, 6.293016e+002
2.540331e+002, 6.275974e+002
2.545153e+002, 6.267819e+002
2.549974e+002, 6.264397e+002
2.554795e+002, 6.260182e+002
2.559616e+002, 6.257626e+002
2.564437e+002, 6.248405e+002
2.569258e+002, 6.221924e+002
2.574080e+002, 6.197454e+002
2.578901e+002, 6.189930e+002
2.583722e+002, 6.200833e+002
2.588543e+002, 6.218558e+002
2.593364e+002, 6.227352e+002
2.598185e+002, 6.222732e+002
2.603007e+002, 6.220127e+002
2.607828e+002, 6.214844e+002
2.612649e+002, 6.214503e+002
2.617470e+002, 6.225354e+002
2.622291e+002, 6.247120e+002
2.627112e+002, 6.273858e+002
2.631934e+002, 6.299403e+002
2.636755e+002, 6.324352e+002
2.641576e+002, 6.345333e+002
2.646397e+002, 6.363665e+002
2.651218e+002, 6.377802e+002
2.656039e+002, 6.383352e+002
2.660861e+002, 6.382382e+002
2.665682e+002, 6.383317e+002
2.670503e+002, 6.395225e+002
2.675324e+002, 6.420837e+002
2.680145e+002, 6.439556e+002
2.684966e+002, 6.458121e+002
2.689788e+002, 6.465594e+002
2.694609e+002, 6.451282e+002
2.699430e+002, 6.419343e+002
2.704251e+002, 6.383783e+002
2.709072e+002, 6.355114e+002
2.713893e+002, 6.333543e+002
2.718715e+002, 6.319716e+002
2.723536e+002, 6.319658e+002
2.728357e+002, 6.319662e+002
2.733178e+002, 6.311382e+002
2.737999e+002, 6.297931e+002
2.742820e+002, 6.287981e+002
2.747642e+002, 6.286932e+002
2.752463e+002, 6.294704e+002
2.757284e+002, 6.311404e+002
2.762105e+002, 6.345621e+002
2.766926e+002, 6.377275e+002
2.771747e+002, 6.392169e+002
2.776568e+002, 6.399293e+002
2.781389e+002, 6.419921e+002
2.786211e+002, 6.467170e+002
2.791032e+002, 6.534321e+002
2.795853e+002, 6.593271e+002
2.800674e+002, 6.629525e+002
2.805495e+002, 6.676248e+002
2.810316e+002, 6.750821e+002
2.815138e+002, 6.840422e+002
2.819959e+002, 6.921194e+002
2.824780e+002, 6.981784e+002
2.829601e+002, 7.031302e+002
2.834422e+002, 7.091562e+002
2.839243e+002, 7.163401e+002
2.844065e+002, 7.242285e+002
2.848886e+002, 7.330408e+002
2.853707e+002, 7.424305e+002
2.858528e+002, 7.517658e+002
2.863349e+002, 7.608022e+002
2.868170e+002, 7.700656e+002
2.872992e+002, 7.805807e+002
2.877813e+002, 7.923272e+002
2.882634e+002, 8.050322e+002
2.887455e+002, 8.182482e+002
2.892276e+002, 8.325174e+002
2.897097e+002, 8.485988e+002
2.901919e+002, 8.667009e+002
2.906740e+002, 8.858420e+002
2.911561e+002, 9.046310e+002
2.916382e+002, 9.225755e+002
2.921203e+002, 9.441063e+002
2.926024e+002, 9.701944e+002
2.930846e+002, 9.997789e+002
2.935667e+002, 1.032083e+003
2.940488e+002, 1.067112e+003
2.945309e+002, 1.104254e+003
2.950130e+002, 1.143004e+003
2.954951e+002, 1.183615e+003
2.959773e+002, 1.226436e+003
2.964594e+002, 1.273792e+003
2.969415e+002, 1.321690e+003
2.974236e+002, 1.369484e+003
2.979057e+002, 1.416228e+003
2.983878e+002, 1.456949e+003
2.988700e+002, 1.489310e+003
2.993521e+002, 1.511424e+003
2.998342e+002, 1.521468e+003
3.003163e+002, 1.518738e+003
3.007984e+002, 1.504985e+003
3.012805e+002, 1.479359e+003
3.017627e+002, 1.442840e+003
3.022448e+002, 1.398981e+003
3.027269e+002, 1.347787e+003
3.032090e+002, 1.291320e+003
3.036911e+002, 1.235764e+003
3.041732e+002, 1.179754e+003
3.046554e+002, 1.126219e+003
3.051375e+002, 1.075809e+003
3.056196e+002, 1.028789e+003
3.061017e+002, 9.857203e+002
3.065838e+002, 9.467263e+002
3.070659e+002, 9.121221e+002
3.075481e+002, 8.834550e+002
3.080302e+002, 8.609078e+002
3.085123e+002, 8.409567e+002
3.089944e+002, 8.233797e+002
3.094765e+002, 8.075191e+002
3.099586e+002, 7.921435e+002
3.104408e+002, 7.767656e+002
3.109229e+002, 7.628316e+002
3.114050e+002, 7.529869e+002
3.118871e+002, 7.471565e+002
3.123692e+002, 7.420808e+002
3.128513e+002, 7.372972e+002
3.133335e+002, 7.328693e+002
3.138156e+002, 7.287972e+002
3.142977e+002, 7.250858e+002
3.147798e+002, 7.218278e+002
3.152619e+002, 7.189890e+002
3.157440e+002, 7.166442e+002
3.162262e+002, 7.153522e+002
3.167083e+002, 7.153972e+002
3.171904e+002, 7.163456e+002
3.176725e+002, 7.178741e+002
3.181546e+002, 7.199752e+002
3.186367e+002, 7.226965e+002
3.191188e+002, 7.260042e+002
3.196010e+002, 7.300540e+002
3.200831e+002, 7.351121e+002
3.205652e+002, 7.417563e+002
3.210473e+002, 7.488181e+002
3.215294e+002, 7.556439e+002
3.220115e+002, 7.623380e+002
3.224937e+002, 7.694190e+002
3.229758e+002, 7.771357e+002
3.234579e+002, 7.853275e+002
3.239400e+002, 7.932777e+002
3.244221e+002, 8.004521e+002
3.249042e+002, 8.085572e+002
3.253864e+002, 8.180139e+002
3.258685e+002, 8.288430e+002
3.263506e+002, 8.413175e+002
3.268327e+002, 8.556634e+002
3.273148e+002, 8.712552e+002
3.277969e+002, 8.873801e+002
3.282791e+002, 9.040748e+002
3.287612e+002, 9.208624e+002
3.292433e+002, 9.382260e+002
3.297254e+002, 9.553214e+002
3.302075e+002, 9.711738e+002
3.306896e+002, 9.856169e+002
3.311718e+002, 9.990541e+002
3.316539e+002, 1.012143e+003
3.321360e+002, 1.024813e+003
3.326181e+002, 1.035382e+003
3.331002e+002, 1.041179e+003
3.335823e+002, 1.046769e+003
3.340645e+002, 1.055371e+003
3.345466e+002, 1.066981e+003
3.350287e+002, 1.080307e+003
3.355108e+002, 1.094530e+003
3.359929e+002, 1.109743e+003
3.364750e+002, 1.125778e+003
3.369572e+002, 1.148163e+003
3.374393e+002, 1.165773e+003
3.379214e+002, 1.173793e+003
3.384035e+002, 1.173510e+003
3.388856e+002, 1.167795e+003
3.393677e+002, 1.157836e+003
3.398499e+002, 1.143675e+003
3.403320e+002, 1.124809e+003
3.408141e+002, 1.100442e+003
3.412962e+002, 1.073853e+003
3.417783e+002, 1.044069e+003
3.422604e+002, 1.012927e+003
3.427426e+002, 9.821668e+002
3.432247e+002, 9.523924e+002
3.437068e+002, 9.250363e+002
3.441889e+002, 9.023699e+002
3.446710e+002, 8.860795e+002
3.451531e+002, 8.705685e+002
3.456353e+002, 8.555603e+002
3.461174e+002, 8.416385e+002
3.465995e+002, 8.290889e+002
3.470816e+002, 8.180804e+002
3.475637e+002, 8.088235e+002
3.480458e+002, 8.018588e+002
3.485280e+002, 7.973070e+002
3.490101e+002, 7.923594e+002
3.494922e+002, 7.863580e+002
3.499743e+002, 7.806924e+002
3.504564e+002, 7.754209e+002
3.509385e+002, 7.709832e+002
3.514207e+002, 7.682373e+002
3.519028e+002, 7.677399e+002
3.523849e+002, 7.692377e+002
3.528670e+002, 7.717413e+002
3.533491e+002, 7.749789e+002
3.538312e+002, 7.795379e+002
3.543134e+002, 7.863654e+002
3.547955e+002, 7.942054e+002
3.552776e+002, 8.015263e+002
3.557597e+002, 8.078088e+002
3.562418e+002, 8.138434e+002
3.567239e+002, 8.210195e+002
3.572061e+002, 8.297352e+002
3.576882e+002, 8.389400e+002
3.581703e+002, 8.485225e+002
3.586524e+002, 8.586285e+002
3.591345e+002, 8.690567e+002
3.596166e+002, 8.799871e+002
3.600987e+002, 8.918602e+002
3.605808e+002, 9.050748e+002
3.610630e+002, 9.195466e+002
3.615451e+002, 9.363210e+002
3.620272e+002, 9.549691e+002
3.625093e+002, 9.761035e+002
3.629914e+002, 1.000292e+003
3.634735e+002, 1.027207e+003
3.639557e+002, 1.055585e+003
3.644378e+002, 1.084580e+003
3.649199e+002, 1.114890e+003
3.654020e+002, 1.149493e+003
3.658841e+002, 1.189273e+003
3.663662e+002, 1.232747e+003
3.668484e+002, 1.279099e+003
3.673305e+002, 1.328934e+003
3.678126e+002, 1.383471e+003
3.682947e+002, 1.442712e+003
3.687768e+002, 1.505028e+003
3.692589e+002, 1.568863e+003
3.697411e+002, 1.635930e+003
3.702232e+002, 1.699428e+003
3.707053e+002, 1.764653e+003
3.711874e+002, 1.822167e+003
3.716695e+002, 1.869854e+003
3.721516e+002, 1.905763e+003
3.726338e+002, 1.927505e+003
3.731159e+002, 1.933607e+003
3.735980e+002, 1.924008e+003
3.740801e+002, 1.894596e+003
3.745622e+002, 1.837644e+003
3.750443e+002, 1.767910e+003
3.755265e+002, 1.685674e+003
3.760086e+002, 1.595835e+003
3.764907e+002, 1.505313e+003
3.769728e+002, 1.416179e+003
3.774549e+002, 1.329880e+003
3.779370e+002, 1.248809e+003
3.784192e+002, 1.172348e+003
3.789013e+002, 1.103185e+003
3.793834e+002, 1.042839e+003
3.798655e+002, 9.893879e+002
3.803476e+002, 9.422789e+002
3.808297e+002, 9.013680e+002
3.813119e+002, 8.654949e+002
3.817940e+002, 8.343854e+002
3.822761e+002, 8.079257e+002
3.827582e+002, 7.837795e+002
3.832403e+002, 7.616482e+002
3.837224e+002, 7.421125e+002
3.842046e+002, 7.255894e+002
3.846867e+002, 7.117203e+002
3.851688e+002, 6.987691e+002
3.856509e+002, 6.858807e+002
3.861330e+002, 6.733953e+002
3.866151e+002, 6.619378e+002
3.870973e+002, 6.515098e+002
3.875794e+002, 6.422278e+002
3.880615e+002, 6.344697e+002
3.885436e+002, 6.278255e+002
3.890257e+002, 6.218217e+002
3.895078e+002, 6.163539e+002
3.899900e+002, 6.115341e+002
3.904721e+002, 6.077136e+002
3.909542e+002, 6.047600e+002
3.914363e+002, 6.017932e+002
3.919184e+002, 5.985814e+002
3.924005e+002, 5.951563e+002
3.928827e+002, 5.915449e+002
3.933648e+002, 5.877441e+002
3.938469e+002, 5.839053e+002
3.943290e+002, 5.796857e+002
3.948111e+002, 5.756053e+002
3.952932e+002, 5.726853e+002
3.957754e+002, 5.711172e+002
3.962575e+002, 5.699955e+002
3.967396e+002, 5.687060e+002
3.972217e+002, 5.672003e+002
3.977038e+002, 5.652219e+002
3.981859e+002, 5.618773e+002
3.986681e+002, 5.588111e+002
3.991501e+002, 5.573694e+002
3.996323e+002, 5.571907e+002
4.001144e+002, 5.569294e+002
4.005965e+002, 5.559279e+002
4.010786e+002, 5.543850e+002
4.015607e+002, 5.528378e+002
4.020428e+002, 5.510273e+002
4.025250e+002, 5.496404e+002
4.030071e+002, 5.493235e+002
4.034892e+002, 5.492469e+002
4.039713e+002, 5.483686e+002
4.044534e+002, 5.464830e+002
4.049355e+002, 5.442123e+002
4.054177e+002, 5.421930e+002
4.058998e+002, 5.403470e+002
4.063819e+002, 5.393654e+002
4.068640e+002, 5.402863e+002
4.073461e+002, 5.409772e+002
4.078282e+002, 5.401825e+002
4.083104e+002, 5.382740e+002
4.087925e+002, 5.362776e+002
4.092746e+002, 5.347747e+002
4.097567e+002, 5.337863e+002
4.102388e+002, 5.333878e+002
4.107209e+002, 5.342640e+002
4.112031e+002, 5.348684e+002
4.116852e+002, 5.352888e+002
4.121673e+002, 5.352736e+002
4.126494e+002, 5.343921e+002
4.131315e+002, 5.326193e+002
4.136136e+002, 5.305944e+002
4.140958e+002, 5.291526e+002
4.145779e+002, 5.283850e+002
4.150600e+002, 5.278200e+002
4.155421e+002, 5.275984e+002
