##NAMES=Johannsenite
##RRUFFID=R150013
##IDEAL CHEMISTRY=CaMn^2+^Si_2_O_6_
##LOCALITY=Wessels mine, Kalahari manganese field, South Africa
##OWNER=RRUFF
##SOURCE=Paul Botha
##DESCRIPTION=Pale blue, massive, epimorphic
##STATUS=The identification of this mineral is confirmed by single-crystal X-ray diffraction and chemical analysis.
##URL=rruff.info/R150013
##MEASURED CHEMISTRY=Ca_1.00_Mn^2+^_1.02_Si_1.99_O_6_
89.78320, 884.3386
90.26532, 881.6791
90.74744, 882.0355
91.22955, 886.2789
91.71167, 893.4437
92.19379, 903.6006
92.67590, 916.4654
93.15802, 926.0832
93.64014, 925.7207
94.12225, 918.5460
94.60437, 913.0400
95.08649, 911.9449
95.56860, 913.1923
96.05072, 912.9654
96.53284, 912.0302
97.01495, 910.6210
97.49707, 908.1555
97.97919, 904.6194
98.46130, 902.1996
98.94342, 901.1674
99.42554, 901.5330
99.90765, 904.7021
100.3898, 911.3439
100.8719, 919.2811
101.3540, 925.2402
101.8361, 928.7559
102.3182, 932.3500
102.8004, 937.4060
103.2825, 944.7386
103.7646, 949.9766
104.2467, 952.3646
104.7288, 953.1906
105.2109, 955.3470
105.6931, 959.0226
106.1752, 963.7533
106.6573, 969.4307
107.1394, 976.2722
107.6215, 983.7294
108.1036, 992.9667
108.5858, 1003.303
109.0679, 1010.681
109.5500, 1013.369
110.0321, 1014.603
110.5142, 1016.101
110.9963, 1016.360
111.4785, 1018.549
111.9606, 1023.321
112.4427, 1030.590
112.9248, 1038.662
113.4069, 1047.809
113.8890, 1057.373
114.3712, 1066.941
114.8533, 1074.456
115.3354, 1083.670
115.8175, 1096.139
116.2996, 1112.284
116.7817, 1129.094
117.2639, 1143.533
117.7460, 1158.620
118.2281, 1178.193
118.7102, 1205.491
119.1923, 1236.396
119.6744, 1267.996
120.1566, 1299.593
120.6387, 1333.892
121.1208, 1376.337
121.6029, 1422.636
122.0850, 1463.712
122.5671, 1503.489
123.0493, 1532.036
123.5314, 1538.226
124.0135, 1517.941
124.4956, 1480.669
124.9777, 1428.741
125.4598, 1365.211
125.9420, 1302.532
126.4241, 1245.462
126.9062, 1195.096
127.3883, 1153.740
127.8704, 1122.729
128.3525, 1099.772
128.8347, 1082.802
129.3168, 1071.622
129.7989, 1063.699
130.2810, 1057.451
130.7631, 1052.838
131.2452, 1049.532
131.7274, 1047.847
132.2095, 1047.250
132.6916, 1046.166
133.1737, 1044.487
133.6558, 1043.122
134.1379, 1042.707
134.6201, 1043.254
135.1022, 1045.128
135.5843, 1048.532
136.0664, 1053.391
136.5485, 1059.247
137.0306, 1066.407
137.5128, 1073.913
137.9949, 1081.308
138.4770, 1089.002
138.9591, 1094.599
139.4412, 1097.228
139.9233, 1096.745
140.4055, 1094.608
140.8876, 1090.246
141.3697, 1084.751
141.8518, 1079.673
142.3339, 1074.656
142.8160, 1070.870
143.2982, 1069.268
143.7803, 1071.307
144.2624, 1070.790
144.7445, 1066.835
145.2266, 1060.580
145.7087, 1054.753
146.1909, 1049.063
146.6730, 1044.066
147.1551, 1039.936
147.6372, 1036.862
148.1193, 1034.448
148.6014, 1032.926
149.0836, 1032.110
149.5657, 1031.262
150.0478, 1029.724
150.5299, 1028.704
151.0120, 1028.730
151.4941, 1030.887
151.9763, 1032.784
152.4584, 1034.350
152.9405, 1035.596
153.4226, 1036.654
153.9047, 1036.809
154.3868, 1037.236
154.8690, 1038.576
155.3511, 1042.119
155.8332, 1045.269
156.3153, 1047.590
156.7974, 1049.130
157.2795, 1050.293
157.7617, 1050.923
158.2438, 1051.352
158.7259, 1051.820
159.2080, 1051.607
159.6901, 1052.209
160.1722, 1054.301
160.6544, 1057.841
161.1365, 1061.708
161.6186, 1064.798
162.1007, 1068.297
162.5828, 1073.384
163.0649, 1080.797
163.5471, 1089.520
164.0292, 1100.256
164.5113, 1113.012
164.9934, 1123.622
165.4755, 1130.540
165.9576, 1133.984
166.4398, 1134.180
166.9219, 1129.285
167.4040, 1122.528
167.8861, 1115.121
168.3682, 1106.948
168.8503, 1100.805
169.3325, 1099.170
169.8146, 1100.688
170.2967, 1103.167
170.7788, 1105.775
171.2609, 1108.881
171.7430, 1113.174
172.2252, 1118.892
172.7073, 1124.267
173.1894, 1126.898
173.6715, 1128.080
174.1536, 1130.601
174.6357, 1135.339
175.1179, 1142.373
175.6000, 1152.303
176.0821, 1165.387
176.5642, 1179.655
177.0463, 1192.759
177.5284, 1205.397
178.0106, 1219.459
178.4927, 1236.121
178.9748, 1254.904
179.4569, 1275.244
179.9390, 1297.817
180.4211, 1319.909
180.9033, 1343.512
181.3854, 1366.303
181.8675, 1376.902
182.3496, 1363.579
182.8317, 1333.639
183.3138, 1302.010
183.7960, 1269.007
184.2781, 1238.827
184.7602, 1218.442
185.2423, 1207.164
185.7244, 1200.813
186.2065, 1197.037
186.6887, 1196.089
187.1708, 1199.091
187.6529, 1206.537
188.1350, 1217.108
188.6171, 1228.516
189.0992, 1240.874
189.5814, 1254.730
190.0635, 1271.377
190.5456, 1290.490
191.0277, 1308.974
191.5098, 1327.838
191.9919, 1344.067
192.4741, 1351.693
192.9562, 1350.717
193.4383, 1341.614
193.9204, 1321.669
194.4025, 1291.573
194.8846, 1262.947
195.3668, 1236.532
195.8489, 1212.975
196.3310, 1194.340
196.8131, 1180.941
197.2952, 1170.100
197.7773, 1159.711
198.2595, 1149.771
198.7416, 1142.655
199.2237, 1139.242
199.7058, 1138.426
200.1879, 1137.214
200.6700, 1135.425
201.1522, 1134.052
201.6343, 1134.000
202.1164, 1135.436
202.5985, 1136.560
203.0806, 1137.113
203.5627, 1137.233
204.0449, 1137.292
204.5270, 1137.231
205.0091, 1137.273
205.4912, 1137.626
205.9733, 1138.358
206.4554, 1138.956
206.9376, 1139.303
207.4197, 1139.489
207.9018, 1139.850
208.3839, 1140.399
208.8660, 1141.111
209.3481, 1141.989
209.8303, 1143.074
210.3124, 1144.191
210.7945, 1145.240
211.2766, 1146.337
211.7587, 1148.089
212.2408, 1150.832
212.7230, 1153.552
213.2051, 1155.485
213.6872, 1156.291
214.1693, 1157.433
214.6514, 1158.993
215.1335, 1160.980
215.6157, 1163.483
216.0978, 1166.683
216.5799, 1170.029
217.0620, 1173.112
217.5441, 1175.672
218.0262, 1178.801
218.5084, 1183.082
218.9905, 1188.080
219.4726, 1191.261
219.9547, 1191.891
220.4368, 1192.076
220.9189, 1193.148
221.4011, 1195.401
221.8832, 1197.875
222.3653, 1200.596
222.8474, 1203.506
223.3295, 1206.373
223.8116, 1208.866
224.2938, 1211.752
224.7759, 1215.572
225.2580, 1220.708
225.7401, 1225.756
226.2222, 1230.569
226.7043, 1235.204
227.1865, 1240.150
227.6686, 1245.317
228.1507, 1250.762
228.6328, 1256.513
229.1149, 1262.758
229.5970, 1268.766
230.0792, 1274.066
230.5613, 1279.103
231.0434, 1285.640
231.5255, 1294.719
232.0076, 1303.687
232.4897, 1311.119
232.9719, 1316.960
233.4540, 1321.513
233.9361, 1325.281
234.4182, 1327.777
234.9003, 1327.322
235.3824, 1323.554
235.8646, 1317.358
236.3467, 1308.711
236.8288, 1295.627
237.3109, 1284.491
237.7930, 1275.912
238.2751, 1269.250
238.7573, 1262.727
239.2394, 1255.464
239.7215, 1249.554
240.2036, 1246.167
240.6857, 1246.951
241.1678, 1246.398
241.6500, 1243.743
242.1321, 1239.951
242.6142, 1237.437
243.0963, 1236.542
243.5784, 1236.465
244.0605, 1237.073
244.5427, 1239.049
245.0248, 1239.893
245.5069, 1238.911
245.9890, 1237.094
246.4711, 1236.787
246.9532, 1239.180
247.4354, 1241.146
247.9175, 1241.189
248.3996, 1238.210
248.8817, 1237.024
249.3638, 1238.331
249.8459, 1241.064
250.3281, 1243.285
250.8102, 1244.858
251.2923, 1246.195
251.7744, 1247.382
252.2565, 1248.301
252.7386, 1249.568
253.2208, 1251.285
253.7029, 1253.277
254.1850, 1255.357
254.6671, 1257.693
255.1492, 1259.748
255.6313, 1261.179
256.1135, 1261.776
256.5956, 1263.035
257.0777, 1265.191
257.5598, 1267.717
258.0419, 1269.919
258.5240, 1271.679
259.0062, 1273.268
259.4883, 1274.675
259.9704, 1275.839
260.4525, 1277.376
260.9346, 1279.528
261.4167, 1281.736
261.8989, 1283.172
262.3810, 1283.261
262.8631, 1284.171
263.3452, 1286.660
263.8273, 1290.770
264.3094, 1294.209
264.7916, 1296.724
265.2737, 1299.122
265.7558, 1302.489
266.2379, 1307.438
266.7200, 1311.299
267.2021, 1313.435
267.6843, 1313.974
268.1664, 1314.208
268.6485, 1314.024
269.1306, 1313.742
269.6127, 1313.596
270.0948, 1313.560
270.5770, 1313.639
271.0591, 1313.695
271.5412, 1313.839
272.0233, 1314.807
272.5054, 1316.803
272.9875, 1318.969
273.4697, 1320.445
273.9518, 1320.983
274.4339, 1322.558
274.9160, 1325.575
275.3981, 1329.668
275.8802, 1334.177
276.3624, 1339.357
276.8445, 1343.713
277.3266, 1345.469
277.8087, 1344.306
278.2908, 1345.555
278.7729, 1349.927
279.2551, 1356.621
279.7372, 1364.271
280.2193, 1373.170
280.7014, 1381.313
281.1835, 1386.969
281.6656, 1390.199
282.1478, 1395.369
282.6299, 1402.906
283.1120, 1411.929
283.5941, 1421.126
284.0762, 1430.535
284.5583, 1440.103
285.0405, 1449.846
285.5226, 1459.779
286.0047, 1470.011
286.4868, 1480.529
286.9689, 1491.389
287.4510, 1502.850
287.9332, 1514.874
288.4153, 1526.789
288.8974, 1537.245
289.3795, 1547.189
289.8616, 1560.218
290.3438, 1576.554
290.8259, 1594.396
291.3080, 1611.370
291.7901, 1627.766
292.2722, 1646.408
292.7543, 1668.324
293.2365, 1692.813
293.7186, 1718.319
294.2007, 1744.628
294.6828, 1771.821
295.1649, 1800.354
295.6470, 1829.701
296.1292, 1859.417
296.6113, 1890.062
297.0934, 1919.777
297.5755, 1947.733
298.0576, 1973.608
298.5397, 1992.861
299.0219, 2002.226
299.5040, 2002.796
299.9861, 1996.811
300.4682, 1984.697
300.9503, 1966.344
301.4324, 1939.590
301.9146, 1905.783
302.3967, 1869.359
302.8788, 1831.955
303.3609, 1794.199
303.8430, 1757.100
304.3251, 1720.279
304.8073, 1686.109
305.2894, 1656.614
305.7715, 1631.365
306.2536, 1608.489
306.7357, 1586.997
307.2178, 1567.620
307.7000, 1551.660
308.1821, 1539.332
308.6642, 1529.018
309.1463, 1520.112
309.6284, 1512.364
310.1105, 1505.274
310.5927, 1498.265
311.0748, 1492.209
311.5569, 1487.904
312.0390, 1485.367
312.5211, 1483.402
313.0032, 1481.561
313.4854, 1479.843
313.9675, 1478.270
314.4496, 1475.954
314.9317, 1474.633
315.4138, 1475.672
315.8959, 1478.739
316.3781, 1481.716
316.8602, 1483.945
317.3423, 1485.589
317.8244, 1486.637
318.3065, 1485.943
318.7886, 1486.302
319.2708, 1488.262
319.7529, 1491.920
320.2350, 1497.568
320.7171, 1507.088
321.1992, 1517.186
321.6813, 1526.218
322.1635, 1533.622
322.6456, 1540.702
323.1277, 1546.845
323.6098, 1552.922
324.0919, 1560.431
324.5740, 1570.470
325.0562, 1581.071
325.5383, 1591.781
326.0204, 1602.702
326.5025, 1613.208
326.9846, 1622.572
327.4667, 1631.778
327.9489, 1641.995
328.4310, 1654.342
328.9131, 1666.535
329.3952, 1678.450
329.8773, 1690.112
330.3594, 1701.209
330.8416, 1711.740
331.3237, 1721.606
331.8058, 1730.715
332.2879, 1739.192
332.7700, 1746.557
333.2521, 1751.546
333.7343, 1755.245
334.2164, 1763.419
334.6985, 1778.447
335.1806, 1794.053
335.6627, 1806.939
336.1448, 1816.276
336.6270, 1825.381
337.1091, 1835.531
337.5912, 1844.480
338.0733, 1848.020
338.5554, 1846.227
339.0375, 1838.679
339.5197, 1823.762
340.0018, 1801.160
340.4839, 1779.549
340.9660, 1759.586
341.4481, 1740.057
341.9302, 1719.639
342.4124, 1698.022
342.8945, 1677.209
343.3766, 1656.934
343.8587, 1637.898
344.3408, 1622.618
344.8229, 1611.333
345.3051, 1602.755
345.7872, 1596.448
346.2693, 1592.161
346.7514, 1587.918
347.2335, 1583.031
347.7156, 1578.442
348.1978, 1576.002
348.6799, 1575.676
349.1620, 1576.896
349.6441, 1579.996
350.1262, 1584.337
350.6083, 1588.308
351.0905, 1591.648
351.5726, 1595.030
352.0547, 1598.288
352.5368, 1602.053
353.0189, 1608.239
353.5010, 1619.550
353.9832, 1632.984
354.4653, 1644.402
354.9474, 1653.620
355.4295, 1663.697
355.9116, 1676.638
356.3937, 1692.149
356.8759, 1709.589
357.3580, 1730.865
357.8401, 1752.375
358.3222, 1770.912
358.8043, 1787.191
359.2864, 1804.448
359.7686, 1824.877
360.2507, 1846.907
360.7328, 1868.861
361.2149, 1889.821
361.6970, 1911.877
362.1791, 1935.569
362.6613, 1960.934
363.1434, 1988.079
363.6255, 2015.884
364.1076, 2046.356
364.5897, 2080.711
365.0718, 2118.646
365.5540, 2159.610
366.0361, 2203.938
366.5182, 2251.050
367.0003, 2300.255
367.4824, 2352.904
367.9645, 2406.200
368.4467, 2460.746
368.9288, 2515.822
369.4109, 2568.908
369.8930, 2623.843
370.3751, 2673.936
370.8572, 2715.219
371.3394, 2749.404
371.8215, 2771.585
372.3036, 2783.206
372.7857, 2782.421
373.2678, 2762.586
373.7499, 2720.494
374.2321, 2664.596
374.7142, 2597.237
375.1963, 2514.999
375.6784, 2433.502
376.1605, 2352.680
376.6426, 2273.200
377.1248, 2197.970
377.6069, 2125.682
378.0890, 2060.438
378.5711, 2004.703
379.0532, 1957.476
379.5353, 1915.487
380.0175, 1878.523
380.4996, 1846.025
380.9817, 1818.170
381.4638, 1794.733
381.9459, 1772.537
382.4280, 1750.589
382.9102, 1730.355
383.3923, 1716.297
383.8744, 1707.797
384.3565, 1699.888
384.8386, 1688.944
385.3207, 1676.386
385.8029, 1665.366
386.2850, 1656.091
386.7671, 1648.317
387.2492, 1642.207
387.7313, 1637.360
388.2134, 1632.989
388.6956, 1629.618
389.1777, 1626.067
389.6598, 1620.558
390.1419, 1613.281
390.6240, 1607.063
391.1061, 1604.451
391.5883, 1603.422
392.0704, 1601.828
392.5525, 1598.657
393.0346, 1595.449
393.5167, 1592.414
393.9988, 1589.807
394.4810, 1588.291
394.9631, 1588.580
395.4452, 1589.639
395.9273, 1591.152
396.4094, 1593.421
396.8915, 1595.035
397.3737, 1595.577
397.8558, 1595.352
398.3379, 1594.735
398.8200, 1592.446
399.3021, 1591.122
399.7842, 1591.558
400.2664, 1593.730
400.7485, 1595.623
401.2306, 1597.506
401.7127, 1598.786
402.1948, 1598.949
402.6769, 1597.181
403.1591, 1596.032
403.6412, 1595.787
404.1233, 1596.171
404.6054, 1596.642
405.0875, 1597.412
405.5696, 1597.633
406.0518, 1596.691
406.5339, 1594.544
407.0160, 1593.284
407.4981, 1593.083
407.9802, 1593.401
408.4623, 1593.630
408.9445, 1593.796
409.4266, 1594.240
409.9087, 1595.128
410.3908, 1596.329
410.8729, 1597.509
411.3550, 1598.690
411.8372, 1599.974
412.3193, 1601.441
412.8014, 1603.079
413.2835, 1604.927
413.7656, 1607.061
414.2477, 1609.128
414.7299, 1610.291
415.2120, 1611.025
415.6941, 1612.465
416.1762, 1616.225
416.6583, 1620.180
417.1404, 1622.003
417.6226, 1621.733
418.1047, 1621.756
418.5868, 1623.619
419.0689, 1626.332
419.5510, 1629.057
420.0331, 1632.313
420.5153, 1634.503
420.9974, 1634.173
421.4795, 1632.249
421.9616, 1631.080
422.4437, 1632.179
422.9258, 1633.417
423.4080, 1633.884
423.8901, 1633.326
424.3722, 1632.850
424.8543, 1632.526
425.3364, 1632.384
425.8185, 1632.418
426.3007, 1632.205
426.7828, 1632.860
427.2649, 1634.964
427.7470, 1638.198
428.2291, 1640.588
428.7112, 1642.153
429.1934, 1642.770
429.6755, 1641.810
430.1576, 1638.501
430.6397, 1637.781
431.1218, 1640.464
431.6039, 1644.621
432.0861, 1647.304
432.5682, 1648.425
433.0503, 1649.233
433.5324, 1650.133
434.0145, 1651.081
434.4966, 1651.803
434.9788, 1652.299
435.4609, 1652.982
435.9430, 1653.869
436.4251, 1655.234
436.9072, 1658.088
437.3893, 1663.197
437.8715, 1668.407
438.3536, 1670.993
438.8357, 1671.632
439.3178, 1672.212
439.7999, 1673.730
440.2820, 1675.587
440.7642, 1677.488
441.2463, 1679.409
441.7284, 1680.503
442.2105, 1679.839
442.6926, 1678.315
443.1747, 1676.762
443.6569, 1674.533
444.1390, 1673.307
444.6211, 1674.366
445.1032, 1676.924
445.5853, 1678.681
446.0674, 1678.600
446.5496, 1678.234
447.0317, 1678.092
447.5138, 1678.177
447.9959, 1678.728
448.4780, 1680.161
448.9601, 1681.852
449.4423, 1683.252
449.9244, 1684.455
450.4065, 1685.201
450.8886, 1685.301
451.3707, 1684.932
451.8528, 1684.693
452.3350, 1684.371
452.8171, 1684.787
453.2992, 1686.533
453.7813, 1689.612
454.2634, 1692.959
454.7455, 1696.722
455.2277, 1700.154
455.7098, 1702.267
456.1919, 1703.143
456.6740, 1703.462
457.1561, 1702.735
457.6382, 1702.174
458.1204, 1704.933
458.6025, 1710.489
459.0846, 1714.818
459.5667, 1713.638
460.0488, 1710.305
460.5309, 1709.511
461.0131, 1712.432
461.4952, 1715.551
461.9773, 1715.829
462.4594, 1714.851
462.9415, 1714.937
463.4236, 1717.616
463.9058, 1720.911
464.3879, 1724.598
464.8700, 1728.432
465.3521, 1730.958
465.8342, 1729.940
466.3163, 1728.896
466.7985, 1729.911
467.2806, 1734.898
467.7627, 1738.698
468.2448, 1740.825
468.7269, 1741.851
469.2090, 1742.564
469.6912, 1742.804
470.1733, 1742.972
470.6554, 1742.867
471.1375, 1742.637
471.6196, 1744.068
472.1017, 1747.761
472.5839, 1751.414
473.0660, 1753.489
473.5481, 1753.964
474.0302, 1753.829
474.5123, 1752.837
474.9944, 1752.184
475.4766, 1753.885
475.9587, 1757.689
476.4408, 1761.970
476.9229, 1766.830
477.4050, 1771.327
477.8871, 1773.048
478.3693, 1772.356
478.8514, 1772.410
479.3335, 1775.889
479.8156, 1781.202
480.2977, 1786.470
480.7798, 1791.297
481.2620, 1796.180
481.7441, 1801.562
482.2262, 1807.105
482.7083, 1812.313
483.1904, 1816.081
483.6725, 1820.362
484.1547, 1826.481
484.6368, 1834.186
485.1189, 1840.449
485.6010, 1843.138
486.0831, 1845.610
486.5652, 1849.613
487.0474, 1856.355
487.5295, 1862.119
488.0116, 1866.945
488.4937, 1870.693
488.9758, 1873.296
489.4579, 1874.954
489.9401, 1874.728
490.4222, 1871.811
490.9043, 1866.918
491.3864, 1863.509
491.8685, 1861.825
492.3506, 1859.866
492.8328, 1855.873
493.3149, 1850.359
493.7970, 1845.607
494.2791, 1841.860
494.7612, 1838.506
495.2433, 1834.602
495.7255, 1830.502
496.2076, 1827.051
496.6897, 1824.697
497.1718, 1823.012
497.6539, 1821.611
498.1360, 1820.563
498.6182, 1820.098
499.1003, 1821.274
499.5824, 1822.447
500.0645, 1822.073
500.5466, 1819.381
501.0287, 1817.859
501.5109, 1819.519
501.9930, 1822.361
502.4751, 1824.370
502.9572, 1824.094
503.4393, 1824.366
503.9214, 1825.355
504.4036, 1827.082
504.8857, 1829.808
505.3678, 1834.381
505.8499, 1838.546
506.3320, 1841.359
506.8141, 1842.753
507.2963, 1843.631
507.7784, 1843.620
508.2605, 1844.151
508.7426, 1847.057
509.2247, 1852.178
509.7068, 1857.151
510.1890, 1861.563
510.6711, 1865.559
511.1532, 1869.570
511.6353, 1873.419
512.1174, 1876.208
512.5995, 1875.727
513.0817, 1874.884
513.5638, 1877.479
514.0459, 1883.479
514.5280, 1890.343
515.0101, 1897.187
515.4922, 1903.803
515.9744, 1909.935
516.4565, 1915.594
516.9386, 1920.783
517.4207, 1924.759
517.9028, 1928.433
518.3849, 1933.286
518.8671, 1941.474
519.3492, 1948.794
519.8313, 1954.129
520.3134, 1957.572
520.7955, 1961.448
521.2776, 1966.607
521.7598, 1970.912
522.2419, 1973.043
522.7240, 1972.727
523.2061, 1971.891
523.6882, 1970.944
524.1703, 1968.610
524.6525, 1962.285
525.1346, 1952.252
525.6167, 1943.319
526.0988, 1937.138
526.5809, 1932.550
527.0630, 1927.650
527.5452, 1922.545
528.0273, 1917.662
528.5094, 1912.818
528.9915, 1908.538
529.4736, 1905.454
529.9557, 1903.619
530.4379, 1902.349
530.9200, 1901.177
531.4021, 1900.345
531.8842, 1900.106
532.3663, 1900.893
532.8484, 1901.684
533.3306, 1902.224
533.8127, 1902.569
534.2948, 1902.839
534.7769, 1902.542
535.2590, 1902.755
535.7411, 1903.756
536.2233, 1905.539
536.7054, 1907.855
537.1875, 1911.097
537.6696, 1914.155
538.1517, 1916.199
538.6339, 1917.130
539.1160, 1918.350
539.5981, 1919.861
540.0802, 1921.912
540.5623, 1925.068
541.0444, 1929.177
541.5266, 1933.411
542.0087, 1937.313
542.4908, 1941.410
542.9729, 1947.003
543.4550, 1953.549
543.9371, 1959.097
544.4193, 1961.461
544.9014, 1963.107
545.3835, 1965.977
545.8656, 1970.253
546.3477, 1975.301
546.8298, 1981.964
547.3120, 1988.730
547.7941, 1994.270
548.2762, 1996.430
548.7583, 2000.094
549.2404, 2007.885
549.7225, 2016.710
550.2047, 2021.037
550.6868, 2018.527
551.1689, 2016.086
551.6510, 2015.881
552.1331, 2017.290
552.6152, 2016.117
553.0974, 2012.157
553.5795, 2006.767
554.0616, 2000.520
554.5437, 1993.552
555.0258, 1986.143
555.5079, 1978.111
555.9901, 1971.068
556.4722, 1966.852
556.9543, 1964.787
557.4364, 1963.548
557.9185, 1963.154
558.4006, 1962.793
558.8828, 1961.301
559.3649, 1959.305
559.8470, 1958.245
560.3291, 1958.897
560.8112, 1960.353
561.2933, 1962.813
561.7755, 1966.240
562.2576, 1968.067
562.7397, 1966.576
563.2218, 1964.418
563.7039, 1962.777
564.1860, 1961.599
564.6682, 1961.140
565.1503, 1961.551
565.6324, 1962.545
566.1145, 1963.674
566.5966, 1964.921
567.0787, 1967.203
567.5609, 1971.517
568.0430, 1976.064
568.5251, 1975.882
569.0072, 1971.595
569.4893, 1968.067
569.9714, 1968.451
570.4536, 1970.930
570.9357, 1973.149
571.4178, 1975.033
571.8999, 1976.669
572.3820, 1978.114
572.8641, 1979.287
573.3463, 1979.873
573.8284, 1979.212
574.3105, 1979.588
574.7926, 1983.489
575.2747, 1988.123
575.7568, 1989.908
576.2390, 1985.021
576.7211, 1981.990
577.2032, 1982.123
577.6853, 1984.758
578.1674, 1987.983
578.6495, 1992.412
579.1317, 1995.595
579.6138, 1995.764
580.0959, 1993.509
580.5780, 1994.111
581.0601, 1997.824
581.5422, 2001.800
582.0244, 2003.733
582.5065, 2004.107
582.9886, 2003.808
583.4707, 2002.767
583.9528, 2002.143
584.4349, 2003.021
584.9171, 2004.969
585.3992, 2007.343
585.8813, 2010.028
