##NAMES=Johnbaumite
##RRUFFID=R070753
##IDEAL CHEMISTRY=Ca_5_(As^5+^O_4_)_3_OH
##LOCALITY=Sterling Mine, Sterling Hill, Ogdensburg, Franklin Mining District, Sussex County, New Jersey, USA
##OWNER=RRUFF
##SOURCE=Michael Scott
##DESCRIPTION=Pale brown to gray massive
##STATUS=The identification of this mineral has been confirmed only by single crystal X-ray diffraction.
##URL=rruff.info/R070753
87.96063, 3880.192
88.44275, 3976.383
88.92487, 4079.893
89.40698, 4176.443
89.88910, 4265.314
90.37122, 4349.557
90.85333, 4432.986
91.33545, 4515.828
91.81757, 4594.126
92.29968, 4661.431
92.78180, 4719.371
93.26392, 4751.748
93.74603, 4697.262
94.22815, 4600.730
94.71027, 4532.063
95.19238, 4512.782
95.67450, 4522.925
96.15662, 4501.906
96.63873, 4432.039
97.12085, 4356.620
97.60297, 4294.694
98.08508, 4245.320
98.56720, 4213.723
99.04932, 4217.484
99.53143, 4239.242
100.0135, 4249.370
100.4957, 4232.325
100.9778, 4199.869
101.4599, 4178.527
101.9420, 4175.754
102.4241, 4170.532
102.9063, 4142.999
103.3884, 4102.656
103.8705, 4073.063
104.3526, 4079.559
104.8347, 4127.364
105.3168, 4159.147
105.7990, 4158.954
106.2811, 4153.791
106.7632, 4158.693
107.2453, 4173.896
107.7274, 4186.050
108.2095, 4172.313
108.6917, 4101.093
109.1738, 4056.756
109.6559, 4052.494
110.1380, 4066.559
110.6201, 4081.152
111.1022, 4088.439
111.5844, 4090.211
112.0665, 4092.508
112.5486, 4091.427
113.0307, 4094.898
113.5128, 4104.597
113.9949, 4120.017
114.4771, 4142.151
114.9592, 4175.267
115.4413, 4215.207
115.9234, 4234.141
116.4055, 4208.528
116.8876, 4179.757
117.3698, 4185.701
117.8519, 4230.267
118.3340, 4273.408
118.8161, 4271.749
119.2982, 4239.199
119.7803, 4213.792
120.2624, 4212.714
120.7446, 4226.456
121.2267, 4232.479
121.7088, 4225.884
122.1909, 4215.295
122.6730, 4203.854
123.1551, 4192.784
123.6373, 4188.183
124.1194, 4202.435
124.6015, 4238.394
125.0836, 4253.884
125.5657, 4209.765
126.0478, 4166.286
126.5300, 4157.354
127.0121, 4187.467
127.4942, 4231.912
127.9763, 4254.000
128.4584, 4242.643
128.9406, 4228.486
129.4227, 4208.571
129.9048, 4190.214
130.3869, 4180.200
130.8690, 4181.573
131.3511, 4191.483
131.8333, 4200.013
132.3154, 4212.122
132.7975, 4217.100
133.2796, 4210.298
133.7617, 4195.673
134.2438, 4179.226
134.7260, 4164.361
135.2081, 4151.237
135.6902, 4141.307
136.1723, 4135.621
136.6544, 4131.455
137.1365, 4128.140
137.6187, 4125.458
138.1008, 4122.700
138.5829, 4119.413
139.0650, 4115.508
139.5471, 4110.678
140.0292, 4108.493
140.5114, 4103.770
140.9935, 4088.138
141.4756, 4058.254
141.9577, 4027.432
142.4398, 4011.291
142.9219, 4006.743
143.4041, 4000.448
143.8862, 3981.559
144.3683, 3955.635
144.8504, 3941.786
145.3325, 3947.563
145.8146, 3962.039
146.2968, 3980.106
146.7789, 4000.867
147.2610, 4013.878
147.7431, 4005.472
148.2252, 3972.886
148.7073, 3947.666
149.1895, 3941.469
149.6716, 3941.039
150.1537, 3943.742
150.6358, 3948.402
151.1179, 3947.703
151.6000, 3924.530
152.0821, 3853.408
152.5643, 3816.708
153.0464, 3849.559
153.5285, 3901.662
154.0106, 3927.841
154.4927, 3908.683
154.9748, 3860.236
155.4570, 3831.933
155.9391, 3840.430
156.4212, 3852.539
156.9033, 3873.589
157.3854, 3894.558
157.8675, 3901.569
158.3497, 3884.954
158.8318, 3848.025
159.3139, 3829.012
159.7960, 3843.622
160.2781, 3857.302
160.7602, 3858.012
161.2424, 3848.464
161.7245, 3837.619
162.2066, 3831.198
162.6887, 3829.800
163.1708, 3836.865
163.6529, 3862.762
164.1351, 3888.361
164.6172, 3899.354
165.0993, 3895.222
165.5814, 3887.637
166.0635, 3888.246
166.5456, 3896.795
167.0278, 3899.597
167.5099, 3887.217
167.9920, 3871.466
168.4741, 3867.985
168.9562, 3880.644
169.4383, 3898.936
169.9205, 3915.864
170.4026, 3931.270
170.8847, 3938.604
171.3668, 3928.043
171.8489, 3906.760
172.3310, 3897.040
172.8132, 3909.356
173.2953, 3924.238
173.7774, 3923.049
174.2595, 3906.999
174.7416, 3890.756
175.2237, 3885.024
175.7059, 3889.503
176.1880, 3894.099
176.6701, 3898.032
177.1522, 3900.815
177.6343, 3902.223
178.1164, 3902.219
178.5986, 3900.792
179.0807, 3896.761
179.5628, 3888.540
180.0449, 3884.417
180.5270, 3892.958
181.0091, 3901.227
181.4913, 3897.824
181.9734, 3880.244
182.4555, 3860.156
182.9376, 3859.432
183.4197, 3893.699
183.9018, 3916.390
184.3840, 3914.666
184.8661, 3905.428
185.3482, 3903.770
185.8303, 3915.793
186.3124, 3935.508
186.7945, 3947.359
187.2767, 3943.093
187.7588, 3940.603
188.2409, 3940.032
188.7230, 3942.349
189.2051, 3950.167
189.6872, 3965.314
190.1694, 3984.673
190.6515, 3993.698
191.1336, 3975.140
191.6157, 3965.348
192.0978, 3977.894
192.5799, 4003.158
193.0621, 4024.153
193.5442, 4030.544
194.0263, 4023.839
194.5084, 4018.584
194.9905, 4009.149
195.4726, 4006.208
195.9548, 4021.768
196.4369, 4048.993
196.9190, 4066.611
197.4011, 4057.809
197.8832, 4024.794
198.3653, 4003.896
198.8475, 3994.192
199.3296, 3995.795
199.8117, 4013.366
200.2938, 4045.398
200.7759, 4079.879
201.2580, 4110.907
201.7402, 4136.654
202.2223, 4151.768
202.7044, 4151.858
203.1865, 4143.886
203.6686, 4130.619
204.1507, 4111.743
204.6329, 4096.473
205.1150, 4093.895
205.5971, 4101.435
206.0792, 4110.322
206.5613, 4119.634
207.0434, 4129.133
207.5256, 4139.435
208.0077, 4151.453
208.4898, 4160.775
208.9719, 4160.935
209.4540, 4155.337
209.9361, 4151.681
210.4183, 4154.247
210.9004, 4160.468
211.3825, 4165.055
211.8646, 4167.970
212.3467, 4168.629
212.8288, 4163.377
213.3110, 4155.215
213.7931, 4152.158
214.2752, 4165.093
214.7573, 4188.313
215.2394, 4195.961
215.7215, 4176.353
216.2037, 4156.237
216.6858, 4149.429
217.1679, 4154.077
217.6500, 4164.608
218.1321, 4181.717
218.6142, 4204.241
219.0964, 4217.015
219.5785, 4214.398
220.0606, 4206.896
220.5427, 4197.590
221.0248, 4187.465
221.5069, 4178.341
221.9891, 4170.633
222.4712, 4164.149
222.9533, 4163.579
223.4354, 4181.790
223.9175, 4194.473
224.3996, 4185.051
224.8818, 4159.148
225.3639, 4137.384
225.8460, 4142.604
226.3281, 4180.383
226.8102, 4205.822
227.2923, 4208.379
227.7745, 4206.898
228.2566, 4208.353
228.7387, 4212.726
229.2208, 4215.968
229.7029, 4212.968
230.1850, 4201.209
230.6672, 4194.617
231.1493, 4199.937
231.6314, 4204.344
232.1135, 4200.337
232.5956, 4188.649
233.0777, 4175.814
233.5599, 4168.641
234.0420, 4167.558
234.5241, 4171.330
235.0062, 4176.896
235.4883, 4188.747
235.9704, 4216.389
236.4526, 4256.394
236.9347, 4291.862
237.4168, 4301.195
237.8989, 4271.874
238.3810, 4257.495
238.8631, 4266.878
239.3453, 4281.355
239.8274, 4290.097
240.3095, 4291.984
240.7916, 4292.216
241.2737, 4296.519
241.7558, 4305.082
242.2380, 4318.394
242.7201, 4339.366
243.2022, 4362.063
243.6843, 4384.941
244.1664, 4406.753
244.6485, 4424.574
245.1307, 4434.463
245.6128, 4432.971
246.0949, 4433.924
246.5770, 4444.723
247.0591, 4452.664
247.5412, 4442.690
248.0234, 4415.464
248.5055, 4390.301
248.9876, 4389.301
249.4697, 4419.781
249.9518, 4454.696
250.4339, 4508.500
250.9161, 4556.813
251.3982, 4581.429
251.8803, 4580.102
252.3624, 4561.302
252.8445, 4529.529
253.3266, 4475.614
253.8088, 4454.261
254.2909, 4498.627
254.7730, 4552.977
255.2551, 4571.177
255.7372, 4548.109
256.2193, 4512.806
256.7014, 4494.083
257.1836, 4496.121
257.6657, 4499.731
258.1478, 4503.781
258.6299, 4510.098
259.1120, 4522.017
259.5941, 4539.460
260.0763, 4556.315
260.5584, 4566.091
261.0405, 4567.365
261.5226, 4571.210
262.0047, 4581.567
262.4868, 4592.042
262.9690, 4596.195
263.4511, 4593.702
263.9332, 4590.811
264.4153, 4593.055
264.8974, 4601.024
265.3795, 4609.755
265.8617, 4610.531
266.3438, 4617.803
266.8259, 4652.324
267.3080, 4713.565
267.7901, 4767.816
268.2722, 4783.951
268.7544, 4761.406
269.2365, 4748.211
269.7186, 4749.141
270.2007, 4757.211
270.6828, 4770.335
271.1649, 4787.771
271.6471, 4801.412
272.1292, 4803.042
272.6113, 4794.039
273.0934, 4792.577
273.5755, 4801.075
274.0576, 4815.591
274.5398, 4835.895
275.0219, 4861.212
275.5040, 4885.304
275.9861, 4904.103
276.4682, 4917.581
276.9503, 4928.819
277.4325, 4935.658
277.9146, 4942.077
278.3967, 4947.221
278.8788, 4952.326
279.3609, 4967.724
279.8430, 5004.651
280.3252, 5056.402
280.8073, 5093.778
281.2894, 5104.548
281.7715, 5112.568
282.2536, 5137.115
282.7357, 5174.389
283.2179, 5200.742
283.7000, 5197.919
284.1821, 5178.233
284.6642, 5179.922
285.1463, 5209.177
285.6284, 5250.635
286.1106, 5304.900
286.5927, 5367.247
287.0748, 5417.011
287.5569, 5443.456
288.0390, 5452.328
288.5211, 5459.959
289.0033, 5466.064
289.4854, 5471.632
289.9675, 5468.757
290.4496, 5464.269
290.9317, 5483.566
291.4138, 5545.624
291.8960, 5624.424
292.3781, 5663.106
292.8602, 5646.204
293.3423, 5638.703
293.8244, 5672.111
294.3065, 5733.919
294.7887, 5798.196
295.2708, 5859.363
295.7529, 5913.913
296.2350, 5954.527
296.7171, 5982.806
297.1992, 5999.532
297.6814, 5992.420
298.1635, 5976.158
298.6456, 5978.327
299.1277, 6008.329
299.6098, 6050.255
300.0919, 6083.490
300.5741, 6107.967
301.0562, 6129.110
301.5383, 6142.390
302.0204, 6154.833
302.5025, 6180.723
302.9846, 6224.683
303.4668, 6264.622
303.9489, 6266.078
304.4310, 6225.345
304.9131, 6215.685
305.3952, 6269.416
305.8773, 6346.599
306.3595, 6410.560
306.8416, 6456.724
307.3237, 6488.544
307.8058, 6506.003
308.2879, 6508.286
308.7701, 6513.133
309.2522, 6517.100
309.7343, 6526.777
310.2164, 6546.441
310.6985, 6576.434
311.1806, 6617.869
311.6628, 6675.890
312.1449, 6748.587
312.6270, 6808.501
313.1091, 6842.055
313.5912, 6875.110
314.0733, 6931.404
314.5555, 7003.400
315.0376, 7055.791
315.5197, 7058.489
316.0018, 7025.737
316.4839, 7040.663
316.9660, 7137.623
317.4482, 7237.210
317.9303, 7310.024
318.4124, 7363.046
318.8945, 7413.409
319.3766, 7468.645
319.8587, 7527.507
320.3409, 7584.730
320.8230, 7637.787
321.3051, 7692.953
321.7872, 7754.046
322.2693, 7817.492
322.7514, 7878.947
323.2336, 7937.142
323.7157, 7990.541
324.1978, 8035.966
324.6799, 8066.930
325.1620, 8101.059
325.6441, 8140.118
326.1263, 8182.348
326.6084, 8223.608
327.0905, 8263.240
327.5726, 8309.716
328.0547, 8379.151
328.5368, 8496.215
329.0190, 8568.896
329.5011, 8570.520
329.9832, 8549.248
330.4653, 8533.087
330.9474, 8528.170
331.4295, 8533.286
331.9117, 8548.525
332.3938, 8576.728
332.8759, 8598.930
333.3580, 8607.222
333.8401, 8617.869
334.3222, 8645.656
334.8044, 8684.185
335.2865, 8714.221
335.7686, 8720.805
336.2507, 8704.197
336.7328, 8679.204
337.2149, 8629.627
337.6971, 8589.552
338.1792, 8572.766
338.6613, 8570.898
339.1434, 8569.084
339.6255, 8558.637
340.1076, 8542.254
340.5898, 8531.963
341.0719, 8546.399
341.5540, 8542.549
342.0361, 8498.684
342.5182, 8441.861
343.0003, 8400.723
343.4825, 8386.511
343.9646, 8390.731
344.4467, 8397.051
344.9288, 8406.042
345.4109, 8416.227
345.8930, 8430.538
346.3752, 8443.716
346.8573, 8451.418
347.3394, 8452.996
347.8215, 8451.852
348.3036, 8454.117
348.7857, 8463.656
349.2679, 8461.020
349.7500, 8422.425
350.2321, 8390.935
350.7142, 8393.203
351.1963, 8423.779
351.6784, 8455.426
352.1606, 8462.548
352.6427, 8446.109
353.1248, 8439.115
353.6069, 8446.852
354.0890, 8458.501
354.5711, 8473.428
355.0533, 8488.589
355.5354, 8498.674
356.0175, 8500.639
356.4996, 8495.469
356.9817, 8485.573
357.4638, 8470.202
357.9460, 8451.372
358.4281, 8426.528
358.9102, 8400.186
359.3923, 8377.320
359.8744, 8359.350
360.3565, 8345.729
360.8387, 8342.073
361.3208, 8351.559
361.8029, 8341.384
362.2850, 8287.591
362.7671, 8217.107
363.2492, 8155.227
363.7314, 8104.607
364.2135, 8060.753
364.6956, 8023.690
365.1777, 7991.835
365.6598, 7954.260
366.1419, 7904.513
366.6241, 7854.990
367.1062, 7818.583
367.5883, 7794.409
368.0704, 7773.921
368.5525, 7760.097
369.0346, 7746.199
369.5168, 7717.173
369.9989, 7668.583
370.4810, 7620.924
370.9631, 7592.885
371.4452, 7581.432
371.9273, 7568.925
372.4095, 7549.961
372.8916, 7531.469
373.3737, 7525.844
373.8558, 7530.061
374.3379, 7518.477
374.8200, 7470.501
375.3022, 7396.313
375.7843, 7341.061
376.2664, 7306.788
376.7485, 7285.926
377.2306, 7286.645
377.7127, 7297.766
378.1949, 7296.265
378.6770, 7272.163
379.1591, 7235.880
379.6412, 7210.140
380.1233, 7209.848
380.6054, 7191.893
381.0876, 7130.921
381.5697, 7063.476
382.0518, 7027.678
382.5339, 7029.210
383.0160, 7044.595
383.4981, 7045.855
383.9803, 7026.444
384.4624, 7021.652
384.9445, 7060.342
385.4266, 7084.706
385.9087, 7051.418
386.3908, 6976.977
386.8730, 6911.738
387.3551, 6893.599
387.8372, 6917.634
388.3193, 6930.367
388.8014, 6919.611
389.2835, 6910.769
389.7657, 6909.718
390.2478, 6912.440
390.7299, 6915.307
391.2120, 6916.956
391.6941, 6914.075
392.1762, 6895.063
392.6584, 6843.122
393.1405, 6817.583
393.6226, 6848.014
394.1047, 6890.571
394.5868, 6919.516
395.0689, 6929.813
395.5511, 6927.003
396.0332, 6909.279
396.5153, 6876.481
396.9974, 6862.430
397.4795, 6884.010
397.9616, 6907.655
398.4438, 6913.670
398.9259, 6906.086
399.4080, 6897.186
399.8901, 6889.593
400.3722, 6886.188
400.8543, 6894.088
401.3365, 6914.726
401.8186, 6941.373
402.3007, 6977.747
402.7828, 7015.916
403.2649, 7042.007
403.7470, 7047.231
404.2292, 7050.673
404.7113, 7068.616
405.1934, 7098.932
405.6755, 7131.075
406.1576, 7162.976
406.6397, 7192.525
407.1219, 7213.566
407.6040, 7221.970
408.0861, 7241.306
408.5682, 7293.567
409.0503, 7355.081
409.5324, 7389.832
410.0146, 7391.327
410.4967, 7383.888
410.9788, 7389.967
411.4609, 7411.238
411.9430, 7439.654
412.4251, 7485.967
412.9073, 7529.456
413.3894, 7558.160
413.8715, 7574.140
414.3536, 7585.718
414.8357, 7597.973
415.3178, 7609.967
415.8000, 7617.260
416.2821, 7619.927
416.7642, 7617.670
417.2463, 7602.214
417.7284, 7585.710
418.2105, 7582.393
418.6927, 7596.125
419.1748, 7617.824
419.6569, 7633.250
420.1390, 7638.023
420.6211, 7648.566
421.1032, 7676.281
421.5854, 7699.411
422.0675, 7701.768
422.5496, 7688.350
423.0317, 7679.465
423.5138, 7696.769
423.9959, 7732.402
424.4781, 7733.190
424.9602, 7671.524
425.4423, 7621.799
425.9244, 7617.715
426.4065, 7638.257
426.8886, 7658.571
427.3708, 7671.327
427.8529, 7677.967
428.3350, 7676.794
428.8171, 7667.500
429.2992, 7666.064
429.7813, 7684.974
430.2635, 7705.926
430.7456, 7706.820
431.2277, 7686.568
431.7098, 7667.355
432.1919, 7665.106
432.6740, 7669.648
433.1562, 7658.238
433.6383, 7625.691
434.1204, 7596.642
434.6025, 7596.422
435.0846, 7622.195
435.5667, 7631.713
436.0489, 7611.080
436.5310, 7585.357
437.0131, 7565.236
437.4952, 7551.655
437.9773, 7546.114
438.4594, 7549.893
438.9416, 7560.654
439.4237, 7572.341
439.9058, 7593.769
440.3879, 7603.517
440.8700, 7596.420
441.3521, 7579.709
441.8343, 7553.975
442.3164, 7522.368
442.7985, 7497.968
443.2806, 7497.404
443.7627, 7525.174
444.2448, 7544.707
444.7270, 7559.733
445.2091, 7562.343
445.6912, 7537.672
446.1733, 7499.923
446.6554, 7476.343
447.1375, 7484.550
447.6197, 7508.407
448.1018, 7505.167
448.5839, 7463.389
449.0660, 7426.329
449.5481, 7404.650
450.0302, 7392.347
450.5124, 7388.336
450.9945, 7392.339
451.4766, 7395.497
451.9587, 7392.209
452.4408, 7382.436
452.9229, 7362.879
453.4051, 7326.083
453.8872, 7294.827
454.3693, 7298.405
454.8514, 7324.763
455.3335, 7338.035
455.8156, 7322.511
456.2978, 7296.690
456.7799, 7275.320
457.2620, 7257.914
457.7441, 7240.676
458.2262, 7221.406
458.7083, 7201.634
459.1904, 7185.925
459.6725, 7176.169
460.1547, 7166.080
460.6368, 7151.163
461.1189, 7137.109
461.6010, 7135.014
462.0831, 7144.665
462.5652, 7147.923
463.0474, 7122.389
463.5295, 7061.695
464.0116, 7028.452
464.4937, 7046.635
464.9758, 7065.067
465.4579, 7071.537
465.9401, 7066.374
466.4222, 7050.883
466.9043, 7025.121
467.3864, 6993.881
467.8685, 6968.588
468.3506, 6951.874
468.8328, 6933.423
469.3149, 6904.676
469.7970, 6878.737
470.2791, 6867.772
470.7612, 6870.996
471.2433, 6871.870
471.7255, 6859.883
472.2076, 6835.838
472.6897, 6799.893
473.1718, 6747.703
473.6539, 6696.655
474.1360, 6655.903
474.6182, 6624.656
475.1003, 6602.989
475.5824, 6603.960
476.0645, 6597.875
476.5466, 6554.564
477.0287, 6486.566
477.5109, 6431.858
477.9930, 6404.167
478.4751, 6392.966
478.9572, 6384.601
479.4393, 6383.137
479.9214, 6370.599
480.4036, 6339.855
480.8857, 6302.709
481.3678, 6260.735
481.8499, 6218.560
482.3320, 6190.620
482.8141, 6190.000
483.2963, 6210.096
483.7784, 6206.710
484.2605, 6159.704
484.7426, 6114.572
485.2247, 6078.075
485.7068, 6045.699
486.1890, 6008.819
486.6711, 5966.746
487.1532, 5933.694
487.6353, 5937.789
488.1174, 5982.072
488.5995, 5986.292
489.0817, 5920.152
489.5638, 5847.879
490.0459, 5807.352
490.5280, 5788.183
491.0101, 5764.770
491.4922, 5721.920
491.9744, 5676.410
492.4565, 5648.296
492.9386, 5636.740
493.4207, 5631.385
493.9028, 5631.063
494.3849, 5631.657
494.8671, 5625.108
495.3492, 5609.986
495.8313, 5595.821
496.3134, 5592.553
496.7955, 5586.539
497.2776, 5558.679
497.7598, 5510.459
498.2419, 5464.327
498.7240, 5439.585
499.2061, 5434.050
499.6882, 5417.100
500.1703, 5375.327
500.6525, 5338.344
501.1346, 5308.363
501.6167, 5286.956
502.0988, 5279.563
502.5809, 5286.508
503.0630, 5294.510
503.5452, 5284.111
504.0273, 5252.009
504.5094, 5226.049
504.9915, 5212.568
505.4736, 5199.041
505.9557, 5179.216
506.4379, 5154.913
506.9200, 5129.478
507.4021, 5100.147
507.8842, 5075.519
508.3663, 5075.074
508.8484, 5097.525
509.3306, 5103.593
509.8127, 5073.623
510.2948, 5028.046
510.7769, 4996.704
511.2590, 4979.815
511.7411, 4969.107
512.2233, 4968.787
512.7054, 4969.712
513.1875, 4961.477
513.6696, 4944.491
514.1517, 4927.594
514.6339, 4917.313
515.1160, 4912.179
515.5981, 4903.032
516.0802, 4887.371
516.5623, 4870.543
517.0444, 4852.547
517.5266, 4833.825
518.0087, 4811.894
518.4908, 4787.589
518.9729, 4768.996
519.4550, 4768.168
519.9371, 4785.756
520.4193, 4795.132
520.9014, 4797.872
521.3835, 4789.133
521.8656, 4756.868
522.3477, 4715.698
522.8298, 4690.379
523.3120, 4693.193
523.7941, 4702.190
524.2762, 4693.341
524.7583, 4670.620
525.2404, 4656.593
525.7225, 4660.444
526.2047, 4665.817
526.6868, 4649.696
527.1689, 4610.835
527.6510, 4584.221
528.1331, 4581.730
528.6152, 4584.713
529.0974, 4585.543
529.5795, 4581.785
530.0616, 4567.188
530.5437, 4537.583
531.0258, 4501.639
531.5079, 4481.314
531.9901, 4488.034
532.4722, 4489.961
532.9543, 4483.614
533.4364, 4475.300
533.9185, 4468.175
534.4006, 4462.634
534.8828, 4458.464
535.3649, 4456.571
535.8470, 4455.362
536.3291, 4448.384
536.8112, 4432.993
537.2933, 4422.156
537.7755, 4427.830
538.2576, 4436.173
538.7397, 4428.684
539.2218, 4401.396
539.7039, 4378.323
540.1860, 4374.842
540.6682, 4381.658
541.1503, 4386.932
541.6324, 4388.945
542.1145, 4383.099
542.5966, 4362.644
543.0787, 4330.931
543.5609, 4317.371
544.0430, 4342.194
544.5251, 4357.347
545.0072, 4344.486
545.4893, 4322.040
545.9714, 4312.280
546.4536, 4318.837
546.9357, 4325.757
547.4178, 4312.941
547.8999, 4279.336
548.3820, 4257.563
548.8641, 4243.470
549.3463, 4248.692
549.8284, 4300.490
550.3105, 4363.396
550.7926, 4383.970
551.2747, 4338.834
551.7568, 4281.863
552.2390, 4267.361
552.7211, 4283.845
553.2032, 4282.977
553.6853, 4251.642
554.1674, 4217.266
554.6495, 4208.324
555.1317, 4224.146
555.6138, 4225.556
556.0959, 4194.776
556.5780, 4167.259
557.0601, 4160.931
557.5422, 4168.822
558.0244, 4179.977
558.5065, 4190.204
558.9886, 4198.966
559.4707, 4205.608
559.9528, 4210.587
560.4349, 4211.707
560.9171, 4209.188
561.3992, 4202.318
561.8813, 4180.785
562.3634, 4156.449
562.8455, 4153.064
563.3276, 4186.278
563.8098, 4228.089
564.2919, 4234.841
564.7740, 4209.498
565.2561, 4203.175
565.7382, 4236.085
566.2203, 4275.638
566.7025, 4283.299
567.1846, 4262.839
567.6667, 4248.381
568.1488, 4247.822
568.6309, 4251.943
569.1130, 4255.831
569.5952, 4259.530
570.0773, 4265.307
570.5594, 4274.278
571.0415, 4281.220
571.5236, 4274.265
572.0057, 4239.747
572.4879, 4228.661
572.9700, 4270.210
573.4521, 4304.950
573.9342, 4295.543
574.4163, 4260.707
574.8984, 4245.093
575.3806, 4276.081
575.8627, 4320.838
576.3448, 4322.879
576.8269, 4281.868
577.3090, 4254.156
577.7911, 4258.417
578.2733, 4271.652
578.7554, 4270.289
579.2375, 4255.974
579.7196, 4239.827
580.2017, 4228.062
580.6838, 4211.454
581.1660, 4174.704
581.6481, 4128.040
582.1302, 4097.778
582.6123, 4095.320
583.0944, 4108.297
583.5765, 4116.353
584.0587, 4120.213
584.5408, 4116.689
