##NAMES=Jonesite
##RRUFFID=R070735
##IDEAL CHEMISTRY=KBa_2_Ti^4+^_2_(Si_5_Al)O_18_&#183;nH_2_O
##LOCALITY=Dallas Gem Mine (Gem Mine; Benitoite Mine), New Idria District, San Benito County, California, USA
##OWNER=RRUFF
##SOURCE=Michael Scott
##DESCRIPTION=Rosettes of colorless blades associated with reddish brown neptunite
##STATUS=The identification of this mineral is confirmed by single-crystal X-ray diffraction and chemical analysis.
##URL=rruff.info/R070735
##MEASURED CHEMISTRY=(K_0.84_Na_0.16_)_Σ=1_Ba_2.00_Ti_2.00_(Si_5.00_Al_1.00_)O_18_·3.5H_2_O; H_2_O estimated by difference
89.15009, 25416.17
89.63220, 25976.01
90.11432, 26308.88
90.59644, 26767.33
91.07855, 27523.21
91.56067, 28258.68
92.04279, 28789.07
92.52490, 29065.60
93.00702, 29164.98
93.48914, 29222.49
93.97125, 29195.64
94.45337, 29123.81
94.93549, 28747.85
95.41760, 28218.64
95.89972, 27754.16
96.38184, 27357.70
96.86395, 27024.31
97.34607, 26728.60
97.82819, 26456.33
98.31030, 26219.97
98.79242, 26033.60
99.27454, 25893.91
99.75665, 25769.76
100.2388, 25648.16
100.7209, 25525.70
101.2030, 25398.12
101.6851, 25245.25
102.1672, 25086.89
102.6494, 24971.12
103.1315, 24913.76
103.6136, 24868.47
104.0957, 24810.63
104.5778, 24741.63
105.0599, 24665.88
105.5421, 24575.66
106.0242, 24464.58
106.5063, 24391.34
106.9884, 24416.38
107.4705, 24432.36
107.9526, 24387.46
108.4348, 24276.77
108.9169, 24133.50
109.3990, 24006.58
109.8811, 23906.22
110.3632, 23804.80
110.8453, 23704.61
111.3275, 23601.69
111.8096, 23481.62
112.2917, 23338.37
112.7738, 23190.59
113.2559, 23113.49
113.7380, 23202.46
114.2202, 23250.19
114.7023, 23195.34
115.1844, 23064.87
115.6665, 22917.08
116.1486, 22782.36
116.6307, 22665.29
117.1129, 22580.46
117.5950, 22571.12
118.0771, 22561.24
118.5592, 22481.86
119.0413, 22325.89
119.5234, 22165.67
120.0056, 22070.72
120.4877, 22022.96
120.9698, 21975.98
121.4519, 21910.45
121.9340, 21836.62
122.4161, 21781.66
122.8982, 21761.33
123.3804, 21740.09
123.8625, 21693.64
124.3446, 21624.70
124.8267, 21546.42
125.3088, 21463.61
125.7909, 21375.26
126.2731, 21297.17
126.7552, 21219.26
127.2373, 21161.61
127.7194, 21144.41
128.2015, 21168.48
128.6837, 21209.05
129.1658, 21229.53
129.6479, 21219.69
130.1300, 21207.72
130.6121, 21206.13
131.0942, 21199.33
131.5764, 21173.43
132.0585, 21122.43
132.5406, 21050.58
133.0227, 20973.42
133.5048, 20903.47
133.9869, 20813.34
134.4691, 20685.58
134.9512, 20535.97
135.4333, 20386.94
135.9154, 20249.08
136.3975, 20125.19
136.8796, 20050.65
137.3618, 20077.14
137.8439, 20096.26
138.3260, 20043.13
138.8081, 19923.83
139.2902, 19802.71
139.7723, 19737.31
140.2545, 19727.90
140.7366, 19698.03
141.2187, 19626.51
141.7008, 19540.45
142.1829, 19470.28
142.6650, 19422.41
143.1472, 19379.89
143.6293, 19321.10
144.1114, 19250.08
144.5935, 19186.92
145.0756, 19145.20
145.5577, 19118.69
146.0399, 19085.47
146.5220, 19035.85
147.0041, 18985.91
147.4862, 18946.84
147.9683, 18918.59
148.4504, 18897.51
148.9326, 18886.20
149.4147, 18886.72
149.8968, 18874.06
150.3789, 18820.05
150.8610, 18765.91
151.3431, 18737.40
151.8252, 18739.82
152.3074, 18754.81
152.7895, 18757.31
153.2716, 18752.24
153.7537, 18720.79
154.2358, 18637.46
154.7179, 18543.43
155.2001, 18473.10
155.6822, 18440.93
156.1643, 18438.88
156.6464, 18442.64
157.1285, 18480.33
157.6106, 18489.78
158.0928, 18453.98
158.5749, 18388.74
159.0570, 18309.57
159.5391, 18222.98
160.0212, 18132.88
160.5033, 18090.63
160.9855, 18139.96
161.4676, 18185.07
161.9497, 18197.02
162.4318, 18179.85
162.9139, 18151.35
163.3960, 18125.21
163.8782, 18100.95
164.3603, 18061.14
164.8424, 17981.08
165.3245, 17905.51
165.8066, 17868.46
166.2887, 17871.03
166.7709, 17885.28
167.2530, 17887.05
167.7351, 17876.28
168.2172, 17865.75
168.6993, 17862.55
169.1814, 17857.97
169.6636, 17835.88
170.1457, 17788.93
170.6278, 17744.68
171.1099, 17739.70
171.5920, 17766.36
172.0741, 17788.73
172.5563, 17796.54
173.0384, 17789.91
173.5205, 17763.83
174.0026, 17698.37
174.4847, 17641.16
174.9668, 17624.98
175.4490, 17648.73
175.9311, 17705.05
176.4132, 17818.34
176.8953, 17986.06
177.3774, 18090.77
177.8595, 18083.61
178.3417, 18024.00
178.8238, 17931.15
179.3059, 17810.14
179.7880, 17696.29
180.2701, 17631.60
180.7522, 17625.02
181.2344, 17630.05
181.7165, 17654.84
182.1986, 17678.99
182.6807, 17689.15
183.1628, 17681.77
183.6449, 17663.80
184.1271, 17646.39
184.6092, 17630.37
185.0913, 17613.27
185.5734, 17589.09
186.0555, 17566.77
186.5376, 17552.59
187.0198, 17549.17
187.5019, 17556.91
187.9840, 17576.93
188.4661, 17610.87
188.9482, 17657.77
189.4303, 17748.28
189.9125, 17842.18
190.3946, 17888.43
190.8767, 17859.91
191.3588, 17772.78
191.8409, 17701.68
192.3230, 17642.22
192.8052, 17603.74
193.2873, 17599.68
193.7694, 17617.62
194.2515, 17639.59
194.7336, 17657.07
195.2157, 17668.29
195.6979, 17652.92
196.1800, 17566.24
196.6621, 17504.25
197.1442, 17518.33
197.6263, 17590.24
198.1084, 17664.24
198.5906, 17706.37
199.0727, 17714.97
199.5548, 17703.45
200.0369, 17638.38
200.5190, 17583.34
201.0011, 17590.22
201.4833, 17653.31
201.9654, 17707.46
202.4475, 17696.32
202.9296, 17627.52
203.4117, 17591.26
203.8938, 17612.27
204.3760, 17653.14
204.8581, 17685.89
205.3402, 17709.34
205.8223, 17721.49
206.3044, 17722.92
206.7865, 17711.71
207.2687, 17678.46
207.7508, 17605.15
208.2329, 17514.98
208.7150, 17435.01
209.1971, 17364.88
209.6792, 17312.04
210.1614, 17296.22
210.6435, 17303.72
211.1256, 17303.98
211.6077, 17279.75
212.0898, 17241.31
212.5719, 17214.63
213.0541, 17211.17
213.5362, 17197.38
214.0183, 17146.57
214.5004, 17068.74
214.9825, 16986.34
215.4646, 16898.85
215.9468, 16813.45
216.4289, 16766.48
216.9110, 16784.68
217.3931, 16806.47
217.8752, 16791.90
218.3573, 16751.19
218.8395, 16714.04
219.3216, 16713.07
219.8037, 16743.14
220.2858, 16734.50
220.7679, 16647.77
221.2500, 16562.14
221.7322, 16512.71
222.2143, 16495.60
222.6964, 16492.87
223.1785, 16499.52
223.6606, 16517.22
224.1427, 16506.49
224.6249, 16430.34
225.1070, 16356.47
225.5891, 16308.56
226.0712, 16286.21
226.5533, 16278.78
227.0354, 16280.32
227.5176, 16293.29
227.9997, 16297.04
228.4818, 16295.29
228.9639, 16280.35
229.4460, 16235.87
229.9281, 16170.01
230.4103, 16110.19
230.8924, 16084.58
231.3745, 16097.35
231.8566, 16126.77
232.3387, 16204.78
232.8208, 16271.76
233.3030, 16300.17
233.7851, 16289.18
234.2672, 16252.46
234.7493, 16198.80
235.2314, 16112.41
235.7135, 16069.51
236.1957, 16104.94
236.6778, 16147.75
237.1599, 16159.06
237.6420, 16137.20
238.1241, 16105.90
238.6062, 16093.94
239.0884, 16112.99
239.5705, 16112.22
240.0526, 16071.59
240.5347, 16030.48
241.0168, 16012.28
241.4989, 16019.11
241.9811, 16039.14
242.4632, 16060.43
242.9453, 16087.39
243.4274, 16099.58
243.9095, 16094.10
244.3916, 16078.47
244.8738, 16045.58
245.3559, 16000.15
245.8380, 15968.36
246.3201, 15984.90
246.8022, 16076.14
247.2843, 16130.53
247.7665, 16130.85
248.2486, 16110.76
248.7307, 16086.80
249.2128, 16064.01
249.6949, 16048.29
250.1770, 16046.85
250.6592, 16064.11
251.1413, 16083.65
251.6234, 16109.18
252.1055, 16134.36
252.5876, 16154.78
253.0697, 16169.70
253.5519, 16180.34
254.0340, 16184.96
254.5161, 16177.66
254.9982, 16195.35
255.4803, 16262.43
255.9624, 16337.67
256.4445, 16387.97
256.9267, 16409.32
257.4088, 16420.50
257.8909, 16440.31
258.3730, 16471.13
258.8551, 16499.85
259.3372, 16523.70
259.8194, 16547.10
260.3015, 16568.41
260.7836, 16588.69
261.2657, 16621.63
261.7478, 16684.00
262.2299, 16781.86
262.7121, 16869.91
263.1942, 16955.37
263.6763, 17025.56
264.1584, 17053.14
264.6405, 17039.18
265.1227, 17041.12
265.6048, 17122.88
266.0869, 17291.87
266.5690, 17407.67
267.0511, 17417.21
267.5332, 17406.73
268.0154, 17453.12
268.4975, 17560.00
268.9796, 17669.96
269.4617, 17728.66
269.9438, 17738.08
270.4259, 17785.68
270.9081, 17906.77
271.3902, 18043.39
271.8723, 18149.57
272.3544, 18224.34
272.8365, 18292.97
273.3186, 18379.22
273.8008, 18478.38
274.2829, 18549.11
274.7650, 18555.95
275.2471, 18560.23
275.7292, 18616.10
276.2113, 18720.73
276.6935, 18825.00
277.1756, 18898.72
277.6577, 18941.22
278.1398, 18969.97
278.6219, 18980.43
279.1040, 18981.07
279.5862, 18981.29
280.0683, 18979.45
280.5504, 18961.61
281.0325, 18918.26
281.5146, 18850.09
281.9967, 18771.94
282.4789, 18664.00
282.9610, 18563.59
283.4431, 18500.92
283.9252, 18469.98
284.4073, 18437.59
284.8894, 18385.27
285.3716, 18319.22
285.8537, 18260.02
286.3358, 18210.35
286.8179, 18163.85
287.3000, 18121.83
287.7821, 18081.58
288.2643, 18032.44
288.7464, 17967.25
289.2285, 17890.89
289.7106, 17814.96
290.1927, 17731.58
290.6748, 17662.10
291.1570, 17628.36
291.6391, 17618.68
292.1212, 17592.81
292.6033, 17525.60
293.0854, 17447.44
293.5675, 17427.26
294.0497, 17491.47
294.5318, 17533.64
295.0139, 17489.74
295.4960, 17392.88
295.9781, 17321.06
296.4602, 17304.36
296.9424, 17312.28
297.4245, 17290.78
297.9066, 17235.20
298.3887, 17182.54
298.8708, 17150.13
299.3529, 17127.03
299.8351, 17091.51
300.3172, 17035.10
300.7993, 16974.72
301.2814, 16936.85
301.7635, 16923.30
302.2456, 16905.53
302.7278, 16861.90
303.2099, 16815.87
303.6920, 16809.53
304.1741, 16855.07
304.6562, 16903.01
305.1383, 16888.79
305.6205, 16808.15
306.1026, 16749.06
306.5847, 16730.80
307.0668, 16735.35
307.5489, 16747.16
308.0310, 16764.21
308.5132, 16785.62
308.9953, 16813.11
309.4774, 16846.80
309.9595, 16871.63
310.4416, 16877.56
310.9237, 16881.17
311.4059, 16896.51
311.8880, 16923.53
312.3701, 16952.57
312.8522, 16977.15
313.3343, 16996.94
313.8164, 17015.33
314.2986, 17029.83
314.7807, 17044.95
315.2628, 17065.39
315.7449, 17089.41
316.2270, 17111.80
316.7091, 17132.27
317.1913, 17147.01
317.6734, 17136.56
318.1555, 17087.69
318.6376, 17032.31
319.1197, 16978.21
319.6018, 16926.40
320.0840, 16880.52
320.5661, 16844.71
321.0482, 16812.40
321.5303, 16761.02
322.0124, 16667.34
322.4945, 16588.99
322.9767, 16540.25
323.4588, 16513.65
323.9409, 16504.15
324.4230, 16511.56
324.9051, 16521.55
325.3872, 16503.65
325.8694, 16434.24
326.3515, 16378.78
326.8336, 16347.58
327.3157, 16330.09
327.7978, 16321.56
328.2799, 16319.64
328.7621, 16311.11
329.2442, 16274.39
329.7263, 16186.07
330.2084, 16130.50
330.6905, 16125.23
331.1726, 16138.30
331.6548, 16149.73
332.1369, 16156.00
332.6190, 16162.11
333.1011, 16174.34
333.5832, 16195.89
334.0653, 16203.99
334.5475, 16184.93
335.0296, 16167.63
335.5117, 16171.65
335.9938, 16191.16
336.4759, 16203.35
336.9580, 16187.50
337.4402, 16144.50
337.9223, 16135.45
338.4044, 16197.54
338.8865, 16251.96
339.3686, 16281.21
339.8507, 16288.49
340.3329, 16279.05
340.8150, 16254.50
341.2971, 16220.25
341.7792, 16199.22
342.2613, 16194.55
342.7434, 16201.28
343.2256, 16224.43
343.7077, 16256.01
344.1898, 16287.68
344.6719, 16316.20
345.1540, 16343.92
345.6361, 16374.60
346.1183, 16401.97
346.6004, 16445.94
347.0825, 16532.23
347.5646, 16616.02
348.0467, 16658.47
348.5288, 16654.59
349.0110, 16637.66
349.4931, 16648.12
349.9752, 16690.27
350.4573, 16743.03
350.9394, 16831.44
351.4215, 16909.61
351.9037, 16952.41
352.3858, 16963.38
352.8679, 16963.37
353.3500, 16966.40
353.8321, 16972.61
354.3142, 16988.26
354.7964, 17020.45
355.2785, 17053.90
355.7606, 17079.22
356.2427, 17101.38
356.7248, 17133.59
357.2069, 17195.05
357.6891, 17264.14
358.1712, 17269.83
358.6533, 17178.91
359.1354, 17099.08
359.6175, 17082.80
360.0996, 17096.89
360.5818, 17104.22
361.0639, 17090.03
361.5460, 17072.65
362.0281, 17084.69
362.5102, 17131.80
362.9923, 17156.61
363.4745, 17119.94
363.9566, 17065.62
364.4387, 17036.45
364.9208, 17038.42
365.4029, 17051.51
365.8850, 17074.83
366.3672, 17101.79
366.8493, 17089.37
367.3314, 17005.03
367.8135, 16913.64
368.2956, 16894.95
368.7777, 16942.63
369.2599, 16968.97
369.7420, 16919.92
370.2241, 16832.00
370.7062, 16764.97
371.1883, 16726.00
371.6704, 16704.10
372.1526, 16697.02
372.6347, 16701.56
373.1168, 16699.06
373.5989, 16688.23
374.0810, 16668.70
374.5631, 16637.93
375.0453, 16596.69
375.5274, 16550.16
376.0095, 16496.99
376.4916, 16442.41
376.9737, 16407.05
377.4558, 16400.47
377.9380, 16399.25
378.4201, 16403.81
378.9022, 16406.94
379.3843, 16390.02
379.8664, 16343.37
380.3485, 16285.22
380.8307, 16255.21
381.3128, 16274.81
381.7949, 16282.69
382.2770, 16260.74
382.7591, 16233.25
383.2412, 16228.13
383.7234, 16248.61
384.2055, 16271.30
384.6876, 16266.75
385.1697, 16223.52
385.6518, 16202.63
386.1339, 16215.69
386.6161, 16236.08
387.0982, 16250.99
387.5803, 16261.79
388.0624, 16276.91
388.5445, 16303.73
389.0266, 16340.38
389.5088, 16365.92
389.9909, 16368.41
390.4730, 16372.75
390.9551, 16389.75
391.4372, 16408.68
391.9193, 16410.24
392.4015, 16385.14
392.8836, 16355.02
393.3657, 16370.17
393.8478, 16458.16
394.3299, 16522.92
394.8120, 16532.12
395.2942, 16528.62
395.7763, 16541.18
396.2584, 16573.88
396.7405, 16610.65
397.2226, 16637.10
397.7047, 16653.12
398.1869, 16662.61
398.6690, 16657.67
399.1511, 16656.16
399.6332, 16672.91
400.1153, 16701.67
400.5974, 16724.47
401.0796, 16735.25
401.5617, 16732.82
402.0438, 16704.54
402.5259, 16638.23
403.0080, 16594.88
403.4901, 16630.12
403.9723, 16703.86
404.4544, 16755.71
404.9365, 16766.96
405.4186, 16768.78
405.9007, 16784.25
406.3828, 16811.93
406.8650, 16845.89
407.3471, 16887.60
407.8292, 16929.56
408.3113, 16957.23
408.7934, 16966.56
409.2755, 16982.75
409.7577, 17025.78
410.2398, 17075.14
410.7219, 17098.21
411.2040, 17089.11
411.6861, 17074.22
412.1682, 17081.07
412.6504, 17113.53
413.1325, 17133.92
413.6146, 17121.06
414.0967, 17115.90
414.5788, 17150.74
415.0609, 17214.42
415.5431, 17273.63
416.0252, 17309.47
416.5073, 17322.61
416.9894, 17315.98
417.4715, 17239.89
417.9536, 17204.83
418.4358, 17251.82
418.9179, 17331.27
419.4000, 17394.17
419.8821, 17424.64
420.3642, 17433.56
420.8463, 17436.61
421.3285, 17434.47
421.8106, 17424.25
422.2927, 17382.85
422.7748, 17353.91
423.2569, 17365.14
423.7390, 17410.18
424.2212, 17462.27
424.7033, 17504.43
425.1854, 17536.23
425.6675, 17552.81
426.1496, 17537.03
426.6317, 17535.38
427.1139, 17591.97
427.5960, 17662.21
428.0781, 17681.42
428.5602, 17614.03
429.0423, 17526.81
429.5244, 17508.93
430.0066, 17562.04
430.4887, 17609.99
430.9708, 17629.57
431.4529, 17636.91
431.9350, 17650.48
432.4171, 17670.63
432.8993, 17691.88
433.3814, 17717.72
433.8635, 17741.47
434.3456, 17748.17
434.8277, 17734.26
435.3098, 17716.41
435.7920, 17706.58
436.2741, 17705.25
436.7562, 17710.28
437.2383, 17731.62
437.7204, 17750.09
438.2025, 17754.01
438.6847, 17745.72
439.1668, 17730.12
439.6489, 17707.39
440.1310, 17684.96
440.6131, 17683.74
441.0952, 17741.81
441.5774, 17767.20
442.0595, 17730.31
442.5416, 17673.88
443.0237, 17628.97
443.5058, 17604.69
443.9879, 17605.41
444.4701, 17643.10
444.9522, 17728.37
445.4343, 17773.55
445.9164, 17757.06
446.3985, 17721.17
446.8806, 17656.25
447.3628, 17583.89
447.8449, 17542.65
448.3270, 17557.85
448.8091, 17605.06
449.2912, 17618.87
449.7733, 17579.98
450.2555, 17561.53
450.7376, 17620.16
451.2197, 17682.89
451.7018, 17685.64
452.1839, 17618.70
452.6660, 17545.92
453.1482, 17526.72
453.6303, 17547.68
454.1124, 17541.75
454.5945, 17488.80
455.0766, 17435.88
455.5587, 17429.07
456.0409, 17455.09
456.5230, 17477.77
457.0051, 17489.75
457.4872, 17494.91
457.9693, 17492.56
458.4514, 17484.79
458.9336, 17483.92
459.4156, 17498.29
459.8978, 17520.16
460.3799, 17528.98
460.8620, 17527.90
461.3441, 17510.86
461.8262, 17450.58
462.3083, 17387.39
462.7905, 17371.02
463.2726, 17407.18
463.7547, 17457.37
464.2368, 17481.65
464.7189, 17476.62
465.2010, 17474.26
465.6832, 17493.91
466.1653, 17495.47
466.6474, 17443.15
467.1295, 17368.55
467.6116, 17325.76
468.0938, 17344.25
468.5759, 17396.48
469.0580, 17421.77
469.5401, 17413.75
470.0222, 17396.86
470.5043, 17374.44
470.9865, 17345.01
471.4686, 17296.75
471.9507, 17233.50
472.4328, 17187.55
472.9149, 17194.30
473.3970, 17239.19
473.8792, 17268.35
474.3613, 17275.04
474.8434, 17279.35
475.3255, 17299.03
475.8076, 17325.02
476.2897, 17338.67
476.7719, 17338.43
477.2540, 17323.78
477.7361, 17279.26
478.2182, 17218.36
478.7003, 17183.65
479.1824, 17191.91
479.6646, 17224.88
480.1467, 17258.60
480.6288, 17301.21
481.1109, 17316.69
481.5930, 17284.74
482.0751, 17239.45
482.5573, 17200.56
483.0394, 17170.53
483.5215, 17144.07
484.0036, 17114.53
484.4857, 17087.51
484.9678, 17102.84
485.4500, 17225.84
485.9321, 17303.49
486.4142, 17280.04
486.8963, 17223.43
487.3784, 17202.95
487.8605, 17234.62
488.3427, 17276.76
488.8248, 17270.61
489.3069, 17212.45
489.7890, 17203.09
490.2711, 17293.72
490.7532, 17371.61
491.2354, 17330.38
491.7175, 17231.27
492.1996, 17225.20
492.6817, 17446.07
493.1638, 17707.38
493.6459, 17768.05
494.1281, 17641.79
494.6102, 17517.25
495.0923, 17459.92
495.5744, 17447.64
496.0565, 17448.78
496.5386, 17468.64
497.0208, 17476.24
497.5029, 17449.84
497.9850, 17416.46
498.4671, 17406.67
498.9492, 17420.74
499.4313, 17435.31
499.9135, 17430.99
500.3956, 17409.66
500.8777, 17396.80
501.3598, 17397.95
501.8419, 17401.10
502.3240, 17411.69
502.8062, 17420.05
503.2883, 17410.05
503.7704, 17378.80
504.2525, 17348.02
504.7346, 17343.93
505.2167, 17367.64
505.6989, 17416.73
506.1810, 17557.52
506.6631, 17643.74
507.1452, 17575.23
507.6273, 17405.15
508.1094, 17251.33
508.5916, 17160.65
509.0737, 17113.17
509.5558, 17093.18
510.0379, 17099.69
510.5200, 17104.00
511.0021, 17100.02
511.4843, 17084.46
511.9664, 17046.43
512.4485, 16981.29
512.9306, 16930.20
513.4127, 16914.16
513.8948, 16910.24
514.3770, 16898.91
514.8591, 16877.94
515.3412, 16849.12
515.8233, 16812.47
516.3054, 16769.79
516.7875, 16733.61
517.2697, 16694.60
517.7518, 16674.35
518.2339, 16686.32
518.7160, 16711.56
519.1981, 16736.14
519.6802, 16755.24
520.1624, 16765.06
520.6445, 16755.02
521.1266, 16724.09
521.6087, 16717.53
522.0908, 16749.87
522.5729, 16785.79
523.0551, 16814.98
523.5372, 16835.95
524.0193, 16844.26
524.5014, 16834.20
524.9835, 16821.66
525.4656, 16826.94
525.9478, 16845.32
526.4299, 16848.65
526.9120, 16823.93
527.3941, 16797.17
527.8762, 16805.25
528.3583, 16850.18
528.8405, 16874.92
529.3226, 16859.72
529.8047, 16835.59
530.2868, 16820.11
530.7689, 16812.56
531.2510, 16807.54
531.7332, 16802.47
532.2153, 16797.37
532.6974, 16792.99
533.1795, 16795.46
533.6616, 16786.92
534.1437, 16765.30
534.6259, 16735.77
535.1080, 16698.64
535.5901, 16656.06
536.0722, 16611.75
536.5543, 16559.88
537.0364, 16513.17
537.5186, 16522.21
538.0007, 16605.57
538.4828, 16674.42
538.9649, 16690.61
539.4470, 16677.31
539.9291, 16658.92
540.4113, 16636.44
540.8934, 16612.42
541.3755, 16582.08
541.8576, 16553.27
542.3397, 16543.63
542.8218, 16554.24
543.3040, 16559.48
543.7861, 16536.63
544.2682, 16491.14
544.7503, 16470.54
545.2324, 16491.57
545.7145, 16512.93
546.1967, 16536.99
546.6788, 16552.13
547.1609, 16535.49
547.6430, 16487.62
548.1251, 16445.17
548.6072, 16454.87
549.0894, 16519.35
549.5715, 16558.04
550.0536, 16560.18
550.5357, 16550.98
551.0178, 16526.93
551.4999, 16503.31
551.9821, 16506.94
552.4642, 16553.41
552.9463, 16595.86
553.4284, 16581.10
553.9105, 16523.75
554.3926, 16484.25
554.8748, 16476.84
555.3569, 16477.40
555.8390, 16464.03
556.3211, 16436.52
556.8032, 16411.58
557.2853, 16383.05
557.7675, 16363.60
558.2496, 16368.89
558.7317, 16384.98
559.2138, 16388.56
559.6959, 16371.29
560.1780, 16340.49
560.6602, 16305.14
561.1423, 16261.67
561.6244, 16228.63
562.1065, 16210.67
562.5886, 16199.80
563.0707, 16201.22
563.5529, 16206.63
564.0350, 16200.67
564.5171, 16174.55
564.9992, 16141.34
565.4813, 16118.58
565.9634, 16105.62
566.4456, 16092.75
566.9277, 16079.69
567.4098, 16062.59
567.8919, 16029.84
568.3740, 15984.09
568.8561, 15957.64
569.3383, 15984.86
569.8204, 16005.19
570.3025, 15962.96
570.7846, 15882.99
571.2667, 15829.37
571.7488, 15829.14
572.2310, 15855.82
572.7131, 15861.71
573.1952, 15834.55
573.6773, 15819.74
574.1594, 15830.79
574.6415, 15840.15
575.1237, 15834.54
575.6058, 15818.26
576.0879, 15796.97
576.5700, 15765.92
577.0521, 15751.21
577.5342, 15821.53
578.0164, 15977.65
578.4985, 16056.77
578.9806, 15999.81
579.4627, 15886.09
579.9448, 15776.01
580.4269, 15671.46
580.9091, 15612.54
