##NAMES=Jonesite
##RRUFFID=R070735
##IDEAL CHEMISTRY=KBa_2_Ti^4+^_2_(Si_5_Al)O_18_&#183;nH_2_O
##LOCALITY=Dallas Gem Mine (Gem Mine; Benitoite Mine), New Idria District, San Benito County, California, USA
##OWNER=RRUFF
##SOURCE=Michael Scott
##DESCRIPTION=Rosettes of colorless blades associated with reddish brown neptunite
##STATUS=The identification of this mineral is confirmed by single-crystal X-ray diffraction and chemical analysis.
##URL=rruff.info/R070735
##MEASURED CHEMISTRY=(K_0.84_Na_0.16_)_Σ=1_Ba_2.00_Ti_2.00_(Si_5.00_Al_1.00_)O_18_·3.5H_2_O; H_2_O estimated by difference
80.59375, 917.5301
81.07587, 911.2109
81.55798, 938.0592
82.04010, 988.3018
82.52222, 1017.717
83.00433, 987.8526
83.48645, 945.3503
83.96857, 925.8703
84.45068, 978.3842
84.93280, 1024.741
85.41492, 1022.423
85.89703, 963.0030
86.37915, 906.7576
86.86127, 848.6542
87.34338, 816.9579
87.82550, 863.2383
88.30762, 1156.307
88.78973, 1480.130
89.27185, 1601.533
89.75397, 1396.130
90.23608, 1098.879
90.71820, 930.4732
91.20031, 881.4409
91.68243, 877.0180
92.16454, 880.6031
92.64666, 887.5339
93.12878, 886.1141
93.61089, 861.6190
94.09301, 826.9230
94.57513, 813.2807
95.05724, 823.3530
95.53936, 844.2590
96.02148, 859.0648
96.50359, 868.0536
96.98571, 880.7655
97.46783, 906.8266
97.94994, 945.2246
98.43206, 972.3034
98.91418, 979.8387
99.39629, 977.2451
99.87841, 996.5283
100.3605, 1041.370
100.8426, 1097.069
101.3248, 1152.332
101.8069, 1209.422
102.2890, 1258.778
102.7711, 1293.997
103.2532, 1312.073
103.7353, 1348.120
104.2175, 1406.517
104.6996, 1480.224
105.1817, 1558.961
105.6638, 1641.984
106.1459, 1730.149
106.6280, 1822.947
107.1102, 1918.267
107.5923, 2021.024
108.0744, 2120.934
108.5565, 2223.781
109.0386, 2363.682
109.5207, 2559.590
110.0029, 2783.296
110.4850, 3016.633
110.9671, 3267.900
111.4492, 3523.110
111.9313, 3778.708
112.4134, 4035.201
112.8956, 4302.983
113.3777, 4606.849
113.8598, 4916.693
114.3419, 5196.727
114.8240, 5408.766
115.3061, 5608.789
115.7883, 5817.417
116.2704, 6039.428
116.7525, 6274.685
117.2346, 6528.710
117.7167, 6797.653
118.1988, 7067.530
118.6810, 7334.593
119.1631, 7602.581
119.6452, 7872.581
120.1273, 8130.369
120.6094, 8403.700
121.0915, 8723.372
121.5737, 9089.895
122.0558, 9447.065
122.5379, 9797.465
123.0200, 10110.92
123.5021, 10332.98
123.9842, 10378.26
124.4664, 10341.00
124.9485, 10329.32
125.4306, 10356.81
125.9127, 10403.90
126.3948, 10460.13
126.8769, 10522.41
127.3591, 10576.08
127.8412, 10613.78
128.3233, 10635.39
128.8054, 10636.29
129.2875, 10600.20
129.7696, 10542.62
130.2518, 10497.88
130.7339, 10478.31
131.2160, 10475.75
131.6981, 10454.97
132.1802, 10417.72
132.6623, 10376.63
133.1445, 10323.90
133.6266, 10265.28
134.1087, 10245.15
134.5908, 10266.52
135.0729, 10315.20
135.5550, 10374.15
136.0372, 10444.19
136.5193, 10512.76
137.0014, 10570.54
137.4835, 10615.10
137.9656, 10673.71
138.4477, 10759.23
138.9299, 10856.03
139.4120, 10908.15
139.8941, 10905.76
140.3762, 10881.62
140.8583, 10861.54
141.3404, 10851.19
141.8226, 10828.80
142.3047, 10788.42
142.7868, 10730.19
143.2689, 10671.28
143.7510, 10609.36
144.2331, 10549.59
144.7152, 10500.91
145.1974, 10477.11
145.6795, 10442.30
146.1616, 10380.24
146.6437, 10267.19
147.1258, 10188.26
147.6079, 10159.24
148.0901, 10163.54
148.5722, 10158.25
149.0543, 10137.77
149.5364, 10112.44
150.0185, 10086.76
150.5006, 10054.57
150.9828, 10028.98
151.4649, 10016.50
151.9470, 10015.06
152.4291, 10002.04
152.9112, 9948.224
153.3933, 9897.596
153.8755, 9880.665
154.3576, 9957.453
154.8397, 10012.42
155.3218, 10013.81
155.8039, 9952.263
156.2860, 9893.348
156.7682, 9851.755
157.2503, 9818.662
157.7324, 9782.834
158.2145, 9717.096
158.6966, 9667.589
159.1787, 9663.476
159.6609, 9743.157
160.1430, 9789.136
160.6251, 9734.116
161.1072, 9617.359
161.5893, 9528.815
162.0714, 9534.956
162.5536, 9562.530
163.0357, 9561.150
163.5178, 9492.660
163.9999, 9422.466
164.4820, 9387.855
164.9641, 9382.602
165.4463, 9368.021
165.9284, 9313.725
166.4105, 9243.613
166.8926, 9183.415
167.3747, 9134.281
167.8568, 9103.326
168.3390, 9101.564
168.8211, 9130.746
169.3032, 9163.219
169.7853, 9189.629
170.2674, 9206.451
170.7495, 9207.587
171.2317, 9183.613
171.7138, 9145.656
172.1959, 9100.142
172.6780, 9042.993
173.1601, 8995.979
173.6422, 8983.576
174.1244, 8998.799
174.6065, 9018.681
175.0886, 9036.690
175.5707, 9049.483
176.0528, 9050.050
176.5349, 9030.258
177.0171, 9007.383
177.4992, 9004.121
177.9813, 9018.358
178.4634, 9032.607
178.9455, 9030.294
179.4276, 9017.521
179.9098, 9008.541
180.3919, 9009.118
180.8740, 9014.961
181.3561, 9019.130
181.8382, 9021.419
182.3203, 9023.576
182.8025, 9030.805
183.2846, 9040.733
183.7667, 9043.726
184.2488, 9029.636
184.7309, 9005.603
185.2130, 8994.641
185.6951, 8999.947
186.1773, 9007.914
186.6594, 8996.447
187.1415, 8967.732
187.6236, 8943.607
188.1057, 8941.299
188.5878, 8955.343
189.0700, 8957.400
189.5521, 8941.061
190.0342, 8917.608
190.5163, 8906.665
190.9984, 8908.218
191.4805, 8916.847
191.9627, 8934.533
192.4448, 8959.458
192.9269, 8970.805
193.4090, 8961.308
193.8911, 8937.876
194.3732, 8919.107
194.8554, 8904.388
195.3375, 8897.209
195.8196, 8905.726
196.3017, 8930.625
196.7838, 8948.213
197.2659, 8949.433
197.7481, 8937.834
198.2302, 8938.028
198.7123, 8953.742
199.1944, 8971.570
199.6765, 8972.522
200.1586, 8954.016
200.6408, 8939.672
201.1229, 8939.386
201.6050, 8953.358
202.0871, 8964.551
202.5692, 8973.293
203.0513, 8978.397
203.5335, 8969.373
204.0156, 8936.765
204.4977, 8928.631
204.9798, 8992.360
205.4619, 9149.444
205.9440, 9207.917
206.4262, 9132.240
206.9083, 8976.013
207.3904, 8876.609
207.8725, 8849.202
208.3546, 8836.428
208.8367, 8806.149
209.3189, 8754.775
209.8010, 8697.946
210.2831, 8631.200
210.7652, 8560.123
211.2473, 8511.626
211.7294, 8493.059
212.2116, 8482.968
212.6937, 8467.197
213.1758, 8446.635
213.6579, 8417.196
214.1400, 8372.770
214.6221, 8315.609
215.1043, 8283.970
215.5864, 8295.667
216.0685, 8307.398
216.5506, 8268.052
217.0327, 8147.464
217.5148, 8052.949
217.9970, 8015.005
218.4791, 8037.993
218.9612, 8046.236
219.4433, 8037.160
219.9254, 8015.426
220.4075, 7984.111
220.8897, 7934.915
221.3718, 7892.869
221.8539, 7866.591
222.3360, 7857.854
222.8181, 7854.157
223.3002, 7857.828
223.7824, 7864.931
224.2645, 7867.963
224.7466, 7864.079
225.2287, 7861.281
225.7108, 7864.137
226.1929, 7878.236
226.6750, 7882.863
227.1572, 7876.632
227.6393, 7861.567
228.1214, 7841.612
228.6035, 7813.915
229.0856, 7785.944
229.5677, 7761.049
230.0499, 7739.122
230.5320, 7720.896
231.0141, 7705.778
231.4962, 7694.351
231.9783, 7690.305
232.4604, 7700.481
232.9426, 7709.100
233.4247, 7706.018
233.9068, 7685.116
234.3889, 7664.901
234.8710, 7645.559
235.3531, 7627.597
235.8353, 7618.417
236.3174, 7627.713
236.7995, 7635.058
237.2816, 7622.592
237.7637, 7573.202
238.2458, 7537.591
238.7280, 7527.025
239.2101, 7541.049
239.6922, 7547.204
240.1743, 7536.647
240.6564, 7526.918
241.1385, 7537.464
241.6207, 7590.666
242.1028, 7623.722
242.5849, 7618.812
243.0670, 7571.858
243.5491, 7537.819
244.0313, 7518.572
244.5134, 7510.636
244.9955, 7511.413
245.4776, 7527.484
245.9597, 7540.798
246.4418, 7545.187
246.9240, 7537.682
247.4061, 7539.392
247.8882, 7554.879
248.3703, 7576.347
248.8524, 7593.316
249.3345, 7607.701
249.8167, 7614.007
250.2988, 7606.626
250.7809, 7577.219
251.2630, 7568.793
251.7451, 7592.965
252.2272, 7631.144
252.7094, 7646.904
253.1915, 7621.379
253.6736, 7605.612
254.1557, 7621.561
254.6378, 7683.819
255.1199, 7732.540
255.6021, 7765.897
256.0842, 7786.275
256.5663, 7793.990
257.0484, 7772.861
257.5305, 7767.560
258.0126, 7803.819
258.4948, 7906.893
258.9769, 7979.972
259.4590, 8011.509
259.9411, 8016.785
260.4232, 8040.702
260.9053, 8096.308
261.3875, 8147.002
261.8696, 8168.573
262.3517, 8142.452
262.8338, 8146.265
263.3159, 8190.685
263.7980, 8266.009
264.2802, 8339.080
264.7623, 8411.296
265.2444, 8479.438
265.7265, 8541.293
266.2086, 8592.885
266.6907, 8648.396
267.1729, 8710.491
267.6550, 8776.176
268.1371, 8834.652
268.6192, 8881.883
269.1013, 8929.300
269.5834, 8984.535
270.0656, 9047.944
270.5477, 9114.327
271.0298, 9184.598
271.5119, 9256.526
271.9940, 9320.877
272.4761, 9374.569
272.9583, 9427.649
273.4404, 9488.394
273.9225, 9557.840
274.4046, 9631.670
274.8867, 9716.323
275.3688, 9804.387
275.8510, 9857.990
276.3331, 9867.913
276.8152, 9870.395
277.2973, 9901.101
277.7794, 9964.778
278.2615, 10010.79
278.7437, 10026.01
279.2258, 10016.72
279.7079, 10013.56
280.1900, 10019.96
280.6721, 10019.49
281.1542, 9994.610
281.6364, 9944.315
282.1185, 9891.313
282.6006, 9838.939
283.0827, 9787.720
283.5648, 9739.485
284.0469, 9694.270
284.5291, 9652.130
285.0112, 9614.801
285.4933, 9582.032
285.9754, 9545.826
286.4575, 9499.524
286.9396, 9449.421
287.4217, 9422.641
287.9038, 9421.729
288.3860, 9424.195
288.8681, 9407.087
289.3502, 9372.172
289.8323, 9334.003
290.3144, 9289.086
290.7965, 9246.493
291.2787, 9239.870
291.7608, 9272.075
292.2429, 9308.536
292.7250, 9308.736
293.2071, 9281.213
293.6892, 9269.228
294.1714, 9299.037
294.6535, 9348.421
295.1356, 9366.316
295.6177, 9351.933
296.0998, 9329.190
296.5819, 9317.896
297.0641, 9316.288
297.5462, 9318.785
298.0283, 9330.068
298.5104, 9341.052
298.9925, 9332.319
299.4746, 9303.624
299.9568, 9274.331
300.4389, 9265.112
300.9210, 9268.077
301.4031, 9264.655
301.8852, 9242.696
302.3673, 9213.768
302.8495, 9193.459
303.3316, 9181.593
303.8137, 9169.218
304.2958, 9146.738
304.7779, 9118.797
305.2600, 9094.183
305.7422, 9075.354
306.2243, 9061.712
306.7064, 9052.213
307.1885, 9046.877
307.6706, 9047.688
308.1527, 9058.220
308.6349, 9075.396
309.1170, 9094.708
309.5991, 9124.926
310.0812, 9149.629
310.5633, 9149.411
311.0454, 9126.258
311.5276, 9112.291
312.0097, 9133.001
312.4918, 9171.200
312.9739, 9208.046
313.4560, 9240.329
313.9381, 9266.566
314.4203, 9281.353
314.9024, 9286.091
315.3845, 9295.522
315.8666, 9326.635
316.3487, 9361.388
316.8308, 9382.727
317.3130, 9386.811
317.7951, 9375.230
318.2772, 9342.689
318.7593, 9290.904
319.2414, 9239.547
319.7235, 9198.320
320.2057, 9158.550
320.6878, 9113.392
321.1699, 9054.048
321.6520, 8996.471
322.1341, 8946.209
322.6162, 8902.494
323.0984, 8858.757
323.5805, 8802.574
324.0626, 8752.716
324.5447, 8721.859
325.0268, 8727.414
325.5089, 8734.854
325.9911, 8741.494
326.4732, 8746.900
326.9553, 8748.296
327.4374, 8744.351
327.9195, 8736.749
328.4016, 8726.200
328.8838, 8701.783
329.3659, 8687.438
329.8480, 8682.849
330.3301, 8688.585
330.8122, 8709.810
331.2943, 8764.686
331.7765, 8816.984
332.2586, 8845.354
332.7407, 8833.660
333.2228, 8827.385
333.7049, 8831.523
334.1870, 8843.298
334.6692, 8849.605
335.1513, 8844.144
335.6334, 8843.885
336.1155, 8860.968
336.5976, 8904.406
337.0797, 8936.530
337.5619, 8951.465
338.0440, 8955.287
338.5261, 8965.344
339.0082, 8983.251
339.4903, 9002.007
339.9724, 9017.144
340.4546, 9028.164
340.9367, 9041.553
341.4188, 9060.483
341.9009, 9078.723
342.3830, 9077.446
342.8651, 9053.653
343.3473, 9039.703
343.8294, 9058.536
344.3115, 9107.686
344.7936, 9150.101
345.2757, 9183.332
345.7578, 9212.580
346.2400, 9248.122
346.7221, 9289.082
347.2042, 9326.709
347.6863, 9348.088
348.1684, 9361.868
348.6505, 9399.971
349.1327, 9467.201
349.6148, 9543.156
350.0969, 9604.226
350.5790, 9652.908
351.0611, 9699.707
351.5432, 9741.737
352.0254, 9786.811
352.5075, 9859.258
352.9896, 9963.517
353.4717, 10052.15
353.9538, 10067.05
354.4359, 10035.08
354.9181, 10008.30
355.4002, 10022.96
355.8823, 10044.77
356.3644, 10037.05
356.8465, 9999.195
357.3286, 9964.453
357.8108, 9957.553
358.2929, 9965.916
358.7750, 9972.745
359.2571, 9984.280
359.7392, 9982.544
360.2213, 9946.960
360.7035, 9880.446
361.1856, 9826.083
361.6677, 9805.347
362.1498, 9803.815
362.6319, 9808.640
363.1140, 9821.602
363.5962, 9835.045
364.0783, 9854.569
364.5604, 9876.684
365.0425, 9877.541
365.5246, 9833.771
366.0067, 9778.288
366.4889, 9731.513
366.9710, 9704.800
367.4531, 9676.162
367.9352, 9649.804
368.4173, 9622.129
368.8994, 9576.291
369.3815, 9490.149
369.8636, 9405.401
370.3458, 9341.258
370.8279, 9310.430
371.3100, 9277.642
371.7921, 9242.315
372.2742, 9204.928
372.7563, 9166.858
373.2385, 9130.104
373.7206, 9089.674
374.2027, 9043.289
374.6848, 8989.738
375.1669, 8935.045
375.6490, 8876.643
376.1312, 8819.715
376.6133, 8773.795
377.0954, 8741.936
377.5775, 8708.238
378.0596, 8663.889
378.5417, 8610.198
379.0239, 8565.263
379.5060, 8531.126
379.9881, 8500.967
380.4702, 8464.146
380.9523, 8420.905
381.4344, 8387.725
381.9166, 8377.194
382.3987, 8379.202
382.8808, 8359.291
383.3629, 8316.438
383.8450, 8268.635
384.3271, 8226.955
384.8093, 8193.276
385.2914, 8175.853
385.7735, 8183.688
386.2556, 8202.601
386.7377, 8218.315
387.2198, 8229.931
387.7020, 8230.702
388.1841, 8208.892
388.6662, 8175.635
389.1483, 8143.821
389.6304, 8111.030
390.1125, 8090.522
390.5947, 8102.433
391.0768, 8137.050
391.5589, 8163.324
392.0410, 8166.130
392.5231, 8154.670
393.0052, 8130.347
393.4874, 8080.524
393.9695, 8050.608
394.4516, 8078.155
394.9337, 8135.221
395.4158, 8170.702
395.8979, 8145.156
396.3801, 8116.458
396.8622, 8108.536
397.3443, 8128.791
397.8264, 8149.553
398.3085, 8170.753
398.7906, 8189.091
399.2728, 8200.560
399.7549, 8213.572
400.2370, 8209.986
400.7191, 8177.893
401.2012, 8113.923
401.6833, 8073.888
402.1655, 8065.935
402.6476, 8074.542
403.1297, 8087.388
403.6118, 8104.830
404.0939, 8127.200
404.5760, 8159.545
405.0582, 8197.294
405.5403, 8209.680
406.0224, 8187.189
406.5045, 8166.520
406.9866, 8176.020
407.4688, 8217.515
407.9509, 8256.999
408.4330, 8291.128
408.9151, 8321.393
409.3972, 8348.328
409.8793, 8371.783
410.3615, 8400.691
410.8436, 8444.769
411.3257, 8499.247
411.8078, 8543.729
412.2899, 8574.246
412.7720, 8608.463
413.2542, 8684.579
413.7363, 8784.356
414.2184, 8854.646
414.7005, 8832.918
415.1826, 8786.865
415.6647, 8806.661
416.1469, 8895.472
416.6290, 8980.159
417.1111, 9009.216
417.5932, 9001.591
418.0753, 8981.536
418.5574, 8955.640
419.0396, 8920.828
419.5217, 8872.913
420.0038, 8813.421
420.4859, 8749.807
420.9680, 8683.397
421.4501, 8615.120
421.9323, 8546.843
422.4144, 8468.733
422.8965, 8403.287
423.3786, 8361.280
423.8607, 8335.601
424.3428, 8304.946
424.8250, 8255.744
425.3071, 8212.043
425.7892, 8185.281
426.2713, 8187.821
426.7534, 8172.853
427.2355, 8132.709
427.7177, 8079.627
428.1998, 8027.045
428.6819, 7960.188
429.1640, 7928.087
429.6461, 7959.908
430.1282, 8052.817
430.6104, 8091.744
431.0925, 8065.777
431.5746, 8012.810
432.0567, 7960.826
432.5388, 7909.098
433.0209, 7883.952
433.5031, 7899.045
433.9852, 7937.610
434.4673, 7962.881
434.9494, 7974.963
435.4315, 7973.466
435.9136, 7945.353
436.3958, 7903.713
436.8779, 7887.931
437.3600, 7913.938
437.8421, 7938.233
438.3242, 7899.982
438.8063, 7818.944
439.2885, 7750.341
439.7706, 7731.215
440.2527, 7732.455
440.7348, 7730.587
441.2169, 7723.975
441.6990, 7711.113
442.1812, 7676.487
442.6633, 7639.785
443.1454, 7623.962
443.6275, 7668.922
444.1096, 7703.996
444.5917, 7694.122
445.0739, 7642.862
445.5560, 7607.687
446.0381, 7608.291
446.5202, 7622.699
447.0023, 7638.177
447.4844, 7664.120
447.9666, 7678.241
448.4487, 7679.661
448.9308, 7669.454
449.4129, 7648.360
449.8950, 7607.651
450.3771, 7571.433
450.8593, 7550.162
451.3413, 7546.668
451.8235, 7542.926
452.3056, 7538.386
452.7877, 7534.558
453.2698, 7534.048
453.7519, 7537.202
454.2340, 7539.512
454.7162, 7539.040
455.1983, 7536.801
455.6804, 7536.715
456.1625, 7538.854
456.6446, 7541.233
457.1267, 7542.258
457.6089, 7542.171
458.0910, 7542.065
458.5731, 7543.006
459.0552, 7542.463
459.5373, 7535.881
460.0194, 7524.956
460.5016, 7515.107
460.9837, 7513.127
461.4658, 7511.593
461.9479, 7501.466
462.4300, 7479.333
462.9121, 7462.495
463.3943, 7466.599
463.8764, 7479.410
464.3585, 7485.061
464.8406, 7468.147
465.3227, 7453.829
465.8048, 7452.688
466.2870, 7464.851
466.7691, 7472.581
467.2512, 7475.571
467.7333, 7472.286
468.2154, 7460.652
468.6975, 7422.688
469.1797, 7406.425
469.6618, 7423.528
470.1439, 7461.026
470.6260, 7486.647
471.1081, 7501.351
471.5902, 7501.329
472.0724, 7476.898
472.5545, 7424.810
473.0366, 7403.805
473.5187, 7421.239
474.0008, 7449.577
474.4829, 7450.616
474.9651, 7427.372
475.4472, 7416.836
475.9293, 7437.679
476.4114, 7473.275
476.8935, 7487.723
477.3756, 7482.538
477.8578, 7476.696
478.3399, 7489.798
478.8220, 7509.546
479.3041, 7516.329
479.7862, 7502.563
480.2683, 7485.218
480.7505, 7472.419
481.2326, 7465.538
481.7147, 7467.226
482.1968, 7489.226
482.6789, 7511.020
483.1610, 7519.954
483.6432, 7513.206
484.1253, 7509.392
484.6074, 7517.240
485.0895, 7527.540
485.5716, 7532.341
486.0537, 7518.801
486.5359, 7514.296
487.0180, 7527.860
487.5001, 7553.576
487.9822, 7562.862
488.4643, 7546.945
488.9464, 7529.011
489.4286, 7518.206
489.9107, 7513.555
490.3928, 7526.537
490.8749, 7566.332
491.3570, 7608.002
491.8391, 7605.076
492.3213, 7557.999
492.8034, 7529.256
493.2855, 7551.390
493.7676, 7603.356
494.2497, 7629.307
494.7318, 7629.725
495.2140, 7631.957
495.6961, 7666.186
496.1782, 7715.792
496.6603, 7749.799
497.1424, 7758.000
497.6245, 7758.846
498.1067, 7763.825
498.5888, 7772.371
499.0709, 7783.290
499.5530, 7798.910
500.0351, 7814.046
500.5172, 7827.205
500.9994, 7838.382
501.4815, 7842.578
501.9636, 7834.998
502.4457, 7821.523
502.9278, 7807.549
503.4099, 7797.059
503.8921, 7781.305
504.3742, 7757.743
504.8563, 7728.457
505.3384, 7701.696
505.8205, 7679.026
506.3026, 7656.854
506.7848, 7633.521
507.2669, 7608.721
507.7490, 7587.550
508.2311, 7573.284
508.7132, 7555.481
509.1953, 7514.937
509.6775, 7454.060
510.1596, 7398.185
510.6417, 7356.591
511.1238, 7324.618
511.6059, 7290.763
512.0880, 7255.745
512.5701, 7231.020
513.0522, 7241.192
513.5344, 7259.312
514.0165, 7247.330
514.4986, 7188.741
514.9807, 7128.437
515.4628, 7095.448
515.9449, 7079.357
516.4271, 7062.878
516.9092, 7043.839
517.3913, 7020.102
517.8734, 6987.893
518.3555, 6946.793
518.8376, 6912.475
519.3198, 6876.745
519.8019, 6855.921
520.2840, 6861.989
520.7661, 6914.172
521.2482, 6956.217
521.7303, 6988.309
522.2125, 7007.472
522.6946, 7000.328
523.1767, 6957.926
523.6588, 6926.514
524.1409, 6926.431
524.6230, 6954.369
525.1052, 6991.216
525.5873, 7038.944
526.0694, 7080.128
526.5515, 7090.881
527.0336, 7080.732
527.5157, 7077.274
527.9979, 7089.629
528.4800, 7106.675
528.9621, 7118.847
529.4442, 7126.274
529.9263, 7129.699
530.4084, 7124.785
530.8906, 7119.221
531.3727, 7119.971
531.8548, 7128.766
532.3369, 7132.984
532.8190, 7130.184
533.3011, 7119.853
533.7833, 7101.587
534.2654, 7051.737
534.7475, 7022.544
535.2296, 7028.517
535.7117, 7058.916
536.1938, 7076.225
536.6760, 7077.439
537.1581, 7071.881
537.6402, 7062.704
538.1223, 7049.858
538.6044, 7031.943
539.0865, 7004.542
539.5687, 6984.853
540.0508, 7002.685
540.5329, 7051.911
541.0150, 7082.533
541.4971, 7070.392
541.9792, 7048.340
542.4614, 7080.325
542.9435, 7153.866
543.4256, 7210.646
543.9077, 7203.177
544.3898, 7169.380
544.8719, 7140.681
545.3541, 7118.892
545.8362, 7113.612
546.3183, 7142.659
546.8004, 7185.166
547.2825, 7218.618
547.7646, 7232.587
548.2468, 7242.264
548.7289, 7244.186
549.2110, 7242.398
549.6931, 7255.081
550.1752, 7294.778
550.6573, 7331.826
551.1395, 7355.392
551.6216, 7364.857
552.1037, 7361.303
552.5858, 7340.231
553.0679, 7316.078
553.5500, 7304.467
554.0322, 7305.327
554.5143, 7315.918
554.9964, 7342.415
555.4785, 7369.955
555.9606, 7367.970
556.4427, 7340.552
556.9249, 7309.438
557.4070, 7279.089
557.8891, 7256.535
558.3712, 7255.180
558.8533, 7278.877
559.3354, 7296.369
559.8176, 7280.301
560.2997, 7253.484
560.7818, 7239.289
561.2639, 7253.130
561.7460, 7269.406
562.2281, 7292.940
562.7103, 7316.574
563.1924, 7313.552
563.6745, 7261.085
564.1566, 7212.265
564.6387, 7188.207
565.1208, 7192.073
565.6030, 7188.721
566.0851, 7176.907
566.5672, 7161.318
567.0493, 7143.850
567.5314, 7125.273
568.0135, 7114.658
568.4957, 7114.647
568.9778, 7122.101
569.4599, 7136.969
569.9420, 7156.592
570.4241, 7168.910
570.9063, 7166.723
571.3884, 7154.661
571.8705, 7132.834
572.3526, 7101.631
