##NAMES=Jonesite
##RRUFFID=R080005
##IDEAL CHEMISTRY=KBa_2_Ti^4+^_2_(Si_5_Al)O_18_&#183;nH_2_O
##LOCALITY=Langban, Filipstad, Varmland, Sweden
##OWNER=RRUFF
##SOURCE=Michael Scott
##DESCRIPTION=Colorless blades associated with metallic haussmanite and calcite.
##STATUS=The identification of this mineral has been confirmed by single-crystal X-ray diffraction.
##URL=rruff.info/R080005
94.51007, 0.0000000E+00
94.99219, 366.4238
95.47430, 369.3193
95.95642, 370.6556
96.43854, 370.5464
96.92065, 369.6544
97.40277, 367.5562
97.88489, 364.6848
98.36700, 361.7087
98.84912, 359.3041
99.33124, 356.4223
99.81335, 351.9727
100.2955, 345.7410
100.7776, 338.9503
101.2597, 333.8814
101.7418, 330.1153
102.2239, 326.4646
102.7061, 322.2925
103.1882, 318.0041
103.6703, 314.5765
104.1524, 312.4985
104.6345, 311.3701
105.1166, 310.4890
105.5988, 310.1583
106.0809, 309.3799
106.5630, 307.2292
107.0451, 303.5861
107.5272, 299.2562
108.0093, 293.5652
108.4915, 287.6906
108.9736, 282.8270
109.4557, 279.6546
109.9378, 277.3708
110.4199, 273.6120
110.9020, 266.5906
111.3842, 260.5261
111.8663, 256.5832
112.3484, 254.1583
112.8305, 252.4440
113.3126, 250.9521
113.7947, 249.6826
114.2769, 248.1425
114.7590, 246.4471
115.2411, 244.4013
115.7232, 241.6729
116.2053, 238.4176
116.6874, 235.1902
117.1696, 232.5216
117.6517, 230.5664
118.1338, 228.7542
118.6159, 226.9738
119.0980, 225.3853
119.5801, 224.3355
120.0623, 223.9414
120.5444, 223.4696
121.0265, 221.5431
121.5086, 218.1009
121.9907, 215.2763
122.4728, 214.4260
122.9550, 214.7015
123.4371, 213.8498
123.9192, 210.8009
124.4013, 206.9966
124.8834, 204.0530
125.3655, 201.9804
125.8476, 200.3687
126.3298, 198.9358
126.8119, 197.6876
127.2940, 196.6372
127.7761, 196.1829
128.2582, 195.7126
128.7404, 194.6901
129.2225, 192.9691
129.7046, 191.1272
130.1867, 190.3382
130.6688, 191.8426
131.1509, 191.9711
131.6331, 189.4845
132.1152, 185.9819
132.5973, 182.7518
133.0794, 180.4214
133.5615, 178.9741
134.0436, 178.4100
134.5258, 180.2634
135.0079, 181.3871
135.4900, 180.5038
135.9721, 178.6480
136.4542, 177.7924
136.9363, 179.4244
137.4185, 183.2740
137.9006, 184.9187
138.3827, 183.0230
138.8648, 180.7052
139.3469, 179.4324
139.8290, 179.1512
140.3112, 178.9653
140.7933, 178.1344
141.2754, 176.7335
141.7575, 175.6150
142.2396, 174.8512
142.7217, 174.3809
143.2039, 174.2476
143.6860, 174.5288
144.1681, 174.8006
144.6502, 174.7307
145.1323, 174.3945
145.6144, 173.8800
146.0966, 173.2135
146.5787, 172.3967
147.0608, 171.3637
147.5429, 169.8130
148.0250, 168.4901
148.5071, 167.8799
148.9893, 167.8227
149.4714, 167.8580
149.9535, 167.6237
150.4356, 167.0948
150.9177, 166.6267
151.3998, 166.1702
151.8820, 165.8276
152.3641, 165.6979
152.8462, 165.7519
153.3283, 165.8612
153.8104, 165.9506
154.2925, 166.2384
154.7747, 165.8265
155.2568, 164.0267
155.7389, 162.1701
156.2210, 160.9324
156.7031, 160.5133
157.1852, 160.8737
157.6673, 162.0541
158.1495, 165.4040
158.6316, 167.1461
159.1137, 166.1755
159.5958, 164.1426
160.0779, 162.5625
160.5600, 161.9343
161.0422, 162.0710
161.5243, 162.8146
162.0064, 164.8121
162.4885, 165.8960
162.9706, 164.9697
163.4527, 162.8289
163.9349, 160.9033
164.4170, 159.5531
164.8991, 159.0168
165.3812, 159.8556
165.8633, 162.6273
166.3454, 165.0014
166.8276, 165.4030
167.3097, 164.0610
167.7918, 162.6494
168.2739, 161.3315
168.7560, 160.6605
169.2381, 161.2856
169.7203, 163.4782
170.2024, 166.3143
170.6845, 169.0890
171.1666, 171.8706
171.6487, 174.1157
172.1308, 175.9589
172.6130, 177.0020
173.0951, 176.2934
173.5772, 173.2711
174.0593, 169.8585
174.5414, 169.7572
175.0235, 174.8816
175.5057, 179.4264
175.9878, 182.1869
176.4699, 183.8883
176.9520, 185.1893
177.4341, 186.3749
177.9162, 187.3463
178.3984, 187.7468
178.8805, 186.3685
179.3626, 186.0113
179.8447, 187.3810
180.3268, 189.8120
180.8089, 192.6479
181.2911, 195.5577
181.7732, 198.4105
182.2553, 200.4485
182.7374, 200.7121
183.2195, 201.2293
183.7016, 202.6946
184.1838, 204.6702
184.6659, 206.2905
185.1480, 206.9753
185.6301, 206.8553
186.1122, 207.2708
186.5943, 208.3218
187.0765, 209.6523
187.5586, 211.3710
188.0407, 213.3173
188.5228, 215.0396
189.0049, 216.2591
189.4870, 216.9412
189.9692, 217.2796
190.4513, 217.1316
190.9334, 216.7821
191.4155, 216.0219
191.8976, 214.9332
192.3797, 214.6675
192.8619, 216.4418
193.3440, 219.6161
193.8261, 222.2665
194.3082, 224.7182
194.7903, 226.2111
195.2724, 225.2228
195.7546, 221.2917
196.2367, 217.9284
196.7188, 218.2240
197.2009, 220.3630
197.6830, 222.1031
198.1651, 222.6950
198.6473, 222.5789
199.1294, 222.4887
199.6115, 222.4699
200.0936, 222.3556
200.5757, 222.1205
201.0578, 221.7441
201.5400, 221.1526
202.0221, 220.2344
202.5042, 219.1339
202.9863, 218.3265
203.4684, 218.2141
203.9505, 217.7133
204.4327, 216.1451
204.9148, 214.1094
205.3969, 212.4375
205.8790, 211.6273
206.3611, 211.5176
206.8432, 211.2836
207.3254, 210.9897
207.8075, 210.4569
208.2896, 209.3834
208.7717, 208.1045
209.2538, 207.1692
209.7359, 206.9987
210.2181, 207.4407
210.7002, 207.0815
211.1823, 205.8208
211.6644, 203.7807
212.1465, 200.3709
212.6286, 196.2262
213.1108, 192.3123
213.5929, 189.2440
214.0750, 187.0002
214.5571, 185.4024
215.0392, 184.5100
215.5213, 184.1039
216.0035, 184.5755
216.4856, 185.5224
216.9677, 186.1922
217.4498, 186.1357
217.9319, 185.3493
218.4140, 183.6896
218.8962, 180.1779
219.3783, 177.0055
219.8604, 175.1506
220.3425, 174.3643
220.8246, 173.7605
221.3067, 172.7232
221.7889, 171.4069
222.2710, 170.7912
222.7531, 171.9208
223.2352, 172.6848
223.7173, 171.5779
224.1994, 168.9713
224.6816, 166.6852
225.1637, 165.8101
225.6458, 166.1774
226.1279, 166.6811
226.6100, 167.9106
227.0921, 168.7044
227.5743, 168.1524
228.0564, 166.3429
228.5385, 164.0852
229.0206, 161.3893
229.5027, 158.7365
229.9848, 157.1344
230.4670, 157.0478
230.9491, 157.4678
231.4312, 157.6046
231.9133, 157.4572
232.3954, 157.2663
232.8775, 157.1365
233.3597, 157.0281
233.8418, 156.9306
234.3239, 156.9193
234.8060, 156.7528
235.2881, 155.9087
235.7702, 154.2489
236.2524, 153.2240
236.7345, 154.0934
237.2166, 155.5273
237.6987, 156.4585
238.1808, 156.6876
238.6629, 156.3200
239.1451, 155.0676
239.6272, 152.5560
240.1093, 151.1507
240.5914, 152.6193
241.0735, 154.9012
241.5556, 156.7701
242.0378, 157.9478
242.5199, 158.5255
243.0020, 158.4309
243.4841, 157.3658
243.9662, 156.7438
244.4483, 156.9710
244.9305, 157.6147
245.4126, 158.3906
245.8947, 159.2444
246.3768, 160.3837
246.8589, 162.3494
247.3410, 165.7612
247.8232, 168.0111
248.3053, 167.8475
248.7874, 167.2710
249.2695, 167.4578
249.7516, 168.6204
250.2337, 170.2282
250.7159, 171.4856
251.1980, 171.9609
251.6801, 173.3120
252.1622, 176.3253
252.6443, 179.5276
253.1264, 181.8164
253.6086, 183.2140
254.0907, 184.7897
254.5728, 188.0748
255.0549, 194.1625
255.5370, 198.6231
256.0191, 200.2889
256.5013, 201.5861
256.9834, 203.5145
257.4655, 206.3108
257.9476, 209.9549
258.4297, 214.6298
258.9118, 221.0200
259.3940, 225.5791
259.8761, 226.9755
260.3582, 228.0903
260.8403, 230.3033
261.3224, 233.6650
261.8045, 237.5503
262.2867, 241.4198
262.7688, 245.2635
263.2509, 249.0898
263.7330, 253.2397
264.2151, 257.0471
264.6972, 259.9324
265.1794, 262.1090
265.6615, 264.4217
266.1436, 267.5829
266.6257, 271.6563
267.1078, 275.3857
267.5899, 278.6884
268.0721, 281.8543
268.5542, 285.1486
269.0363, 288.4373
269.5184, 291.2711
270.0005, 293.2006
270.4826, 294.3506
270.9648, 296.4770
271.4469, 300.2154
271.9290, 304.0268
272.4111, 307.4890
272.8932, 310.5837
273.3753, 313.3861
273.8575, 315.9458
274.3396, 318.2145
274.8217, 319.9039
275.3038, 320.5643
275.7859, 321.2911
276.2680, 322.9995
276.7502, 325.0030
277.2323, 325.8240
277.7144, 324.6840
278.1965, 322.1043
278.6786, 319.4337
279.1607, 316.1576
279.6429, 313.6661
280.1250, 313.3907
280.6071, 314.0147
281.0892, 312.9651
281.5713, 309.1016
282.0534, 303.7828
282.5356, 299.6351
283.0177, 296.8400
283.4998, 294.1964
283.9819, 291.2589
284.4640, 288.3441
284.9461, 286.1558
285.4283, 285.0171
285.9104, 283.9611
286.3925, 281.3047
286.8746, 276.8735
287.3567, 273.0496
287.8388, 270.3336
288.3210, 268.4620
288.8031, 267.3633
289.2852, 267.0995
289.7673, 266.8452
290.2494, 265.5783
290.7315, 263.3579
291.2137, 261.3858
291.6958, 259.9378
292.1779, 258.7629
292.6600, 257.6603
293.1421, 256.6165
293.6242, 255.4898
294.1064, 253.9291
294.5885, 252.1403
295.0706, 251.1791
295.5527, 251.8901
296.0348, 252.9551
296.5169, 253.4248
296.9991, 253.2696
297.4812, 252.3633
297.9633, 250.2125
298.4454, 247.3096
298.9275, 245.2323
299.4096, 244.5351
299.8918, 244.1040
300.3739, 243.1192
300.8560, 241.6622
301.3381, 240.3522
301.8202, 239.5691
302.3023, 239.0192
302.7845, 238.0547
303.2666, 236.4989
303.7487, 234.9787
304.2308, 233.9003
304.7129, 233.1659
305.1950, 232.3561
305.6772, 231.1719
306.1593, 230.1148
306.6414, 229.9638
307.1235, 230.7697
307.6056, 231.6765
308.0877, 232.3568
308.5699, 232.8705
309.0520, 233.4312
309.5341, 234.1927
310.0162, 234.7279
310.4983, 234.1952
310.9804, 232.7824
311.4626, 231.9318
311.9447, 232.7768
312.4268, 234.2302
312.9089, 234.4507
313.3910, 233.0472
313.8731, 231.4864
314.3553, 231.1329
314.8374, 231.6383
315.3195, 231.9157
315.8016, 231.9082
316.2837, 231.4836
316.7658, 230.4167
317.2480, 228.6934
317.7301, 226.6883
318.2122, 224.4518
318.6943, 222.1204
319.1764, 220.0072
319.6585, 218.0286
320.1407, 216.4119
320.6228, 215.7581
321.1049, 215.8699
321.5870, 215.1340
322.0691, 212.3344
322.5512, 208.7648
323.0334, 206.8667
323.5155, 207.1692
323.9976, 207.4321
324.4797, 206.0794
324.9618, 203.6998
325.4439, 202.1691
325.9261, 202.1753
326.4082, 202.8625
326.8903, 203.0300
327.3724, 202.6622
327.8545, 202.6681
328.3366, 203.9621
328.8188, 205.6690
329.3009, 206.1919
329.7830, 205.1253
330.2651, 203.6544
330.7472, 202.9475
331.2293, 202.8549
331.7115, 202.5715
332.1936, 201.1038
332.6757, 199.8799
333.1578, 200.8683
333.6399, 204.1524
334.1220, 207.2643
334.6042, 208.5246
335.0863, 208.2854
335.5684, 208.2318
336.0505, 208.6266
336.5326, 208.9959
337.0147, 208.8095
337.4969, 208.2485
337.9790, 208.1948
338.4611, 209.2001
338.9432, 210.7973
339.4253, 211.8523
339.9074, 211.9713
340.3896, 212.5815
340.8717, 214.3570
341.3538, 216.9999
341.8359, 220.0573
342.3180, 223.5251
342.8001, 226.9693
343.2823, 229.6460
343.7644, 231.4627
344.2465, 233.6033
344.7286, 236.1273
345.2107, 239.1647
345.6928, 243.2209
346.1750, 248.3601
346.6571, 253.2205
347.1392, 256.2614
347.6213, 257.4559
348.1034, 260.1021
348.5855, 265.1322
349.0677, 270.8453
349.5498, 276.7342
350.0319, 282.5353
350.5140, 287.1131
350.9961, 289.4154
351.4782, 290.1964
351.9604, 293.0265
352.4425, 299.8372
352.9246, 305.9971
353.4067, 309.9178
353.8888, 312.2819
354.3709, 313.9649
354.8531, 315.1754
355.3352, 316.6290
355.8173, 319.9165
356.2994, 326.5265
356.7815, 331.5269
357.2636, 333.6082
357.7458, 334.3904
358.2279, 335.2704
358.7100, 336.5403
359.1921, 338.0092
359.6742, 339.5665
360.1563, 341.3550
360.6385, 342.1063
361.1206, 341.1600
361.6027, 339.8934
362.0848, 339.2362
362.5669, 338.9557
363.0490, 338.1819
363.5312, 336.3360
364.0133, 333.4781
364.4954, 330.0581
364.9775, 326.0087
365.4596, 321.5322
365.9417, 316.4067
366.4239, 310.9614
366.9060, 305.8191
367.3881, 301.2024
367.8702, 296.5174
368.3523, 290.4478
368.8344, 281.4003
369.3166, 273.5667
369.7987, 267.8889
370.2808, 262.6334
370.7629, 256.6100
371.2450, 249.6136
371.7271, 241.9644
372.2093, 233.8648
372.6914, 224.9441
373.1735, 217.6917
373.6556, 213.5047
374.1377, 209.4972
374.6198, 204.6891
375.1020, 199.2612
375.5841, 193.7583
376.0662, 188.4449
376.5483, 183.4644
377.0304, 179.6766
377.5125, 178.1658
377.9947, 176.3418
378.4768, 173.8159
378.9589, 170.8173
379.4410, 167.2828
379.9231, 163.2496
380.4052, 159.4997
380.8874, 157.5346
381.3695, 158.2403
381.8516, 157.8223
382.3337, 154.4236
382.8158, 151.1290
383.2979, 149.8952
383.7801, 150.4531
384.2622, 150.9588
384.7443, 149.6354
385.2264, 146.6926
385.7085, 144.7141
386.1906, 144.0530
386.6728, 143.9369
387.1549, 144.6024
387.6370, 145.4108
388.1191, 145.2824
388.6012, 143.5258
389.0833, 141.0878
389.5655, 139.7265
390.0476, 139.6776
390.5297, 139.6280
391.0118, 139.0866
391.4939, 138.4196
391.9760, 137.8363
392.4582, 137.3617
392.9403, 137.1607
393.4224, 137.6197
393.9045, 138.5775
394.3866, 138.9849
394.8687, 138.4693
395.3509, 137.7486
395.8330, 137.2009
396.3151, 136.8802
396.7972, 137.0449
397.2793, 138.3055
397.7614, 139.8712
398.2436, 140.5932
398.7257, 140.4194
399.2078, 139.9307
399.6899, 139.2988
400.1720, 138.6192
400.6541, 138.0276
401.1363, 137.3247
401.6184, 137.1029
402.1005, 138.3140
402.5826, 140.3248
403.0647, 141.2426
403.5468, 140.3105
404.0290, 138.5938
404.5111, 137.4789
404.9932, 136.9405
405.4753, 136.8320
405.9574, 137.5769
406.4395, 138.4647
406.9217, 138.6540
407.4038, 138.1430
407.8859, 137.7558
408.3680, 138.1808
408.8501, 139.3425
409.3322, 140.1651
409.8144, 140.8324
410.2965, 141.0315
410.7786, 140.2180
411.2607, 138.9421
411.7428, 138.1809
412.2249, 138.3496
412.7071, 139.0589
413.1892, 139.5713
413.6713, 139.9533
414.1534, 139.9568
414.6355, 139.0882
415.1176, 138.2206
415.5998, 138.0722
416.0819, 138.6237
416.5640, 139.3900
417.0461, 140.0426
417.5282, 140.5956
418.0103, 140.0716
418.4925, 136.9130
418.9746, 134.3519
419.4567, 133.6599
419.9388, 133.8205
420.4209, 133.2067
420.9030, 131.0728
421.3852, 128.4435
421.8673, 127.5949
422.3494, 129.4519
422.8315, 130.7205
423.3136, 130.9630
423.7957, 130.6610
424.2779, 129.8507
424.7600, 128.6767
425.2421, 127.5953
425.7242, 127.0702
426.2063, 127.0288
426.6884, 126.7440
427.1706, 125.9596
427.6527, 125.3708
428.1348, 125.3159
428.6169, 125.6070
429.0990, 126.0664
429.5811, 126.7662
430.0633, 127.2820
430.5454, 126.8933
431.0275, 125.5771
431.5096, 124.4471
431.9917, 123.5064
432.4738, 123.2466
432.9560, 124.5141
433.4381, 127.2807
433.9202, 129.2518
434.4023, 128.7509
434.8844, 126.9131
435.3665, 125.7577
435.8487, 125.5181
436.3308, 125.3993
436.8129, 124.6361
437.2950, 123.5378
437.7771, 123.3411
438.2592, 125.3841
438.7414, 126.9259
439.2235, 125.8337
439.7056, 123.1097
440.1877, 121.2566
440.6698, 121.2553
441.1519, 122.1454
441.6341, 122.3860
442.1162, 121.7360
442.5983, 121.1078
443.0804, 120.6240
443.5625, 120.1174
444.0446, 119.3586
444.5268, 118.4148
445.0089, 117.6577
445.4910, 117.4375
445.9731, 117.6412
446.4552, 117.1576
446.9373, 114.2980
447.4195, 112.7781
447.9016, 114.7780
448.3837, 117.6403
448.8658, 117.9958
449.3479, 114.9949
449.8300, 111.0067
450.3122, 109.5939
450.7943, 111.6435
451.2764, 112.9428
451.7585, 113.2141
452.2406, 112.9646
452.7227, 111.8573
453.2049, 110.3757
453.6870, 109.5239
454.1691, 110.0014
454.6512, 111.3379
455.1333, 112.3673
455.6154, 113.0396
456.0976, 113.5449
456.5797, 114.0150
457.0618, 114.2891
457.5439, 114.1839
458.0260, 113.6756
458.5081, 113.0058
458.9903, 112.2938
459.4724, 111.5632
459.9545, 110.7647
460.4366, 109.6769
460.9187, 109.1273
461.4008, 110.2581
461.8830, 112.4240
462.3651, 114.0625
462.8472, 114.8273
463.3293, 115.0836
463.8114, 114.6669
464.2935, 113.8790
464.7756, 114.0274
465.2578, 115.8537
465.7399, 118.1376
466.2220, 118.5818
466.7041, 116.5617
467.1862, 115.4312
467.6683, 116.2321
468.1505, 117.5751
468.6326, 118.5293
469.1147, 118.9626
469.5968, 118.8547
470.0789, 118.1097
470.5610, 116.8701
471.0432, 116.1086
471.5253, 115.8766
472.0074, 116.0818
472.4895, 117.1278
472.9716, 118.3890
473.4537, 119.2081
473.9359, 119.4548
474.4180, 119.5121
474.9001, 119.8799
475.3822, 120.6354
475.8643, 121.0446
476.3464, 120.7290
476.8286, 120.4577
477.3107, 120.3839
477.7928, 120.5392
478.2749, 121.0436
478.7570, 122.0403
479.2391, 123.0715
479.7213, 123.3468
480.2034, 122.7996
480.6855, 122.0557
481.1676, 121.0476
481.6497, 120.0717
482.1318, 119.0421
482.6140, 118.0836
483.0961, 118.1044
483.5782, 120.8903
484.0603, 124.3505
484.5424, 124.6667
485.0245, 121.6129
485.5067, 118.8013
485.9888, 118.2204
486.4709, 119.2213
486.9530, 120.0359
487.4351, 120.7459
487.9172, 121.1195
488.3994, 120.9249
488.8815, 120.4155
489.3636, 119.8661
489.8457, 119.3431
490.3278, 118.9479
490.8099, 118.8376
491.2921, 119.0439
491.7742, 118.7656
492.2563, 117.5391
492.7384, 116.4456
493.2205, 115.9322
493.7026, 115.7155
494.1848, 115.3874
494.6669, 114.7959
495.1490, 114.0744
495.6311, 113.4098
496.1132, 112.7865
496.5953, 112.2801
497.0775, 111.7175
497.5596, 111.4431
498.0417, 111.7836
498.5238, 112.5157
499.0059, 113.2110
499.4880, 113.7225
499.9702, 113.9240
500.4523, 113.4040
500.9344, 112.0044
501.4165, 110.9061
501.8986, 110.7860
502.3807, 110.7912
502.8629, 109.8697
503.3450, 108.0767
503.8271, 106.9264
504.3092, 107.9256
504.7913, 109.6740
505.2734, 109.6871
505.7556, 107.8487
506.2377, 106.3927
506.7198, 106.8332
507.2019, 108.4481
507.6840, 108.9555
508.1661, 107.9643
508.6483, 106.7890
509.1304, 105.3875
509.6125, 104.1770
510.0946, 103.6532
510.5767, 103.8858
511.0588, 104.7203
511.5410, 106.1727
512.0231, 108.2320
512.5052, 109.1366
512.9873, 107.3860
513.4694, 106.2561
513.9515, 107.3585
514.4337, 108.9449
514.9158, 108.6622
515.3979, 105.9642
515.8800, 102.8160
516.3621, 101.8411
516.8442, 103.2916
517.3264, 104.2845
517.8085, 104.6883
518.2906, 104.7471
518.7727, 104.1520
519.2548, 103.4194
519.7369, 103.5988
520.2191, 105.4481
520.7012, 107.2693
521.1833, 106.7238
521.6654, 104.1746
522.1475, 102.5595
522.6296, 102.8380
523.1118, 103.6805
523.5939, 103.5613
524.0760, 102.6345
524.5581, 102.0436
525.0402, 102.1134
525.5223, 102.4573
526.0045, 103.1858
526.4866, 103.9872
526.9687, 103.8463
527.4508, 102.2360
527.9329, 100.0649
528.4150, 99.12962
528.8972, 100.6077
529.3793, 100.5356
529.8614, 97.70184
530.3435, 94.54874
530.8256, 92.24619
531.3077, 90.77197
531.7899, 89.71680
532.2720, 88.86307
532.7541, 88.17608
533.2362, 87.57106
533.7183, 87.04563
534.2004, 86.60201
534.6826, 86.21983
535.1647, 85.94023
535.6468, 86.06218
536.1289, 86.40470
536.6110, 86.15950
537.0931, 83.87702
537.5753, 81.18211
538.0574, 81.91015
538.5395, 86.27779
539.0216, 89.18233
539.5037, 87.90775
539.9858, 84.53500
540.4680, 82.61949
540.9501, 82.37526
541.4322, 81.96109
541.9143, 80.76001
542.3964, 79.21397
542.8785, 77.33500
543.3607, 75.38610
543.8428, 74.57808
544.3249, 75.90774
544.8070, 78.56694
545.2891, 79.54056
545.7712, 76.37015
546.2534, 74.88976
546.7355, 77.31425
547.2176, 79.89329
547.6997, 79.26565
548.1818, 75.82614
548.6639, 72.61162
549.1461, 72.06199
549.6282, 73.57510
550.1103, 74.72475
550.5924, 75.50878
551.0745, 75.94279
551.5566, 75.81807
552.0388, 75.46886
552.5209, 75.18715
553.0030, 74.98827
553.4851, 74.57505
553.9672, 73.60079
554.4493, 72.35847
554.9315, 71.23207
555.4136, 70.24068
555.8957, 69.81463
556.3778, 70.35876
556.8599, 71.49931
557.3420, 72.21321
557.8242, 72.36759
558.3063, 72.50566
558.7884, 72.92282
559.2705, 73.23586
559.7526, 73.06078
560.2347, 72.41140
560.7169, 71.44674
561.1990, 70.18594
561.6811, 68.87987
562.1632, 68.80671
562.6453, 71.25665
563.1274, 72.71229
563.6096, 72.19949
564.0917, 71.14965
564.5738, 70.45615
565.0559, 70.21853
565.5380, 70.19176
566.0201, 70.27254
566.5023, 70.40536
566.9844, 70.47945
567.4665, 70.51637
567.9486, 70.33452
568.4307, 69.68208
568.9128, 68.93230
569.3950, 68.58607
569.8771, 68.66167
570.3592, 68.87060
570.8413, 69.25720
571.3234, 69.63786
571.8055, 69.77663
572.2877, 69.70977
572.7698, 69.69501
573.2519, 69.89693
573.7340, 70.16854
574.2161, 70.12306
574.6982, 69.46545
575.1804, 68.99584
575.6625, 68.86774
576.1446, 68.78156
576.6267, 68.56928
577.1088, 68.24126
577.5909, 67.77336
578.0731, 67.05212
578.5552, 66.50517
579.0373, 67.41518
579.5194, 70.22263
580.0015, 72.02788
580.4836, 72.06921
580.9658, 71.07118
581.4479, 69.06492
581.9300, 66.42403
582.4121, 64.73488
582.8942, 65.11971
583.3763, 66.25331
583.8585, 66.85141
584.3406, 67.08866
584.8227, 67.76080
585.3048, 69.24033
585.7869, 70.74352
586.2690, 71.14115
586.7512, 70.15042
587.2333, 69.36968
587.7154, 69.12337
588.1975, 68.72311
588.6796, 67.59564
589.1617, 66.20134
589.6439, 65.19261
590.1260, 64.82854
590.6081, 65.07057
591.0902, 66.16122
591.5723, 68.28459
