##NAMES=Jonesite
##RRUFFID=R080005
##IDEAL CHEMISTRY=KBa_2_Ti^4+^_2_(Si_5_Al)O_18_&#183;nH_2_O
##LOCALITY=Langban, Filipstad, Varmland, Sweden
##OWNER=RRUFF
##SOURCE=Michael Scott
##DESCRIPTION=Colorless blades associated with metallic haussmanite and calcite.
##STATUS=The identification of this mineral has been confirmed by single-crystal X-ray diffraction.
##URL=rruff.info/R080005
93.40625, 135.0579
93.88837, 128.7738
94.37048, 134.1842
94.85260, 148.3344
95.33472, 162.6709
95.81683, 175.0499
96.29895, 186.7240
96.78107, 200.8188
97.26318, 217.5321
97.74530, 235.1511
98.22742, 252.1057
98.70953, 268.4707
99.19165, 284.1385
99.67377, 298.8502
100.1559, 312.6204
100.6380, 326.5573
101.1201, 340.9675
101.6022, 354.6959
102.0844, 365.5388
102.5665, 372.8580
103.0486, 379.7423
103.5307, 386.9321
104.0128, 394.2741
104.4949, 403.1208
104.9771, 414.1371
105.4592, 426.4208
105.9413, 438.0953
106.4234, 447.8954
106.9055, 458.6580
107.3876, 471.6336
107.8698, 489.3416
108.3519, 505.5494
108.8340, 519.6816
109.3161, 532.1948
109.7982, 544.8126
110.2803, 557.2198
110.7624, 570.0725
111.2446, 583.6960
111.7267, 600.4123
112.2088, 615.5894
112.6909, 628.1158
113.1730, 638.2335
113.6551, 648.7986
114.1373, 661.4848
114.6194, 674.1497
115.1015, 685.2058
115.5836, 693.8591
116.0657, 701.1600
116.5478, 707.3690
117.0300, 712.6221
117.5121, 716.5328
117.9942, 718.2944
118.4763, 718.7921
118.9584, 719.1653
119.4405, 717.3731
119.9227, 717.2676
120.4048, 722.0377
120.8869, 733.0477
121.3690, 744.4043
121.8511, 753.5195
122.3332, 760.4121
122.8154, 765.1226
123.2975, 765.3959
123.7796, 764.4691
124.2617, 765.6641
124.7438, 769.7793
125.2259, 775.5726
125.7081, 782.5039
126.1902, 789.9552
126.6723, 793.3277
127.1544, 793.0756
127.6365, 792.4721
128.1186, 791.9647
128.6008, 791.7600
129.0829, 791.5764
129.5650, 790.9854
130.0471, 790.0056
130.5292, 788.8525
131.0113, 787.7577
131.4935, 786.6558
131.9756, 785.1956
132.4577, 782.8877
132.9398, 780.2861
133.4219, 779.2897
133.9040, 780.0209
134.3862, 781.1425
134.8683, 781.1267
135.3504, 779.9955
135.8325, 779.0137
136.3146, 778.3921
136.7967, 778.1720
137.2789, 779.1625
137.7610, 781.8074
138.2431, 784.6157
138.7252, 785.5895
139.2073, 784.5356
139.6894, 782.6422
140.1716, 779.9330
140.6537, 776.0988
141.1358, 773.7394
141.6179, 773.1376
142.1000, 773.6540
142.5821, 773.9769
143.0643, 773.6356
143.5464, 774.0958
144.0285, 776.3762
144.5106, 782.0759
144.9927, 785.3068
145.4748, 785.1189
145.9570, 782.6360
146.4391, 781.0309
146.9212, 780.4148
147.4033, 780.4966
147.8854, 781.2121
148.3675, 783.3489
148.8497, 784.8486
149.3318, 785.2781
149.8139, 784.8876
150.2960, 784.9784
150.7781, 787.0539
151.2602, 788.5005
151.7424, 787.8891
152.2245, 781.5033
152.7066, 777.2928
153.1887, 776.5736
153.6708, 779.0687
154.1529, 781.2656
154.6351, 783.1647
155.1172, 784.5853
155.5993, 785.4128
156.0814, 786.5419
156.5635, 786.1792
157.0456, 782.7099
157.5278, 776.1814
158.0099, 772.0431
158.4920, 773.5404
158.9741, 776.8963
159.4562, 778.7550
159.9383, 776.5872
160.4205, 774.4134
160.9026, 773.5395
161.3847, 774.0748
161.8668, 775.2367
162.3489, 777.8353
162.8310, 780.6088
163.3132, 782.0837
163.7953, 780.0895
164.2774, 777.9641
164.7595, 777.7603
165.2416, 779.9522
165.7237, 781.6651
166.2059, 780.2552
166.6880, 777.6351
167.1701, 776.7197
167.6522, 780.1524
168.1343, 784.8275
168.6164, 788.7673
169.0986, 791.8231
169.5807, 793.8705
170.0628, 794.7349
170.5449, 794.5598
171.0270, 793.6011
171.5091, 789.9648
171.9913, 786.6033
172.4734, 787.0206
172.9555, 792.6934
173.4376, 798.8241
173.9197, 801.2597
174.4018, 800.8788
174.8840, 800.0100
175.3661, 798.9789
175.8482, 798.5643
176.3303, 799.9246
176.8124, 803.5212
177.2945, 808.2438
177.7767, 813.3891
178.2588, 818.8366
178.7409, 823.8730
179.2230, 828.0894
179.7051, 831.6393
180.1872, 834.5881
180.6694, 836.6444
181.1515, 838.7204
181.6336, 842.5117
182.1157, 847.7534
182.5978, 852.5403
183.0799, 854.9747
183.5621, 855.9276
184.0442, 857.7435
184.5263, 861.0407
185.0084, 865.1984
185.4905, 869.5372
185.9726, 874.0175
186.4547, 878.1252
186.9369, 880.7131
187.4190, 882.3838
187.9011, 885.8253
188.3832, 892.5671
188.8653, 900.5557
189.3474, 904.8051
189.8296, 905.2458
190.3117, 905.1467
190.7938, 907.0575
191.2759, 910.8387
191.7580, 915.5072
192.2401, 921.3867
192.7223, 927.7692
193.2044, 932.1774
193.6865, 934.3842
194.1686, 936.6979
194.6507, 941.8514
195.1328, 949.6554
195.6150, 956.1165
196.0971, 959.9366
196.5792, 961.7347
197.0613, 963.8514
197.5434, 966.2845
198.0255, 968.9561
198.5077, 972.3303
198.9898, 976.5251
199.4719, 978.6144
199.9540, 976.8591
200.4361, 972.3623
200.9182, 971.7263
201.4004, 975.9054
201.8825, 981.0828
202.3646, 983.5817
202.8467, 983.2266
203.3288, 981.4473
203.8109, 977.7526
204.2931, 972.6415
204.7752, 970.9896
205.2573, 973.9468
205.7394, 977.6174
206.2215, 977.5288
206.7036, 972.8754
207.1858, 968.8490
207.6679, 967.3605
208.1500, 968.0768
208.6321, 965.4818
209.1142, 958.6268
209.5963, 950.2444
210.0785, 943.1502
210.5606, 937.6187
211.0427, 932.5214
211.5248, 927.5413
212.0069, 922.6898
212.4890, 918.3390
212.9712, 914.4001
213.4533, 911.0955
213.9354, 909.0382
214.4175, 908.9295
214.8996, 907.8264
215.3817, 904.5306
215.8639, 899.0589
216.3460, 895.5280
216.8281, 895.0837
217.3102, 895.0348
217.7923, 891.9213
218.2744, 883.9167
218.7566, 877.5353
219.2387, 874.9749
219.7208, 876.3224
220.2029, 875.8549
220.6850, 872.6797
221.1671, 868.7479
221.6493, 866.5459
222.1314, 867.3943
222.6135, 866.8090
223.0956, 863.1312
223.5777, 856.1027
224.0598, 851.5117
224.5420, 850.1053
225.0241, 850.2623
225.5062, 850.3052
225.9883, 850.1366
226.4704, 850.0879
226.9525, 850.4644
227.4347, 851.3337
227.9168, 850.7920
228.3989, 847.5387
228.8810, 844.2579
229.3631, 844.1891
229.8452, 849.8236
230.3274, 853.6896
230.8095, 853.7346
231.2916, 849.7823
231.7737, 846.9823
232.2558, 845.5090
232.7379, 845.0033
233.2201, 845.3519
233.7022, 847.5234
234.1843, 848.6072
234.6664, 847.5667
235.1485, 844.3693
235.6306, 842.5006
236.1128, 842.8713
236.5949, 843.6105
237.0770, 842.6805
237.5591, 838.3237
238.0412, 835.7660
238.5233, 836.6019
239.0055, 840.8374
239.4876, 843.7061
239.9697, 845.1577
240.4518, 845.3474
240.9339, 844.0032
241.4160, 839.2009
241.8982, 836.7512
242.3803, 838.4784
242.8624, 844.2316
243.3445, 848.0783
243.8266, 849.0026
244.3087, 849.2059
244.7909, 850.6136
245.2730, 854.2331
245.7551, 856.9725
246.2372, 858.0142
246.7193, 857.5258
247.2014, 857.9193
247.6836, 859.3915
248.1657, 861.4808
248.6478, 863.8577
249.1299, 866.6401
249.6120, 869.4886
250.0941, 872.4819
250.5762, 875.5573
251.0584, 878.0122
251.5405, 878.9134
252.0226, 880.4324
252.5047, 884.3213
252.9868, 892.0327
253.4689, 898.7321
253.9511, 903.4962
254.4332, 906.8104
254.9153, 911.3534
255.3974, 917.7717
255.8795, 924.4457
256.3617, 930.1012
256.8438, 933.9298
257.3259, 938.9926
257.8080, 945.7508
258.2901, 953.8754
258.7722, 962.4880
259.2544, 972.0992
259.7365, 981.3705
260.2186, 989.5949
260.7007, 996.1395
261.1828, 1003.235
261.6649, 1011.045
262.1471, 1019.412
262.6292, 1028.112
263.1113, 1036.907
263.5934, 1046.364
264.0755, 1056.979
264.5576, 1069.432
265.0398, 1080.875
265.5219, 1091.207
266.0040, 1100.587
266.4861, 1109.282
266.9682, 1116.444
267.4503, 1124.935
267.9325, 1136.322
268.4146, 1151.663
268.8967, 1165.980
269.3788, 1179.489
269.8609, 1191.787
270.3430, 1201.055
270.8252, 1205.939
271.3073, 1212.287
271.7894, 1222.918
272.2715, 1238.322
272.7536, 1252.715
273.2357, 1266.144
273.7179, 1278.246
274.2000, 1288.065
274.6821, 1294.870
275.1642, 1302.411
275.6463, 1312.815
276.1284, 1326.086
276.6106, 1335.859
277.0927, 1341.576
277.5748, 1345.002
278.0569, 1348.684
278.5390, 1352.933
279.0211, 1354.858
279.5032, 1352.959
279.9854, 1347.699
280.4675, 1343.174
280.9496, 1339.728
281.4317, 1335.917
281.9138, 1329.923
282.3959, 1321.675
282.8781, 1313.457
283.3602, 1306.208
283.8423, 1299.364
284.3244, 1290.118
284.8065, 1278.013
285.2886, 1266.081
285.7708, 1257.003
286.2529, 1250.687
286.7350, 1245.640
287.2171, 1241.812
287.6992, 1238.839
288.1813, 1236.098
288.6635, 1233.610
289.1456, 1230.571
289.6277, 1225.540
290.1098, 1218.973
290.5919, 1214.244
291.0740, 1212.139
291.5562, 1211.641
292.0383, 1210.725
292.5204, 1209.435
293.0025, 1208.905
293.4846, 1210.754
293.9667, 1214.119
294.4489, 1216.010
294.9310, 1216.057
295.4131, 1214.611
295.8952, 1211.343
296.3773, 1206.609
296.8594, 1202.539
297.3416, 1201.334
297.8237, 1201.544
298.3058, 1199.615
298.7879, 1195.027
299.2700, 1189.649
299.7521, 1185.875
300.2343, 1183.209
300.7164, 1180.260
301.1985, 1175.705
301.6806, 1170.605
302.1627, 1166.691
302.6448, 1164.002
303.1270, 1162.027
303.6091, 1160.342
304.0912, 1158.999
304.5733, 1158.039
305.0554, 1157.743
305.5375, 1157.700
306.0197, 1157.749
306.5018, 1157.847
306.9839, 1157.225
307.4660, 1154.121
307.9481, 1150.227
308.4302, 1147.920
308.9124, 1147.875
309.3945, 1149.740
309.8766, 1154.457
310.3587, 1161.431
310.8408, 1167.281
311.3229, 1169.211
311.8051, 1169.385
312.2872, 1169.871
312.7693, 1171.080
313.2514, 1172.850
313.7335, 1175.984
314.2156, 1179.769
314.6978, 1182.175
315.1799, 1180.861
315.6620, 1178.683
316.1441, 1177.897
316.6262, 1179.568
317.1083, 1180.692
317.5905, 1181.060
318.0726, 1179.911
318.5547, 1175.896
319.0368, 1165.625
319.5189, 1154.654
320.0010, 1146.056
320.4832, 1140.617
320.9653, 1134.622
321.4474, 1125.569
321.9295, 1115.901
322.4116, 1108.477
322.8937, 1106.539
323.3759, 1104.424
323.8580, 1099.909
324.3401, 1092.790
324.8222, 1087.196
325.3043, 1085.093
325.7864, 1084.015
326.2686, 1082.060
326.7507, 1077.165
327.2328, 1073.466
327.7149, 1071.115
328.1970, 1070.219
328.6791, 1071.668
329.1613, 1078.624
329.6434, 1085.397
330.1255, 1089.096
330.6076, 1087.555
331.0897, 1085.987
331.5718, 1083.598
332.0540, 1081.264
332.5361, 1081.690
333.0182, 1087.348
333.5003, 1092.527
333.9824, 1094.649
334.4645, 1092.290
334.9467, 1091.396
335.4288, 1092.732
335.9109, 1095.005
336.3930, 1096.127
336.8751, 1095.930
337.3572, 1094.949
337.8394, 1092.862
338.3215, 1089.560
338.8036, 1088.110
339.2857, 1088.694
339.7678, 1090.823
340.2499, 1094.532
340.7321, 1100.185
341.2142, 1104.969
341.6963, 1108.480
342.1784, 1110.582
342.6605, 1109.519
343.1426, 1104.439
343.6248, 1100.205
344.1069, 1101.913
344.5890, 1109.207
345.0711, 1114.065
345.5532, 1114.246
346.0353, 1112.826
346.5175, 1116.866
346.9996, 1126.319
347.4817, 1135.990
347.9638, 1142.654
348.4459, 1146.960
348.9280, 1151.031
349.4102, 1154.870
349.8923, 1159.076
350.3744, 1165.005
350.8565, 1172.095
351.3386, 1178.283
351.8207, 1182.179
352.3029, 1184.635
352.7850, 1186.819
353.2671, 1188.762
353.7492, 1191.053
354.2313, 1194.804
354.7134, 1199.174
355.1956, 1202.701
355.6777, 1204.381
356.1598, 1205.479
356.6419, 1206.816
357.1240, 1208.489
357.6061, 1211.001
358.0883, 1215.642
358.5704, 1220.828
359.0525, 1224.903
359.5346, 1227.213
360.0167, 1228.974
360.4988, 1230.644
360.9810, 1232.252
361.4631, 1233.852
361.9452, 1234.604
362.4273, 1235.963
362.9094, 1239.549
363.3915, 1246.519
363.8737, 1250.975
364.3558, 1248.940
364.8379, 1243.987
365.3200, 1240.298
365.8021, 1240.901
366.2842, 1240.811
366.7664, 1238.936
367.2485, 1235.242
367.7306, 1229.610
368.2127, 1220.598
368.6948, 1210.576
369.1769, 1201.043
369.6591, 1193.180
370.1412, 1184.440
370.6233, 1174.694
371.1054, 1163.967
371.5875, 1152.225
372.0696, 1138.905
372.5518, 1125.406
373.0339, 1112.097
373.5160, 1098.638
373.9981, 1086.138
374.4802, 1074.149
374.9623, 1063.323
375.4445, 1055.298
375.9266, 1051.209
376.4087, 1046.513
376.8908, 1039.674
377.3729, 1030.749
377.8550, 1022.206
378.3372, 1013.944
378.8193, 1006.522
379.3014, 1000.806
379.7835, 996.8065
380.2656, 993.1641
380.7477, 989.5594
381.2299, 986.2067
381.7120, 983.6500
382.1941, 981.9122
382.6762, 980.5887
383.1583, 979.8527
383.6404, 979.3969
384.1226, 977.9997
384.6047, 975.4556
385.0868, 972.2833
385.5689, 968.7003
386.0510, 964.9181
386.5331, 961.6749
387.0153, 959.2230
387.4974, 957.5394
387.9795, 956.7540
388.4616, 956.8709
388.9437, 957.2590
389.4258, 957.2089
389.9080, 957.1935
390.3901, 957.9225
390.8722, 960.0348
391.3543, 962.4720
391.8364, 964.6994
392.3185, 966.6532
392.8007, 968.1694
393.2828, 968.3832
393.7649, 968.6241
394.2470, 970.0539
394.7291, 973.5302
395.2112, 976.2531
395.6934, 977.0966
396.1755, 976.5809
396.6576, 975.4944
397.1397, 971.8226
397.6218, 969.6743
398.1039, 971.0350
398.5861, 976.3307
399.0682, 980.7990
399.5503, 984.0745
400.0324, 986.3099
400.5145, 987.5780
400.9966, 986.7918
401.4788, 986.6001
401.9609, 987.2202
402.4430, 988.5788
402.9251, 990.4688
403.4072, 993.4136
403.8893, 996.1116
404.3714, 997.7140
404.8535, 997.6429
405.3357, 999.0487
405.8178, 1002.415
406.2999, 1006.574
406.7820, 1010.018
407.2641, 1012.777
407.7462, 1014.446
408.2284, 1013.880
408.7105, 1012.107
409.1926, 1015.359
409.6747, 1024.315
410.1568, 1033.321
410.6389, 1036.366
411.1211, 1034.682
411.6032, 1035.716
412.0853, 1041.362
412.5674, 1048.930
413.0495, 1054.784
413.5316, 1059.167
414.0138, 1063.147
414.4959, 1068.022
414.9780, 1072.674
415.4601, 1074.940
415.9422, 1074.600
416.4243, 1073.925
416.9065, 1075.683
417.3886, 1078.094
417.8707, 1078.497
418.3528, 1075.868
418.8349, 1071.030
419.3170, 1063.328
419.7992, 1053.329
420.2813, 1044.158
420.7634, 1038.487
421.2455, 1033.026
421.7276, 1025.145
422.2097, 1012.487
422.6919, 1001.943
423.1740, 996.5252
423.6561, 993.9264
424.1382, 990.4753
424.6203, 984.9241
425.1024, 979.2616
425.5846, 973.5944
426.0667, 967.8812
426.5488, 963.4528
427.0309, 960.4632
427.5130, 958.5770
427.9951, 957.8340
428.4773, 959.6579
428.9594, 959.4144
429.4415, 956.0889
429.9236, 950.8586
430.4057, 946.1940
430.8878, 941.5602
431.3700, 939.3416
431.8521, 942.0120
432.3342, 949.5789
432.8163, 952.1927
433.2984, 948.9440
433.7805, 943.9471
434.2627, 941.8287
434.7448, 942.3307
435.2269, 942.7716
435.7090, 942.1481
436.1911, 941.3993
436.6732, 943.4920
437.1554, 947.9212
437.6375, 950.5333
438.1196, 946.3859
438.6017, 939.2223
439.0838, 935.6024
439.5659, 936.8110
440.0481, 938.5331
440.5302, 936.4455
441.0123, 932.4709
441.4944, 929.8402
441.9765, 931.8071
442.4586, 933.9242
442.9408, 932.9949
443.4229, 929.3895
443.9050, 926.3615
444.3871, 926.3548
444.8692, 926.6888
445.3513, 925.4870
445.8335, 921.2200
446.3156, 917.6245
446.7977, 916.1981
447.2798, 915.7469
447.7619, 914.1605
448.2440, 909.0581
448.7262, 905.2660
449.2083, 904.1382
449.6904, 905.7946
450.1725, 907.5317
450.6546, 909.7676
451.1367, 911.5436
451.6189, 911.9520
452.1010, 910.4711
452.5831, 909.4712
453.0652, 909.3837
453.5473, 909.6705
454.0294, 908.7705
454.5116, 906.4424
454.9937, 904.9175
455.4758, 906.0539
455.9579, 909.0837
456.4400, 909.2489
456.9221, 906.2918
457.4043, 902.8545
457.8864, 901.4857
458.3685, 901.7014
458.8506, 901.9095
459.3327, 901.2094
459.8148, 901.1919
460.2970, 905.4532
460.7791, 912.4180
461.2612, 916.7425
461.7433, 912.8621
462.2254, 906.6827
462.7076, 903.4536
463.1897, 903.8149
463.6718, 904.7100
464.1539, 904.7963
464.6360, 904.5239
465.1181, 904.3358
465.6003, 904.6693
466.0824, 904.7684
466.5645, 903.8516
467.0466, 902.4026
467.5287, 902.2710
468.0108, 905.0789
468.4930, 907.9535
468.9751, 909.9525
469.4572, 911.0259
469.9393, 911.2974
470.4214, 910.2604
470.9035, 908.8612
471.3857, 908.1199
471.8678, 908.1657
472.3499, 908.3738
472.8320, 908.4119
473.3141, 908.6359
473.7962, 910.9460
474.2784, 915.7987
474.7605, 919.5062
475.2426, 918.6561
475.7247, 914.3016
476.2068, 913.4418
476.6889, 916.8138
477.1711, 920.5723
477.6532, 919.1439
478.1353, 914.5613
478.6174, 912.6460
479.0995, 917.0864
479.5816, 922.9628
480.0638, 924.4720
480.5459, 922.5467
481.0280, 920.6376
481.5101, 920.8209
481.9922, 921.6927
482.4743, 922.1912
482.9565, 922.1621
483.4386, 921.8644
483.9207, 921.1024
484.4028, 920.2496
484.8849, 919.7025
485.3670, 921.3255
485.8492, 921.3009
486.3313, 917.8797
486.8134, 911.8688
487.2955, 907.2687
487.7776, 903.5200
488.2597, 902.0327
488.7419, 904.1342
489.2240, 911.1250
489.7061, 915.1764
490.1882, 915.3581
490.6703, 913.9836
491.1524, 913.6963
491.6346, 914.7014
492.1167, 914.9954
492.5988, 913.8075
493.0809, 912.0119
493.5630, 912.3594
494.0451, 914.7549
494.5273, 916.4723
495.0094, 915.1040
495.4915, 912.0054
495.9736, 910.4132
496.4557, 910.5422
496.9378, 910.9578
497.4200, 910.4089
497.9021, 909.3324
498.3842, 908.3945
498.8663, 907.7661
499.3484, 907.3749
499.8305, 907.2601
500.3127, 907.3634
500.7948, 907.5223
501.2769, 907.9709
501.7590, 908.2262
502.2411, 908.0667
502.7232, 907.4562
503.2054, 906.5800
503.6875, 904.4533
504.1696, 902.7216
504.6517, 902.7005
505.1338, 905.9456
505.6159, 908.1442
506.0981, 908.8558
506.5802, 908.4414
507.0623, 907.5770
507.5444, 905.9984
508.0265, 904.7570
508.5086, 904.2355
508.9908, 904.3823
509.4729, 905.0741
509.9550, 906.4422
510.4371, 907.3475
510.9192, 906.0726
511.4013, 903.3563
511.8835, 902.3398
512.3655, 903.9647
512.8477, 905.8787
513.3298, 905.0817
513.8119, 902.4388
514.2940, 899.9929
514.7761, 898.9385
515.2582, 898.2499
515.7404, 896.7391
516.2225, 894.6346
516.7046, 893.6484
517.1867, 895.7101
517.6688, 898.3299
518.1509, 899.8439
518.6331, 899.5332
519.1152, 899.2822
519.5973, 899.2897
520.0794, 899.5275
520.5615, 899.9701
521.0436, 900.8901
521.5258, 901.5242
522.0079, 901.5309
522.4900, 901.1196
522.9721, 901.3901
523.4542, 902.4567
523.9363, 903.8300
524.4185, 905.5555
524.9006, 907.6330
525.3827, 908.7156
525.8648, 908.8231
526.3469, 907.9675
526.8290, 905.2020
527.3112, 901.2925
527.7933, 899.4408
528.2754, 901.4526
528.7575, 903.9028
529.2396, 902.6307
529.7217, 898.4000
530.2039, 893.4977
530.6860, 887.5169
531.1681, 882.4461
531.6502, 880.1151
532.1323, 880.5267
532.6144, 880.7911
533.0966, 880.7152
533.5787, 879.4542
534.0608, 876.1965
534.5429, 868.2070
535.0250, 862.4891
535.5071, 861.4617
535.9893, 862.3490
536.4714, 860.9932
536.9535, 855.3931
537.4356, 851.5638
537.9177, 851.6866
538.3998, 854.8209
538.8820, 854.9491
539.3641, 851.6704
539.8462, 847.3213
540.3283, 842.6771
540.8104, 837.9974
541.2925, 835.0363
541.7747, 833.9288
542.2568, 834.2645
542.7389, 837.1932
543.2210, 841.1882
543.7031, 842.4108
544.1852, 838.5933
544.6674, 833.5964
545.1495, 830.1876
545.6316, 828.3467
546.1137, 828.0197
546.5958, 831.9185
547.0779, 835.0040
547.5601, 833.9175
548.0422, 828.3854
548.5243, 823.6143
549.0064, 820.6613
549.4885, 818.8413
549.9706, 817.6727
550.4528, 816.5765
550.9349, 817.2805
551.4170, 820.8055
551.8991, 825.3179
552.3812, 828.3563
552.8633, 829.9860
553.3455, 829.7032
553.8276, 826.8234
554.3097, 822.2595
554.7918, 818.5081
555.2739, 815.6321
555.7560, 814.2957
556.2382, 816.3610
556.7203, 820.0140
557.2024, 820.7404
557.6845, 818.2655
558.1666, 815.7787
558.6487, 816.5103
559.1309, 818.6021
559.6130, 819.6863
560.0951, 819.0452
560.5772, 817.5946
561.0593, 814.6790
561.5414, 811.4014
562.0236, 809.7455
562.5057, 811.0731
562.9878, 813.1154
563.4699, 815.9027
563.9520, 819.2173
564.4341, 820.9799
564.9163, 820.7788
565.3984, 819.5732
565.8805, 817.3414
566.3626, 813.5460
566.8447, 812.3381
567.3268, 814.3379
567.8090, 817.1275
568.2911, 817.8677
568.7732, 816.7839
569.2553, 815.7982
569.7374, 815.2645
570.2195, 815.0730
570.7017, 815.0627
571.1838, 815.2527
571.6659, 815.6949
572.1480, 817.0011
572.6301, 818.1482
573.1122, 817.9088
573.5944, 816.4741
574.0765, 815.5807
574.5586, 817.0823
575.0407, 818.5609
575.5228, 818.4095
576.0049, 815.7217
576.4871, 813.4155
576.9692, 811.3844
577.4513, 810.0341
577.9334, 809.8008
578.4155, 811.0614
578.8976, 812.6760
579.3798, 814.8704
579.8619, 817.0757
580.3440, 817.5394
580.8261, 816.1043
581.3082, 815.0358
581.7903, 815.8985
582.2725, 817.6566
582.7546, 816.4743
583.2367, 812.6284
583.7188, 809.7797
584.2009, 811.8700
584.6830, 816.0583
585.1652, 818.9271
585.6473, 820.1002
586.1294, 819.4777
586.6115, 814.4071
587.0936, 808.6404
587.5757, 806.1976
588.0579, 812.1589
588.5400, 816.7078
589.0221, 817.1686
589.5042, 815.0636
589.9863, 813.9467
590.4684, 814.0817
