##NAMES=Jorgensenite
##RRUFFID=R100009
##IDEAL CHEMISTRY=Na_2_Sr_14_Na_2_Al_12_F_64_(OH)_4_
##LOCALITY=Ivigtut, Frederikshab District, South West Greenland
##OWNER=RRUFF
##SOURCE=William Pinch
##DESCRIPTION=Colorless massive, associated with pyrite, co-type sample
##STATUS=The identification of this mineral has been confirmed by single-crystal X-ray diffraction.
##URL=rruff.info/R100009
91.18097, 0.0000000E+00
91.66309, 2998.104
92.14520, 2970.924
92.62732, 2980.279
93.10944, 3021.637
93.59155, 3067.768
94.07367, 3094.996
94.55579, 3107.193
95.03790, 3112.098
95.52002, 3115.970
96.00214, 3119.914
96.48425, 3117.929
96.96637, 3109.554
97.44849, 3099.094
97.93060, 3089.157
98.41272, 3076.980
98.89484, 3060.190
99.37695, 3043.742
99.85907, 3025.643
100.3412, 3011.625
100.8233, 3002.043
101.3054, 2995.715
101.7875, 2991.475
102.2697, 2988.593
102.7518, 2986.953
103.2339, 2985.543
103.7160, 2982.925
104.1981, 2981.216
104.6802, 2981.842
105.1624, 2984.389
105.6445, 2986.596
106.1266, 2985.573
106.6087, 2981.146
107.0908, 2978.094
107.5729, 2975.949
108.0551, 2975.399
108.5372, 2978.014
109.0193, 2984.833
109.5014, 2991.956
109.9835, 2995.562
110.4656, 2996.320
110.9478, 2996.184
111.4299, 2995.360
111.9120, 2994.084
112.3941, 2994.408
112.8762, 2997.945
113.3583, 3002.047
113.8405, 3005.198
114.3226, 3007.307
114.8047, 3009.061
115.2868, 3011.507
115.7689, 3015.483
116.2510, 3017.551
116.7332, 3016.012
117.2153, 3013.637
117.6974, 3012.205
118.1795, 3012.274
118.6616, 3013.242
119.1437, 3013.740
119.6259, 3012.612
120.1080, 3012.344
120.5901, 3014.294
121.0722, 3016.786
121.5543, 3017.504
122.0364, 3015.081
122.5186, 3010.233
123.0007, 3006.964
123.4828, 3005.722
123.9649, 3005.063
124.4470, 3005.404
124.9291, 3006.231
125.4113, 3005.352
125.8934, 3000.099
126.3755, 2992.040
126.8576, 2988.352
127.3397, 2992.781
127.8218, 2999.512
128.3040, 3002.961
128.7861, 3002.586
129.2682, 3001.616
129.7503, 3003.106
130.2324, 3005.607
130.7145, 3006.579
131.1967, 3003.766
131.6788, 2998.634
132.1609, 2995.834
132.6430, 2996.844
133.1251, 2998.239
133.6072, 2997.960
134.0894, 2996.677
134.5715, 2995.952
135.0536, 2997.213
135.5357, 3000.656
136.0178, 3003.593
136.4999, 3005.839
136.9821, 3007.685
137.4642, 3009.046
137.9463, 3010.027
138.4284, 3010.910
138.9105, 3012.143
139.3926, 3014.323
139.8748, 3015.132
140.3569, 3013.589
140.8390, 3011.635
141.3211, 3010.524
141.8032, 3010.578
142.2853, 3011.327
142.7675, 3011.995
143.2496, 3012.146
143.7317, 3013.126
144.2138, 3016.012
144.6959, 3019.474
145.1780, 3021.740
145.6602, 3022.084
146.1423, 3021.285
146.6244, 3020.945
147.1065, 3021.219
147.5886, 3021.372
148.0707, 3021.360
148.5529, 3021.062
149.0350, 3019.966
149.5171, 3017.476
149.9992, 3014.342
150.4813, 3011.559
150.9634, 3008.889
151.4456, 3007.203
151.9277, 3007.605
152.4098, 3010.286
152.8919, 3013.049
153.3740, 3015.903
153.8561, 3018.010
154.3383, 3018.301
154.8204, 3016.157
155.3025, 3012.997
155.7846, 3011.064
156.2667, 3010.418
156.7488, 3011.063
157.2310, 3013.655
157.7131, 3017.024
158.1952, 3020.202
158.6773, 3022.780
159.1594, 3024.627
159.6415, 3025.224
160.1237, 3023.656
160.6058, 3021.728
161.0879, 3019.059
161.5700, 3016.344
162.0521, 3014.453
162.5342, 3013.929
163.0164, 3014.734
163.4985, 3016.487
163.9806, 3020.495
164.4627, 3024.022
164.9448, 3026.030
165.4269, 3026.874
165.9091, 3027.550
166.3912, 3028.883
166.8733, 3030.873
167.3554, 3031.954
167.8375, 3032.076
168.3196, 3031.538
168.8018, 3030.428
169.2839, 3028.787
169.7660, 3026.675
170.2481, 3023.755
170.7302, 3020.217
171.2123, 3018.264
171.6945, 3019.194
172.1766, 3021.147
172.6587, 3022.739
173.1408, 3023.981
173.6229, 3023.966
174.1050, 3020.177
174.5872, 3014.102
175.0693, 3010.046
175.5514, 3010.497
176.0335, 3013.612
176.5156, 3015.656
176.9977, 3015.970
177.4799, 3016.094
177.9620, 3018.111
178.4441, 3020.973
178.9262, 3021.894
179.4083, 3017.236
179.8904, 3008.274
180.3726, 3003.959
180.8547, 3007.646
181.3368, 3012.573
181.8189, 3015.866
182.3010, 3017.673
182.7831, 3018.787
183.2653, 3020.145
183.7474, 3021.896
184.2295, 3021.694
184.7116, 3016.457
185.1937, 3011.756
185.6758, 3009.771
186.1580, 3010.239
186.6401, 3011.579
187.1222, 3012.399
187.6043, 3012.856
188.0864, 3011.919
188.5685, 3008.580
189.0507, 3004.860
189.5328, 3001.425
190.0149, 2998.481
190.4970, 2996.185
190.9791, 2994.747
191.4612, 2994.535
191.9434, 2994.143
192.4255, 2993.383
192.9076, 2992.604
193.3897, 2992.437
193.8718, 2992.844
194.3539, 2992.694
194.8361, 2990.312
195.3182, 2984.005
195.8003, 2980.370
196.2824, 2981.815
196.7645, 2984.742
197.2466, 2985.904
197.7288, 2984.566
198.2109, 2981.696
198.6930, 2977.930
199.1751, 2972.835
199.6572, 2969.828
200.1393, 2971.099
200.6215, 2974.287
201.1036, 2975.778
201.5857, 2974.369
202.0678, 2972.583
202.5499, 2974.476
203.0320, 2979.707
203.5142, 2983.609
203.9963, 2983.330
204.4784, 2980.531
204.9605, 2979.265
205.4426, 2980.691
205.9247, 2983.083
206.4069, 2985.252
206.8890, 2987.133
207.3711, 2987.703
207.8532, 2984.896
208.3353, 2979.730
208.8174, 2977.699
209.2996, 2981.436
209.7817, 2986.331
210.2638, 2989.493
210.7459, 2990.902
211.2280, 2990.940
211.7101, 2989.698
212.1923, 2987.198
212.6744, 2983.831
213.1565, 2977.180
213.6386, 2972.160
214.1207, 2972.819
214.6028, 2978.027
215.0850, 2982.717
215.5671, 2981.474
216.0492, 2973.359
216.5313, 2967.064
217.0134, 2964.180
217.4955, 2962.054
217.9777, 2959.692
218.4598, 2957.142
218.9419, 2955.026
219.4240, 2954.247
219.9061, 2955.320
220.3882, 2955.167
220.8704, 2952.974
221.3525, 2950.339
221.8346, 2947.681
222.3167, 2945.165
222.7988, 2942.890
223.2809, 2940.895
223.7631, 2938.990
224.2452, 2938.190
224.7273, 2939.617
225.2094, 2940.950
225.6915, 2941.266
226.1736, 2940.388
226.6558, 2938.337
227.1379, 2934.859
227.6200, 2929.162
228.1021, 2925.865
228.5842, 2926.820
229.0663, 2928.211
229.5485, 2927.647
230.0306, 2925.149
230.5127, 2922.482
230.9948, 2921.518
231.4769, 2922.752
231.9590, 2922.891
232.4412, 2921.404
232.9233, 2919.376
233.4054, 2917.406
233.8875, 2915.574
234.3696, 2913.675
234.8517, 2911.430
235.3339, 2908.779
235.8160, 2906.907
236.2981, 2906.159
236.7802, 2905.900
237.2623, 2906.020
237.7444, 2906.414
238.2266, 2906.267
238.7087, 2904.647
239.1908, 2901.600
239.6729, 2899.170
240.1550, 2898.363
240.6371, 2897.578
241.1193, 2895.097
241.6014, 2890.854
242.0835, 2886.862
242.5656, 2884.665
243.0477, 2884.044
243.5298, 2883.688
244.0120, 2884.350
244.4941, 2884.712
244.9762, 2883.328
245.4583, 2880.119
245.9404, 2876.456
246.4225, 2872.398
246.9047, 2868.700
247.3868, 2866.987
247.8689, 2868.090
248.3510, 2870.766
248.8331, 2874.554
249.3152, 2879.736
249.7974, 2883.149
250.2795, 2881.822
250.7616, 2877.987
251.2437, 2874.502
251.7258, 2871.496
252.2079, 2869.544
252.6901, 2869.986
253.1722, 2873.242
253.6543, 2875.582
254.1364, 2874.784
254.6185, 2872.392
255.1006, 2869.655
255.5828, 2866.741
256.0649, 2863.865
256.5470, 2861.154
257.0291, 2858.526
257.5112, 2856.670
257.9933, 2856.484
258.4755, 2856.890
258.9576, 2857.485
259.4397, 2858.290
259.9218, 2858.313
260.4039, 2855.919
260.8860, 2850.594
261.3682, 2845.844
261.8503, 2842.489
262.3324, 2840.006
262.8145, 2838.449
263.2966, 2837.766
263.7787, 2837.116
264.2609, 2835.165
264.7430, 2831.438
265.2251, 2829.027
265.7072, 2829.446
266.1893, 2830.579
266.6714, 2831.517
267.1536, 2832.125
267.6357, 2832.637
268.1178, 2833.734
268.5999, 2835.855
269.0820, 2835.982
269.5641, 2831.822
270.0463, 2827.297
270.5284, 2823.894
271.0105, 2821.712
271.4926, 2820.203
271.9747, 2819.154
272.4568, 2818.738
272.9390, 2817.196
273.4211, 2812.511
273.9032, 2808.425
274.3853, 2805.933
274.8674, 2805.112
275.3495, 2806.000
275.8317, 2809.357
276.3138, 2815.248
276.7959, 2817.272
277.2780, 2810.827
277.7601, 2804.565
278.2422, 2800.344
278.7244, 2798.024
279.2065, 2797.079
279.6886, 2797.333
280.1707, 2798.604
280.6528, 2798.971
281.1349, 2797.918
281.6171, 2796.395
282.0992, 2794.415
282.5813, 2792.122
283.0634, 2789.571
283.5455, 2786.753
284.0276, 2783.863
284.5098, 2781.794
284.9919, 2781.533
285.4740, 2780.954
285.9561, 2779.667
286.4382, 2777.976
286.9203, 2775.943
287.4025, 2773.600
287.8846, 2771.543
288.3667, 2771.480
288.8488, 2775.701
289.3309, 2778.760
289.8130, 2779.530
290.2952, 2779.454
290.7773, 2780.093
291.2594, 2781.895
291.7415, 2783.863
292.2236, 2784.032
292.7057, 2780.195
293.1879, 2778.276
293.6700, 2779.542
294.1521, 2781.634
294.6342, 2782.672
295.1163, 2782.364
295.5984, 2781.877
296.0806, 2782.888
296.5627, 2786.413
297.0448, 2788.479
297.5269, 2788.365
298.0090, 2787.670
298.4911, 2787.178
298.9733, 2787.014
299.4554, 2787.049
299.9375, 2787.268
300.4196, 2787.875
300.9017, 2787.179
301.3839, 2784.266
301.8660, 2781.165
302.3481, 2778.060
302.8302, 2775.389
303.3123, 2774.117
303.7944, 2775.206
304.2766, 2778.530
304.7587, 2779.806
305.2408, 2777.682
305.7229, 2775.120
306.2050, 2772.396
306.6871, 2769.825
307.1693, 2767.883
307.6514, 2766.881
308.1335, 2766.586
308.6156, 2765.964
309.0977, 2764.183
309.5798, 2763.075
310.0620, 2764.054
310.5441, 2765.396
311.0262, 2764.651
311.5083, 2760.849
311.9904, 2755.488
312.4725, 2751.950
312.9547, 2753.163
313.4368, 2752.130
313.9189, 2746.948
314.4010, 2740.716
314.8831, 2736.429
315.3652, 2734.681
315.8474, 2733.440
316.3295, 2729.752
316.8116, 2722.103
317.2937, 2715.872
317.7758, 2712.442
318.2579, 2709.120
318.7401, 2704.116
319.2222, 2697.434
319.7043, 2690.213
320.1864, 2683.387
320.6685, 2676.804
321.1506, 2672.076
321.6328, 2671.635
322.1149, 2670.364
322.5970, 2665.591
323.0791, 2658.244
323.5612, 2650.933
324.0433, 2645.423
324.5255, 2641.521
325.0076, 2637.098
325.4897, 2630.230
325.9718, 2625.025
326.4539, 2623.381
326.9360, 2623.569
327.4182, 2623.013
327.9003, 2620.455
328.3824, 2616.711
328.8645, 2614.124
329.3466, 2614.885
329.8287, 2613.794
330.3109, 2609.062
330.7930, 2603.315
331.2751, 2598.769
331.7572, 2596.117
332.2393, 2594.915
332.7214, 2594.667
333.2036, 2596.293
333.6857, 2596.688
334.1678, 2595.729
334.6499, 2593.881
335.1320, 2590.546
335.6141, 2586.266
336.0963, 2583.035
336.5784, 2583.252
337.0605, 2587.636
337.5426, 2589.197
338.0247, 2586.191
338.5068, 2582.237
338.9890, 2577.627
339.4711, 2573.021
339.9532, 2569.435
340.4353, 2567.549
340.9174, 2567.210
341.3995, 2567.441
341.8817, 2569.587
342.3638, 2570.632
342.8459, 2570.172
343.3280, 2568.389
343.8101, 2564.963
344.2922, 2559.765
344.7744, 2554.235
345.2565, 2551.834
345.7386, 2555.300
346.2207, 2556.555
346.7028, 2553.781
347.1849, 2549.817
347.6671, 2546.581
348.1492, 2544.458
348.6313, 2542.875
349.1134, 2540.969
349.5955, 2538.420
350.0776, 2537.019
350.5598, 2538.469
351.0419, 2539.558
351.5240, 2538.955
352.0061, 2536.829
352.4882, 2533.946
352.9703, 2530.683
353.4525, 2527.132
353.9346, 2524.447
354.4167, 2523.375
354.8988, 2522.220
355.3809, 2520.414
355.8630, 2518.260
356.3452, 2516.251
356.8273, 2514.666
357.3094, 2513.179
357.7915, 2510.849
358.2736, 2506.999
358.7557, 2504.151
359.2379, 2504.038
359.7200, 2504.381
360.2021, 2503.055
360.6842, 2499.673
361.1663, 2496.310
361.6484, 2495.413
362.1306, 2497.188
362.6127, 2499.071
363.0948, 2501.996
363.5769, 2503.676
364.0590, 2502.528
364.5411, 2498.931
365.0233, 2494.566
365.5054, 2490.090
365.9875, 2485.683
366.4696, 2482.028
366.9517, 2478.755
367.4338, 2477.015
367.9160, 2478.861
368.3981, 2482.154
368.8802, 2483.645
369.3623, 2481.926
369.8444, 2478.322
370.3265, 2474.161
370.8087, 2469.231
371.2908, 2465.659
371.7729, 2465.446
372.2550, 2466.271
372.7371, 2465.564
373.2192, 2462.901
373.7014, 2460.103
374.1835, 2459.000
374.6656, 2459.070
375.1477, 2457.560
375.6298, 2452.994
376.1119, 2448.372
376.5941, 2447.391
377.0762, 2449.321
377.5583, 2449.927
378.0404, 2445.652
378.5225, 2439.972
379.0046, 2438.831
379.4868, 2443.016
379.9689, 2446.807
380.4510, 2446.082
380.9331, 2441.900
381.4152, 2437.940
381.8973, 2434.433
382.3795, 2431.057
382.8616, 2428.140
383.3437, 2425.229
383.8258, 2422.734
384.3079, 2420.492
384.7900, 2419.082
385.2722, 2420.500
385.7543, 2426.215
386.2364, 2429.103
386.7185, 2425.038
387.2006, 2417.948
387.6827, 2412.849
388.1649, 2410.749
388.6470, 2409.964
389.1291, 2408.997
389.6112, 2407.856
390.0933, 2405.927
390.5754, 2402.931
391.0576, 2399.421
391.5397, 2395.087
392.0218, 2390.416
392.5039, 2386.810
392.9860, 2385.221
393.4681, 2385.255
393.9503, 2385.074
394.4324, 2384.719
394.9145, 2384.122
395.3966, 2382.969
395.8787, 2381.691
396.3608, 2381.226
396.8430, 2381.759
397.3251, 2381.851
397.8072, 2379.087
398.2893, 2371.505
398.7714, 2366.410
399.2535, 2366.198
399.7357, 2366.001
400.2178, 2361.931
400.6999, 2355.098
401.1820, 2350.013
401.6641, 2350.593
402.1462, 2356.179
402.6284, 2358.108
403.1105, 2351.528
403.5926, 2346.953
404.0747, 2348.409
404.5568, 2351.978
405.0389, 2352.599
405.5211, 2348.327
406.0032, 2342.020
406.4853, 2338.849
406.9674, 2339.964
407.4495, 2340.650
407.9316, 2339.986
408.4138, 2339.150
408.8959, 2339.023
409.3780, 2339.440
409.8601, 2339.392
410.3422, 2337.851
410.8243, 2335.008
411.3065, 2332.435
411.7886, 2330.075
412.2707, 2328.060
412.7528, 2326.336
413.2349, 2324.959
413.7170, 2324.049
414.1992, 2323.680
414.6813, 2323.696
415.1634, 2324.553
415.6455, 2326.402
416.1276, 2326.100
416.6097, 2321.669
417.0919, 2315.532
417.5740, 2310.087
418.0561, 2305.398
418.5382, 2301.219
419.0203, 2297.039
419.5024, 2293.363
419.9846, 2291.667
420.4667, 2292.478
420.9488, 2293.534
421.4309, 2292.585
421.9130, 2290.359
422.3951, 2289.564
422.8773, 2293.255
423.3594, 2296.040
423.8415, 2293.121
424.3236, 2285.833
424.8057, 2279.136
425.2878, 2274.995
425.7700, 2272.754
426.2521, 2271.318
426.7342, 2271.106
427.2163, 2270.358
427.6984, 2268.195
428.1805, 2265.675
428.6627, 2264.047
429.1448, 2263.419
429.6269, 2262.819
430.1090, 2261.306
430.5911, 2258.811
431.0732, 2256.734
431.5554, 2255.840
432.0375, 2254.454
432.5196, 2251.494
433.0017, 2247.760
433.4838, 2244.690
433.9659, 2242.968
434.4481, 2241.915
434.9302, 2239.915
435.4123, 2235.674
435.8944, 2232.905
436.3765, 2232.642
436.8586, 2232.889
437.3408, 2232.760
437.8229, 2231.952
438.3050, 2230.113
438.7871, 2226.458
439.2692, 2221.217
439.7513, 2218.459
440.2335, 2220.253
440.7156, 2221.653
441.1977, 2221.102
441.6798, 2219.416
442.1619, 2217.399
442.6440, 2215.235
443.1262, 2213.553
443.6083, 2214.153
444.0904, 2217.467
444.5725, 2217.381
445.0546, 2209.467
445.5367, 2201.150
446.0189, 2198.628
446.5010, 2201.043
446.9831, 2203.136
447.4652, 2202.395
447.9473, 2199.489
448.4294, 2194.817
448.9116, 2188.001
449.3937, 2182.822
449.8758, 2182.451
450.3579, 2184.899
450.8400, 2185.521
451.3221, 2183.276
451.8043, 2181.010
452.2864, 2180.683
452.7685, 2181.362
453.2506, 2181.262
453.7327, 2179.999
454.2148, 2177.292
454.6970, 2172.111
455.1791, 2163.684
455.6612, 2158.623
456.1433, 2159.756
456.6254, 2161.786
457.1075, 2161.630
457.5897, 2159.640
458.0718, 2157.490
458.5539, 2156.110
459.0360, 2155.176
459.5181, 2153.677
460.0002, 2151.736
460.4824, 2148.965
460.9645, 2143.883
461.4466, 2138.999
461.9287, 2136.612
462.4108, 2136.782
462.8929, 2137.789
463.3751, 2138.011
463.8572, 2137.445
464.3393, 2136.856
464.8214, 2136.079
465.3035, 2135.482
465.7856, 2135.878
466.2678, 2136.226
466.7499, 2134.934
467.2320, 2131.309
467.7141, 2126.930
468.1962, 2123.974
468.6783, 2122.492
469.1605, 2121.737
469.6426, 2122.619
470.1247, 2123.027
470.6068, 2120.965
471.0889, 2117.031
471.5710, 2113.753
472.0532, 2112.967
472.5353, 2113.269
473.0174, 2112.368
473.4995, 2110.218
473.9816, 2108.174
474.4637, 2107.204
474.9459, 2106.506
475.4280, 2104.455
475.9101, 2100.689
476.3922, 2096.818
476.8743, 2093.417
477.3564, 2090.288
477.8386, 2087.032
478.3207, 2083.585
478.8028, 2080.569
479.2849, 2078.586
479.7670, 2077.654
480.2491, 2077.004
480.7313, 2076.769
481.2134, 2076.635
481.6955, 2076.871
482.1776, 2077.038
482.6597, 2076.428
483.1418, 2074.797
483.6240, 2072.543
484.1061, 2070.201
484.5882, 2067.273
485.0703, 2065.702
485.5524, 2066.373
486.0345, 2067.404
486.5167, 2068.583
486.9988, 2069.403
487.4809, 2068.869
487.9630, 2066.165
488.4451, 2062.202
488.9272, 2059.118
489.4094, 2056.847
489.8915, 2055.672
490.3736, 2056.617
490.8557, 2058.071
491.3378, 2059.144
491.8199, 2059.714
492.3021, 2059.751
492.7842, 2058.646
493.2663, 2057.078
493.7484, 2056.883
494.2305, 2058.368
494.7126, 2060.013
495.1948, 2061.076
495.6769, 2061.586
496.1590, 2061.678
496.6411, 2061.096
497.1232, 2060.586
497.6053, 2060.328
498.0875, 2060.419
498.5696, 2061.056
499.0517, 2062.279
499.5338, 2063.933
500.0159, 2065.904
500.4980, 2068.215
500.9802, 2070.480
501.4623, 2073.426
501.9444, 2075.568
502.4265, 2075.447
502.9086, 2074.377
503.3907, 2074.678
503.8729, 2077.262
504.3550, 2080.817
504.8371, 2082.948
505.3192, 2082.957
505.8013, 2083.516
506.2834, 2084.627
506.7656, 2086.298
507.2477, 2088.834
507.7298, 2091.940
508.2119, 2095.010
508.6940, 2097.736
509.1761, 2100.188
509.6583, 2102.557
510.1404, 2104.880
510.6225, 2106.822
511.1046, 2107.555
511.5867, 2108.513
512.0688, 2111.372
512.5510, 2116.029
513.0331, 2120.100
513.5152, 2122.196
513.9973, 2123.156
514.4794, 2124.153
514.9615, 2125.241
515.4437, 2126.040
515.9258, 2126.422
516.4079, 2126.305
516.8900, 2125.408
517.3721, 2123.673
517.8542, 2121.458
518.3364, 2118.731
518.8185, 2115.629
519.3006, 2112.545
519.7827, 2109.384
520.2648, 2105.186
520.7469, 2098.882
521.2291, 2090.729
521.7112, 2084.552
522.1933, 2082.510
522.6754, 2079.917
523.1575, 2076.448
523.6396, 2071.987
524.1218, 2066.056
524.6039, 2058.720
525.0860, 2051.327
525.5681, 2045.193
526.0502, 2040.337
526.5323, 2035.984
527.0145, 2032.759
527.4966, 2028.978
527.9787, 2023.591
528.4608, 2017.251
528.9429, 2010.561
529.4250, 2003.325
529.9072, 1996.900
530.3893, 1992.794
530.8714, 1990.424
531.3535, 1988.107
531.8356, 1985.727
532.3177, 1982.354
532.7999, 1976.712
533.2820, 1968.885
533.7641, 1962.012
534.2462, 1956.567
534.7283, 1951.677
535.2104, 1947.384
535.6926, 1943.277
536.1747, 1938.475
536.6568, 1932.740
537.1389, 1926.930
537.6210, 1922.348
538.1031, 1919.280
538.5853, 1916.022
539.0674, 1912.121
539.5495, 1908.529
540.0316, 1906.171
540.5137, 1904.165
540.9958, 1901.097
541.4780, 1896.352
541.9601, 1890.649
542.4422, 1884.621
542.9243, 1878.146
543.4064, 1873.249
543.8885, 1871.022
544.3707, 1869.397
544.8528, 1867.018
545.3349, 1864.113
545.8170, 1861.255
546.2991, 1858.644
546.7813, 1856.145
547.2634, 1853.642
547.7455, 1851.144
548.2276, 1848.674
548.7097, 1846.275
549.1918, 1843.767
549.6740, 1840.776
550.1561, 1837.090
550.6382, 1834.354
551.1203, 1833.400
551.6024, 1832.585
552.0845, 1831.215
552.5667, 1829.313
553.0488, 1826.940
553.5309, 1824.134
554.0130, 1821.140
554.4951, 1818.334
554.9772, 1815.557
555.4594, 1813.488
555.9415, 1813.608
556.4236, 1812.990
556.9057, 1809.619
557.3878, 1804.796
557.8699, 1801.123
558.3521, 1799.902
558.8342, 1799.825
559.3163, 1799.355
559.7984, 1798.489
560.2805, 1796.807
560.7626, 1793.716
561.2448, 1790.663
561.7269, 1789.651
562.2090, 1790.122
562.6911, 1789.309
563.1732, 1784.900
563.6553, 1780.765
564.1375, 1780.169
564.6196, 1781.762
565.1017, 1782.019
565.5838, 1779.667
566.0659, 1776.520
566.5480, 1775.229
567.0302, 1776.402
567.5123, 1776.668
567.9944, 1776.245
568.4765, 1774.805
568.9586, 1771.399
569.4407, 1767.139
569.9229, 1763.807
570.4050, 1762.075
570.8871, 1760.922
571.3692, 1758.748
571.8513, 1755.483
572.3334, 1753.112
572.8156, 1752.525
573.2977, 1751.758
573.7798, 1749.039
574.2619, 1745.461
574.7440, 1743.106
575.2261, 1742.848
575.7083, 1743.212
576.1904, 1743.543
576.6725, 1743.625
577.1546, 1742.742
577.6367, 1740.689
578.1188, 1738.376
578.6010, 1736.558
579.0831, 1735.240
579.5652, 1734.557
580.0473, 1735.324
580.5294, 1735.624
581.0115, 1734.502
581.4937, 1732.842
581.9758, 1731.719
582.4579, 1731.334
582.9400, 1731.058
583.4221, 1730.100
583.9042, 1728.515
584.3864, 1727.880
584.8685, 1729.049
585.3506, 1729.619
585.8327, 1728.361
586.3148, 1726.356
586.7969, 1724.540
587.2791, 1723.054
587.7612, 1722.047
