##NAMES=Jorgensenite
##RRUFFID=R100009
##IDEAL CHEMISTRY=Na_2_Sr_14_Na_2_Al_12_F_64_(OH)_4_
##LOCALITY=Ivigtut, Frederikshab District, South West Greenland
##OWNER=RRUFF
##SOURCE=William Pinch
##DESCRIPTION=Colorless massive, associated with pyrite, co-type sample
##STATUS=The identification of this mineral has been confirmed by single-crystal X-ray diffraction.
##URL=rruff.info/R100009
89.60352, 205.0698
90.08563, 195.5769
90.56775, 194.6129
91.04987, 211.7389
91.53198, 228.5613
92.01410, 213.1188
92.49622, 167.2644
92.97833, 126.2035
93.46045, 127.3497
93.94257, 160.9400
94.42468, 194.0589
94.90680, 217.8571
95.38892, 232.2458
95.87103, 235.1942
96.35315, 224.8490
96.83527, 210.3763
97.31738, 204.2067
97.79950, 206.5800
98.28162, 208.8491
98.76373, 202.6345
99.24585, 187.3103
99.72797, 192.5863
100.2101, 229.4206
100.6922, 277.3834
101.1743, 283.0663
101.6564, 231.7653
102.1385, 178.2971
102.6207, 156.4004
103.1028, 177.9754
103.5849, 194.9826
104.0670, 204.2357
104.5491, 205.6379
105.0313, 196.1319
105.5134, 161.5395
105.9955, 130.6118
106.4776, 126.9367
106.9597, 175.4066
107.4418, 215.9692
107.9240, 238.6266
108.4061, 241.5783
108.8882, 240.6010
109.3703, 233.7940
109.8524, 223.7463
110.3345, 213.2733
110.8167, 202.7966
111.2988, 191.5534
111.7809, 178.3863
112.2630, 160.9390
112.7451, 148.4337
113.2272, 141.3101
113.7094, 139.9718
114.1915, 145.0554
114.6736, 167.2907
115.1557, 188.5024
115.6378, 199.1584
116.1199, 192.2425
116.6021, 184.3818
117.0842, 188.7858
117.5663, 198.4364
118.0484, 192.2571
118.5305, 125.2618
119.0126, 55.73763
119.4948, 34.18827
119.9769, 119.5002
120.4590, 211.3576
120.9411, 238.1451
121.4232, 207.7541
121.9053, 177.4887
122.3875, 188.6123
122.8696, 221.4251
123.3517, 248.5730
123.8338, 261.1111
124.3159, 262.2839
124.7980, 249.1048
125.2802, 220.8409
125.7623, 197.9997
126.2444, 202.1239
126.7265, 226.7668
127.2086, 254.7424
127.6907, 280.8159
128.1729, 304.4003
128.6550, 318.9415
129.1371, 319.9210
129.6192, 328.7990
130.1013, 385.3811
130.5834, 483.1954
131.0656, 574.2905
131.5477, 625.3618
132.0298, 644.1987
132.5119, 668.6793
132.9940, 701.3970
133.4761, 742.9611
133.9583, 797.8704
134.4404, 866.7996
134.9225, 941.8806
135.4046, 1022.901
135.8867, 1110.699
136.3688, 1179.906
136.8510, 1221.911
137.3331, 1244.029
137.8152, 1279.824
138.2973, 1334.924
138.7794, 1388.430
139.2615, 1416.760
139.7437, 1408.500
140.2258, 1423.022
140.7079, 1476.183
141.1900, 1566.220
141.6721, 1655.339
142.1542, 1742.910
142.6364, 1829.889
143.1185, 1918.512
143.6006, 2012.910
144.0827, 2098.530
144.5648, 2165.223
145.0469, 2206.147
145.5291, 2274.931
146.0112, 2394.771
146.4933, 2530.249
146.9754, 2633.189
147.4575, 2686.895
147.9396, 2726.722
148.4218, 2760.371
148.9039, 2782.027
149.3860, 2811.370
149.8681, 2863.900
150.3502, 2922.388
150.8323, 2952.182
151.3145, 2903.113
151.7966, 2867.042
152.2787, 2877.990
152.7608, 2993.006
153.2429, 3067.818
153.7250, 3059.471
154.2072, 2999.857
154.6893, 2978.371
155.1714, 3029.663
155.6535, 3079.841
156.1356, 3113.793
156.6177, 3107.740
157.0999, 3113.876
157.5820, 3153.364
158.0641, 3216.429
158.5462, 3262.350
159.0283, 3263.238
159.5104, 3254.336
159.9926, 3258.605
160.4747, 3287.456
160.9568, 3323.726
161.4389, 3362.950
161.9210, 3404.648
162.4031, 3450.187
162.8853, 3511.206
163.3674, 3571.185
163.8495, 3615.005
164.3316, 3615.553
164.8137, 3617.474
165.2958, 3652.970
165.7780, 3721.420
166.2601, 3773.941
166.7422, 3767.358
167.2243, 3734.698
167.7064, 3717.987
168.1885, 3748.578
168.6707, 3789.944
169.1528, 3817.689
169.6349, 3830.617
170.1170, 3835.261
170.5991, 3825.895
171.0812, 3812.227
171.5634, 3811.189
172.0455, 3849.371
172.5276, 3893.822
173.0097, 3905.110
173.4918, 3875.328
173.9739, 3846.596
174.4561, 3859.783
174.9382, 3901.927
175.4203, 3942.118
175.9024, 3960.816
176.3845, 3969.095
176.8666, 3981.782
177.3488, 4000.938
177.8309, 4022.589
178.3130, 4038.895
178.7951, 4052.900
179.2772, 4075.301
179.7593, 4115.368
180.2415, 4167.587
180.7236, 4223.471
181.2057, 4283.689
181.6878, 4343.276
182.1699, 4403.932
182.6520, 4462.242
183.1342, 4502.397
183.6163, 4499.294
184.0984, 4467.991
184.5805, 4453.682
185.0626, 4466.792
185.5447, 4492.989
186.0269, 4508.830
186.5090, 4514.567
186.9911, 4518.850
187.4732, 4534.767
187.9553, 4557.125
188.4374, 4558.195
188.9196, 4527.646
189.4017, 4479.711
189.8838, 4446.679
190.3659, 4428.901
190.8480, 4411.247
191.3301, 4386.974
191.8123, 4354.892
192.2944, 4301.808
192.7765, 4217.878
193.2586, 4115.783
193.7407, 4034.065
194.2228, 3973.461
194.7050, 3927.284
195.1871, 3892.403
195.6692, 3868.727
196.1513, 3849.165
196.6334, 3832.320
197.1155, 3818.456
197.5977, 3808.758
198.0798, 3803.629
198.5619, 3801.167
199.0440, 3798.731
199.5261, 3795.932
200.0082, 3798.148
200.4904, 3806.698
200.9725, 3821.275
201.4546, 3840.751
201.9367, 3865.823
202.4188, 3893.781
202.9009, 3920.685
203.3831, 3945.761
203.8652, 3975.712
204.3473, 4012.678
204.8294, 4056.214
205.3115, 4101.872
205.7936, 4150.017
206.2758, 4199.495
206.7579, 4251.423
207.2400, 4307.807
207.7221, 4355.219
208.2042, 4386.406
208.6863, 4402.103
209.1685, 4431.164
209.6506, 4478.644
210.1327, 4531.229
210.6148, 4571.353
211.0969, 4592.470
211.5790, 4622.813
212.0612, 4674.210
212.5433, 4746.944
213.0254, 4806.019
213.5075, 4851.420
213.9896, 4883.350
214.4717, 4897.642
214.9538, 4885.063
215.4360, 4880.838
215.9181, 4898.630
216.4002, 4940.700
216.8823, 4965.318
217.3644, 4966.153
217.8465, 4956.645
218.3287, 4954.109
218.8108, 4962.886
219.2929, 4968.678
219.7750, 4967.866
220.2571, 4960.067
220.7392, 4948.019
221.2214, 4928.061
221.7035, 4907.463
222.1856, 4897.256
222.6677, 4906.177
223.1498, 4907.278
223.6319, 4893.023
224.1141, 4862.200
224.5962, 4824.823
225.0783, 4779.041
225.5604, 4728.814
226.0425, 4677.065
226.5246, 4618.620
227.0068, 4569.650
227.4889, 4538.658
227.9710, 4529.344
228.4531, 4509.233
228.9352, 4471.835
229.4173, 4429.053
229.8995, 4397.698
230.3816, 4382.089
230.8637, 4369.284
231.3458, 4354.447
231.8279, 4335.218
232.3100, 4328.342
232.7922, 4338.138
233.2743, 4356.688
233.7564, 4374.713
234.2385, 4393.760
234.7206, 4409.249
235.2027, 4418.487
235.6849, 4419.700
236.1670, 4427.644
236.6491, 4450.529
237.1312, 4473.591
237.6133, 4476.789
238.0954, 4449.421
238.5776, 4420.864
239.0597, 4398.773
239.5418, 4384.698
240.0239, 4367.331
240.5060, 4344.997
240.9881, 4320.760
241.4703, 4298.196
241.9524, 4277.079
242.4345, 4257.835
242.9166, 4238.072
243.3987, 4215.456
243.8808, 4210.905
244.3630, 4230.418
244.8451, 4262.673
245.3272, 4295.295
245.8093, 4330.944
246.2914, 4362.156
246.7735, 4386.333
247.2557, 4402.706
247.7378, 4419.361
248.2199, 4429.757
248.7020, 4446.756
249.1841, 4487.280
249.6662, 4566.393
250.1484, 4639.417
250.6305, 4696.013
251.1126, 4734.859
251.5947, 4771.147
252.0768, 4801.053
252.5589, 4831.836
253.0411, 4872.434
253.5232, 4928.931
254.0053, 4981.242
254.4874, 5026.362
254.9695, 5064.476
255.4516, 5092.793
255.9338, 5109.135
256.4159, 5118.577
256.8980, 5126.519
257.3801, 5136.209
257.8622, 5136.942
258.3444, 5125.703
258.8265, 5102.916
259.3086, 5076.919
259.7907, 5047.392
260.2728, 5016.058
260.7549, 4983.085
261.2371, 4943.769
261.7192, 4915.492
262.2013, 4903.000
262.6834, 4905.005
263.1655, 4908.805
263.6476, 4912.081
264.1298, 4920.993
264.6119, 4943.941
265.0940, 4988.011
265.5761, 5020.447
266.0582, 5031.241
266.5403, 5025.655
267.0225, 5037.379
267.5046, 5074.732
267.9867, 5111.689
268.4688, 5129.019
268.9509, 5123.901
269.4330, 5111.233
269.9152, 5091.499
270.3973, 5065.786
270.8794, 5040.624
271.3615, 5018.776
271.8436, 4990.008
272.3257, 4946.938
272.8079, 4887.771
273.2900, 4823.301
273.7721, 4747.697
274.2542, 4671.241
274.7363, 4629.306
275.2184, 4631.208
275.7006, 4631.879
276.1827, 4598.355
276.6648, 4526.523
277.1469, 4472.181
277.6290, 4441.989
278.1111, 4428.195
278.5933, 4414.763
279.0754, 4401.382
279.5575, 4389.334
280.0396, 4380.215
280.5217, 4374.097
281.0038, 4364.031
281.4860, 4347.197
281.9681, 4330.646
282.4502, 4328.990
282.9323, 4343.140
283.4144, 4358.345
283.8965, 4366.556
284.3787, 4368.480
284.8608, 4373.726
285.3429, 4382.938
285.8250, 4394.166
286.3071, 4401.420
286.7892, 4404.996
287.2714, 4418.213
287.7535, 4446.234
288.2356, 4489.077
288.7177, 4548.604
289.1998, 4628.257
289.6819, 4709.464
290.1641, 4765.244
290.6462, 4799.125
291.1283, 4839.720
291.6104, 4903.003
292.0925, 4980.195
292.5746, 5039.793
293.0568, 5080.475
293.5389, 5123.623
294.0210, 5192.231
294.5031, 5282.103
294.9852, 5376.814
295.4673, 5473.815
295.9495, 5570.158
296.4316, 5657.783
296.9137, 5736.448
297.3958, 5810.093
297.8779, 5877.033
298.3600, 5940.730
298.8422, 6014.145
299.3243, 6112.329
299.8064, 6208.607
300.2885, 6259.048
300.7706, 6268.683
301.2527, 6273.446
301.7349, 6296.863
302.2170, 6332.946
302.6991, 6371.366
303.1812, 6410.800
303.6633, 6451.141
304.1454, 6491.090
304.6276, 6531.406
305.1097, 6575.803
305.5918, 6622.544
306.0739, 6675.888
306.5560, 6742.030
307.0381, 6825.890
307.5203, 6912.548
308.0024, 6985.751
308.4845, 7052.134
308.9666, 7127.237
309.4487, 7231.994
309.9308, 7341.406
310.4130, 7433.268
310.8951, 7504.051
311.3772, 7563.374
311.8593, 7616.780
312.3414, 7661.923
312.8235, 7695.894
313.3057, 7728.309
313.7878, 7741.349
314.2699, 7726.560
314.7520, 7683.745
315.2341, 7609.381
315.7162, 7487.591
316.1984, 7337.880
316.6805, 7183.853
317.1626, 7031.919
317.6447, 6876.442
318.1268, 6713.470
318.6089, 6542.238
319.0911, 6373.778
319.5732, 6207.939
320.0553, 6047.525
320.5374, 5896.578
321.0195, 5751.749
321.5016, 5619.218
321.9838, 5500.229
322.4659, 5394.656
322.9480, 5301.813
323.4301, 5232.505
323.9122, 5167.886
324.3943, 5098.435
324.8765, 5014.815
325.3586, 4937.515
325.8407, 4864.425
326.3228, 4798.593
326.8049, 4747.611
327.2870, 4722.312
327.7692, 4703.528
328.2513, 4683.902
328.7334, 4658.222
329.2155, 4644.326
329.6976, 4650.000
330.1797, 4664.882
330.6619, 4672.415
331.1440, 4664.141
331.6261, 4660.128
332.1082, 4669.780
332.5903, 4697.546
333.0724, 4704.677
333.5546, 4676.040
334.0367, 4640.639
334.5188, 4632.401
335.0009, 4666.696
335.4830, 4692.853
335.9651, 4698.218
336.4473, 4684.907
336.9294, 4680.079
337.4115, 4687.378
337.8936, 4696.003
338.3757, 4694.263
338.8578, 4677.453
339.3399, 4675.705
339.8221, 4697.663
340.3042, 4735.044
340.7863, 4759.093
341.2684, 4767.688
341.7505, 4775.502
342.2326, 4789.042
342.7148, 4808.233
343.1969, 4841.858
343.6790, 4894.658
344.1611, 4953.304
344.6432, 4995.566
345.1253, 5021.436
345.6075, 5035.183
346.0896, 5029.528
346.5717, 5011.257
347.0538, 5013.482
347.5359, 5039.281
348.0180, 5069.483
348.5002, 5082.363
348.9823, 5080.540
349.4644, 5074.882
349.9465, 5068.289
350.4286, 5061.008
350.9107, 5052.418
351.3929, 5042.748
351.8750, 5035.063
352.3571, 5033.040
352.8392, 5034.769
353.3213, 5037.252
353.8034, 5042.038
354.2856, 5044.218
354.7677, 5036.538
355.2498, 5021.150
355.7319, 5006.603
356.2140, 4998.001
356.6961, 4992.779
357.1783, 4988.332
357.6604, 4984.203
358.1425, 4980.499
358.6246, 4977.462
359.1067, 4974.710
359.5888, 4971.574
360.0710, 4975.213
360.5531, 4972.539
361.0352, 4950.608
361.5173, 4905.149
361.9994, 4868.865
362.4815, 4859.891
362.9637, 4864.343
363.4458, 4867.328
363.9279, 4857.868
364.4100, 4853.599
364.8921, 4862.433
365.3742, 4883.460
365.8564, 4902.725
366.3385, 4923.155
366.8206, 4937.792
367.3027, 4942.463
367.7848, 4921.952
368.2669, 4909.339
368.7491, 4903.026
369.2312, 4905.521
369.7133, 4926.206
370.1954, 4991.734
370.6775, 5046.685
371.1596, 5065.044
371.6418, 5023.891
372.1239, 5014.578
372.6060, 5054.231
373.0881, 5113.598
373.5702, 5149.280
374.0523, 5149.355
374.5345, 5153.529
375.0166, 5175.665
375.4987, 5215.365
375.9808, 5238.648
376.4629, 5239.402
376.9450, 5237.104
377.4272, 5248.671
377.9093, 5274.661
378.3914, 5310.591
378.8735, 5359.087
379.3556, 5414.536
379.8377, 5466.437
380.3199, 5515.253
380.8020, 5550.703
381.2841, 5556.340
381.7662, 5539.375
382.2483, 5539.513
382.7304, 5562.359
383.2126, 5596.151
383.6947, 5627.089
384.1768, 5655.771
384.6589, 5684.563
385.1410, 5722.556
385.6231, 5759.316
386.1053, 5771.592
386.5874, 5758.399
387.0695, 5748.087
387.5516, 5775.752
388.0337, 5820.972
388.5158, 5848.649
388.9980, 5847.874
389.4801, 5825.890
389.9622, 5777.616
390.4443, 5709.569
390.9264, 5647.623
391.4085, 5617.253
391.8907, 5593.099
392.3728, 5554.173
392.8549, 5494.330
393.3370, 5427.185
393.8191, 5350.913
394.3012, 5272.614
394.7834, 5204.283
395.2655, 5150.404
395.7476, 5106.272
396.2297, 5075.593
396.7118, 5061.577
397.1939, 5034.288
397.6761, 4966.672
398.1582, 4895.449
398.6403, 4851.295
399.1224, 4869.017
399.6045, 4875.726
400.0866, 4859.753
400.5688, 4825.362
401.0509, 4797.753
401.5330, 4774.685
402.0151, 4760.885
402.4972, 4758.519
402.9793, 4767.800
403.4615, 4790.786
403.9436, 4837.397
404.4257, 4888.972
404.9078, 4907.364
405.3899, 4881.806
405.8720, 4864.755
406.3542, 4876.286
406.8363, 4914.001
407.3184, 4945.479
407.8005, 4970.494
408.2826, 4990.739
408.7647, 5004.806
409.2469, 5013.456
409.7290, 5028.180
410.2111, 5052.444
410.6932, 5082.456
411.1753, 5115.722
411.6574, 5150.793
412.1396, 5176.081
412.6217, 5180.333
413.1038, 5170.314
413.5859, 5157.579
414.0680, 5142.748
414.5501, 5127.993
415.0323, 5112.057
415.5144, 5097.793
415.9965, 5090.397
416.4786, 5102.815
416.9607, 5115.115
417.4428, 5107.216
417.9250, 5081.514
418.4071, 5060.993
418.8892, 5070.653
419.3713, 5084.052
419.8534, 5077.711
420.3355, 5033.380
420.8177, 4990.293
421.2998, 4960.528
421.7819, 4940.887
422.2640, 4923.576
422.7461, 4907.857
423.2282, 4893.747
423.7104, 4877.712
424.1925, 4854.493
424.6746, 4852.252
425.1567, 4892.733
425.6388, 4941.836
426.1209, 4969.489
426.6031, 4962.781
427.0852, 4954.777
427.5673, 4948.179
428.0494, 4943.206
428.5315, 4942.575
429.0136, 4948.982
429.4958, 4953.734
429.9779, 4950.537
430.4600, 4937.498
430.9421, 4929.733
431.4242, 4929.022
431.9063, 4930.924
432.3885, 4927.005
432.8706, 4917.201
433.3527, 4912.379
433.8348, 4919.343
434.3169, 4933.346
434.7990, 4937.049
435.2812, 4930.406
435.7633, 4927.894
436.2454, 4949.422
436.7275, 4983.966
437.2096, 5005.649
437.6917, 5007.502
438.1739, 5000.114
438.6560, 4993.115
439.1381, 4985.754
439.6202, 4976.040
440.1023, 4955.649
440.5844, 4937.364
441.0666, 4934.081
441.5487, 4947.196
442.0308, 4959.817
442.5129, 4962.428
442.9950, 4960.919
443.4771, 4960.918
443.9593, 4961.816
444.4414, 4966.657
444.9235, 4976.573
445.4056, 4991.043
445.8877, 5008.559
446.3698, 5037.920
446.8520, 5062.374
447.3341, 5074.130
447.8162, 5068.423
448.2983, 5063.860
448.7804, 5059.187
449.2625, 5056.473
449.7447, 5059.264
450.2268, 5072.433
450.7089, 5079.558
451.1910, 5075.718
451.6731, 5063.315
452.1552, 5055.077
452.6374, 5052.181
453.1195, 5049.921
453.6016, 5045.812
454.0837, 5039.953
454.5658, 5032.555
455.0479, 5023.984
455.5301, 5013.259
456.0122, 4994.423
456.4943, 4969.929
456.9764, 4956.242
457.4585, 4967.091
457.9406, 4987.694
458.4228, 4993.189
458.9049, 4984.571
459.3870, 4972.283
459.8691, 4958.383
460.3512, 4947.349
460.8333, 4946.021
461.3155, 4958.573
461.7976, 4972.700
462.2797, 4982.263
462.7618, 4987.765
463.2439, 4989.913
463.7260, 4985.757
464.2082, 4981.185
464.6903, 4976.670
465.1724, 4972.339
465.6545, 4975.747
466.1366, 5003.720
466.6187, 5030.121
467.1009, 5037.706
467.5830, 4994.984
468.0651, 4975.169
468.5472, 4988.589
469.0293, 5022.075
469.5114, 5050.480
469.9936, 5075.338
470.4757, 5091.390
470.9578, 5094.101
471.4399, 5083.643
471.9220, 5080.458
472.4041, 5085.556
472.8863, 5094.820
473.3684, 5103.565
473.8505, 5111.934
474.3326, 5127.894
474.8147, 5154.896
475.2968, 5185.542
475.7790, 5207.448
476.2611, 5221.401
476.7432, 5232.104
477.2253, 5236.874
477.7074, 5241.962
478.1895, 5260.978
478.6717, 5293.979
479.1538, 5324.096
479.6359, 5337.110
480.1180, 5340.378
480.6001, 5342.093
481.0822, 5339.440
481.5644, 5343.995
482.0465, 5368.257
482.5286, 5404.050
483.0107, 5433.623
483.4928, 5436.979
483.9749, 5445.862
484.4571, 5479.201
484.9392, 5543.300
485.4213, 5589.941
485.9034, 5597.531
486.3855, 5597.495
486.8676, 5610.706
487.3498, 5641.804
487.8319, 5678.696
488.3140, 5725.038
488.7961, 5774.439
489.2782, 5807.511
489.7603, 5815.771
490.2425, 5835.404
490.7246, 5885.904
491.2067, 5963.524
491.6888, 6020.843
492.1709, 6053.942
492.6530, 6088.298
493.1352, 6154.417
493.6173, 6243.779
494.0994, 6317.534
494.5815, 6363.216
495.0636, 6402.286
495.5457, 6457.773
496.0279, 6528.521
496.5100, 6610.600
496.9921, 6711.519
497.4742, 6817.622
497.9563, 6914.903
498.4384, 7004.276
498.9206, 7097.242
499.4027, 7197.013
499.8848, 7305.068
500.3669, 7425.264
500.8490, 7558.823
501.3311, 7701.549
501.8133, 7858.992
502.2954, 8024.895
502.7775, 8187.884
503.2596, 8342.009
503.7417, 8501.756
504.2238, 8666.521
504.7060, 8836.276
505.1881, 9023.985
505.6702, 9236.576
506.1523, 9453.624
506.6344, 9658.919
507.1165, 9848.232
507.5987, 10051.83
508.0808, 10269.56
508.5629, 10498.81
509.0450, 10737.36
509.5271, 10984.58
510.0092, 11230.87
510.4914, 11476.43
510.9735, 11719.54
511.4556, 11957.43
511.9377, 12189.11
512.4199, 12423.19
512.9020, 12672.22
513.3841, 12923.47
513.8662, 13166.64
514.3483, 13404.43
514.8304, 13612.73
515.3126, 13767.33
515.7947, 13885.91
516.2768, 13993.44
516.7589, 14111.66
517.2410, 14204.45
517.7231, 14259.67
518.2053, 14279.56
518.6874, 14276.23
519.1695, 14256.09
519.6516, 14207.10
520.1337, 14122.42
520.6158, 13995.53
521.0980, 13862.38
521.5801, 13728.31
522.0622, 13581.33
522.5443, 13402.34
523.0264, 13184.93
523.5085, 12973.79
523.9907, 12777.45
524.4728, 12592.46
524.9549, 12408.30
525.4370, 12224.47
525.9191, 12047.85
526.4012, 11884.08
526.8834, 11727.17
527.3655, 11563.77
527.8476, 11394.71
528.3297, 11230.97
528.8118, 11084.74
529.2939, 10949.56
529.7761, 10819.78
530.2582, 10700.27
530.7403, 10573.83
531.2224, 10424.37
531.7045, 10263.81
532.1866, 10112.35
532.6688, 9978.476
533.1509, 9849.925
533.6330, 9724.082
534.1151, 9601.561
534.5972, 9473.525
535.0793, 9337.942
535.5615, 9200.095
536.0436, 9062.651
536.5257, 8923.936
537.0078, 8788.308
537.4899, 8658.917
537.9720, 8528.328
538.4542, 8386.089
538.9363, 8229.821
539.4184, 8082.607
539.9005, 7950.154
540.3826, 7831.366
540.8647, 7734.634
541.3469, 7657.188
541.8290, 7577.851
542.3111, 7479.702
542.7932, 7373.042
543.2753, 7270.725
543.7574, 7173.305
544.2396, 7086.026
544.7217, 7019.211
545.2038, 6962.077
545.6859, 6903.122
546.1680, 6835.078
546.6501, 6773.482
547.1323, 6728.476
547.6144, 6693.042
548.0965, 6654.112
548.5786, 6605.486
549.0607, 6557.974
549.5428, 6513.858
550.0250, 6472.913
550.5071, 6430.926
550.9892, 6381.270
551.4713, 6342.624
551.9534, 6330.276
552.4355, 6348.337
552.9177, 6349.298
553.3998, 6330.614
553.8819, 6302.073
554.3640, 6272.211
554.8461, 6241.692
555.3282, 6213.669
555.8104, 6188.013
556.2925, 6167.318
556.7746, 6158.587
557.2567, 6158.536
557.7388, 6156.890
558.2209, 6146.730
558.7031, 6133.988
559.1852, 6120.813
559.6673, 6107.708
560.1494, 6101.979
560.6315, 6119.134
561.1136, 6136.294
561.5958, 6137.030
562.0779, 6105.293
562.5600, 6083.915
563.0421, 6078.681
563.5242, 6082.820
564.0063, 6089.263
564.4885, 6101.314
564.9706, 6107.065
565.4527, 6101.853
565.9348, 6089.729
566.4169, 6085.918
566.8990, 6091.617
567.3812, 6094.990
567.8633, 6085.292
568.3454, 6067.868
568.8275, 6063.567
569.3096, 6072.731
569.7917, 6085.784
570.2739, 6100.812
570.7560, 6112.427
571.2381, 6109.831
571.7202, 6085.322
572.2023, 6063.062
572.6844, 6055.724
573.1666, 6061.082
573.6487, 6075.646
574.1308, 6115.261
574.6129, 6146.218
575.0950, 6152.068
575.5771, 6137.677
576.0593, 6135.044
576.5414, 6152.707
577.0235, 6172.189
577.5056, 6185.338
577.9877, 6190.446
578.4698, 6205.044
578.9520, 6229.690
579.4341, 6262.288
579.9162, 6306.757
580.3983, 6361.324
580.8804, 6398.760
581.3625, 6410.623
581.8447, 6417.671
582.3268, 6453.906
582.8089, 6509.079
583.2910, 6555.449
583.7731, 6573.676
584.2552, 6585.038
584.7373, 6607.676
585.2194, 6639.548
585.7015, 6672.935
586.1837, 6703.388
586.6658, 6735.069
