##NAMES=Jouravskite
##RRUFFID=R110012
##IDEAL CHEMISTRY=Ca_3_Mn^4+^(S^6+^O_4_)(C^4+^O_3_)(OH)_6_&#183;12H_2_O
##LOCALITY=Wessels mine, Kurumen, Kalahari manganese field, Cape Province, South Africa
##OWNER=RRUFF
##SOURCE=William Pinch
##DESCRIPTION=Yellow hexagonal prism associated with calcite
##STATUS=The identification of this mineral has been confirmed only by single crystal X-ray diffraction.
##URL=rruff.info/R110012
159.5481, 211.9211
160.0302, 211.8032
160.5123, 211.0920
160.9945, 210.1313
161.4766, 209.5567
161.9587, 209.9250
162.4408, 209.8272
162.9229, 208.8577
163.4050, 207.6471
163.8871, 206.8007
164.3693, 206.5400
164.8514, 206.6304
165.3335, 206.5046
165.8156, 205.8279
166.2977, 205.4057
166.7798, 205.3984
167.2620, 205.6831
167.7441, 206.1604
168.2262, 206.8548
168.7083, 207.5618
169.1904, 207.6151
169.6725, 206.5775
170.1547, 205.8071
170.6368, 206.0551
171.1189, 207.0623
171.6010, 207.9472
172.0831, 208.3189
172.5652, 208.3055
173.0474, 208.2395
173.5295, 208.0471
174.0116, 207.9406
174.4937, 208.1832
174.9758, 208.7744
175.4579, 209.2266
175.9401, 209.3376
176.4222, 209.1765
176.9043, 208.7796
177.3864, 208.1007
177.8685, 207.3082
178.3506, 206.6580
178.8328, 206.2439
179.3149, 205.6219
179.7970, 204.4433
180.2791, 203.0860
180.7612, 201.7728
181.2433, 200.5208
181.7255, 199.5621
182.2076, 199.6106
182.6897, 201.8460
183.1718, 202.8446
183.6539, 201.4669
184.1360, 198.9140
184.6181, 196.2518
185.1003, 193.9600
185.5824, 192.0925
186.0645, 190.8889
186.5466, 191.1517
187.0287, 191.1297
187.5108, 190.5844
187.9930, 189.6388
188.4751, 188.3637
188.9572, 186.7763
189.4393, 185.0070
189.9214, 183.8232
190.4035, 184.0919
190.8857, 183.9876
191.3678, 182.9483
191.8499, 181.3254
192.3320, 179.7299
192.8141, 178.5244
193.2962, 177.6604
193.7784, 176.7525
194.2605, 175.7040
194.7426, 174.7226
195.2247, 173.8282
195.7068, 173.0463
196.1889, 172.5094
196.6711, 172.4416
197.1532, 172.6128
197.6353, 171.9681
198.1174, 169.7547
198.5995, 167.4986
199.0816, 165.9660
199.5638, 165.1091
200.0459, 164.6244
200.5280, 164.4313
201.0101, 164.4810
201.4922, 164.5864
201.9743, 164.9921
202.4565, 165.2006
202.9386, 164.5055
203.4207, 162.8689
203.9028, 161.6617
204.3849, 162.1948
204.8670, 163.4326
205.3492, 163.8606
205.8313, 162.9589
206.3134, 161.4780
206.7955, 160.3756
207.2776, 159.7736
207.7597, 158.9805
208.2419, 157.4577
208.7240, 155.6604
209.2061, 154.0472
209.6882, 152.8233
210.1703, 151.7195
210.6524, 150.0983
211.1346, 147.4918
211.6167, 145.6412
212.0988, 145.7891
212.5809, 146.5801
213.0630, 146.7638
213.5451, 145.8405
214.0273, 144.0782
214.5094, 141.9191
214.9915, 138.6714
215.4736, 136.3545
215.9557, 135.8546
216.4378, 136.0796
216.9200, 135.9325
217.4021, 134.9215
217.8842, 133.3764
218.3663, 132.2597
218.8484, 132.1801
219.3305, 131.6415
219.8127, 130.0013
220.2948, 128.0397
220.7769, 126.6491
221.2590, 126.2365
221.7411, 126.4229
222.2232, 126.0847
222.7054, 124.5790
223.1875, 123.2806
223.6696, 122.3404
224.1517, 121.6199
224.6338, 121.0187
225.1159, 120.4920
225.5980, 119.9539
226.0802, 119.1476
226.5623, 117.6575
227.0444, 116.3933
227.5265, 115.4855
228.0086, 114.8216
228.4907, 114.3440
228.9729, 114.0445
229.4550, 113.7756
229.9371, 113.1241
230.4192, 111.6199
230.9013, 110.4834
231.3834, 110.2014
231.8656, 110.3367
232.3477, 110.2378
232.8298, 109.6440
233.3119, 108.7605
233.7940, 108.0436
234.2761, 107.6450
234.7583, 107.0225
235.2404, 105.6597
235.7225, 104.0416
236.2046, 103.1738
236.6867, 103.5790
237.1688, 104.3513
237.6510, 103.6956
238.1331, 101.4086
238.6152, 99.40404
239.0973, 98.49257
239.5794, 98.30279
240.0615, 98.10243
240.5437, 97.75687
241.0258, 97.21159
241.5079, 96.24620
241.9900, 94.84910
242.4721, 93.72868
242.9542, 93.43813
243.4364, 93.65561
243.9185, 93.53691
244.4006, 92.84336
244.8827, 91.91357
245.3648, 91.00468
245.8469, 90.12666
246.3290, 89.43611
246.8112, 89.20766
247.2933, 89.24670
247.7754, 88.94377
248.2575, 88.16844
248.7396, 87.10844
249.2217, 85.60402
249.7039, 83.86980
250.1860, 82.70722
250.6681, 83.08359
251.1502, 84.47079
251.6323, 84.81110
252.1144, 83.48298
252.5966, 81.94516
253.0787, 81.03482
253.5608, 80.59157
254.0429, 80.25156
254.5250, 79.78310
255.0071, 79.25938
255.4893, 79.00113
255.9714, 79.22658
256.4535, 79.36892
256.9356, 79.26061
257.4177, 78.90799
257.8998, 78.26812
258.3820, 77.16528
258.8641, 75.83035
259.3462, 75.10763
259.8283, 75.27618
260.3104, 75.64783
260.7925, 76.23935
261.2747, 76.79562
261.7568, 76.98612
262.2389, 76.64176
262.7210, 75.84478
263.2031, 74.67850
263.6852, 72.32700
264.1674, 71.09641
264.6495, 72.27442
265.1316, 74.35006
265.6137, 75.72933
266.0958, 75.71657
266.5779, 74.77052
267.0601, 73.87553
267.5422, 72.72289
268.0243, 72.25655
268.5064, 73.01440
268.9885, 74.17956
269.4706, 75.06847
269.9528, 75.43595
270.4349, 75.44316
270.9170, 75.35120
271.3991, 74.98959
271.8812, 74.88270
272.3633, 75.28300
272.8455, 75.76812
273.3276, 76.02225
273.8097, 75.96857
274.2918, 75.73376
274.7739, 75.44563
275.2560, 74.82668
275.7382, 74.79436
276.2202, 76.00988
276.7024, 77.19530
277.1845, 77.34869
277.6666, 76.45189
278.1487, 75.38366
278.6308, 75.26670
279.1129, 76.52232
279.5951, 77.27186
280.0772, 77.25233
280.5593, 77.05591
281.0414, 76.99521
281.5235, 77.06747
282.0056, 77.07312
282.4878, 76.79765
282.9699, 76.17498
283.4520, 75.74364
283.9341, 75.80727
284.4162, 75.74187
284.8983, 75.06946
285.3805, 74.01984
285.8626, 73.25420
286.3447, 73.33909
286.8268, 74.25272
287.3089, 74.64671
287.7910, 74.01912
288.2732, 73.45662
288.7553, 73.44077
289.2374, 73.70635
289.7195, 73.62124
290.2016, 72.74135
290.6837, 71.33384
291.1659, 70.91409
291.6480, 72.96275
292.1301, 74.26412
292.6122, 73.76185
293.0943, 72.33040
293.5764, 71.18534
294.0586, 70.87986
294.5407, 71.16819
295.0228, 71.38613
295.5049, 71.50140
295.9870, 71.57964
296.4691, 71.49508
296.9513, 71.42988
297.4334, 71.73563
297.9155, 72.49919
298.3976, 73.23941
298.8797, 73.11426
299.3618, 71.39944
299.8440, 70.12920
300.3261, 69.55070
300.8082, 69.25838
301.2903, 68.88281
301.7724, 68.37454
302.2545, 67.99722
302.7367, 68.11429
303.2188, 68.96519
303.7009, 69.34690
304.1830, 68.88113
304.6651, 68.30202
305.1472, 68.04458
305.6294, 68.12444
306.1115, 68.34842
306.5936, 68.57533
307.0757, 68.81041
307.5578, 68.90574
308.0399, 68.83029
308.5221, 68.67574
309.0042, 68.44096
309.4863, 68.15550
309.9684, 67.89173
310.4505, 67.70454
310.9326, 67.41134
311.4148, 67.34927
311.8969, 66.88806
312.3790, 66.51678
312.8611, 66.24452
313.3432, 66.12613
313.8253, 66.28689
314.3075, 66.79933
314.7896, 67.52301
315.2717, 68.10965
315.7538, 68.72795
316.2359, 68.95962
316.7180, 68.32865
317.2001, 67.48775
317.6823, 67.18066
318.1644, 67.61642
318.6465, 68.44546
319.1286, 69.16279
319.6107, 69.71925
320.0928, 70.25185
320.5750, 71.00158
321.0571, 71.56689
321.5392, 71.51016
322.0213, 70.85069
322.5034, 70.05937
322.9855, 69.57402
323.4677, 69.40243
323.9498, 69.59998
324.4319, 70.53352
324.9140, 71.43692
325.3961, 71.89115
325.8782, 71.97304
326.3604, 71.99175
326.8425, 72.14601
327.3246, 72.43519
327.8067, 72.86460
328.2888, 73.53246
328.7709, 74.20882
329.2531, 74.82882
329.7352, 75.41940
330.2173, 76.03486
330.6994, 76.70291
331.1815, 77.39529
331.6636, 78.04001
332.1458, 78.69386
332.6279, 79.21974
333.1100, 79.23824
333.5921, 79.30863
334.0742, 80.15584
334.5563, 81.92538
335.0385, 83.96412
335.5206, 85.30415
336.0027, 85.64685
336.4848, 85.99755
336.9669, 86.19157
337.4490, 86.52041
337.9312, 87.27586
338.4133, 88.40513
338.8954, 89.52908
339.3775, 90.24483
339.8596, 90.47485
340.3417, 91.30854
340.8239, 93.60033
341.3060, 95.52794
341.7881, 96.26237
342.2702, 96.14530
342.7523, 95.89255
343.2344, 95.92689
343.7166, 96.22565
344.1987, 96.68192
344.6808, 97.48376
345.1629, 98.24026
345.6450, 99.07513
346.1271, 99.77827
346.6093, 100.2321
347.0914, 100.3709
347.5735, 99.99755
348.0556, 98.60609
348.5377, 94.95046
349.0198, 92.56133
349.5020, 92.19878
349.9841, 92.34745
350.4662, 92.07246
350.9483, 91.23440
351.4304, 90.18787
351.9125, 89.32634
352.3947, 88.70647
352.8768, 87.90100
353.3589, 86.79146
353.8410, 85.61880
354.3231, 84.43999
354.8052, 83.26489
355.2874, 82.02827
355.7695, 80.63177
356.2516, 79.20256
356.7337, 78.48489
357.2158, 79.28357
357.6979, 79.71484
358.1800, 79.21254
358.6621, 78.29042
359.1443, 77.53509
359.6264, 77.16777
360.1085, 76.95155
360.5906, 76.45123
361.0727, 75.57768
361.5548, 74.64237
362.0370, 73.23774
362.5191, 72.11329
363.0012, 71.92379
363.4833, 72.62055
363.9654, 73.48827
364.4475, 73.81425
364.9297, 73.56733
365.4118, 73.27918
365.8939, 72.63683
366.3760, 72.32344
366.8581, 72.78761
367.3402, 73.76344
367.8224, 74.73062
368.3045, 75.43970
368.7866, 75.88205
369.2687, 75.95989
369.7508, 75.45153
370.2329, 75.07031
370.7151, 75.05405
371.1972, 75.27176
371.6793, 75.70288
372.1614, 76.38015
372.6435, 76.96044
373.1256, 76.92348
373.6078, 76.21909
374.0899, 75.63869
374.5720, 75.48902
375.0541, 75.38660
375.5362, 74.92369
376.0183, 74.15266
376.5005, 73.62395
376.9826, 73.89340
377.4647, 74.72214
377.9468, 75.25657
378.4289, 75.46119
378.9110, 75.32619
379.3932, 74.58181
379.8753, 73.52338
380.3574, 72.70628
380.8395, 72.25505
381.3216, 72.16460
381.8037, 72.57726
382.2859, 73.50616
382.7680, 74.34480
383.2501, 74.92368
383.7322, 75.16956
384.2143, 74.99088
384.6964, 74.27465
385.1786, 73.53252
385.6607, 73.07438
386.1428, 72.81873
386.6249, 72.51392
387.1070, 72.05878
387.5891, 71.67085
388.0713, 71.63879
388.5534, 71.92809
389.0355, 72.32043
389.5176, 72.98176
389.9997, 73.59626
390.4818, 73.85246
390.9640, 73.73812
391.4461, 73.37572
391.9282, 72.78651
392.4103, 72.01669
392.8924, 71.33805
393.3745, 70.63014
393.8567, 70.13155
394.3388, 70.03933
394.8209, 70.21168
395.3030, 70.35941
395.7851, 70.36670
396.2672, 70.36316
396.7494, 70.58970
397.2315, 71.15127
397.7136, 71.70212
398.1957, 72.14745
398.6778, 72.63473
399.1599, 73.43979
399.6420, 74.50056
400.1241, 75.28342
400.6063, 75.18798
401.0884, 74.15627
401.5705, 74.29381
402.0526, 76.78965
402.5347, 78.96642
403.0168, 79.70857
403.4990, 79.65295
403.9811, 79.90916
404.4632, 81.01220
404.9453, 82.59074
405.4274, 83.71667
405.9095, 83.88422
406.3917, 84.44698
406.8738, 85.65882
407.3559, 87.07685
407.8380, 88.48156
408.3201, 89.79209
408.8022, 90.93969
409.2844, 91.81331
409.7665, 92.37815
410.2486, 93.16880
410.7307, 94.29964
411.2128, 95.55035
411.6949, 96.87093
412.1771, 98.26229
412.6592, 99.86742
413.1413, 101.8648
413.6234, 103.7445
414.1055, 104.2200
414.5876, 102.7370
415.0698, 101.5426
415.5519, 101.4528
416.0340, 101.6487
416.5161, 101.5707
416.9982, 101.1607
417.4803, 100.7705
417.9625, 100.8198
418.4446, 101.2090
418.9267, 101.2150
419.4088, 100.6396
419.8909, 99.94331
420.3730, 99.52071
420.8552, 99.19978
421.3373, 98.59192
421.8194, 97.31705
422.3015, 95.95925
422.7836, 95.32581
423.2657, 95.40799
423.7479, 95.36245
424.2300, 94.64580
424.7121, 93.82610
425.1942, 93.80203
425.6763, 94.69477
426.1584, 95.71046
426.6406, 96.62849
427.1227, 97.41763
427.6048, 97.93945
428.0869, 98.15279
428.5690, 98.40315
429.0511, 99.04851
429.5333, 100.0923
430.0154, 100.9428
430.4975, 101.3135
430.9796, 101.7601
431.4617, 102.5827
431.9438, 103.7268
432.4260, 105.0339
432.9081, 106.4216
433.3902, 107.9286
433.8723, 109.6484
434.3544, 111.6290
434.8365, 113.7566
435.3187, 116.0959
435.8008, 118.5359
436.2829, 121.0409
436.7650, 123.5671
437.2471, 125.9697
437.7292, 128.0688
438.2114, 129.8564
438.6935, 131.9739
439.1756, 134.8401
439.6577, 137.5818
440.1398, 139.6844
440.6219, 141.6431
441.1040, 144.1422
441.5862, 147.4585
442.0683, 151.2758
442.5504, 155.0961
443.0325, 159.1237
443.5146, 162.5572
443.9967, 165.1366
444.4789, 167.2542
444.9610, 168.8448
445.4431, 170.0696
445.9252, 171.4121
446.4073, 173.2926
446.8894, 175.5398
447.3716, 177.6337
447.8537, 179.8707
448.3358, 181.1923
448.8179, 180.4955
449.3000, 178.9162
449.7821, 177.6309
450.2643, 176.9338
450.7464, 176.2777
451.2285, 175.2408
451.7106, 173.8493
452.1927, 172.3070
452.6748, 170.7581
453.1570, 168.8657
453.6391, 165.9854
454.1212, 162.3508
454.6033, 159.0162
455.0854, 156.6050
455.5675, 154.3321
456.0497, 151.3770
456.5318, 147.8475
457.0139, 144.4157
457.4960, 141.4231
457.9781, 138.7459
458.4602, 136.0646
458.9424, 133.4631
459.4245, 130.6940
459.9066, 127.5440
460.3887, 124.3105
460.8708, 121.2468
461.3529, 118.4119
461.8351, 115.8381
462.3172, 113.5857
462.7993, 111.6863
463.2814, 109.5216
463.7635, 106.7138
464.2456, 104.0930
464.7278, 101.7757
465.2099, 99.77995
465.6920, 98.18345
466.1741, 96.99629
466.6562, 96.01186
467.1383, 94.88359
467.6205, 93.54704
468.1026, 92.23543
468.5847, 90.93533
469.0668, 89.67989
469.5489, 88.53618
470.0310, 87.45676
470.5132, 86.30964
470.9953, 84.93322
471.4774, 83.51027
471.9595, 82.57850
472.4416, 82.28574
472.9237, 81.93797
473.4059, 81.19764
473.8880, 80.35075
474.3701, 79.63298
474.8522, 79.07363
475.3343, 78.62724
475.8164, 78.33766
476.2986, 78.13659
476.7807, 77.85593
477.2628, 77.47719
477.7449, 77.01230
478.2270, 76.32803
478.7091, 75.55891
479.1913, 75.23816
479.6734, 75.92403
480.1555, 76.47202
480.6376, 76.06642
481.1197, 75.11910
481.6018, 74.43436
482.0839, 74.26215
482.5660, 74.57043
483.0482, 75.43462
483.5303, 77.21040
484.0124, 78.14964
484.4945, 77.65662
484.9766, 76.94133
485.4587, 76.42353
485.9409, 76.21848
486.4230, 76.49519
486.9051, 77.37844
487.3872, 78.61613
487.8693, 79.42860
488.3514, 79.36054
488.8336, 79.74711
489.3157, 81.31441
489.7978, 82.80051
490.2799, 83.19558
490.7620, 82.60421
491.2441, 81.92290
491.7263, 81.80502
492.2084, 82.19581
492.6905, 82.85924
493.1726, 83.85306
493.6547, 84.97837
494.1368, 86.44663
494.6190, 87.85550
495.1011, 88.72063
495.5832, 88.91059
496.0653, 88.93405
496.5474, 89.16257
497.0295, 89.52567
497.5117, 89.80862
497.9938, 89.97407
498.4759, 90.08371
498.9580, 90.19170
499.4401, 90.28604
499.9222, 90.31451
500.4044, 89.73588
500.8865, 89.64218
501.3686, 91.06474
501.8507, 93.32005
502.3328, 95.06037
502.8149, 95.82432
503.2971, 95.90461
503.7792, 95.63284
504.2613, 94.77730
504.7434, 94.43430
505.2255, 94.90134
505.7076, 95.52748
506.1898, 96.21497
506.6719, 96.80036
507.1540, 96.93892
507.6361, 96.42551
508.1182, 95.63539
508.6003, 95.46169
509.0825, 96.11213
509.5646, 96.82426
510.0467, 97.33067
510.5288, 98.04498
511.0109, 99.33421
511.4930, 101.0737
511.9752, 102.7948
512.4573, 104.2680
512.9394, 105.4896
513.4215, 106.3831
513.9036, 106.8911
514.3857, 107.4386
514.8679, 108.0487
515.3500, 108.9055
515.8321, 110.3836
516.3142, 112.6034
516.7963, 114.3902
517.2784, 114.7528
517.7606, 114.6174
518.2427, 115.3157
518.7248, 116.9436
519.2069, 118.8344
519.6890, 120.5849
520.1711, 122.2309
520.6533, 123.8908
521.1354, 125.6546
521.6175, 127.3239
522.0996, 128.8355
522.5817, 130.2496
523.0638, 131.6489
523.5460, 133.0222
524.0281, 134.2321
524.5102, 135.0730
524.9923, 135.5639
525.4744, 136.5753
525.9565, 138.8527
526.4387, 140.6577
526.9208, 141.2823
527.4029, 141.4798
527.8850, 142.0372
528.3671, 143.1507
528.8492, 144.4569
529.3314, 145.6817
529.8135, 146.8054
530.2956, 147.5913
530.7777, 147.8416
531.2598, 148.1332
531.7419, 148.7255
532.2241, 149.6164
532.7062, 150.9489
533.1883, 153.0778
533.6704, 154.9756
534.1525, 155.6382
534.6346, 155.5789
535.1168, 155.9775
535.5989, 157.0979
536.0810, 158.7229
536.5631, 160.6788
537.0452, 162.9910
537.5273, 165.4002
538.0095, 168.0469
538.4916, 170.6323
538.9737, 173.0664
539.4558, 175.3741
539.9379, 177.5776
540.4200, 179.6889
540.9022, 181.7890
541.3843, 184.0049
541.8664, 186.3963
542.3485, 188.5698
542.8306, 190.3150
543.3127, 192.0487
543.7948, 194.1482
544.2769, 196.2415
544.7590, 197.7448
545.2411, 198.4319
545.7233, 198.6164
546.2054, 198.6401
546.6875, 198.4977
547.1696, 198.1515
547.6517, 197.6922
548.1339, 196.8466
548.6160, 195.3227
549.0981, 193.2298
549.5802, 190.7206
550.0623, 187.5449
550.5444, 184.2693
551.0266, 181.2364
551.5087, 178.3709
551.9908, 175.4696
552.4729, 172.4678
552.9550, 169.5163
553.4371, 166.9050
553.9193, 164.8264
554.4014, 161.7876
554.8835, 156.3938
555.3656, 151.7245
555.8477, 149.4049
556.3298, 148.3266
556.8120, 146.8519
557.2941, 144.3706
557.7762, 141.4641
558.2583, 138.7673
558.7404, 136.2234
559.2225, 134.5107
559.7047, 134.1470
560.1868, 134.0140
560.6689, 133.5847
561.1510, 133.0042
561.6331, 132.5013
562.1152, 132.1261
562.5974, 131.9008
563.0795, 131.6089
563.5616, 131.4497
564.0437, 132.3498
564.5258, 134.6892
565.0079, 137.2167
565.4901, 138.8286
565.9722, 139.5249
566.4543, 140.1404
566.9364, 139.8278
567.4185, 140.3955
567.9006, 143.0744
568.3828, 146.8446
568.8649, 150.3136
569.3470, 153.0928
569.8291, 155.6700
570.3112, 158.5183
570.7933, 161.6431
571.2755, 165.1521
571.7576, 169.2859
572.2397, 173.5430
572.7218, 177.9450
573.2039, 182.3459
573.6860, 186.4579
574.1682, 190.2454
574.6503, 194.2751
575.1324, 199.5640
575.6145, 205.6494
576.0966, 210.2151
576.5787, 212.7096
577.0609, 215.3287
577.5430, 219.8925
578.0251, 225.3065
578.5072, 228.9249
578.9893, 230.0804
579.4714, 230.8289
579.9536, 232.5550
580.4357, 233.9892
580.9178, 233.4284
581.3999, 230.7850
581.8820, 227.1886
582.3641, 223.4462
582.8463, 219.5213
583.3284, 215.1783
583.8105, 210.5640
584.2926, 205.2337
584.7747, 198.4577
585.2568, 191.5010
585.7390, 185.1208
586.2211, 179.4693
586.7032, 174.5379
587.1853, 170.4839
587.6674, 167.0243
588.1495, 163.5574
588.6317, 160.1436
589.1138, 156.2237
589.5959, 150.9558
590.0780, 145.7205
590.5601, 142.0936
591.0422, 140.0390
591.5244, 138.7394
592.0065, 138.8872
592.4886, 138.9565
592.9707, 137.0883
593.4528, 133.8640
593.9349, 131.3642
594.4171, 130.5235
594.8992, 130.7700
595.3813, 131.1838
595.8634, 131.9959
596.3455, 132.2670
596.8276, 131.4855
597.3098, 130.7782
597.7919, 130.6999
598.2740, 130.9979
598.7561, 131.1722
599.2382, 131.0122
599.7203, 130.8119
600.2025, 130.9074
600.6846, 131.3006
601.1667, 132.2085
601.6488, 134.1981
602.1309, 135.6010
602.6130, 134.6024
603.0952, 132.2790
603.5773, 130.7983
604.0594, 130.6842
604.5415, 130.9590
605.0236, 131.3813
605.5057, 131.7743
605.9879, 131.8866
606.4700, 131.6724
606.9521, 131.1141
607.4342, 130.1079
607.9163, 128.7767
608.3984, 128.0697
608.8806, 129.0448
609.3627, 129.1723
609.8448, 127.5775
610.3269, 125.5804
610.8090, 124.1644
611.2911, 123.3773
611.7733, 122.7554
612.2554, 122.0481
612.7375, 121.2256
613.2196, 120.2651
613.7017, 119.1829
614.1838, 117.5901
614.6660, 114.7155
615.1481, 112.0689
615.6302, 111.9902
616.1123, 114.2598
616.5944, 115.3168
617.0765, 113.4775
617.5587, 111.1141
618.0408, 109.8648
618.5229, 109.3121
619.0050, 108.3412
619.4871, 106.5714
619.9692, 104.6338
620.4514, 103.4204
620.9335, 103.0561
621.4156, 102.4262
621.8977, 101.3294
622.3798, 100.1900
622.8619, 98.89167
623.3441, 97.72225
623.8262, 97.20136
624.3083, 97.42412
624.7904, 97.47291
625.2725, 96.31172
625.7546, 94.40894
626.2367, 93.06223
626.7188, 92.35851
627.2009, 91.96545
627.6830, 91.90414
628.1652, 91.88972
628.6473, 91.13818
629.1294, 89.33248
629.6115, 87.95299
630.0936, 87.22233
630.5757, 86.97654
631.0579, 87.25593
631.5400, 87.91135
632.0221, 88.68324
632.5042, 89.44480
632.9863, 90.10037
633.4684, 90.43701
633.9506, 90.39232
634.4327, 90.33285
634.9148, 90.18413
635.3969, 90.14487
635.8790, 90.32719
636.3611, 90.66834
636.8433, 91.09109
637.3254, 91.62630
637.8075, 92.07182
638.2896, 92.06097
638.7717, 91.91573
639.2538, 92.46500
639.7360, 93.78333
640.2181, 94.79602
640.7002, 94.63902
641.1823, 93.67384
641.6644, 93.37464
642.1465, 94.31165
642.6287, 95.16387
643.1108, 95.96580
643.5929, 96.63639
644.0750, 97.19577
644.5571, 97.57976
645.0392, 97.63950
645.5214, 97.27488
646.0035, 96.60518
646.4856, 95.74796
646.9677, 94.70451
647.4498, 93.84393
647.9319, 93.39368
648.4141, 92.80787
648.8962, 91.61665
649.3783, 89.90579
649.8604, 88.03785
650.3425, 86.05484
650.8246, 83.89742
651.3068, 81.37759
651.7889, 78.76214
652.2710, 76.30618
652.7531, 74.09458
653.2352, 72.27929
653.7173, 71.04018
654.1995, 70.19299
654.6816, 68.95219
655.1637, 67.24138
655.6458, 65.32642
