##NAMES=Julgoldite-(Fe2+)
##RRUFFID=R070725
##IDEAL CHEMISTRY=Ca_2_Fe^2+^Fe^3+^_2_(Si_2_O_7_)(SiO_4_)(OH)_2_&#183;H_2_O
##LOCALITY=Khandivali Quarry (Kandivali Quarry),  Mumbai District (Bombay District),  Maharashtra,  India
##OWNER=RRUFF
##SOURCE=Michael Scott
##DESCRIPTION=Clusters of black blades associated with pale green bladed prehnite and quartz
##STATUS=The identification of this mineral has been confirmed by X-ray diffraction and chemical analysis
##URL=rruff.info/R070725
##MEASURED CHEMISTRY=Ca_2.00_(Fe^2+^_0.86_Mg_0.14_)_Σ=1_(Fe^3+^_1.67_Al_0.33_)_Σ=2_(Si_2.00_O_7_)(Si_1.00_O_4_)(OH)_2_·H_2_O; OH by charge balance = light; Ca_2.00_(Fe^2+^_0.82_Mg_0.18_)_Σ=1_(Fe^3+^_1.44_Al_0.58_)_Σ=2_(Si_2.00_O_7_)(Si_1.00_O_4_)(OH)_2_·H_2_O = darker
80.11163, 0.0000000E+00
80.59375, 704.8040
81.07587, 648.7211
81.55798, 632.6863
82.04010, 649.5105
82.52222, 668.5064
83.00433, 689.5225
83.48645, 705.9111
83.96857, 712.4942
84.45068, 700.5803
84.93280, 684.3660
85.41492, 667.5232
85.89703, 649.4681
86.37915, 637.3486
86.86127, 641.6294
87.34338, 654.5640
87.82550, 661.9915
88.30762, 649.3950
88.78973, 631.0919
89.27185, 622.0623
89.75397, 628.9866
90.23608, 640.0805
90.71819, 645.8861
91.20031, 646.3389
91.68243, 640.9163
92.16454, 626.0915
92.64666, 604.6948
93.12878, 583.6416
93.61089, 559.5325
94.09301, 538.1428
94.57513, 536.4878
95.05724, 558.3239
95.53936, 585.4187
96.02148, 590.4155
96.50359, 574.0692
96.98571, 561.6485
97.46783, 572.7791
97.94994, 605.8214
98.43206, 627.4094
98.91418, 630.0388
99.39629, 620.9327
99.87841, 624.4447
100.3605, 643.5017
100.8426, 666.6921
101.3248, 683.5920
101.8069, 692.9453
102.2890, 701.3279
102.7711, 710.8872
103.2532, 722.2319
103.7353, 728.1819
104.2175, 723.1790
104.6996, 716.5533
105.1817, 725.6019
105.6638, 760.1938
106.1459, 797.0263
106.6280, 824.9678
107.1102, 818.2416
107.5923, 843.9515
108.0744, 921.8198
108.5565, 1042.829
109.0386, 1135.557
109.5207, 1173.853
110.0029, 1199.323
110.4850, 1238.045
110.9671, 1321.620
111.4492, 1388.191
111.9313, 1418.354
112.4134, 1402.904
112.8956, 1406.401
113.3777, 1447.572
113.8598, 1510.638
114.3419, 1575.356
114.8240, 1641.926
115.3061, 1705.243
115.7883, 1760.029
116.2704, 1797.220
116.7525, 1843.337
117.2346, 1917.105
117.7167, 2009.957
118.1988, 2093.053
118.6810, 2142.668
119.1631, 2182.346
119.6452, 2233.134
120.1273, 2310.554
120.6094, 2395.047
121.0915, 2475.475
121.5737, 2551.759
122.0558, 2626.879
122.5379, 2727.781
123.0200, 2828.289
123.5021, 2881.175
123.9842, 2825.562
124.4664, 2725.008
124.9485, 2655.006
125.4306, 2627.925
125.9127, 2618.173
126.3948, 2596.979
126.8769, 2567.841
127.3591, 2547.507
127.8412, 2554.198
128.3233, 2578.481
128.8054, 2596.837
129.2875, 2598.314
129.7696, 2592.513
130.2518, 2604.650
130.7339, 2638.991
131.2160, 2670.449
131.6981, 2655.673
132.1802, 2601.880
132.6623, 2566.371
133.1445, 2580.016
133.6266, 2633.674
134.1087, 2665.351
134.5908, 2670.964
135.0729, 2665.411
135.5550, 2670.721
136.0372, 2687.042
136.5193, 2711.284
137.0014, 2742.468
137.4835, 2780.255
137.9656, 2826.235
138.4477, 2888.001
138.9299, 2955.191
139.4120, 2994.273
139.8941, 3005.620
140.3762, 2989.341
140.8583, 2937.338
141.3404, 2833.900
141.8225, 2745.997
142.3047, 2684.882
142.7868, 2651.108
143.2689, 2634.085
143.7510, 2638.832
144.2331, 2655.981
144.7152, 2673.946
145.1974, 2692.901
145.6795, 2712.861
146.1616, 2737.020
146.6437, 2776.511
147.1258, 2791.257
147.6079, 2766.781
148.0901, 2717.875
148.5722, 2685.406
149.0543, 2678.764
149.5364, 2679.591
150.0185, 2679.940
150.5006, 2671.679
150.9828, 2672.419
151.4649, 2692.246
151.9470, 2728.092
152.4291, 2744.605
152.9112, 2715.458
153.3933, 2680.062
153.8755, 2665.950
154.3576, 2714.161
154.8397, 2746.468
155.3218, 2738.528
155.8039, 2681.811
156.2860, 2637.118
156.7682, 2621.674
157.2503, 2622.577
157.7324, 2623.803
158.2145, 2627.061
158.6966, 2625.807
159.1787, 2615.214
159.6609, 2587.602
160.1430, 2566.876
160.6251, 2561.369
161.1072, 2568.157
161.5893, 2580.750
162.0714, 2609.025
162.5536, 2635.446
163.0357, 2648.272
163.5178, 2643.154
163.9999, 2625.878
164.4820, 2589.164
164.9641, 2537.170
165.4463, 2497.593
165.9284, 2494.139
166.4105, 2506.952
166.8926, 2514.629
167.3747, 2506.189
167.8568, 2492.327
168.3390, 2476.070
168.8211, 2457.092
169.3032, 2447.046
169.7853, 2464.627
170.2674, 2495.764
170.7495, 2515.892
171.2317, 2506.112
171.7138, 2483.317
172.1959, 2463.400
172.6780, 2448.030
173.1601, 2436.026
173.6422, 2426.287
174.1244, 2419.093
174.6065, 2415.441
175.0886, 2424.244
175.5707, 2434.976
176.0528, 2428.844
176.5349, 2390.654
177.0171, 2350.851
177.4992, 2351.989
177.9813, 2389.669
178.4634, 2426.451
178.9455, 2430.424
179.4276, 2411.716
179.9098, 2393.509
180.3919, 2381.768
180.8740, 2375.238
181.3561, 2372.046
181.8382, 2372.264
182.3203, 2374.374
182.8025, 2376.605
183.2846, 2379.364
183.7667, 2384.359
184.2488, 2392.993
184.7309, 2404.582
185.2130, 2417.153
185.6951, 2431.261
186.1773, 2445.090
186.6594, 2458.578
187.1415, 2471.212
187.6236, 2477.709
188.1057, 2472.368
188.5878, 2457.562
189.0700, 2443.444
189.5521, 2429.803
190.0342, 2419.387
190.5163, 2418.842
190.9984, 2428.346
191.4805, 2440.317
191.9627, 2446.144
192.4448, 2447.000
192.9269, 2459.476
193.4090, 2490.461
193.8911, 2532.393
194.3732, 2563.983
194.8554, 2585.311
195.3375, 2597.646
195.8196, 2598.240
196.3017, 2586.796
196.7838, 2580.504
197.2659, 2586.396
197.7481, 2601.951
198.2302, 2608.410
198.7123, 2603.375
199.1944, 2596.397
199.6765, 2597.394
200.1586, 2606.303
200.6408, 2624.228
201.1229, 2657.461
201.6050, 2706.183
202.0871, 2737.336
202.5692, 2747.899
203.0513, 2745.499
203.5335, 2739.644
204.0156, 2728.009
204.4977, 2722.360
204.9798, 2732.983
205.4619, 2764.161
205.9440, 2777.436
206.4262, 2765.306
206.9083, 2739.126
207.3904, 2729.797
207.8725, 2743.459
208.3546, 2756.940
208.8367, 2754.726
209.3189, 2731.749
209.8010, 2714.903
210.2831, 2709.591
210.7652, 2711.714
211.2473, 2701.148
211.7294, 2672.093
212.2116, 2641.851
212.6937, 2624.140
213.1758, 2621.812
213.6579, 2623.404
214.1400, 2631.971
214.6221, 2645.896
215.1043, 2637.111
215.5864, 2594.839
216.0685, 2545.501
216.5506, 2518.800
217.0327, 2527.397
217.5148, 2525.171
217.9970, 2496.706
218.4791, 2439.712
218.9612, 2399.195
219.4433, 2379.320
219.9254, 2371.959
220.4075, 2369.016
220.8897, 2376.233
221.3718, 2375.351
221.8539, 2355.895
222.3360, 2308.751
222.8181, 2287.886
223.3002, 2307.465
223.7824, 2344.552
224.2645, 2356.042
224.7466, 2328.845
225.2287, 2298.854
225.7108, 2281.950
226.1929, 2289.171
226.6750, 2277.089
227.1572, 2232.500
227.6393, 2172.716
228.1214, 2145.010
228.6035, 2170.667
229.0856, 2197.048
229.5677, 2196.335
230.0499, 2151.317
230.5320, 2118.918
231.0141, 2104.329
231.4962, 2104.328
231.9783, 2107.307
232.4604, 2120.413
232.9426, 2127.217
233.4247, 2115.812
233.9068, 2073.940
234.3889, 2039.407
234.8710, 2016.319
235.3531, 2003.766
235.8353, 1995.786
236.3174, 1995.453
236.7995, 1996.265
237.2816, 1993.064
237.7637, 1983.063
238.2458, 1974.813
238.7280, 1972.290
239.2101, 1975.255
239.6922, 1965.743
240.1743, 1935.853
240.6564, 1901.308
241.1385, 1875.703
241.6207, 1856.892
242.1028, 1850.802
242.5849, 1862.213
243.0670, 1893.081
243.5491, 1916.556
244.0313, 1931.221
244.5134, 1939.693
244.9955, 1944.937
245.4776, 1947.306
245.9597, 1945.627
246.4418, 1937.323
246.9240, 1919.548
247.4061, 1912.408
247.8882, 1921.002
248.3703, 1936.616
248.8524, 1946.915
249.3345, 1950.675
249.8167, 1951.053
250.2988, 1946.612
250.7809, 1932.834
251.2630, 1933.888
251.7451, 1960.096
252.2272, 1994.984
252.7094, 2007.361
253.1915, 1985.636
253.6736, 1960.945
254.1557, 1942.616
254.6378, 1928.015
255.1199, 1928.390
255.6021, 1948.405
256.0842, 1981.085
256.5663, 2012.101
257.0484, 2043.069
257.5305, 2069.738
258.0126, 2090.666
258.4948, 2106.773
258.9769, 2115.065
259.4590, 2114.913
259.9411, 2107.295
260.4232, 2093.156
260.9053, 2067.500
261.3875, 2044.490
261.8696, 2031.965
262.3517, 2033.685
262.8338, 2034.334
263.3159, 2031.530
263.7980, 2027.545
264.2802, 2032.547
264.7623, 2053.636
265.2444, 2069.541
265.7265, 2065.508
266.2086, 2035.539
266.6907, 2007.367
267.1729, 1982.589
267.6550, 1961.603
268.1371, 1945.595
268.6192, 1934.818
269.1013, 1928.695
269.5834, 1931.058
270.0656, 1947.156
270.5477, 1945.790
271.0298, 1916.547
271.5119, 1868.109
271.9940, 1838.034
272.4761, 1830.864
272.9583, 1831.173
273.4404, 1827.590
273.9225, 1819.091
274.4046, 1813.218
274.8867, 1813.332
275.3688, 1816.695
275.8510, 1809.209
276.3331, 1788.346
276.8152, 1764.383
277.2973, 1744.050
277.7794, 1726.925
278.2615, 1718.477
278.7437, 1724.320
279.2258, 1739.086
279.7079, 1734.337
280.1900, 1705.069
280.6721, 1675.654
281.1542, 1670.802
281.6364, 1691.647
282.1185, 1711.393
282.6006, 1727.009
283.0827, 1736.729
283.5648, 1727.571
284.0469, 1695.376
284.5291, 1665.922
285.0112, 1670.254
285.4933, 1707.100
285.9754, 1734.014
286.4575, 1734.122
286.9396, 1717.751
287.4217, 1726.754
287.9038, 1765.099
288.3860, 1799.810
288.8681, 1790.268
289.3502, 1741.817
289.8323, 1702.634
290.3144, 1690.319
290.7965, 1695.849
291.2787, 1692.830
291.7608, 1680.196
292.2429, 1670.764
292.7250, 1683.667
293.2071, 1713.358
293.6892, 1731.515
294.1714, 1721.703
294.6535, 1697.629
295.1356, 1689.804
295.6177, 1698.762
296.0998, 1713.049
296.5819, 1722.743
297.0641, 1729.187
297.5462, 1736.796
298.0283, 1749.841
298.5104, 1763.476
298.9925, 1770.083
299.4746, 1769.646
299.9568, 1763.601
300.4389, 1746.272
300.9210, 1724.027
301.4031, 1711.499
301.8852, 1721.666
302.3673, 1739.891
302.8495, 1745.553
303.3316, 1738.848
303.8137, 1732.946
304.2958, 1742.813
304.7779, 1760.587
305.2600, 1772.052
305.7422, 1766.828
306.2243, 1756.181
306.7064, 1751.354
307.1885, 1752.046
307.6706, 1753.017
308.1527, 1748.538
308.6349, 1742.493
309.1170, 1740.340
309.5991, 1748.864
310.0812, 1758.564
310.5633, 1761.346
311.0454, 1757.683
311.5276, 1755.043
312.0097, 1758.726
312.4918, 1765.586
312.9739, 1772.174
313.4560, 1780.660
313.9381, 1785.727
314.4203, 1781.938
314.9024, 1770.070
315.3845, 1760.275
315.8666, 1759.930
316.3487, 1762.781
316.8308, 1762.915
317.3130, 1755.353
317.7951, 1747.681
318.2772, 1742.486
318.7593, 1739.714
319.2414, 1738.819
319.7235, 1742.004
320.2057, 1745.783
320.6878, 1747.404
321.1699, 1739.833
321.6520, 1736.592
322.1341, 1742.252
322.6162, 1756.186
323.0984, 1771.644
323.5805, 1796.276
324.0626, 1816.840
324.5447, 1824.412
325.0268, 1800.806
325.5089, 1782.859
325.9911, 1776.144
326.4732, 1780.148
326.9553, 1787.867
327.4374, 1805.809
327.9195, 1822.714
328.4016, 1832.104
328.8838, 1820.728
329.3659, 1818.276
329.8480, 1827.932
330.3301, 1848.496
330.8122, 1873.022
331.2943, 1906.703
331.7765, 1939.344
332.2586, 1965.394
332.7407, 1983.901
333.2228, 1997.498
333.7049, 2005.964
334.1870, 2009.700
334.6692, 2009.070
335.1513, 1998.448
335.6334, 1992.582
336.1155, 2002.046
336.5976, 2034.594
337.0797, 2057.628
337.5619, 2066.506
338.0440, 2065.895
338.5261, 2068.435
339.0082, 2074.241
339.4903, 2082.663
339.9724, 2095.267
340.4546, 2113.421
340.9367, 2123.899
341.4188, 2124.405
341.9009, 2119.009
342.3830, 2116.438
342.8651, 2117.139
343.3473, 2116.966
343.8294, 2112.477
344.3115, 2104.232
344.7936, 2101.222
345.2757, 2106.380
345.7578, 2111.041
346.2400, 2096.504
346.7221, 2064.373
347.2042, 2038.358
347.6863, 2034.470
348.1684, 2046.423
348.6505, 2053.509
349.1327, 2054.306
349.6148, 2052.667
350.0969, 2053.263
350.5790, 2055.389
351.0611, 2056.492
351.5432, 2051.716
352.0254, 2046.230
352.5075, 2050.226
352.9896, 2064.924
353.4717, 2079.833
353.9538, 2080.285
354.4359, 2074.074
354.9181, 2076.545
355.4002, 2105.306
355.8823, 2139.015
356.3644, 2159.301
356.8465, 2165.781
357.3286, 2162.494
357.8108, 2143.244
358.2929, 2118.261
358.7750, 2100.513
359.2571, 2098.069
359.7392, 2101.382
360.2213, 2109.052
360.7035, 2120.278
361.1856, 2124.984
361.6677, 2114.890
362.1498, 2098.115
362.6319, 2081.603
363.1140, 2071.458
363.5962, 2057.425
364.0783, 2030.053
364.5604, 1992.641
365.0425, 1968.417
365.5246, 1973.222
366.0067, 1986.207
366.4889, 1994.482
366.9710, 1993.392
367.4531, 1991.283
367.9352, 1990.757
368.4173, 1990.403
368.8994, 1983.692
369.3815, 1961.605
369.8636, 1941.023
370.3458, 1930.057
370.8279, 1939.487
371.3100, 1939.459
371.7921, 1923.843
372.2742, 1900.098
372.7563, 1887.478
373.2385, 1892.884
373.7206, 1898.155
374.2027, 1894.739
374.6848, 1878.863
375.1669, 1870.909
375.6490, 1874.762
376.1312, 1882.475
376.6133, 1880.658
377.0954, 1867.717
377.5775, 1851.405
378.0596, 1832.020
378.5417, 1810.179
379.0239, 1796.328
379.5060, 1791.469
379.9881, 1791.998
380.4702, 1794.675
380.9523, 1799.453
381.4344, 1804.384
381.9166, 1810.429
382.3987, 1815.833
382.8808, 1813.121
383.3629, 1801.687
383.8450, 1791.655
384.3271, 1798.040
384.8093, 1814.560
385.2914, 1820.598
385.7735, 1801.992
386.2556, 1777.569
386.7377, 1779.491
387.2198, 1803.964
387.7020, 1822.096
388.1841, 1804.704
388.6662, 1771.085
389.1483, 1745.656
389.6304, 1731.760
390.1125, 1732.255
390.5947, 1758.015
391.0768, 1801.852
391.5589, 1840.479
392.0410, 1864.641
392.5231, 1877.686
393.0052, 1879.124
393.4874, 1860.933
393.9695, 1851.007
394.4516, 1866.512
394.9337, 1896.893
395.4158, 1922.840
395.8979, 1937.187
396.3801, 1947.576
396.8622, 1957.350
397.3443, 1968.084
397.8264, 1973.335
398.3085, 1965.117
398.7906, 1953.311
399.2728, 1950.107
399.7549, 1974.896
400.2370, 1986.651
400.7191, 1969.863
401.2012, 1921.054
401.6833, 1897.760
402.1655, 1915.553
402.6476, 1943.743
403.1297, 1955.588
403.6118, 1944.120
404.0939, 1933.273
404.5760, 1926.577
405.0582, 1923.348
405.5403, 1920.755
406.0224, 1919.685
406.5045, 1916.722
406.9866, 1908.698
407.4688, 1895.237
407.9509, 1882.791
408.4330, 1872.950
408.9151, 1863.008
409.3972, 1846.295
409.8793, 1822.853
410.3615, 1798.748
410.8436, 1776.343
411.3257, 1755.720
411.8078, 1736.756
412.2899, 1718.700
412.7720, 1705.123
413.2542, 1705.010
413.7363, 1713.835
414.2184, 1718.096
414.7005, 1707.437
415.1826, 1690.927
415.6647, 1681.379
416.1469, 1679.370
416.6290, 1672.065
417.1111, 1638.455
417.5932, 1597.109
418.0753, 1573.283
418.5574, 1588.899
419.0396, 1611.547
419.5217, 1631.026
420.0038, 1645.719
420.4859, 1646.527
420.9680, 1611.997
421.4501, 1573.032
421.9323, 1551.823
422.4144, 1563.557
422.8965, 1577.015
423.3786, 1587.343
423.8607, 1595.634
424.3428, 1605.044
424.8250, 1628.516
425.3071, 1641.913
425.7892, 1634.758
426.2713, 1595.752
426.7534, 1566.021
427.2355, 1546.613
427.7177, 1535.717
428.1998, 1531.833
428.6819, 1537.492
429.1640, 1544.219
429.6461, 1548.751
430.1282, 1551.162
430.6104, 1561.924
431.0925, 1584.490
431.5746, 1606.292
432.0567, 1612.419
432.5388, 1602.364
433.0209, 1594.065
433.5031, 1591.022
433.9852, 1592.280
434.4673, 1600.307
434.9494, 1614.765
435.4315, 1619.580
435.9136, 1593.401
436.3958, 1548.785
436.8779, 1517.997
437.3600, 1507.412
437.8421, 1507.375
438.3242, 1511.077
438.8063, 1517.362
439.2885, 1522.952
439.7706, 1526.292
440.2527, 1528.078
440.7348, 1529.534
441.2169, 1530.990
441.6990, 1529.316
442.1812, 1517.959
442.6633, 1504.056
443.1454, 1495.951
443.6275, 1494.448
444.1096, 1500.871
444.5917, 1524.618
445.0739, 1563.234
445.5560, 1583.009
446.0381, 1557.441
446.5202, 1524.481
447.0023, 1506.390
447.4844, 1498.495
447.9666, 1514.814
448.4487, 1581.349
448.9308, 1670.319
449.4129, 1701.766
449.8950, 1639.362
450.3771, 1578.474
450.8592, 1558.653
451.3413, 1588.440
451.8235, 1611.138
452.3056, 1627.213
452.7877, 1635.517
453.2698, 1631.283
453.7519, 1613.073
454.2340, 1598.829
454.7162, 1592.535
455.1983, 1594.425
455.6804, 1608.776
456.1625, 1636.399
456.6446, 1663.308
457.1267, 1679.692
457.6089, 1686.183
458.0910, 1683.334
458.5731, 1665.942
459.0552, 1649.030
459.5373, 1652.566
460.0194, 1672.229
460.5016, 1693.905
460.9837, 1714.261
461.4658, 1730.151
461.9479, 1737.141
462.4300, 1733.178
462.9121, 1729.126
463.3943, 1725.264
463.8764, 1726.042
464.3585, 1737.313
464.8406, 1782.899
465.3227, 1817.689
465.8048, 1818.681
466.2870, 1785.768
466.7691, 1768.161
467.2512, 1792.645
467.7333, 1819.123
468.2154, 1822.420
468.6975, 1781.402
469.1797, 1751.484
469.6618, 1737.382
470.1439, 1735.353
470.6260, 1737.538
471.1081, 1747.332
471.5902, 1753.067
472.0724, 1749.119
472.5545, 1734.924
473.0366, 1718.697
473.5187, 1699.474
474.0008, 1681.358
474.4829, 1669.194
474.9651, 1662.833
475.4472, 1661.254
475.9293, 1669.000
476.4114, 1678.030
476.8935, 1669.303
477.3756, 1644.067
477.8578, 1616.578
478.3399, 1597.250
478.8220, 1582.364
479.3041, 1565.537
479.7862, 1543.385
480.2683, 1524.615
480.7505, 1519.230
481.2326, 1522.026
481.7147, 1521.966
482.1968, 1512.567
482.6789, 1500.651
483.1610, 1490.690
483.6432, 1483.730
484.1253, 1471.710
484.6074, 1445.021
485.0895, 1416.367
485.5716, 1396.574
486.0537, 1389.722
486.5359, 1388.395
487.0180, 1395.663
487.5001, 1408.759
487.9822, 1414.819
488.4643, 1412.187
488.9464, 1405.183
489.4286, 1396.427
489.9107, 1387.071
490.3928, 1368.085
490.8749, 1334.313
491.3570, 1300.042
491.8391, 1286.568
492.3213, 1293.919
492.8034, 1309.013
493.2855, 1332.980
493.7676, 1359.201
494.2497, 1369.387
494.7318, 1363.733
495.2140, 1353.766
495.6961, 1347.134
496.1782, 1342.858
496.6603, 1340.143
497.1424, 1340.480
497.6245, 1338.491
498.1067, 1322.607
498.5888, 1300.854
499.0709, 1291.728
499.5530, 1319.839
500.0351, 1349.239
500.5172, 1357.115
500.9994, 1337.750
501.4815, 1325.885
501.9636, 1343.484
502.4457, 1364.869
502.9278, 1366.766
503.4099, 1315.265
503.8921, 1285.303
504.3742, 1291.237
504.8563, 1324.359
505.3384, 1348.789
505.8205, 1362.776
506.3026, 1371.620
506.7848, 1378.089
507.2669, 1382.732
507.7490, 1380.439
508.2311, 1368.979
508.7132, 1355.839
509.1953, 1350.978
509.6775, 1353.870
510.1596, 1358.814
510.6417, 1365.002
511.1238, 1371.306
511.6059, 1374.959
512.0880, 1376.177
512.5701, 1377.575
513.0522, 1380.528
513.5344, 1384.899
514.0165, 1390.474
514.4986, 1397.087
514.9807, 1405.207
515.4628, 1417.887
515.9449, 1431.919
516.4271, 1441.691
516.9092, 1442.636
517.3913, 1441.748
517.8734, 1441.603
518.3555, 1442.408
518.8376, 1442.325
519.3198, 1439.550
519.8019, 1437.032
520.2840, 1436.012
520.7661, 1433.058
521.2482, 1439.373
521.7303, 1461.198
522.2125, 1489.334
522.6946, 1501.248
523.1767, 1493.328
523.6588, 1484.755
524.1409, 1483.301
524.6230, 1488.029
525.1052, 1492.503
525.5873, 1496.911
526.0694, 1499.578
526.5515, 1494.979
527.0336, 1486.995
527.5157, 1488.002
527.9979, 1504.649
528.4800, 1524.702
528.9621, 1539.130
529.4442, 1546.800
529.9263, 1544.788
530.4084, 1516.252
530.8906, 1488.386
531.3727, 1485.743
531.8548, 1514.447
532.3369, 1532.070
532.8190, 1509.420
533.3011, 1476.644
533.7833, 1461.521
534.2654, 1489.696
534.7475, 1508.821
535.2296, 1509.803
535.7117, 1498.040
536.1938, 1492.501
536.6760, 1495.024
537.1581, 1500.185
537.6402, 1507.607
538.1223, 1518.034
538.6044, 1519.724
539.0865, 1511.191
539.5687, 1498.356
540.0508, 1488.139
540.5329, 1479.951
541.0150, 1470.243
541.4971, 1457.717
541.9792, 1443.770
542.4614, 1426.459
542.9435, 1408.153
543.4256, 1399.919
543.9077, 1419.019
544.3898, 1445.267
544.8719, 1457.328
545.3541, 1451.007
545.8362, 1445.938
546.3183, 1454.405
546.8004, 1467.904
547.2825, 1477.230
547.7646, 1469.999
548.2468, 1469.710
548.7289, 1488.882
549.2110, 1520.676
549.6931, 1535.309
550.1752, 1523.393
550.6573, 1507.025
551.1395, 1493.320
551.6216, 1481.399
552.1037, 1480.172
552.5858, 1494.103
553.0679, 1509.033
553.5500, 1504.625
554.0322, 1481.978
554.5143, 1467.560
554.9964, 1469.762
555.4785, 1480.826
555.9606, 1490.712
556.4427, 1498.423
556.9249, 1498.052
557.4070, 1474.290
557.8891, 1446.516
558.3712, 1436.989
558.8533, 1448.817
559.3354, 1469.051
559.8176, 1507.402
560.2997, 1543.243
560.7818, 1555.433
561.2639, 1502.725
561.7460, 1465.971
562.2281, 1472.965
562.7103, 1511.006
563.1924, 1530.857
563.6745, 1518.837
564.1566, 1506.146
564.6387, 1504.146
565.1208, 1514.094
565.6030, 1522.876
566.0851, 1531.247
566.5672, 1536.633
567.0493, 1532.489
567.5314, 1519.719
