##NAMES=Julgoldite-(Fe2+)
##RRUFFID=R070725
##IDEAL CHEMISTRY=Ca_2_Fe^2+^Fe^3+^_2_(Si_2_O_7_)(SiO_4_)(OH)_2_&#183;H_2_O
##LOCALITY=Khandivali Quarry (Kandivali Quarry),  Mumbai District (Bombay District),  Maharashtra,  India
##OWNER=RRUFF
##SOURCE=Michael Scott
##DESCRIPTION=Clusters of black blades associated with pale green bladed prehnite and quartz
##STATUS=The identification of this mineral has been confirmed by X-ray diffraction and chemical analysis
##URL=rruff.info/R070725
##MEASURED CHEMISTRY=Ca_2.00_(Fe^2+^_0.86_Mg_0.14_)_Σ=1_(Fe^3+^_1.67_Al_0.33_)_Σ=2_(Si_2.00_O_7_)(Si_1.00_O_4_)(OH)_2_·H_2_O; OH by charge balance = light; Ca_2.00_(Fe^2+^_0.82_Mg_0.18_)_Σ=1_(Fe^3+^_1.44_Al_0.58_)_Σ=2_(Si_2.00_O_7_)(Si_1.00_O_4_)(OH)_2_·H_2_O = darker
89.15009, 13141.98
89.63220, 13223.52
90.11432, 13333.61
90.59644, 13494.02
91.07855, 13733.58
91.56067, 13991.21
92.04279, 14240.63
92.52490, 14471.76
93.00702, 14682.32
93.48914, 14871.02
93.97125, 15060.97
94.45337, 15157.43
94.93549, 15000.63
95.41760, 14691.97
95.89972, 14371.09
96.38184, 14041.35
96.86395, 13720.37
97.34607, 13453.77
97.82819, 13230.07
98.31030, 13052.73
98.79242, 12939.85
99.27454, 12888.62
99.75665, 12840.50
100.2388, 12756.53
100.7209, 12649.45
101.2030, 12540.53
101.6851, 12421.96
102.1672, 12305.40
102.6494, 12217.02
103.1315, 12157.38
103.6136, 12124.96
104.0957, 12117.33
104.5778, 12129.69
105.0599, 12151.35
105.5421, 12172.79
106.0242, 12192.27
106.5063, 12223.92
106.9884, 12285.26
107.4705, 12345.26
107.9526, 12393.18
108.4348, 12426.14
108.9169, 12445.13
109.3990, 12453.69
109.8811, 12466.73
110.3632, 12437.91
110.8453, 12331.87
111.3275, 12204.89
111.8096, 12098.76
112.2917, 12031.96
112.7738, 12006.42
113.2559, 12036.98
113.7380, 12187.05
114.2202, 12317.32
114.7023, 12387.21
115.1844, 12413.91
115.6665, 12441.36
116.1486, 12500.43
116.6307, 12584.61
117.1129, 12639.53
117.5950, 12637.12
118.0771, 12627.02
118.5592, 12644.38
119.0413, 12691.49
119.5234, 12754.44
120.0056, 12829.39
120.4877, 12912.22
120.9698, 12991.84
121.4519, 13082.10
121.9340, 13166.32
122.4161, 13204.94
122.8982, 13189.13
123.3804, 13128.74
123.8625, 13034.04
124.3446, 12908.01
124.8267, 12765.15
125.3088, 12607.74
125.7909, 12433.73
126.2731, 12274.32
126.7552, 12135.04
127.2373, 12011.07
127.7194, 11905.09
128.2015, 11816.10
128.6837, 11738.03
129.1658, 11661.83
129.6479, 11588.12
130.1300, 11515.09
130.6121, 11445.00
131.0942, 11374.57
131.5764, 11297.83
132.0585, 11212.57
132.5406, 11124.18
133.0227, 11053.30
133.5048, 11013.69
133.9869, 10977.96
134.4691, 10944.68
134.9512, 10913.07
135.4333, 10882.24
135.9154, 10851.23
136.3975, 10820.52
136.8796, 10796.42
137.3618, 10783.79
137.8439, 10772.05
138.3260, 10749.25
138.8081, 10718.28
139.2902, 10700.83
139.7723, 10722.15
140.2545, 10781.85
140.7366, 10820.37
141.2187, 10833.71
141.7008, 10824.77
142.1829, 10789.85
142.6650, 10723.34
143.1472, 10652.63
143.6293, 10604.58
144.1114, 10575.18
144.5935, 10552.05
145.0756, 10529.95
145.5577, 10510.08
146.0399, 10497.20
146.5220, 10495.97
147.0041, 10497.58
147.4862, 10495.15
147.9683, 10488.66
148.4504, 10480.31
148.9326, 10471.72
149.4147, 10462.83
149.8968, 10453.56
150.3789, 10440.09
150.8610, 10428.71
151.3431, 10422.99
151.8252, 10423.75
152.3074, 10429.56
152.7895, 10441.17
153.2716, 10469.32
153.7537, 10478.65
154.2358, 10457.69
154.7179, 10423.73
155.2001, 10389.67
155.6822, 10360.86
156.1643, 10337.10
156.6464, 10318.08
157.1285, 10318.65
157.6106, 10306.05
158.0928, 10263.19
158.5749, 10207.95
159.0570, 10165.81
159.5391, 10153.05
160.0212, 10166.22
160.5033, 10167.73
160.9855, 10139.69
161.4676, 10119.77
161.9497, 10127.45
162.4318, 10154.89
162.9139, 10180.25
163.3960, 10188.91
163.8782, 10179.06
164.3603, 10149.49
164.8424, 10081.10
165.3245, 10009.61
165.8066, 9942.145
166.2887, 9882.419
166.7709, 9868.886
167.2530, 9973.108
167.7351, 10190.63
168.2172, 10302.92
168.6993, 10213.76
169.1814, 10035.75
169.6636, 9900.283
170.1457, 9826.697
170.6278, 9791.215
171.1099, 9786.291
171.5920, 9805.621
172.0741, 9815.079
172.5563, 9790.903
173.0384, 9745.749
173.5205, 9717.485
174.0026, 9718.953
174.4847, 9729.530
174.9668, 9728.674
175.4490, 9717.443
175.9311, 9709.112
176.4132, 9723.568
176.8953, 9759.488
177.3774, 9764.312
177.8595, 9689.993
178.3417, 9612.174
178.8238, 9582.372
179.3059, 9604.588
179.7880, 9643.403
180.2701, 9661.767
180.7522, 9656.646
181.2344, 9643.289
181.7165, 9603.313
182.1986, 9569.064
182.6807, 9565.270
183.1628, 9597.950
183.6449, 9648.080
184.1271, 9683.562
184.6092, 9695.411
185.0913, 9709.642
185.5734, 9732.973
186.0555, 9757.496
186.5376, 9776.645
187.0198, 9787.770
187.5019, 9792.538
187.9840, 9794.735
188.4661, 9779.944
188.9482, 9782.283
189.4303, 9800.564
189.9125, 9837.729
190.3946, 9902.497
190.8767, 10001.49
191.3588, 10123.38
191.8409, 10217.29
192.3230, 10268.10
192.8052, 10307.51
193.2873, 10329.67
193.7694, 10344.23
194.2515, 10366.36
194.7336, 10405.36
195.2157, 10459.89
195.6979, 10519.89
196.1800, 10596.88
196.6621, 10666.34
197.1442, 10708.01
197.6263, 10731.96
198.1084, 10771.22
198.5906, 10854.34
199.0727, 10975.62
199.5548, 11061.45
200.0369, 11085.64
200.5190, 11100.08
201.0011, 11125.43
201.4833, 11164.49
201.9654, 11227.94
202.4475, 11335.61
202.9296, 11480.72
203.4117, 11595.96
203.8938, 11677.58
204.3760, 11729.97
204.8581, 11746.71
205.3402, 11726.03
205.8223, 11702.17
206.3044, 11711.07
206.7865, 11740.74
207.2687, 11746.72
207.7508, 11695.73
208.2329, 11625.99
208.7150, 11595.80
209.1971, 11618.77
209.6792, 11640.76
210.1614, 11618.70
210.6435, 11563.38
211.1256, 11492.11
211.6077, 11407.27
212.0898, 11311.09
212.5719, 11203.13
213.0541, 11070.88
213.5362, 10953.12
214.0183, 10891.13
214.5004, 10865.09
214.9825, 10825.25
215.4646, 10739.61
215.9468, 10617.36
216.4289, 10495.52
216.9110, 10363.29
217.3931, 10249.81
217.8752, 10179.85
218.3573, 10140.58
218.8395, 10095.65
219.3216, 10010.86
219.8037, 9891.026
220.2858, 9795.895
220.7679, 9742.549
221.2500, 9698.473
221.7322, 9654.257
222.2143, 9607.199
222.6964, 9552.355
223.1785, 9481.049
223.6606, 9392.040
224.1427, 9314.323
224.6249, 9254.437
225.1070, 9201.362
225.5891, 9151.680
226.0712, 9105.208
226.5533, 9063.094
227.0354, 9028.459
227.5176, 9003.503
227.9997, 8971.108
228.4818, 8926.531
228.9639, 8878.128
229.4460, 8822.087
229.9281, 8763.046
230.4103, 8714.085
230.8924, 8693.213
231.3745, 8710.617
231.8566, 8709.295
232.3387, 8675.801
232.8208, 8636.458
233.3030, 8603.079
233.7851, 8576.016
234.2672, 8548.816
234.7493, 8513.450
235.2314, 8465.821
235.7135, 8425.309
236.1957, 8391.508
236.6778, 8363.619
237.1599, 8340.414
237.6420, 8322.436
238.1241, 8313.255
238.6062, 8319.934
239.0884, 8355.043
239.5705, 8362.883
240.0526, 8327.636
240.5347, 8282.971
241.0168, 8246.115
241.4989, 8220.030
241.9811, 8200.085
242.4632, 8179.892
242.9453, 8154.694
243.4274, 8146.630
243.9095, 8164.358
244.3916, 8189.914
244.8738, 8215.022
245.3559, 8237.189
245.8380, 8255.438
246.3201, 8268.451
246.8022, 8274.821
247.2843, 8279.284
247.7665, 8284.672
248.2486, 8286.497
248.7307, 8274.862
249.2128, 8251.321
249.6949, 8233.954
250.1770, 8243.756
250.6592, 8288.991
251.1413, 8339.021
251.6234, 8407.495
252.1055, 8471.325
252.5876, 8509.282
253.0697, 8520.056
253.5519, 8523.406
254.0340, 8540.237
254.5161, 8574.292
254.9982, 8610.376
255.4803, 8656.441
255.9624, 8699.152
256.4445, 8724.486
256.9267, 8731.606
257.4088, 8735.718
257.8909, 8753.072
258.3730, 8787.638
258.8551, 8816.602
259.3372, 8845.483
259.8194, 8865.152
260.3015, 8858.357
260.7836, 8825.564
261.2657, 8800.059
261.7478, 8821.555
262.2299, 8900.547
262.7121, 8938.862
263.1942, 8904.237
263.6763, 8848.817
264.1584, 8818.078
264.6405, 8815.511
265.1227, 8809.581
265.6048, 8768.530
266.0869, 8688.822
266.5690, 8623.755
267.0511, 8591.907
267.5332, 8563.069
268.0154, 8504.091
268.4975, 8414.610
268.9796, 8334.313
269.4617, 8301.367
269.9438, 8315.707
270.4259, 8311.891
270.9081, 8271.542
271.3902, 8224.244
271.8723, 8194.737
272.3544, 8183.396
272.8365, 8173.398
273.3186, 8151.329
273.8008, 8118.206
274.2829, 8090.453
274.7650, 8068.072
275.2471, 8051.326
275.7292, 8045.359
276.2113, 8048.857
276.6935, 8046.088
277.1756, 8023.674
277.6577, 7984.554
278.1398, 7954.593
278.6219, 7932.355
279.1040, 7920.271
279.5862, 7924.050
280.0683, 7941.997
280.5504, 7961.652
281.0325, 7977.326
281.5146, 7987.860
281.9967, 7992.088
282.4789, 7979.841
282.9610, 7970.570
283.4431, 7978.605
283.9252, 8001.560
284.4073, 8025.943
284.8894, 8045.213
285.3716, 8060.597
285.8537, 8077.063
286.3358, 8097.292
286.8179, 8115.175
287.3000, 8126.830
287.7821, 8133.104
288.2643, 8135.562
288.7464, 8130.898
289.2285, 8126.792
289.7106, 8141.975
290.1927, 8186.818
290.6748, 8230.335
291.1570, 8250.728
291.6391, 8256.959
292.1212, 8280.193
292.6033, 8340.620
293.0854, 8413.383
293.5675, 8445.330
294.0497, 8424.622
294.5318, 8404.299
295.0139, 8402.854
295.4960, 8417.345
295.9781, 8443.376
296.4602, 8482.404
296.9424, 8526.514
297.4245, 8562.127
297.9066, 8590.118
298.3887, 8611.470
298.8708, 8621.990
299.3529, 8626.847
299.8351, 8636.473
300.3172, 8654.943
300.7993, 8673.658
301.2814, 8676.458
301.7635, 8660.755
302.2456, 8655.720
302.7278, 8677.389
303.2099, 8710.078
303.6920, 8731.387
304.1741, 8736.208
304.6562, 8737.031
305.1383, 8752.569
305.6205, 8784.734
306.1026, 8795.576
306.5847, 8768.724
307.0668, 8724.294
307.5489, 8676.464
308.0310, 8627.089
308.5132, 8589.001
308.9953, 8577.665
309.4774, 8594.628
309.9595, 8605.438
310.4416, 8602.851
310.9237, 8597.928
311.4059, 8599.058
311.8880, 8606.546
312.3701, 8617.669
312.8522, 8633.836
313.3343, 8652.926
313.8164, 8654.756
314.2986, 8621.174
314.7807, 8587.232
315.2628, 8574.260
315.7449, 8579.372
316.2270, 8588.438
316.7091, 8594.712
317.1913, 8597.096
317.6734, 8590.438
318.1555, 8552.412
318.6376, 8530.126
319.1197, 8563.361
319.6018, 8626.633
320.0840, 8654.836
320.5661, 8610.057
321.0482, 8520.376
321.5303, 8481.153
322.0124, 8526.165
322.4945, 8566.404
322.9767, 8574.549
323.4588, 8568.781
323.9409, 8579.971
324.4230, 8621.077
324.9051, 8672.968
325.3872, 8695.902
325.8694, 8661.233
326.3515, 8648.382
326.8336, 8670.854
327.3157, 8713.999
327.7978, 8766.567
328.2799, 8824.905
328.7621, 8885.008
329.2442, 8941.716
329.7263, 8991.095
330.2084, 9046.738
330.6905, 9112.563
331.1726, 9181.334
331.6548, 9253.660
332.1369, 9326.636
332.6190, 9387.906
333.1011, 9420.979
333.5832, 9415.452
334.0653, 9442.399
334.5475, 9525.634
335.0296, 9612.896
335.5117, 9680.257
335.9938, 9728.989
336.4759, 9772.402
336.9580, 9821.010
337.4402, 9874.596
337.9223, 9918.252
338.4044, 9939.862
338.8865, 9964.841
339.3686, 10001.70
339.8507, 10046.39
340.3329, 10095.17
340.8150, 10148.03
341.2971, 10197.44
341.7792, 10211.10
342.2613, 10164.90
342.7434, 10109.61
343.2256, 10038.65
343.7077, 9966.901
344.1898, 9910.644
344.6719, 9876.160
345.1540, 9856.003
345.6361, 9837.515
346.1183, 9832.101
346.6004, 9804.533
347.0825, 9742.518
347.5646, 9668.824
348.0467, 9598.225
348.5288, 9534.596
349.0110, 9472.708
349.4931, 9402.562
349.9752, 9316.109
350.4573, 9252.792
350.9394, 9238.790
351.4215, 9226.585
351.9037, 9196.633
352.3858, 9148.313
352.8679, 9089.167
353.3500, 9019.168
353.8321, 8939.347
354.3142, 8881.627
354.7964, 8852.541
355.2785, 8840.757
355.7606, 8849.601
356.2427, 8870.401
356.7248, 8886.942
357.2069, 8888.991
357.6891, 8881.136
358.1712, 8876.129
358.6533, 8874.674
359.1354, 8874.497
359.6175, 8879.013
360.0996, 8882.683
360.5818, 8877.675
361.0639, 8859.320
361.5460, 8836.925
362.0281, 8822.538
362.5102, 8816.578
362.9923, 8814.584
363.4745, 8819.975
363.9566, 8825.496
364.4387, 8820.965
364.9208, 8803.322
365.4029, 8791.316
365.8850, 8802.720
366.3672, 8833.492
366.8493, 8865.000
367.3314, 8902.771
367.8135, 8924.976
368.2956, 8900.696
368.7777, 8833.996
369.2599, 8775.465
369.7420, 8751.757
370.2241, 8747.934
370.7062, 8741.297
371.1883, 8730.098
371.6704, 8711.354
372.1526, 8673.559
372.6347, 8622.561
373.1168, 8592.674
373.5989, 8609.552
374.0810, 8633.126
374.5631, 8629.362
375.0453, 8599.808
375.5274, 8565.428
376.0095, 8537.625
376.4916, 8514.732
376.9737, 8488.948
377.4558, 8448.865
377.9380, 8418.826
378.4201, 8414.943
378.9022, 8426.508
379.3843, 8432.493
379.8664, 8424.186
380.3485, 8408.442
380.8307, 8399.134
381.3128, 8395.494
381.7949, 8400.090
382.2770, 8419.418
382.7591, 8443.638
383.2412, 8468.735
383.7234, 8491.915
384.2055, 8501.501
384.6876, 8480.063
385.1697, 8413.482
385.6518, 8377.484
386.1339, 8375.944
386.6161, 8395.225
387.0982, 8444.888
387.5803, 8511.579
388.0624, 8560.886
388.5445, 8563.399
389.0266, 8526.633
389.5088, 8532.229
389.9909, 8629.041
390.4730, 8714.686
390.9551, 8771.834
391.4372, 8807.942
391.9193, 8828.230
392.4015, 8834.186
392.8836, 8838.944
393.3657, 8877.011
393.8478, 8977.407
394.3299, 9037.621
394.8120, 9000.835
395.2942, 8951.786
395.7763, 8945.995
396.2584, 8992.060
396.7405, 9063.391
397.2226, 9147.778
397.7047, 9245.273
398.1869, 9304.294
398.6690, 9297.006
399.1511, 9278.194
399.6332, 9283.480
400.1153, 9304.291
400.5974, 9314.114
401.0796, 9286.195
401.5617, 9241.641
402.0438, 9237.816
402.5259, 9290.608
403.0080, 9321.546
403.4901, 9270.693
403.9723, 9174.938
404.4544, 9087.679
404.9365, 9019.576
405.4186, 8958.488
405.9007, 8900.264
406.3828, 8842.824
406.8650, 8771.034
407.3471, 8671.085
407.8292, 8565.960
408.3113, 8497.746
408.7934, 8474.981
409.2755, 8440.590
409.7577, 8370.378
410.2398, 8281.183
410.7219, 8193.232
411.2040, 8110.305
411.6861, 8034.073
412.1682, 7968.135
412.6504, 7914.582
413.1325, 7853.908
413.6146, 7777.679
414.0967, 7702.195
414.5788, 7632.796
415.0609, 7571.304
415.5431, 7520.090
416.0252, 7480.660
416.5073, 7452.611
416.9894, 7433.476
417.4715, 7458.557
417.9536, 7449.235
418.4358, 7361.631
418.9179, 7252.793
419.4000, 7185.491
419.8821, 7177.943
420.3642, 7199.362
420.8463, 7203.999
421.3285, 7185.689
421.8106, 7167.231
422.2927, 7156.813
422.7748, 7139.207
423.2569, 7095.482
423.7390, 7035.044
424.2212, 6989.130
424.7033, 6986.872
425.1854, 7019.982
425.6675, 7037.462
426.1496, 7034.727
426.6317, 7022.721
427.1139, 6993.672
427.5960, 6962.891
428.0781, 6953.235
428.5602, 6978.029
429.0423, 7010.943
429.5244, 7018.388
430.0066, 6999.896
430.4887, 6977.094
430.9708, 6948.745
431.4529, 6925.885
431.9350, 6922.716
432.4171, 6940.414
432.8993, 6955.471
433.3814, 6953.950
433.8635, 6943.047
434.3456, 6933.934
434.8277, 6927.480
435.3098, 6927.726
435.7920, 6939.299
436.2741, 6962.097
436.7562, 6986.759
437.2383, 7016.317
437.7204, 7044.545
438.2025, 7069.185
438.6847, 7089.690
439.1668, 7104.736
439.6489, 7113.363
440.1310, 7116.979
440.6131, 7119.257
441.0952, 7118.412
441.5774, 7118.765
442.0595, 7114.691
442.5416, 7115.339
443.0237, 7132.342
443.5058, 7165.913
443.9879, 7203.597
444.4701, 7231.854
444.9522, 7249.545
445.4343, 7265.078
445.9164, 7268.213
446.3985, 7279.582
446.8806, 7317.425
447.3628, 7366.853
447.8449, 7397.346
448.3270, 7388.040
448.8091, 7360.970
449.2912, 7375.197
449.7733, 7447.781
450.2555, 7514.066
450.7376, 7560.553
451.2197, 7592.253
451.7018, 7605.993
452.1839, 7601.507
452.6660, 7600.545
453.1482, 7618.301
453.6303, 7653.936
454.1124, 7707.817
454.5945, 7790.835
455.0766, 7869.260
455.5587, 7902.673
456.0409, 7906.639
456.5230, 7926.500
457.0051, 7988.840
457.4872, 8058.979
457.9693, 8103.306
458.4514, 8126.202
458.9336, 8155.009
459.4156, 8206.463
459.8978, 8267.419
460.3799, 8298.825
460.8620, 8275.609
461.3441, 8274.946
461.8262, 8325.686
462.3083, 8397.198
462.7905, 8459.441
463.2726, 8506.238
463.7547, 8545.104
464.2368, 8584.450
464.7189, 8625.278
465.2010, 8656.718
465.6832, 8676.070
466.1653, 8689.262
466.6474, 8690.901
467.1295, 8688.979
467.6116, 8698.946
468.0938, 8729.870
468.5759, 8767.471
469.0580, 8778.530
469.5401, 8755.713
470.0222, 8727.127
470.5043, 8692.319
470.9865, 8657.133
471.4686, 8628.560
471.9507, 8605.686
472.4328, 8575.632
472.9149, 8523.822
473.3970, 8456.657
473.8792, 8397.688
474.3613, 8349.694
474.8434, 8304.772
475.3255, 8260.982
475.8076, 8216.172
476.2897, 8164.738
476.7719, 8103.009
477.2540, 8038.158
477.7361, 7972.320
478.2182, 7907.059
478.7003, 7847.887
479.1824, 7797.809
479.6646, 7751.461
480.1467, 7700.223
480.6288, 7639.988
481.1109, 7587.960
481.5930, 7555.771
482.0751, 7523.929
482.5573, 7473.618
483.0394, 7408.668
483.5215, 7349.705
484.0036, 7312.678
484.4857, 7293.301
484.9678, 7263.007
485.4500, 7210.159
485.9321, 7161.388
486.4142, 7114.467
486.8963, 7076.170
487.3784, 7058.329
487.8605, 7062.123
488.3427, 7067.579
488.8248, 7049.075
489.3069, 7005.342
489.7890, 6966.562
490.2711, 6928.600
490.7532, 6904.262
491.2354, 6908.192
491.7175, 6929.156
492.1996, 6940.688
492.6817, 6930.139
493.1638, 6908.404
493.6459, 6887.434
494.1281, 6866.963
494.6102, 6843.233
495.0923, 6813.055
495.5744, 6780.976
496.0565, 6752.443
496.5386, 6723.350
497.0208, 6711.167
497.5029, 6735.908
497.9850, 6769.694
498.4671, 6784.433
498.9492, 6778.198
499.4313, 6763.431
499.9135, 6748.291
500.3956, 6733.484
500.8777, 6728.288
501.3598, 6751.979
501.8419, 6762.080
502.3240, 6743.920
502.8062, 6712.258
503.2883, 6679.212
503.7704, 6649.839
504.2525, 6630.423
504.7346, 6635.707
505.2167, 6672.146
505.6989, 6685.834
506.1810, 6659.013
506.6631, 6627.416
507.1452, 6605.080
507.6273, 6591.274
508.1094, 6583.255
508.5916, 6580.252
509.0737, 6581.977
509.5558, 6590.684
510.0379, 6605.971
510.5200, 6617.205
511.0021, 6620.275
511.4843, 6617.967
511.9664, 6614.493
512.4485, 6610.217
512.9306, 6603.151
513.4127, 6587.938
513.8948, 6572.821
514.3770, 6560.956
514.8591, 6555.111
515.3412, 6570.139
515.8233, 6622.381
516.3054, 6700.835
516.7875, 6733.274
517.2697, 6674.001
517.7518, 6623.875
518.2339, 6595.549
518.7160, 6578.724
519.1981, 6564.858
519.6802, 6551.245
520.1624, 6537.522
520.6445, 6523.679
521.1266, 6509.771
521.6087, 6491.972
522.0908, 6459.453
522.5729, 6439.957
523.0551, 6454.516
523.5372, 6486.101
524.0193, 6509.637
524.5014, 6520.097
524.9835, 6514.706
525.4656, 6476.854
525.9478, 6415.826
526.4299, 6382.684
526.9120, 6396.286
527.3941, 6426.830
527.8762, 6443.183
528.3583, 6445.350
528.8405, 6436.125
529.3226, 6397.608
529.8047, 6363.774
530.2868, 6358.530
530.7689, 6376.630
531.2510, 6406.110
531.7332, 6442.955
532.2153, 6474.355
532.6974, 6465.422
533.1795, 6376.432
533.6616, 6319.673
534.1437, 6319.069
534.6259, 6328.722
535.1080, 6315.199
535.5901, 6283.954
536.0722, 6266.373
536.5543, 6292.040
537.0364, 6343.721
537.5186, 6364.218
538.0007, 6345.028
538.4828, 6327.506
538.9649, 6332.484
539.4470, 6343.576
539.9291, 6338.976
540.4113, 6314.136
540.8934, 6296.255
541.3755, 6301.046
541.8576, 6320.316
542.3397, 6344.958
542.8218, 6373.379
543.3040, 6397.957
543.7861, 6413.628
544.2682, 6420.495
544.7503, 6418.849
545.2324, 6396.247
545.7145, 6381.793
546.1967, 6388.865
546.6788, 6402.945
547.1609, 6407.065
547.6430, 6398.280
548.1251, 6387.260
548.6072, 6384.030
549.0894, 6388.504
549.5715, 6407.844
550.0536, 6467.890
550.5357, 6504.899
551.0178, 6478.376
551.4999, 6424.088
551.9821, 6392.053
552.4642, 6399.901
552.9463, 6418.513
553.4284, 6427.811
553.9105, 6426.518
554.3926, 6404.749
554.8748, 6355.366
555.3569, 6305.031
555.8390, 6278.205
556.3211, 6275.290
556.8032, 6276.659
557.2853, 6272.844
557.7675, 6282.685
558.2496, 6327.282
558.7317, 6388.586
559.2138, 6438.982
559.6959, 6467.989
560.1780, 6476.322
560.6602, 6464.502
561.1423, 6432.011
561.6244, 6382.167
562.1065, 6280.562
562.5886, 6196.201
563.0707, 6156.807
563.5529, 6151.185
564.0350, 6159.574
564.5171, 6177.855
564.9992, 6194.405
565.4813, 6189.662
565.9634, 6165.233
566.4456, 6147.872
566.9277, 6145.749
567.4098, 6148.283
567.8919, 6143.694
568.3740, 6132.877
568.8561, 6124.479
569.3383, 6110.917
569.8204, 6108.192
570.3025, 6139.957
570.7846, 6190.284
571.2667, 6218.636
571.7488, 6207.808
572.2310, 6177.822
572.7131, 6163.648
573.1952, 6168.281
573.6773, 6181.097
574.1594, 6203.603
574.6415, 6232.237
575.1237, 6276.574
575.6058, 6324.827
576.0879, 6354.761
576.5700, 6355.380
