##NAMES=Junitoite
##RRUFFID=R120100
##IDEAL CHEMISTRY=CaZn^2+^_2_Si_2_O_7_&#183;H_2_O
##LOCALITY=Christmas mine, Christmas, Gila County, Arizona, USA
##OWNER=RRUFF
##SOURCE=Bob Jenkins
##DESCRIPTION=Spray of colorless to pale purple crystals. Part of the co-type. Associated with green hydroxyapophyllite and clinohedrite, R120105. Used in the Yang et al (2012) structure redetermination.
##STATUS=The identification of this mineral has been confirmed by single-crystal X-ray diffraction.
##URL=rruff.info/R120100
8.975323e+001, 0.000000e+000
9.023535e+001, 1.034832e+003
9.071747e+001, 1.016218e+003
9.119958e+001, 1.005624e+003
9.168170e+001, 1.029057e+003
9.216382e+001, 1.051219e+003
9.264594e+001, 1.063878e+003
9.312805e+001, 1.069132e+003
9.361017e+001, 1.071295e+003
9.409229e+001, 1.070996e+003
9.457440e+001, 1.067444e+003
9.505651e+001, 1.062601e+003
9.553863e+001, 1.056924e+003
9.602074e+001, 1.051032e+003
9.650286e+001, 1.045416e+003
9.698498e+001, 1.039596e+003
9.746709e+001, 1.031714e+003
9.794921e+001, 1.024606e+003
9.843133e+001, 1.017511e+003
9.891344e+001, 1.011999e+003
9.939556e+001, 1.008730e+003
9.987768e+001, 1.007101e+003
1.003598e+002, 1.005755e+003
1.008419e+002, 1.003650e+003
1.013240e+002, 1.001262e+003
1.018061e+002, 1.000224e+003
1.022883e+002, 1.001138e+003
1.027704e+002, 1.002825e+003
1.032525e+002, 1.004116e+003
1.037346e+002, 1.004829e+003
1.042167e+002, 1.005831e+003
1.046988e+002, 1.008007e+003
1.051810e+002, 1.010561e+003
1.056631e+002, 1.012257e+003
1.061452e+002, 1.011988e+003
1.066273e+002, 1.010313e+003
1.071094e+002, 1.009597e+003
1.075915e+002, 1.010083e+003
1.080737e+002, 1.011307e+003
1.085558e+002, 1.013172e+003
1.090379e+002, 1.015545e+003
1.095200e+002, 1.018153e+003
1.100021e+002, 1.020756e+003
1.104842e+002, 1.023297e+003
1.109664e+002, 1.026078e+003
1.114485e+002, 1.030424e+003
1.119306e+002, 1.033975e+003
1.124127e+002, 1.035328e+003
1.128948e+002, 1.034423e+003
1.133769e+002, 1.032317e+003
1.138591e+002, 1.030409e+003
1.143412e+002, 1.027840e+003
1.148233e+002, 1.027318e+003
1.153054e+002, 1.029045e+003
1.157875e+002, 1.032561e+003
1.162696e+002, 1.036843e+003
1.167517e+002, 1.041401e+003
1.172339e+002, 1.047752e+003
1.177160e+002, 1.060065e+003
1.181981e+002, 1.078424e+003
1.186802e+002, 1.100352e+003
1.191623e+002, 1.127658e+003
1.196444e+002, 1.158373e+003
1.201266e+002, 1.188983e+003
1.206087e+002, 1.223013e+003
1.210908e+002, 1.250109e+003
1.215729e+002, 1.255219e+003
1.220550e+002, 1.233815e+003
1.225371e+002, 1.198409e+003
1.230193e+002, 1.155232e+003
1.235014e+002, 1.102697e+003
1.239835e+002, 1.055029e+003
1.244656e+002, 1.020344e+003
1.249477e+002, 9.939869e+002
1.254298e+002, 9.732629e+002
1.259120e+002, 9.580652e+002
1.263941e+002, 9.473632e+002
1.268762e+002, 9.393536e+002
1.273583e+002, 9.352061e+002
1.278404e+002, 9.320478e+002
1.283225e+002, 9.289864e+002
1.288047e+002, 9.261676e+002
1.292868e+002, 9.238790e+002
1.297689e+002, 9.223875e+002
1.302510e+002, 9.216161e+002
1.307331e+002, 9.204095e+002
1.312152e+002, 9.183730e+002
1.316974e+002, 9.162441e+002
1.321795e+002, 9.139139e+002
1.326616e+002, 9.115979e+002
1.331437e+002, 9.096995e+002
1.336258e+002, 9.085516e+002
1.341079e+002, 9.082031e+002
1.345901e+002, 9.085085e+002
1.350722e+002, 9.099932e+002
1.355543e+002, 9.115795e+002
1.360364e+002, 9.126277e+002
1.365185e+002, 9.130891e+002
1.370006e+002, 9.133419e+002
1.374828e+002, 9.137919e+002
1.379649e+002, 9.144916e+002
1.384470e+002, 9.151805e+002
1.389291e+002, 9.156100e+002
1.394112e+002, 9.161182e+002
1.398933e+002, 9.171285e+002
1.403755e+002, 9.187621e+002
1.408576e+002, 9.207816e+002
1.413397e+002, 9.227668e+002
1.418218e+002, 9.246870e+002
1.423039e+002, 9.272039e+002
1.427860e+002, 9.308587e+002
1.432681e+002, 9.353892e+002
1.437503e+002, 9.398441e+002
1.442324e+002, 9.438287e+002
1.447145e+002, 9.479103e+002
1.451966e+002, 9.527419e+002
1.456787e+002, 9.583071e+002
1.461608e+002, 9.637823e+002
1.466430e+002, 9.689879e+002
1.471251e+002, 9.741196e+002
1.476072e+002, 9.770570e+002
1.480893e+002, 9.757754e+002
1.485714e+002, 9.730801e+002
1.490535e+002, 9.701920e+002
1.495357e+002, 9.674163e+002
1.500178e+002, 9.645355e+002
1.504999e+002, 9.613810e+002
1.509820e+002, 9.583046e+002
1.514641e+002, 9.539785e+002
1.519462e+002, 9.472398e+002
1.524284e+002, 9.400416e+002
1.529105e+002, 9.338131e+002
1.533926e+002, 9.291318e+002
1.538747e+002, 9.256109e+002
1.543568e+002, 9.223104e+002
1.548389e+002, 9.188828e+002
1.553211e+002, 9.162101e+002
1.558032e+002, 9.143539e+002
1.562853e+002, 9.132439e+002
1.567674e+002, 9.130061e+002
1.572495e+002, 9.137578e+002
1.577316e+002, 9.151495e+002
1.582138e+002, 9.156636e+002
1.586959e+002, 9.149899e+002
1.591780e+002, 9.139435e+002
1.596601e+002, 9.121462e+002
1.601422e+002, 9.100648e+002
1.606243e+002, 9.088878e+002
1.611065e+002, 9.095530e+002
1.615886e+002, 9.115163e+002
1.620707e+002, 9.122660e+002
1.625528e+002, 9.113518e+002
1.630349e+002, 9.098019e+002
1.635170e+002, 9.077097e+002
1.639991e+002, 9.051856e+002
1.644813e+002, 9.034096e+002
1.649634e+002, 9.034710e+002
1.654455e+002, 9.047740e+002
1.659276e+002, 9.058460e+002
1.664097e+002, 9.066575e+002
1.668918e+002, 9.070867e+002
1.673740e+002, 9.070310e+002
1.678561e+002, 9.065118e+002
1.683382e+002, 9.053998e+002
1.688203e+002, 9.031329e+002
1.693024e+002, 9.003453e+002
1.697845e+002, 8.977750e+002
1.702667e+002, 8.957818e+002
1.707488e+002, 8.941358e+002
1.712309e+002, 8.923061e+002
1.717130e+002, 8.901989e+002
1.721951e+002, 8.880743e+002
1.726772e+002, 8.857732e+002
1.731594e+002, 8.835529e+002
1.736415e+002, 8.818193e+002
1.741236e+002, 8.809362e+002
1.746057e+002, 8.807300e+002
1.750878e+002, 8.801338e+002
1.755699e+002, 8.787890e+002
1.760521e+002, 8.774297e+002
1.765342e+002, 8.762557e+002
1.770163e+002, 8.752128e+002
1.774984e+002, 8.741603e+002
1.779805e+002, 8.729437e+002
1.784626e+002, 8.715563e+002
1.789448e+002, 8.707284e+002
1.794269e+002, 8.709309e+002
1.799090e+002, 8.712210e+002
1.803911e+002, 8.714812e+002
1.808732e+002, 8.716144e+002
1.813553e+002, 8.714717e+002
1.818375e+002, 8.708924e+002
1.823196e+002, 8.698118e+002
1.828017e+002, 8.688809e+002
1.832838e+002, 8.682485e+002
1.837659e+002, 8.675872e+002
1.842480e+002, 8.665005e+002
1.847301e+002, 8.651155e+002
1.852123e+002, 8.641013e+002
1.856944e+002, 8.641843e+002
1.861765e+002, 8.655727e+002
1.866586e+002, 8.663448e+002
1.871407e+002, 8.662509e+002
1.876228e+002, 8.657490e+002
1.881050e+002, 8.651317e+002
1.885871e+002, 8.644388e+002
1.890692e+002, 8.635964e+002
1.895513e+002, 8.623894e+002
1.900334e+002, 8.608528e+002
1.905155e+002, 8.597657e+002
1.909977e+002, 8.593819e+002
1.914798e+002, 8.594205e+002
1.919619e+002, 8.598649e+002
1.924440e+002, 8.608885e+002
1.929261e+002, 8.613971e+002
1.934082e+002, 8.595621e+002
1.938904e+002, 8.561349e+002
1.943725e+002, 8.534293e+002
1.948546e+002, 8.528139e+002
1.953367e+002, 8.532815e+002
1.958188e+002, 8.527283e+002
1.963009e+002, 8.506036e+002
1.967831e+002, 8.482986e+002
1.972652e+002, 8.467946e+002
1.977473e+002, 8.459048e+002
1.982294e+002, 8.452564e+002
1.987115e+002, 8.440497e+002
1.991936e+002, 8.427642e+002
1.996758e+002, 8.438546e+002
2.001579e+002, 8.497031e+002
2.006400e+002, 8.546462e+002
2.011221e+002, 8.552685e+002
2.016042e+002, 8.526735e+002
2.020863e+002, 8.496146e+002
2.025685e+002, 8.478929e+002
2.030506e+002, 8.474315e+002
2.035327e+002, 8.470361e+002
2.040148e+002, 8.467628e+002
2.044969e+002, 8.465002e+002
2.049790e+002, 8.460449e+002
2.054612e+002, 8.455438e+002
2.059433e+002, 8.453653e+002
2.064254e+002, 8.459899e+002
2.069075e+002, 8.475009e+002
2.073896e+002, 8.481647e+002
2.078717e+002, 8.468431e+002
2.083539e+002, 8.456672e+002
2.088360e+002, 8.453705e+002
2.093181e+002, 8.458245e+002
2.098002e+002, 8.465274e+002
2.102823e+002, 8.470927e+002
2.107644e+002, 8.475510e+002
2.112466e+002, 8.475703e+002
2.117287e+002, 8.465012e+002
2.122108e+002, 8.456429e+002
2.126929e+002, 8.456194e+002
2.131750e+002, 8.463170e+002
2.136571e+002, 8.472308e+002
2.141393e+002, 8.479344e+002
2.146214e+002, 8.484368e+002
2.151035e+002, 8.486180e+002
2.155856e+002, 8.482991e+002
2.160677e+002, 8.479020e+002
2.165498e+002, 8.474686e+002
2.170320e+002, 8.470966e+002
2.175141e+002, 8.470504e+002
2.179962e+002, 8.476227e+002
2.184783e+002, 8.489130e+002
2.189604e+002, 8.499890e+002
2.194425e+002, 8.509785e+002
2.199247e+002, 8.516876e+002
2.204068e+002, 8.518358e+002
2.208889e+002, 8.514877e+002
2.213710e+002, 8.511218e+002
2.218531e+002, 8.511419e+002
2.223352e+002, 8.515881e+002
2.228174e+002, 8.520545e+002
2.232995e+002, 8.519037e+002
2.237816e+002, 8.522232e+002
2.242637e+002, 8.540987e+002
2.247458e+002, 8.575191e+002
2.252279e+002, 8.611734e+002
2.257100e+002, 8.638339e+002
2.261922e+002, 8.657205e+002
2.266743e+002, 8.685809e+002
2.271564e+002, 8.729700e+002
2.276385e+002, 8.780945e+002
2.281206e+002, 8.829576e+002
2.286027e+002, 8.874686e+002
2.290849e+002, 8.928380e+002
2.295670e+002, 8.999131e+002
2.300491e+002, 9.085803e+002
2.305312e+002, 9.185370e+002
2.310133e+002, 9.292050e+002
2.314954e+002, 9.414279e+002
2.319776e+002, 9.563602e+002
2.324597e+002, 9.741686e+002
2.329418e+002, 9.934852e+002
2.334239e+002, 1.014098e+003
2.339060e+002, 1.035680e+003
2.343881e+002, 1.057824e+003
2.348703e+002, 1.080038e+003
2.353524e+002, 1.103103e+003
2.358345e+002, 1.129149e+003
2.363166e+002, 1.159464e+003
2.367987e+002, 1.187984e+003
2.372808e+002, 1.212952e+003
2.377630e+002, 1.234064e+003
2.382451e+002, 1.250693e+003
2.387272e+002, 1.263154e+003
2.392093e+002, 1.270284e+003
2.396914e+002, 1.270009e+003
2.401735e+002, 1.261758e+003
2.406557e+002, 1.247570e+003
2.411378e+002, 1.225307e+003
2.416199e+002, 1.199042e+003
2.421020e+002, 1.171905e+003
2.425841e+002, 1.144766e+003
2.430662e+002, 1.118043e+003
2.435484e+002, 1.092084e+003
2.440305e+002, 1.066207e+003
2.445126e+002, 1.043255e+003
2.449947e+002, 1.024884e+003
2.454768e+002, 1.009075e+003
2.459589e+002, 9.943086e+002
2.464410e+002, 9.800490e+002
2.469232e+002, 9.667245e+002
2.474053e+002, 9.549000e+002
2.478874e+002, 9.448388e+002
2.483695e+002, 9.358559e+002
2.488516e+002, 9.280576e+002
2.493337e+002, 9.210057e+002
2.498159e+002, 9.144352e+002
2.502980e+002, 9.082471e+002
2.507801e+002, 9.024889e+002
2.512622e+002, 8.972252e+002
2.517443e+002, 8.926627e+002
2.522264e+002, 8.882115e+002
2.527086e+002, 8.837875e+002
2.531907e+002, 8.794482e+002
2.536728e+002, 8.751022e+002
2.541549e+002, 8.707786e+002
2.546370e+002, 8.667149e+002
2.551191e+002, 8.632714e+002
2.556013e+002, 8.606599e+002
2.560834e+002, 8.583015e+002
2.565655e+002, 8.566364e+002
2.570476e+002, 8.548580e+002
2.575297e+002, 8.521183e+002
2.580118e+002, 8.484271e+002
2.584940e+002, 8.447556e+002
2.589761e+002, 8.425397e+002
2.594582e+002, 8.427261e+002
2.599403e+002, 8.419778e+002
2.604224e+002, 8.393630e+002
2.609045e+002, 8.367240e+002
2.613867e+002, 8.353559e+002
2.618688e+002, 8.352870e+002
2.623509e+002, 8.355751e+002
2.628330e+002, 8.351675e+002
2.633151e+002, 8.339626e+002
2.637972e+002, 8.323359e+002
2.642794e+002, 8.299518e+002
2.647615e+002, 8.275211e+002
2.652436e+002, 8.252338e+002
2.657257e+002, 8.232253e+002
2.662078e+002, 8.217465e+002
2.666899e+002, 8.211035e+002
2.671721e+002, 8.214504e+002
2.676542e+002, 8.217072e+002
2.681363e+002, 8.220825e+002
2.686184e+002, 8.222070e+002
2.691005e+002, 8.218276e+002
2.695826e+002, 8.210072e+002
2.700648e+002, 8.199633e+002
2.705469e+002, 8.188066e+002
2.710290e+002, 8.175227e+002
2.715111e+002, 8.168124e+002
2.719932e+002, 8.169022e+002
2.724753e+002, 8.172026e+002
2.729575e+002, 8.176007e+002
2.734396e+002, 8.180203e+002
2.739217e+002, 8.183279e+002
2.744038e+002, 8.184291e+002
2.748859e+002, 8.183359e+002
2.753680e+002, 8.181764e+002
2.758501e+002, 8.175661e+002
2.763322e+002, 8.173091e+002
2.768144e+002, 8.177753e+002
2.772965e+002, 8.188017e+002
2.777786e+002, 8.200742e+002
2.782607e+002, 8.214795e+002
2.787428e+002, 8.229193e+002
2.792249e+002, 8.239478e+002
2.797071e+002, 8.242360e+002
2.801892e+002, 8.245935e+002
2.806713e+002, 8.251085e+002
2.811534e+002, 8.258430e+002
2.816355e+002, 8.270206e+002
2.821176e+002, 8.288110e+002
2.825998e+002, 8.308638e+002
2.830819e+002, 8.321916e+002
2.835640e+002, 8.324760e+002
2.840461e+002, 8.327909e+002
2.845282e+002, 8.330972e+002
2.850103e+002, 8.336317e+002
2.854925e+002, 8.348402e+002
2.859746e+002, 8.369191e+002
2.864567e+002, 8.394313e+002
2.869388e+002, 8.416848e+002
2.874209e+002, 8.436238e+002
2.879030e+002, 8.455060e+002
2.883852e+002, 8.469999e+002
2.888673e+002, 8.485948e+002
2.893494e+002, 8.510072e+002
2.898315e+002, 8.544217e+002
2.903136e+002, 8.581672e+002
2.907957e+002, 8.615760e+002
2.912779e+002, 8.646469e+002
2.917600e+002, 8.671465e+002
2.922421e+002, 8.683328e+002
2.927242e+002, 8.693355e+002
2.932063e+002, 8.711011e+002
2.936884e+002, 8.737708e+002
2.941706e+002, 8.773230e+002
2.946527e+002, 8.818602e+002
2.951348e+002, 8.874537e+002
2.956169e+002, 8.933712e+002
2.960990e+002, 8.987769e+002
2.965811e+002, 9.050895e+002
2.970633e+002, 9.134646e+002
2.975454e+002, 9.238688e+002
2.980275e+002, 9.355806e+002
2.985096e+002, 9.479607e+002
2.989917e+002, 9.613831e+002
2.994738e+002, 9.769188e+002
2.999560e+002, 9.943362e+002
3.004381e+002, 1.013858e+003
3.009202e+002, 1.036387e+003
3.014023e+002, 1.061473e+003
3.018844e+002, 1.087825e+003
3.023665e+002, 1.115957e+003
3.028487e+002, 1.144080e+003
3.033308e+002, 1.168006e+003
3.038129e+002, 1.191083e+003
3.042950e+002, 1.205773e+003
3.047771e+002, 1.208807e+003
3.052592e+002, 1.200920e+003
3.057414e+002, 1.182973e+003
3.062235e+002, 1.153900e+003
3.067056e+002, 1.117394e+003
3.071877e+002, 1.079430e+003
3.076698e+002, 1.038656e+003
3.081519e+002, 1.001259e+003
3.086341e+002, 9.691828e+002
3.091162e+002, 9.418344e+002
3.095983e+002, 9.190152e+002
3.100804e+002, 9.010524e+002
3.105625e+002, 8.863445e+002
3.110446e+002, 8.732338e+002
3.115268e+002, 8.614818e+002
3.120089e+002, 8.521093e+002
3.124910e+002, 8.460665e+002
3.129731e+002, 8.421816e+002
3.134552e+002, 8.392949e+002
3.139373e+002, 8.372781e+002
3.144195e+002, 8.357457e+002
3.149016e+002, 8.345383e+002
3.153837e+002, 8.336009e+002
3.158658e+002, 8.322620e+002
3.163479e+002, 8.294005e+002
3.168300e+002, 8.268711e+002
3.173121e+002, 8.265863e+002
3.177943e+002, 8.284488e+002
3.182764e+002, 8.304347e+002
3.187585e+002, 8.311426e+002
3.192406e+002, 8.308780e+002
3.197227e+002, 8.312714e+002
3.202048e+002, 8.327763e+002
3.206870e+002, 8.344703e+002
3.211691e+002, 8.357161e+002
3.216512e+002, 8.366960e+002
3.221333e+002, 8.381599e+002
3.226154e+002, 8.406113e+002
3.230975e+002, 8.435689e+002
3.235797e+002, 8.456960e+002
3.240618e+002, 8.466221e+002
3.245439e+002, 8.477040e+002
3.250260e+002, 8.495363e+002
3.255081e+002, 8.518372e+002
3.259902e+002, 8.540604e+002
3.264724e+002, 8.560081e+002
3.269545e+002, 8.579512e+002
3.274366e+002, 8.605166e+002
3.279187e+002, 8.639436e+002
3.284008e+002, 8.665707e+002
3.288829e+002, 8.674603e+002
3.293651e+002, 8.676680e+002
3.298472e+002, 8.683849e+002
3.303293e+002, 8.698141e+002
3.308114e+002, 8.715402e+002
3.312935e+002, 8.731018e+002
3.317756e+002, 8.744820e+002
3.322578e+002, 8.764481e+002
3.327399e+002, 8.794550e+002
3.332220e+002, 8.827076e+002
3.337041e+002, 8.852882e+002
3.341862e+002, 8.873483e+002
3.346683e+002, 8.902664e+002
3.351505e+002, 8.951102e+002
3.356326e+002, 9.016799e+002
3.361147e+002, 9.080021e+002
3.365968e+002, 9.132236e+002
3.370789e+002, 9.191747e+002
3.375610e+002, 9.264485e+002
3.380432e+002, 9.350533e+002
3.385253e+002, 9.447399e+002
3.390074e+002, 9.552366e+002
3.394895e+002, 9.670615e+002
3.399716e+002, 9.818417e+002
3.404537e+002, 9.996417e+002
3.409359e+002, 1.019578e+003
3.414180e+002, 1.041292e+003
3.419001e+002, 1.065153e+003
3.423822e+002, 1.091522e+003
3.428643e+002, 1.120392e+003
3.433464e+002, 1.151739e+003
3.438286e+002, 1.185368e+003
3.443107e+002, 1.221248e+003
3.447928e+002, 1.260750e+003
3.452749e+002, 1.304348e+003
3.457570e+002, 1.350952e+003
3.462391e+002, 1.401024e+003
3.467213e+002, 1.453668e+003
3.472034e+002, 1.506994e+003
3.476855e+002, 1.559697e+003
3.481676e+002, 1.612177e+003
3.486497e+002, 1.654173e+003
3.491318e+002, 1.688919e+003
3.496140e+002, 1.712157e+003
3.500961e+002, 1.723328e+003
3.505782e+002, 1.721371e+003
3.510603e+002, 1.703303e+003
3.515424e+002, 1.666736e+003
3.520245e+002, 1.614293e+003
3.525067e+002, 1.556071e+003
3.529888e+002, 1.486433e+003
3.534709e+002, 1.418193e+003
3.539530e+002, 1.350791e+003
3.544351e+002, 1.286498e+003
3.549172e+002, 1.227366e+003
3.553994e+002, 1.174236e+003
3.558815e+002, 1.126812e+003
3.563636e+002, 1.084194e+003
3.568457e+002, 1.046917e+003
3.573278e+002, 1.014362e+003
3.578099e+002, 9.874861e+002
3.582920e+002, 9.640549e+002
3.587741e+002, 9.429207e+002
3.592563e+002, 9.237642e+002
3.597384e+002, 9.069524e+002
3.602205e+002, 8.928908e+002
3.607026e+002, 8.818014e+002
3.611847e+002, 8.714013e+002
3.616668e+002, 8.618215e+002
3.621490e+002, 8.527652e+002
3.626311e+002, 8.440910e+002
3.631132e+002, 8.358471e+002
3.635953e+002, 8.282811e+002
3.640774e+002, 8.215193e+002
3.645595e+002, 8.155392e+002
3.650417e+002, 8.102701e+002
3.655238e+002, 8.061762e+002
3.660059e+002, 8.022234e+002
3.664880e+002, 7.982475e+002
3.669701e+002, 7.943779e+002
3.674522e+002, 7.907491e+002
3.679344e+002, 7.874171e+002
3.684165e+002, 7.843030e+002
3.688986e+002, 7.812686e+002
3.693807e+002, 7.782742e+002
3.698628e+002, 7.755007e+002
3.703449e+002, 7.733135e+002
3.708271e+002, 7.710335e+002
3.713092e+002, 7.680532e+002
3.717913e+002, 7.645444e+002
3.722734e+002, 7.612237e+002
3.727555e+002, 7.587382e+002
3.732376e+002, 7.570763e+002
3.737198e+002, 7.556937e+002
3.742019e+002, 7.549279e+002
3.746840e+002, 7.540339e+002
3.751661e+002, 7.527097e+002
3.756482e+002, 7.511193e+002
3.761303e+002, 7.495219e+002
3.766125e+002, 7.480257e+002
3.770946e+002, 7.466078e+002
3.775767e+002, 7.451105e+002
3.780588e+002, 7.432941e+002
3.785409e+002, 7.420879e+002
3.790230e+002, 7.423511e+002
3.795052e+002, 7.429421e+002
3.799873e+002, 7.429378e+002
3.804694e+002, 7.421580e+002
3.809515e+002, 7.412012e+002
3.814336e+002, 7.407032e+002
3.819157e+002, 7.406501e+002
3.823979e+002, 7.404488e+002
3.828800e+002, 7.398525e+002
3.833621e+002, 7.392939e+002
3.838442e+002, 7.392755e+002
3.843263e+002, 7.395895e+002
3.848084e+002, 7.394833e+002
3.852906e+002, 7.382113e+002
3.857727e+002, 7.362988e+002
3.862548e+002, 7.349161e+002
3.867369e+002, 7.341253e+002
3.872190e+002, 7.336641e+002
3.877011e+002, 7.338026e+002
3.881833e+002, 7.340670e+002
3.886654e+002, 7.337192e+002
3.891475e+002, 7.324260e+002
3.896296e+002, 7.308553e+002
3.901117e+002, 7.294284e+002
3.905938e+002, 7.281711e+002
3.910760e+002, 7.274002e+002
3.915581e+002, 7.274993e+002
3.920402e+002, 7.277916e+002
3.925223e+002, 7.273142e+002
3.930044e+002, 7.260444e+002
3.934865e+002, 7.246561e+002
3.939687e+002, 7.232177e+002
3.944508e+002, 7.218900e+002
3.949329e+002, 7.210416e+002
3.954150e+002, 7.207564e+002
3.958971e+002, 7.205117e+002
3.963792e+002, 7.197045e+002
3.968614e+002, 7.184344e+002
3.973435e+002, 7.177806e+002
3.978256e+002, 7.184908e+002
3.983077e+002, 7.192021e+002
3.987898e+002, 7.189201e+002
3.992719e+002, 7.178434e+002
3.997540e+002, 7.167156e+002
4.002361e+002, 7.158533e+002
4.007183e+002, 7.152614e+002
4.012004e+002, 7.150281e+002
4.016825e+002, 7.154267e+002
4.021646e+002, 7.156407e+002
4.026467e+002, 7.153164e+002
4.031288e+002, 7.148333e+002
4.036110e+002, 7.147496e+002
4.040931e+002, 7.151597e+002
4.045752e+002, 7.155300e+002
4.050573e+002, 7.152104e+002
4.055394e+002, 7.140458e+002
4.060215e+002, 7.129396e+002
4.065037e+002, 7.117901e+002
4.069858e+002, 7.107948e+002
4.074679e+002, 7.100099e+002
4.079500e+002, 7.094562e+002
4.084321e+002, 7.091641e+002
4.089142e+002, 7.091581e+002
4.093964e+002, 7.094048e+002
4.098785e+002, 7.097490e+002
4.103606e+002, 7.102281e+002
4.108427e+002, 7.107597e+002
4.113248e+002, 7.115188e+002
4.118069e+002, 7.122231e+002
4.122891e+002, 7.125533e+002
4.127712e+002, 7.124498e+002
