##NAMES=Junitoite
##RRUFFID=R050154
##IDEAL CHEMISTRY=CaZn^2+^_2_Si_2_O_7_&#183;H_2_O
##LOCALITY=Christmas mine, Christmas, Gila County, Arizona, USA
##OWNER=RRUFF
##SOURCE=Jim McGlasson
##DESCRIPTION=Colorless thin hexagonal crystals and platy purple aggregates
##STATUS=The identification of this mineral has been confirmed only by single crystal X-ray diffraction.
##URL=rruff.info/R050154
93.74609, 28.88157
94.22821, 27.60535
94.71033, 28.25579
95.19244, 30.50820
95.67456, 33.19621
96.15668, 36.03164
96.63879, 38.97063
97.12091, 41.78389
97.60303, 44.39539
98.08514, 47.23941
98.56726, 50.99202
99.04938, 55.68686
99.53149, 60.59717
100.0136, 65.13967
100.4957, 69.27312
100.9778, 74.36839
101.4600, 80.55671
101.9421, 87.61354
102.4242, 94.89598
102.9063, 102.5017
103.3884, 110.2160
103.8705, 117.8035
104.3527, 125.2824
104.8348, 132.8792
105.3169, 140.8901
105.7990, 149.1319
106.2811, 156.9013
106.7632, 164.3754
107.2454, 171.1196
107.7275, 176.5459
108.2096, 178.8446
108.6917, 182.4964
109.1738, 188.5720
109.6559, 197.4717
110.1381, 205.5689
110.6202, 211.9802
111.1023, 218.0064
111.5844, 224.9212
112.0665, 233.2715
112.5486, 242.1018
113.0308, 251.2327
113.5129, 260.7260
113.9950, 270.5893
114.4771, 281.2547
114.9592, 292.1714
115.4413, 302.6997
115.9235, 312.5430
116.4056, 322.0165
116.8877, 331.0469
117.3698, 339.5656
117.8519, 348.1735
118.3340, 357.1518
118.8162, 366.3900
119.2983, 375.5846
119.7804, 384.2350
120.2625, 393.1240
120.7446, 402.9173
121.2267, 414.7090
121.7089, 426.2321
122.1910, 436.8722
122.6731, 446.3684
123.1552, 453.5031
123.6373, 457.0336
124.1194, 457.9004
124.6016, 457.1866
125.0837, 453.8252
125.5658, 450.1029
126.0479, 448.1406
126.5300, 447.9261
127.0121, 449.1828
127.4943, 451.7765
127.9764, 455.6640
128.4585, 460.8303
128.9406, 468.1191
129.4227, 476.4496
129.9048, 483.5887
130.3869, 489.4010
130.8691, 495.1044
131.3512, 502.2768
131.8333, 509.0373
132.3154, 513.0704
132.7975, 515.9486
133.2796, 518.3506
133.7618, 519.8727
134.2439, 520.3810
134.7260, 520.5419
135.2081, 521.3654
135.6902, 522.8713
136.1723, 524.5914
136.6545, 526.3560
137.1366, 528.1645
137.6187, 529.8796
138.1008, 531.4316
138.5829, 532.9597
139.0650, 535.0428
139.5472, 537.9493
140.0293, 540.3933
140.5114, 541.3987
140.9935, 540.5615
141.4756, 540.0767
141.9577, 540.0395
142.4399, 540.4640
142.9220, 541.5388
143.4041, 543.4536
143.8862, 545.6675
144.3683, 547.8732
144.8504, 550.1418
145.3326, 552.2064
145.8147, 553.9219
146.2968, 555.3432
146.7789, 557.0012
147.2610, 559.3643
147.7431, 561.5980
148.2253, 562.9612
148.7074, 562.4385
149.1895, 562.4923
149.6716, 563.9147
150.1537, 566.9985
150.6358, 568.7845
151.1180, 568.6461
151.6001, 567.4782
152.0822, 566.2098
152.5643, 564.6395
153.0464, 563.1364
153.5285, 561.7490
154.0107, 560.4700
154.4928, 559.3478
154.9749, 558.5652
155.4570, 557.8727
155.9391, 556.9551
156.4212, 554.8620
156.9034, 553.3209
157.3855, 553.1107
157.8676, 554.8881
158.3497, 556.2590
158.8318, 556.2845
159.3139, 555.7116
159.7961, 555.8077
160.2782, 557.2809
160.7603, 559.2218
161.2424, 561.3433
161.7245, 563.9595
162.2066, 565.9584
162.6888, 566.8635
163.1709, 566.8817
163.6530, 566.4664
164.1351, 564.9961
164.6172, 563.6185
165.0993, 563.1682
165.5815, 564.2955
166.0636, 565.4698
166.5457, 565.9843
167.0278, 565.9399
167.5099, 565.6730
167.9920, 565.0460
168.4742, 564.4026
168.9563, 564.1318
169.4384, 564.8693
169.9205, 565.2830
170.4026, 564.0358
170.8847, 561.5101
171.3669, 559.3253
171.8490, 558.6179
172.3311, 558.7568
172.8132, 559.0550
173.2953, 559.7705
173.7774, 560.1275
174.2596, 558.6931
174.7417, 555.7969
175.2238, 553.8470
175.7059, 555.8365
176.1880, 559.7511
176.6701, 562.3039
177.1523, 561.5233
177.6344, 559.5067
178.1165, 558.7205
178.5986, 559.1173
179.0807, 560.0016
179.5628, 560.7728
180.0450, 561.5914
180.5271, 562.8495
181.0092, 565.2206
181.4913, 567.8688
181.9734, 569.2317
182.4555, 569.2756
182.9377, 568.9078
183.4198, 568.6061
183.9019, 568.5045
184.3840, 569.1132
184.8661, 571.5284
185.3482, 574.6172
185.8304, 575.5579
186.3125, 574.1921
186.7946, 571.9425
187.2767, 569.8995
187.7588, 568.1377
188.2409, 567.2035
188.7231, 567.7726
189.2052, 569.3962
189.6873, 570.3595
190.1694, 570.5888
190.6515, 570.6183
191.1336, 571.1736
191.6158, 572.2216
192.0979, 573.2106
192.5800, 574.1070
193.0621, 574.8315
193.5442, 574.6619
194.0263, 573.3651
194.5085, 571.8802
194.9906, 571.7782
195.4727, 573.0584
195.9548, 574.1635
196.4369, 574.1398
196.9190, 573.0842
197.4012, 572.8093
197.8833, 573.4971
198.3654, 574.5370
198.8475, 574.7628
199.3296, 574.0639
199.8117, 573.7174
200.2939, 574.7023
200.7760, 577.0491
201.2581, 578.0236
201.7402, 577.2373
202.2223, 575.6548
202.7044, 574.8352
203.1866, 574.8109
203.6687, 575.4172
204.1508, 576.9217
204.6329, 579.4884
205.1150, 581.0877
205.5971, 581.4457
206.0793, 581.1561
206.5614, 581.4444
207.0435, 582.5126
207.5256, 583.3760
208.0077, 583.4796
208.4898, 582.6639
208.9720, 582.0351
209.4541, 581.4811
209.9362, 581.2216
210.4183, 581.9030
210.9004, 583.8705
211.3825, 585.7281
211.8647, 586.7358
212.3468, 586.6084
212.8289, 586.8884
213.3110, 587.5831
213.7931, 588.6954
214.2752, 590.3902
214.7574, 593.0838
215.2395, 595.3896
215.7216, 596.5643
216.2037, 596.1992
216.6858, 596.1927
217.1679, 596.5848
217.6500, 597.3356
218.1322, 598.4077
218.6143, 600.0118
219.0964, 601.5354
219.5785, 602.6106
220.0606, 603.0119
220.5427, 603.7821
221.0249, 605.1573
221.5070, 606.7892
221.9891, 607.7451
222.4712, 607.6698
222.9533, 607.5931
223.4354, 607.9423
223.9176, 608.7805
224.3997, 609.8860
224.8818, 611.3947
225.3639, 613.1096
225.8460, 614.6056
226.3281, 615.7558
226.8103, 616.8936
227.2924, 618.2128
227.7745, 620.0347
228.2566, 621.1352
228.7387, 620.9374
229.2208, 620.2657
229.7030, 621.1349
230.1851, 624.3497
230.6672, 627.8367
231.1493, 630.8190
231.6314, 633.2881
232.1135, 635.2293
232.5957, 636.2647
233.0778, 636.9444
233.5599, 638.4206
234.0420, 640.7952
234.5241, 643.7885
235.0062, 647.3926
235.4884, 651.8674
235.9705, 655.9745
236.4526, 659.1947
236.9347, 662.2948
237.4168, 667.1689
237.8989, 675.4397
238.3811, 682.8461
238.8632, 687.5344
239.3453, 688.4817
239.8274, 689.7901
240.3095, 691.6331
240.7916, 693.7542
241.2738, 695.8478
241.7559, 698.7113
242.2380, 700.2537
242.7201, 699.5717
243.2022, 696.0869
243.6843, 692.2553
244.1665, 687.7179
244.6486, 683.0319
245.1307, 679.1882
245.6128, 676.5231
246.0949, 674.1492
246.5770, 671.8763
247.0592, 669.8316
247.5413, 667.2790
248.0234, 663.7819
248.5055, 660.0764
248.9876, 657.4409
249.4697, 656.3972
249.9519, 655.4171
250.4340, 654.0153
250.9161, 652.0651
251.3982, 650.3430
251.8803, 648.8596
252.3624, 647.6170
252.8446, 646.6312
253.3267, 645.8565
253.8088, 645.4475
254.2909, 645.6271
254.7730, 646.5593
255.2551, 646.7584
255.7373, 645.9029
256.2194, 644.6429
256.7015, 643.8633
257.1836, 643.9906
257.6657, 643.5714
258.1478, 641.8206
258.6299, 638.5629
259.1121, 637.1975
259.5942, 638.5511
260.0763, 640.8246
260.5584, 642.1901
261.0405, 642.5013
261.5226, 642.1924
262.0048, 641.0696
262.4869, 639.1748
262.9690, 638.2421
263.4511, 638.7355
263.9332, 639.5425
264.4153, 639.6426
264.8975, 638.9235
265.3796, 637.8336
265.8617, 636.1837
266.3438, 634.1257
266.8259, 633.0939
267.3080, 633.2695
267.7902, 634.1796
268.2723, 635.6474
268.7544, 638.0406
269.2365, 639.6298
269.7186, 639.9080
270.2007, 639.1594
270.6829, 638.9513
271.1650, 639.3784
271.6471, 640.1046
272.1292, 640.9194
272.6113, 641.8468
273.0934, 642.6446
273.5756, 643.1365
274.0577, 643.5029
274.5398, 644.5706
275.0219, 646.5764
275.5040, 648.4634
275.9861, 649.3146
276.4683, 648.9244
276.9504, 649.2810
277.4325, 650.7933
277.9146, 652.9467
278.3967, 654.3243
278.8788, 654.7469
279.3610, 655.3242
279.8431, 656.9802
280.3252, 659.7770
280.8073, 661.7278
281.2894, 662.5292
281.7715, 662.7824
282.2537, 663.5853
282.7358, 664.9766
283.2179, 666.6359
283.7000, 668.6627
284.1821, 671.0187
284.6642, 672.5047
285.1464, 672.8846
285.6285, 672.9100
286.1106, 673.7313
286.5927, 675.3393
287.0748, 677.1241
287.5569, 678.8712
288.0391, 680.5737
288.5212, 682.1918
289.0033, 683.7288
289.4854, 685.1697
289.9675, 686.5974
290.4496, 687.9883
290.9318, 688.9889
291.4139, 689.2455
291.8960, 689.0502
292.3781, 689.4407
292.8602, 690.4776
293.3423, 691.6033
293.8245, 692.2224
294.3066, 692.4315
294.7887, 692.6982
295.2708, 693.3111
295.7529, 693.9822
296.2350, 693.9366
296.7172, 693.1783
297.1993, 692.4678
297.6814, 692.2569
298.1635, 692.5738
298.6456, 693.5577
299.1277, 695.4745
299.6099, 697.8236
300.0920, 699.5219
300.5741, 700.7496
301.0562, 702.5846
301.5383, 706.3347
302.0204, 711.1823
302.5026, 715.4568
302.9847, 718.6861
303.4668, 721.6920
303.9489, 725.7483
304.4310, 730.4758
304.9131, 734.7736
305.3953, 738.2692
305.8774, 740.7841
306.3595, 742.1053
306.8416, 742.2646
307.3237, 740.9520
307.8058, 737.1312
308.2880, 731.5751
308.7701, 726.0551
309.2522, 720.7951
309.7343, 716.2818
310.2164, 713.2706
310.6985, 711.9451
311.1807, 710.7071
311.6628, 708.3124
312.1449, 705.3220
312.6270, 702.6592
313.1091, 700.3397
313.5912, 698.7321
314.0734, 698.2537
314.5555, 698.9180
315.0376, 699.8445
315.5197, 700.0725
316.0018, 700.5237
316.4839, 702.1439
316.9661, 706.9410
317.4482, 711.3728
317.9303, 713.6858
318.4124, 714.1307
318.8945, 714.4567
319.3766, 714.8199
319.8588, 715.5758
320.3409, 716.9882
320.8230, 719.4506
321.3051, 722.1223
321.7872, 725.0203
322.2693, 727.9952
322.7515, 730.5936
323.2336, 732.6088
323.7157, 734.2988
324.1978, 735.7988
324.6799, 737.1651
325.1620, 738.2369
325.6442, 738.9089
326.1263, 739.2883
326.6084, 739.5634
327.0905, 739.9226
327.5726, 740.0318
328.0547, 739.5762
328.5369, 738.0692
329.0190, 737.6256
329.5011, 739.4728
329.9832, 741.8779
330.4653, 742.8404
330.9474, 740.5027
331.4296, 739.0488
331.9117, 739.5508
332.3938, 742.1299
332.8759, 744.1613
333.3580, 745.0540
333.8401, 745.9937
334.3223, 748.0289
334.8044, 752.0657
335.2865, 755.3643
335.7686, 757.2568
336.2507, 758.0723
336.7328, 759.6796
337.2150, 762.6818
337.6971, 765.3800
338.1792, 766.4233
338.6613, 765.0060
339.1434, 765.1725
339.6255, 767.6307
340.1077, 771.3937
340.5898, 774.1643
341.0719, 775.5798
341.5540, 777.3040
342.0361, 780.0889
342.5182, 783.9723
343.0003, 788.3660
343.4825, 793.3334
343.9646, 798.6168
344.4467, 803.6949
344.9288, 808.5072
345.4109, 813.7531
345.8930, 819.5695
346.3752, 826.0096
346.8573, 832.9985
347.3394, 840.5870
347.8215, 848.8157
348.3036, 858.4164
348.7857, 868.9477
349.2679, 878.4229
349.7500, 886.6867
350.2321, 893.2348
350.7142, 896.8378
351.1963, 897.5821
351.6784, 896.3782
352.1606, 894.4180
352.6427, 890.8928
353.1248, 884.0426
353.6069, 873.2099
354.0890, 859.8920
354.5711, 844.2599
355.0533, 827.2713
355.5354, 811.3280
356.0175, 798.0016
356.4996, 786.4775
356.9817, 775.7933
357.4638, 765.8806
357.9460, 756.7740
358.4281, 748.6053
358.9102, 741.2003
359.3923, 734.4440
359.8744, 727.7980
360.3565, 722.1296
360.8387, 718.5803
361.3208, 716.9581
361.8029, 715.0232
362.2850, 710.7157
362.7671, 706.1823
363.2492, 703.2631
363.7314, 704.3823
364.2135, 704.7907
364.6956, 702.1901
365.1777, 697.5791
365.6598, 694.0799
366.1419, 693.0213
366.6241, 692.8170
367.1062, 692.7813
367.5883, 692.9182
368.0704, 693.0510
368.5525, 693.0554
369.0346, 693.0615
369.5168, 693.2723
369.9989, 694.4521
370.4810, 695.0251
370.9631, 694.3730
371.4452, 692.2397
371.9273, 690.8400
372.4095, 690.5394
372.8916, 690.6674
373.3737, 690.6917
373.8558, 690.6969
374.3379, 690.3865
374.8200, 689.5115
375.3022, 688.2560
375.7843, 687.7578
376.2664, 688.3558
376.7485, 689.0059
377.2306, 688.9739
377.7127, 688.0792
378.1949, 687.7255
378.6770, 688.1180
379.1591, 688.9359
379.6412, 689.6194
380.1233, 690.1855
380.6054, 690.6089
381.0876, 690.8188
381.5697, 690.8600
382.0518, 690.9724
382.5339, 691.1328
383.0160, 691.4872
383.4981, 692.4233
383.9803, 693.7861
384.4624, 694.6746
384.9445, 694.5759
385.4266, 694.0760
385.9087, 694.2875
386.3908, 695.1400
386.8730, 695.9945
387.3551, 696.5807
387.8372, 696.8141
388.3193, 696.4213
388.8014, 695.1376
389.2835, 693.8812
389.7657, 693.5779
390.2478, 693.9710
390.7299, 694.4688
391.2120, 694.8524
391.6941, 695.1848
392.1762, 695.6259
392.6584, 696.2087
393.1405, 696.4362
393.6226, 695.5763
394.1047, 694.4047
394.5868, 693.7602
395.0689, 694.8899
395.5511, 695.6190
396.0332, 694.5937
396.5153, 692.2465
396.9974, 690.9132
397.4795, 692.2025
397.9616, 693.9395
398.4438, 694.9603
398.9259, 694.8377
399.4080, 694.5287
399.8901, 693.7902
400.3722, 692.9690
400.8543, 692.7037
401.3365, 693.2078
401.8186, 694.0308
402.3007, 695.2004
402.7828, 696.8045
403.2649, 697.9518
403.7470, 698.3613
404.2292, 698.6126
404.7113, 699.2996
405.1934, 700.7236
405.6755, 701.6684
406.1576, 701.8348
406.6397, 701.4280
407.1219, 701.0617
407.6040, 700.6288
408.0861, 700.6185
408.5682, 701.5057
409.0503, 703.2511
409.5324, 704.7462
410.0146, 705.9437
410.4967, 706.8695
410.9788, 707.3815
411.4609, 707.5398
411.9430, 707.9725
412.4251, 709.0537
412.9073, 710.5243
413.3894, 712.0953
413.8715, 713.7606
414.3536, 714.8543
414.8357, 714.2563
415.3178, 712.8104
415.8000, 712.1308
416.2821, 712.7288
416.7642, 713.8991
417.2463, 715.3669
417.7284, 716.9269
418.2105, 717.9822
418.6927, 718.0504
419.1748, 717.6351
419.6569, 716.9057
420.1390, 715.7914
420.6211, 715.1833
421.1032, 715.2948
421.5854, 716.1988
422.0675, 717.9600
422.5496, 721.9768
423.0317, 725.4435
423.5138, 727.0253
423.9959, 727.0914
424.4781, 728.1361
424.9602, 731.9206
425.4423, 735.6838
425.9244, 738.0804
426.4065, 738.3336
426.8886, 738.5508
427.3708, 738.3094
427.8529, 738.1989
428.3350, 739.2851
428.8171, 742.5332
429.2992, 745.1620
429.7813, 746.1686
430.2635, 745.6207
430.7456, 746.2177
431.2277, 748.4812
431.7098, 750.7454
432.1919, 751.3727
432.6740, 750.1794
433.1562, 749.8147
433.6383, 750.8823
434.1204, 752.5339
434.6025, 752.8522
435.0846, 751.8721
435.5667, 751.1023
436.0489, 751.3577
436.5310, 752.4325
437.0131, 753.9008
437.4952, 755.8121
437.9773, 757.4118
438.4594, 757.2930
438.9416, 756.3684
439.4236, 756.6554
439.9058, 759.5082
440.3879, 762.9230
440.8700, 765.1991
441.3521, 766.4814
441.8342, 767.2606
442.3163, 767.1983
442.7985, 767.1297
443.2806, 767.8549
443.7627, 769.7000
444.2448, 771.2867
444.7269, 772.1085
445.2090, 772.3115
445.6912, 772.0596
446.1733, 770.7792
446.6554, 769.6501
447.1375, 768.9267
447.6196, 768.5987
448.1017, 768.6172
448.5839, 769.8239
449.0660, 770.6575
449.5481, 770.2854
450.0302, 767.7167
450.5123, 765.9816
450.9944, 765.1276
451.4766, 765.1052
451.9587, 766.0037
452.4408, 768.2303
452.9229, 770.3051
453.4050, 771.8409
453.8871, 772.8850
454.3693, 773.8217
454.8514, 774.6052
455.3335, 775.5126
455.8156, 776.8901
456.2977, 778.6688
456.7798, 780.2839
457.2620, 781.6819
457.7441, 782.8428
458.2262, 783.6063
458.7083, 784.0551
459.1904, 784.6371
459.6725, 785.5665
460.1547, 786.7434
460.6368, 788.1320
461.1189, 789.7247
461.6010, 791.1970
462.0831, 792.8683
462.5652, 794.0811
463.0474, 793.9520
463.5295, 791.6367
464.0116, 789.0671
464.4937, 786.8951
464.9758, 785.2266
465.4579, 784.3482
465.9401, 785.2291
466.4222, 786.1598
466.9043, 786.5397
467.3864, 786.3344
467.8685, 785.5621
468.3506, 783.6445
468.8328, 781.5196
469.3149, 779.8541
469.7970, 778.7822
470.2791, 777.9459
470.7612, 777.4791
471.2433, 777.1809
471.7255, 776.4916
472.2076, 775.2655
472.6897, 773.9807
473.1718, 772.8403
473.6539, 771.8468
474.1360, 770.4803
474.6182, 768.6122
475.1003, 766.8558
475.5824, 766.0981
476.0645, 766.1940
476.5466, 765.6559
477.0287, 763.8079
477.5109, 761.8658
477.9930, 762.4881
478.4751, 765.0696
478.9572, 766.7173
479.4393, 764.7184
479.9214, 761.3494
480.4036, 759.6237
480.8857, 759.7072
481.3678, 759.9941
481.8499, 759.0700
482.3320, 757.8691
482.8141, 757.5090
483.2963, 759.3792
483.7784, 760.6984
484.2605, 760.2430
484.7426, 758.4147
485.2247, 756.1930
485.7068, 753.5484
486.1890, 750.8222
486.6711, 747.8983
487.1532, 744.4983
487.6353, 742.4379
488.1174, 742.8373
488.5995, 743.6727
489.0817, 743.2156
489.5638, 740.6412
490.0459, 738.8826
490.5280, 738.4966
491.0101, 738.9132
491.4922, 738.5277
491.9744, 737.0963
492.4565, 736.0991
492.9386, 736.6692
493.4207, 738.3845
493.9028, 738.1437
494.3849, 735.7912
494.8671, 733.0237
495.3492, 731.4060
495.8313, 730.6299
496.3134, 729.7151
496.7955, 728.2831
497.2776, 727.0797
497.7598, 727.3674
498.2419, 728.5850
498.7240, 729.3044
499.2061, 728.0192
499.6882, 726.6002
500.1703, 726.7805
500.6525, 728.5699
501.1346, 729.6346
501.6167, 728.2582
502.0988, 726.2811
502.5809, 725.0546
503.0630, 725.2427
503.5452, 725.4615
504.0273, 725.3651
504.5094, 725.2220
504.9915, 725.5198
505.4736, 726.5661
505.9557, 727.5791
506.4379, 728.3777
506.9200, 728.9631
507.4021, 729.4353
507.8842, 729.7963
508.3663, 730.0329
508.8484, 730.2975
509.3306, 730.6049
509.8127, 729.8627
510.2948, 727.6857
510.7769, 725.3538
511.2590, 724.8984
511.7411, 726.0558
512.2233, 727.3629
512.7054, 728.4635
513.1875, 729.2936
513.6696, 729.6342
514.1517, 729.5626
514.6339, 729.4894
515.1160, 729.7816
515.5981, 730.1433
516.0802, 730.3234
516.5623, 730.2972
517.0444, 730.0692
517.5266, 729.2131
518.0087, 728.3347
518.4908, 728.0938
518.9729, 729.8961
519.4550, 730.9582
519.9371, 730.1868
520.4193, 728.0748
520.9014, 726.8058
521.3835, 726.8826
521.8656, 727.1463
522.3477, 727.1916
522.8298, 726.9819
523.3120, 726.8078
523.7941, 726.5634
524.2762, 726.5713
524.7583, 727.3121
525.2404, 728.8243
525.7225, 729.9811
526.2047, 730.5516
526.6868, 730.8203
527.1689, 731.2960
527.6510, 731.9348
528.1331, 732.4903
528.6152, 732.6924
529.0974, 732.8077
529.5795, 733.3844
530.0616, 734.3664
530.5437, 735.0663
531.0258, 734.9059
531.5079, 734.3231
531.9901, 733.6347
532.4722, 732.7044
532.9543, 732.2360
533.4364, 732.9756
533.9185, 734.1967
534.4006, 734.9249
534.8828, 734.2820
535.3649, 733.8890
535.8470, 734.0739
536.3291, 734.7766
536.8112, 735.7618
537.2933, 737.4750
537.7755, 738.7548
538.2576, 738.8615
538.7397, 737.5629
539.2218, 736.9418
539.7039, 737.0731
540.1860, 737.6686
540.6682, 738.7328
541.1503, 740.1656
541.6324, 740.8036
542.1145, 740.1956
542.5966, 739.0934
543.0787, 738.3367
543.5609, 738.0204
544.0430, 738.4875
544.5251, 741.0429
545.0072, 743.7592
545.4893, 744.2633
545.9714, 742.6909
546.4536, 741.4479
546.9357, 742.1982
547.4178, 743.5424
547.8999, 744.4774
548.3820, 744.8769
548.8641, 744.7438
549.3463, 742.8524
549.8284, 740.8609
550.3105, 741.0281
550.7926, 745.5530
551.2747, 748.9404
551.7568, 750.2207
552.2390, 749.8004
552.7211, 749.2711
553.2032, 748.4265
553.6853, 748.1454
554.1674, 749.3025
554.6495, 751.7381
555.1317, 752.5388
555.6138, 751.5081
556.0959, 750.3565
556.5780, 751.0205
557.0601, 752.8600
557.5422, 754.1405
558.0244, 754.4916
558.5065, 754.2786
558.9886, 753.3979
559.4707, 752.2492
559.9528, 751.6523
560.4349, 752.2203
560.9171, 753.1681
561.3992, 754.2567
561.8813, 755.4233
562.3634, 756.3299
562.8455, 756.5795
563.3276, 756.7910
563.8098, 757.2485
564.2919, 757.9540
564.7740, 758.8799
565.2561, 760.1743
565.7382, 761.5240
566.2203, 762.6761
566.7025, 763.6517
567.1846, 764.2945
567.6667, 764.4836
568.1488, 764.4859
568.6309, 764.8796
569.1130, 765.6558
569.5952, 766.4490
570.0773, 767.1279
570.5594, 767.7259
571.0415, 768.5447
571.5236, 769.5145
572.0057, 769.9095
572.4879, 768.2020
572.9700, 766.2444
573.4521, 766.0634
573.9342, 768.1602
574.4163, 770.7765
574.8984, 774.1134
575.3806, 777.0936
575.8627, 778.6531
576.3448, 776.3675
576.8269, 775.2883
577.3090, 776.5496
577.7911, 779.2903
578.2733, 781.7631
578.7554, 784.3520
579.2375, 785.7366
579.7196, 785.0882
580.2017, 782.7125
580.6838, 781.5223
581.1660, 781.6151
581.6481, 782.2903
582.1302, 783.1135
582.6123, 784.1153
583.0944, 785.6741
583.5765, 787.9526
584.0587, 789.6830
584.5408, 789.1220
585.0229, 787.2191
585.5050, 785.6179
585.9871, 785.0887
586.4692, 784.5438
586.9514, 782.4876
587.4335, 779.9744
587.9155, 779.2379
588.3976, 783.1552
588.8798, 786.7816
589.3619, 788.1864
589.8440, 787.3353
590.3261, 787.0090
