##NAMES=Junitoite
##RRUFFID=R050154
##IDEAL CHEMISTRY=CaZn^2+^_2_Si_2_O_7_&#183;H_2_O
##LOCALITY=Christmas mine, Christmas, Gila County, Arizona, USA
##OWNER=RRUFF
##SOURCE=Jim McGlasson
##DESCRIPTION=Colorless thin hexagonal crystals and platy purple aggregates
##STATUS=The identification of this mineral has been confirmed only by single crystal X-ray diffraction.
##URL=rruff.info/R050154
96.42468, 16733.98
96.90680, 16818.01
97.38892, 16886.14
97.87103, 16948.65
98.35315, 16985.27
98.83527, 16981.55
99.31738, 16970.03
99.79950, 16954.10
100.2816, 16941.11
100.7637, 16922.44
101.2458, 16904.44
101.7280, 16891.80
102.2101, 16884.61
102.6922, 16884.00
103.1743, 16893.89
103.6564, 16912.76
104.1385, 16930.89
104.6207, 16939.54
105.1028, 16942.41
105.5849, 16953.94
106.0670, 16978.63
106.5491, 17007.43
107.0313, 17030.02
107.5134, 17044.59
107.9955, 17057.94
108.4776, 17078.17
108.9597, 17107.24
109.4418, 17131.72
109.9240, 17142.55
110.4061, 17149.55
110.8882, 17159.77
111.3703, 17175.91
111.8524, 17196.01
112.3345, 17214.97
112.8167, 17232.35
113.2988, 17249.03
113.7809, 17265.10
114.2630, 17280.47
114.7451, 17294.97
115.2272, 17308.26
115.7094, 17320.51
116.1915, 17333.69
116.6736, 17351.25
117.1557, 17366.08
117.6378, 17370.79
118.1199, 17368.82
118.6021, 17371.72
119.0842, 17389.21
119.5663, 17423.01
120.0484, 17459.92
120.5305, 17506.36
121.0126, 17551.88
121.4948, 17592.51
121.9769, 17629.25
122.4590, 17647.52
122.9411, 17619.22
123.4232, 17556.17
123.9053, 17491.15
124.3875, 17429.92
124.8696, 17374.48
125.3517, 17331.61
125.8338, 17305.44
126.3159, 17288.63
126.7980, 17274.14
127.2802, 17262.39
127.7623, 17255.53
128.2444, 17257.66
128.7265, 17270.02
129.2086, 17278.42
129.6907, 17278.86
130.1729, 17277.08
130.6550, 17275.27
131.1371, 17273.82
131.6192, 17271.96
132.1013, 17267.94
132.5834, 17257.76
133.0656, 17253.95
133.5477, 17259.26
134.0298, 17268.33
134.5119, 17276.58
134.9940, 17282.62
135.4761, 17289.01
135.9583, 17301.74
136.4404, 17334.69
136.9225, 17356.80
137.4046, 17360.72
137.8867, 17354.08
138.3688, 17346.47
138.8510, 17341.70
139.3331, 17340.16
139.8152, 17343.37
140.2973, 17352.91
140.7794, 17363.49
141.2615, 17374.45
141.7437, 17385.11
142.2258, 17392.13
142.7079, 17389.74
143.1900, 17384.70
143.6721, 17391.10
144.1542, 17415.90
144.6364, 17444.43
145.1185, 17461.73
145.6006, 17466.21
146.0827, 17469.10
146.5648, 17475.37
147.0469, 17483.41
147.5291, 17492.30
148.0112, 17502.74
148.4933, 17512.83
148.9754, 17517.39
149.4575, 17512.00
149.9396, 17508.89
150.4218, 17514.87
150.9039, 17524.56
151.3860, 17530.59
151.8681, 17528.09
152.3502, 17518.20
152.8323, 17510.87
153.3145, 17505.02
153.7966, 17503.26
154.2787, 17509.11
154.7608, 17519.49
155.2429, 17528.49
155.7250, 17531.18
156.2072, 17526.84
156.6893, 17525.78
157.1714, 17527.42
157.6535, 17531.81
158.1356, 17541.33
158.6177, 17554.52
159.0999, 17566.53
159.5820, 17573.25
160.0641, 17573.93
160.5462, 17569.30
161.0283, 17550.25
161.5104, 17532.31
161.9926, 17529.99
162.4747, 17545.00
162.9568, 17563.46
163.4389, 17570.34
163.9210, 17566.31
164.4031, 17562.64
164.8853, 17560.15
165.3674, 17559.43
165.8495, 17562.20
166.3316, 17569.85
166.8137, 17578.00
167.2958, 17583.21
167.7780, 17585.85
168.2601, 17585.96
168.7422, 17581.93
169.2243, 17574.97
169.7064, 17569.73
170.1885, 17566.04
170.6707, 17565.49
171.1528, 17569.35
171.6349, 17576.99
172.1170, 17585.87
172.5991, 17595.41
173.0812, 17605.83
173.5634, 17611.84
174.0455, 17608.10
174.5276, 17603.61
175.0097, 17600.59
175.4918, 17599.86
175.9739, 17602.39
176.4561, 17610.94
176.9382, 17629.56
177.4203, 17640.07
177.9024, 17638.25
178.3845, 17632.57
178.8666, 17625.28
179.3488, 17617.77
179.8309, 17611.96
180.3130, 17610.78
180.7951, 17616.63
181.2772, 17622.13
181.7593, 17625.50
182.2415, 17629.71
182.7236, 17639.19
183.2057, 17654.29
183.6878, 17668.75
184.1699, 17672.65
184.6520, 17658.34
185.1342, 17648.21
185.6163, 17646.21
186.0984, 17647.23
186.5805, 17645.17
187.0626, 17638.05
187.5447, 17629.95
188.0269, 17628.20
188.5090, 17633.75
188.9911, 17640.03
189.4732, 17643.52
189.9553, 17647.05
190.4374, 17657.46
190.9196, 17679.68
191.4017, 17702.59
191.8838, 17708.03
192.3659, 17695.10
192.8480, 17683.07
193.3301, 17683.24
193.8123, 17691.92
194.2944, 17694.87
194.7765, 17684.33
195.2586, 17671.85
195.7407, 17670.62
196.2228, 17680.79
196.7050, 17691.29
197.1871, 17693.98
197.6692, 17689.19
198.1513, 17683.55
198.6334, 17677.11
199.1155, 17671.44
199.5977, 17667.81
200.0798, 17666.31
200.5619, 17665.83
201.0440, 17665.57
201.5261, 17665.66
202.0082, 17665.60
202.4904, 17664.26
202.9725, 17663.69
203.4546, 17664.23
203.9367, 17666.25
204.4188, 17671.02
204.9009, 17680.61
205.3831, 17696.66
205.8652, 17712.59
206.3473, 17732.25
206.8294, 17748.72
207.3115, 17757.42
207.7936, 17757.81
208.2758, 17752.70
208.7579, 17745.16
209.2400, 17731.69
209.7221, 17723.80
210.2042, 17722.91
210.6863, 17725.43
211.1685, 17730.52
211.6506, 17737.31
212.1327, 17743.23
212.6148, 17744.28
213.0969, 17736.80
213.5790, 17731.91
214.0612, 17729.54
214.5433, 17729.49
215.0254, 17732.16
215.5075, 17737.46
215.9896, 17744.04
216.4717, 17750.16
216.9539, 17756.31
217.4360, 17760.32
217.9181, 17758.31
218.4002, 17756.03
218.8823, 17760.60
219.3644, 17773.80
219.8466, 17788.98
220.3287, 17797.08
220.8108, 17797.33
221.2929, 17795.64
221.7750, 17790.47
222.2571, 17784.68
222.7393, 17781.85
223.2214, 17782.81
223.7035, 17786.30
224.1856, 17791.39
224.6677, 17797.93
225.1498, 17805.51
225.6320, 17816.00
226.1141, 17827.03
226.5962, 17834.71
227.0783, 17838.21
227.5604, 17838.88
228.0425, 17833.93
228.5247, 17825.48
229.0068, 17825.03
229.4889, 17841.35
229.9710, 17868.36
230.4531, 17892.35
230.9352, 17910.38
231.4174, 17928.64
231.8995, 17952.09
232.3816, 17979.38
232.8637, 18007.12
233.3458, 18031.87
233.8279, 18055.59
234.3101, 18084.78
234.7922, 18118.48
235.2743, 18159.98
235.7564, 18214.97
236.2385, 18277.79
236.7206, 18337.53
237.2028, 18387.81
237.6849, 18429.79
238.1670, 18470.99
238.6491, 18520.99
239.1312, 18553.85
239.6133, 18557.83
240.0955, 18540.83
240.5776, 18515.86
241.0597, 18489.76
241.5418, 18461.97
242.0239, 18430.62
242.5060, 18396.09
242.9882, 18356.41
243.4703, 18305.59
243.9524, 18250.78
244.4345, 18202.46
244.9166, 18167.40
245.3987, 18142.49
245.8809, 18113.51
246.3630, 18074.45
246.8451, 18039.09
247.3272, 18008.74
247.8093, 17983.78
248.2914, 17966.68
248.7736, 17959.54
249.2557, 17958.04
249.7378, 17944.13
250.2199, 17898.59
250.7020, 17864.38
251.1841, 17852.55
251.6663, 17853.08
252.1484, 17855.66
252.6305, 17855.45
253.1126, 17851.76
253.5947, 17842.13
254.0768, 17818.20
254.5590, 17798.35
255.0411, 17781.04
255.5232, 17769.32
256.0053, 17769.01
256.4874, 17782.50
256.9695, 17802.60
257.4517, 17811.95
257.9338, 17798.58
258.4159, 17787.79
258.8980, 17779.05
259.3801, 17773.15
259.8622, 17771.53
260.3444, 17774.59
260.8265, 17780.24
261.3086, 17784.71
261.7907, 17787.68
262.2728, 17789.45
262.7549, 17790.22
263.2371, 17789.59
263.7192, 17786.80
264.2013, 17781.70
264.6834, 17775.34
265.1655, 17769.21
265.6476, 17763.41
266.1298, 17757.79
266.6119, 17752.68
267.0940, 17747.62
267.5761, 17740.00
268.0582, 17729.72
268.5403, 17724.06
269.0225, 17734.26
269.5046, 17766.87
269.9867, 17783.33
270.4688, 17770.26
270.9509, 17748.59
271.4330, 17734.94
271.9152, 17731.51
272.3973, 17733.46
272.8794, 17737.55
273.3615, 17743.90
273.8436, 17747.49
274.3257, 17744.10
274.8079, 17740.77
275.2900, 17743.36
275.7721, 17751.94
276.2542, 17763.03
276.7363, 17776.33
277.2184, 17789.98
277.7006, 17794.70
278.1827, 17780.87
278.6648, 17765.58
279.1469, 17761.38
279.6290, 17767.37
280.1111, 17774.84
280.5933, 17778.40
281.0754, 17779.80
281.5575, 17785.27
282.0396, 17800.36
282.5217, 17812.88
283.0038, 17813.77
283.4860, 17804.86
283.9681, 17795.25
284.4502, 17787.88
284.9323, 17783.47
285.4144, 17783.19
285.8965, 17788.79
286.3787, 17794.09
286.8608, 17794.87
287.3429, 17792.35
287.8250, 17790.47
288.3071, 17789.41
288.7892, 17791.20
289.2714, 17799.28
289.7535, 17814.23
290.2356, 17829.08
290.7177, 17840.99
291.1998, 17850.33
291.6819, 17857.87
292.1641, 17862.96
292.6462, 17867.85
293.1283, 17875.08
293.6104, 17884.36
294.0925, 17894.45
294.5746, 17905.73
295.0568, 17917.34
295.5389, 17925.85
296.0210, 17928.51
296.5031, 17935.24
296.9852, 17959.97
297.4673, 17996.50
297.9495, 18028.40
298.4316, 18050.24
298.9137, 18064.40
299.3958, 18070.50
299.8779, 18065.64
300.3600, 18067.20
300.8422, 18088.86
301.3243, 18124.81
301.8064, 18166.73
302.2885, 18215.34
302.7706, 18267.24
303.2527, 18321.87
303.7349, 18380.23
304.2170, 18430.37
304.6991, 18468.49
305.1812, 18493.12
305.6633, 18503.52
306.1454, 18500.18
306.6276, 18480.66
307.1097, 18438.30
307.5918, 18374.31
308.0739, 18305.53
308.5560, 18230.93
309.0381, 18160.78
309.5203, 18107.41
310.0024, 18072.15
310.4845, 18040.23
310.9666, 17996.66
311.4487, 17946.05
311.9308, 17913.57
312.4130, 17911.43
312.8951, 17918.59
313.3772, 17913.48
313.8593, 17898.25
314.3414, 17887.89
314.8235, 17895.13
315.3057, 17912.46
315.7878, 17920.43
316.2699, 17915.96
316.7520, 17905.48
317.2341, 17887.37
317.7162, 17866.76
318.1984, 17856.12
318.6805, 17868.48
319.1626, 17889.58
319.6447, 17894.63
320.1268, 17880.11
320.6089, 17867.60
321.0911, 17873.03
321.5732, 17887.20
322.0553, 17897.38
322.5374, 17899.24
323.0195, 17899.60
323.5016, 17906.89
323.9838, 17921.23
324.4659, 17932.40
324.9480, 17934.83
325.4301, 17933.02
325.9122, 17932.40
326.3943, 17933.29
326.8765, 17935.04
327.3586, 17936.99
327.8407, 17939.29
328.3228, 17943.27
328.8049, 17950.34
329.2870, 17957.55
329.7692, 17962.55
330.2513, 17965.38
330.7334, 17965.49
331.2155, 17958.96
331.6976, 17949.79
332.1797, 17948.40
332.6619, 17957.88
333.1440, 17969.42
333.6261, 17972.71
334.1082, 17972.04
334.5903, 17978.76
335.0724, 18001.21
335.5546, 18030.33
336.0367, 18055.37
336.5188, 18076.15
337.0009, 18093.43
337.4830, 18105.96
337.9651, 18115.68
338.4473, 18125.61
338.9294, 18133.36
339.4115, 18145.74
339.8936, 18170.52
340.3757, 18206.27
340.8578, 18240.76
341.3400, 18266.69
341.8221, 18292.64
342.3042, 18331.25
342.7863, 18383.83
343.2684, 18440.74
343.7505, 18497.18
344.2327, 18554.47
344.7148, 18615.06
345.1969, 18678.56
345.6790, 18747.80
346.1611, 18827.85
346.6432, 18917.10
347.1254, 19011.27
347.6075, 19114.20
348.0896, 19218.94
348.5717, 19318.53
349.0538, 19413.14
349.5359, 19495.27
350.0181, 19563.94
350.5002, 19614.16
350.9823, 19633.92
351.4644, 19617.67
351.9465, 19574.75
352.4286, 19505.46
352.9108, 19412.79
353.3929, 19308.24
353.8750, 19194.99
354.3571, 19075.88
354.8392, 18956.17
355.3214, 18829.50
355.8035, 18715.68
356.2856, 18628.79
356.7677, 18558.65
357.2498, 18485.34
357.7319, 18401.86
358.2141, 18321.19
358.6962, 18262.13
359.1783, 18227.75
359.6604, 18195.08
360.1425, 18162.73
360.6246, 18130.16
361.1068, 18095.87
361.5889, 18059.90
362.0710, 18026.19
362.5531, 17997.45
363.0352, 17974.09
363.5173, 17957.38
363.9995, 17954.94
364.4816, 17950.93
364.9637, 17932.47
365.4458, 17906.01
365.9279, 17889.92
366.4100, 17895.22
366.8922, 17913.77
367.3743, 17918.69
367.8564, 17895.78
368.3385, 17880.20
368.8206, 17881.23
369.3027, 17889.71
369.7849, 17896.28
370.2670, 17898.04
370.7491, 17895.75
371.2312, 17889.79
371.7133, 17877.53
372.1954, 17869.99
372.6776, 17872.87
373.1597, 17875.42
373.6418, 17869.06
374.1239, 17855.44
374.6060, 17843.64
375.0881, 17841.63
375.5703, 17848.95
376.0524, 17848.16
376.5345, 17831.03
377.0166, 17815.62
377.4987, 17805.61
377.9808, 17799.95
378.4630, 17797.50
378.9451, 17797.78
379.4272, 17799.09
379.9093, 17796.73
380.3914, 17782.82
380.8735, 17779.01
381.3557, 17794.59
381.8378, 17813.28
382.3199, 17823.12
382.8020, 17822.49
383.2841, 17817.17
383.7662, 17812.71
384.2484, 17808.57
384.7305, 17808.59
385.2126, 17822.10
385.6947, 17830.58
386.1768, 17822.18
386.6589, 17804.44
387.1411, 17793.09
387.6232, 17798.45
388.1053, 17815.55
388.5874, 17827.12
389.0695, 17833.46
389.5516, 17832.96
390.0338, 17817.28
390.5159, 17799.98
390.9980, 17795.48
391.4801, 17807.63
391.9622, 17824.50
392.4443, 17830.91
392.9265, 17825.68
393.4086, 17822.10
393.8907, 17824.44
394.3728, 17826.36
394.8549, 17822.71
395.3370, 17815.06
395.8192, 17809.67
396.3013, 17813.02
396.7834, 17821.69
397.2655, 17823.04
397.7476, 17813.57
398.2297, 17805.88
398.7119, 17805.63
399.1940, 17811.27
399.6761, 17823.03
400.1582, 17844.05
400.6403, 17864.04
401.1224, 17870.57
401.6046, 17864.46
402.0867, 17859.51
402.5688, 17860.11
403.0509, 17863.24
403.5330, 17864.27
404.0151, 17863.04
404.4973, 17864.91
404.9794, 17876.68
405.4615, 17891.85
405.9436, 17898.19
406.4257, 17893.54
406.9078, 17886.04
407.3900, 17881.20
407.8721, 17879.07
408.3542, 17878.84
408.8363, 17882.00
409.3184, 17885.82
409.8005, 17889.28
410.2827, 17892.14
410.7648, 17892.62
411.2469, 17888.91
411.7290, 17884.39
412.2111, 17887.22
412.6932, 17899.06
413.1754, 17912.46
413.6575, 17930.53
414.1396, 17947.13
414.6217, 17953.66
415.1038, 17949.41
415.5859, 17943.89
416.0681, 17946.88
416.5502, 17959.45
417.0323, 17968.23
417.5144, 17970.75
417.9965, 17972.66
418.4786, 17971.95
418.9608, 17972.77
419.4429, 17985.07
419.9250, 18014.69
420.4071, 18052.74
420.8892, 18074.19
421.3713, 18065.64
421.8535, 18059.85
422.3356, 18063.75
422.8177, 18066.61
423.2998, 18057.34
423.7819, 18036.32
424.2640, 18015.18
424.7462, 18006.28
425.2283, 18010.45
425.7104, 18013.91
426.1925, 18014.87
426.6746, 18017.02
427.1567, 18024.15
427.6389, 18032.51
428.1210, 18035.13
428.6031, 18027.70
429.0852, 18016.95
429.5673, 18018.01
430.0494, 18035.22
430.5316, 18048.71
431.0137, 18047.44
431.4958, 18045.42
431.9779, 18053.85
432.4600, 18072.54
432.9421, 18089.28
433.4243, 18090.86
433.9064, 18081.97
434.3885, 18084.99
434.8706, 18106.87
435.3527, 18126.93
435.8348, 18129.09
436.3170, 18120.93
436.7991, 18114.53
437.2812, 18113.52
437.7633, 18114.03
438.2454, 18112.53
438.7275, 18109.21
439.2097, 18105.81
439.6918, 18102.92
440.1739, 18100.13
440.6560, 18094.24
441.1381, 18083.67
441.6202, 18083.63
442.1024, 18108.61
442.5845, 18140.72
443.0666, 18159.68
443.5487, 18163.84
444.0308, 18161.47
444.5129, 18157.50
444.9951, 18152.32
445.4772, 18149.20
445.9593, 18150.71
446.4414, 18151.05
446.9235, 18147.50
447.4056, 18142.00
447.8878, 18137.94
448.3699, 18136.44
448.8520, 18135.12
449.3341, 18129.83
449.8162, 18117.47
450.2983, 18110.25
450.7805, 18111.54
451.2626, 18114.06
451.7447, 18113.13
452.2268, 18110.13
452.7089, 18109.33
453.1910, 18113.62
453.6732, 18122.28
454.1553, 18132.76
454.6374, 18148.50
455.1195, 18159.95
455.6016, 18163.42
456.0837, 18163.95
456.5659, 18165.03
457.0480, 18167.56
457.5301, 18171.40
458.0122, 18176.03
458.4943, 18181.48
458.9764, 18190.87
459.4586, 18211.38
459.9407, 18224.68
460.4228, 18214.50
460.9049, 18192.52
461.3870, 18180.19
461.8691, 18187.89
462.3513, 18203.41
462.8334, 18212.22
463.3155, 18214.61
463.7976, 18219.00
464.2797, 18233.59
464.7618, 18244.20
465.2440, 18227.26
465.7261, 18182.06
466.2082, 18149.13
466.6903, 18148.37
467.1724, 18163.67
467.6545, 18178.40
468.1367, 18190.78
468.6188, 18199.73
469.1009, 18204.90
469.5830, 18205.83
470.0651, 18200.42
470.5472, 18182.29
471.0294, 18166.79
471.5115, 18155.14
471.9936, 18149.30
472.4757, 18155.15
472.9578, 18173.11
473.4399, 18191.89
473.9221, 18197.70
474.4042, 18188.27
474.8863, 18178.24
475.3684, 18164.93
475.8505, 18153.76
476.3326, 18149.63
476.8148, 18148.46
477.2969, 18142.40
477.7790, 18127.53
478.2611, 18109.04
478.7432, 18097.96
479.2253, 18095.72
479.7075, 18097.25
480.1896, 18108.65
480.6717, 18118.28
481.1538, 18118.01
481.6359, 18109.44
482.1180, 18101.06
482.6002, 18098.20
483.0823, 18099.84
483.5644, 18104.32
484.0465, 18113.35
484.5286, 18118.79
485.0107, 18113.09
485.4929, 18103.85
485.9750, 18100.47
486.4571, 18104.87
486.9392, 18110.16
487.4213, 18111.63
487.9034, 18111.07
488.3856, 18113.42
488.8677, 18119.95
489.3498, 18124.98
489.8319, 18122.69
490.3140, 18113.63
490.7961, 18107.78
491.2783, 18110.77
491.7604, 18110.95
492.2425, 18096.54
492.7246, 18076.78
493.2067, 18070.05
493.6888, 18082.86
494.1710, 18105.34
494.6531, 18122.66
495.1352, 18133.87
495.6173, 18142.50
496.0994, 18151.96
496.5815, 18156.05
497.0637, 18146.82
497.5458, 18130.17
498.0279, 18119.31
498.5100, 18122.27
498.9921, 18132.34
499.4742, 18131.17
499.9564, 18111.55
500.4385, 18098.88
500.9206, 18100.19
501.4027, 18106.50
501.8848, 18113.75
502.3669, 18121.26
502.8491, 18128.98
503.3312, 18137.98
503.8133, 18146.99
504.2954, 18152.65
504.7775, 18155.03
505.2596, 18153.74
505.7418, 18144.34
506.2239, 18133.64
506.7060, 18132.40
507.1881, 18143.68
507.6702, 18153.94
508.1523, 18156.11
508.6345, 18153.04
509.1166, 18148.05
509.5987, 18141.61
510.0808, 18137.65
510.5629, 18140.12
511.0450, 18148.29
511.5272, 18153.63
512.0093, 18156.33
512.4914, 18156.35
512.9735, 18148.21
513.4556, 18139.58
513.9377, 18143.32
514.4199, 18161.75
514.9020, 18182.06
515.3841, 18187.24
515.8662, 18174.38
516.3483, 18166.63
516.8304, 18173.78
517.3126, 18175.75
517.7947, 18161.13
518.2768, 18139.57
518.7589, 18126.60
519.2410, 18128.77
519.7231, 18135.04
520.2053, 18124.85
520.6874, 18095.84
521.1695, 18086.89
521.6516, 18118.94
522.1337, 18151.75
522.6158, 18154.74
523.0980, 18136.54
523.5801, 18121.91
524.0622, 18121.98
524.5443, 18126.98
525.0264, 18124.25
525.5085, 18116.18
525.9907, 18119.05
526.4728, 18142.70
526.9549, 18170.74
527.4370, 18176.84
527.9191, 18157.17
528.4012, 18142.80
528.8834, 18140.46
529.3655, 18141.31
529.8476, 18137.28
530.3297, 18131.00
530.8118, 18132.12
531.2939, 18146.26
531.7761, 18167.62
532.2582, 18181.52
532.7403, 18184.11
533.2224, 18185.42
533.7045, 18184.58
534.1866, 18183.21
534.6688, 18181.55
535.1509, 18180.04
535.6330, 18179.77
536.1151, 18182.06
536.5972, 18185.36
537.0793, 18185.02
537.5615, 18180.06
538.0436, 18175.97
538.5257, 18175.59
539.0078, 18176.02
539.4899, 18173.86
539.9720, 18169.41
540.4542, 18167.46
540.9363, 18173.14
541.4184, 18181.54
541.9005, 18185.18
542.3826, 18184.09
542.8647, 18183.12
543.3469, 18185.32
543.8290, 18188.72
544.3111, 18187.54
544.7932, 18177.71
545.2753, 18173.16
545.7574, 18180.51
546.2396, 18190.38
546.7217, 18192.70
547.2038, 18188.85
547.6859, 18189.35
548.1680, 18202.57
548.6501, 18224.09
549.1323, 18233.64
549.6144, 18220.06
550.0965, 18213.72
550.5786, 18224.55
551.0607, 18237.82
551.5428, 18240.81
552.0250, 18234.51
552.5071, 18231.05
552.9892, 18241.68
553.4713, 18260.89
553.9534, 18272.82
554.4355, 18276.72
554.9177, 18276.64
555.3998, 18270.88
555.8819, 18264.29
556.3640, 18263.72
556.8461, 18269.89
557.3282, 18276.50
557.8104, 18280.23
558.2925, 18283.62
558.7746, 18291.72
559.2567, 18303.69
559.7388, 18310.14
560.2209, 18303.94
560.7031, 18290.63
561.1852, 18287.88
561.6673, 18307.89
562.1494, 18321.58
562.6315, 18327.81
563.1136, 18328.27
563.5958, 18318.82
564.0779, 18303.80
564.5600, 18296.47
565.0421, 18307.32
565.5242, 18330.63
566.0063, 18347.43
566.4885, 18355.94
566.9706, 18362.78
567.4527, 18370.35
567.9348, 18375.83
568.4169, 18375.07
568.8990, 18369.18
569.3812, 18366.35
569.8633, 18374.34
570.3454, 18386.12
570.8275, 18391.34
571.3096, 18390.29
571.7917, 18388.23
572.2739, 18387.41
572.7560, 18386.70
573.2381, 18383.53
573.7202, 18376.68
574.2023, 18372.60
574.6844, 18370.19
575.1666, 18372.32
575.6487, 18382.89
576.1308, 18399.69
576.6129, 18418.45
577.0950, 18437.30
577.5771, 18453.18
578.0593, 18457.86
578.5414, 18444.97
579.0235, 18438.15
579.5056, 18437.06
579.9877, 18443.72
580.4698, 18467.93
580.9520, 18500.20
581.4341, 18519.03
581.9162, 18511.35
582.3983, 18493.24
582.8804, 18484.38
583.3625, 18484.32
583.8447, 18489.10
584.3268, 18498.30
584.8089, 18511.13
585.2910, 18530.85
585.7731, 18555.89
586.2552, 18568.33
586.7374, 18550.34
587.2195, 18536.59
587.7016, 18552.15
588.1837, 18582.41
588.6658, 18598.96
589.1479, 18593.98
589.6301, 18586.30
590.1122, 18601.52
590.5943, 18643.98
591.0764, 18666.85
591.5585, 18648.71
592.0406, 18635.39
592.5228, 18641.32
593.0049, 18656.02
