##NAMES=Kaersutite
##RRUFFID=R070128
##IDEAL CHEMISTRY=NaCa_2_(Mg_3_AlTi^4+^)(Si_6_Al_2_)O_22_O_2_
##LOCALITY=Mt Etna, Etna Volcanic Complex, Catania Province, Sicily,  Italy
##OWNER=RRUFF
##SOURCE=Michael Scott
##DESCRIPTION=Black cleavage fragment with dark-red internal highlites
##STATUS=The identification of this mineral is confirmed by single-crystal X-ray diffraction and chemical analysis.
##URL=rruff.info/R070128
##MEASURED CHEMISTRY=(Na_0.65_K_0.15_[box]_0.20_)_Σ=1_(Ca_1.82_Na_0.18_)_Σ=2_(Mg_2.64_Fe^2+^_1.36_)_Σ=4_(Ti_0.64_Fe^2+^_0.15_Al_0.10_Fe^3+^_0.09_Mn_0.02_)_Σ=1_(Si_5.91_Al_2.09_)_Σ=8_O_22_O(OH); OH assumed by stoichiometry
137.1645, 1745.181
137.6466, 1772.240
138.1287, 1802.191
138.6109, 1835.571
139.0930, 1866.329
139.5751, 1897.158
140.0572, 1922.429
140.5393, 1928.695
141.0214, 1905.581
141.5036, 1886.506
141.9857, 1886.897
142.4678, 1917.635
142.9499, 1938.871
143.4320, 1947.703
143.9141, 1947.215
144.3963, 1946.243
144.8784, 1943.212
145.3605, 1941.535
145.8426, 1942.548
146.3247, 1942.447
146.8068, 1951.181
147.2890, 1973.748
147.7711, 2008.755
148.2532, 2036.986
148.7353, 2051.502
149.2174, 2063.720
149.6995, 2081.387
150.1817, 2116.400
150.6638, 2144.636
151.1459, 2161.440
151.6280, 2165.590
152.1101, 2169.609
152.5922, 2171.186
153.0744, 2174.028
153.5565, 2181.906
154.0386, 2197.175
154.5207, 2215.786
155.0028, 2240.416
155.4849, 2276.942
155.9671, 2298.418
156.4492, 2288.356
156.9313, 2261.918
157.4134, 2243.014
157.8955, 2241.411
158.3777, 2245.496
158.8598, 2250.123
159.3419, 2254.359
159.8240, 2259.445
160.3061, 2267.434
160.7882, 2276.791
161.2704, 2283.656
161.7525, 2282.444
162.2346, 2280.585
162.7167, 2283.484
163.1988, 2296.544
163.6809, 2309.352
164.1631, 2318.749
164.6452, 2324.410
165.1273, 2324.778
165.6094, 2313.112
166.0915, 2298.008
166.5736, 2287.923
167.0558, 2286.866
167.5379, 2290.781
168.0200, 2294.896
168.5021, 2299.688
168.9842, 2313.142
169.4663, 2354.243
169.9485, 2405.034
170.4306, 2439.499
170.9127, 2429.841
171.3948, 2408.194
171.8769, 2408.740
172.3590, 2434.323
172.8412, 2457.813
173.3233, 2451.109
173.8054, 2424.922
174.2875, 2402.452
174.7696, 2395.936
175.2517, 2399.428
175.7339, 2404.244
176.2160, 2408.960
176.6981, 2418.379
177.1802, 2444.819
177.6623, 2482.883
178.1444, 2511.919
178.6266, 2512.866
179.1087, 2497.660
179.5908, 2490.861
180.0729, 2497.949
180.5550, 2508.972
181.0371, 2511.707
181.5193, 2506.552
182.0014, 2496.353
182.4835, 2473.925
182.9656, 2446.818
183.4477, 2439.146
183.9298, 2462.118
184.4120, 2498.767
184.8941, 2518.051
185.3762, 2520.330
185.8583, 2518.264
186.3404, 2522.225
186.8225, 2530.869
187.3047, 2537.468
187.7868, 2540.508
188.2689, 2540.342
188.7510, 2538.718
189.2331, 2535.945
189.7152, 2528.807
190.1974, 2508.268
190.6795, 2476.219
191.1616, 2455.753
191.6437, 2457.245
192.1258, 2476.073
192.6080, 2493.657
193.0901, 2511.369
193.5722, 2523.120
194.0543, 2519.190
194.5364, 2499.390
195.0185, 2478.690
195.5007, 2459.145
195.9828, 2441.664
196.4649, 2439.688
196.9470, 2456.680
197.4291, 2480.376
197.9112, 2492.597
198.3934, 2491.953
198.8755, 2491.780
199.3576, 2500.819
199.8397, 2519.821
200.3218, 2522.857
200.8039, 2504.015
201.2861, 2478.079
201.7682, 2473.521
202.2503, 2494.755
202.7324, 2517.067
203.2145, 2528.961
203.6966, 2529.292
204.1788, 2528.478
204.6609, 2527.264
205.1430, 2524.598
205.6251, 2515.301
206.1072, 2495.038
206.5893, 2481.718
207.0715, 2489.995
207.5536, 2526.975
208.0357, 2546.921
208.5178, 2541.521
208.9999, 2520.068
209.4820, 2510.690
209.9642, 2516.821
210.4463, 2526.915
210.9284, 2534.245
211.4105, 2538.027
211.8926, 2541.983
212.3747, 2547.418
212.8569, 2553.163
213.3390, 2552.906
213.8211, 2542.370
214.3032, 2533.905
214.7853, 2538.137
215.2674, 2561.446
215.7496, 2577.387
216.2317, 2579.502
216.7138, 2570.621
217.1959, 2571.812
217.6780, 2588.722
218.1601, 2607.040
218.6423, 2614.075
219.1244, 2603.465
219.6065, 2598.052
220.0886, 2603.122
220.5707, 2617.890
221.0528, 2626.947
221.5350, 2628.635
222.0171, 2627.008
222.4992, 2625.482
222.9813, 2624.457
223.4634, 2622.213
223.9455, 2615.426
224.4277, 2604.021
224.9098, 2608.144
225.3919, 2635.208
225.8740, 2669.540
226.3561, 2696.556
226.8382, 2713.585
227.3204, 2728.342
227.8025, 2743.775
228.2846, 2760.481
228.7667, 2765.667
229.2488, 2751.665
229.7310, 2733.371
230.2131, 2727.434
230.6952, 2740.520
231.1773, 2753.618
231.6594, 2761.704
232.1415, 2763.614
232.6237, 2771.253
233.1058, 2789.182
233.5879, 2809.033
234.0700, 2820.500
234.5521, 2820.260
235.0342, 2817.286
235.5164, 2811.083
235.9985, 2799.048
236.4806, 2801.464
236.9627, 2825.292
237.4448, 2858.032
237.9269, 2885.214
238.4091, 2911.628
238.8912, 2923.452
239.3733, 2911.284
239.8554, 2866.223
240.3375, 2842.880
240.8196, 2850.407
241.3018, 2873.489
241.7839, 2890.841
242.2660, 2901.736
242.7481, 2908.143
243.2302, 2910.760
243.7123, 2909.901
244.1945, 2902.567
244.6766, 2881.207
245.1587, 2858.288
245.6408, 2855.273
246.1229, 2887.539
246.6050, 2913.097
247.0872, 2915.686
247.5693, 2886.587
248.0514, 2870.806
248.5335, 2876.482
249.0156, 2890.548
249.4977, 2889.795
249.9799, 2866.092
250.4620, 2842.272
250.9441, 2825.362
251.4262, 2816.094
251.9083, 2811.720
252.3904, 2816.064
252.8726, 2822.883
253.3547, 2820.893
253.8368, 2806.546
254.3189, 2789.980
254.8010, 2774.584
255.2831, 2761.041
255.7653, 2745.202
256.2474, 2723.868
256.7295, 2702.536
257.2116, 2692.606
257.6937, 2699.562
258.1758, 2706.593
258.6580, 2707.645
259.1401, 2701.510
259.6222, 2694.787
260.1043, 2688.485
260.5864, 2680.861
261.0685, 2667.066
261.5507, 2641.787
262.0328, 2622.690
262.5149, 2617.765
262.9970, 2630.653
263.4791, 2641.035
263.9612, 2649.753
264.4434, 2655.321
264.9255, 2652.920
265.4076, 2637.413
265.8897, 2627.915
266.3718, 2635.810
266.8539, 2666.607
267.3361, 2679.072
267.8182, 2667.091
268.3003, 2643.164
268.7824, 2628.164
269.2645, 2624.400
269.7466, 2622.542
270.2288, 2617.157
270.7109, 2606.719
271.1930, 2608.695
271.6751, 2627.494
272.1572, 2652.874
272.6393, 2668.820
273.1215, 2674.434
273.6036, 2674.332
274.0857, 2667.248
274.5678, 2652.340
275.0499, 2647.411
275.5320, 2654.845
276.0142, 2668.145
276.4963, 2677.584
276.9784, 2682.637
277.4605, 2687.214
277.9426, 2692.493
278.4247, 2698.458
278.9069, 2707.191
279.3890, 2720.821
279.8711, 2732.371
280.3532, 2727.684
280.8354, 2704.928
281.3175, 2688.935
281.7996, 2693.182
282.2817, 2715.175
282.7638, 2729.096
283.2459, 2734.440
283.7281, 2733.277
284.2102, 2723.760
284.6923, 2705.895
285.1744, 2696.325
285.6565, 2705.465
286.1386, 2729.289
286.6208, 2747.823
287.1029, 2761.498
287.5850, 2768.026
288.0671, 2757.979
288.5492, 2733.651
289.0313, 2720.687
289.5135, 2736.970
289.9956, 2771.530
290.4777, 2785.280
290.9598, 2776.793
291.4419, 2760.629
291.9240, 2748.772
292.4062, 2741.532
292.8883, 2741.128
293.3704, 2753.522
293.8525, 2771.456
294.3346, 2778.021
294.8167, 2772.893
295.2989, 2762.575
295.7810, 2749.616
296.2631, 2735.879
296.7452, 2727.153
297.2273, 2728.591
297.7094, 2734.215
298.1916, 2732.822
298.6737, 2724.720
299.1558, 2717.903
299.6379, 2721.083
300.1200, 2730.448
300.6021, 2737.570
301.0843, 2737.147
301.5664, 2735.766
302.0485, 2743.435
302.5306, 2759.194
303.0127, 2773.955
303.4948, 2784.020
303.9770, 2788.262
304.4591, 2784.090
304.9412, 2764.904
305.4233, 2744.344
305.9054, 2736.733
306.3875, 2740.009
306.8697, 2744.041
307.3518, 2741.244
307.8339, 2736.096
308.3160, 2734.070
308.7981, 2738.359
309.2802, 2743.039
309.7624, 2741.098
310.2445, 2735.207
310.7266, 2734.106
311.2087, 2749.181
311.6908, 2767.461
312.1729, 2776.854
312.6551, 2770.659
313.1372, 2764.403
313.6193, 2768.138
314.1014, 2778.353
314.5835, 2786.755
315.0656, 2791.365
315.5478, 2792.125
316.0299, 2786.501
316.5120, 2768.036
316.9941, 2759.339
317.4762, 2778.293
317.9583, 2811.735
318.4405, 2836.848
318.9226, 2839.919
319.4047, 2838.052
319.8868, 2840.007
320.3689, 2849.769
320.8510, 2852.934
321.3332, 2836.874
321.8153, 2814.424
322.2974, 2803.531
322.7795, 2818.915
323.2616, 2835.850
323.7437, 2847.110
324.2259, 2851.560
324.7080, 2853.661
325.1901, 2851.819
325.6722, 2848.601
326.1543, 2846.839
326.6364, 2859.404
327.1186, 2860.089
327.6007, 2834.544
328.0828, 2777.633
328.5649, 2750.292
329.0470, 2773.382
329.5291, 2812.704
330.0113, 2840.122
330.4934, 2850.764
330.9755, 2857.003
331.4576, 2859.409
331.9397, 2858.169
332.4218, 2856.417
332.9040, 2851.802
333.3861, 2849.414
333.8682, 2853.917
334.3503, 2870.295
334.8324, 2880.854
335.3145, 2880.176
335.7967, 2872.368
336.2788, 2878.970
336.7609, 2908.315
337.2430, 2934.156
337.7251, 2937.087
338.2072, 2911.879
338.6894, 2892.502
339.1715, 2880.934
339.6536, 2876.732
340.1357, 2881.228
340.6178, 2896.455
341.0999, 2910.223
341.5821, 2916.228
342.0642, 2914.440
342.5463, 2908.164
343.0284, 2895.563
343.5105, 2882.886
343.9926, 2882.597
344.4748, 2894.412
344.9569, 2905.514
345.4390, 2908.478
345.9211, 2905.397
346.4032, 2904.959
346.8853, 2907.237
347.3675, 2912.064
347.8496, 2922.328
348.3317, 2935.974
348.8138, 2944.440
349.2959, 2940.586
349.7780, 2930.729
350.2602, 2926.705
350.7423, 2928.580
351.2244, 2931.057
351.7065, 2930.955
352.1887, 2928.049
352.6708, 2921.442
353.1529, 2906.700
353.6350, 2892.140
354.1171, 2884.640
354.5992, 2884.237
355.0814, 2891.654
355.5635, 2918.292
356.0456, 2948.768
356.5277, 2965.403
357.0098, 2960.966
357.4919, 2946.511
357.9741, 2919.467
358.4562, 2886.605
358.9383, 2866.434
359.4204, 2878.038
359.9025, 2899.121
360.3846, 2915.813
360.8668, 2927.287
361.3489, 2930.465
361.8310, 2917.131
362.3131, 2895.541
362.7952, 2879.878
363.2773, 2883.052
363.7595, 2885.512
364.2416, 2877.689
364.7237, 2855.426
365.2058, 2838.758
365.6879, 2830.341
366.1700, 2829.483
366.6522, 2835.539
367.1343, 2865.392
367.6164, 2884.457
368.0985, 2880.385
368.5806, 2851.713
369.0627, 2835.844
369.5449, 2842.650
370.0270, 2854.755
370.5091, 2859.426
370.9912, 2851.012
371.4733, 2845.080
371.9554, 2844.889
372.4376, 2848.794
372.9197, 2846.996
373.4018, 2835.206
373.8839, 2825.142
374.3660, 2825.935
374.8481, 2842.712
375.3303, 2847.969
375.8124, 2837.002
376.2945, 2816.760
376.7766, 2801.109
377.2587, 2790.138
377.7408, 2783.862
378.2230, 2786.342
378.7051, 2796.937
379.1872, 2792.696
379.6693, 2769.420
380.1514, 2744.144
380.6335, 2744.650
381.1157, 2768.436
381.5978, 2785.442
382.0799, 2775.646
382.5620, 2753.433
383.0441, 2763.736
383.5262, 2807.625
384.0084, 2845.708
384.4905, 2832.145
384.9726, 2785.354
385.4547, 2752.532
385.9368, 2753.839
386.4189, 2764.921
386.9011, 2754.212
387.3832, 2725.974
387.8653, 2702.000
388.3474, 2698.955
388.8295, 2706.391
389.3116, 2713.774
389.7938, 2720.077
390.2759, 2723.421
390.7580, 2721.281
391.2401, 2715.314
391.7222, 2709.026
392.2043, 2708.919
392.6865, 2705.126
393.1686, 2687.184
393.6507, 2649.830
394.1328, 2625.151
394.6149, 2634.542
395.0970, 2657.971
395.5792, 2672.992
396.0613, 2665.479
396.5434, 2658.772
397.0255, 2659.776
397.5076, 2668.774
397.9897, 2674.500
398.4719, 2679.124
398.9540, 2678.232
399.4361, 2668.624
399.9182, 2639.511
400.4003, 2617.632
400.8824, 2605.191
401.3646, 2601.016
401.8467, 2602.098
402.3288, 2612.604
402.8109, 2621.239
403.2930, 2622.300
403.7751, 2613.661
404.2573, 2606.290
404.7394, 2600.899
405.2215, 2595.841
405.7036, 2586.623
406.1857, 2571.833
406.6678, 2563.610
407.1500, 2570.306
407.6321, 2588.296
408.1142, 2590.708
408.5963, 2574.979
409.0784, 2559.497
409.5605, 2566.495
410.0427, 2591.578
410.5248, 2610.929
411.0069, 2619.319
411.4890, 2618.765
411.9711, 2608.234
412.4532, 2589.384
412.9354, 2573.779
413.4175, 2575.395
413.8996, 2583.584
414.3817, 2580.213
414.8638, 2558.743
415.3459, 2539.260
415.8281, 2542.282
416.3102, 2559.724
416.7923, 2575.613
417.2744, 2581.610
417.7565, 2583.861
418.2386, 2585.323
418.7208, 2586.131
419.2029, 2588.145
419.6850, 2597.619
420.1671, 2606.229
420.6492, 2606.196
421.1313, 2588.061
421.6135, 2568.970
422.0956, 2550.307
422.5777, 2533.051
423.0598, 2521.755
423.5420, 2514.520
424.0241, 2515.539
424.5062, 2528.469
424.9883, 2572.278
425.4704, 2593.420
425.9525, 2579.828
426.4347, 2548.711
426.9168, 2531.411
427.3989, 2533.295
427.8810, 2538.577
428.3631, 2542.821
428.8452, 2545.945
429.3274, 2550.208
429.8095, 2556.310
430.2916, 2561.923
430.7737, 2565.276
431.2558, 2566.472
431.7379, 2563.287
432.2201, 2553.877
432.7022, 2540.898
433.1843, 2530.925
433.6664, 2524.037
434.1485, 2519.138
434.6306, 2516.862
435.1128, 2516.054
435.5949, 2513.475
436.0770, 2508.697
436.5591, 2502.451
437.0412, 2493.627
437.5233, 2483.892
438.0055, 2477.584
438.4876, 2481.922
438.9697, 2487.400
439.4518, 2481.601
439.9339, 2464.838
440.4160, 2453.518
440.8982, 2465.573
441.3803, 2484.159
441.8624, 2492.329
442.3445, 2471.289
442.8266, 2456.579
443.3087, 2470.327
443.7909, 2502.000
444.2730, 2517.804
444.7551, 2497.808
445.2372, 2470.475
445.7193, 2446.075
446.2014, 2421.867
446.6836, 2409.572
447.1657, 2415.448
447.6478, 2430.081
448.1299, 2442.887
448.6120, 2455.986
449.0941, 2463.167
449.5763, 2461.050
450.0584, 2450.614
450.5405, 2443.298
451.0226, 2436.478
451.5047, 2438.529
451.9868, 2463.251
452.4690, 2514.708
452.9511, 2538.622
453.4332, 2522.446
453.9153, 2488.684
454.3974, 2480.746
454.8795, 2497.547
455.3617, 2516.553
455.8438, 2529.399
456.3259, 2536.087
456.8080, 2533.970
457.2901, 2522.521
457.7722, 2512.779
458.2544, 2515.583
458.7365, 2527.173
459.2186, 2541.589
459.7007, 2564.373
460.1828, 2580.600
460.6649, 2567.024
461.1471, 2533.534
461.6292, 2515.387
462.1113, 2546.689
462.5934, 2587.613
463.0755, 2609.010
463.5576, 2599.931
464.0398, 2596.388
464.5219, 2619.593
465.0040, 2651.048
465.4861, 2666.978
465.9682, 2646.710
466.4503, 2628.840
466.9325, 2621.295
467.4146, 2623.780
467.8967, 2628.034
468.3788, 2638.208
468.8609, 2645.478
469.3430, 2641.900
469.8252, 2618.319
470.3073, 2612.748
470.7894, 2633.442
471.2715, 2666.489
471.7536, 2682.937
472.2357, 2680.090
472.7179, 2679.461
473.2000, 2690.685
473.6821, 2711.560
474.1642, 2732.538
474.6463, 2754.216
475.1284, 2769.741
475.6106, 2770.887
476.0927, 2760.496
476.5748, 2745.416
477.0569, 2722.563
477.5390, 2703.840
478.0211, 2707.267
478.5033, 2727.310
478.9854, 2746.322
479.4675, 2757.775
479.9496, 2761.895
480.4317, 2753.301
480.9138, 2729.107
481.3960, 2716.938
481.8781, 2739.124
482.3602, 2775.645
482.8423, 2805.761
483.3244, 2827.420
483.8065, 2839.516
484.2887, 2833.214
484.7708, 2813.794
485.2529, 2809.886
485.7350, 2838.796
486.2171, 2866.202
486.6992, 2878.535
487.1814, 2872.690
487.6635, 2859.973
488.1456, 2832.512
488.6277, 2806.683
489.1098, 2809.467
489.5919, 2849.189
490.0741, 2872.882
490.5562, 2860.234
491.0383, 2825.144
491.5204, 2822.814
492.0026, 2854.852
492.4847, 2889.349
492.9668, 2903.045
493.4489, 2901.381
493.9310, 2899.223
494.4131, 2897.667
494.8953, 2898.183
495.3774, 2901.750
495.8595, 2908.644
496.3416, 2919.222
496.8237, 2935.865
497.3058, 2954.647
497.7880, 2975.404
498.2701, 2997.068
498.7522, 3013.336
499.2343, 3013.484
499.7164, 3012.032
500.1985, 3019.234
500.6807, 3040.418
501.1628, 3063.063
501.6449, 3089.422
502.1270, 3115.153
502.6091, 3133.245
503.0912, 3141.303
503.5734, 3144.960
504.0555, 3144.983
504.5376, 3141.448
505.0197, 3133.548
505.5018, 3116.485
505.9839, 3104.433
506.4661, 3108.612
506.9482, 3130.398
507.4303, 3156.550
507.9124, 3189.672
508.3945, 3219.328
508.8766, 3221.217
509.3588, 3199.080
509.8409, 3185.287
510.3230, 3203.378
510.8051, 3234.135
511.2872, 3238.087
511.7693, 3216.907
512.2515, 3196.181
512.7336, 3197.546
513.2157, 3208.389
513.6978, 3212.101
514.1799, 3199.579
514.6620, 3194.037
515.1442, 3220.549
515.6263, 3260.702
516.1084, 3282.917
516.5905, 3263.443
517.0726, 3238.852
517.5547, 3216.100
518.0369, 3195.202
518.5190, 3192.809
519.0011, 3232.691
519.4832, 3269.989
519.9653, 3276.175
520.4474, 3227.513
520.9296, 3205.840
521.4117, 3221.633
521.8938, 3255.908
522.3759, 3274.783
522.8580, 3275.637
523.3401, 3278.805
523.8223, 3293.997
524.3044, 3315.977
524.7865, 3321.870
525.2686, 3311.393
525.7507, 3305.225
526.2328, 3327.954
526.7150, 3365.412
527.1971, 3386.779
527.6792, 3384.440
528.1613, 3377.152
528.6434, 3382.203
529.1255, 3393.791
529.6077, 3401.841
530.0898, 3392.778
530.5719, 3387.711
531.0540, 3402.610
531.5361, 3434.501
532.0182, 3458.184
532.5004, 3463.830
532.9825, 3461.901
533.4646, 3456.698
533.9467, 3443.729
534.4288, 3437.576
534.9109, 3438.044
535.3931, 3445.442
535.8752, 3462.601
536.3573, 3496.007
536.8394, 3520.146
537.3215, 3529.092
537.8036, 3525.148
538.2858, 3513.964
538.7679, 3494.012
539.2500, 3480.608
539.7321, 3490.966
540.2142, 3516.603
540.6964, 3524.430
541.1785, 3510.690
541.6606, 3494.765
542.1427, 3495.604
542.6248, 3508.341
543.1069, 3524.965
543.5891, 3552.323
544.0712, 3571.071
544.5533, 3555.091
545.0354, 3517.701
545.5175, 3499.333
545.9996, 3534.776
546.4818, 3576.525
546.9639, 3600.860
547.4460, 3602.033
547.9281, 3606.008
548.4102, 3616.719
548.8923, 3629.820
549.3745, 3642.426
549.8566, 3655.930
550.3387, 3666.056
550.8208, 3673.173
551.3029, 3676.198
551.7850, 3670.284
552.2672, 3653.804
552.7493, 3640.497
553.2314, 3635.810
553.7135, 3638.812
554.1956, 3648.601
554.6777, 3665.330
555.1599, 3679.688
555.6420, 3676.260
556.1241, 3666.718
556.6062, 3673.563
557.0883, 3704.838
557.5704, 3739.946
558.0526, 3766.135
558.5347, 3785.102
559.0168, 3799.763
559.4989, 3812.301
559.9810, 3819.236
560.4631, 3810.786
560.9453, 3790.298
561.4274, 3789.681
561.9095, 3840.813
562.3916, 3888.681
562.8737, 3908.286
563.3558, 3888.420
563.8380, 3878.645
564.3201, 3883.574
564.8022, 3892.533
565.2843, 3888.439
565.7664, 3867.906
566.2485, 3868.963
566.7307, 3907.878
567.2128, 3962.278
567.6949, 3981.655
568.1770, 3969.396
568.6591, 3952.671
569.1412, 3941.289
569.6234, 3936.829
570.1055, 3944.225
570.5876, 3963.468
571.0697, 3982.995
571.5518, 3999.082
572.0339, 4009.782
572.5161, 4011.652
572.9982, 3995.706
573.4803, 3986.097
573.9624, 3991.294
574.4445, 4007.169
574.9266, 4026.694
575.4088, 4063.810
575.8909, 4086.094
576.3730, 4083.412
576.8551, 4058.669
577.3372, 4034.307
577.8193, 4006.864
578.3015, 3988.725
578.7836, 3989.140
579.2657, 4007.936
579.7478, 4031.702
580.2299, 4062.126
580.7120, 4087.552
581.1942, 4089.857
581.6763, 4075.324
582.1584, 4063.004
582.6405, 4059.168
583.1226, 4058.294
583.6047, 4057.590
584.0869, 4055.781
584.5690, 4049.491
585.0511, 4030.235
585.5332, 4011.944
586.0153, 4003.706
586.4974, 4006.235
586.9796, 4006.784
587.4617, 4005.800
587.9438, 3999.889
588.4259, 3986.096
588.9080, 3955.490
589.3901, 3936.545
589.8723, 3934.629
590.3544, 3939.003
590.8365, 3933.587
591.3186, 3917.143
591.8007, 3901.818
592.2828, 3891.459
592.7650, 3883.421
593.2471, 3869.095
593.7292, 3849.446
594.2113, 3834.682
594.6934, 3837.768
595.1755, 3845.987
595.6577, 3842.396
596.1398, 3826.048
596.6219, 3803.678
597.1040, 3772.746
597.5862, 3741.359
598.0683, 3717.002
598.5504, 3706.235
599.0325, 3694.538
599.5146, 3675.102
599.9968, 3653.963
600.4789, 3641.830
600.9610, 3651.312
601.4431, 3649.146
601.9252, 3622.271
602.4073, 3578.376
602.8895, 3557.695
603.3716, 3566.104
603.8537, 3571.663
604.3358, 3550.652
604.8179, 3509.524
605.3000, 3484.345
605.7822, 3476.698
606.2643, 3474.229
606.7464, 3463.091
607.2285, 3449.564
607.7106, 3447.094
608.1927, 3467.881
608.6749, 3479.518
609.1570, 3447.697
609.6391, 3394.007
610.1212, 3356.573
610.6033, 3360.561
611.0854, 3367.463
611.5676, 3367.628
612.0497, 3361.153
612.5318, 3352.098
613.0139, 3341.221
613.4960, 3326.611
613.9781, 3307.161
614.4603, 3282.584
614.9424, 3256.440
615.4245, 3227.999
615.9066, 3201.032
616.3887, 3176.891
616.8708, 3156.650
617.3530, 3148.244
617.8351, 3157.666
618.3172, 3165.866
618.7993, 3142.947
619.2814, 3102.641
619.7635, 3074.403
620.2457, 3076.901
620.7278, 3089.497
621.2099, 3109.787
621.6920, 3133.219
622.1741, 3139.127
622.6563, 3105.163
623.1384, 3067.852
623.6205, 3040.575
624.1026, 3023.401
624.5847, 3017.987
625.0668, 3032.510
625.5490, 3046.656
626.0311, 3040.569
626.5132, 3012.123
626.9953, 2995.112
627.4774, 2995.503
