##NAMES=Kaersutite
##RRUFFID=R070128
##IDEAL CHEMISTRY=NaCa_2_(Mg_3_AlTi^4+^)(Si_6_Al_2_)O_22_O_2_
##LOCALITY=Mt Etna, Etna Volcanic Complex, Catania Province, Sicily,  Italy
##OWNER=RRUFF
##SOURCE=Michael Scott
##DESCRIPTION=Black cleavage fragment with dark-red internal highlites
##STATUS=The identification of this mineral is confirmed by single-crystal X-ray diffraction and chemical analysis.
##URL=rruff.info/R070128
##MEASURED CHEMISTRY=(Na_0.65_K_0.15_[box]_0.20_)_Σ=1_(Ca_1.82_Na_0.18_)_Σ=2_(Mg_2.64_Fe^2+^_1.36_)_Σ=4_(Ti_0.64_Fe^2+^_0.15_Al_0.10_Fe^3+^_0.09_Mn_0.02_)_Σ=1_(Si_5.91_Al_2.09_)_Σ=8_O_22_O(OH); OH assumed by stoichiometry
159.3972, 1929.461
159.8793, 1927.768
160.3615, 1922.970
160.8436, 1934.543
161.3257, 1973.866
161.8078, 2032.099
162.2899, 2070.075
162.7720, 2068.561
163.2542, 2066.288
163.7363, 2070.908
164.2184, 2076.731
164.7005, 2072.253
165.1826, 2050.326
165.6647, 2018.229
166.1469, 2009.856
166.6290, 2053.386
167.1111, 2088.272
167.5932, 2098.935
168.0753, 2096.448
168.5574, 2099.547
169.0396, 2118.558
169.5217, 2147.544
170.0038, 2160.633
170.4859, 2141.572
170.9680, 2126.804
171.4501, 2121.549
171.9323, 2124.965
172.4144, 2138.391
172.8965, 2164.140
173.3786, 2195.667
173.8607, 2208.131
174.3428, 2185.969
174.8250, 2166.033
175.3071, 2154.432
175.7892, 2149.986
176.2713, 2151.649
176.7534, 2159.616
177.2355, 2171.707
177.7177, 2180.942
178.1998, 2183.915
178.6819, 2189.389
179.1640, 2203.536
179.6461, 2221.213
180.1283, 2232.692
180.6104, 2233.408
181.0925, 2226.899
181.5746, 2221.956
182.0567, 2218.933
182.5388, 2216.329
183.0210, 2212.203
183.5031, 2208.348
183.9852, 2209.573
184.4673, 2219.134
184.9494, 2231.250
185.4315, 2231.526
185.9137, 2215.635
186.3958, 2203.023
186.8779, 2199.817
187.3600, 2203.748
187.8421, 2212.113
188.3242, 2225.701
188.8064, 2239.198
189.2885, 2241.351
189.7706, 2230.901
190.2527, 2219.945
190.7348, 2209.661
191.2169, 2201.746
191.6991, 2202.490
192.1812, 2216.955
192.6633, 2231.591
193.1454, 2219.687
193.6275, 2178.694
194.1096, 2148.304
194.5918, 2146.730
195.0739, 2162.718
195.5560, 2177.798
196.0381, 2188.566
196.5202, 2195.320
197.0023, 2197.123
197.4845, 2194.434
197.9666, 2190.638
198.4487, 2188.397
198.9308, 2185.305
199.4129, 2175.635
199.8950, 2156.553
200.3771, 2137.193
200.8593, 2129.803
201.3414, 2132.278
201.8235, 2132.775
202.3056, 2125.826
202.7877, 2115.589
203.2698, 2107.100
203.7520, 2100.165
204.2341, 2098.190
204.7162, 2111.731
205.1983, 2135.586
205.6804, 2146.844
206.1625, 2130.494
206.6447, 2102.376
207.1268, 2082.380
207.6089, 2071.990
208.0910, 2068.788
208.5731, 2076.599
209.0552, 2090.951
209.5374, 2098.321
210.0195, 2091.445
210.5016, 2078.502
210.9837, 2069.615
211.4658, 2065.609
211.9479, 2058.875
212.4301, 2037.871
212.9122, 2011.230
213.3943, 1999.608
213.8764, 2016.091
214.3585, 2040.935
214.8406, 2055.377
215.3228, 2059.312
215.8049, 2058.850
216.2870, 2052.631
216.7691, 2045.859
217.2512, 2049.581
217.7333, 2073.764
218.2155, 2096.732
218.6976, 2096.037
219.1797, 2073.384
219.6618, 2054.447
220.1439, 2051.052
220.6260, 2058.298
221.1082, 2066.483
221.5903, 2076.005
222.0724, 2084.980
222.5545, 2091.270
223.0366, 2095.447
223.5187, 2101.270
224.0009, 2111.154
224.4830, 2122.168
224.9651, 2129.958
225.4472, 2133.960
225.9293, 2137.402
226.4114, 2144.398
226.8936, 2152.758
227.3757, 2153.289
227.8578, 2139.656
228.3399, 2123.621
228.8220, 2121.434
229.3041, 2133.387
229.7863, 2142.900
230.2684, 2141.607
230.7505, 2132.840
231.2326, 2122.458
231.7147, 2109.239
232.1968, 2100.312
232.6790, 2107.839
233.1611, 2128.987
233.6432, 2145.552
234.1253, 2147.542
234.6074, 2142.817
235.0895, 2144.216
235.5717, 2154.014
236.0538, 2164.920
236.5359, 2169.978
237.0180, 2170.588
237.5001, 2172.228
237.9822, 2177.594
238.4644, 2183.582
238.9465, 2184.035
239.4286, 2178.330
239.9107, 2178.987
240.3928, 2200.813
240.8749, 2235.805
241.3571, 2256.134
241.8392, 2247.149
242.3213, 2232.702
242.8034, 2232.564
243.2855, 2245.012
243.7676, 2255.535
244.2497, 2257.742
244.7319, 2251.554
245.2140, 2238.594
245.6961, 2210.457
246.1782, 2188.122
246.6603, 2187.268
247.1424, 2202.294
247.6246, 2214.152
248.1067, 2215.121
248.5888, 2209.283
249.0709, 2203.684
249.5530, 2195.792
250.0351, 2194.489
250.5173, 2214.643
250.9994, 2241.664
251.4815, 2244.655
251.9636, 2211.227
252.4457, 2166.114
252.9278, 2148.268
253.4100, 2161.527
253.8921, 2170.575
254.3742, 2169.857
254.8563, 2161.292
255.3384, 2143.329
255.8205, 2115.622
256.3027, 2090.078
256.7848, 2080.403
257.2669, 2089.144
257.7490, 2093.686
258.2311, 2088.982
258.7133, 2083.105
259.1954, 2085.110
259.6775, 2093.837
260.1596, 2097.001
260.6417, 2083.114
261.1238, 2053.316
261.6060, 2034.672
262.0880, 2035.255
262.5702, 2037.720
263.0523, 2031.698
263.5344, 2020.833
264.0165, 2017.157
264.4986, 2029.128
264.9807, 2051.034
265.4629, 2057.352
265.9450, 2032.609
266.4271, 2013.214
266.9092, 2010.808
267.3913, 2016.875
267.8734, 2017.974
268.3556, 2008.695
268.8377, 1996.124
269.3198, 1994.917
269.8019, 2021.416
270.2840, 2034.101
270.7661, 2019.219
271.2483, 1998.426
271.7304, 1993.493
272.2125, 2007.759
272.6946, 2025.443
273.1767, 2025.512
273.6588, 1997.860
274.1410, 1987.692
274.6231, 2009.811
275.1052, 2033.862
275.5873, 2042.565
276.0694, 2037.086
276.5515, 2029.225
277.0337, 2029.598
277.5158, 2038.498
277.9979, 2037.947
278.4800, 2013.765
278.9621, 1995.298
279.4442, 1990.079
279.9264, 1996.076
280.4085, 2011.360
280.8906, 2036.050
281.3727, 2064.798
281.8548, 2076.661
282.3369, 2057.305
282.8191, 2040.195
283.3012, 2025.676
283.7833, 2017.109
284.2654, 2020.222
284.7475, 2036.497
285.2296, 2057.154
285.7118, 2065.437
286.1939, 2052.547
286.6760, 2051.311
287.1581, 2079.183
287.6402, 2107.131
288.1223, 2116.877
288.6045, 2107.607
289.0866, 2091.454
289.5687, 2077.678
290.0508, 2065.862
290.5329, 2062.886
291.0150, 2081.226
291.4972, 2095.013
291.9793, 2088.586
292.4614, 2069.074
292.9435, 2053.567
293.4256, 2053.794
293.9077, 2065.251
294.3899, 2073.896
294.8720, 2081.719
295.3541, 2082.036
295.8362, 2065.171
296.3183, 2042.258
296.8004, 2025.918
297.2826, 2019.640
297.7647, 2022.257
298.2468, 2037.940
298.7289, 2068.875
299.2110, 2086.798
299.6931, 2072.236
300.1753, 2048.227
300.6574, 2038.347
301.1395, 2045.247
301.6216, 2053.710
302.1037, 2052.626
302.5858, 2044.412
303.0680, 2038.416
303.5501, 2036.882
304.0322, 2036.782
304.5143, 2034.224
304.9964, 2029.922
305.4785, 2028.574
305.9607, 2036.813
306.4428, 2046.482
306.9249, 2044.558
307.4070, 2029.715
307.8891, 2015.358
308.3712, 2009.808
308.8534, 2012.952
309.3355, 2020.310
309.8176, 2041.331
310.2997, 2057.635
310.7818, 2052.958
311.2639, 2033.734
311.7461, 2021.868
312.2282, 2028.278
312.7103, 2045.539
313.1924, 2056.035
313.6745, 2059.806
314.1566, 2058.621
314.6388, 2048.576
315.1209, 2035.544
315.6030, 2026.217
316.0851, 2022.228
316.5672, 2022.177
317.0493, 2025.302
317.5315, 2034.017
318.0136, 2035.351
318.4957, 2019.277
318.9778, 2005.088
319.4599, 2009.086
319.9420, 2026.365
320.4242, 2037.694
320.9063, 2027.744
321.3884, 1999.078
321.8705, 1980.984
322.3526, 1977.888
322.8347, 1981.007
323.3169, 1993.944
323.7990, 2010.654
324.2811, 2024.315
324.7632, 2032.104
325.2453, 2035.447
325.7274, 2037.080
326.2096, 2036.863
326.6917, 2035.087
327.1738, 2031.788
327.6559, 2027.144
328.1380, 2019.464
328.6201, 2009.685
329.1023, 2002.099
329.5844, 1999.893
330.0665, 2003.056
330.5486, 2014.708
331.0307, 2047.201
331.5128, 2072.490
331.9950, 2074.649
332.4771, 2062.505
332.9592, 2052.335
333.4413, 2052.622
333.9234, 2058.566
334.4055, 2060.726
334.8877, 2058.177
335.3698, 2056.054
335.8519, 2056.131
336.3340, 2057.772
336.8161, 2062.147
337.2982, 2070.670
337.7804, 2074.512
338.2625, 2060.268
338.7446, 2033.783
339.2267, 2022.547
339.7088, 2037.334
340.1909, 2058.394
340.6731, 2061.427
341.1552, 2049.377
341.6373, 2045.673
342.1194, 2070.839
342.6015, 2099.260
343.0836, 2096.183
343.5658, 2061.404
344.0479, 2029.839
344.5300, 2025.794
345.0121, 2044.090
345.4942, 2054.337
345.9763, 2051.557
346.4584, 2047.001
346.9406, 2042.805
347.4227, 2039.875
347.9048, 2041.614
348.3869, 2049.656
348.8690, 2057.410
349.3511, 2052.277
349.8333, 2019.555
350.3154, 2005.696
350.7975, 2026.560
351.2796, 2053.402
351.7617, 2066.727
352.2438, 2065.802
352.7260, 2060.648
353.2081, 2060.198
353.6902, 2064.248
354.1723, 2061.308
354.6544, 2036.495
355.1365, 2020.742
355.6187, 2025.484
356.1008, 2040.936
356.5829, 2054.688
357.0650, 2061.427
357.5471, 2063.517
358.0292, 2064.397
358.5114, 2062.686
358.9935, 2064.288
359.4756, 2075.265
359.9577, 2085.878
360.4398, 2092.115
360.9219, 2093.007
361.4041, 2087.260
361.8862, 2069.835
362.3683, 2043.832
362.8504, 2025.147
363.3325, 2017.054
363.8146, 2009.693
364.2968, 1989.583
364.7789, 1967.474
365.2610, 1963.614
365.7431, 1993.354
366.2252, 2028.535
366.7073, 2041.628
367.1895, 2035.087
367.6716, 2026.837
368.1537, 2022.825
368.6358, 2020.462
369.1179, 2014.788
369.6000, 2004.788
370.0822, 1997.975
370.5643, 2001.377
371.0464, 2006.502
371.5285, 2000.547
372.0106, 1982.948
372.4927, 1967.566
372.9749, 1966.439
373.4570, 1979.558
373.9391, 1992.077
374.4212, 2014.195
374.9033, 2024.678
375.3854, 2003.273
375.8676, 1968.284
376.3497, 1951.678
376.8318, 1967.056
377.3139, 1997.720
377.7960, 2010.161
378.2781, 1990.225
378.7603, 1978.698
379.2424, 1975.707
379.7245, 1979.675
380.2066, 1997.755
380.6887, 2024.068
381.1708, 2038.787
381.6530, 2021.185
382.1351, 1977.093
382.6172, 1953.965
383.0993, 1964.803
383.5814, 1975.089
384.0635, 1968.832
384.5457, 1957.580
385.0278, 1957.049
385.5099, 1974.061
385.9920, 1990.964
386.4741, 1984.142
386.9562, 1955.312
387.4384, 1935.080
387.9205, 1933.018
388.4026, 1936.672
388.8847, 1931.746
389.3668, 1920.033
389.8489, 1915.725
390.3311, 1933.673
390.8132, 1955.540
391.2953, 1953.494
391.7774, 1928.679
392.2595, 1915.090
392.7416, 1937.731
393.2238, 1983.501
393.7059, 2001.823
394.1880, 1978.342
394.6701, 1953.820
395.1522, 1938.876
395.6343, 1928.147
396.1165, 1912.156
396.5986, 1889.563
397.0807, 1872.823
397.5628, 1879.501
398.0449, 1917.455
398.5270, 1933.007
399.0092, 1904.976
399.4913, 1879.254
399.9734, 1873.414
400.4555, 1882.103
400.9376, 1895.320
401.4197, 1908.614
401.9019, 1918.865
402.3840, 1916.590
402.8661, 1894.182
403.3482, 1880.331
403.8303, 1884.399
404.3124, 1894.954
404.7946, 1911.230
405.2767, 1930.170
405.7588, 1937.995
406.2409, 1914.225
406.7230, 1870.955
407.2051, 1851.561
407.6873, 1862.569
408.1694, 1878.110
408.6515, 1886.031
409.1336, 1887.764
409.6157, 1884.698
410.0978, 1872.540
410.5800, 1863.677
411.0621, 1869.844
411.5442, 1884.885
412.0263, 1892.170
412.5084, 1885.915
412.9905, 1878.802
413.4727, 1888.863
413.9548, 1922.634
414.4369, 1938.447
414.9190, 1919.365
415.4011, 1897.628
415.8832, 1893.861
416.3654, 1902.644
416.8475, 1906.341
417.3296, 1894.685
417.8117, 1874.646
418.2938, 1867.237
418.7759, 1883.215
419.2581, 1893.526
419.7402, 1893.697
420.2223, 1890.585
420.7044, 1888.275
421.1865, 1887.432
421.6686, 1886.969
422.1508, 1884.103
422.6329, 1880.427
423.1150, 1888.332
423.5971, 1915.864
424.0792, 1937.996
424.5613, 1943.109
425.0435, 1937.182
425.5256, 1923.222
426.0077, 1898.167
426.4898, 1879.118
426.9719, 1884.417
427.4540, 1907.440
427.9361, 1926.387
428.4182, 1938.096
428.9004, 1940.759
429.3825, 1928.017
429.8646, 1900.518
430.3467, 1883.372
430.8288, 1882.515
431.3109, 1888.341
431.7931, 1901.053
432.2752, 1915.933
432.7573, 1920.880
433.2394, 1909.902
433.7215, 1891.892
434.2036, 1885.279
434.6858, 1897.476
435.1679, 1906.965
435.6500, 1912.354
436.1321, 1916.523
436.6142, 1922.553
437.0963, 1929.109
437.5785, 1931.900
438.0606, 1927.650
438.5427, 1917.725
439.0248, 1906.036
439.5069, 1889.980
439.9890, 1878.701
440.4712, 1876.172
440.9533, 1878.760
441.4354, 1886.507
441.9175, 1899.230
442.3996, 1907.714
442.8817, 1903.230
443.3639, 1890.195
443.8460, 1878.733
444.3281, 1869.501
444.8102, 1862.934
445.2923, 1858.816
445.7744, 1857.951
446.2566, 1862.242
446.7387, 1879.746
447.2208, 1891.949
447.7029, 1889.039
448.1850, 1877.539
448.6671, 1865.447
449.1493, 1855.208
449.6314, 1848.362
450.1135, 1847.546
450.5956, 1854.188
451.0777, 1856.380
451.5598, 1853.661
452.0420, 1847.231
452.5241, 1832.808
453.0062, 1816.277
453.4883, 1805.437
453.9704, 1803.490
454.4525, 1808.706
454.9347, 1821.161
455.4168, 1842.411
455.8989, 1856.427
456.3810, 1860.175
456.8631, 1857.059
457.3452, 1844.689
457.8274, 1827.300
458.3095, 1818.528
458.7916, 1832.736
459.2737, 1850.174
459.7558, 1843.426
460.2379, 1817.120
460.7201, 1803.058
461.2022, 1816.483
461.6843, 1841.177
462.1664, 1848.140
462.6485, 1830.439
463.1306, 1822.453
463.6128, 1839.338
464.0949, 1856.879
464.5770, 1854.948
465.0591, 1837.710
465.5412, 1821.568
466.0233, 1816.230
466.5055, 1819.835
466.9876, 1827.869
467.4697, 1848.714
467.9518, 1857.356
468.4339, 1840.903
468.9160, 1821.316
469.3982, 1812.474
469.8803, 1814.774
470.3624, 1821.163
470.8445, 1827.990
471.3266, 1834.915
471.8087, 1841.077
472.2909, 1846.487
472.7730, 1850.962
473.2551, 1852.989
473.7372, 1855.050
474.2193, 1862.197
474.7014, 1876.690
475.1836, 1886.137
475.6657, 1882.056
476.1478, 1872.522
476.6299, 1866.940
477.1120, 1866.128
477.5941, 1866.997
478.0763, 1867.559
478.5584, 1867.814
479.0405, 1867.760
479.5226, 1863.203
480.0047, 1863.854
480.4868, 1874.164
480.9690, 1887.552
481.4511, 1899.853
481.9332, 1909.681
482.4153, 1915.273
482.8974, 1913.140
483.3795, 1905.145
483.8617, 1905.253
484.3438, 1918.489
484.8259, 1928.169
485.3080, 1922.737
485.7901, 1912.486
486.2722, 1907.523
486.7544, 1909.412
487.2365, 1914.491
487.7186, 1920.426
488.2007, 1928.114
488.6828, 1941.453
489.1649, 1960.814
489.6471, 1975.743
490.1292, 1976.274
490.6113, 1966.199
491.0934, 1970.222
491.5755, 2009.688
492.0576, 2033.548
492.5398, 2017.342
493.0219, 1991.213
493.5040, 1988.189
493.9861, 2010.812
494.4682, 2035.341
494.9503, 2038.389
495.4325, 2022.439
495.9146, 2015.056
496.3967, 2016.369
496.8788, 2026.443
497.3609, 2058.294
497.8430, 2091.104
498.3252, 2099.074
498.8073, 2077.089
499.2894, 2059.584
499.7715, 2078.550
500.2536, 2117.050
500.7357, 2135.610
501.2179, 2129.910
501.7000, 2125.188
502.1821, 2139.146
502.6642, 2166.067
503.1463, 2182.823
503.6284, 2182.646
504.1106, 2183.979
504.5927, 2189.628
505.0748, 2198.635
505.5569, 2211.296
506.0390, 2226.822
506.5211, 2243.448
507.0033, 2260.883
507.4854, 2277.378
507.9675, 2279.986
508.4496, 2255.350
508.9317, 2242.628
509.4138, 2264.063
509.8959, 2291.277
510.3781, 2298.764
510.8602, 2284.915
511.3423, 2272.787
511.8244, 2281.775
512.3065, 2300.821
512.7886, 2307.663
513.2708, 2301.560
513.7529, 2296.091
514.2350, 2298.745
514.7171, 2305.916
515.1992, 2309.468
515.6813, 2311.723
516.1635, 2305.758
516.6456, 2276.462
517.1277, 2249.595
517.6098, 2249.091
518.0919, 2270.649
518.5740, 2294.603
519.0562, 2308.706
519.5383, 2314.907
520.0204, 2318.328
520.5025, 2317.655
520.9846, 2317.794
521.4667, 2318.953
521.9489, 2321.677
522.4310, 2326.927
522.9131, 2334.237
523.3952, 2341.723
523.8773, 2348.363
524.3594, 2354.795
524.8416, 2363.021
525.3237, 2372.334
525.8058, 2376.752
526.2879, 2372.495
526.7700, 2367.679
527.2521, 2375.113
527.7343, 2399.853
528.2164, 2416.545
528.6985, 2419.895
529.1806, 2420.883
529.6627, 2427.219
530.1448, 2434.546
530.6270, 2432.111
531.1091, 2415.721
531.5912, 2397.491
532.0733, 2398.229
532.5554, 2420.436
533.0375, 2437.767
533.5197, 2449.055
534.0018, 2455.054
534.4839, 2452.954
534.9660, 2446.866
535.4481, 2444.479
535.9302, 2448.675
536.4124, 2454.338
536.8945, 2457.002
537.3766, 2458.758
537.8587, 2465.679
538.3408, 2478.712
538.8229, 2489.701
539.3051, 2492.254
539.7872, 2486.331
540.2693, 2471.943
540.7514, 2426.757
541.2335, 2401.725
541.7156, 2423.127
542.1978, 2454.742
542.6799, 2459.805
543.1620, 2436.307
543.6441, 2411.851
544.1262, 2409.907
544.6083, 2424.750
545.0905, 2436.341
545.5726, 2443.952
546.0547, 2452.515
546.5368, 2466.502
547.0189, 2480.107
547.5010, 2485.129
547.9832, 2481.074
548.4653, 2474.416
548.9474, 2461.794
549.4295, 2451.336
549.9116, 2452.522
550.3937, 2462.178
550.8759, 2469.599
551.3580, 2469.597
551.8401, 2466.140
552.3222, 2468.180
552.8043, 2481.417
553.2864, 2483.745
553.7686, 2458.910
554.2507, 2438.975
554.7328, 2444.751
555.2149, 2462.258
555.6970, 2463.030
556.1791, 2432.396
556.6613, 2399.528
557.1434, 2397.771
557.6255, 2418.275
558.1076, 2430.273
558.5897, 2428.214
559.0718, 2421.288
559.5540, 2415.634
560.0361, 2411.353
560.5182, 2409.336
561.0003, 2412.386
561.4824, 2413.682
561.9645, 2411.625
562.4467, 2407.504
562.9288, 2400.295
563.4109, 2391.570
563.8930, 2388.102
564.3751, 2398.712
564.8572, 2415.533
565.3394, 2406.347
565.8215, 2362.112
566.3036, 2331.835
566.7857, 2333.308
567.2678, 2350.653
567.7499, 2372.756
568.2321, 2398.564
568.7142, 2410.327
569.1963, 2389.485
569.6784, 2364.960
570.1605, 2357.808
570.6426, 2364.609
571.1248, 2379.897
571.6069, 2401.454
572.0890, 2416.449
572.5711, 2403.479
573.0532, 2355.570
573.5353, 2332.586
574.0175, 2364.151
574.4996, 2384.014
574.9817, 2359.356
575.4638, 2320.416
575.9459, 2305.768
576.4280, 2324.367
576.9102, 2348.552
577.3923, 2360.885
577.8744, 2363.656
578.3565, 2360.467
578.8386, 2351.690
579.3207, 2340.108
579.8029, 2325.338
580.2850, 2311.464
580.7671, 2308.948
581.2492, 2329.608
581.7313, 2339.015
582.2134, 2330.297
582.6956, 2316.718
583.1777, 2298.941
583.6598, 2283.325
584.1419, 2282.517
584.6240, 2303.505
585.1061, 2332.277
585.5883, 2351.617
586.0704, 2361.332
586.5525, 2356.381
587.0346, 2330.263
587.5167, 2304.985
587.9988, 2297.737
588.4810, 2303.611
588.9631, 2304.049
589.4452, 2293.777
589.9273, 2286.020
590.4094, 2283.777
590.8915, 2286.614
591.3737, 2299.178
591.8558, 2317.798
592.3379, 2327.342
592.8200, 2315.892
593.3021, 2291.644
593.7842, 2279.225
594.2664, 2281.265
594.7485, 2285.813
595.2306, 2298.183
595.7127, 2304.683
596.1948, 2290.212
596.6769, 2261.585
597.1591, 2243.217
597.6412, 2248.940
598.1233, 2257.426
598.6054, 2254.588
599.0875, 2244.351
599.5696, 2233.243
600.0518, 2222.807
600.5339, 2212.297
601.0160, 2200.985
601.4981, 2189.047
601.9802, 2178.023
602.4623, 2167.222
602.9445, 2158.647
603.4266, 2155.704
603.9087, 2152.518
604.3908, 2143.707
604.8729, 2130.101
605.3550, 2117.674
605.8372, 2109.140
606.3193, 2103.436
606.8014, 2100.029
607.2835, 2098.522
607.7656, 2098.265
608.2477, 2099.349
608.7299, 2098.553
609.2120, 2092.026
609.6941, 2079.574
610.1762, 2067.143
610.6583, 2048.055
611.1404, 2037.382
611.6226, 2045.017
612.1047, 2057.381
612.5868, 2062.210
613.0689, 2058.152
613.5510, 2050.835
614.0331, 2039.701
614.5153, 2030.412
614.9974, 2038.201
615.4795, 2061.007
615.9616, 2073.853
616.4437, 2066.718
616.9258, 2051.921
617.4080, 2044.922
617.8901, 2047.240
618.3722, 2044.309
618.8543, 2033.033
619.3364, 2020.698
619.8185, 2008.808
620.3007, 1997.424
620.7828, 1985.964
621.2649, 1974.589
621.7470, 1964.618
622.2291, 1958.376
622.7112, 1953.961
623.1934, 1945.209
623.6755, 1931.826
624.1576, 1919.898
624.6397, 1909.538
625.1218, 1905.307
625.6039, 1917.224
626.0861, 1949.779
626.5682, 1963.569
627.0503, 1939.407
627.5324, 1917.373
628.0145, 1916.032
628.4966, 1924.685
628.9788, 1931.228
629.4609, 1931.869
629.9430, 1925.476
630.4251, 1905.603
630.9072, 1879.002
631.3893, 1874.384
631.8715, 1895.108
632.3535, 1908.351
632.8356, 1900.502
633.3177, 1883.495
633.7999, 1871.482
634.2820, 1864.451
634.7641, 1861.656
635.2462, 1865.126
635.7283, 1870.522
636.2104, 1880.658
636.6926, 1889.446
637.1747, 1887.759
637.6568, 1874.352
638.1389, 1856.541
638.6210, 1839.116
639.1031, 1823.386
639.5853, 1816.056
640.0674, 1818.400
640.5495, 1819.829
641.0316, 1816.454
641.5137, 1811.420
641.9958, 1809.156
642.4780, 1809.702
642.9601, 1807.637
643.4422, 1799.406
643.9243, 1792.004
644.4064, 1784.504
644.8885, 1781.520
645.3707, 1792.599
645.8528, 1817.210
646.3349, 1840.405
646.8170, 1849.444
647.2991, 1846.809
647.7813, 1838.314
648.2634, 1822.715
648.7455, 1813.635
649.2276, 1817.525
649.7097, 1825.505
