##NAMES=Kainosite-(Y)
##RRUFFID=R070759
##IDEAL CHEMISTRY=Ca_2_Y_2_(SiO_3_)_4_(CO_3_)&#183;H_2_O
##LOCALITY=Bicroft mine, Cardiff Township, Haliburton Co., Ontario, Canada
##OWNER=RRUFF
##SOURCE=Michael Scott
##DESCRIPTION=Light brown prismatic crystals associated with quartz and green fluorite
##STATUS=The identification of this mineral has been confirmed only by single crystal X-ray diffraction.
##URL=rruff.info/R070759
104.3526, 4001.196
104.8347, 4019.931
105.3168, 4035.000
105.7989, 4040.010
106.2811, 4045.889
106.7632, 4056.405
107.2453, 4072.457
107.7274, 4093.453
108.2095, 4119.441
108.6916, 4157.760
109.1738, 4188.611
109.6559, 4201.677
110.1380, 4212.473
110.6201, 4236.863
111.1022, 4281.645
111.5843, 4340.279
112.0665, 4388.331
112.5486, 4419.400
113.0307, 4447.916
113.5128, 4473.420
113.9949, 4497.950
114.4770, 4526.929
114.9592, 4564.499
115.4413, 4609.768
115.9234, 4651.588
116.4055, 4685.406
116.8876, 4719.126
117.3697, 4759.450
117.8519, 4806.976
118.3340, 4854.797
118.8161, 4895.097
119.2982, 4930.313
119.7803, 4967.692
120.2624, 5014.934
120.7446, 5065.604
121.2267, 5101.733
121.7088, 5110.277
122.1909, 5121.733
122.6730, 5160.564
123.1551, 5222.462
123.6373, 5286.096
124.1194, 5334.575
124.6015, 5366.693
125.0836, 5400.680
125.5657, 5447.746
126.0478, 5490.959
126.5300, 5520.666
127.0121, 5535.598
127.4942, 5541.941
127.9763, 5548.571
128.4584, 5555.880
128.9405, 5562.619
129.4227, 5565.360
129.9048, 5569.057
130.3869, 5580.021
130.8690, 5600.961
131.3511, 5627.157
131.8332, 5641.586
132.3154, 5630.325
132.7975, 5621.632
133.2796, 5615.875
133.7617, 5615.049
134.2438, 5623.129
134.7259, 5643.849
135.2081, 5676.208
135.6902, 5700.927
136.1723, 5709.908
136.6544, 5720.240
137.1365, 5742.535
137.6186, 5775.757
138.1008, 5809.084
138.5829, 5833.974
139.0650, 5849.942
139.5471, 5863.548
140.0292, 5877.626
140.5113, 5888.358
140.9935, 5889.225
141.4756, 5877.316
141.9577, 5864.337
142.4398, 5864.369
142.9219, 5874.572
143.4040, 5882.588
143.8862, 5873.566
144.3683, 5856.494
144.8504, 5863.569
145.3325, 5912.455
145.8146, 5973.678
146.2967, 6025.244
146.7789, 6066.872
147.2610, 6101.545
147.7431, 6130.185
148.2252, 6152.558
148.7073, 6173.281
149.1894, 6188.394
149.6716, 6205.138
150.1537, 6226.956
150.6358, 6254.723
151.1179, 6288.414
151.6000, 6330.782
152.0821, 6393.504
152.5643, 6438.799
153.0464, 6442.982
153.5285, 6440.792
154.0106, 6464.653
154.4927, 6528.749
154.9748, 6619.448
155.4570, 6694.821
155.9391, 6741.503
156.4212, 6787.109
156.9033, 6828.948
157.3854, 6872.412
157.8675, 6924.937
158.3497, 6991.297
158.8318, 7070.463
159.3139, 7148.273
159.7960, 7227.232
160.2781, 7302.751
160.7602, 7374.441
161.2424, 7441.701
161.7245, 7502.679
162.2066, 7554.850
162.6887, 7597.888
163.1708, 7645.161
163.6529, 7707.903
164.1351, 7766.294
164.6172, 7804.162
165.0993, 7821.213
165.5814, 7832.045
166.0635, 7848.797
166.5456, 7871.631
167.0278, 7896.465
167.5099, 7925.163
167.9920, 7954.803
168.4741, 7981.837
168.9562, 8005.579
169.4383, 8027.443
169.9205, 8047.268
170.4026, 8065.652
170.8847, 8087.092
171.3668, 8121.083
171.8489, 8160.316
172.3310, 8181.024
172.8132, 8169.407
173.2953, 8152.371
173.7774, 8154.844
174.2595, 8175.464
174.7416, 8197.896
175.2237, 8213.596
175.7059, 8222.559
176.1880, 8222.348
176.6701, 8209.719
177.1522, 8188.741
177.6343, 8156.498
178.1164, 8113.684
178.5986, 8075.076
179.0807, 8060.926
179.5628, 8078.667
180.0449, 8089.420
180.5270, 8077.770
181.0091, 8063.559
181.4913, 8057.890
181.9734, 8063.974
182.4555, 8079.202
182.9376, 8099.872
183.4197, 8127.992
183.9018, 8158.084
184.3840, 8197.175
184.8661, 8233.802
185.3482, 8254.819
185.8303, 8255.070
186.3124, 8244.793
186.7945, 8250.606
187.2767, 8277.635
187.7588, 8317.520
188.2409, 8378.268
188.7230, 8448.345
189.2051, 8517.007
189.6872, 8580.055
190.1694, 8634.622
190.6515, 8668.147
191.1336, 8654.645
191.6157, 8648.851
192.0978, 8662.953
192.5799, 8691.038
193.0621, 8722.133
193.5442, 8749.871
194.0263, 8774.821
194.5084, 8804.172
194.9905, 8844.648
195.4726, 8881.594
195.9548, 8906.778
196.4369, 8923.255
196.9190, 8942.127
197.4011, 8973.996
197.8832, 9015.646
198.3653, 9034.276
198.8475, 9016.778
199.3296, 8990.063
199.8117, 8963.889
200.2938, 8939.979
200.7759, 8926.397
201.2580, 8935.724
201.7402, 8963.557
202.2223, 8969.901
202.7044, 8935.335
203.1865, 8890.215
203.6686, 8861.392
204.1507, 8850.757
204.6328, 8846.312
205.1150, 8846.073
205.5971, 8845.644
206.0792, 8827.649
206.5613, 8777.329
207.0434, 8711.997
207.5255, 8651.516
208.0077, 8595.294
208.4898, 8550.406
208.9719, 8533.911
209.4540, 8534.481
209.9361, 8525.773
210.4182, 8485.893
210.9004, 8431.483
211.3825, 8403.190
211.8646, 8416.299
212.3467, 8427.917
212.8288, 8406.096
213.3109, 8360.193
213.7931, 8311.679
214.2752, 8269.285
214.7573, 8232.940
215.2394, 8204.028
215.7215, 8186.885
216.2036, 8171.479
216.6858, 8147.581
217.1679, 8119.488
217.6500, 8099.640
218.1321, 8107.015
218.6142, 8137.778
219.0963, 8140.525
219.5785, 8089.021
220.0606, 8035.512
220.5427, 8007.007
221.0248, 7998.277
221.5069, 7989.684
221.9890, 7962.869
222.4712, 7916.660
222.9533, 7878.469
223.4354, 7846.592
223.9175, 7825.676
224.3996, 7828.248
224.8817, 7846.843
225.3639, 7857.962
225.8460, 7832.641
226.3281, 7761.854
226.8102, 7718.340
227.2923, 7732.471
227.7744, 7749.128
228.2566, 7745.818
228.7387, 7723.434
229.2208, 7696.419
229.7029, 7679.679
230.1850, 7675.633
230.6671, 7670.783
231.1493, 7670.088
231.6314, 7664.577
232.1135, 7644.093
232.5956, 7611.885
233.0777, 7583.164
233.5598, 7577.114
234.0420, 7604.832
234.5241, 7614.696
235.0062, 7593.438
235.4883, 7568.507
235.9704, 7555.970
236.4525, 7556.017
236.9347, 7557.594
237.4168, 7547.850
237.8989, 7523.218
238.3810, 7498.188
238.8631, 7473.150
239.3452, 7447.649
239.8274, 7419.095
240.3095, 7388.425
240.7916, 7361.932
241.2737, 7348.542
241.7558, 7358.159
242.2379, 7348.363
242.7201, 7312.591
243.2022, 7265.626
243.6843, 7209.220
244.1664, 7147.171
244.6485, 7091.791
245.1306, 7058.782
245.6128, 7058.358
246.0949, 7049.082
246.5770, 7029.348
247.0591, 7002.868
247.5412, 6968.583
248.0233, 6927.875
248.5055, 6889.052
248.9876, 6862.757
249.4697, 6855.584
249.9518, 6837.450
250.4339, 6794.318
250.9160, 6750.364
251.3982, 6725.291
251.8803, 6721.012
252.3624, 6723.840
252.8445, 6719.839
253.3266, 6707.793
253.8087, 6690.450
254.2909, 6669.330
254.7730, 6642.244
255.2551, 6604.912
255.7372, 6557.564
256.2193, 6507.067
256.7014, 6457.610
257.1836, 6407.283
257.6657, 6379.217
258.1478, 6398.820
258.6299, 6424.387
259.1120, 6416.063
259.5941, 6370.938
260.0763, 6323.553
260.5584, 6308.625
261.0405, 6332.557
261.5226, 6350.056
262.0047, 6357.002
262.4868, 6359.698
262.9690, 6363.109
263.4511, 6367.720
263.9332, 6371.125
264.4153, 6370.183
264.8974, 6364.556
265.3795, 6363.260
265.8617, 6367.308
266.3438, 6375.185
266.8259, 6385.205
267.3080, 6397.346
267.7901, 6414.046
268.2722, 6439.669
268.7544, 6473.979
269.2365, 6499.713
269.7186, 6503.658
270.2007, 6507.797
270.6828, 6535.292
271.1649, 6585.822
271.6471, 6630.755
272.1292, 6643.969
272.6113, 6629.084
273.0934, 6633.934
273.5755, 6672.888
274.0576, 6721.601
274.5398, 6768.353
275.0219, 6811.404
275.5040, 6839.687
275.9861, 6836.350
276.4682, 6809.973
276.9503, 6814.411
277.4325, 6875.066
277.9146, 6946.173
278.3967, 6995.947
278.8788, 7026.378
279.3609, 7055.449
279.8430, 7091.033
280.3252, 7135.128
280.8073, 7189.937
281.2894, 7271.652
281.7715, 7349.384
282.2536, 7401.747
282.7357, 7431.780
283.2179, 7455.460
283.7000, 7478.698
284.1821, 7502.776
284.6642, 7530.468
285.1463, 7555.512
285.6284, 7591.412
286.1106, 7654.002
286.5927, 7736.655
287.0748, 7811.631
287.5569, 7867.072
288.0390, 7906.452
288.5211, 7940.439
289.0033, 7966.949
289.4854, 7992.397
289.9675, 8013.760
290.4496, 8035.472
290.9317, 8073.997
291.4138, 8142.032
291.8960, 8221.872
292.3781, 8277.674
292.8602, 8307.425
293.3423, 8326.631
293.8244, 8334.559
294.3065, 8336.604
294.7887, 8346.447
295.2708, 8370.540
295.7529, 8399.896
296.2350, 8416.724
296.7171, 8418.057
297.1992, 8424.213
297.6814, 8444.508
298.1635, 8473.177
298.6456, 8499.157
299.1277, 8518.521
299.6098, 8538.440
300.0919, 8572.694
300.5741, 8622.975
301.0562, 8665.803
301.5383, 8687.908
302.0204, 8702.091
302.5025, 8726.653
302.9846, 8765.854
303.4668, 8808.631
303.9489, 8842.560
304.4310, 8867.002
304.9131, 8892.959
305.3952, 8908.028
305.8773, 8932.737
306.3595, 9000.293
306.8416, 9114.813
307.3237, 9225.188
307.8058, 9276.710
308.2879, 9266.794
308.7701, 9288.523
309.2522, 9373.114
309.7343, 9471.051
310.2164, 9544.854
310.6985, 9592.901
311.1806, 9632.505
311.6628, 9677.793
312.1449, 9726.670
312.6270, 9760.167
313.1091, 9765.005
313.5912, 9766.806
314.0733, 9783.019
314.5555, 9810.232
315.0376, 9832.602
315.5197, 9839.986
316.0018, 9834.243
316.4839, 9827.796
316.9660, 9826.271
317.4482, 9818.347
317.9303, 9795.603
318.4124, 9763.025
318.8945, 9730.479
319.3766, 9701.572
319.8587, 9678.353
320.3409, 9670.054
320.8230, 9696.672
321.3051, 9708.993
321.7872, 9686.156
322.2693, 9645.295
322.7514, 9613.713
323.2336, 9602.337
323.7157, 9598.582
324.1978, 9576.319
324.6799, 9522.314
325.1620, 9473.190
325.6441, 9434.771
326.1263, 9401.187
326.6083, 9364.736
327.0905, 9323.869
327.5726, 9285.510
328.0547, 9260.240
328.5368, 9259.570
329.0189, 9242.539
329.5010, 9204.872
329.9832, 9155.018
330.4653, 9096.320
330.9474, 9030.477
331.4295, 8960.123
331.9116, 8887.286
332.3937, 8810.865
332.8759, 8738.597
333.3580, 8675.488
333.8401, 8611.206
334.3222, 8539.819
334.8043, 8462.754
335.2864, 8384.489
335.7686, 8308.422
336.2507, 8234.535
336.7328, 8161.539
337.2149, 8080.460
337.6970, 8010.137
338.1791, 7966.738
338.6613, 7935.861
339.1434, 7889.707
339.6255, 7809.924
340.1076, 7709.729
340.5897, 7646.366
341.0718, 7667.716
341.5540, 7667.006
342.0361, 7616.839
342.5182, 7546.051
343.0003, 7483.682
343.4824, 7441.302
343.9645, 7414.949
344.4467, 7398.484
344.9288, 7401.945
345.4109, 7395.645
345.8930, 7373.716
346.3751, 7345.853
346.8572, 7316.888
347.3394, 7288.811
347.8215, 7263.119
348.3036, 7241.198
348.7857, 7222.043
349.2678, 7210.458
349.7499, 7214.207
350.2321, 7219.129
350.7142, 7219.813
351.1963, 7215.815
351.6784, 7208.311
352.1605, 7194.267
352.6426, 7174.323
353.1248, 7171.521
353.6069, 7199.827
354.0890, 7229.295
354.5711, 7248.806
355.0532, 7260.639
355.5353, 7269.739
356.0175, 7277.417
356.4996, 7285.122
356.9817, 7297.163
357.4638, 7314.730
357.9459, 7334.248
358.4280, 7355.702
358.9102, 7377.606
359.3923, 7397.429
359.8744, 7413.074
360.3565, 7429.637
360.8386, 7455.134
361.3207, 7490.750
361.8029, 7525.396
362.2850, 7553.583
362.7671, 7580.561
363.2492, 7610.228
363.7313, 7642.756
364.2134, 7679.615
364.6956, 7729.928
365.1777, 7788.692
365.6598, 7826.408
366.1419, 7825.770
366.6240, 7818.358
367.1061, 7837.058
367.5883, 7879.837
368.0704, 7928.123
368.5525, 7977.287
369.0346, 8026.108
369.5167, 8072.518
369.9988, 8116.413
370.4810, 8157.401
370.9631, 8193.313
371.4452, 8225.594
371.9273, 8262.324
372.4094, 8309.749
372.8915, 8358.199
373.3737, 8393.708
373.8558, 8419.154
374.3379, 8459.326
374.8200, 8534.134
375.3021, 8633.795
375.7842, 8715.248
376.2664, 8762.639
376.7485, 8812.616
377.2306, 8879.407
377.7127, 8958.092
378.1948, 9041.108
378.6769, 9126.497
379.1591, 9209.354
379.6412, 9276.301
380.1233, 9307.140
380.6054, 9360.481
381.0875, 9451.258
381.5696, 9560.220
382.0518, 9671.366
382.5339, 9780.798
383.0160, 9888.227
383.4981, 9991.751
383.9802, 10088.68
384.4623, 10194.96
384.9445, 10322.54
385.4266, 10446.95
385.9087, 10545.73
386.3908, 10629.77
386.8729, 10730.00
387.3550, 10872.00
387.8372, 11051.03
388.3193, 11212.38
388.8014, 11339.58
389.2835, 11466.53
389.7656, 11591.90
390.2477, 11722.08
390.7299, 11866.20
391.2120, 12028.51
391.6941, 12200.69
392.1762, 12367.44
392.6583, 12525.27
393.1404, 12682.92
393.6226, 12848.35
394.1047, 13009.38
394.5868, 13153.86
395.0689, 13281.74
395.5510, 13407.71
396.0331, 13549.13
396.5153, 13705.61
396.9974, 13858.68
397.4795, 14013.05
397.9616, 14155.97
398.4437, 14283.44
398.9258, 14394.86
399.4080, 14489.11
399.8901, 14552.05
400.3722, 14601.34
400.8543, 14690.79
401.3364, 14840.25
401.8185, 14951.53
402.3007, 14939.32
402.7828, 14862.85
403.2649, 14808.89
403.7470, 14798.91
404.2291, 14802.47
404.7112, 14801.13
405.1934, 14793.82
405.6755, 14776.52
406.1576, 14752.58
406.6397, 14710.75
407.1218, 14626.44
407.6039, 14493.51
408.0861, 14362.06
408.5682, 14260.58
409.0503, 14164.96
409.5324, 14038.34
410.0145, 13874.35
410.4966, 13702.24
410.9788, 13552.68
411.4609, 13430.34
411.9430, 13291.57
412.4251, 13127.09
412.9072, 12955.23
413.3893, 12787.62
413.8715, 12621.30
414.3536, 12439.33
414.8357, 12226.27
415.3178, 11997.59
415.7999, 11823.15
416.2820, 11773.92
416.7642, 11693.49
417.2463, 11547.98
417.7284, 11372.94
418.2105, 11201.46
418.6926, 11045.02
419.1747, 10901.02
419.6569, 10766.46
420.1390, 10645.02
420.6211, 10524.59
421.1032, 10395.06
421.5853, 10275.63
422.0674, 10183.43
422.5496, 10111.96
423.0317, 10037.56
423.5138, 9940.364
423.9959, 9824.885
424.4780, 9714.910
424.9601, 9607.329
425.4423, 9512.704
425.9244, 9435.967
426.4065, 9372.280
426.8886, 9318.101
427.3707, 9276.647
427.8528, 9233.498
428.3350, 9167.425
428.8171, 9077.895
429.2992, 8990.983
429.7813, 8915.596
430.2634, 8844.287
430.7455, 8765.263
431.2277, 8677.311
431.7098, 8601.361
432.1919, 8554.625
432.6740, 8524.843
433.1561, 8489.674
433.6382, 8446.093
434.1204, 8399.307
434.6025, 8351.813
435.0846, 8304.080
435.5667, 8261.145
436.0488, 8223.095
436.5309, 8189.993
437.0131, 8166.631
437.4952, 8148.718
437.9773, 8123.074
438.4594, 8082.214
438.9415, 8032.427
439.4236, 7990.763
439.9058, 7957.931
440.3879, 7932.288
440.8700, 7917.960
441.3521, 7908.188
441.8342, 7900.604
442.3163, 7892.899
442.7985, 7877.585
443.2806, 7843.436
443.7627, 7785.576
444.2448, 7744.644
444.7269, 7739.686
445.2090, 7732.731
445.6912, 7710.999
446.1733, 7678.770
446.6554, 7645.340
447.1375, 7615.506
447.6196, 7587.726
448.1017, 7556.031
448.5839, 7515.673
449.0660, 7485.026
449.5481, 7478.082
450.0302, 7476.981
450.5123, 7470.693
450.9944, 7457.379
451.4766, 7435.805
451.9587, 7398.600
452.4408, 7350.494
452.9229, 7315.978
453.4050, 7303.066
453.8871, 7291.920
454.3693, 7259.671
454.8514, 7214.555
455.3335, 7182.680
455.8156, 7176.763
456.2977, 7180.901
456.7798, 7186.535
457.2620, 7191.721
457.7441, 7184.951
458.2262, 7157.374
458.7083, 7118.644
459.1904, 7095.616
459.6725, 7096.259
460.1547, 7094.530
460.6368, 7079.594
461.1189, 7063.395
461.6010, 7064.000
462.0831, 7082.257
462.5652, 7095.742
463.0474, 7077.093
463.5295, 7018.812
464.0116, 6994.599
464.4937, 7037.874
464.9758, 7077.468
465.4579, 7090.445
465.9401, 7084.328
466.4222, 7073.601
466.9043, 7065.332
467.3864, 7057.726
467.8685, 7046.920
468.3506, 7032.418
468.8328, 7016.011
469.3149, 6999.310
469.7970, 6979.892
470.2791, 6952.047
470.7612, 6917.187
471.2433, 6888.216
471.7255, 6876.842
472.2076, 6879.451
472.6897, 6884.451
473.1718, 6893.181
473.6539, 6898.811
474.1360, 6895.992
474.6182, 6886.884
475.1003, 6875.413
475.5824, 6861.607
476.0645, 6846.294
476.5466, 6823.425
477.0287, 6798.764
477.5109, 6792.772
477.9930, 6815.248
478.4751, 6849.014
478.9572, 6866.313
479.4393, 6859.229
479.9214, 6861.271
480.4036, 6877.530
480.8857, 6900.675
481.3678, 6926.089
481.8499, 6953.562
482.3320, 6984.659
482.8141, 7020.641
483.2963, 7061.127
483.7784, 7104.335
484.2605, 7165.239
484.7426, 7207.694
485.2247, 7220.933
485.7068, 7217.574
486.1890, 7206.955
486.6711, 7192.356
487.1532, 7176.915
487.6353, 7165.704
488.1174, 7159.157
488.5995, 7147.023
489.0817, 7133.095
489.5638, 7106.801
490.0459, 7051.286
490.5280, 6980.615
491.0101, 6927.146
491.4922, 6908.223
491.9743, 6907.190
492.4565, 6910.381
492.9386, 6916.859
493.4207, 6912.626
493.9028, 6889.654
494.3849, 6856.463
494.8670, 6822.729
495.3492, 6781.058
495.8313, 6766.142
496.3134, 6812.937
496.7955, 6873.859
497.2776, 6898.762
497.7597, 6885.345
498.2419, 6861.555
498.7240, 6847.425
499.2061, 6843.172
499.6882, 6851.928
500.1703, 6883.440
500.6524, 6916.265
501.1346, 6954.325
501.6167, 6988.521
502.0988, 7003.211
502.5809, 6995.697
503.0630, 6988.477
503.5451, 7014.554
504.0273, 7079.565
504.5094, 7137.014
504.9915, 7182.412
505.4736, 7223.449
505.9557, 7262.452
506.4378, 7300.205
506.9200, 7339.507
507.4021, 7387.446
507.8842, 7430.167
508.3663, 7435.962
508.8484, 7406.897
509.3305, 7407.722
509.8127, 7471.113
510.2948, 7562.726
510.7769, 7631.616
511.2590, 7676.476
511.7411, 7716.583
512.2233, 7757.461
512.7054, 7795.157
513.1875, 7820.800
513.6696, 7836.780
514.1517, 7861.675
514.6339, 7911.821
515.1160, 7980.086
515.5981, 8019.178
516.0802, 8003.033
516.5623, 7989.094
517.0444, 7979.354
517.5266, 7976.174
518.0087, 7983.054
518.4908, 7999.904
518.9729, 8021.261
519.4550, 8041.247
519.9371, 8059.769
520.4193, 8081.884
520.9014, 8115.610
521.3835, 8140.373
521.8656, 8140.631
522.3477, 8128.823
522.8298, 8124.439
523.3120, 8134.402
523.7941, 8150.885
524.2762, 8167.998
524.7583, 8185.394
525.2404, 8201.836
525.7225, 8217.204
526.2047, 8230.906
526.6868, 8243.367
527.1689, 8254.878
527.6510, 8258.363
528.1331, 8243.301
528.6152, 8228.732
529.0974, 8233.543
529.5795, 8249.600
530.0616, 8251.540
530.5437, 8225.396
531.0258, 8184.542
531.5079, 8161.857
531.9901, 8165.558
532.4722, 8173.520
532.9543, 8195.628
533.4364, 8212.648
533.9185, 8211.933
534.4006, 8194.730
534.8828, 8169.888
535.3649, 8143.213
535.8470, 8113.919
536.3291, 8076.441
536.8112, 8025.237
537.2933, 7986.869
537.7755, 7980.359
538.2576, 7986.847
538.7397, 7986.190
539.2218, 7977.078
539.7039, 7961.252
540.1860, 7943.908
540.6682, 7918.694
541.1503, 7870.080
541.6324, 7797.245
542.1145, 7726.325
542.5966, 7679.473
543.0787, 7651.976
543.5609, 7603.074
544.0430, 7505.296
544.5251, 7423.191
545.0072, 7383.340
545.4893, 7358.578
545.9714, 7320.316
546.4536, 7262.305
546.9357, 7195.492
547.4178, 7130.204
547.8999, 7066.217
548.3820, 7008.941
548.8641, 6962.539
549.3463, 6916.919
549.8284, 6868.708
550.3105, 6818.742
550.7926, 6768.482
551.2747, 6719.376
551.7568, 6666.423
552.2390, 6597.794
552.7211, 6519.811
553.2032, 6461.458
553.6853, 6431.419
554.1674, 6409.501
554.6495, 6380.113
555.1317, 6342.281
555.6138, 6294.818
556.0959, 6224.931
556.5780, 6158.447
557.0601, 6103.431
557.5422, 6061.047
558.0244, 6038.803
558.5065, 6038.643
558.9886, 6041.702
559.4707, 6015.850
559.9528, 5948.085
560.4349, 5903.907
560.9171, 5916.544
561.3992, 5920.947
561.8813, 5890.357
562.3634, 5836.226
562.8455, 5779.111
563.3276, 5725.604
563.8098, 5679.507
564.2919, 5650.803
564.7740, 5638.032
565.2561, 5616.214
565.7382, 5575.779
566.2203, 5531.547
566.7025, 5501.047
567.1846, 5482.639
567.6667, 5460.121
568.1488, 5421.739
568.6309, 5387.019
569.1130, 5374.654
569.5952, 5375.630
570.0773, 5367.158
570.5594, 5339.715
571.0415, 5302.127
571.5236, 5268.771
572.0057, 5233.905
572.4879, 5219.185
572.9700, 5250.177
573.4520, 5274.875
573.9341, 5267.473
574.4163, 5236.771
574.8984, 5203.250
575.3805, 5175.588
575.8626, 5153.086
576.3447, 5135.332
576.8268, 5122.387
577.3090, 5110.161
577.7911, 5095.105
578.2732, 5084.517
578.7553, 5091.494
579.2374, 5113.462
579.7195, 5125.500
580.2017, 5117.275
580.6838, 5102.798
581.1659, 5092.954
581.6480, 5084.648
582.1301, 5065.219
582.6122, 5028.828
583.0944, 4991.402
583.5765, 4983.930
584.0586, 5025.908
584.5407, 5041.995
585.0228, 5003.544
585.5049, 4969.453
585.9871, 4967.325
586.4692, 4987.448
586.9513, 5008.273
587.4334, 5020.597
587.9155, 5027.435
588.3976, 5032.231
588.8798, 5035.063
589.3619, 5036.914
589.8440, 5036.728
590.3261, 5037.943
590.8082, 5045.794
591.2903, 5059.161
591.7725, 5069.340
592.2546, 5071.181
592.7367, 5073.429
593.2188, 5079.617
593.7009, 5090.167
594.1830, 5106.656
594.6652, 5129.471
595.1473, 5154.822
595.6294, 5178.505
596.1115, 5202.891
596.5936, 5214.002
597.0757, 5187.129
597.5579, 5172.909
598.0400, 5198.502
598.5221, 5243.767
599.0042, 5276.685
599.4863, 5284.301
599.9684, 5284.936
600.4506, 5297.565
