##NAMES=Kainite
##RRUFFID=R100021
##IDEAL CHEMISTRY=KMg(S^6+^O_4_)Cl&#183;3H_2_O
##LOCALITY=Leopoldshall, Stassfurt, Stassfurt Deposit, Saxony-Anhalt, Germany
##OWNER=RRUFF
##SOURCE=Michael Scott 
##DESCRIPTION=Colorless grains associated with carnallite R070291 and pentahydrite R100022
##STATUS=The identification of this mineral has been confirmed by single-crystal X-ray diffraction.
##URL=rruff.info/R100021
91.18097, 0.0000000E+00
91.66309, 732.2050
92.14520, 738.1769
92.62732, 744.1129
93.10944, 742.8665
93.59155, 738.3492
94.07367, 734.4459
94.55579, 732.3474
95.03790, 729.3553
95.52002, 722.4627
96.00214, 711.4332
96.48425, 698.5262
96.96637, 682.6431
97.44849, 666.9731
97.93060, 653.7102
98.41272, 642.8720
98.89484, 633.0946
99.37695, 623.2947
99.85907, 612.1271
100.3412, 602.8422
100.8233, 595.9083
101.3054, 590.6557
101.7875, 586.4244
102.2697, 582.8082
102.7518, 579.7657
103.2339, 576.3488
103.7160, 571.5151
104.1981, 567.2555
104.6802, 565.1319
105.1624, 564.7580
105.6445, 563.7929
106.1266, 559.9564
106.6087, 553.0992
107.0908, 546.1075
107.5729, 538.5046
108.0551, 531.0206
108.5372, 524.6053
109.0193, 519.4586
109.5014, 515.0870
109.9835, 511.2446
110.4656, 507.7911
110.9478, 504.3726
111.4299, 500.6078
111.9120, 496.5947
112.3941, 493.1566
112.8762, 490.8200
113.3583, 488.7540
113.8405, 486.5002
114.3226, 484.0361
114.8047, 481.4991
115.2868, 478.9930
115.7689, 476.3557
116.2510, 474.1986
116.7332, 472.6117
117.2153, 471.3917
117.6974, 470.4017
118.1795, 469.5956
118.6616, 469.0385
119.1437, 468.8872
119.6259, 469.2771
120.1080, 469.9810
120.5901, 471.1384
121.0722, 472.5544
121.5543, 474.1670
122.0364, 476.0243
122.5186, 477.8706
123.0007, 478.1556
123.4828, 475.4953
123.9649, 473.1205
124.4470, 472.3238
124.9291, 472.8411
125.4113, 473.6317
125.8934, 474.2184
126.3755, 474.4701
126.8576, 474.1713
127.3397, 472.4204
127.8218, 470.6470
128.3040, 470.2316
128.7861, 471.3147
129.2682, 473.0821
129.7503, 475.9983
130.2324, 479.1834
130.7145, 480.9755
131.1967, 480.1707
131.6788, 477.4669
132.1609, 474.9511
132.6430, 472.5843
133.1251, 470.4674
133.6072, 468.4745
134.0894, 466.7031
134.5715, 465.3746
135.0536, 464.7854
135.5357, 465.0038
136.0178, 465.0431
136.4999, 464.7979
136.9821, 464.4518
137.4642, 464.2609
137.9463, 464.1093
138.4284, 463.5972
138.9105, 462.2885
139.3926, 460.1732
139.8748, 457.0707
140.3569, 452.2018
140.8390, 447.0678
141.3211, 442.8104
141.8032, 439.6738
142.2853, 436.8864
142.7675, 433.1940
143.2496, 427.9341
143.7317, 422.9621
144.2138, 418.8199
144.6959, 414.8740
145.1780, 410.1146
145.6602, 404.0358
146.1423, 397.5019
146.6244, 392.4597
147.1065, 389.3044
147.5886, 386.0386
148.0707, 381.2601
148.5529, 375.5728
149.0350, 371.1653
149.5171, 369.2021
149.9992, 368.8499
150.4813, 368.5677
150.9634, 368.4740
151.4456, 368.1003
151.9277, 366.7556
152.4098, 364.2963
152.8919, 362.3203
153.3740, 362.3785
153.8561, 362.8012
154.3383, 362.0665
154.8204, 359.5229
155.3025, 356.3620
155.7846, 354.5969
156.2667, 354.6760
156.7488, 355.3041
157.2310, 356.8217
157.7131, 358.3559
158.1952, 358.8598
158.6773, 357.7059
159.1594, 355.4753
159.6415, 354.4250
160.1237, 356.0172
160.6058, 357.1358
161.0879, 357.1293
161.5700, 356.3592
162.0521, 355.3073
162.5342, 354.2506
163.0164, 353.2011
163.4985, 352.4703
163.9806, 351.9604
164.4627, 351.8228
164.9448, 352.3802
165.4269, 353.3937
165.9091, 354.3121
166.3912, 354.7345
166.8733, 354.6342
167.3554, 354.3331
167.8375, 354.2305
168.3196, 353.6463
168.8018, 351.7280
169.2839, 348.6379
169.7660, 345.8597
170.2481, 344.7129
170.7302, 345.2338
171.2123, 345.8078
171.6945, 346.2969
172.1766, 346.8539
172.6587, 347.4995
173.1408, 348.1849
173.6229, 349.3430
174.1050, 351.8837
174.5872, 355.3236
175.0693, 358.3385
175.5514, 360.2268
176.0335, 361.4877
176.5156, 363.1598
176.9977, 365.5457
177.4799, 367.8754
177.9620, 369.8016
178.4441, 371.3104
178.9262, 372.2631
179.4083, 372.4861
179.8904, 372.0430
180.3726, 371.2872
180.8547, 369.8108
181.3368, 368.5165
181.8189, 368.0501
182.3010, 368.1567
182.7831, 368.1153
183.2653, 367.0796
183.7474, 364.9159
184.2295, 363.7882
184.7116, 365.1237
185.1937, 366.3651
185.6758, 366.7940
186.1580, 366.3409
186.6401, 365.1750
187.1222, 363.2749
187.6043, 360.2398
188.0864, 358.2674
188.5685, 358.2064
189.0507, 358.3356
189.5328, 357.7055
190.0149, 356.3231
190.4970, 354.8954
190.9791, 354.2343
191.4612, 354.5951
191.9434, 355.0671
192.4255, 356.3478
192.9076, 357.2471
193.3897, 356.8032
193.8718, 354.9188
194.3539, 352.3416
194.8361, 349.9041
195.3182, 347.4235
195.8003, 345.8428
196.2824, 346.3167
196.7645, 347.1085
197.2466, 346.3098
197.7288, 343.4706
198.2109, 340.0811
198.6930, 338.2174
199.1751, 338.0843
199.6572, 337.8252
200.1393, 337.2608
200.6215, 336.3680
201.1036, 334.7886
201.5857, 332.1450
202.0678, 329.8087
202.5499, 330.3813
203.0320, 333.6173
203.5142, 335.5296
203.9963, 333.4707
204.4784, 329.0804
204.9605, 326.4972
205.4426, 327.2291
205.9247, 328.6030
206.4069, 327.3984
206.8890, 324.0086
207.3711, 321.6140
207.8532, 323.0019
208.3353, 327.2650
208.8174, 329.7387
209.2996, 329.1205
209.7817, 327.2179
210.2638, 324.7432
210.7459, 321.9886
211.2280, 320.2978
211.7101, 321.5087
212.1923, 325.5023
212.6744, 327.8200
213.1565, 327.0139
213.6386, 325.3182
214.1207, 323.4145
214.6028, 321.5341
215.0850, 320.1030
215.5671, 319.8269
216.0492, 320.9391
216.5313, 321.3004
217.0134, 320.7155
217.4955, 319.4473
217.9777, 317.0887
218.4598, 313.9468
218.9419, 310.9351
219.4240, 309.0355
219.9061, 308.4608
220.3882, 307.9617
220.8704, 307.5822
221.3525, 307.2344
221.8346, 306.8913
222.3167, 306.5453
222.7988, 306.1846
223.2809, 305.7640
223.7631, 305.1836
224.2452, 304.9843
224.7273, 305.8172
225.2094, 306.4105
225.6915, 305.8810
226.1736, 304.3587
226.6558, 302.7315
227.1379, 301.9430
227.6200, 302.2201
228.1021, 302.3952
228.5842, 302.5692
229.0663, 302.5819
229.5485, 302.0729
230.0306, 301.1725
230.5127, 300.5649
230.9948, 300.9964
231.4769, 302.7289
231.9590, 304.1533
232.4412, 305.0190
232.9233, 305.8015
233.4054, 306.8276
233.8875, 308.1035
234.3696, 309.4298
234.8517, 310.6323
235.3339, 311.6950
235.8160, 312.6007
236.2981, 313.0087
236.7802, 313.5057
237.2623, 314.7547
237.7444, 316.7271
238.2266, 318.4903
238.7087, 319.0816
239.1908, 318.5509
239.6729, 318.6790
240.1550, 319.6082
240.6371, 321.1585
241.1193, 324.0385
241.6014, 328.2297
242.0835, 330.7768
242.5656, 328.1032
243.0477, 321.7377
243.5298, 318.2675
244.0120, 321.0068
244.4941, 325.2149
244.9762, 326.3442
245.4583, 324.2232
245.9404, 321.3957
246.4225, 319.0820
246.9047, 317.2977
247.3868, 316.1126
247.8689, 316.1310
248.3510, 316.2450
248.8331, 315.0238
249.3152, 312.3089
249.7974, 309.7954
250.2795, 308.4831
250.7616, 307.9009
251.2437, 307.4894
251.7258, 307.2340
252.2079, 306.9745
252.6901, 306.4370
253.1722, 305.5615
253.6543, 304.8665
254.1364, 304.4986
254.6185, 304.4923
255.1006, 305.1181
255.5828, 306.6937
256.0649, 308.1640
256.5470, 307.9796
257.0291, 305.8266
257.5112, 303.9903
257.9933, 303.4576
258.4755, 303.4672
258.9576, 303.5313
259.4397, 303.5447
259.9218, 303.6172
260.4039, 304.0470
260.8860, 304.9964
261.3682, 305.3744
261.8503, 304.2145
262.3324, 302.8149
262.8145, 301.8724
263.2966, 301.5233
263.7787, 301.6412
264.2609, 302.2694
264.7430, 303.5737
265.2251, 304.4527
265.7072, 304.4412
266.1893, 304.1616
266.6714, 303.6272
267.1536, 302.9700
267.6357, 302.7492
268.1178, 303.7631
268.5999, 306.2819
269.0820, 308.4374
269.5641, 310.5392
270.0463, 311.9049
270.5284, 311.7226
271.0105, 310.2889
271.4926, 308.8319
271.9747, 308.5635
272.4568, 309.6247
272.9390, 310.6257
273.4211, 311.7884
273.9032, 312.6770
274.3853, 313.1089
274.8674, 313.1239
275.3495, 312.8466
275.8317, 312.3246
276.3138, 311.5547
276.7959, 310.9113
277.2780, 310.8101
277.7601, 310.4302
278.2422, 309.4706
278.7244, 308.0639
279.2065, 306.4840
279.6886, 304.9024
280.1707, 303.3206
280.6528, 301.7975
281.1349, 301.2083
281.6171, 299.6813
282.0992, 296.6328
282.5813, 292.4713
283.0634, 287.5010
283.5455, 281.7762
284.0276, 275.7980
284.5098, 271.8965
284.9919, 272.3716
285.4740, 272.2576
285.9561, 270.5533
286.4382, 268.0707
286.9203, 265.7756
287.4025, 264.1197
287.8846, 262.8602
288.3667, 261.3875
288.8488, 259.8988
289.3309, 257.8381
289.8130, 254.4574
290.2952, 250.9026
290.7773, 248.3311
291.2594, 247.1018
291.7415, 246.5410
292.2236, 245.4652
292.7057, 243.7759
293.1879, 241.6502
293.6700, 238.1994
294.1521, 234.9432
294.6342, 233.3905
295.1163, 233.6509
295.5984, 234.3143
296.0806, 233.4329
296.5627, 230.1434
297.0448, 227.7941
297.5269, 227.1483
298.0090, 226.6558
298.4911, 225.1524
298.9733, 222.7619
299.4554, 220.6150
299.9375, 219.9344
300.4196, 221.0564
300.9017, 221.4021
301.3839, 220.3941
301.8660, 219.3121
302.3481, 218.5557
302.8302, 218.1685
303.3123, 218.2327
303.7944, 218.9827
304.2766, 220.3442
304.7587, 219.7039
305.2408, 214.4885
305.7229, 210.1840
306.2050, 208.2513
306.6871, 208.2456
307.1693, 209.5381
307.6514, 211.8954
308.1335, 214.8338
308.6156, 216.0854
309.0977, 213.3887
309.5798, 211.5983
310.0620, 211.9505
310.5441, 213.2090
311.0262, 213.8045
311.5083, 213.1048
311.9904, 211.6496
312.4725, 210.6073
312.9547, 209.5848
313.4368, 209.6418
313.9189, 212.3003
314.4010, 215.1175
314.8831, 215.4895
315.3652, 212.9924
315.8474, 209.8020
316.3295, 209.1571
316.8116, 212.8235
317.2937, 214.3572
317.7758, 212.2200
318.2579, 209.4845
318.7401, 207.8958
319.2222, 207.6295
319.7043, 208.0280
320.1864, 208.5134
320.6685, 209.1170
321.1506, 209.5335
321.6328, 209.8028
322.1149, 209.8831
322.5970, 209.5809
323.0791, 209.0636
323.5612, 208.7450
324.0433, 208.9502
324.5255, 209.5957
325.0076, 209.7675
325.4897, 208.7451
325.9718, 208.0668
326.4539, 208.2615
326.9360, 208.9113
327.4182, 209.4512
327.9003, 209.6155
328.3824, 209.4404
328.8645, 209.0099
329.3466, 207.7514
329.8287, 207.0254
330.3109, 207.3265
330.7930, 207.9245
331.2751, 208.1154
331.7572, 207.7146
332.2393, 207.0815
332.7214, 206.7844
333.2036, 207.0520
333.6857, 207.1320
334.1678, 206.8603
334.6499, 206.5654
335.1320, 206.2558
335.6141, 206.0549
336.0963, 206.3751
336.5784, 207.8506
337.0605, 210.8238
337.5426, 211.9828
338.0247, 209.0812
338.5068, 206.6939
338.9890, 206.9020
339.4711, 208.8370
339.9532, 210.4644
340.4353, 210.3906
340.9174, 208.9199
341.3995, 208.0257
341.8817, 208.1649
342.3638, 208.3886
342.8459, 208.8654
343.3280, 209.2322
343.8101, 208.9262
344.2922, 207.7095
344.7744, 206.1315
345.2565, 205.3990
345.7386, 205.8793
346.2207, 206.5496
346.7028, 207.6468
347.1849, 208.6549
347.6671, 209.2214
348.1492, 209.2774
348.6313, 208.9340
349.1134, 208.2235
349.5955, 207.0001
350.0776, 206.0698
350.5598, 205.5215
351.0419, 205.1948
351.5240, 205.3432
352.0061, 205.7101
352.4882, 205.5913
352.9703, 204.1597
353.4525, 201.6702
353.9346, 200.8722
354.4167, 203.3982
354.8988, 205.4929
355.3809, 205.7408
355.8630, 205.0284
356.3452, 204.5252
356.8273, 204.7585
357.3094, 205.5466
357.7915, 206.6775
358.2736, 208.5892
358.7557, 209.6589
359.2379, 209.0176
359.7200, 207.7590
360.2021, 206.6385
360.6842, 205.8240
361.1663, 205.1049
361.6484, 204.0164
362.1306, 202.4586
362.6127, 201.8794
363.0948, 203.5585
363.5769, 205.1892
364.0590, 205.3505
364.5411, 204.2695
365.0233, 203.0634
365.5054, 202.5094
365.9875, 202.4543
366.4696, 202.2075
366.9517, 201.6242
367.4338, 201.1314
367.9160, 200.9329
368.3981, 200.9563
368.8802, 201.1687
369.3623, 201.7392
369.8444, 202.2313
370.3265, 201.5578
370.8087, 199.4387
371.2908, 198.6929
371.7729, 202.1152
372.2550, 206.2897
372.7371, 207.3438
373.2192, 204.5623
373.7014, 201.1551
374.1835, 199.2493
374.6656, 198.6643
375.1477, 198.6068
375.6298, 199.0331
376.1119, 199.7961
376.5941, 200.9940
377.0762, 202.5074
377.5583, 203.5968
378.0404, 204.0002
378.5225, 203.8147
379.0046, 202.8242
379.4868, 200.8942
379.9689, 199.5695
380.4510, 200.5266
380.9331, 202.8507
381.4152, 203.6573
381.8973, 201.4684
382.3795, 199.1429
382.8616, 198.6242
383.3437, 199.5863
383.8258, 200.8344
384.3079, 202.1052
384.7900, 203.0800
385.2722, 202.8467
385.7543, 200.9400
386.2364, 199.7435
386.7185, 200.0380
387.2006, 201.3488
387.6827, 203.4888
388.1649, 206.4216
388.6470, 208.8939
389.1291, 209.3891
389.6112, 207.5499
390.0933, 206.7508
390.5754, 207.9266
391.0576, 209.3013
391.5397, 209.8614
392.0218, 209.6803
392.5039, 209.1339
392.9860, 208.3292
393.4681, 207.4889
393.9503, 207.7473
394.4324, 210.7637
394.9145, 212.7311
395.3966, 211.9263
395.8787, 210.2628
396.3608, 210.2263
396.8430, 212.5277
397.3251, 215.6685
397.8072, 217.3956
398.2893, 217.1653
398.7714, 216.9070
399.2535, 216.6481
399.7357, 216.3420
400.2178, 215.7087
400.6999, 214.9553
401.1820, 214.7296
401.6641, 215.6396
402.1462, 217.5516
402.6284, 218.7458
403.1105, 218.1767
403.5926, 218.1194
404.0747, 219.6652
404.5568, 221.6569
405.0389, 222.5532
405.5211, 221.7635
406.0032, 220.3039
406.4853, 219.8882
406.9674, 220.6373
407.4495, 222.0807
407.9316, 225.4926
408.4138, 228.5193
408.8959, 229.1615
409.3780, 227.8575
409.8601, 227.1001
410.3422, 229.3961
410.8243, 234.2630
411.3065, 237.8058
411.7886, 239.7542
412.2707, 240.7597
412.7528, 240.3597
413.2349, 239.5196
413.7170, 239.7762
414.1992, 241.9982
414.6813, 244.7365
415.1634, 245.7033
415.6455, 244.7596
416.1276, 244.8029
416.6097, 247.2557
417.0919, 250.5884
417.5740, 253.0279
418.0561, 254.5214
418.5382, 256.4459
419.0203, 259.3557
419.5024, 263.2408
419.9846, 268.5565
420.4667, 275.7646
420.9488, 282.4147
421.4309, 285.6821
421.9130, 286.6440
422.3951, 289.3685
422.8773, 296.0101
423.3594, 303.0485
423.8415, 307.7285
424.3236, 310.6581
424.8057, 314.0872
425.2878, 318.8932
425.7700, 324.9029
426.2521, 332.0602
426.7342, 340.9268
427.2163, 349.1533
427.6984, 355.5774
428.1805, 361.6331
428.6627, 368.6813
429.1448, 376.9747
429.6269, 386.2228
430.1090, 396.2758
430.5911, 407.2305
431.0732, 418.1989
431.5554, 428.1017
432.0375, 439.2049
432.5196, 452.8805
433.0017, 468.1944
433.4838, 483.9243
433.9659, 499.4796
434.4481, 514.3806
434.9302, 527.6511
435.4123, 538.7297
435.8944, 548.9409
436.3765, 558.7421
436.8586, 567.4642
437.3408, 574.6863
437.8229, 580.3586
438.3050, 584.4933
438.7871, 586.7494
439.2692, 587.2924
439.7513, 589.0790
440.2335, 593.1477
440.7156, 597.0219
441.1977, 599.9587
441.6798, 602.3290
442.1619, 604.7156
442.6440, 607.3979
443.1262, 609.7055
443.6083, 610.6271
444.0904, 610.0725
444.5725, 609.2372
445.0546, 608.3318
445.5367, 607.1851
446.0189, 605.6682
446.5010, 603.8109
446.9831, 601.7956
447.4652, 600.8315
447.9473, 599.4352
448.4294, 594.3318
448.9116, 585.1012
449.3937, 575.3294
449.8758, 568.2238
450.3579, 561.3781
450.8400, 549.7676
451.3221, 531.6849
451.8043, 511.9825
452.2864, 492.4351
452.7685, 473.2138
453.2506, 454.9810
453.7327, 437.9225
454.2148, 421.2478
454.6970, 403.7290
455.1791, 384.9567
455.6612, 368.6162
456.1433, 355.1116
456.6254, 343.6851
457.1075, 334.2029
457.5897, 326.3706
458.0718, 319.4022
458.5539, 312.8133
459.0360, 307.5972
459.5181, 302.0975
460.0002, 299.4918
460.4824, 297.0869
460.9645, 295.4149
461.4466, 293.5549
461.9287, 290.3350
462.4108, 285.8965
462.8929, 281.7943
463.3751, 279.7209
463.8572, 279.6995
464.3393, 278.7613
464.8214, 276.2746
465.3035, 273.5782
465.7856, 271.0921
466.2678, 268.5932
466.7499, 265.5689
467.2320, 261.7703
467.7141, 258.0669
468.1962, 256.1653
468.6783, 256.3375
469.1605, 255.1401
469.6426, 251.1927
470.1247, 246.5867
470.6068, 242.5988
471.0889, 239.2308
471.5710, 236.3596
472.0532, 234.5715
472.5353, 232.9597
473.0174, 229.9934
473.4995, 225.6307
473.9816, 220.8460
474.4637, 215.5110
474.9459, 210.4900
475.4280, 207.4599
475.9101, 207.0256
476.3922, 206.6256
476.8743, 205.2506
477.3564, 203.3314
477.8386, 201.4551
478.3207, 199.7143
478.8028, 198.0830
479.2849, 196.7563
479.7670, 195.7127
480.2491, 193.0084
480.7313, 185.2204
481.2134, 179.8183
481.6955, 181.1767
482.1776, 186.0686
482.6597, 189.5150
483.1418, 189.6826
483.6240, 188.2749
484.1061, 188.1434
484.5882, 190.0266
485.0703, 191.0873
485.5524, 190.7788
486.0345, 190.2455
486.5167, 189.9678
486.9988, 189.8833
487.4809, 189.7771
487.9630, 189.5715
488.4451, 189.1567
488.9272, 187.9229
489.4094, 185.1546
489.8915, 183.8185
490.3736, 186.2893
490.8557, 189.4096
491.3378, 191.2977
491.8199, 191.7425
492.3021, 191.0943
492.7842, 188.5240
493.2663, 185.1722
493.7484, 184.0174
494.2305, 185.4675
494.7126, 187.6246
495.1948, 189.9866
495.6769, 192.0429
496.1590, 192.6275
496.6411, 191.0940
497.1232, 189.2416
497.6053, 187.4737
498.0875, 186.0723
498.5696, 185.5229
499.0517, 185.9368
499.5338, 187.2146
500.0159, 189.4880
500.4980, 192.9217
500.9802, 195.1595
501.4623, 195.8385
501.9444, 195.8978
502.4265, 195.1659
502.9086, 194.1976
503.3907, 194.0424
503.8729, 195.0954
504.3550, 196.4038
504.8371, 196.1020
505.3192, 193.1886
505.8013, 191.4329
506.2834, 191.6451
506.7656, 192.2288
507.2477, 192.3540
507.7298, 192.3093
508.2119, 192.9766
508.6940, 195.0768
509.1761, 197.7297
509.6583, 199.0435
510.1404, 198.7876
510.6225, 198.4837
511.1046, 198.4105
511.5867, 198.5782
512.0688, 199.1749
512.5510, 200.1565
513.0331, 200.7482
513.5152, 200.3288
513.9973, 199.4233
514.4794, 198.6733
514.9615, 198.1137
515.4437, 197.9025
515.9258, 198.1373
516.4079, 198.7765
516.8900, 199.8162
517.3721, 201.9735
517.8542, 203.0649
518.3364, 201.5226
518.8185, 199.3308
519.3006, 198.6529
519.7827, 199.6405
520.2648, 200.9986
520.7469, 201.6475
521.2291, 201.6259
521.7112, 201.5124
522.1933, 201.2980
522.6754, 200.9906
523.1575, 199.9010
523.6396, 199.1000
524.1218, 200.2808
524.6039, 203.5186
525.0860, 206.3915
525.5681, 205.6926
526.0502, 201.5289
526.5323, 199.3008
527.0145, 199.8556
527.4966, 200.9360
527.9787, 201.7134
528.4608, 202.2481
528.9429, 202.5367
529.4250, 202.4568
529.9072, 202.5380
530.3893, 203.7265
530.8714, 205.4774
531.3535, 205.6637
531.8356, 203.5436
532.3177, 201.3626
532.7999, 201.4729
533.2820, 203.7457
533.7641, 204.8218
534.2462, 203.7172
534.7283, 202.3857
535.2104, 201.6387
535.6926, 201.2923
536.1747, 200.9285
536.6568, 200.4187
537.1389, 200.0879
537.6210, 200.4468
538.1031, 201.7275
538.5853, 202.6823
539.0674, 203.2378
539.5495, 203.5650
540.0316, 203.5488
540.5137, 203.3882
540.9958, 203.4232
541.4780, 203.8094
541.9601, 204.2476
542.4422, 204.2550
542.9243, 203.8010
543.4064, 203.3797
543.8885, 203.2800
544.3707, 202.9073
544.8528, 201.6193
545.3349, 199.7702
545.8170, 198.2793
546.2991, 197.3974
546.7813, 197.0390
547.2634, 197.1221
547.7455, 197.6556
548.2276, 198.8691
548.7097, 201.0235
549.1918, 203.2046
549.6740, 204.3077
550.1561, 204.2141
550.6382, 203.1842
551.1203, 199.2019
551.6024, 196.2605
552.0845, 197.5968
552.5667, 201.3375
553.0488, 203.6180
553.5309, 202.7566
554.0130, 200.4364
554.4951, 199.7994
554.9772, 201.7459
555.4594, 202.6331
555.9415, 201.2404
556.4236, 199.9435
556.9057, 200.1169
557.3878, 200.9976
557.8699, 200.8725
558.3521, 198.7051
558.8342, 196.0793
559.3163, 195.3335
559.7984, 196.4017
560.2805, 197.2760
560.7626, 197.5311
561.2448, 197.4854
561.7269, 197.4295
562.2090, 197.3423
562.6911, 197.0703
563.1732, 196.1989
563.6553, 195.5008
564.1375, 195.7528
564.6196, 196.5556
565.1017, 196.8187
565.5838, 196.1414
566.0659, 195.2962
566.5480, 195.4599
567.0302, 197.0526
567.5123, 197.7784
567.9944, 196.8163
568.4765, 196.0002
568.9586, 196.4890
569.4407, 197.4159
569.9229, 197.2656
570.4050, 195.4623
570.8871, 193.1351
571.3692, 191.8393
571.8513, 191.6073
572.3334, 191.7605
572.8156, 192.5061
573.2977, 193.2534
573.7798, 193.4974
574.2619, 193.5290
574.7440, 193.9632
575.2261, 195.2204
575.7083, 196.3671
576.1904, 196.7627
576.6725, 196.5126
577.1546, 195.6675
577.6367, 194.1892
578.1188, 192.8787
578.6010, 192.6261
579.0831, 193.4242
579.5652, 193.4467
580.0473, 192.0053
580.5294, 190.7346
581.0115, 190.2204
581.4937, 190.0363
581.9758, 189.6606
582.4579, 188.9878
582.9400, 188.3329
583.4221, 188.1976
583.9042, 188.5164
584.3864, 187.5025
584.8685, 183.7581
585.3506, 181.1611
585.8327, 181.7612
586.3148, 183.6896
586.7969, 185.1331
587.2791, 185.7917
