##NAMES=Kainosite-(Y)
##RRUFFID=R070759
##IDEAL CHEMISTRY=Ca_2_Y_2_(SiO_3_)_4_(CO_3_)&#183;H_2_O
##LOCALITY=Bicroft mine, Cardiff Township, Haliburton Co., Ontario, Canada
##OWNER=RRUFF
##SOURCE=Michael Scott
##DESCRIPTION=Light brown prismatic crystals associated with quartz and green fluorite
##STATUS=The identification of this mineral has been confirmed only by single crystal X-ray diffraction.
##URL=rruff.info/R070759
149.0852, 12605.59
149.5674, 12603.07
150.0495, 12590.46
150.5316, 12596.59
151.0137, 12634.66
151.4958, 12700.53
151.9779, 12747.71
152.4601, 12747.72
152.9422, 12742.44
153.4243, 12761.43
153.9064, 12795.90
154.3885, 12865.40
154.8706, 12985.53
155.3528, 13166.55
155.8349, 13335.98
156.3170, 13462.27
156.7991, 13572.92
157.2812, 13703.46
157.7633, 13895.18
158.2455, 14081.25
158.7276, 14229.42
159.2097, 14315.79
159.6918, 14410.42
160.1739, 14548.23
160.6560, 14710.26
161.1382, 14853.38
161.6203, 14956.07
162.1024, 15037.23
162.5845, 15109.21
163.0666, 15169.21
163.5487, 15228.09
164.0309, 15299.28
164.5130, 15378.76
164.9951, 15437.47
165.4772, 15440.56
165.9593, 15421.96
166.4414, 15418.17
166.9236, 15467.28
167.4057, 15517.63
167.8878, 15533.40
168.3699, 15511.79
168.8520, 15476.45
169.3341, 15422.82
169.8163, 15366.67
170.2984, 15335.76
170.7805, 15382.72
171.2626, 15442.44
171.7447, 15446.25
172.2268, 15378.90
172.7090, 15285.65
173.1911, 15204.41
173.6732, 15129.35
174.1553, 15042.98
174.6374, 14941.86
175.1195, 14820.92
175.6017, 14669.17
176.0838, 14476.04
176.5659, 14265.66
177.0480, 14061.97
177.5301, 13865.45
178.0122, 13666.02
178.4944, 13448.14
178.9765, 13222.21
179.4586, 13006.93
179.9407, 12803.74
180.4228, 12617.46
180.9049, 12447.87
181.3871, 12296.26
181.8692, 12161.99
182.3513, 12049.06
182.8334, 11955.77
183.3155, 11870.15
183.7976, 11784.59
184.2797, 11703.26
184.7619, 11643.52
185.2440, 11607.14
185.7261, 11584.27
186.2082, 11563.49
186.6903, 11545.05
187.1724, 11528.81
187.6546, 11511.65
188.1367, 11495.55
188.6188, 11491.85
189.1009, 11505.71
189.5830, 11524.88
190.0651, 11529.05
190.5473, 11517.76
191.0294, 11493.19
191.5115, 11448.16
191.9936, 11384.88
192.4757, 11335.75
192.9578, 11310.81
193.4400, 11300.47
193.9221, 11271.93
194.4042, 11221.02
194.8863, 11174.72
195.3684, 11166.01
195.8505, 11196.23
196.3327, 11212.93
196.8148, 11194.99
197.2969, 11150.66
197.7790, 11139.40
198.2611, 11170.50
198.7432, 11209.29
199.2254, 11210.91
199.7075, 11170.87
200.1896, 11129.48
200.6717, 11099.48
201.1538, 11081.15
201.6359, 11069.88
202.1181, 11071.43
202.6002, 11070.70
203.0823, 11035.65
203.5644, 10956.47
204.0465, 10882.86
204.5286, 10839.56
205.0108, 10831.17
205.4929, 10820.85
205.9750, 10806.78
206.4571, 10790.23
206.9392, 10777.05
207.4213, 10771.34
207.9035, 10757.12
208.3856, 10721.21
208.8677, 10656.15
209.3498, 10598.40
209.8319, 10547.44
210.3140, 10505.92
210.7962, 10490.21
211.2783, 10512.29
211.7604, 10537.23
212.2425, 10537.42
212.7246, 10506.27
213.2067, 10472.86
213.6889, 10439.13
214.1710, 10405.90
214.6531, 10384.11
215.1352, 10376.27
215.6173, 10376.59
216.0994, 10378.89
216.5816, 10381.14
217.0637, 10390.79
217.5458, 10409.02
218.0279, 10435.43
218.5100, 10475.05
218.9921, 10539.07
219.4743, 10603.89
219.9564, 10632.97
220.4385, 10601.92
220.9206, 10584.52
221.4027, 10611.02
221.8848, 10698.42
222.3670, 10744.49
222.8491, 10728.31
223.3312, 10683.31
223.8133, 10671.25
224.2954, 10707.09
224.7775, 10750.15
225.2596, 10783.62
225.7418, 10798.51
226.2239, 10830.36
226.7060, 10887.96
227.1881, 10959.84
227.6702, 11014.78
228.1523, 11036.69
228.6345, 11065.13
229.1166, 11122.18
229.5987, 11225.45
230.0808, 11313.68
230.5629, 11373.54
231.0450, 11415.09
231.5272, 11484.15
232.0093, 11596.87
232.4914, 11714.98
232.9735, 11816.01
233.4556, 11886.25
233.9377, 11963.96
234.4199, 12052.43
234.9020, 12151.93
235.3841, 12259.44
235.8662, 12387.23
236.3483, 12509.52
236.8304, 12605.29
237.3126, 12660.60
237.7947, 12717.11
238.2768, 12784.90
238.7589, 12863.56
239.2410, 12922.23
239.7231, 12953.14
240.2053, 12971.69
240.6874, 12992.02
241.1695, 13017.74
241.6516, 13038.90
242.1337, 13053.85
242.6158, 13062.40
243.0980, 13065.64
243.5801, 13062.23
244.0622, 13054.62
244.5443, 13045.93
245.0264, 13038.21
245.5085, 13025.94
245.9907, 13008.11
246.4728, 12984.95
246.9549, 12954.23
247.4370, 12910.90
247.9191, 12864.13
248.4012, 12827.30
248.8834, 12802.68
249.3655, 12784.29
249.8476, 12773.47
250.3297, 12776.23
250.8118, 12761.85
251.2939, 12726.95
251.7761, 12676.83
252.2582, 12622.35
252.7403, 12569.79
253.2224, 12501.06
253.7045, 12408.33
254.1866, 12285.09
254.6688, 12153.72
255.1509, 12003.93
255.6330, 11852.06
256.1151, 11738.95
256.5972, 11684.08
257.0793, 11633.64
257.5615, 11560.49
258.0436, 11445.83
258.5257, 11361.67
259.0078, 11317.87
259.4899, 11301.64
259.9720, 11277.99
260.4542, 11246.90
260.9363, 11208.67
261.4184, 11158.24
261.9005, 11085.89
262.3826, 11036.24
262.8647, 11017.03
263.3469, 11020.81
263.8290, 11022.69
264.3111, 11019.68
264.7932, 11020.37
265.2753, 11032.55
265.7574, 11061.55
266.2396, 11078.95
266.7217, 11074.43
267.2038, 11057.46
267.6859, 11069.04
268.1680, 11119.93
268.6501, 11174.49
269.1323, 11205.86
269.6144, 11207.45
270.0965, 11215.49
270.5786, 11238.54
271.0607, 11270.58
271.5428, 11283.87
272.0250, 11273.10
272.5071, 11257.35
272.9892, 11250.16
273.4713, 11252.63
273.9534, 11259.31
274.4355, 11270.07
274.9177, 11284.49
275.3998, 11299.64
275.8819, 11313.94
276.3640, 11333.85
276.8461, 11371.09
277.3282, 11429.29
277.8104, 11468.48
278.2925, 11473.34
278.7746, 11454.38
279.2567, 11458.80
279.7388, 11488.51
280.2209, 11534.31
280.7031, 11596.14
281.1852, 11675.62
281.6673, 11738.81
282.1494, 11775.16
282.6315, 11790.88
283.1136, 11806.13
283.5958, 11818.86
284.0779, 11842.16
284.5600, 11893.82
285.0421, 11972.93
285.5242, 12049.34
286.0063, 12108.77
286.4884, 12160.69
286.9706, 12242.11
287.4527, 12355.94
287.9348, 12476.08
288.4169, 12580.64
288.8990, 12668.97
289.3811, 12745.53
289.8633, 12808.64
290.3454, 12860.78
290.8275, 12902.16
291.3096, 12931.26
291.7917, 12968.21
292.2738, 13042.93
292.7560, 13147.24
293.2381, 13240.32
293.7202, 13307.96
294.2023, 13356.16
294.6844, 13397.14
295.1665, 13431.36
295.6487, 13459.22
296.1308, 13476.81
296.6129, 13488.02
297.0950, 13505.30
297.5771, 13537.86
298.0592, 13576.44
298.5414, 13602.21
299.0235, 13615.10
299.5056, 13632.28
299.9877, 13671.81
300.4698, 13726.98
300.9519, 13783.01
301.4341, 13819.26
301.9162, 13861.24
302.3983, 13949.01
302.8804, 14080.90
303.3625, 14224.57
303.8446, 14350.99
304.3268, 14470.12
304.8089, 14597.47
305.2910, 14737.65
305.7731, 14889.33
306.2552, 15050.90
306.7373, 15223.67
307.2195, 15406.27
307.7016, 15619.52
308.1837, 15838.39
308.6658, 16024.03
309.1479, 16126.65
309.6300, 16219.41
310.1122, 16375.56
310.5943, 16591.38
311.0764, 16776.86
311.5585, 16879.84
312.0406, 16923.08
312.5227, 16932.77
313.0049, 16894.43
313.4870, 16843.84
313.9691, 16813.97
314.4512, 16800.31
314.9333, 16748.06
315.4154, 16609.38
315.8976, 16429.17
316.3797, 16249.80
316.8618, 16078.77
317.3439, 15914.58
317.8260, 15754.80
318.3081, 15600.07
318.7903, 15466.52
319.2724, 15359.72
319.7545, 15276.14
320.2366, 15213.02
320.7187, 15182.48
321.2008, 15159.47
321.6830, 15137.30
322.1651, 15116.63
322.6472, 15105.54
323.1293, 15100.46
323.6114, 15108.86
324.0935, 15135.79
324.5757, 15174.35
325.0578, 15240.01
325.5399, 15353.54
326.0220, 15507.53
326.5041, 15634.44
326.9862, 15690.56
327.4684, 15744.34
327.9505, 15836.18
328.4326, 16014.39
328.9147, 16169.14
329.3968, 16289.60
329.8789, 16378.79
330.3611, 16460.79
330.8432, 16541.06
331.3253, 16609.02
331.8074, 16658.23
332.2895, 16682.14
332.7716, 16700.87
333.2538, 16728.22
333.7359, 16752.36
334.2180, 16722.43
334.7001, 16623.63
335.1822, 16495.18
335.6643, 16357.67
336.1465, 16209.27
336.6286, 16054.06
337.1107, 15889.41
337.5928, 15719.88
338.0749, 15565.18
338.5570, 15430.09
339.0392, 15296.05
339.5213, 15153.07
340.0034, 14998.08
340.4855, 14851.47
340.9676, 14717.46
341.4497, 14586.35
341.9319, 14431.59
342.4140, 14251.02
342.8961, 14075.19
343.3782, 13924.98
343.8603, 13797.65
344.3424, 13669.51
344.8246, 13534.91
345.3067, 13408.25
345.7888, 13314.51
346.2709, 13253.27
346.7530, 13195.19
347.2351, 13115.86
347.7173, 13026.71
348.1994, 12970.89
348.6815, 12955.15
349.1636, 12945.46
349.6457, 12886.76
350.1278, 12793.68
350.6100, 12723.95
351.0921, 12712.31
351.5742, 12738.19
352.0563, 12774.64
352.5384, 12821.40
353.0205, 12868.43
353.5027, 12903.00
353.9848, 12931.30
354.4669, 12964.44
354.9490, 13008.73
355.4311, 13059.65
355.9132, 13113.11
356.3954, 13169.27
356.8775, 13229.94
357.3596, 13287.79
357.8417, 13353.92
358.3238, 13443.71
358.8059, 13580.50
359.2881, 13727.77
359.7702, 13868.51
360.2523, 14002.55
360.7344, 14131.71
361.2165, 14252.24
361.6986, 14369.86
362.1808, 14490.88
362.6629, 14617.16
363.1450, 14746.26
363.6271, 14883.04
364.1092, 15024.86
364.5913, 15153.78
365.0735, 15246.33
365.5556, 15337.30
366.0377, 15447.89
366.5198, 15633.43
367.0019, 15778.43
367.4840, 15851.91
367.9662, 15870.56
368.4482, 15908.27
368.9304, 15996.04
369.4125, 16077.32
369.8946, 16127.00
370.3767, 16133.24
370.8588, 16129.26
371.3409, 16119.64
371.8231, 16098.78
372.3052, 16052.12
372.7873, 15975.87
373.2694, 15880.09
373.7515, 15760.80
374.2336, 15603.20
374.7158, 15493.21
375.1979, 15461.26
375.6800, 15445.06
376.1621, 15330.01
376.6442, 15092.30
377.1263, 14849.44
377.6085, 14638.83
378.0906, 14463.39
378.5727, 14303.31
379.0548, 14163.36
379.5369, 14028.86
380.0190, 13878.61
380.5012, 13712.44
380.9833, 13563.46
381.4654, 13445.77
381.9475, 13352.33
382.4296, 13254.06
382.9117, 13151.14
383.3939, 13050.63
383.8760, 12957.88
384.3581, 12873.00
384.8402, 12800.12
385.3223, 12746.69
385.8044, 12700.44
386.2866, 12635.76
386.7687, 12557.59
387.2508, 12502.06
387.7329, 12518.23
388.2150, 12566.44
388.6971, 12592.22
389.1793, 12571.32
389.6614, 12543.37
390.1435, 12535.02
390.6256, 12543.63
391.1077, 12560.87
391.5898, 12578.94
392.0720, 12606.44
392.5541, 12653.62
393.0362, 12732.80
393.5183, 12804.93
394.0004, 12832.17
394.4825, 12844.42
394.9647, 12896.47
395.4468, 13052.71
395.9289, 13209.35
396.4110, 13316.19
396.8931, 13348.39
397.3752, 13405.52
397.8574, 13518.98
398.3395, 13656.90
398.8216, 13780.38
399.3037, 13868.74
399.7858, 13964.89
400.2679, 14084.11
400.7501, 14229.80
401.2322, 14349.78
401.7143, 14436.32
402.1964, 14504.10
402.6785, 14562.58
403.1606, 14604.74
403.6428, 14657.04
404.1249, 14730.16
404.6070, 14817.02
405.0891, 14878.10
405.5712, 14911.35
406.0533, 14923.08
406.5355, 14912.49
407.0176, 14878.10
407.4997, 14842.85
407.9818, 14808.18
408.4639, 14774.26
408.9460, 14743.23
409.4282, 14715.13
409.9103, 14683.05
410.3924, 14641.62
410.8745, 14592.55
411.3566, 14542.17
411.8387, 14490.48
412.3209, 14438.49
412.8030, 14378.55
413.2851, 14318.32
413.7672, 14279.47
414.2493, 14295.93
414.7314, 14327.69
415.2136, 14322.72
415.6957, 14279.09
416.1778, 14234.89
416.6599, 14223.01
417.1420, 14225.31
417.6241, 14218.58
418.1063, 14177.48
418.5884, 14140.18
419.0705, 14142.04
419.5526, 14173.53
420.0347, 14171.79
420.5168, 14093.29
420.9990, 13984.39
421.4811, 13877.77
421.9632, 13765.03
422.4453, 13672.63
422.9274, 13618.19
423.4095, 13589.04
423.8917, 13547.49
424.3738, 13481.07
424.8559, 13410.28
425.3380, 13344.17
425.8201, 13287.60
426.3022, 13217.67
426.7844, 13109.96
427.2665, 13003.57
427.7486, 12966.33
428.2307, 13038.90
428.7128, 13086.72
429.1949, 13058.87
429.6771, 12957.67
430.1592, 12912.29
430.6413, 12938.69
431.1234, 12978.54
431.6055, 12962.87
432.0876, 12889.18
432.5698, 12845.99
433.0519, 12857.75
433.5340, 12906.80
434.0161, 12958.96
434.4982, 13013.92
434.9803, 13055.37
435.4625, 13058.58
435.9446, 13039.45
436.4267, 13039.20
436.9088, 13066.58
437.3909, 13106.70
437.8730, 13150.34
438.3552, 13194.59
438.8373, 13230.91
439.3194, 13251.95
439.8015, 13264.74
440.2836, 13274.50
440.7657, 13281.30
441.2479, 13287.25
441.7300, 13293.34
442.2121, 13298.98
442.6942, 13303.53
443.1763, 13313.14
443.6584, 13314.98
444.1406, 13302.29
444.6227, 13275.63
445.1048, 13246.55
445.5869, 13220.19
446.0690, 13190.22
446.5511, 13152.99
447.0333, 13091.75
447.5154, 13044.90
447.9975, 13019.96
448.4796, 13009.10
448.9617, 12990.50
449.4438, 12960.04
449.9260, 12929.69
450.4081, 12902.83
450.8902, 12878.84
451.3723, 12866.87
451.8544, 12874.05
452.3365, 12882.08
452.8186, 12857.49
453.3008, 12795.79
453.7829, 12755.74
454.2650, 12763.71
454.7471, 12804.24
455.2292, 12820.36
455.7113, 12810.81
456.1935, 12798.37
456.6756, 12804.33
457.1577, 12822.65
457.6398, 12837.14
458.1219, 12844.10
458.6040, 12846.40
459.0862, 12838.75
459.5683, 12827.10
460.0504, 12831.22
460.5325, 12872.94
461.0146, 12929.45
461.4967, 12979.19
461.9789, 13017.31
462.4610, 13061.79
462.9431, 13121.92
463.4252, 13193.61
463.9073, 13270.73
464.3894, 13360.30
464.8716, 13446.54
465.3537, 13524.43
465.8358, 13593.82
466.3179, 13658.31
466.8000, 13732.46
467.2821, 13792.33
467.7643, 13822.64
468.2464, 13801.10
468.7285, 13786.31
469.2106, 13785.74
469.6927, 13791.96
470.1748, 13784.78
470.6570, 13760.12
471.1391, 13731.50
471.6212, 13704.74
472.1033, 13679.83
472.5854, 13647.76
473.0675, 13604.38
473.5497, 13566.27
474.0318, 13558.27
474.5139, 13578.17
474.9960, 13597.64
475.4781, 13601.19
475.9602, 13604.06
476.4424, 13636.90
476.9245, 13698.85
477.4066, 13780.42
477.8887, 13883.33
478.3708, 13999.15
478.8529, 14108.86
479.3351, 14194.31
479.8172, 14310.38
480.2993, 14533.67
480.7814, 14817.70
481.2635, 15065.28
481.7456, 15187.49
482.2278, 15304.75
482.7099, 15486.41
483.1920, 15745.45
483.6741, 15995.41
484.1562, 16232.72
484.6383, 16439.40
485.1205, 16601.64
485.6026, 16739.46
486.0847, 16804.45
486.5668, 16786.15
487.0489, 16690.82
487.5310, 16541.48
488.0132, 16316.63
488.4953, 16075.92
488.9774, 15849.93
489.4595, 15649.64
489.9416, 15413.84
490.4237, 15130.56
490.9059, 14832.67
491.3880, 14559.41
491.8701, 14313.19
492.3522, 14082.95
492.8343, 13858.71
493.3164, 13653.45
493.7986, 13507.28
494.2807, 13420.51
494.7628, 13345.10
495.2449, 13239.48
495.7270, 13119.66
496.2091, 13015.74
496.6913, 12930.18
497.1734, 12865.41
497.6555, 12826.84
498.1376, 12809.66
498.6197, 12802.32
499.1018, 12792.63
499.5840, 12796.22
500.0661, 12829.88
500.5482, 12900.05
501.0303, 12952.38
501.5124, 12948.49
501.9945, 12934.32
502.4767, 12951.44
502.9588, 13040.12
503.4409, 13113.63
503.9230, 13162.53
504.4051, 13191.14
504.8872, 13213.95
505.3694, 13223.48
505.8515, 13243.04
506.3336, 13287.79
506.8157, 13363.21
507.2978, 13427.23
507.7799, 13474.57
508.2621, 13524.14
508.7442, 13611.33
509.2263, 13731.45
509.7084, 13834.61
510.1905, 13893.30
510.6726, 13930.73
511.1548, 13998.61
511.6369, 14093.50
512.1190, 14177.54
512.6011, 14221.91
513.0832, 14240.78
513.5653, 14254.47
514.0474, 14271.72
514.5295, 14267.90
515.0117, 14219.24
515.4938, 14140.36
515.9759, 14057.01
516.4580, 13974.24
516.9401, 13891.84
517.4222, 13809.44
517.9044, 13727.27
518.3865, 13647.96
518.8686, 13570.10
519.3507, 13497.14
519.8328, 13431.67
520.3149, 13385.09
520.7971, 13324.34
521.2792, 13242.51
521.7613, 13148.38
522.2434, 13061.44
522.7255, 12980.54
523.2076, 12909.20
523.6898, 12855.10
524.1719, 12814.73
524.6540, 12747.56
525.1361, 12649.52
525.6182, 12556.69
526.1003, 12517.51
526.5825, 12513.46
527.0646, 12489.69
527.5467, 12426.51
528.0288, 12352.01
528.5109, 12290.54
528.9930, 12241.94
529.4752, 12203.73
529.9573, 12190.30
530.4394, 12175.94
530.9215, 12139.44
531.4036, 12075.53
531.8857, 12015.75
532.3679, 11971.18
532.8500, 11934.71
533.3321, 11900.58
533.8142, 11870.13
534.2963, 11838.44
534.7784, 11797.54
535.2606, 11754.36
535.7427, 11735.61
536.2248, 11754.71
536.7069, 11772.34
537.1890, 11769.31
537.6711, 11743.21
538.1533, 11728.39
538.6354, 11725.33
539.1175, 11732.30
539.5996, 11757.56
540.0817, 11796.66
540.5638, 11810.84
541.0460, 11781.59
541.5281, 11734.22
542.0102, 11707.92
542.4923, 11699.27
542.9744, 11692.28
543.4565, 11690.78
543.9387, 11678.63
544.4208, 11630.72
544.9029, 11538.10
545.3850, 11459.69
545.8671, 11435.37
546.3492, 11434.72
546.8314, 11424.35
547.3135, 11388.11
547.7956, 11350.84
548.2777, 11318.93
548.7598, 11290.07
549.2419, 11253.17
549.7241, 11194.10
550.2062, 11146.51
550.6883, 11129.82
551.1704, 11153.53
551.6525, 11147.84
552.1346, 11103.26
552.6168, 11050.17
553.0989, 11032.34
553.5810, 11047.70
554.0631, 11034.76
554.5452, 10963.49
555.0273, 10875.88
555.5095, 10857.26
555.9916, 10896.80
556.4737, 10936.47
556.9558, 10939.70
557.4379, 10924.82
557.9200, 10909.33
558.4022, 10894.25
558.8843, 10884.56
559.3664, 10902.29
559.8485, 10918.08
560.3306, 10901.69
560.8127, 10778.26
561.2949, 10697.34
561.7770, 10716.51
562.2591, 10807.42
562.7412, 10860.68
563.2233, 10849.76
563.7054, 10834.98
564.1876, 10840.04
564.6697, 10868.82
565.1518, 10878.94
565.6339, 10866.01
566.1160, 10845.08
566.5981, 10831.79
567.0803, 10825.98
567.5624, 10813.79
568.0445, 10788.51
568.5266, 10763.61
569.0087, 10767.86
569.4908, 10794.57
569.9730, 10814.95
570.4551, 10810.73
570.9372, 10794.50
571.4193, 10772.33
571.9014, 10744.95
572.3835, 10732.24
572.8657, 10762.85
573.3478, 10802.82
573.8299, 10822.78
574.3120, 10801.88
574.7941, 10782.18
575.2762, 10764.30
575.7584, 10752.54
576.2405, 10757.96
576.7226, 10800.41
577.2047, 10826.26
577.6868, 10811.36
578.1689, 10759.99
578.6511, 10749.26
579.1332, 10789.02
579.6153, 10832.51
580.0974, 10837.79
580.5795, 10811.45
581.0616, 10802.81
581.5438, 10821.16
582.0259, 10844.51
582.5080, 10845.03
582.9901, 10829.29
583.4722, 10813.53
583.9543, 10797.69
584.4365, 10790.13
584.9186, 10801.80
585.4007, 10829.47
585.8828, 10855.73
586.3649, 10879.90
586.8470, 10895.39
587.3292, 10894.36
587.8113, 10860.81
588.2934, 10851.63
588.7755, 10886.04
589.2576, 10934.14
589.7397, 10962.82
590.2219, 10962.80
590.7040, 10967.65
591.1861, 10982.46
591.6682, 11005.77
592.1503, 11034.57
592.6324, 11069.14
593.1146, 11105.33
593.5967, 11140.63
594.0788, 11176.11
594.5609, 11214.45
595.0430, 11255.79
595.5251, 11298.04
596.0073, 11340.39
596.4894, 11382.00
596.9715, 11421.37
597.4536, 11452.25
597.9357, 11491.01
598.4178, 11545.00
598.9000, 11612.21
599.3821, 11689.81
599.8642, 11799.15
600.3463, 11895.81
600.8284, 11964.22
601.3105, 12005.67
601.7927, 12054.80
602.2748, 12107.56
602.7569, 12175.50
603.2390, 12264.38
603.7211, 12374.67
604.2032, 12510.75
604.6854, 12677.36
605.1675, 12853.25
605.6496, 13004.20
606.1317, 13136.72
606.6138, 13275.19
607.0959, 13416.87
607.5781, 13582.34
608.0602, 13798.46
608.5423, 14057.56
609.0244, 14339.48
609.5065, 14625.15
609.9886, 14930.49
610.4708, 15268.11
610.9529, 15647.65
611.4350, 16014.76
611.9171, 16338.21
612.3992, 16662.36
612.8813, 17021.87
613.3635, 17450.49
613.8456, 17856.29
614.3277, 18231.37
614.8098, 18587.78
615.2919, 18954.90
615.7740, 19338.60
616.2562, 19662.41
616.7383, 19894.24
617.2204, 20046.06
617.7025, 20149.17
618.1846, 20204.04
618.6667, 20194.76
619.1489, 20104.48
619.6310, 19946.97
620.1131, 19739.93
620.5952, 19484.77
621.0773, 19173.91
621.5594, 18771.18
622.0416, 18327.07
622.5237, 17897.13
623.0058, 17494.78
623.4879, 17105.80
623.9700, 16721.89
624.4521, 16349.92
624.9343, 16006.63
625.4164, 15696.92
625.8985, 15412.51
626.3806, 15154.88
626.8627, 14921.87
627.3448, 14692.17
627.8270, 14464.61
628.3091, 14248.95
628.7912, 14050.90
629.2733, 13871.80
629.7554, 13709.24
630.2375, 13562.12
630.7197, 13435.88
631.2018, 13352.24
631.6839, 13288.68
632.1660, 13210.83
632.6481, 13077.59
633.1302, 12959.28
633.6124, 12891.64
634.0945, 12861.33
634.5766, 12816.52
635.0587, 12736.23
635.5408, 12659.09
636.0229, 12597.60
636.5051, 12552.21
636.9872, 12505.53
637.4693, 12453.83
637.9514, 12409.08
638.4335, 12381.59
638.9156, 12370.38
639.3978, 12374.65
639.8799, 12400.21
640.3620, 12417.93
640.8441, 12379.15
641.3262, 12307.04
641.8083, 12251.59
642.2905, 12240.30
642.7726, 12243.79
643.2547, 12254.44
643.7368, 12266.78
644.2189, 12262.57
644.7010, 12211.80
645.1832, 12165.81
