##NAMES=Kaliophilite
##RRUFFID=R061113
##IDEAL CHEMISTRY=KAlSiO_4_
##LOCALITY=Bolsena, Lazio, Italy
##OWNER=RRUFF
##SOURCE=Michael Scott
##DESCRIPTION=Colorless acicular silky crystals associated with colorless prismatic apatite, orange akermanite and black augite
##STATUS=The identification of this mineral has been confirmed only by single crystal X-ray diffraction.
##URL=rruff.info/R061113
173.7677, 5481.794
174.2498, 5502.357
174.7319, 5515.101
175.2140, 5499.202
175.6961, 5470.052
176.1783, 5452.042
176.6604, 5452.854
177.1425, 5460.535
177.6246, 5462.084
178.1067, 5457.941
178.5888, 5451.001
179.0710, 5440.320
179.5531, 5428.453
180.0352, 5421.597
180.5173, 5422.650
180.9994, 5428.024
181.4815, 5429.719
181.9637, 5428.035
182.4458, 5431.873
182.9279, 5456.485
183.4100, 5495.103
183.8921, 5521.860
184.3742, 5522.854
184.8564, 5510.157
185.3385, 5512.438
185.8206, 5530.509
186.3027, 5553.904
186.7848, 5574.021
187.2669, 5590.869
187.7491, 5605.184
188.2312, 5615.876
188.7133, 5624.132
189.1954, 5633.281
189.6775, 5642.549
190.1596, 5656.035
190.6418, 5685.918
191.1239, 5731.347
191.6060, 5764.161
192.0881, 5762.196
192.5702, 5731.441
193.0523, 5729.760
193.5345, 5764.587
194.0166, 5809.118
194.4987, 5821.370
194.9808, 5799.862
195.4629, 5768.241
195.9451, 5730.212
196.4272, 5685.747
196.9093, 5664.541
197.3914, 5672.748
197.8735, 5696.006
198.3556, 5707.403
198.8378, 5705.372
199.3199, 5701.324
199.8020, 5700.171
200.2841, 5701.836
200.7662, 5708.766
201.2483, 5723.642
201.7305, 5741.543
202.2126, 5749.273
202.6947, 5744.667
203.1768, 5737.961
203.6589, 5733.978
204.1410, 5732.325
204.6232, 5736.441
205.1053, 5746.838
205.5874, 5763.111
206.0695, 5785.806
206.5516, 5817.962
207.0337, 5848.558
207.5159, 5870.035
207.9980, 5880.833
208.4801, 5888.071
208.9622, 5892.307
209.4443, 5893.629
209.9264, 5892.520
210.4086, 5889.119
210.8907, 5882.966
211.3728, 5872.322
211.8549, 5854.293
212.3370, 5842.082
212.8191, 5841.021
213.3013, 5848.673
213.7834, 5841.801
214.2655, 5812.076
214.7476, 5781.154
215.2297, 5770.823
215.7118, 5791.638
216.1940, 5802.793
216.6761, 5792.956
217.1582, 5763.533
217.6403, 5747.392
218.1224, 5748.334
218.6045, 5757.681
219.0867, 5768.154
219.5688, 5780.945
220.0509, 5792.258
220.5330, 5803.612
221.0151, 5815.479
221.4972, 5810.554
221.9794, 5779.070
222.4615, 5741.666
222.9436, 5720.111
223.4257, 5719.120
223.9078, 5724.555
224.3899, 5734.260
224.8721, 5748.681
225.3542, 5763.985
225.8363, 5784.107
226.3184, 5801.534
226.8005, 5807.124
227.2826, 5797.027
227.7648, 5781.650
228.2469, 5758.148
228.7290, 5722.110
229.2111, 5714.896
229.6932, 5753.372
230.1754, 5807.071
230.6575, 5834.661
231.1396, 5818.800
231.6217, 5807.239
232.1038, 5815.011
232.5859, 5847.135
233.0681, 5871.221
233.5502, 5883.271
234.0323, 5890.096
234.5144, 5902.582
234.9965, 5926.828
235.4786, 5946.303
235.9608, 5956.302
236.4429, 5956.170
236.9250, 5948.572
237.4071, 5928.755
237.8892, 5904.468
238.3713, 5888.134
238.8535, 5882.942
239.3356, 5880.437
239.8177, 5878.635
240.2998, 5878.338
240.7819, 5875.173
241.2640, 5866.266
241.7462, 5856.110
242.2283, 5852.347
242.7104, 5856.296
243.1925, 5864.479
243.6746, 5875.874
244.1567, 5890.559
244.6389, 5908.985
245.1210, 5933.883
245.6031, 5960.848
246.0852, 5982.355
246.5673, 5998.986
247.0494, 6009.104
247.5316, 6011.030
248.0137, 6001.917
248.4958, 5994.110
248.9779, 5987.678
249.4600, 5982.566
249.9421, 5977.807
250.4243, 5969.257
250.9064, 5968.582
251.3885, 5985.051
251.8706, 6032.231
252.3527, 6049.175
252.8348, 6023.878
253.3170, 5975.921
253.7991, 5942.673
254.2812, 5930.991
254.7633, 5921.577
255.2454, 5908.052
255.7275, 5890.754
256.2097, 5868.055
256.6918, 5838.043
257.1739, 5804.212
257.6560, 5772.633
258.1381, 5743.958
258.6202, 5715.967
259.1024, 5685.138
259.5845, 5647.318
260.0666, 5626.643
260.5487, 5630.393
261.0308, 5645.816
261.5129, 5648.065
261.9951, 5630.462
262.4772, 5615.588
262.9593, 5612.850
263.4414, 5624.536
263.9235, 5638.294
264.4056, 5656.820
264.8878, 5675.044
265.3699, 5680.087
265.8520, 5662.532
266.3341, 5659.023
266.8162, 5691.484
267.2983, 5769.240
267.7805, 5819.439
268.2626, 5834.059
268.7447, 5829.456
269.2268, 5832.597
269.7089, 5844.679
270.1910, 5860.084
270.6732, 5875.406
271.1553, 5889.563
271.6374, 5914.915
272.1195, 5953.768
272.6016, 6000.515
273.0837, 6045.520
273.5659, 6088.896
274.0480, 6130.983
274.5301, 6172.689
275.0122, 6213.901
275.4943, 6250.817
275.9764, 6280.743
276.4586, 6311.442
276.9407, 6357.055
277.4228, 6418.789
277.9049, 6480.009
278.3870, 6536.924
278.8691, 6589.111
279.3513, 6621.986
279.8334, 6629.195
280.3155, 6633.434
280.7976, 6672.259
281.2797, 6747.230
281.7619, 6812.258
282.2440, 6843.049
282.7261, 6845.631
283.2082, 6867.396
283.6903, 6911.040
284.1725, 6963.952
284.6546, 7011.002
285.1367, 7052.098
285.6188, 7095.610
286.1009, 7147.281
286.5830, 7203.983
287.0652, 7251.082
287.5473, 7287.040
288.0294, 7320.000
288.5115, 7362.874
288.9936, 7413.510
289.4757, 7452.841
289.9579, 7475.040
290.4400, 7481.511
290.9221, 7474.463
291.4042, 7453.372
291.8863, 7425.295
292.3684, 7398.870
292.8506, 7372.080
293.3327, 7335.512
293.8148, 7280.990
294.2969, 7217.651
294.7790, 7162.117
295.2611, 7114.185
295.7433, 7069.095
296.2254, 7023.878
296.7075, 6977.516
297.1896, 6928.349
297.6717, 6870.465
298.1538, 6812.934
298.6360, 6773.449
299.1181, 6750.326
299.6002, 6727.924
300.0823, 6692.950
300.5644, 6650.031
301.0465, 6607.065
301.5287, 6563.896
302.0108, 6524.340
302.4929, 6495.764
302.9750, 6476.376
303.4571, 6457.540
303.9392, 6429.662
304.4214, 6399.756
304.9035, 6377.656
305.3856, 6370.379
305.8677, 6364.760
306.3498, 6347.071
306.8319, 6320.828
307.3141, 6298.048
307.7962, 6288.111
308.2783, 6284.313
308.7604, 6278.811
309.2425, 6266.584
309.7246, 6260.416
310.2068, 6269.428
310.6889, 6291.047
311.1710, 6318.532
311.6531, 6353.607
312.1352, 6390.307
312.6173, 6422.927
313.0995, 6447.680
313.5816, 6475.726
314.0637, 6512.984
314.5458, 6557.289
315.0279, 6604.794
315.5100, 6660.671
315.9922, 6714.355
316.4743, 6756.892
316.9564, 6782.286
317.4385, 6817.204
317.9206, 6884.309
318.4027, 6963.062
318.8849, 7024.756
319.3670, 7042.026
319.8491, 7058.229
320.3312, 7093.108
320.8133, 7153.100
321.2954, 7201.783
321.7776, 7227.857
322.2597, 7241.205
322.7418, 7252.357
323.2239, 7273.594
323.7060, 7282.022
324.1881, 7267.121
324.6703, 7226.332
325.1524, 7191.844
325.6345, 7168.146
326.1166, 7150.751
326.5987, 7135.935
327.0808, 7130.462
327.5630, 7119.454
328.0451, 7096.045
328.5272, 7061.365
329.0093, 7040.378
329.4914, 7042.100
329.9735, 7049.750
330.4557, 7051.997
330.9378, 7040.870
331.4199, 7038.246
331.9020, 7046.414
332.3841, 7064.463
332.8662, 7087.364
333.3484, 7111.517
333.8305, 7145.650
334.3126, 7196.459
334.7947, 7268.313
335.2768, 7342.639
335.7589, 7421.687
336.2411, 7500.808
336.7232, 7567.985
337.2053, 7617.552
337.6874, 7670.354
338.1695, 7743.797
338.6516, 7842.763
339.1338, 7909.972
339.6159, 7934.205
340.0980, 7941.819
340.5801, 7979.412
341.0622, 8050.938
341.5443, 8120.347
342.0265, 8169.685
342.5086, 8201.831
342.9907, 8249.886
343.4728, 8315.678
343.9549, 8388.648
344.4370, 8452.671
344.9192, 8509.053
345.4013, 8573.877
345.8834, 8650.322
346.3655, 8739.073
346.8476, 8848.466
347.3297, 8979.155
347.8119, 9100.036
348.2940, 9165.317
348.7761, 9194.319
349.2582, 9244.180
349.7403, 9340.286
350.2224, 9456.605
350.7046, 9557.432
351.1867, 9645.151
351.6688, 9731.165
352.1509, 9827.328
352.6331, 9926.367
353.1152, 10014.54
353.5973, 10079.82
354.0794, 10150.47
354.5615, 10255.07
355.0436, 10386.51
355.5258, 10523.16
356.0079, 10658.06
356.4900, 10790.25
356.9721, 10920.37
357.4542, 11050.68
357.9363, 11171.57
358.4185, 11278.95
358.9006, 11373.12
359.3827, 11454.60
359.8648, 11538.85
360.3469, 11598.38
360.8290, 11616.74
361.3112, 11590.03
361.7933, 11540.26
362.2754, 11467.30
362.7575, 11377.48
363.2396, 11277.25
363.7217, 11151.02
364.2039, 11032.88
364.6860, 10938.92
365.1681, 10869.22
365.6502, 10785.15
366.1323, 10660.21
366.6144, 10532.24
367.0966, 10426.96
367.5787, 10357.51
368.0608, 10297.12
368.5429, 10247.08
369.0250, 10205.57
369.5071, 10164.16
369.9893, 10118.15
370.4714, 10077.81
370.9535, 10050.09
371.4356, 10046.69
371.9177, 10029.88
372.3998, 9997.522
372.8820, 9952.151
373.3641, 9899.607
373.8462, 9839.998
374.3283, 9773.169
374.8104, 9695.436
375.2925, 9603.793
375.7747, 9529.852
376.2568, 9475.484
376.7389, 9433.831
377.2210, 9396.163
377.7031, 9362.183
378.1852, 9336.867
378.6674, 9322.842
379.1495, 9318.559
379.6316, 9317.813
380.1137, 9320.830
380.5958, 9325.387
381.0779, 9337.212
381.5601, 9351.599
382.0422, 9343.471
382.5243, 9301.624
383.0064, 9241.727
383.4885, 9188.465
383.9706, 9140.452
384.4528, 9091.235
384.9349, 9038.149
385.4170, 8980.126
385.8991, 8912.583
386.3812, 8831.669
386.8633, 8749.430
387.3455, 8667.971
387.8276, 8593.354
388.3097, 8538.315
388.7918, 8525.773
389.2739, 8525.638
389.7560, 8512.031
390.2382, 8481.545
390.7203, 8454.896
391.2024, 8444.227
391.6845, 8443.241
392.1666, 8444.608
392.6487, 8439.563
393.1309, 8442.522
393.6130, 8462.934
394.0951, 8499.332
394.5772, 8533.807
395.0593, 8559.153
395.5414, 8582.866
396.0236, 8609.417
396.5057, 8653.057
396.9878, 8683.477
397.4699, 8691.124
397.9520, 8682.443
398.4341, 8677.318
398.9163, 8667.839
399.3984, 8670.091
399.8805, 8689.236
400.3626, 8725.003
400.8447, 8778.570
401.3268, 8850.942
401.8090, 8940.362
402.2911, 9049.281
402.7732, 9185.241
403.2553, 9318.522
403.7374, 9443.051
404.2195, 9558.644
404.7017, 9667.232
405.1838, 9776.938
405.6659, 9858.164
406.1480, 9873.399
406.6301, 9821.806
407.1122, 9773.740
407.5944, 9744.854
408.0765, 9723.413
408.5586, 9682.943
409.0407, 9623.497
409.5228, 9552.713
410.0049, 9468.136
410.4871, 9376.678
410.9692, 9299.007
411.4513, 9239.716
411.9334, 9183.279
412.4155, 9113.669
412.8976, 9031.421
413.3798, 8941.408
413.8619, 8835.661
414.3440, 8727.584
414.8261, 8630.783
415.3082, 8545.154
415.7903, 8462.167
416.2725, 8372.046
416.7546, 8282.298
417.2367, 8199.334
417.7188, 8124.274
418.2009, 8059.754
418.6830, 8011.475
419.1652, 7976.165
419.6473, 7943.722
420.1294, 7902.123
420.6115, 7868.479
421.0936, 7852.542
421.5757, 7862.244
422.0579, 7876.197
422.5400, 7885.678
423.0221, 7898.950
423.5042, 7930.146
423.9864, 7995.996
424.4685, 8060.917
424.9506, 8115.989
425.4327, 8159.081
425.9148, 8211.107
426.3969, 8276.392
426.8791, 8345.637
427.3612, 8414.394
427.8433, 8491.315
428.3254, 8538.958
428.8075, 8546.272
429.2896, 8522.581
429.7718, 8500.599
430.2539, 8482.604
430.7360, 8454.588
431.2181, 8410.843
431.7002, 8351.086
432.1823, 8266.509
432.6645, 8151.783
433.1466, 8028.090
433.6287, 7924.498
434.1108, 7838.639
434.5929, 7758.467
435.0750, 7678.620
435.5572, 7602.418
436.0393, 7541.903
436.5214, 7496.002
437.0035, 7441.667
437.4856, 7349.671
437.9677, 7241.905
438.4499, 7151.087
438.9320, 7095.545
439.4141, 7041.767
439.8962, 6954.742
440.3783, 6850.167
440.8604, 6765.936
441.3426, 6731.420
441.8247, 6713.606
442.3068, 6697.291
442.7889, 6682.545
443.2710, 6660.694
443.7531, 6620.753
444.2353, 6575.974
444.7174, 6540.316
445.1995, 6526.830
445.6816, 6510.972
446.1637, 6484.525
446.6458, 6449.536
447.1280, 6426.050
447.6101, 6417.291
448.0922, 6416.498
448.5743, 6422.486
449.0564, 6443.695
449.5385, 6446.957
450.0207, 6422.347
450.5028, 6387.738
450.9849, 6383.101
451.4670, 6417.048
451.9491, 6436.603
452.4312, 6409.688
452.9134, 6346.106
453.3955, 6324.984
453.8776, 6349.723
454.3597, 6392.320
454.8418, 6432.313
455.3239, 6468.701
455.8061, 6494.141
456.2882, 6502.649
456.7703, 6506.821
457.2524, 6530.299
457.7345, 6567.226
458.2166, 6594.123
458.6988, 6587.754
459.1809, 6568.411
459.6630, 6558.419
460.1451, 6561.101
460.6272, 6564.715
461.1093, 6568.398
461.5915, 6566.706
462.0736, 6552.671
462.5557, 6521.604
463.0378, 6480.192
463.5199, 6421.673
464.0020, 6350.407
464.4842, 6295.622
464.9663, 6283.231
465.4484, 6274.785
465.9305, 6249.556
466.4126, 6195.258
466.8947, 6143.776
467.3769, 6095.875
467.8590, 6050.644
468.3411, 6005.156
468.8232, 5955.724
469.3053, 5914.250
469.7874, 5886.269
470.2696, 5870.747
470.7517, 5847.516
471.2338, 5814.574
471.7159, 5780.316
472.1980, 5752.894
472.6801, 5732.025
473.1623, 5709.443
473.6444, 5682.483
474.1265, 5655.884
474.6086, 5636.100
475.0907, 5623.320
475.5728, 5618.766
476.0550, 5629.148
476.5371, 5646.104
477.0192, 5656.676
477.5013, 5660.485
477.9834, 5659.534
478.4655, 5650.636
478.9477, 5639.353
479.4298, 5633.473
479.9119, 5641.378
480.3940, 5647.434
480.8761, 5635.839
481.3582, 5614.872
481.8404, 5608.583
482.3225, 5645.038
482.8046, 5681.276
483.2867, 5695.001
483.7688, 5675.095
484.2509, 5664.771
484.7331, 5670.369
485.2152, 5685.837
485.6973, 5706.617
486.1794, 5737.853
486.6615, 5766.140
487.1436, 5792.436
487.6258, 5814.654
488.1079, 5821.442
488.5900, 5809.216
489.0721, 5791.228
489.5542, 5777.514
490.0363, 5768.218
490.5185, 5738.923
491.0006, 5684.405
491.4827, 5626.051
491.9648, 5598.903
492.4469, 5596.217
492.9290, 5580.408
493.4112, 5530.067
493.8933, 5467.583
494.3754, 5429.750
494.8575, 5413.274
495.3397, 5399.693
495.8218, 5376.320
496.3039, 5349.376
496.7860, 5325.792
497.2681, 5306.539
497.7502, 5289.429
498.2324, 5279.513
498.7145, 5269.186
499.1966, 5247.900
499.6787, 5187.883
500.1608, 5141.491
500.6429, 5134.455
501.1251, 5163.700
501.6072, 5176.010
502.0893, 5156.630
502.5714, 5129.500
503.0535, 5104.634
503.5356, 5080.026
504.0178, 5063.888
504.4999, 5062.746
504.9820, 5064.228
505.4641, 5047.357
505.9462, 5008.486
506.4283, 4970.064
506.9105, 4936.189
507.3926, 4908.440
507.8747, 4895.331
508.3568, 4897.397
508.8389, 4903.948
509.3210, 4908.774
509.8032, 4911.950
510.2853, 4914.539
510.7674, 4917.410
511.2495, 4916.506
511.7316, 4901.374
512.2137, 4879.657
512.6959, 4867.085
513.1780, 4888.208
513.6601, 4905.543
514.1422, 4883.429
514.6243, 4829.203
515.1064, 4793.976
515.5886, 4814.927
516.0707, 4849.053
516.5528, 4870.857
517.0349, 4875.566
517.5170, 4871.578
517.9991, 4851.965
518.4813, 4827.057
518.9634, 4809.600
519.4455, 4800.355
519.9276, 4797.914
520.4097, 4806.328
520.8918, 4822.304
521.3740, 4823.672
521.8561, 4807.545
522.3382, 4786.362
522.8203, 4763.322
523.3024, 4739.512
523.7845, 4734.086
524.2667, 4751.816
524.7488, 4773.778
525.2309, 4774.666
525.7130, 4759.965
526.1951, 4748.848
526.6772, 4749.780
527.1594, 4755.695
527.6415, 4761.245
528.1236, 4765.510
528.6057, 4764.441
529.0878, 4748.240
529.5699, 4730.715
530.0521, 4723.565
530.5342, 4730.635
531.0163, 4737.006
531.4984, 4736.121
531.9805, 4732.931
532.4626, 4732.707
532.9448, 4742.084
533.4269, 4747.115
533.9090, 4742.167
534.3911, 4731.293
534.8732, 4731.300
535.3553, 4747.837
535.8375, 4764.798
536.3196, 4775.466
536.8017, 4779.824
537.2838, 4780.733
537.7659, 4777.527
538.2480, 4773.095
538.7302, 4771.889
539.2123, 4772.936
539.6944, 4768.750
540.1765, 4755.482
540.6586, 4740.385
541.1407, 4731.294
541.6229, 4728.393
542.1050, 4732.055
542.5871, 4748.081
543.0692, 4767.099
543.5513, 4780.627
544.0334, 4788.122
544.5156, 4794.140
544.9977, 4800.844
545.4798, 4806.925
545.9619, 4811.696
546.4440, 4821.105
546.9261, 4820.153
547.4083, 4796.819
547.8904, 4763.702
548.3725, 4743.450
548.8546, 4737.905
549.3367, 4742.732
549.8188, 4762.918
550.3010, 4795.651
550.7831, 4804.615
551.2652, 4783.567
551.7473, 4759.513
552.2294, 4754.268
552.7115, 4765.446
553.1937, 4768.411
553.6758, 4759.878
554.1579, 4748.673
554.6400, 4745.530
555.1221, 4748.569
555.6042, 4752.512
556.0864, 4756.203
556.5685, 4759.278
557.0506, 4762.131
557.5327, 4764.270
558.0148, 4763.771
558.4969, 4763.980
558.9791, 4757.986
559.4612, 4735.752
559.9433, 4689.512
560.4254, 4663.061
560.9075, 4685.894
561.3896, 4719.911
561.8718, 4731.119
562.3539, 4701.161
562.8360, 4679.387
563.3181, 4670.301
563.8002, 4671.294
564.2823, 4678.717
564.7645, 4695.238
565.2466, 4705.367
565.7287, 4697.279
566.2108, 4677.296
566.6929, 4682.209
567.1750, 4713.169
567.6572, 4742.081
568.1393, 4740.031
568.6214, 4719.576
569.1035, 4704.858
569.5856, 4699.333
570.0677, 4700.634
570.5499, 4708.603
571.0320, 4721.697
571.5141, 4737.492
571.9962, 4761.480
572.4783, 4781.653
572.9604, 4792.789
573.4426, 4795.651
573.9247, 4794.746
574.4068, 4790.017
574.8889, 4782.083
575.3710, 4768.639
575.8531, 4746.145
576.3353, 4738.334
576.8174, 4750.270
577.2995, 4769.502
577.7816, 4785.847
578.2637, 4799.359
578.7458, 4808.085
579.2280, 4811.156
579.7101, 4810.399
580.1922, 4806.417
580.6743, 4800.385
581.1564, 4798.950
581.6385, 4808.149
582.1207, 4822.099
582.6028, 4831.616
583.0849, 4837.639
583.5670, 4848.123
584.0491, 4871.637
584.5313, 4898.991
585.0134, 4923.939
585.4955, 4946.422
585.9776, 4963.353
586.4597, 4976.598
586.9418, 4982.513
587.4240, 4975.941
587.9061, 4940.464
588.3882, 4918.906
588.8703, 4922.584
589.3524, 4941.273
589.8345, 4942.111
590.3167, 4918.972
590.7988, 4901.939
591.2809, 4910.390
591.7630, 4936.750
592.2451, 4936.536
592.7272, 4908.620
593.2094, 4881.680
593.6915, 4881.638
594.1736, 4899.127
594.6557, 4919.948
595.1378, 4944.739
595.6199, 4958.427
596.1021, 4936.917
596.5842, 4900.392
597.0663, 4877.547
597.5484, 4893.226
598.0305, 4908.295
598.5126, 4904.333
598.9948, 4887.865
599.4769, 4888.210
599.9590, 4927.523
600.4412, 4958.987
600.9233, 4964.484
601.4054, 4941.919
601.8875, 4928.252
602.3696, 4926.810
602.8517, 4926.330
603.3339, 4915.293
603.8160, 4894.791
604.2981, 4880.719
604.7802, 4875.565
605.2623, 4875.022
605.7444, 4874.948
606.2266, 4875.195
606.7087, 4875.561
607.1908, 4879.137
607.6729, 4879.528
608.1550, 4868.881
608.6371, 4850.373
609.1193, 4833.964
609.6014, 4817.858
610.0835, 4809.927
610.5656, 4820.057
611.0477, 4853.328
611.5298, 4866.747
612.0120, 4839.958
612.4941, 4811.941
612.9762, 4811.051
613.4583, 4847.818
613.9404, 4874.161
614.4225, 4888.387
614.9047, 4891.112
615.3868, 4877.648
615.8689, 4849.602
616.3510, 4830.559
616.8331, 4831.246
617.3152, 4839.399
617.7974, 4833.363
618.2795, 4817.460
618.7616, 4808.121
619.2437, 4824.664
619.7258, 4843.582
620.2079, 4844.633
620.6901, 4826.938
621.1722, 4812.777
621.6543, 4809.454
622.1364, 4812.473
622.6185, 4820.448
623.1006, 4841.176
623.5828, 4848.216
624.0649, 4832.589
624.5470, 4811.512
625.0291, 4807.484
625.5112, 4824.592
625.9933, 4836.741
626.4755, 4838.554
626.9576, 4833.696
627.4397, 4828.767
627.9218, 4823.729
628.4039, 4818.312
628.8860, 4810.853
629.3682, 4803.717
629.8503, 4800.039
630.3324, 4799.679
630.8145, 4801.717
631.2966, 4805.968
631.7787, 4812.156
632.2609, 4821.979
632.7430, 4838.696
633.2251, 4846.845
633.7072, 4836.915
634.1893, 4821.037
634.6714, 4808.123
635.1536, 4794.290
635.6357, 4793.919
636.1178, 4815.055
636.5999, 4842.747
637.0820, 4845.857
637.5641, 4823.160
638.0463, 4805.819
638.5284, 4807.091
639.0105, 4817.033
639.4926, 4814.813
639.9747, 4802.317
640.4568, 4790.604
640.9390, 4784.008
641.4211, 4782.717
641.9032, 4789.222
642.3853, 4803.622
642.8674, 4815.508
643.3495, 4824.587
643.8317, 4827.067
644.3138, 4818.854
644.7959, 4785.447
645.2780, 4769.442
645.7601, 4780.409
646.2422, 4800.374
646.7244, 4807.979
647.2065, 4800.795
647.6886, 4792.565
648.1707, 4783.628
648.6528, 4777.792
649.1349, 4787.859
649.6171, 4810.877
650.0992, 4826.334
650.5813, 4816.167
651.0634, 4798.490
651.5455, 4796.148
652.0276, 4806.859
652.5098, 4818.493
652.9919, 4827.346
653.4740, 4832.962
653.9561, 4833.354
654.4382, 4826.704
654.9203, 4825.145
655.4025, 4839.223
655.8846, 4851.464
656.3667, 4849.246
656.8488, 4827.021
657.3309, 4805.384
657.8130, 4782.038
658.2952, 4764.612
658.7773, 4766.615
659.2594, 4786.644
659.7415, 4808.203
660.2236, 4828.307
660.7057, 4845.829
661.1879, 4860.950
661.6700, 4872.267
662.1521, 4875.591
662.6342, 4858.012
663.1163, 4841.196
663.5984, 4841.085
664.0806, 4855.784
664.5627, 4867.302
665.0448, 4866.732
665.5269, 4866.112
666.0090, 4872.058
666.4911, 4886.520
666.9733, 4891.244
667.4554, 4881.349
667.9375, 4871.395
668.4196, 4875.143
668.9017, 4892.087
669.3839, 4907.002
669.8660, 4919.671
670.3481, 4924.736
