##NAMES=Kaliophilite
##RRUFFID=R061113
##IDEAL CHEMISTRY=KAlSiO_4_
##LOCALITY=Bolsena, Lazio, Italy
##OWNER=RRUFF
##SOURCE=Michael Scott
##DESCRIPTION=Colorless acicular silky crystals associated with colorless prismatic apatite, orange akermanite and black augite
##STATUS=The identification of this mineral has been confirmed only by single crystal X-ray diffraction.
##URL=rruff.info/R061113
181.7661, 1780.680
182.2482, 1769.825
182.7303, 1760.118
183.2124, 1755.073
183.6946, 1755.124
184.1767, 1763.007
184.6588, 1786.380
185.1409, 1803.915
185.6230, 1803.641
186.1051, 1797.541
186.5873, 1801.304
187.0694, 1823.991
187.5515, 1855.622
188.0336, 1868.070
188.5157, 1844.826
188.9978, 1830.585
189.4800, 1841.790
189.9621, 1862.612
190.4442, 1876.024
190.9263, 1873.981
191.4084, 1863.528
191.8905, 1862.277
192.3727, 1877.146
192.8548, 1889.170
193.3369, 1898.212
193.8190, 1902.083
194.3011, 1895.785
194.7832, 1877.096
195.2654, 1854.577
195.7475, 1848.274
196.2296, 1870.915
196.7117, 1886.052
197.1938, 1884.121
197.6759, 1876.628
198.1581, 1872.243
198.6402, 1874.052
199.1223, 1881.547
199.6044, 1895.807
200.0865, 1926.772
200.5686, 1943.763
201.0508, 1932.708
201.5329, 1916.396
202.0150, 1913.934
202.4971, 1930.050
202.9792, 1953.309
203.4613, 1964.759
203.9435, 1957.488
204.4256, 1953.644
204.9077, 1950.858
205.3898, 1953.451
205.8719, 1967.262
206.3540, 1992.166
206.8362, 2019.982
207.3183, 2039.702
207.8004, 2048.626
208.2825, 2055.460
208.7646, 2060.169
209.2467, 2063.233
209.7289, 2066.037
210.2110, 2068.071
210.6931, 2066.436
211.1752, 2055.910
211.6573, 2031.626
212.1395, 2016.844
212.6216, 2021.017
213.1037, 2025.991
213.5858, 2022.683
214.0679, 2011.345
214.5500, 1997.776
215.0322, 1987.510
215.5143, 1981.000
215.9964, 1975.058
216.4785, 1972.297
216.9606, 1967.662
217.4427, 1955.119
217.9249, 1938.240
218.4070, 1927.333
218.8891, 1933.414
219.3712, 1957.364
219.8533, 1966.190
220.3354, 1944.287
220.8176, 1921.561
221.2997, 1903.059
221.7818, 1889.938
222.2639, 1883.674
222.7460, 1886.906
223.2281, 1897.929
223.7103, 1898.064
224.1924, 1876.295
224.6745, 1854.750
225.1566, 1835.838
225.6387, 1820.412
226.1208, 1809.201
226.6030, 1802.768
227.0851, 1800.674
227.5672, 1801.400
228.0493, 1809.288
228.5314, 1814.063
229.0135, 1811.074
229.4957, 1805.313
229.9778, 1802.864
230.4599, 1806.555
230.9420, 1813.715
231.4241, 1817.693
231.9062, 1816.452
232.3884, 1815.314
232.8705, 1814.370
233.3526, 1814.125
233.8347, 1815.029
234.3168, 1817.230
234.7989, 1820.492
235.2811, 1825.096
235.7632, 1833.555
236.2453, 1837.140
236.7274, 1830.219
237.2095, 1822.235
237.6916, 1820.522
238.1738, 1825.988
238.6559, 1832.884
239.1380, 1833.633
239.6201, 1826.198
240.1022, 1820.113
240.5843, 1813.066
241.0665, 1809.594
241.5486, 1816.190
242.0307, 1830.483
242.5128, 1841.362
242.9949, 1834.544
243.4770, 1807.460
243.9592, 1793.747
244.4413, 1806.018
244.9234, 1820.609
245.4055, 1829.695
245.8876, 1833.930
246.3697, 1836.877
246.8519, 1841.413
247.3340, 1847.097
247.8161, 1849.569
248.2982, 1846.349
248.7803, 1843.061
249.2624, 1840.529
249.7446, 1839.405
250.2267, 1841.649
250.7088, 1850.393
251.1909, 1860.916
251.6730, 1858.207
252.1551, 1834.904
252.6373, 1813.071
253.1194, 1800.264
253.6015, 1792.241
254.0836, 1784.828
254.5657, 1776.626
255.0478, 1768.134
255.5300, 1760.263
256.0121, 1753.370
256.4942, 1745.801
256.9763, 1736.080
257.4584, 1726.085
257.9406, 1717.344
258.4227, 1710.229
258.9048, 1703.192
259.3869, 1692.215
259.8690, 1676.773
260.3511, 1670.110
260.8333, 1683.490
261.3154, 1698.825
261.7975, 1700.672
262.2796, 1689.492
262.7617, 1680.640
263.2438, 1686.567
263.7260, 1704.975
264.2081, 1723.215
264.6902, 1742.852
265.1723, 1757.397
265.6544, 1760.867
266.1365, 1755.698
266.6187, 1749.536
267.1008, 1745.360
267.5829, 1742.739
268.0650, 1740.041
268.5471, 1736.201
269.0292, 1735.643
269.5114, 1744.677
269.9935, 1758.868
270.4756, 1770.847
270.9577, 1776.333
271.4398, 1780.789
271.9219, 1791.789
272.4041, 1809.605
272.8862, 1824.895
273.3683, 1830.441
273.8504, 1831.747
274.3325, 1838.979
274.8146, 1853.013
275.2968, 1872.326
275.7789, 1898.138
276.2610, 1928.996
276.7431, 1959.682
277.2252, 1989.462
277.7073, 2016.660
278.1895, 2038.893
278.6716, 2056.406
279.1537, 2069.866
279.6358, 2070.843
280.1179, 2069.812
280.6000, 2090.255
281.0822, 2140.592
281.5643, 2192.705
282.0464, 2209.595
282.5285, 2187.824
283.0106, 2173.909
283.4927, 2178.306
283.9749, 2189.364
284.4570, 2193.260
284.9391, 2190.111
285.4212, 2196.198
285.9033, 2228.378
286.3854, 2285.838
286.8676, 2325.170
287.3497, 2335.954
287.8318, 2340.629
288.3139, 2346.145
288.7960, 2354.037
289.2781, 2368.980
289.7603, 2395.729
290.2424, 2427.940
290.7245, 2437.647
291.2066, 2403.843
291.6887, 2375.203
292.1708, 2363.326
292.6530, 2358.981
293.1351, 2351.120
293.6172, 2335.817
294.0993, 2315.412
294.5814, 2293.995
295.0635, 2270.838
295.5457, 2247.865
296.0278, 2225.489
296.5099, 2203.131
296.9920, 2181.019
297.4741, 2158.792
297.9562, 2135.033
298.4384, 2106.568
298.9205, 2070.709
299.4026, 2049.189
299.8847, 2054.136
300.3668, 2060.826
300.8489, 2062.496
301.3310, 2059.231
301.8131, 2052.954
302.2953, 2044.664
302.7774, 2034.672
303.2595, 2024.351
303.7416, 2011.852
304.2237, 2001.973
304.7058, 1997.455
305.1880, 1994.988
305.6701, 1991.208
306.1522, 1984.875
306.6343, 1976.732
307.1164, 1966.880
307.5985, 1953.695
308.0807, 1945.049
308.5628, 1945.939
309.0449, 1949.444
309.5270, 1951.372
310.0091, 1951.479
310.4912, 1952.789
310.9734, 1959.871
311.4555, 1971.832
311.9376, 1977.386
312.4197, 1968.872
312.9018, 1964.075
313.3839, 1976.601
313.8661, 2001.224
314.3482, 2024.211
314.8303, 2035.203
315.3124, 2042.625
315.7945, 2064.258
316.2766, 2103.109
316.7588, 2138.160
317.2409, 2153.088
317.7230, 2158.368
318.2051, 2172.089
318.6872, 2201.172
319.1693, 2230.307
319.6515, 2248.682
320.1336, 2257.389
320.6157, 2260.370
321.0978, 2256.274
321.5799, 2251.128
322.0620, 2256.506
322.5442, 2274.372
323.0263, 2288.040
323.5084, 2288.595
323.9905, 2284.161
324.4726, 2288.104
324.9547, 2302.594
325.4369, 2313.286
325.9190, 2304.779
326.4011, 2274.654
326.8832, 2251.632
327.3653, 2240.344
327.8474, 2231.483
328.3296, 2218.034
328.8117, 2202.293
329.2938, 2192.434
329.7759, 2193.853
330.2580, 2203.672
330.7401, 2208.800
331.2223, 2201.862
331.7044, 2199.404
332.1865, 2205.593
332.6686, 2215.966
333.1507, 2224.447
333.6328, 2229.574
334.1150, 2236.666
334.5971, 2255.348
335.0792, 2293.979
335.5613, 2321.042
336.0434, 2324.058
336.5255, 2327.889
337.0077, 2347.192
337.4898, 2379.329
337.9719, 2412.105
338.4540, 2435.449
338.9361, 2450.629
339.4182, 2469.855
339.9004, 2500.564
340.3825, 2523.673
340.8646, 2523.437
341.3467, 2517.017
341.8288, 2528.689
342.3109, 2570.001
342.7931, 2620.738
343.2752, 2647.612
343.7573, 2646.131
344.2394, 2653.241
344.7215, 2683.452
345.2036, 2721.299
345.6858, 2753.666
346.1679, 2780.173
346.6500, 2810.024
347.1321, 2854.044
347.6142, 2905.736
348.0963, 2943.975
348.5785, 2961.248
349.0606, 2982.312
349.5427, 3030.841
350.0248, 3099.447
350.5069, 3167.286
350.9890, 3238.360
351.4712, 3301.640
351.9533, 3342.079
352.4354, 3364.332
352.9175, 3392.926
353.3996, 3440.126
353.8817, 3499.921
354.3639, 3556.729
354.8460, 3605.573
355.3281, 3661.585
355.8102, 3730.226
356.2923, 3806.771
356.7744, 3887.674
357.2566, 3971.786
357.7387, 4052.945
358.2208, 4125.404
358.7029, 4190.450
359.1850, 4237.657
359.6671, 4259.229
360.1493, 4273.537
360.6314, 4294.948
361.1135, 4315.335
361.5956, 4315.369
362.0777, 4282.616
362.5598, 4224.556
363.0420, 4168.128
363.5241, 4115.424
364.0062, 4060.949
364.4883, 4003.354
364.9704, 3944.422
365.4525, 3883.801
365.9347, 3822.354
366.4168, 3764.117
366.8989, 3715.363
367.3810, 3676.319
367.8631, 3636.049
368.3452, 3586.309
368.8274, 3545.245
369.3095, 3524.783
369.7916, 3519.106
370.2737, 3513.874
370.7558, 3499.011
371.2379, 3483.495
371.7201, 3487.145
372.2022, 3512.756
372.6843, 3530.417
373.1664, 3524.784
373.6485, 3505.017
374.1306, 3487.038
374.6128, 3473.393
375.0949, 3454.012
375.5770, 3417.288
376.0591, 3372.348
376.5412, 3337.253
377.0233, 3315.816
377.5055, 3303.366
377.9876, 3296.997
378.4697, 3297.549
378.9518, 3295.270
379.4339, 3289.243
379.9160, 3281.093
380.3982, 3271.622
380.8803, 3260.829
381.3624, 3248.556
381.8445, 3234.667
382.3266, 3219.442
382.8087, 3203.517
383.2909, 3192.198
383.7730, 3172.671
384.2551, 3141.483
384.7372, 3104.293
385.2193, 3061.754
385.7014, 3016.234
386.1836, 2975.818
386.6657, 2952.293
387.1478, 2947.494
387.6299, 2925.385
388.1120, 2864.974
388.5941, 2810.989
389.0763, 2780.488
389.5584, 2765.139
390.0405, 2751.128
390.5226, 2731.572
391.0047, 2713.205
391.4868, 2707.758
391.9690, 2716.474
392.4511, 2726.721
392.9332, 2737.177
393.4153, 2746.100
393.8974, 2750.937
394.3795, 2751.778
394.8617, 2753.936
395.3438, 2763.908
395.8259, 2775.529
396.3080, 2774.593
396.7901, 2758.873
397.2722, 2749.441
397.7544, 2764.479
398.2365, 2798.572
398.7186, 2820.800
399.2007, 2818.181
399.6828, 2818.282
400.1649, 2831.297
400.6471, 2854.106
401.1292, 2880.884
401.6113, 2909.885
402.0934, 2944.730
402.5755, 2991.630
403.0576, 3054.064
403.5398, 3118.367
404.0219, 3199.356
404.5040, 3268.980
404.9861, 3308.580
405.4682, 3324.739
405.9503, 3335.894
406.4325, 3354.308
406.9146, 3375.118
407.3967, 3380.317
407.8788, 3364.941
408.3609, 3343.569
408.8430, 3316.885
409.3252, 3287.185
409.8073, 3255.722
410.2894, 3222.815
410.7715, 3188.895
411.2536, 3154.278
411.7357, 3118.923
412.2179, 3083.516
412.7000, 3048.012
413.1821, 3013.020
413.6642, 2985.218
414.1463, 2957.811
414.6284, 2915.548
415.1106, 2842.865
415.5927, 2769.846
416.0748, 2721.379
416.5569, 2690.821
417.0390, 2656.122
417.5211, 2608.252
418.0033, 2559.954
418.4854, 2532.003
418.9675, 2533.165
419.4496, 2525.428
419.9317, 2498.964
420.4138, 2470.385
420.8960, 2449.217
421.3781, 2435.786
421.8602, 2426.853
422.3423, 2419.997
422.8244, 2416.641
423.3065, 2423.094
423.7887, 2445.248
424.2708, 2468.633
424.7529, 2491.456
425.2350, 2514.954
425.7171, 2540.408
426.1992, 2567.901
426.6814, 2595.783
427.1635, 2623.510
427.6456, 2650.975
428.1277, 2675.901
428.6098, 2703.671
429.0919, 2718.116
429.5741, 2700.980
430.0562, 2668.339
430.5383, 2646.211
431.0204, 2649.609
431.5025, 2645.348
431.9846, 2597.712
432.4668, 2518.165
432.9489, 2447.269
433.4310, 2395.494
433.9131, 2354.789
434.3952, 2318.829
434.8773, 2288.873
435.3595, 2250.221
435.8416, 2193.598
436.3237, 2135.847
436.8058, 2086.258
437.2879, 2043.972
437.7701, 2003.774
438.2522, 1962.770
438.7343, 1924.068
439.2164, 1896.844
439.6985, 1893.856
440.1806, 1879.522
440.6628, 1840.056
441.1449, 1801.013
441.6270, 1781.769
442.1091, 1779.556
442.5912, 1776.706
443.0733, 1758.409
443.5555, 1729.798
444.0376, 1712.165
444.5197, 1710.319
445.0018, 1705.930
445.4839, 1687.544
445.9660, 1665.365
446.4482, 1649.769
446.9303, 1642.782
447.4124, 1636.761
447.8945, 1625.136
448.3766, 1611.536
448.8587, 1603.660
449.3409, 1602.616
449.8230, 1606.023
450.3051, 1614.432
450.7872, 1626.403
451.2693, 1629.044
451.7514, 1611.890
452.2336, 1598.316
452.7157, 1596.728
453.1978, 1603.071
453.6799, 1613.654
454.1620, 1626.778
454.6441, 1638.093
455.1263, 1640.303
455.6084, 1629.704
456.0905, 1630.995
456.5726, 1656.994
457.0547, 1682.201
457.5368, 1700.162
458.0190, 1711.953
458.5011, 1718.747
458.9832, 1720.007
459.4653, 1721.528
459.9474, 1734.461
460.4295, 1759.030
460.9117, 1776.884
461.3938, 1786.294
461.8759, 1785.182
462.3580, 1764.841
462.8401, 1729.990
463.3222, 1706.293
463.8044, 1713.016
464.2865, 1724.025
464.7686, 1714.471
465.2507, 1688.344
465.7328, 1661.737
466.2149, 1640.703
466.6971, 1626.300
467.1792, 1622.057
467.6613, 1639.919
468.1434, 1641.968
468.6255, 1619.027
469.1076, 1588.610
469.5898, 1555.934
470.0719, 1525.140
470.5540, 1504.496
471.0361, 1500.499
471.5182, 1506.286
472.0003, 1500.837
472.4825, 1479.612
472.9646, 1459.625
473.4467, 1441.542
473.9288, 1428.190
474.4109, 1423.926
474.8930, 1427.879
475.3752, 1431.581
475.8573, 1429.576
476.3394, 1424.484
476.8215, 1421.079
477.3036, 1419.495
477.7857, 1416.327
478.2679, 1408.745
478.7500, 1399.440
479.2321, 1395.362
479.7142, 1398.630
480.1963, 1400.936
480.6784, 1404.616
481.1606, 1404.045
481.6427, 1385.855
482.1248, 1355.085
482.6069, 1338.300
483.0890, 1357.657
483.5711, 1404.981
484.0533, 1434.956
484.5354, 1438.393
485.0175, 1438.753
485.4996, 1434.109
485.9817, 1431.839
486.4638, 1440.938
486.9460, 1460.681
487.4281, 1478.196
487.9102, 1482.881
488.3923, 1477.655
488.8744, 1469.748
489.3565, 1458.179
489.8387, 1450.526
490.3208, 1454.589
490.8029, 1462.903
491.2850, 1460.611
491.7671, 1446.296
492.2492, 1425.904
492.7314, 1391.515
493.2135, 1357.750
493.6956, 1347.192
494.1777, 1358.427
494.6598, 1364.766
495.1419, 1344.111
495.6241, 1302.336
496.1062, 1277.535
496.5883, 1289.452
497.0704, 1291.025
497.5525, 1266.094
498.0346, 1237.372
498.5168, 1226.442
498.9989, 1233.769
499.4810, 1241.062
499.9631, 1231.617
500.4452, 1210.130
500.9273, 1194.355
501.4095, 1185.028
501.8916, 1178.362
502.3737, 1173.626
502.8558, 1170.146
503.3379, 1167.248
503.8200, 1165.532
504.3022, 1161.829
504.7843, 1154.209
505.2664, 1144.410
505.7485, 1133.571
506.2306, 1122.231
506.7127, 1112.145
507.1949, 1104.190
507.6770, 1098.723
508.1591, 1097.632
508.6412, 1108.907
509.1233, 1112.627
509.6054, 1100.790
510.0876, 1086.761
510.5697, 1080.927
511.0518, 1082.948
511.5339, 1085.491
512.0161, 1083.413
512.4982, 1078.011
512.9803, 1072.913
513.4624, 1068.435
513.9445, 1062.108
514.4266, 1049.823
514.9088, 1038.209
515.3909, 1036.955
515.8730, 1046.973
516.3551, 1054.981
516.8372, 1056.410
517.3193, 1054.510
517.8015, 1051.851
518.2836, 1048.600
518.7657, 1043.772
519.2478, 1036.513
519.7299, 1028.974
520.2120, 1026.813
520.6942, 1036.078
521.1763, 1039.047
521.6584, 1034.579
522.1405, 1025.741
522.6226, 1008.249
523.1047, 987.7748
523.5869, 978.1654
524.0690, 989.0322
524.5511, 1008.927
525.0332, 1020.203
525.5153, 1022.890
525.9974, 1021.378
526.4796, 1014.778
526.9617, 1007.392
527.4438, 1003.745
527.9259, 1003.454
528.4080, 1004.445
528.8901, 1010.048
529.3723, 1013.291
529.8544, 1008.534
530.3365, 998.7288
530.8186, 988.2280
531.3007, 978.6922
531.7828, 973.2069
532.2650, 976.7519
532.7471, 991.0310
533.2292, 1004.004
533.7113, 1021.093
534.1934, 1030.200
534.6755, 1023.742
535.1577, 1008.799
535.6398, 993.4190
536.1219, 979.3189
536.6040, 970.0576
537.0861, 971.2917
537.5682, 980.1068
538.0504, 986.8328
538.5325, 989.9927
539.0146, 994.0101
539.4967, 1003.985
539.9788, 1017.194
540.4609, 1020.119
540.9431, 1002.749
541.4252, 990.0403
541.9073, 989.9118
542.3894, 994.8062
542.8715, 997.0734
543.3536, 996.4459
543.8358, 998.6154
544.3179, 1009.622
544.8000, 1025.621
545.2821, 1028.315
545.7642, 1012.105
546.2463, 997.9011
546.7284, 990.4398
547.2105, 987.5179
547.6926, 989.0682
548.1747, 994.5046
548.6569, 998.9028
549.1390, 1000.661
549.6211, 999.9067
550.1032, 994.8503
550.5853, 986.8792
551.0674, 982.1350
551.5496, 983.2802
552.0317, 987.5489
552.5138, 990.8906
552.9959, 994.3029
553.4780, 993.1935
553.9601, 982.8618
554.4423, 973.6985
554.9244, 969.5816
555.4065, 969.4700
555.8886, 972.1280
556.3707, 977.2125
556.8528, 982.0056
557.3350, 984.0806
557.8171, 983.2652
558.2992, 976.4488
558.7813, 960.4133
559.2634, 947.8204
559.7455, 949.2606
560.2277, 960.4399
560.7098, 966.9330
561.1919, 968.0356
561.6740, 965.5350
562.1561, 952.8943
562.6382, 941.2374
563.1204, 947.1740
563.6025, 968.4308
564.0846, 984.9116
564.5667, 981.1115
565.0488, 962.8077
565.5309, 953.0839
566.0131, 955.4766
566.4952, 957.5220
566.9773, 957.5708
567.4594, 956.2122
567.9415, 952.4374
568.4236, 947.1611
568.9058, 944.2676
569.3879, 948.4116
569.8700, 952.9243
570.3521, 947.5470
570.8342, 936.4035
571.3163, 935.3356
571.7985, 949.9594
572.2806, 968.1270
572.7627, 975.0665
573.2448, 969.5074
573.7269, 964.8151
574.2090, 962.6910
574.6912, 959.2962
575.1733, 950.1371
575.6554, 941.0641
576.1375, 938.9910
576.6196, 945.2207
577.1017, 954.9484
577.5839, 966.4219
578.0660, 977.8865
578.5481, 983.6326
579.0302, 983.5460
579.5123, 977.2674
579.9944, 961.1650
580.4766, 941.7856
580.9587, 931.9910
581.4408, 932.2860
581.9229, 936.9700
582.4050, 950.3960
582.8871, 963.3666
583.3693, 970.4252
583.8514, 972.0424
584.3335, 970.3806
584.8156, 966.3964
585.2977, 959.7811
585.7798, 946.7793
586.2620, 925.7245
586.7441, 919.7932
587.2262, 938.5518
587.7083, 958.5493
588.1904, 964.2988
588.6725, 963.0826
589.1547, 968.0214
589.6368, 985.9017
590.1189, 996.5905
590.6010, 982.2654
591.0831, 959.7064
591.5652, 950.6921
592.0474, 956.0259
592.5295, 965.7457
593.0116, 974.2582
593.4937, 979.5843
593.9758, 973.7057
594.4579, 946.5683
594.9401, 932.2307
595.4222, 947.4615
595.9043, 963.5531
596.3864, 965.7689
596.8685, 957.4241
597.3506, 948.2537
597.8328, 940.8913
598.3149, 935.7306
598.7970, 934.5588
599.2791, 935.7319
599.7612, 933.9057
600.2433, 928.0259
600.7255, 924.5115
601.2076, 929.9503
601.6897, 942.5325
602.1718, 947.4132
602.6539, 937.1981
603.1360, 929.1387
603.6182, 925.6535
604.1003, 923.8513
604.5824, 921.3601
605.0645, 918.3973
605.5466, 916.9831
606.0287, 919.0817
606.5109, 922.2448
606.9930, 922.0994
607.4751, 919.2148
607.9572, 918.7985
608.4393, 922.9556
608.9214, 926.5642
609.4036, 923.7584
609.8857, 914.5002
610.3678, 908.9064
610.8499, 910.8173
611.3320, 911.1864
611.8141, 905.6563
612.2963, 899.0086
612.7784, 896.5069
613.2605, 898.3585
613.7426, 900.7469
614.2247, 900.5431
614.7068, 899.0418
615.1890, 900.3185
615.6711, 904.6247
616.1532, 905.1659
616.6353, 897.4679
617.1174, 889.9498
617.5995, 894.9679
618.0817, 912.8431
618.5638, 919.5786
619.0459, 901.9830
619.5280, 887.2980
620.0101, 890.9554
620.4922, 900.9887
620.9744, 900.7538
621.4565, 888.1025
621.9386, 874.5727
622.4207, 870.0750
622.9028, 873.1837
623.3849, 879.9478
623.8671, 891.6936
624.3492, 899.0719
624.8313, 897.5372
625.3134, 892.4070
625.7955, 889.3542
626.2776, 888.2469
626.7598, 888.5273
627.2419, 891.9434
627.7240, 894.7669
628.2061, 894.8972
628.6882, 893.3209
629.1703, 890.0696
629.6525, 885.9396
630.1346, 885.4801
630.6167, 895.6904
631.0988, 913.0023
631.5809, 916.0634
632.0630, 901.2093
632.5452, 886.0744
633.0273, 873.2906
633.5094, 865.0577
633.9915, 866.2056
634.4736, 876.0742
634.9557, 881.0675
635.4379, 872.3808
635.9200, 864.5709
636.4021, 867.4125
636.8842, 875.8939
637.3663, 882.7742
637.8484, 885.9496
638.3306, 886.1641
638.8127, 884.2028
639.2948, 879.9076
639.7769, 871.4083
640.2590, 856.6788
640.7411, 844.7457
641.2233, 837.5271
641.7054, 834.9766
642.1875, 838.7087
642.6696, 848.0645
643.1517, 854.6221
643.6339, 854.2913
644.1160, 853.2576
644.5981, 855.8636
645.0802, 859.5912
645.5623, 860.5333
646.0444, 857.8911
646.5266, 853.1602
647.0087, 847.0860
647.4908, 840.4822
647.9729, 837.9029
648.4550, 840.7720
648.9371, 841.8705
649.4193, 837.8526
649.9014, 833.0852
650.3835, 831.8301
650.8656, 833.6686
651.3477, 835.7994
651.8298, 836.6599
652.3120, 838.9620
652.7941, 846.4001
653.2762, 854.8760
653.7583, 858.6605
654.2404, 857.1180
654.7225, 853.1923
655.2047, 848.3137
655.6868, 844.1436
656.1689, 848.3422
656.6510, 863.3781
657.1331, 870.6364
657.6152, 861.1301
658.0974, 850.1577
658.5795, 854.7634
659.0616, 870.6633
659.5437, 878.3920
660.0258, 870.1317
660.5079, 861.0527
660.9901, 856.2828
661.4722, 853.2417
661.9543, 848.9353
662.4364, 843.4271
662.9185, 838.3911
663.4006, 834.5036
663.8828, 833.0656
664.3649, 839.8754
664.8470, 855.4826
665.3291, 859.7142
665.8112, 845.2001
666.2933, 828.9121
666.7755, 821.9802
667.2576, 823.7825
667.7397, 830.5215
668.2218, 849.7233
668.7039, 861.6010
669.1860, 856.1664
669.6682, 847.0891
670.1503, 845.7836
670.6324, 850.4091
671.1145, 852.5258
671.5966, 847.6991
672.0787, 840.6317
672.5609, 837.1752
673.0430, 837.2313
673.5251, 840.9827
674.0072, 849.2396
674.4893, 856.7791
674.9714, 861.1872
675.4536, 862.2478
675.9357, 858.6890
676.4178, 845.1702
676.8999, 838.8226
677.3820, 843.9205
677.8641, 852.3772
678.3463, 864.9495
