##NAMES=Kaliborite
##RRUFFID=R060352
##IDEAL CHEMISTRY=KHMg_2_B_12_O_16_(OH)_10_&#183;4H_2_O
##LOCALITY=Inder Boron deposit, Atyrau (Gur'yev), Atyrau Oblast', Kazakhstan
##OWNER=RRUFF
##SOURCE=Herb Obodda
##DESCRIPTION=Colorless fragment
##STATUS=The identification of this mineral has been confirmed by X-ray diffraction and chemical analysis
##URL=rruff.info/R060352
##MEASURED CHEMISTRY=K_1.00_H_1.00_Mg_2.00_B_12.00_O_16_(OH)_10_Â·4H_2_O ; H and B not measured but estimated by stoichiometry
130.0258, 9.635228
130.5079, 13.20548
130.9900, 16.01115
131.4721, 18.02869
131.9542, 19.77544
132.4363, 21.79972
132.9185, 24.00952
133.4006, 25.75225
133.8827, 26.74758
134.3648, 27.15141
134.8469, 27.25540
135.3290, 26.84211
135.8112, 27.09002
136.2933, 29.76454
136.7754, 35.04040
137.2575, 40.12773
137.7396, 43.86219
138.2217, 46.24120
138.7039, 49.54454
139.1860, 53.70302
139.6681, 58.91355
140.1502, 65.94810
140.6323, 75.32265
141.1144, 84.57937
141.5966, 93.05984
142.0787, 100.9451
142.5608, 106.9186
143.0429, 110.6136
143.5250, 112.6060
144.0071, 114.0145
144.4893, 114.4383
144.9714, 114.9094
145.4535, 116.0419
145.9356, 118.9155
146.4177, 120.2293
146.8998, 119.1169
147.3820, 116.3119
147.8641, 114.7474
148.3462, 114.1210
148.8283, 115.0342
149.3104, 117.9220
149.7925, 125.1191
150.2747, 131.2184
150.7568, 134.7981
151.2389, 136.2073
151.7210, 139.8257
152.2031, 147.5173
152.6852, 156.2314
153.1674, 164.1629
153.6495, 170.3188
154.1316, 176.5827
154.6137, 182.7784
155.0958, 188.8876
155.5779, 196.5397
156.0601, 206.8217
156.5422, 218.3423
157.0243, 229.7972
157.5064, 243.8925
157.9885, 255.1825
158.4706, 260.8827
158.9528, 260.1285
159.4349, 260.5681
159.9170, 265.7204
160.3991, 272.6419
160.8812, 277.9303
161.3633, 278.9046
161.8455, 279.4032
162.3276, 281.3647
162.8097, 285.3584
163.2918, 288.7356
163.7739, 290.6546
164.2560, 290.9208
164.7382, 287.9542
165.2203, 281.2850
165.7024, 275.0732
166.1845, 272.0361
166.6666, 273.5889
167.1487, 274.5968
167.6309, 270.7208
168.1130, 264.1996
168.5951, 259.8352
169.0772, 261.4429
169.5593, 265.2210
170.0414, 267.7426
170.5236, 267.6973
171.0057, 268.0128
171.4878, 271.0943
171.9699, 276.3452
172.4520, 281.9015
172.9341, 287.1617
173.4163, 292.0301
173.8984, 296.4789
174.3805, 300.8119
174.8626, 304.2548
175.3447, 305.3834
175.8268, 304.7109
176.3090, 304.6388
176.7911, 306.9798
177.2732, 310.9331
177.7553, 315.2480
178.2374, 319.7189
178.7195, 324.3008
179.2017, 328.9207
179.6838, 333.6234
180.1659, 338.4389
180.6480, 343.5382
181.1301, 348.7916
181.6122, 354.0497
182.0944, 359.4671
182.5765, 364.7121
183.0586, 369.1463
183.5407, 372.7068
184.0228, 376.2912
184.5049, 381.0428
184.9871, 386.5679
185.4692, 391.4073
185.9513, 396.3704
186.4334, 399.9473
186.9155, 398.0618
187.3976, 390.4882
187.8798, 380.2902
188.3619, 370.0779
188.8440, 359.7506
189.3261, 349.3105
189.8082, 338.5915
190.2903, 327.6913
190.7725, 316.5376
191.2546, 304.8013
191.7367, 293.7680
192.2188, 284.6963
192.7009, 277.4652
193.1830, 271.4890
193.6652, 266.6785
194.1473, 262.9323
194.6294, 260.3973
195.1115, 259.5060
195.5936, 258.3966
196.0757, 253.9389
196.5579, 245.9969
197.0400, 238.7497
197.5221, 234.4148
198.0042, 232.7430
198.4863, 229.4133
198.9684, 224.0756
199.4506, 217.8837
199.9327, 212.4983
200.4148, 207.9184
200.8969, 203.8651
201.3790, 200.2637
201.8611, 197.1396
202.3433, 194.1621
202.8254, 191.3385
203.3075, 188.6296
203.7896, 186.0256
204.2717, 183.5208
204.7538, 181.0602
205.2360, 178.2352
205.7181, 174.8010
206.2002, 173.3792
206.6823, 174.4278
207.1644, 176.9235
207.6465, 178.9485
208.1287, 180.2571
208.6108, 181.8870
209.0929, 184.9673
209.5750, 190.3659
210.0571, 192.1842
210.5392, 189.1264
211.0214, 183.6878
211.5035, 181.4273
211.9856, 183.6452
212.4677, 185.5051
212.9498, 184.5378
213.4319, 179.8954
213.9140, 176.1061
214.3962, 173.4509
214.8783, 171.5001
215.3604, 169.2927
215.8425, 166.6593
216.3246, 164.0987
216.8067, 161.6113
217.2889, 158.8349
217.7710, 157.6162
218.2531, 158.7840
218.7352, 161.1078
219.2173, 161.4697
219.6994, 158.8947
220.1816, 156.2113
220.6637, 154.5498
221.1458, 153.9015
221.6279, 154.4247
222.1100, 156.7224
222.5921, 159.9570
223.0743, 161.8827
223.5564, 161.7867
224.0385, 161.6230
224.5206, 162.3333
225.0027, 164.3173
225.4848, 166.1733
225.9670, 168.0711
226.4491, 169.7562
226.9312, 170.5674
227.4133, 170.3765
227.8954, 169.5052
228.3775, 168.0900
228.8597, 166.0271
229.3418, 163.5759
229.8239, 160.5659
230.3060, 157.1983
230.7881, 154.1072
231.2702, 151.2301
231.7524, 148.6525
232.2345, 146.4837
232.7166, 144.9035
233.1987, 143.1672
233.6808, 140.9083
234.1629, 138.5907
234.6451, 137.5093
235.1272, 138.2794
235.6093, 139.3885
236.0914, 140.2168
236.5735, 140.7548
237.0556, 140.9461
237.5378, 140.1615
238.0199, 139.2155
238.5020, 140.3208
238.9841, 144.6687
239.4662, 149.3294
239.9483, 153.0268
240.4305, 155.1029
240.9126, 157.6601
241.3947, 160.6929
241.8768, 164.2040
242.3589, 168.2117
242.8410, 172.7424
243.3232, 177.7067
243.8053, 182.9805
244.2874, 188.3595
244.7695, 194.6569
245.2516, 202.4444
245.7337, 210.9605
246.2159, 218.2614
246.6980, 222.8621
247.1801, 228.6067
247.6622, 237.2418
248.1443, 249.9446
248.6264, 262.3362
249.1086, 274.3789
249.5907, 286.2146
250.0728, 298.1069
250.5549, 309.9886
251.0370, 322.0402
251.5191, 334.3546
252.0013, 346.7715
252.4834, 359.7312
252.9655, 373.6696
253.4476, 387.7613
253.9297, 400.2401
254.4118, 410.0262
254.8940, 419.9606
255.3761, 431.2199
255.8582, 444.4338
256.3403, 456.4567
256.8224, 466.3620
257.3046, 475.7978
257.7867, 487.3604
258.2688, 501.8100
258.7509, 517.0688
259.2330, 533.1459
259.7151, 551.0469
260.1973, 564.4489
260.6794, 572.5275
261.1615, 576.6803
261.6436, 578.9564
262.1257, 580.2711
262.6078, 577.5786
263.0900, 570.0146
263.5721, 557.4213
264.0542, 540.5767
264.5363, 518.4767
265.0184, 493.1300
265.5005, 465.6074
265.9827, 434.9199
266.4648, 405.5573
266.9469, 378.8081
267.4290, 354.7713
267.9111, 333.0185
268.3932, 313.9825
268.8754, 296.8131
269.3575, 280.2712
269.8396, 263.5577
270.3217, 249.9890
270.8038, 241.2585
271.2859, 236.9863
271.7681, 230.7965
272.2502, 221.8001
272.7323, 212.7329
273.2144, 206.7330
273.6965, 204.1952
274.1786, 202.4136
274.6608, 200.9822
275.1429, 199.8469
275.6250, 198.5441
276.1071, 197.0297
276.5892, 195.4820
277.0714, 193.9604
277.5535, 192.3923
278.0356, 191.5186
278.5177, 191.7902
278.9998, 192.7847
279.4819, 192.5992
279.9641, 190.9995
280.4462, 189.1976
280.9283, 187.8296
281.4104, 186.8785
281.8925, 187.3940
282.3746, 190.0283
282.8568, 193.8589
283.3389, 195.9915
283.8210, 196.1917
284.3031, 196.5003
284.7852, 198.2204
285.2673, 201.3088
285.7495, 205.4736
286.2316, 210.9637
286.7137, 217.0948
287.1958, 222.4688
287.6779, 227.0667
288.1600, 231.3866
288.6422, 235.8664
289.1243, 240.4395
289.6064, 244.2512
290.0885, 247.1502
290.5706, 249.6139
291.0527, 253.0095
291.5349, 257.1796
292.0170, 259.7749
292.4991, 259.1545
292.9812, 255.8536
293.4633, 251.5193
293.9454, 246.0301
294.4276, 240.2971
294.9097, 235.7107
295.3918, 232.0592
295.8739, 228.3176
296.3560, 223.3046
296.8381, 217.9236
297.3203, 214.4635
297.8024, 213.0406
298.2845, 212.9088
298.7666, 213.8971
299.2487, 215.6576
299.7308, 217.1506
300.2130, 217.5488
300.6951, 217.5685
301.1772, 218.1189
301.6593, 219.1939
302.1414, 221.3043
302.6235, 226.0003
303.1057, 232.0124
303.5878, 236.6404
304.0699, 238.4379
304.5520, 238.9182
305.0341, 240.3431
305.5162, 242.4521
305.9984, 243.0158
306.4805, 239.5325
306.9626, 233.7246
307.4447, 228.0953
307.9268, 223.6417
308.4089, 219.0419
308.8911, 212.6893
309.3732, 205.0085
309.8553, 197.7534
310.3374, 192.4863
310.8195, 187.8937
311.3016, 182.6250
311.7838, 175.9809
312.2659, 169.5337
312.7480, 164.4000
313.2301, 160.3341
313.7122, 156.6067
314.1943, 153.2889
314.6765, 149.8913
315.1586, 145.8484
315.6407, 140.7478
316.1228, 136.2282
316.6049, 133.2611
317.0870, 131.3883
317.5692, 129.8927
318.0513, 128.6589
318.5334, 127.5982
319.0155, 126.8686
319.4976, 126.5953
319.9797, 125.7258
320.4619, 123.2016
320.9440, 120.1344
321.4261, 117.8003
321.9082, 116.3904
322.3903, 115.8348
322.8724, 116.7793
323.3546, 119.2664
323.8367, 120.3930
324.3188, 118.2519
324.8009, 115.2827
325.2830, 113.3731
325.7651, 113.3116
326.2473, 113.6793
326.7294, 114.5080
327.2115, 115.7185
327.6936, 116.7069
328.1757, 117.7652
328.6578, 118.3462
329.1400, 118.1560
329.6221, 116.0003
330.1042, 114.6997
330.5863, 114.6863
331.0684, 115.5504
331.5505, 116.0479
332.0327, 115.5056
332.5148, 115.3923
332.9969, 116.4771
333.4790, 119.5699
333.9611, 121.5025
334.4432, 121.6827
334.9254, 121.0442
335.4075, 121.1975
335.8896, 122.4891
336.3717, 123.8596
336.8538, 124.7942
337.3359, 125.1618
337.8180, 126.7936
338.3001, 130.1961
338.7823, 134.0840
339.2644, 136.8814
339.7465, 138.3596
340.2286, 139.8353
340.7107, 141.6294
341.1928, 143.6965
341.6750, 145.3544
342.1571, 146.4103
342.6392, 147.8454
343.1213, 150.7937
343.6034, 155.2562
344.0855, 159.3123
344.5677, 162.4931
345.0498, 165.2010
345.5319, 168.3801
346.0140, 172.0469
346.4961, 175.7011
346.9782, 178.9972
347.4604, 182.0153
347.9425, 185.1083
348.4246, 188.4892
348.9067, 191.5149
349.3888, 192.9454
349.8709, 193.0444
350.3531, 193.2632
350.8352, 194.7140
351.3173, 196.6965
351.7994, 197.7066
352.2815, 197.6184
352.7636, 197.4339
353.2458, 197.5927
353.7279, 198.3758
354.2100, 200.4184
354.6921, 205.0299
355.1742, 210.2691
355.6563, 213.9687
356.1385, 216.2456
356.6206, 218.5209
357.1027, 221.7006
357.5848, 225.4388
358.0669, 229.4819
358.5490, 234.3703
359.0312, 238.6156
359.5133, 240.5249
359.9954, 240.8816
360.4775, 242.1463
360.9596, 246.5286
361.4417, 251.5446
361.9239, 255.6014
362.4060, 258.3825
362.8881, 260.3883
363.3702, 261.1809
363.8523, 261.4324
364.3344, 262.1736
364.8166, 264.9686
365.2987, 267.1769
365.7808, 267.7546
366.2629, 266.5821
366.7450, 264.5586
367.2271, 261.0413
367.7093, 257.1236
368.1914, 253.7670
368.6735, 251.0272
369.1556, 248.8703
369.6377, 246.7996
370.1198, 245.0016
370.6020, 245.6071
371.0841, 250.9754
371.5662, 256.5682
372.0483, 259.7791
372.5304, 258.6126
373.0125, 258.9846
373.4947, 262.0527
373.9768, 266.3512
374.4589, 268.4134
374.9410, 267.6060
375.4231, 265.8382
375.9052, 263.5788
376.3874, 260.6755
376.8695, 258.5860
377.3516, 257.6882
377.8337, 256.9344
378.3158, 254.4355
378.7979, 249.7411
379.2801, 246.7269
379.7622, 246.8515
380.2443, 249.4221
380.7264, 251.4097
381.2085, 252.7532
381.6906, 253.8595
382.1728, 254.6113
382.6549, 255.2293
383.1370, 257.1401
383.6191, 260.7689
384.1012, 265.4895
384.5833, 270.5854
385.0655, 276.0196
385.5476, 281.4415
386.0297, 286.3634
386.5118, 291.2748
386.9939, 297.1136
387.4760, 303.9154
387.9582, 311.7026
388.4403, 321.0721
388.9224, 331.5292
389.4045, 341.9555
389.8866, 352.0266
390.3687, 361.8966
390.8509, 371.8951
391.3330, 381.8856
391.8151, 390.8922
392.2972, 398.7333
392.7793, 405.0180
393.2614, 409.3977
393.7436, 411.7642
394.2257, 412.1635
394.7078, 409.9630
395.1899, 405.7217
395.6720, 400.9055
396.1541, 395.8971
396.6363, 390.4914
397.1184, 384.5853
397.6005, 378.1378
398.0826, 371.2977
398.5647, 362.1815
399.0468, 353.3318
399.5290, 347.8304
400.0111, 347.4437
400.4932, 348.7707
400.9753, 351.1427
401.4574, 354.5856
401.9395, 360.1660
402.4217, 368.4304
402.9038, 378.2842
403.3859, 389.0608
403.8680, 400.8348
404.3501, 413.2971
404.8322, 425.8624
405.3144, 439.3202
405.7965, 455.3865
406.2786, 474.3267
406.7607, 495.2505
407.2428, 518.3467
407.7249, 543.8033
408.2071, 568.0915
408.6892, 590.9791
409.1713, 613.7683
409.6534, 639.0870
410.1355, 666.6041
410.6176, 691.8207
411.0998, 713.6701
411.5819, 732.4322
412.0640, 749.9516
412.5461, 765.9335
413.0282, 776.5486
413.5103, 778.0688
413.9925, 772.0777
414.4746, 761.3352
414.9567, 745.6494
415.4388, 727.0993
415.9209, 707.4196
416.4030, 686.4828
416.8852, 663.3878
417.3673, 635.6344
417.8494, 607.2317
418.3315, 580.8765
418.8136, 556.9597
419.2957, 534.9563
419.7779, 516.2970
420.2600, 498.8793
420.7421, 480.9057
421.2242, 459.1161
421.7063, 439.3483
422.1884, 423.6908
422.6706, 411.5314
423.1527, 399.9195
423.6348, 388.4037
424.1169, 377.2853
424.5990, 366.4121
425.0811, 355.1273
425.5633, 345.8041
426.0454, 339.4260
426.5275, 334.6556
427.0096, 329.7451
427.4917, 324.4372
427.9738, 319.4212
428.4560, 314.7856
428.9381, 310.5014
429.4202, 306.8985
429.9023, 304.3092
430.3844, 301.8588
430.8665, 298.9250
431.3487, 295.4168
431.8308, 292.1379
432.3129, 289.5506
432.7950, 286.7099
433.2771, 281.2257
433.7592, 273.0323
434.2414, 265.0067
434.7235, 258.7956
435.2056, 253.8848
435.6877, 248.2760
436.1698, 241.9860
436.6519, 235.0928
437.1341, 227.0390
437.6162, 218.5122
438.0983, 211.2254
438.5804, 206.2251
439.0625, 201.8399
439.5446, 196.2260
440.0268, 189.5997
440.5089, 182.7448
440.9910, 175.7312
441.4731, 168.9339
441.9552, 162.4153
442.4373, 156.1287
442.9195, 150.8324
443.4016, 147.4869
443.8837, 145.1747
444.3658, 142.7802
444.8479, 139.8886
445.3300, 136.9515
445.8122, 133.6822
446.2943, 130.2630
446.7764, 127.9734
447.2585, 128.7857
447.7406, 129.4029
448.2227, 128.0702
448.7049, 123.4920
449.1870, 119.4394
449.6691, 115.8249
450.1512, 112.7990
450.6333, 110.6680
451.1154, 109.4778
451.5976, 109.1158
452.0797, 110.0176
452.5618, 112.0038
453.0439, 112.0805
453.5260, 109.7638
454.0081, 107.0505
454.4903, 105.3160
454.9724, 104.5714
455.4545, 104.9639
455.9366, 106.9418
456.4187, 109.1643
456.9008, 108.9402
457.3830, 106.5664
457.8651, 104.3955
458.3472, 103.8176
458.8293, 104.0738
459.3114, 103.7104
459.7935, 102.7250
460.2757, 101.7801
460.7578, 101.2411
461.2399, 101.1314
461.7220, 101.5128
462.2041, 102.5532
462.6862, 103.8335
463.1684, 105.8003
463.6505, 107.8337
464.1326, 108.4469
464.6147, 105.2638
465.0968, 101.9726
465.5789, 100.7179
466.0611, 101.9429
466.5432, 102.8470
467.0253, 102.1507
467.5074, 101.2906
467.9895, 101.4703
468.4716, 103.3493
468.9538, 105.5716
469.4359, 108.6511
469.9180, 111.9920
470.4001, 113.5378
470.8822, 112.4108
471.3643, 111.0134
471.8465, 110.1399
472.3286, 109.7556
472.8107, 110.3764
473.2928, 112.1829
473.7749, 114.5240
474.2570, 116.8669
474.7392, 119.2091
475.2213, 121.0240
475.7034, 122.2386
476.1855, 122.8137
476.6676, 122.3206
477.1497, 120.8783
477.6319, 119.6450
478.1140, 119.5869
478.5961, 120.0911
479.0782, 120.1945
479.5603, 119.8306
480.0424, 119.0853
480.5246, 117.8243
481.0067, 116.2767
481.4888, 114.7565
481.9709, 113.2055
482.4530, 111.8734
482.9352, 111.2681
483.4173, 111.0554
483.8994, 110.1790
484.3815, 107.6237
484.8636, 104.8559
485.3457, 102.5729
485.8279, 100.9121
486.3100, 99.36819
486.7921, 97.65269
487.2742, 96.17834
487.7563, 95.33410
488.2384, 95.55679
488.7206, 95.63535
489.2027, 95.26108
489.6848, 94.67220
490.1669, 94.89292
490.6490, 96.29013
491.1311, 97.37629
491.6133, 97.24658
492.0954, 95.92773
492.5775, 94.99922
493.0596, 94.47240
493.5417, 94.31826
494.0238, 94.74963
494.5060, 95.60506
494.9881, 96.08656
495.4702, 95.86172
495.9523, 95.37861
496.4344, 95.22118
496.9165, 95.34505
497.3987, 95.58290
497.8808, 95.85510
498.3629, 96.19036
498.8450, 96.79338
499.3271, 97.71349
499.8092, 98.13815
500.2914, 96.69645
500.7735, 95.00979
501.2556, 94.60698
501.7377, 97.67077
502.2198, 99.88021
502.7019, 99.90379
503.1841, 98.37606
503.6662, 97.03813
504.1483, 95.35610
504.6304, 94.59811
505.1125, 95.54884
505.5946, 98.44854
506.0768, 99.84988
506.5589, 99.01457
507.0410, 97.76218
507.5231, 97.66125
508.0052, 98.92458
508.4873, 99.88335
508.9695, 100.2233
509.4516, 100.3658
509.9337, 101.2819
510.4158, 102.9151
510.8979, 104.1742
511.3800, 103.9879
511.8622, 103.2947
512.3443, 104.6071
512.8264, 107.8053
513.3085, 110.8781
513.7906, 112.0586
514.2728, 112.2849
514.7549, 112.8022
515.2370, 113.9574
515.7191, 115.0854
516.2012, 115.7788
516.6833, 116.1716
517.1655, 116.4820
517.6476, 115.8440
518.1297, 116.0658
518.6118, 118.4621
519.0939, 122.7654
519.5760, 125.8800
520.0582, 126.2101
520.5403, 126.3072
521.0224, 127.2536
521.5045, 129.4057
521.9866, 131.3520
522.4688, 132.9305
522.9509, 134.4808
523.4330, 136.5282
523.9151, 139.1987
524.3972, 141.7621
524.8793, 144.3009
525.3615, 146.4050
525.8436, 146.6136
526.3257, 144.9544
526.8078, 143.3616
527.2899, 143.7771
527.7720, 144.9268
528.2542, 143.6339
528.7363, 139.7211
529.2184, 135.1470
529.7005, 131.5295
530.1826, 128.3209
530.6647, 124.6687
531.1469, 119.6617
531.6290, 115.3561
532.1111, 113.6553
532.5932, 113.4611
533.0753, 112.5394
533.5574, 109.0462
534.0396, 105.8551
534.5217, 104.1587
535.0038, 104.1151
535.4859, 103.6108
535.9680, 102.1255
536.4501, 100.6329
536.9323, 99.86893
537.4144, 100.6108
537.8965, 99.63228
538.3786, 96.06857
538.8607, 91.86641
539.3428, 90.12254
539.8250, 90.96922
540.3071, 92.36964
540.7892, 94.03867
541.2713, 95.64471
541.7534, 96.08200
542.2355, 95.45441
542.7177, 94.85695
543.1998, 95.45733
543.6819, 96.35208
544.1640, 95.78748
544.6461, 93.54993
545.1282, 91.72520
545.6104, 92.45940
546.0925, 94.15112
546.5746, 94.97057
547.0567, 93.66908
547.5388, 92.47351
548.0209, 92.09192
548.5031, 92.34964
548.9852, 92.84956
549.4673, 93.63176
549.9494, 94.56701
550.4315, 95.89810
550.9136, 97.61929
551.3958, 98.09518
551.8779, 96.65885
552.3600, 95.09980
552.8421, 94.51016
553.3242, 94.95000
553.8063, 95.97118
554.2885, 97.79460
554.7706, 99.53770
555.2527, 99.80823
555.7348, 98.82282
556.2169, 97.83944
556.6990, 96.89423
557.1812, 96.58836
557.6633, 98.57898
558.1454, 102.1919
558.6275, 104.8983
559.1096, 104.5545
559.5917, 103.1673
560.0739, 102.1900
560.5560, 101.7246
561.0381, 101.6397
561.5202, 101.9402
562.0023, 102.5664
562.4844, 103.4815
562.9666, 104.7931
563.4487, 106.2427
563.9308, 107.9878
564.4129, 109.7817
564.8950, 111.1912
565.3771, 111.9202
565.8593, 112.9451
566.3414, 114.7357
566.8235, 116.9510
567.3056, 117.9761
567.7877, 117.6683
568.2698, 117.1542
568.7520, 116.7737
569.2341, 116.6981
569.7162, 117.9447
570.1983, 120.6249
570.6804, 123.1491
571.1625, 123.4750
571.6447, 122.7733
572.1268, 122.9930
572.6089, 124.9381
573.0910, 127.1685
573.5731, 129.1640
574.0552, 130.7565
574.5374, 131.6949
575.0195, 130.9949
575.5016, 130.5256
575.9837, 130.8367
576.4658, 131.9297
576.9479, 133.6118
577.4301, 136.8893
577.9122, 139.5176
578.3943, 140.2138
578.8764, 138.3612
579.3585, 138.2059
579.8406, 140.2585
580.3228, 142.8707
580.8049, 144.3626
581.2870, 144.7797
581.7691, 144.8434
582.2512, 144.4010
582.7333, 144.2948
583.2155, 146.1384
583.6975, 149.4188
584.1796, 152.6273
584.6617, 155.3931
585.1439, 157.4996
585.6260, 158.3132
586.1081, 158.1131
586.5902, 158.3092
587.0723, 159.7276
587.5544, 161.5942
588.0366, 163.5612
588.5187, 165.6286
589.0008, 167.5850
589.4829, 169.2935
589.9650, 170.9616
590.4471, 172.8587
590.9293, 175.6283
591.4114, 177.0312
591.8935, 176.4790
592.3756, 175.0009
592.8577, 174.6306
593.3398, 175.4695
593.8220, 175.7152
594.3041, 174.5408
594.7862, 172.5857
595.2683, 171.4748
595.7504, 171.0782
596.2325, 170.3723
596.7147, 168.1145
597.1968, 165.5261
597.6789, 164.2318
598.1610, 164.3713
598.6431, 164.2408
599.1252, 162.8301
599.6074, 160.7901
600.0895, 158.5773
600.5716, 155.8219
601.0537, 153.6875
601.5358, 152.6988
602.0179, 152.3063
602.5001, 151.8637
602.9822, 151.4929
603.4643, 150.8195
603.9464, 149.7035
604.4285, 148.2684
604.9106, 146.7905
605.3928, 145.2467
605.8749, 143.9772
606.3570, 143.5235
606.8391, 143.4473
607.3212, 141.9349
607.8033, 139.0629
608.2855, 136.5390
608.7676, 136.5439
609.2497, 137.3276
609.7318, 136.3764
610.2139, 132.8972
610.6960, 129.7411
611.1782, 128.7168
611.6603, 128.7222
612.1424, 128.5769
612.6245, 127.9929
613.1066, 127.2818
613.5887, 126.4908
614.0709, 125.5990
614.5530, 124.4127
615.0351, 122.4208
615.5172, 121.3383
615.9993, 122.0248
616.4814, 123.9949
616.9636, 124.4458
617.4457, 123.2578
617.9278, 121.9377
618.4099, 121.5643
618.8920, 121.7850
619.3741, 121.4102
619.8563, 120.3801
620.3384, 119.7892
620.8205, 121.3111
621.3026, 123.4515
621.7847, 124.2490
622.2668, 122.7755
622.7490, 121.3821
623.2311, 121.2794
623.7132, 121.7815
624.1953, 122.0119
