##NAMES=Kalsilite
##RRUFFID=R060801
##IDEAL CHEMISTRY=KAlSiO_4_
##LOCALITY=Marino, Latium, Italy
##OWNER=RRUFF
##SOURCE=Smithsonian Institute
##DESCRIPTION=White anhedral blebs
##STATUS=The identification of this mineral is confirmed by single-crystal X-ray diffraction and chemical analysis.
##URL=rruff.info/R060801
##MEASURED CHEMISTRY=(K_0.90_Na_0.09_[box]_0.01_)_Î£=1_Al_0.99_Si_1.01_O_4_
93.08527, 0.0000000E+00
93.56738, 90.70779
94.04950, 90.85622
94.53162, 91.55431
95.01373, 91.67860
95.49585, 91.73495
95.97797, 91.92361
96.46008, 92.46898
96.94220, 93.72919
97.42432, 94.51260
97.90643, 94.59151
98.38855, 94.33739
98.87067, 93.91477
99.35278, 93.40440
99.83490, 92.85682
100.3170, 92.33268
100.7991, 91.48370
101.2813, 90.88382
101.7634, 90.60954
102.2455, 90.56048
102.7276, 90.62321
103.2097, 90.73875
103.6918, 90.90393
104.1740, 91.16496
104.6561, 91.61213
105.1382, 92.02390
105.6203, 92.37430
106.1024, 92.63724
106.5845, 92.71772
107.0667, 92.52190
107.5488, 92.05547
108.0309, 91.46323
108.5130, 90.46764
108.9951, 89.47379
109.4772, 88.99949
109.9594, 89.16118
110.4415, 89.50832
110.9236, 89.78627
111.4057, 90.00420
111.8878, 90.16915
112.3699, 90.26989
112.8521, 90.31267
113.3342, 90.35007
113.8163, 90.44234
114.2984, 90.45733
114.7805, 90.32896
115.2626, 90.07226
115.7448, 89.74834
116.2269, 89.41074
116.7090, 89.06130
117.1911, 88.69186
117.6732, 88.43142
118.1553, 88.06333
118.6375, 87.39919
119.1196, 86.43357
119.6017, 85.35517
120.0838, 84.48177
120.5659, 84.02843
121.0480, 83.46350
121.5302, 82.84964
122.0123, 82.10651
122.4944, 81.09863
122.9765, 79.75646
123.4586, 78.21639
123.9407, 76.84524
124.4228, 75.59862
124.9050, 74.51772
125.3871, 73.75246
125.8692, 73.20373
126.3513, 72.48726
126.8334, 71.26433
127.3155, 69.88707
127.7977, 69.05003
128.2798, 69.03465
128.7619, 69.14414
129.2440, 68.65643
129.7261, 67.46964
130.2083, 66.35113
130.6904, 65.73655
131.1725, 65.36284
131.6546, 65.00074
132.1367, 64.56099
132.6188, 64.09856
133.1010, 63.76022
133.5831, 63.64911
134.0652, 63.49894
134.5473, 63.10838
135.0294, 62.65651
135.5115, 62.40886
135.9937, 62.57457
136.4758, 63.11442
136.9579, 63.40410
137.4400, 63.25517
137.9221, 63.02545
138.4042, 62.76628
138.8864, 62.49431
139.3685, 62.21346
139.8506, 61.92719
140.3327, 61.63522
140.8148, 61.34033
141.2969, 61.04893
141.7791, 60.75192
142.2612, 60.40426
142.7433, 60.01777
143.2254, 59.69867
143.7075, 59.58382
144.1896, 59.71738
144.6718, 59.81094
145.1539, 59.79521
145.6360, 59.75476
146.1181, 59.80117
146.6002, 59.97050
147.0823, 60.16467
147.5645, 60.27959
148.0466, 60.32647
148.5287, 60.30537
149.0108, 60.18311
149.4929, 59.98639
149.9750, 59.79360
150.4572, 59.58828
150.9393, 59.43804
151.4214, 59.39849
151.9035, 59.46417
152.3856, 59.56071
152.8677, 59.65057
153.3499, 59.73683
153.8320, 59.76325
154.3141, 59.71921
154.7962, 59.60576
155.2783, 59.39847
155.7604, 59.10022
156.2425, 58.76012
156.7247, 58.40950
157.2068, 57.95090
157.6889, 57.73652
158.1710, 57.94591
158.6531, 58.26021
159.1352, 58.47575
159.6174, 58.52674
160.0995, 58.46453
160.5816, 58.38631
161.0637, 58.21976
161.5458, 58.14220
162.0279, 58.22749
162.5101, 58.37081
162.9922, 58.47618
163.4743, 58.50324
163.9564, 58.45517
164.4385, 58.33194
164.9206, 58.02383
165.4028, 57.78585
165.8849, 57.68408
166.3670, 57.67999
166.8491, 57.71476
167.3312, 57.77415
167.8133, 57.83460
168.2955, 57.82113
168.7776, 57.66960
169.2597, 57.54698
169.7418, 57.52547
170.2239, 57.59994
170.7060, 57.76146
171.1882, 58.10236
171.6703, 58.47189
172.1524, 58.58228
172.6345, 58.29331
173.1166, 57.93087
173.5987, 57.84412
174.0809, 58.07199
174.5630, 58.20551
175.0451, 57.85074
175.5272, 57.37219
176.0093, 57.13655
176.4914, 57.29334
176.9736, 57.65158
177.4557, 57.92451
177.9378, 58.12085
178.4199, 58.19757
178.9020, 58.07477
179.3841, 57.86792
179.8663, 57.67397
180.3484, 57.52472
180.8305, 57.44375
181.3126, 57.52981
181.7947, 58.01792
182.2768, 58.32928
182.7590, 58.17390
183.2411, 57.83686
183.7232, 57.68996
184.2053, 57.95845
184.6874, 58.56352
185.1695, 59.01067
185.6517, 59.29996
186.1338, 59.40676
186.6159, 59.15853
187.0980, 58.73729
187.5801, 58.43093
188.0622, 58.43364
188.5444, 58.72156
189.0265, 58.97994
189.5086, 59.27276
189.9907, 59.47800
190.4728, 59.49205
190.9549, 59.37696
191.4371, 59.30211
191.9192, 59.40322
192.4013, 59.65639
192.8834, 59.73916
193.3655, 59.50963
193.8476, 59.26684
194.3298, 59.13261
194.8119, 59.11273
195.2940, 59.21605
195.7761, 59.51673
196.2582, 59.95520
196.7403, 60.17526
197.2225, 59.99398
197.7046, 59.72484
198.1867, 59.57861
198.6688, 59.55885
199.1509, 59.65903
199.6330, 59.93565
200.1152, 60.32809
200.5973, 60.70202
201.0794, 61.06886
201.5615, 61.38509
202.0436, 61.58425
202.5257, 61.64865
203.0079, 61.66851
203.4900, 61.65109
203.9721, 61.63059
204.4542, 61.65666
204.9363, 61.75817
205.4184, 61.90656
205.9006, 62.04721
206.3827, 62.16942
206.8648, 62.30830
207.3469, 62.46009
207.8290, 62.63940
208.3111, 62.86452
208.7933, 63.13919
209.2754, 63.46962
209.7575, 63.88594
210.2396, 64.44092
210.7217, 65.00220
211.2038, 65.54465
211.6860, 66.06556
212.1681, 66.56916
212.6502, 67.05862
213.1323, 67.52733
213.6144, 67.93683
214.0965, 68.23544
214.5787, 68.53609
215.0608, 68.75735
215.5429, 69.01608
216.0250, 69.51336
216.5071, 70.39531
216.9892, 71.54784
217.4714, 72.33128
217.9535, 72.25780
218.4356, 72.30708
218.9177, 72.61526
219.3998, 73.13772
219.8819, 73.82951
220.3641, 74.68456
220.8462, 75.64963
221.3283, 76.35426
221.8104, 76.62563
222.2925, 76.84795
222.7746, 77.01113
223.2568, 77.18566
223.7389, 77.51168
224.2210, 78.09213
224.7031, 78.85563
225.1852, 79.38281
225.6673, 79.45596
226.1495, 79.59006
226.6316, 80.00384
227.1137, 80.58740
227.5958, 81.08951
228.0779, 81.35794
228.5600, 81.46761
229.0422, 81.70732
229.5243, 82.18069
230.0064, 82.62923
230.4885, 82.92073
230.9706, 83.10383
231.4527, 83.34264
231.9349, 83.76155
232.4170, 84.23493
232.8991, 84.45223
233.3812, 84.32900
233.8633, 84.14074
234.3454, 84.03361
234.8276, 83.98318
235.3097, 83.89773
235.7918, 83.77591
236.2739, 83.55335
236.7560, 83.11021
237.2381, 82.35419
237.7203, 81.66051
238.2024, 81.42447
238.6845, 81.55078
239.1666, 81.37369
239.6487, 80.54772
240.1308, 79.40652
240.6130, 78.34558
241.0951, 77.36220
241.5772, 76.51147
242.0593, 75.89517
242.5414, 75.49508
243.0235, 75.03393
243.5057, 74.41650
243.9878, 73.73495
244.4699, 73.07149
244.9520, 72.42496
245.4341, 71.77225
245.9162, 71.03661
246.3984, 70.21948
246.8805, 69.58906
247.3626, 69.36229
247.8447, 69.18806
248.3268, 68.82633
248.8089, 68.28609
249.2911, 67.74375
249.7732, 67.36059
250.2553, 67.14147
250.7374, 66.94096
251.2195, 66.75570
251.7016, 66.58515
252.1838, 66.46306
252.6659, 66.36744
253.1480, 66.21799
253.6301, 65.89953
254.1122, 65.39028
254.5943, 65.02790
255.0765, 64.92695
255.5586, 64.88145
256.0407, 64.82933
256.5228, 64.77031
257.0049, 64.72832
257.4870, 64.73531
257.9691, 64.79362
258.4513, 64.78745
258.9334, 64.65148
259.4155, 64.50534
259.8976, 64.37450
260.3797, 64.25882
260.8618, 64.14381
261.3440, 64.00906
261.8261, 63.85834
262.3082, 63.81089
262.7903, 64.12268
263.2724, 64.28124
263.7545, 63.96096
264.2367, 63.42411
264.7188, 63.15618
265.2009, 63.50847
265.6830, 64.37861
266.1651, 64.91521
266.6472, 64.77641
267.1294, 64.64908
267.6115, 64.62040
268.0936, 64.67650
268.5757, 64.79244
269.0578, 64.95784
269.5399, 65.15562
270.0221, 65.30888
270.5042, 65.40061
270.9863, 65.46237
271.4684, 65.52528
271.9505, 65.55167
272.4326, 65.43684
272.9148, 65.12772
273.3969, 64.76719
273.8790, 64.75255
274.3611, 65.58149
274.8432, 66.17667
275.3253, 66.36265
275.8075, 66.35682
276.2896, 66.39927
276.7717, 66.57620
277.2538, 66.80910
277.7359, 66.94366
278.2180, 66.75597
278.7002, 66.83365
279.1823, 67.38135
279.6644, 68.09077
280.1465, 68.74209
280.6286, 69.26151
281.1107, 69.58402
281.5929, 69.58388
282.0750, 69.03186
282.5571, 68.71713
283.0392, 68.74249
283.5213, 68.93477
284.0034, 69.17320
284.4856, 69.43228
284.9677, 69.71607
285.4498, 70.01234
285.9319, 70.30234
286.4140, 70.78139
286.8961, 71.69507
287.3783, 72.60500
287.8604, 73.10728
288.3425, 73.23576
288.8246, 73.43073
289.3067, 74.11491
289.7888, 75.30094
290.2710, 76.10571
290.7531, 76.19167
291.2352, 76.23634
291.7173, 76.64472
292.1994, 77.36703
292.6815, 78.10920
293.1637, 78.67787
293.6458, 79.10464
294.1279, 79.60190
294.6100, 80.12785
295.0921, 80.75207
295.5742, 81.57979
296.0564, 82.53783
296.5385, 83.40400
297.0206, 84.03352
297.5027, 84.55375
297.9848, 85.38974
298.4669, 86.77445
298.9491, 88.01138
299.4312, 88.64961
299.9133, 89.01967
300.3954, 89.82946
300.8775, 91.40092
301.3596, 93.30424
301.8418, 94.69341
302.3239, 95.49168
302.8060, 96.28226
303.2881, 97.13460
303.7702, 98.08099
304.2523, 99.18083
304.7345, 100.4508
305.2166, 101.8152
305.6987, 103.1697
306.1808, 104.5127
306.6629, 105.8805
307.1451, 107.3080
307.6272, 108.7478
308.1093, 110.0697
308.5914, 111.2603
309.0735, 112.6022
309.5556, 114.4397
310.0378, 116.7431
310.5199, 118.7746
311.0020, 120.1831
311.4841, 121.5396
311.9662, 123.3596
312.4483, 125.6154
312.9305, 127.8264
313.4126, 129.6742
313.8947, 131.2372
314.3768, 132.9854
314.8589, 134.8149
315.3410, 136.9122
315.8232, 139.5893
316.3053, 142.6748
316.7874, 145.4826
317.2695, 147.5777
317.7516, 149.3523
318.2337, 151.8086
318.7159, 155.1563
319.1980, 158.5662
319.6801, 161.7153
320.1622, 164.7157
320.6443, 167.7811
321.1264, 170.9668
321.6086, 174.2601
322.0907, 177.6223
322.5728, 181.0723
323.0549, 184.4933
323.5370, 187.6091
324.0191, 190.7955
324.5013, 194.6328
324.9834, 199.2714
325.4655, 203.9904
325.9476, 208.0475
326.4297, 211.4122
326.9118, 214.9398
327.3940, 218.6287
327.8761, 222.5301
328.3582, 226.8340
328.8403, 231.4832
329.3224, 235.9468
329.8045, 239.7698
330.2867, 243.0599
330.7688, 246.6801
331.2509, 250.7737
331.7330, 255.0259
332.2151, 259.4885
332.6972, 264.0263
333.1794, 268.2152
333.6615, 271.7934
334.1436, 274.9590
334.6257, 278.3195
335.1078, 282.1107
335.5899, 285.5853
336.0721, 288.4781
336.5542, 290.9368
337.0363, 293.1657
337.5184, 295.2427
338.0005, 297.1450
338.4826, 298.8861
338.9648, 300.5220
339.4469, 301.7314
339.9290, 302.4180
340.4111, 302.6945
340.8932, 302.5764
341.3753, 302.0892
341.8575, 301.5121
342.3396, 301.2082
342.8217, 301.2008
343.3038, 300.3599
343.7859, 298.4826
344.2680, 295.9965
344.7502, 293.0829
345.2323, 289.7684
345.7144, 286.0487
346.1965, 281.8790
346.6786, 277.3233
347.1607, 272.7290
347.6429, 268.3420
348.1250, 263.6521
348.6071, 258.3279
349.0892, 252.6347
349.5713, 247.0653
350.0534, 241.7933
350.5356, 236.6758
351.0177, 231.3036
351.4998, 225.3836
351.9819, 219.8380
352.4640, 215.0405
352.9461, 210.4407
353.4283, 205.4312
353.9104, 199.9174
354.3925, 194.3304
354.8746, 189.1356
355.3567, 184.3979
355.8388, 179.8189
356.3210, 175.4749
356.8031, 171.1756
357.2852, 166.7171
357.7673, 162.1882
358.2494, 157.8608
358.7315, 153.9570
359.2137, 150.4326
359.6958, 147.1026
360.1779, 143.9125
360.6600, 140.9603
361.1421, 138.4426
361.6242, 136.1163
362.1064, 133.6076
362.5885, 130.7690
363.0706, 127.7908
363.5527, 125.1340
364.0348, 123.1334
364.5169, 120.9435
364.9991, 118.2825
365.4812, 115.6484
365.9633, 113.4150
366.4454, 111.6384
366.9275, 110.1158
367.4096, 108.6183
367.8918, 107.1363
368.3739, 105.7575
368.8560, 104.6040
369.3381, 103.4259
369.8202, 102.1011
370.3023, 100.6673
370.7845, 99.22672
371.2666, 97.83672
371.7487, 96.49537
372.2308, 95.19114
372.7129, 93.87959
373.1950, 92.67300
373.6772, 91.54678
374.1593, 90.54744
374.6414, 89.77820
375.1235, 89.26600
375.6056, 88.85667
376.0877, 88.30273
376.5699, 87.58488
377.0520, 86.76274
377.5341, 85.69748
378.0162, 84.64919
378.4983, 83.76961
378.9804, 83.05988
379.4626, 82.41639
379.9447, 81.74792
380.4268, 81.05766
380.9089, 80.42251
381.3910, 79.95003
381.8731, 79.39246
382.3553, 78.58492
382.8374, 77.65451
383.3195, 76.80477
383.8016, 76.14481
384.2837, 75.60814
384.7658, 75.02702
385.2480, 74.35064
385.7301, 73.81040
386.2122, 73.72115
386.6943, 73.66659
387.1764, 73.26090
387.6585, 72.42942
388.1407, 71.55027
388.6228, 71.00657
389.1049, 70.77032
389.5870, 70.49360
390.0691, 70.17355
390.5512, 69.73078
391.0334, 68.96457
391.5155, 67.99879
391.9976, 67.29696
392.4797, 67.26743
392.9618, 67.58114
393.4439, 67.63414
393.9261, 67.38776
394.4082, 67.06154
394.8903, 66.76039
395.3724, 66.46364
395.8545, 66.12991
396.3366, 65.72984
396.8188, 65.33414
397.3009, 64.99657
397.7830, 64.70856
398.2651, 64.43330
398.7472, 64.17711
399.2293, 63.90133
399.7115, 63.50578
400.1936, 62.97575
400.6757, 62.58426
401.1578, 62.55012
401.6399, 62.63330
402.1220, 62.54579
402.6042, 62.25264
403.0863, 61.82215
403.5684, 61.23724
404.0505, 60.53856
404.5326, 60.10772
405.0147, 60.10180
405.4969, 60.19796
405.9790, 60.32778
406.4611, 60.43975
406.9432, 60.40043
407.4253, 60.13540
407.9074, 59.74542
408.3896, 59.45978
408.8717, 59.33598
409.3538, 59.20650
409.8359, 59.11623
410.3180, 58.98154
410.8001, 58.67754
411.2823, 58.21381
411.7644, 57.76200
412.2465, 57.50800
412.7286, 57.47789
413.2107, 57.34328
413.6928, 56.92878
414.1750, 56.61021
414.6571, 56.59729
415.1392, 56.75514
415.6213, 56.82459
416.1034, 56.66779
416.5855, 56.40225
417.0677, 56.36501
417.5498, 56.83441
418.0319, 57.04144
418.5140, 56.81479
418.9961, 56.43669
419.4782, 56.05675
419.9604, 55.72622
420.4425, 55.47530
420.9246, 55.34318
421.4067, 55.33351
421.8888, 55.36931
422.3709, 55.55805
422.8531, 55.66114
423.3352, 55.55015
423.8173, 55.31568
424.2994, 55.10006
424.7815, 54.96626
425.2636, 54.89180
425.7458, 54.82825
426.2279, 54.76118
426.7100, 54.77000
427.1921, 55.01487
427.6742, 55.24592
428.1563, 55.21488
428.6385, 54.91892
429.1206, 54.68216
429.6027, 54.77929
430.0848, 55.12848
430.5669, 55.44104
431.0490, 55.69147
431.5312, 55.91329
432.0133, 56.13975
432.4954, 56.35496
432.9775, 56.51202
433.4596, 56.52229
433.9417, 56.55946
434.4239, 56.79981
434.9060, 57.21833
435.3881, 57.67516
435.8702, 58.15729
436.3523, 58.59353
436.8344, 58.81353
437.3166, 58.77380
437.7987, 58.82715
438.2808, 59.22084
438.7629, 59.67279
439.2450, 59.78691
439.7271, 59.54029
440.2093, 59.31512
440.6914, 59.43456
441.1735, 59.88233
441.6556, 60.26572
442.1377, 60.55744
442.6198, 60.82447
443.1020, 61.09523
443.5841, 61.35630
444.0662, 61.58934
444.5483, 61.78936
445.0304, 61.94261
445.5125, 62.01572
445.9947, 61.91656
446.4768, 61.95330
446.9589, 62.25407
447.4410, 62.56030
447.9231, 62.67959
448.4052, 62.66088
448.8874, 62.71173
449.3695, 63.01217
449.8516, 63.48833
450.3337, 63.67107
450.8158, 63.31911
451.2979, 63.04081
451.7801, 63.09277
452.2622, 63.18510
452.7443, 63.10984
453.2264, 62.79775
453.7085, 62.17084
454.1906, 60.96529
454.6728, 59.15200
455.1549, 57.74860
455.6370, 57.08408
456.1191, 56.51615
456.6012, 55.67490
457.0833, 54.65554
457.5655, 53.65949
458.0476, 52.70039
458.5297, 51.88934
459.0118, 51.47929
459.4939, 51.48324
459.9760, 51.42294
460.4582, 51.08451
460.9403, 50.62857
461.4224, 50.26881
461.9045, 50.00694
462.3866, 49.81688
462.8687, 49.74688
463.3508, 49.71869
463.8329, 49.57191
464.3151, 49.28645
464.7972, 49.08897
465.2793, 49.22334
465.7614, 49.61554
466.2435, 49.67445
466.7256, 49.08520
467.2078, 48.54415
467.6899, 48.29924
468.1720, 48.26772
468.6541, 48.36437
469.1362, 48.55802
469.6183, 48.72325
470.1005, 48.65584
470.5826, 48.22467
471.0647, 47.99925
471.5468, 48.11637
472.0289, 48.27810
472.5110, 48.34792
472.9932, 48.34177
473.4753, 48.32767
473.9574, 48.34549
474.4395, 48.38477
474.9216, 48.42171
475.4037, 48.50024
475.8859, 48.48264
476.3680, 48.18935
476.8501, 47.92318
477.3322, 47.95453
477.8143, 48.26971
478.2964, 48.59740
478.7786, 48.69993
479.2607, 48.61007
479.7428, 48.51608
480.2249, 48.38202
480.7070, 48.32231
481.1891, 48.38038
481.6713, 48.54720
482.1534, 48.85693
482.6355, 49.36936
483.1176, 49.85114
483.5997, 50.07130
484.0818, 50.08960
484.5640, 50.15669
485.0461, 50.35171
485.5282, 50.52927
486.0103, 50.47829
486.4924, 50.23605
486.9745, 50.14734
487.4567, 50.33993
487.9388, 50.62744
488.4209, 50.91398
488.9030, 51.18919
489.3851, 51.45470
489.8672, 51.71746
490.3494, 51.94074
490.8315, 52.04761
491.3136, 51.95840
491.7957, 51.89588
492.2778, 51.76815
492.7599, 51.74004
493.2421, 51.99685
493.7242, 52.47756
494.2063, 52.95366
494.6884, 53.26936
495.1705, 53.43652
495.6526, 53.50655
496.1348, 53.32870
496.6169, 53.30153
497.0990, 53.55180
497.5811, 53.91089
498.0632, 54.28891
498.5453, 54.64814
499.0275, 54.91146
499.5096, 54.96479
499.9917, 54.83165
500.4738, 54.78519
500.9559, 54.93864
501.4380, 54.95066
501.9202, 54.53354
502.4023, 53.91091
502.8844, 53.38005
503.3665, 53.03128
503.8486, 52.71563
504.3307, 52.36481
504.8129, 51.95597
505.2950, 51.35802
505.7771, 50.48427
506.2592, 49.63128
506.7413, 49.12172
507.2234, 48.94295
507.7056, 48.74775
508.1877, 48.47583
508.6698, 48.21832
509.1519, 48.06857
509.6340, 47.97178
510.1161, 47.80531
510.5983, 47.51774
511.0804, 47.13628
511.5625, 46.68342
512.0446, 46.03180
512.5267, 45.65464
513.0089, 45.71717
513.4910, 45.86547
513.9731, 45.93592
514.4552, 45.93721
514.9373, 45.95298
515.4194, 46.04138
515.9016, 46.13601
516.3837, 46.02354
516.8658, 45.57123
517.3479, 45.27729
517.8300, 45.44109
518.3121, 45.61622
518.7943, 45.48135
519.2764, 45.07547
519.7585, 44.70945
520.2406, 44.59239
520.7227, 44.64292
521.2048, 44.71638
521.6870, 44.82468
522.1691, 44.85095
522.6512, 44.69514
523.1333, 44.45940
523.6154, 44.31289
524.0975, 44.26916
524.5797, 44.25159
525.0618, 44.22625
525.5439, 44.21373
526.0260, 44.24972
526.5081, 44.33393
526.9902, 44.42147
527.4724, 44.47892
527.9545, 44.51323
528.4366, 44.56531
528.9187, 44.75772
529.4008, 44.80793
529.8829, 44.61856
530.3651, 44.30677
530.8472, 43.91555
531.3293, 43.49237
531.8114, 43.17692
532.2935, 43.12084
532.7756, 43.31108
533.2578, 43.48144
533.7399, 43.67550
534.2220, 43.77628
534.7041, 43.66297
535.1862, 43.50053
535.6683, 43.49976
536.1505, 43.70385
536.6326, 43.87300
537.1147, 43.68987
537.5968, 43.25914
538.0789, 43.14559
538.5610, 43.52568
539.0432, 43.79418
539.5253, 43.38834
540.0074, 42.60763
540.4895, 42.14384
540.9716, 42.15586
541.4537, 42.31246
541.9359, 42.50621
542.4180, 42.71439
542.9001, 42.92613
543.3822, 43.13627
543.8643, 43.25068
544.3464, 43.15718
544.8286, 42.84772
545.3107, 42.61354
545.7928, 42.49369
546.2749, 42.38995
546.7570, 42.28679
547.2391, 42.18144
547.7213, 42.02600
548.2034, 41.82648
548.6855, 41.72348
549.1676, 41.94428
549.6497, 42.52215
550.1318, 42.87384
550.6140, 42.89222
551.0961, 42.82606
551.5782, 42.76915
552.0603, 42.69673
552.5424, 42.55088
553.0245, 42.29696
553.5067, 42.08803
553.9888, 42.11121
554.4709, 42.30275
554.9530, 42.41399
555.4351, 42.39466
555.9172, 42.34959
556.3994, 42.36556
556.8815, 42.42787
557.3636, 42.45344
557.8457, 42.43785
558.3278, 42.38770
558.8099, 42.23719
559.2921, 42.07859
559.7742, 42.07521
560.2563, 42.25441
560.7384, 42.47386
561.2205, 42.59171
561.7026, 42.60822
562.1848, 42.52277
562.6669, 42.20360
563.1490, 41.93133
563.6311, 41.70866
564.1132, 41.58547
564.5953, 41.66502
565.0775, 41.95363
565.5596, 42.25416
566.0417, 42.33452
566.5238, 42.21904
567.0059, 42.17469
567.4880, 42.25023
567.9702, 42.29554
568.4523, 42.16076
568.9344, 41.96962
569.4165, 41.90469
569.8986, 42.01978
570.3807, 42.15254
570.8629, 42.26080
571.3450, 42.30933
571.8271, 42.16811
572.3092, 41.83042
572.7913, 41.59359
573.2734, 41.72027
573.7556, 42.13960
574.2377, 42.34714
574.7198, 42.11431
575.2019, 41.98580
575.6840, 42.11329
576.1661, 42.31946
576.6483, 42.48260
577.1304, 42.56307
577.6125, 42.52522
578.0946, 42.31385
578.5767, 41.96931
579.0588, 41.71361
579.5410, 41.53507
580.0231, 41.47407
580.5052, 41.65548
580.9873, 41.88428
581.4694, 42.01484
581.9515, 42.03538
582.4337, 42.01192
582.9158, 41.97114
583.3979, 41.91445
583.8800, 41.81489
584.3621, 41.67772
584.8442, 41.62505
585.3264, 41.72508
585.8085, 41.92751
586.2906, 42.16107
586.7727, 42.49567
587.2548, 42.64462
587.7369, 42.49376
588.2191, 42.22604
588.7012, 41.83765
589.1833, 41.43922
589.6654, 41.29821
