##NAMES=Kalsilite
##RRUFFID=R060030
##IDEAL CHEMISTRY=KAlSiO_4_
##LOCALITY=San Venanzo, Italy
##OWNER=RRUFF
##SOURCE=University of Arizona Mineral Museum
##DESCRIPTION=White acicular single crystals of kalsilite, associated with thinner colorless fluorapatite and brown tabular phlogopite
##STATUS=The identification of this mineral is confirmed by single-crystal X-ray diffraction and chemical analysis.
##URL=rruff.info/R060030
##MEASURED CHEMISTRY=(K_0.88_Na_0.10_[box]_0.02_)Si_1.02_Al_0.94_Fe_0.04_O_4_
94.30859, 15.28799
94.79071, 14.58523
95.27283, 14.45661
95.75494, 14.94626
96.23706, 15.86597
96.71918, 17.00289
97.20129, 18.33564
97.68341, 19.83723
98.16553, 21.48236
98.64764, 23.26155
99.12976, 25.26054
99.61188, 27.54764
100.0940, 30.01119
100.5761, 32.39087
101.0582, 34.63706
101.5403, 36.92650
102.0225, 39.45251
102.5046, 42.24218
102.9867, 45.00591
103.4688, 47.67748
103.9509, 50.24838
104.4330, 53.03759
104.9152, 56.23848
105.3973, 59.34730
105.8794, 61.71544
106.3615, 62.86433
106.8436, 64.15948
107.3257, 65.99213
107.8079, 68.51488
108.2900, 70.74558
108.7721, 72.49825
109.2542, 74.00160
109.7363, 75.62239
110.2184, 77.13758
110.7006, 78.97069
111.1827, 81.22073
111.6648, 83.92204
112.1469, 86.95629
112.6290, 90.41987
113.1111, 94.17105
113.5933, 98.05595
114.0754, 102.1085
114.5575, 106.2193
115.0396, 110.3504
115.5217, 114.8162
116.0038, 118.9244
116.4860, 122.4321
116.9681, 125.4292
117.4502, 128.2366
117.9323, 131.0280
118.4144, 133.6384
118.8965, 135.9450
119.3786, 137.7312
119.8608, 139.3780
120.3429, 141.0465
120.8250, 142.7330
121.3071, 144.3301
121.7892, 145.7078
122.2713, 146.9975
122.7535, 148.3561
123.2356, 150.2049
123.7177, 151.9233
124.1998, 152.8516
124.6819, 152.9725
125.1640, 152.9897
125.6462, 153.4529
126.1283, 154.2348
126.6104, 155.0681
127.0925, 155.6059
127.5746, 156.1899
128.0567, 157.3736
128.5389, 159.2288
129.0210, 161.4454
129.5031, 163.8985
129.9852, 166.4951
130.4673, 168.7602
130.9494, 170.2088
131.4316, 171.0338
131.9137, 171.3938
132.3958, 171.3326
132.8779, 171.3975
133.3600, 170.8598
133.8421, 169.7442
134.3243, 168.7629
134.8064, 168.4773
135.2885, 168.8190
135.7706, 168.9932
136.2527, 168.9036
136.7348, 168.5996
137.2170, 168.1362
137.6991, 167.4479
138.1812, 166.8651
138.6633, 166.7567
139.1454, 167.2147
139.6275, 167.3041
140.1097, 166.8008
140.5918, 165.8048
141.0739, 164.9055
141.5560, 164.1374
142.0381, 163.4037
142.5202, 162.5766
143.0023, 161.5660
143.4845, 160.7489
143.9666, 160.2982
144.4487, 160.2199
144.9308, 159.7782
145.4129, 158.6531
145.8951, 157.4736
146.3772, 156.8992
146.8593, 157.2636
147.3414, 157.7018
147.8235, 158.0981
148.3056, 158.5206
148.7878, 158.5816
149.2699, 158.0454
149.7520, 157.2481
150.2341, 156.6393
150.7162, 156.2769
151.1983, 156.0230
151.6805, 155.8883
152.1626, 156.0164
152.6447, 155.8961
153.1268, 155.3782
153.6089, 154.6312
154.0910, 153.9371
154.5732, 153.1512
155.0553, 152.5470
155.5374, 152.2884
156.0195, 152.7229
156.5016, 152.8151
156.9837, 152.1896
157.4659, 151.1325
157.9480, 150.2417
158.4301, 149.5898
158.9122, 149.1754
159.3943, 149.0517
159.8764, 149.5134
160.3586, 149.7867
160.8407, 149.5769
161.3228, 149.0108
161.8049, 148.4401
162.2870, 147.7809
162.7691, 147.2764
163.2513, 147.1193
163.7334, 147.7197
164.2155, 148.1780
164.6976, 147.9598
165.1797, 147.2293
165.6618, 146.6331
166.1440, 146.6100
166.6261, 146.7933
167.1082, 146.8612
167.5903, 146.5298
168.0724, 146.2622
168.5545, 146.5266
169.0367, 147.2102
169.5188, 147.6086
170.0009, 146.9588
170.4830, 145.9077
170.9651, 145.1925
171.4472, 145.3435
171.9293, 145.6839
172.4115, 145.6989
172.8936, 145.4051
173.3757, 144.9778
173.8578, 144.3432
174.3399, 143.6947
174.8220, 143.3254
175.3042, 143.7007
175.7863, 144.2002
176.2684, 144.0183
176.7505, 143.1653
177.2326, 142.3325
177.7147, 142.2145
178.1969, 142.5595
178.6790, 142.8283
179.1611, 142.7334
179.6432, 142.4593
180.1253, 142.2824
180.6074, 142.2088
181.0896, 142.1421
181.5717, 142.0083
182.0538, 141.8093
182.5359, 141.5454
183.0180, 141.0338
183.5001, 140.4881
183.9823, 140.4717
184.4644, 141.0483
184.9465, 141.7250
185.4286, 141.9131
185.9107, 141.6846
186.3928, 141.4007
186.8750, 141.2037
187.3571, 141.0761
187.8392, 140.9464
188.3213, 140.8034
188.8034, 140.7090
189.2855, 140.8550
189.7677, 141.2036
190.2498, 141.3646
190.7319, 141.0106
191.2140, 140.2615
191.6961, 139.7534
192.1782, 139.5194
192.6604, 139.4644
193.1425, 139.4322
193.6246, 139.4236
194.1067, 139.5813
194.5888, 140.1823
195.0709, 141.1422
195.5531, 141.5020
196.0352, 141.1176
196.5173, 140.3988
196.9994, 140.0336
197.4815, 140.0465
197.9636, 140.0876
198.4458, 139.9494
198.9279, 139.6286
199.4100, 139.4586
199.8921, 139.4748
200.3742, 139.5950
200.8563, 139.6579
201.3385, 139.6461
201.8206, 139.6762
202.3027, 139.7925
202.7848, 139.9944
203.2669, 140.3499
203.7490, 140.9599
204.2311, 141.6086
204.7133, 141.7981
205.1954, 141.4349
205.6775, 141.0068
206.1596, 140.7353
206.6417, 140.6316
207.1238, 140.6163
207.6060, 140.6978
208.0881, 140.8561
208.5702, 141.1067
209.0523, 141.5404
209.5344, 141.7884
210.0165, 141.5594
210.4987, 140.6736
210.9808, 140.1476
211.4629, 140.0312
211.9450, 140.2637
212.4271, 140.8351
212.9092, 141.9860
213.3914, 142.8745
213.8735, 142.9382
214.3556, 141.8171
214.8377, 141.2746
215.3198, 141.5050
215.8019, 142.2518
216.2841, 142.9234
216.7662, 143.5631
217.2483, 144.0505
217.7304, 144.2981
218.2125, 144.2160
218.6946, 144.1721
219.1768, 144.1598
219.6589, 144.1966
220.1410, 144.3498
220.6231, 144.7102
221.1052, 145.0189
221.5873, 145.1391
222.0695, 144.9747
222.5516, 144.8819
223.0337, 144.8510
223.5158, 144.8966
223.9979, 145.0499
224.4800, 145.2850
224.9622, 145.6678
225.4443, 146.2780
225.9264, 147.3344
226.4085, 148.0571
226.8906, 148.3360
227.3727, 148.3263
227.8549, 148.4104
228.3370, 148.6427
228.8191, 148.8788
229.3012, 149.0639
229.7833, 149.1878
230.2654, 149.2719
230.7476, 149.2319
231.2297, 149.1862
231.7118, 149.4303
232.1939, 150.1450
232.6760, 150.8584
233.1581, 151.3967
233.6402, 151.7267
234.1224, 151.9608
234.6045, 152.1215
235.0866, 152.1754
235.5687, 152.0064
236.0508, 151.3521
236.5329, 150.8923
237.0151, 150.9615
237.4972, 151.8538
237.9793, 152.3803
238.4614, 152.3950
238.9435, 152.1123
239.4256, 151.9456
239.9078, 151.9277
240.3899, 151.9785
240.8720, 152.0956
241.3541, 152.3322
241.8362, 152.4642
242.3183, 152.5033
242.8005, 152.4380
243.2826, 152.2220
243.7647, 151.7267
244.2468, 151.3042
244.7289, 151.1024
245.2110, 151.2134
245.6932, 151.1498
246.1753, 150.7711
246.6574, 150.3069
247.1395, 150.1335
247.6216, 150.4204
248.1037, 150.7026
248.5859, 150.8398
249.0680, 150.8018
249.5501, 150.7705
250.0322, 150.7753
250.5143, 150.7603
250.9964, 150.6431
251.4786, 150.3706
251.9607, 150.0910
252.4428, 149.8528
252.9249, 149.6729
253.4070, 149.3853
253.8891, 148.8367
254.3713, 148.3250
254.8534, 148.2484
255.3355, 148.8519
255.8176, 149.3909
256.2997, 149.6685
256.7818, 149.6649
257.2639, 149.7840
257.7461, 150.1283
258.2282, 150.4808
258.7103, 150.5800
259.1924, 150.2809
259.6745, 150.0644
260.1566, 150.0417
260.6388, 150.2073
261.1209, 150.3833
261.6030, 150.5825
262.0851, 150.7767
262.5672, 150.9646
263.0493, 151.2151
263.5315, 151.2694
264.0136, 151.0173
264.4957, 150.5056
264.9778, 150.1035
265.4599, 149.7364
265.9420, 149.6176
266.4242, 150.0010
266.9063, 151.0897
267.3884, 152.0326
267.8705, 152.7243
268.3526, 153.1791
268.8347, 153.4388
269.3169, 153.4167
269.7990, 153.3787
270.2811, 153.5007
270.7632, 153.7981
271.2453, 154.1929
271.7274, 154.7366
272.2096, 155.3471
272.6917, 155.7783
273.1738, 156.0136
273.6559, 156.1243
274.1380, 156.0426
274.6201, 155.6701
275.1023, 155.7958
275.5844, 156.6669
276.0665, 157.8967
276.5486, 158.5302
277.0307, 158.4213
277.5128, 158.3107
277.9950, 158.6751
278.4771, 159.5719
278.9592, 160.1222
279.4413, 160.1849
279.9234, 160.0645
280.4055, 160.3632
280.8877, 161.1308
281.3698, 161.9447
281.8519, 162.5955
282.3340, 163.0840
282.8161, 163.6423
283.2982, 164.2719
283.7804, 164.9692
284.2625, 165.7905
284.7446, 166.7478
285.2267, 167.5330
285.7088, 167.8552
286.1909, 167.8308
286.6731, 168.3430
287.1552, 169.4566
287.6373, 170.8430
288.1194, 172.1888
288.6015, 173.4930
289.0836, 174.6236
289.5658, 175.4586
290.0479, 176.0982
290.5300, 176.8740
291.0121, 177.7782
291.4942, 178.8327
291.9763, 180.2029
292.4585, 181.8008
292.9406, 183.1542
293.4227, 184.0323
293.9048, 184.6491
294.3869, 185.4132
294.8690, 186.3279
295.3512, 187.3993
295.8333, 188.6817
296.3154, 190.1329
296.7975, 191.6954
297.2796, 193.4186
297.7617, 195.1258
298.2439, 196.3911
298.7260, 197.2725
299.2081, 198.3131
299.6902, 200.1368
300.1723, 202.3522
300.6544, 204.1391
301.1366, 205.2263
301.6187, 206.2049
302.1008, 207.7808
302.5829, 209.8486
303.0650, 212.0719
303.5471, 214.2864
304.0293, 216.5083
304.5114, 218.7620
304.9935, 221.0776
305.4756, 223.3733
305.9577, 225.4400
306.4398, 227.4383
306.9220, 229.7502
307.4041, 232.9521
307.8862, 236.3424
308.3683, 239.2675
308.8504, 241.6541
309.3326, 243.9151
309.8147, 246.2304
310.2968, 248.6043
310.7789, 251.0795
311.2610, 253.5163
311.7431, 256.1522
312.2252, 259.2428
312.7073, 262.7643
313.1895, 266.3621
313.6716, 269.9637
314.1537, 273.4974
314.6358, 276.8236
315.1179, 279.5225
315.6000, 282.4229
316.0822, 286.1432
316.5643, 290.4979
317.0464, 294.7162
317.5285, 298.0052
318.0106, 301.3060
318.4927, 305.3446
318.9749, 310.8337
319.4570, 316.1596
319.9391, 320.4648
320.4212, 324.1475
320.9033, 328.2467
321.3854, 333.2233
321.8676, 338.5640
322.3497, 344.0444
322.8318, 349.6412
323.3139, 355.3558
323.7960, 361.4837
324.2781, 367.6396
324.7603, 373.3694
325.2424, 377.8169
325.7245, 382.5635
326.2066, 388.1202
326.6887, 394.6154
327.1708, 401.3039
327.6530, 408.3506
328.1351, 415.4506
328.6172, 422.4071
329.0993, 429.1434
329.5814, 435.8225
330.0635, 442.5099
330.5457, 449.2049
331.0278, 455.8185
331.5099, 462.0435
331.9920, 468.4962
332.4741, 475.4536
332.9562, 483.4566
333.4384, 491.2171
333.9205, 498.8179
334.4026, 506.0867
334.8847, 512.5993
335.3668, 518.0097
335.8489, 523.1925
336.3311, 528.6145
336.8132, 534.6071
337.2953, 539.9520
337.7774, 544.4494
338.2595, 548.4124
338.7416, 552.3961
339.2238, 556.6158
339.7059, 560.3032
340.1880, 563.1853
340.6701, 565.2618
341.1522, 566.5774
341.6343, 567.0770
342.1165, 566.9796
342.5986, 566.5864
343.0807, 565.9297
343.5628, 564.6929
344.0449, 562.7991
344.5270, 560.2626
345.0092, 556.9288
345.4913, 552.7073
345.9734, 548.1340
346.4555, 543.7454
346.9376, 539.4827
347.4197, 534.4073
347.9019, 528.1648
348.3840, 521.3528
348.8661, 514.7692
349.3482, 508.4300
349.8303, 502.2579
350.3124, 496.4542
350.7946, 490.7329
351.2767, 484.2821
351.7588, 476.8839
352.2409, 468.9643
352.7230, 460.5932
353.2051, 451.9807
353.6873, 443.5696
354.1694, 435.6038
354.6515, 428.0424
355.1336, 420.9917
355.6157, 414.3755
356.0978, 407.8185
356.5800, 400.7459
357.0621, 393.5112
357.5442, 386.6479
358.0263, 380.6126
358.5084, 374.7826
358.9905, 368.6076
359.4727, 362.1721
359.9548, 355.7626
360.4369, 349.3319
360.9190, 343.1716
361.4011, 337.5621
361.8832, 332.6558
362.3654, 328.1187
362.8475, 323.9424
363.3296, 320.0260
363.8117, 316.1435
364.2938, 312.0958
364.7759, 308.2114
365.2581, 304.7388
365.7402, 301.8360
366.2223, 298.7481
366.7044, 294.8352
367.1865, 290.8358
367.6686, 287.5147
368.1508, 285.8929
368.6329, 284.0575
369.1150, 281.4281
369.5971, 277.9829
370.0792, 275.0019
370.5613, 272.7099
371.0435, 270.7581
371.5256, 268.9807
372.0077, 267.8591
372.4898, 266.1166
372.9719, 263.2106
373.4540, 259.6641
373.9361, 257.1838
374.4182, 256.3067
374.9004, 255.6528
375.3825, 254.6245
375.8646, 253.0945
376.3467, 251.8102
376.8288, 250.9314
377.3109, 250.0794
377.7931, 248.5585
378.2752, 246.1501
378.7573, 244.0600
379.2394, 242.7710
379.7215, 242.1398
380.2036, 240.9952
380.6858, 239.2899
381.1679, 237.3930
381.6500, 235.6426
382.1321, 234.0154
382.6142, 232.3909
383.0963, 230.6984
383.5785, 229.0485
384.0606, 227.6906
384.5427, 226.6200
385.0248, 225.4784
385.5069, 224.0103
385.9890, 222.3220
386.4712, 220.6664
386.9533, 219.0605
387.4354, 217.5318
387.9175, 216.1880
388.3996, 214.9781
388.8817, 213.7795
389.3639, 212.5075
389.8460, 211.2558
390.3281, 210.1272
390.8102, 209.1172
391.2923, 208.1097
391.7744, 206.9254
392.2566, 205.7393
392.7387, 204.7199
393.2208, 203.9390
393.7029, 203.2954
394.1850, 202.8913
394.6671, 202.5981
395.1493, 202.0711
395.6314, 200.9422
396.1135, 199.7338
396.5956, 198.7643
397.0777, 198.1720
397.5598, 197.3749
398.0420, 195.8758
398.5241, 194.2338
399.0062, 193.0918
399.4883, 193.0191
399.9704, 192.9398
400.4525, 192.6775
400.9347, 192.2296
401.4168, 191.6199
401.8989, 190.8002
402.3810, 189.8587
402.8631, 188.8302
403.3452, 187.6129
403.8274, 186.4794
404.3095, 185.3279
404.7916, 184.3233
405.2737, 183.9728
405.7558, 184.6116
406.2379, 185.0717
406.7201, 184.8610
407.2022, 183.9516
407.6843, 183.0757
408.1664, 182.2251
408.6485, 181.4525
409.1306, 180.8958
409.6128, 180.5543
410.0949, 180.0780
410.5770, 179.3097
411.0591, 178.4073
411.5412, 177.8107
412.0233, 177.5117
412.5055, 177.2993
412.9876, 177.0352
413.4697, 176.7432
413.9518, 176.4859
414.4339, 176.2731
414.9160, 176.0933
415.3982, 175.9439
415.8803, 175.8196
416.3624, 175.7006
416.8445, 175.5967
417.3266, 175.4804
417.8087, 175.3150
418.2909, 175.1025
418.7730, 174.8803
419.2551, 174.7533
419.7372, 174.5921
420.2193, 174.2397
420.7014, 173.4164
421.1836, 172.7654
421.6657, 172.7117
422.1478, 173.0471
422.6299, 173.2722
423.1120, 172.9321
423.5941, 172.7073
424.0763, 173.0406
424.5584, 174.2095
425.0405, 174.8662
425.5226, 174.4688
426.0047, 173.6748
426.4868, 173.1182
426.9690, 172.8362
427.4511, 172.7568
427.9332, 172.9980
428.4153, 173.4702
428.8974, 173.6484
429.3795, 173.3601
429.8617, 173.0468
430.3438, 172.9973
430.8259, 173.3625
431.3080, 173.3175
431.7901, 172.6668
432.2722, 171.8793
432.7544, 171.6702
433.2365, 172.0820
433.7186, 172.7057
434.2007, 173.5852
434.6828, 174.5456
435.1649, 174.8323
435.6470, 174.4203
436.1292, 173.7905
436.6113, 173.1756
437.0934, 172.6442
437.5755, 172.4773
438.0576, 172.8209
438.5397, 173.2652
439.0219, 173.3328
439.5040, 173.0900
439.9861, 172.7403
440.4682, 172.3454
440.9503, 171.9159
441.4324, 171.3981
441.9146, 170.7952
442.3967, 170.3496
442.8788, 170.3747
443.3609, 170.5610
443.8430, 170.5856
444.3251, 170.2093
444.8073, 169.8705
445.2894, 169.8573
445.7715, 170.0072
446.2536, 169.8982
446.7357, 169.0171
447.2178, 168.2127
447.7000, 167.8881
448.1821, 168.2368
448.6642, 168.3567
449.1463, 167.9450
449.6284, 167.4681
450.1105, 167.3717
450.5927, 167.9535
451.0748, 168.3910
451.5569, 168.6440
452.0390, 168.6758
452.5211, 168.3083
453.0032, 167.4699
453.4854, 166.4445
453.9675, 165.3039
454.4496, 164.0251
454.9317, 163.0350
455.4138, 162.3936
455.8959, 161.9043
456.3781, 161.3469
456.8602, 160.7253
457.3423, 160.0705
457.8244, 159.3478
458.3065, 158.6425
458.7886, 158.2171
459.2708, 158.0272
459.7529, 157.7529
460.2350, 156.9619
460.7171, 156.0239
461.1992, 155.4752
461.6813, 155.4240
462.1635, 155.5625
462.6456, 155.7637
463.1277, 155.9796
463.6098, 156.1393
464.0919, 156.2366
464.5740, 156.2502
465.0562, 156.0582
465.5383, 155.7200
466.0204, 155.5955
466.5025, 155.9709
466.9846, 156.4599
467.4667, 156.8710
467.9489, 157.2773
468.4310, 157.4171
468.9131, 156.9682
469.3952, 156.3634
469.8773, 156.1721
470.3594, 156.6452
470.8416, 157.1417
471.3237, 157.5950
471.8058, 157.9857
472.2879, 158.1153
472.7700, 157.8762
473.2521, 157.6472
473.7343, 157.6570
474.2164, 157.9119
474.6985, 158.3905
475.1806, 159.1926
475.6627, 159.9700
476.1448, 160.1051
476.6270, 159.6810
477.1091, 159.4043
477.5912, 159.5599
478.0733, 159.9985
478.5554, 160.5248
479.0375, 161.1235
479.5197, 161.6348
480.0018, 161.7982
480.4839, 161.8725
480.9660, 162.2336
481.4481, 163.0088
481.9302, 163.7785
482.4124, 164.2551
482.8945, 164.5479
483.3766, 164.8213
483.8587, 165.0537
484.3408, 165.3572
484.8229, 165.8314
485.3051, 166.4517
485.7872, 166.9874
486.2693, 167.3856
486.7514, 167.6997
487.2335, 167.9222
487.7156, 167.9101
488.1978, 168.1384
488.6799, 168.7124
489.1620, 169.4572
489.6441, 170.1576
490.1262, 170.8519
490.6083, 171.3999
491.0905, 171.6970
491.5726, 171.8302
492.0547, 172.1989
492.5368, 172.8134
493.0189, 173.5993
493.5010, 174.6333
493.9832, 175.8482
494.4653, 176.8508
494.9474, 177.6302
495.4295, 178.1361
495.9116, 178.1922
496.3937, 177.9187
496.8758, 177.6720
497.3579, 177.7461
497.8401, 177.6898
498.3222, 176.8704
498.8043, 175.4541
499.2864, 174.0648
499.7685, 173.0707
500.2506, 172.2045
500.7328, 171.2903
501.2149, 170.3049
501.6970, 169.2978
502.1791, 168.2542
502.6612, 167.2203
503.1433, 166.2401
503.6255, 165.3829
504.1076, 164.5134
504.5897, 163.5321
505.0718, 162.5227
505.5539, 161.7266
506.0360, 161.2413
506.5182, 160.8186
507.0003, 160.3920
507.4824, 159.9645
507.9645, 159.5016
508.4466, 158.9952
508.9287, 158.4805
509.4109, 157.9432
509.8930, 157.3842
510.3751, 157.0249
510.8572, 156.9332
511.3393, 156.9724
511.8214, 156.9610
512.3036, 156.8880
512.7857, 156.7033
513.2678, 156.2549
513.7499, 155.7379
514.2321, 155.4545
514.7142, 155.3907
515.1963, 155.3353
515.6784, 155.1040
516.1605, 154.8399
516.6426, 154.6885
517.1248, 154.7142
517.6069, 154.7652
518.0890, 154.9574
518.5711, 155.0952
519.0532, 154.8963
519.5353, 153.7218
520.0175, 152.8337
520.4996, 152.7636
520.9817, 153.3657
521.4638, 153.4604
521.9459, 152.6770
522.4280, 151.8695
522.9102, 151.4494
523.3923, 151.4771
523.8744, 151.6090
524.3565, 151.8970
524.8386, 152.1826
525.3207, 152.2398
525.8029, 152.0689
526.2849, 151.9477
526.7670, 151.9787
527.2491, 152.0379
527.7313, 151.8377
528.2134, 151.4216
528.6955, 151.0447
529.1776, 150.8342
529.6597, 150.7593
530.1418, 150.8461
530.6240, 151.0900
531.1061, 151.2658
531.5882, 151.1828
532.0703, 150.9797
532.5524, 150.7851
533.0345, 150.6334
533.5167, 150.4871
533.9988, 150.3670
534.4809, 150.2398
534.9630, 150.0492
535.4451, 149.5603
535.9272, 149.2627
536.4094, 149.3872
536.8915, 149.8800
537.3736, 149.9718
537.8557, 149.3617
538.3378, 148.8553
538.8199, 149.0125
539.3021, 149.9780
539.7842, 150.4628
540.2663, 150.3656
540.7484, 150.0511
541.2305, 150.0137
541.7126, 150.2032
542.1948, 150.1828
542.6769, 149.7267
543.1590, 149.1871
543.6411, 149.1565
544.1232, 149.5299
544.6053, 149.9103
545.0875, 150.1714
545.5696, 150.2870
546.0517, 150.1886
546.5338, 149.8808
547.0159, 149.5559
547.4980, 149.1400
547.9802, 148.8416
548.4623, 148.8436
548.9444, 149.4000
549.4265, 149.8596
549.9086, 150.0703
550.3907, 150.1456
550.8729, 150.2460
551.3550, 150.3349
551.8371, 150.5137
552.3192, 150.8665
552.8013, 151.3267
553.2834, 151.5191
553.7656, 151.3820
554.2477, 151.1915
554.7298, 151.0965
555.2119, 151.0844
555.6940, 151.0360
556.1761, 150.9464
556.6583, 150.8517
557.1404, 150.7195
557.6225, 150.6143
558.1046, 150.7381
558.5867, 151.2599
559.0688, 151.7344
559.5510, 151.6467
560.0331, 151.2285
560.5152, 150.9348
560.9973, 151.1941
561.4794, 151.4046
561.9615, 151.1112
562.4437, 150.3950
562.9258, 150.0510
563.4079, 150.5360
563.8900, 151.1799
564.3721, 151.6923
564.8542, 152.1011
565.3364, 152.2528
565.8185, 151.9559
566.3006, 151.6277
566.7827, 151.7849
567.2648, 152.5504
567.7469, 153.0057
568.2291, 152.9330
568.7112, 152.5985
569.1933, 152.4983
569.6754, 152.6241
570.1575, 152.8617
570.6396, 153.2547
571.1218, 153.6803
571.6039, 153.9135
572.0860, 153.9711
572.5681, 154.0016
573.0502, 154.0239
573.5323, 154.1068
574.0145, 154.3477
574.4966, 154.7973
574.9787, 155.1878
575.4608, 155.3635
575.9429, 155.4475
576.4250, 155.5582
576.9072, 155.7293
577.3893, 155.9061
577.8714, 156.1588
578.3535, 156.3933
578.8356, 156.3574
579.3177, 155.9239
579.7999, 155.5336
580.2820, 155.2959
580.7641, 155.2147
581.2462, 155.3713
581.7283, 155.8002
582.2104, 156.1564
582.6926, 156.1382
583.1747, 155.8565
583.6568, 155.5946
584.1389, 155.3619
584.6210, 155.2537
585.1031, 155.5338
585.5853, 155.9426
586.0674, 156.0897
586.5495, 155.7512
587.0316, 155.3257
587.5137, 154.8345
587.9958, 154.4143
