##NAMES=Kanoite
##RRUFFID=R061134
##IDEAL CHEMISTRY=Mn^2+^MgSi_2_O_6_
##LOCALITY=Balmat, St. Lawrence County, New York, USA
##OWNER=RRUFF
##SOURCE=Michael Scott
##DESCRIPTION=Yellowish brown granular aggregate
##STATUS=The identification of this mineral has been confirmed by X-ray diffraction and chemical analysis
##URL=rruff.info/R061134
##MEASURED CHEMISTRY=(Mn^2+^_0.88_Ca_0.12_)_Σ=1_(Mg_0.98_Fe^3+^_0.02_)_Σ=1_(Si_0.98_Al_0.02_)_2_O_6_
174.8249, 11174.09
175.3070, 11209.04
175.7892, 11253.22
176.2713, 11281.72
176.7534, 11284.74
177.2355, 11280.02
177.7176, 11300.10
178.1997, 11349.10
178.6819, 11396.74
179.1640, 11436.91
179.6461, 11470.92
180.1282, 11498.82
180.6103, 11518.92
181.0924, 11538.19
181.5745, 11568.60
182.0567, 11610.39
182.5388, 11652.47
183.0209, 11696.61
183.5030, 11738.03
183.9851, 11766.02
184.4672, 11775.24
184.9494, 11779.39
185.4315, 11799.78
185.9136, 11836.03
186.3957, 11865.93
186.8778, 11873.64
187.3599, 11872.76
187.8421, 11888.50
188.3242, 11928.42
188.8063, 11976.76
189.2884, 12015.24
189.7705, 12045.36
190.2526, 12076.31
190.7348, 12114.66
191.2169, 12154.97
191.6990, 12188.40
192.1811, 12214.10
192.6632, 12231.53
193.1453, 12233.00
193.6275, 12222.62
194.1096, 12220.15
194.5917, 12229.74
195.0738, 12251.58
195.5559, 12294.08
196.0380, 12367.08
196.5202, 12430.28
197.0023, 12428.30
197.4844, 12382.75
197.9665, 12358.35
198.4486, 12392.87
198.9307, 12454.18
199.4129, 12488.57
199.8950, 12487.30
200.3771, 12482.93
200.8592, 12506.48
201.3413, 12546.36
201.8234, 12578.11
202.3056, 12588.53
202.7877, 12589.32
203.2698, 12600.59
203.7519, 12626.51
204.2340, 12643.32
204.7161, 12616.07
205.1983, 12569.91
205.6804, 12551.58
206.1625, 12588.46
206.6446, 12647.73
207.1267, 12690.01
207.6088, 12713.96
208.0910, 12729.94
208.5731, 12738.42
209.0552, 12743.71
209.5373, 12751.79
210.0194, 12760.82
210.5015, 12776.43
210.9837, 12811.29
211.4658, 12867.39
211.9479, 12912.76
212.4300, 12919.57
212.9121, 12911.98
213.3942, 12923.84
213.8764, 12965.70
214.3585, 13016.77
214.8406, 13062.33
215.3227, 13102.74
215.8048, 13129.07
216.2869, 13129.65
216.7691, 13118.76
217.2512, 13112.26
217.7333, 13109.48
218.2154, 13117.33
218.6975, 13150.98
219.1796, 13207.46
219.6618, 13247.06
220.1439, 13251.76
220.6260, 13238.90
221.1081, 13230.06
221.5902, 13226.34
222.0723, 13221.44
222.5545, 13203.22
223.0366, 13176.95
223.5187, 13173.81
224.0008, 13213.62
224.4829, 13263.58
224.9650, 13289.93
225.4472, 13293.34
225.9293, 13290.38
226.4114, 13286.11
226.8935, 13282.06
227.3756, 13283.99
227.8577, 13294.90
228.3399, 13308.16
228.8220, 13320.76
229.3041, 13331.95
229.7862, 13335.80
230.2683, 13323.99
230.7504, 13303.90
231.2325, 13291.62
231.7147, 13290.18
232.1968, 13291.99
232.6789, 13288.25
233.1610, 13282.20
233.6431, 13284.06
234.1252, 13306.47
234.6074, 13335.02
235.0895, 13344.73
235.5716, 13331.27
236.0537, 13319.69
236.5358, 13334.65
237.0179, 13363.35
237.5001, 13378.31
237.9822, 13367.76
238.4643, 13346.07
238.9464, 13322.52
239.4285, 13296.71
239.9106, 13284.49
240.3928, 13305.10
240.8749, 13341.73
241.3570, 13358.35
241.8391, 13340.71
242.3212, 13319.68
242.8033, 13323.75
243.2855, 13348.76
243.7676, 13363.46
244.2497, 13352.75
244.7318, 13325.57
245.2139, 13297.36
245.6960, 13261.82
246.1782, 13241.54
246.6603, 13262.16
247.1424, 13309.39
247.6245, 13338.17
248.1066, 13331.12
248.5887, 13306.37
249.0709, 13287.35
249.5530, 13272.44
250.0351, 13268.83
250.5172, 13291.51
250.9993, 13324.67
251.4814, 13337.90
251.9636, 13322.32
252.4457, 13297.89
252.9278, 13289.44
253.4099, 13296.88
253.8920, 13296.60
254.3741, 13266.60
254.8563, 13235.91
255.3384, 13245.67
255.8205, 13300.84
256.3026, 13354.60
256.7847, 13363.05
257.2668, 13326.10
257.7490, 13302.58
258.2311, 13304.25
258.7132, 13311.56
259.1953, 13310.17
259.6774, 13300.81
260.1595, 13292.06
260.6417, 13289.26
261.1238, 13291.88
261.6059, 13295.47
262.0880, 13299.80
262.5701, 13305.14
263.0522, 13314.41
263.5344, 13324.85
264.0165, 13328.65
264.4986, 13320.49
264.9807, 13306.28
265.4628, 13304.17
265.9449, 13319.90
266.4271, 13336.98
266.9092, 13353.24
267.3913, 13368.89
267.8734, 13387.38
268.3555, 13410.03
268.8376, 13426.97
269.3198, 13420.10
269.8019, 13364.26
270.2840, 13335.58
270.7661, 13356.01
271.2482, 13389.90
271.7303, 13406.56
272.2125, 13402.14
272.6946, 13394.68
273.1767, 13405.54
273.6588, 13442.00
274.1409, 13458.60
274.6230, 13436.77
275.1052, 13414.99
275.5873, 13410.47
276.0694, 13423.12
276.5515, 13447.95
277.0336, 13483.96
277.5157, 13529.63
277.9979, 13552.75
278.4800, 13531.11
278.9621, 13511.78
279.4442, 13501.57
279.9263, 13500.99
280.4084, 13510.55
280.8906, 13530.80
281.3727, 13558.84
281.8548, 13585.66
282.3369, 13608.66
282.8190, 13634.42
283.3011, 13667.47
283.7833, 13701.11
284.2654, 13732.46
284.7475, 13759.59
285.2296, 13777.51
285.7117, 13774.49
286.1938, 13737.70
286.6760, 13715.66
287.1581, 13720.28
287.6402, 13730.55
288.1223, 13736.71
288.6044, 13737.76
289.0865, 13736.99
289.5687, 13735.08
290.0508, 13731.70
290.5329, 13740.49
291.0150, 13778.13
291.4971, 13809.61
291.9792, 13813.76
292.4614, 13802.75
292.9435, 13801.19
293.4256, 13825.60
293.9077, 13867.91
294.3898, 13904.89
294.8719, 13939.24
295.3541, 13961.79
295.8362, 13956.81
296.3183, 13944.27
296.8004, 13944.56
297.2825, 13963.56
297.7646, 13997.85
298.2468, 14049.73
298.7289, 14121.61
299.2110, 14182.56
299.6931, 14219.03
300.1752, 14244.88
300.6573, 14273.80
301.1395, 14306.91
301.6216, 14334.51
302.1037, 14339.47
302.5858, 14331.54
303.0679, 14351.42
303.5500, 14415.29
304.0321, 14487.24
304.5143, 14534.10
304.9964, 14560.94
305.4785, 14586.09
305.9606, 14610.49
306.4427, 14638.62
306.9248, 14680.66
307.4070, 14737.68
307.8891, 14788.58
308.3712, 14813.50
308.8533, 14821.38
309.3354, 14847.63
309.8175, 14909.31
310.2997, 14972.74
310.7818, 15014.28
311.2639, 15041.16
311.7460, 15077.08
312.2281, 15133.48
312.7102, 15202.01
313.1924, 15261.36
313.6745, 15300.02
314.1566, 15356.95
314.6387, 15455.27
315.1208, 15569.11
315.6029, 15668.61
316.0851, 15747.13
316.5672, 15813.66
317.0493, 15878.13
317.5314, 15938.65
318.0135, 16005.76
318.4956, 16084.50
318.9778, 16164.25
319.4599, 16245.77
319.9420, 16324.08
320.4241, 16388.42
320.9062, 16429.92
321.3883, 16450.44
321.8705, 16466.33
322.3526, 16476.69
322.8347, 16483.30
323.3168, 16492.16
323.7989, 16495.29
324.2810, 16481.11
324.7632, 16445.17
325.2453, 16395.80
325.7274, 16350.86
326.2095, 16319.12
326.6916, 16271.58
327.1737, 16195.90
327.6559, 16114.15
328.1380, 16039.48
328.6201, 15973.53
329.1022, 15910.31
329.5843, 15846.56
330.0664, 15782.35
330.5486, 15707.70
331.0307, 15608.49
331.5128, 15516.57
331.9949, 15449.68
332.4770, 15398.55
332.9591, 15346.12
333.4413, 15283.48
333.9234, 15215.49
334.4055, 15151.58
334.8876, 15092.35
335.3697, 15033.47
335.8518, 14974.32
336.3340, 14913.76
336.8161, 14846.05
337.2982, 14766.71
337.7803, 14700.50
338.2624, 14676.08
338.7445, 14683.42
339.2267, 14678.48
339.7088, 14652.06
340.1909, 14611.01
340.6730, 14554.51
341.1551, 14484.69
341.6372, 14427.70
342.1194, 14397.43
342.6015, 14379.17
343.0836, 14353.64
343.5657, 14320.54
344.0478, 14298.80
344.5299, 14304.45
345.0121, 14332.86
345.4942, 14352.68
345.9763, 14360.95
346.4584, 14364.74
346.9405, 14363.05
347.4226, 14359.19
347.9048, 14360.01
348.3869, 14368.34
348.8690, 14379.44
349.3511, 14384.97
349.8332, 14383.99
350.3153, 14378.04
350.7975, 14365.77
351.2796, 14349.76
351.7617, 14326.23
352.2438, 14298.73
352.7259, 14280.56
353.2080, 14285.05
353.6902, 14312.21
354.1723, 14335.86
354.6544, 14367.70
355.1365, 14382.29
355.6186, 14357.34
356.1007, 14316.72
356.5829, 14296.29
357.0650, 14313.88
357.5471, 14346.59
358.0292, 14348.89
358.5113, 14312.24
358.9934, 14271.98
359.4756, 14223.95
359.9577, 14181.20
360.4398, 14152.34
360.9219, 14137.86
361.4040, 14132.58
361.8861, 14137.27
362.3683, 14149.11
362.8504, 14153.43
363.3325, 14147.24
363.8146, 14138.48
364.2967, 14126.78
364.7788, 14116.58
365.2610, 14118.05
365.7431, 14139.66
366.2252, 14167.47
366.7073, 14188.25
367.1894, 14202.81
367.6715, 14219.29
368.1537, 14243.64
368.6358, 14267.86
369.1179, 14275.57
369.6000, 14263.95
370.0821, 14251.54
370.5642, 14238.74
371.0464, 14230.06
371.5285, 14230.25
372.0106, 14240.16
372.4927, 14260.37
372.9748, 14294.00
373.4569, 14342.16
373.9391, 14378.32
374.4212, 14410.63
374.9033, 14424.50
375.3854, 14400.95
375.8675, 14357.66
376.3496, 14324.35
376.8318, 14315.04
377.3139, 14322.55
377.7960, 14331.61
378.2781, 14348.33
378.7602, 14354.71
379.2423, 14335.44
379.7245, 14318.60
380.2066, 14331.19
380.6887, 14368.85
381.1708, 14398.48
381.6529, 14382.63
382.1350, 14327.26
382.6172, 14308.85
383.0993, 14350.60
383.5814, 14392.40
384.0635, 14405.57
384.5456, 14405.66
385.0277, 14415.29
385.5099, 14444.60
385.9920, 14477.28
386.4741, 14496.10
386.9562, 14501.27
387.4383, 14492.70
387.9204, 14458.07
388.4026, 14425.50
388.8847, 14433.00
389.3668, 14478.99
389.8489, 14517.69
390.3310, 14525.80
390.8131, 14522.57
391.2953, 14535.61
391.7774, 14565.51
392.2595, 14584.85
392.7416, 14571.91
393.2237, 14533.31
393.7058, 14509.68
394.1880, 14516.46
394.6701, 14517.44
395.1522, 14500.12
395.6343, 14472.62
396.1164, 14443.71
396.5985, 14416.54
397.0807, 14393.25
397.5628, 14377.50
398.0449, 14372.30
398.5270, 14364.03
399.0091, 14353.42
399.4912, 14339.36
399.9734, 14318.91
400.4555, 14294.75
400.9376, 14270.31
401.4197, 14245.91
401.9018, 14226.67
402.3839, 14231.50
402.8660, 14274.49
403.3481, 14304.71
403.8303, 14295.40
404.3124, 14278.02
404.7945, 14273.50
405.2766, 14284.90
405.7587, 14307.03
406.2408, 14347.20
406.7230, 14396.04
407.2051, 14417.88
407.6872, 14403.28
408.1693, 14382.40
408.6514, 14375.36
409.1335, 14378.51
409.6157, 14381.94
410.0978, 14380.67
410.5799, 14383.59
411.0620, 14398.37
411.5441, 14421.80
412.0262, 14449.00
412.5084, 14480.22
412.9905, 14504.15
413.4726, 14501.32
413.9547, 14457.56
414.4368, 14424.23
414.9189, 14406.23
415.4011, 14394.47
415.8832, 14385.50
416.3653, 14377.76
416.8474, 14369.34
417.3295, 14359.11
417.8116, 14346.86
418.2938, 14331.52
418.7759, 14310.48
419.2580, 14290.58
419.7401, 14286.04
420.2222, 14274.35
420.7043, 14228.31
421.1865, 14147.56
421.6686, 14067.93
422.1507, 14025.53
422.6328, 14017.05
423.1149, 14009.43
423.5970, 14002.27
424.0792, 13995.19
424.5613, 13989.14
425.0434, 13982.82
425.5255, 13973.38
426.0076, 13957.62
426.4897, 13942.85
426.9719, 13930.83
427.4540, 13924.02
427.9361, 13939.30
428.4182, 13990.85
428.9003, 14036.72
429.3824, 14010.97
429.8646, 13896.98
430.3467, 13825.20
430.8288, 13832.52
431.3109, 13859.97
431.7930, 13877.50
432.2751, 13882.35
432.7573, 13873.71
433.2394, 13849.38
433.7215, 13818.22
434.2036, 13808.60
434.6857, 13841.27
435.1678, 13862.03
435.6500, 13863.76
436.1321, 13857.58
436.6142, 13849.85
437.0963, 13841.89
437.5784, 13832.83
438.0605, 13819.21
438.5427, 13803.63
439.0248, 13802.48
439.5069, 13821.65
439.9890, 13841.74
440.4711, 13860.51
440.9532, 13873.11
441.4354, 13871.02
441.9175, 13849.97
442.3996, 13827.12
442.8817, 13811.99
443.3638, 13804.44
443.8459, 13805.84
444.3281, 13817.54
444.8102, 13831.59
445.2923, 13842.79
445.7744, 13850.44
446.2565, 13849.44
446.7386, 13825.09
447.2208, 13807.74
447.7029, 13820.18
448.1850, 13846.66
448.6671, 13858.67
449.1492, 13845.81
449.6313, 13820.76
450.1135, 13802.88
450.5956, 13791.99
451.0777, 13789.29
451.5598, 13796.29
452.0419, 13809.55
452.5240, 13836.54
453.0062, 13867.92
453.4883, 13883.01
453.9704, 13865.96
454.4525, 13838.97
454.9346, 13854.39
455.4167, 13921.98
455.8989, 13959.01
456.3810, 13924.90
456.8631, 13871.65
457.3452, 13848.88
457.8273, 13855.47
458.3094, 13866.57
458.7916, 13877.82
459.2737, 13885.25
459.7558, 13876.22
460.2379, 13853.83
460.7200, 13849.75
461.2021, 13885.62
461.6843, 13945.09
462.1664, 13981.34
462.6485, 13980.75
463.1306, 13980.81
463.6127, 13981.78
464.0948, 13986.50
464.5770, 14000.79
465.0591, 14022.45
465.5412, 14040.75
466.0233, 14046.01
466.5054, 14040.86
466.9875, 14044.06
467.4697, 14064.95
467.9518, 14077.64
468.4339, 14081.48
468.9160, 14072.47
469.3981, 14042.33
469.8802, 13990.63
470.3624, 13936.01
470.8445, 13883.63
471.3266, 13840.02
471.8087, 13834.12
472.2908, 13875.75
472.7729, 13915.63
473.2551, 13926.70
473.7372, 13910.54
474.2193, 13878.25
474.7014, 13808.39
475.1835, 13756.13
475.6656, 13753.45
476.1478, 13776.00
476.6299, 13793.79
477.1120, 13799.74
477.5941, 13795.58
478.0762, 13780.77
478.5583, 13754.67
479.0405, 13742.18
479.5226, 13753.95
480.0047, 13767.85
480.4868, 13784.77
480.9689, 13799.42
481.4510, 13806.12
481.9332, 13803.34
482.4153, 13793.73
482.8974, 13778.91
483.3795, 13759.18
483.8616, 13733.87
484.3438, 13689.99
484.8259, 13666.74
485.3080, 13713.40
485.7901, 13794.78
486.2722, 13847.73
486.7543, 13856.08
487.2365, 13844.28
487.7186, 13816.51
488.2007, 13781.42
488.6828, 13751.68
489.1649, 13730.08
489.6470, 13731.87
490.1292, 13780.46
490.6113, 13883.16
491.0934, 13940.01
491.5755, 13918.74
492.0576, 13896.06
492.5397, 13892.84
493.0219, 13901.38
493.5040, 13911.35
493.9861, 13919.09
494.4682, 13925.24
494.9503, 13929.82
495.4324, 13932.70
495.9146, 13938.14
496.3967, 13949.48
496.8788, 13958.16
497.3609, 13950.51
497.8430, 13939.35
498.3251, 13949.58
498.8073, 13997.69
499.2894, 14044.40
499.7715, 14052.03
500.2536, 14036.52
500.7357, 14039.08
501.2178, 14069.52
501.6999, 14105.67
502.1820, 14126.90
502.6642, 14132.84
503.1463, 14135.44
503.6284, 14132.51
504.1105, 14129.27
504.5926, 14120.18
505.0747, 14114.79
505.5569, 14130.15
506.0390, 14168.55
506.5211, 14207.97
507.0032, 14222.80
507.4853, 14212.79
507.9674, 14188.27
508.4496, 14122.79
508.9317, 14087.41
509.4138, 14145.57
509.8959, 14239.17
510.3780, 14286.12
510.8601, 14260.38
511.3423, 14223.96
511.8244, 14226.84
512.3065, 14248.93
512.7886, 14243.29
513.2708, 14202.37
513.7529, 14157.82
514.2350, 14134.38
514.7171, 14130.50
515.1992, 14129.82
515.6813, 14127.70
516.1635, 14134.22
516.6456, 14170.86
517.1277, 14205.50
517.6098, 14196.32
518.0919, 14143.13
518.5740, 14090.23
519.0562, 14083.82
519.5383, 14115.23
520.0204, 14113.64
520.5025, 14060.59
520.9846, 14018.51
521.4667, 14029.17
521.9489, 14052.37
522.4310, 14044.57
522.9131, 13998.56
523.3952, 13957.85
523.8773, 13950.16
524.3594, 13957.78
524.8416, 13960.03
525.3237, 13954.30
525.8058, 13933.01
526.2879, 13886.43
526.7700, 13828.92
527.2521, 13806.74
527.7343, 13858.87
528.2164, 13891.40
528.6985, 13896.24
529.1806, 13888.65
529.6627, 13871.96
530.1448, 13851.63
530.6270, 13838.98
531.1091, 13842.55
531.5912, 13855.48
532.0733, 13863.98
532.5554, 13868.69
533.0375, 13863.09
533.5197, 13838.49
534.0018, 13810.95
534.4839, 13794.83
534.9660, 13789.46
535.4481, 13790.13
535.9302, 13796.74
536.4124, 13807.97
536.8945, 13824.72
537.3766, 13845.26
537.8587, 13867.96
538.3408, 13892.42
538.8229, 13910.46
539.3051, 13908.02
539.7872, 13878.12
540.2693, 13857.72
540.7514, 13851.87
541.2335, 13850.21
541.7156, 13851.60
542.1978, 13854.49
542.6799, 13855.49
543.1620, 13853.04
543.6441, 13854.85
544.1262, 13871.83
544.6083, 13900.96
545.0905, 13929.09
545.5726, 13956.85
546.0547, 13974.16
546.5368, 13968.84
547.0189, 13947.42
547.5010, 13938.14
547.9832, 13942.28
548.4653, 13956.09
548.9474, 13990.08
549.4295, 14026.36
549.9116, 14041.74
550.3937, 14037.15
550.8758, 14034.43
551.3579, 14052.81
551.8400, 14085.14
552.3221, 14096.63
552.8043, 14074.47
553.2864, 14061.72
553.7685, 14075.27
554.2506, 14096.37
554.7327, 14118.04
555.2148, 14137.76
555.6970, 14144.65
556.1791, 14128.77
556.6612, 14100.95
557.1433, 14067.56
557.6254, 14031.50
558.1075, 14007.37
558.5897, 14002.02
559.0718, 14003.98
559.5539, 13997.78
560.0360, 13984.90
560.5181, 13956.16
561.0002, 13897.61
561.4824, 13840.64
561.9645, 13792.57
562.4466, 13755.06
562.9287, 13733.86
563.4108, 13730.52
563.8929, 13728.64
564.3751, 13698.80
564.8572, 13649.27
565.3393, 13644.95
565.8214, 13705.53
566.3035, 13756.45
566.7856, 13747.90
567.2678, 13699.65
567.7499, 13666.27
568.2320, 13653.53
568.7141, 13643.14
569.1962, 13628.06
569.6783, 13614.31
570.1605, 13608.31
570.6426, 13609.49
571.1247, 13613.18
571.6068, 13616.64
572.0889, 13619.37
572.5710, 13619.15
573.0532, 13613.95
573.5353, 13612.33
574.0174, 13621.63
574.4995, 13628.63
574.9816, 13625.64
575.4637, 13613.93
575.9459, 13597.46
576.4280, 13569.16
576.9101, 13547.63
577.3922, 13558.38
577.8743, 13587.58
578.3564, 13598.47
578.8386, 13582.02
579.3207, 13556.96
579.8028, 13540.60
580.2849, 13532.92
580.7670, 13532.07
581.2491, 13534.92
581.7313, 13549.38
582.2134, 13603.79
582.6955, 13652.36
583.1776, 13645.30
583.6597, 13582.66
584.1418, 13512.88
584.6240, 13460.89
585.1061, 13430.47
585.5882, 13440.29
586.0703, 13489.84
586.5524, 13529.62
587.0345, 13541.56
587.5167, 13535.52
587.9988, 13521.65
588.4809, 13496.15
588.9630, 13484.15
589.4451, 13498.76
589.9272, 13513.70
590.4094, 13516.53
590.8915, 13511.72
591.3736, 13508.40
591.8557, 13509.12
592.3378, 13506.93
592.8199, 13485.11
593.3021, 13447.05
593.7842, 13447.88
594.2663, 13506.20
594.7484, 13547.83
595.2305, 13522.39
595.7126, 13468.37
596.1948, 13451.77
596.6769, 13482.10
597.1590, 13510.37
597.6411, 13528.36
598.1232, 13534.20
598.6053, 13523.50
599.0875, 13499.11
599.5696, 13462.85
600.0517, 13414.87
600.5338, 13374.07
601.0159, 13384.86
601.4980, 13464.85
601.9802, 13500.58
602.4623, 13455.27
602.9444, 13412.77
603.4265, 13427.15
603.9086, 13465.67
604.3907, 13469.51
604.8729, 13413.63
605.3550, 13374.22
605.8371, 13421.74
606.3192, 13497.51
606.8013, 13508.81
607.2834, 13457.29
607.7656, 13413.89
608.2477, 13423.17
608.7298, 13466.14
609.2119, 13492.75
609.6940, 13502.37
610.1761, 13496.67
610.6583, 13456.68
611.1404, 13419.75
611.6225, 13404.07
612.1046, 13403.80
612.5867, 13406.79
613.0688, 13411.46
613.5510, 13411.17
614.0331, 13388.70
614.5152, 13359.29
614.9973, 13367.29
615.4794, 13416.95
615.9615, 13453.27
616.4437, 13430.34
616.9258, 13369.39
617.4079, 13359.84
617.8900, 13464.27
618.3721, 13518.20
618.8542, 13475.16
619.3364, 13421.38
619.8185, 13410.27
620.3006, 13431.64
620.7827, 13449.27
621.2648, 13445.86
621.7469, 13435.60
622.2291, 13432.10
622.7112, 13435.07
623.1933, 13445.38
623.6754, 13463.84
624.1575, 13481.42
624.6396, 13490.59
625.1218, 13493.08
625.6039, 13498.57
626.0860, 13513.97
626.5681, 13522.97
627.0502, 13518.49
627.5323, 13512.70
628.0145, 13514.53
628.4966, 13522.66
628.9787, 13530.27
629.4608, 13533.01
629.9429, 13536.02
630.4250, 13548.35
630.9072, 13567.89
631.3893, 13581.45
631.8714, 13585.35
632.3535, 13592.27
632.8356, 13615.96
633.3177, 13651.48
633.7999, 13666.06
634.2820, 13632.17
634.7641, 13616.55
635.2462, 13642.01
635.7283, 13673.68
636.2104, 13677.25
636.6926, 13663.01
637.1747, 13671.84
637.6568, 13731.62
638.1389, 13808.05
638.6210, 13851.57
639.1031, 13866.00
639.5853, 13870.58
640.0674, 13864.49
640.5495, 13870.81
641.0316, 13911.95
641.5137, 13980.93
641.9958, 14036.21
642.4780, 14076.73
642.9601, 14106.09
643.4422, 14098.76
643.9243, 14101.92
644.4064, 14159.83
644.8885, 14259.37
645.3707, 14356.96
645.8528, 14431.46
646.3349, 14489.47
646.8170, 14524.83
647.2991, 14546.58
647.7813, 14616.64
648.2634, 14750.53
648.7455, 14894.26
649.2276, 15006.64
649.7097, 15098.01
650.1918, 15215.51
650.6740, 15385.43
651.1561, 15541.07
651.6382, 15660.21
652.1203, 15779.85
652.6024, 15927.59
653.0845, 16095.12
653.5667, 16260.36
654.0488, 16412.87
654.5309, 16557.28
655.0130, 16695.59
655.4951, 16829.38
655.9772, 16961.79
656.4594, 17092.44
656.9415, 17238.21
657.4236, 17414.57
657.9057, 17608.77
658.3878, 17781.13
658.8699, 17915.45
659.3521, 18056.94
659.8342, 18208.50
660.3163, 18364.87
660.7984, 18531.72
661.2805, 18699.19
661.7626, 18845.58
662.2448, 18961.90
662.7269, 19068.94
663.2090, 19184.25
663.6911, 19305.10
664.1732, 19435.66
664.6553, 19574.67
665.1375, 19685.31
665.6196, 19749.05
666.1017, 19771.04
666.5838, 19761.23
667.0659, 19717.09
667.5480, 19646.75
668.0302, 19558.45
668.5123, 19436.93
668.9944, 19270.60
669.4765, 19069.69
669.9586, 18843.44
670.4407, 18593.67
