##NAMES=Kapustinite
##RRUFFID=R060896
##IDEAL CHEMISTRY=Na_6_Zr^4+^Si_6_O_16_(OH)_2_
##LOCALITY=Palitra pegmatite, Kedykverpakhk Mountain, Lovozero Massif, Russia
##OWNER=RRUFF
##SOURCE=Michael Scott
##DESCRIPTION=Reddish brown vitreous massive fragment
##STATUS=The identification of this mineral has been confirmed only by single crystal X-ray diffraction.
##URL=rruff.info/R060896
142.7406, 3659.953
143.2227, 3842.387
143.7048, 4053.912
144.1869, 4282.723
144.6690, 4492.111
145.1511, 4666.357
145.6333, 4839.577
146.1154, 5020.343
146.5975, 5203.494
147.0796, 5385.327
147.5617, 5565.649
148.0438, 5738.359
148.5260, 5869.776
149.0081, 5945.082
149.4902, 6006.772
149.9723, 6065.354
150.4544, 6119.006
150.9365, 6164.403
151.4187, 6201.364
151.9008, 6226.918
152.3829, 6225.185
152.8650, 6176.832
153.3471, 6126.761
153.8292, 6097.002
154.3114, 6081.316
154.7935, 6057.518
155.2756, 6008.203
155.7577, 5941.556
156.2398, 5900.110
156.7219, 5893.446
157.2041, 5900.207
157.6862, 5912.150
158.1683, 5928.803
158.6504, 5948.418
159.1325, 5967.980
159.6146, 5990.555
160.0968, 6026.136
160.5789, 6078.629
161.0610, 6140.112
161.5431, 6206.558
162.0252, 6277.753
162.5073, 6353.463
162.9895, 6436.083
163.4716, 6523.313
163.9537, 6604.109
164.4358, 6675.858
164.9179, 6742.828
165.4000, 6806.571
165.8822, 6867.047
166.3643, 6929.434
166.8464, 7001.552
167.3285, 7078.045
167.8106, 7143.039
168.2927, 7191.094
168.7749, 7229.272
169.2570, 7264.163
169.7391, 7295.936
170.2212, 7322.172
170.7033, 7339.271
171.1854, 7349.655
171.6676, 7359.483
172.1497, 7371.797
172.6318, 7382.961
173.1139, 7390.332
173.5960, 7394.384
174.0781, 7391.321
174.5603, 7372.058
175.0424, 7344.197
175.5245, 7323.769
176.0066, 7316.804
176.4887, 7317.463
176.9708, 7320.234
177.4530, 7325.788
177.9351, 7329.488
178.4172, 7327.925
178.8993, 7322.297
179.3814, 7313.951
179.8635, 7296.052
180.3457, 7279.317
180.8278, 7278.380
181.3099, 7294.542
181.7920, 7320.256
182.2741, 7360.066
182.7562, 7405.256
183.2384, 7441.847
183.7205, 7465.142
184.2026, 7478.081
184.6847, 7480.822
185.1668, 7469.390
185.6489, 7463.668
186.1311, 7485.397
186.6132, 7519.302
187.0953, 7542.830
187.5774, 7538.544
188.0595, 7527.180
188.5416, 7544.285
189.0238, 7597.534
189.5059, 7649.699
189.9880, 7682.820
190.4701, 7701.244
190.9522, 7706.719
191.4343, 7690.704
191.9165, 7669.010
192.3986, 7668.999
192.8807, 7696.952
193.3628, 7722.292
193.8449, 7719.511
194.3270, 7706.210
194.8092, 7704.912
195.2913, 7725.152
195.7734, 7758.232
196.2555, 7795.217
196.7376, 7839.554
197.2197, 7873.925
197.7019, 7881.000
198.1840, 7875.044
198.6661, 7871.526
199.1482, 7875.955
199.6303, 7883.546
200.1124, 7885.048
200.5946, 7877.490
201.0767, 7877.754
201.5588, 7908.278
202.0409, 7946.948
202.5230, 7967.637
203.0051, 7955.017
203.4873, 7934.090
203.9694, 7939.510
204.4515, 7975.761
204.9336, 8012.992
205.4157, 8045.182
205.8978, 8068.213
206.3800, 8073.260
206.8621, 8051.422
207.3442, 8024.155
207.8263, 8018.291
208.3084, 8035.938
208.7905, 8056.135
209.2727, 8069.529
209.7548, 8081.679
210.2369, 8098.807
210.7190, 8122.965
211.2011, 8149.639
211.6832, 8176.319
212.1654, 8203.353
212.6475, 8222.887
213.1296, 8224.716
213.6117, 8221.600
214.0938, 8226.594
214.5760, 8242.180
215.0581, 8263.478
215.5402, 8289.332
216.0223, 8319.729
216.5044, 8343.961
216.9865, 8352.845
217.4687, 8358.418
217.9508, 8374.323
218.4329, 8403.262
218.9150, 8434.280
219.3971, 8460.294
219.8792, 8481.455
220.3614, 8496.609
220.8435, 8498.625
221.3256, 8501.053
221.8077, 8518.330
222.2898, 8551.982
222.7719, 8590.613
223.2541, 8634.116
223.7362, 8679.017
224.2183, 8703.278
224.7004, 8692.093
225.1825, 8669.271
225.6646, 8659.890
226.1468, 8663.881
226.6289, 8673.456
227.1110, 8687.241
227.5931, 8703.556
228.0752, 8716.847
228.5573, 8725.560
229.0395, 8731.452
229.5216, 8732.879
230.0037, 8730.349
230.4858, 8736.225
230.9679, 8761.446
231.4500, 8798.396
231.9322, 8829.774
232.4143, 8851.671
232.8964, 8871.486
233.3785, 8897.533
233.8606, 8928.559
234.3427, 8957.731
234.8249, 8983.827
235.3070, 9006.627
235.7891, 9023.690
236.2712, 9033.471
236.7533, 9044.803
237.2354, 9070.390
237.7176, 9106.070
238.1997, 9131.045
238.6818, 9126.292
239.1639, 9117.021
239.6460, 9138.232
240.1281, 9193.522
240.6103, 9244.402
241.0924, 9258.380
241.5745, 9241.996
242.0566, 9233.527
242.5387, 9239.842
243.0208, 9252.328
243.5030, 9267.369
243.9851, 9284.200
244.4672, 9295.453
244.9493, 9291.437
245.4314, 9278.875
245.9135, 9286.748
246.3957, 9342.466
246.8778, 9392.792
247.3599, 9397.173
247.8420, 9367.682
248.3241, 9351.335
248.8062, 9376.069
249.2884, 9427.982
249.7705, 9457.208
250.2526, 9444.346
250.7347, 9437.361
251.2168, 9458.258
251.6989, 9496.714
252.1811, 9532.635
252.6632, 9557.941
253.1453, 9574.660
253.6274, 9586.216
254.1095, 9582.775
254.5916, 9591.437
255.0738, 9627.508
255.5559, 9675.161
256.0380, 9714.018
256.5201, 9737.607
257.0022, 9750.727
257.4843, 9759.752
257.9665, 9754.555
258.4486, 9767.340
258.9307, 9815.560
259.4128, 9872.906
259.8949, 9918.219
260.3770, 9946.730
260.8592, 9961.547
261.3413, 9964.006
261.8234, 9944.748
262.3055, 9946.609
262.7876, 9983.246
263.2697, 10027.70
263.7519, 10071.22
264.2340, 10108.73
264.7161, 10129.22
265.1982, 10118.20
265.6803, 10069.24
266.1624, 10051.59
266.6446, 10092.69
267.1267, 10133.31
267.6088, 10146.72
268.0909, 10141.23
268.5730, 10140.45
269.0551, 10161.93
269.5373, 10202.91
270.0194, 10233.80
270.5015, 10248.81
270.9836, 10258.77
271.4657, 10258.00
271.9478, 10254.97
272.4300, 10261.22
272.9121, 10282.91
273.3942, 10316.22
273.8763, 10352.04
274.3584, 10401.33
274.8405, 10433.43
275.3227, 10429.28
275.8048, 10415.57
276.2869, 10416.79
276.7690, 10441.23
277.2511, 10478.94
277.7332, 10516.45
278.2154, 10556.81
278.6975, 10586.77
279.1796, 10594.74
279.6617, 10599.04
280.1438, 10609.47
280.6259, 10627.89
281.1081, 10652.06
281.5902, 10687.02
282.0723, 10734.83
282.5544, 10756.59
283.0365, 10720.30
283.5186, 10685.78
284.0008, 10681.65
284.4829, 10707.12
284.9650, 10752.27
285.4471, 10819.66
285.9292, 10903.48
286.4113, 10986.71
286.8935, 11094.24
287.3756, 11151.39
287.8577, 11076.10
288.3398, 10924.60
288.8219, 10808.95
289.3040, 10786.88
289.7862, 10815.41
290.2683, 10833.60
290.7504, 10840.68
291.2325, 10842.23
291.7146, 10838.79
292.1967, 10832.35
292.6789, 10825.97
293.1610, 10819.45
293.6431, 10814.08
294.1252, 10810.89
294.6073, 10809.78
295.0894, 10808.18
295.5716, 10799.68
296.0537, 10796.25
296.5358, 10822.01
297.0179, 10886.05
297.5000, 10947.10
297.9821, 10984.67
298.4643, 11008.23
298.9464, 11036.86
299.4285, 11076.44
299.9106, 11115.79
300.3927, 11136.83
300.8748, 11132.87
301.3570, 11142.88
301.8391, 11177.59
302.3212, 11223.53
302.8033, 11275.09
303.2854, 11329.58
303.7675, 11373.98
304.2497, 11395.03
304.7318, 11390.18
305.2139, 11392.59
305.6960, 11399.45
306.1781, 11415.14
306.6602, 11444.78
307.1424, 11485.12
307.6245, 11531.53
308.1066, 11583.21
308.5887, 11635.60
309.0708, 11662.40
309.5529, 11630.94
310.0351, 11610.45
310.5172, 11609.91
310.9993, 11624.06
311.4814, 11649.11
311.9635, 11683.27
312.4456, 11721.28
312.9278, 11754.32
313.4099, 11784.96
313.8920, 11804.15
314.3741, 11798.64
314.8562, 11792.83
315.3383, 11805.45
315.8205, 11837.24
316.3026, 11873.00
316.7847, 11895.70
317.2668, 11903.59
317.7489, 11917.65
318.2310, 11934.09
318.7132, 11962.13
319.1953, 12014.10
319.6774, 12080.99
320.1595, 12141.29
320.6416, 12179.68
321.1237, 12202.70
321.6059, 12227.26
322.0880, 12251.68
322.5701, 12282.08
323.0522, 12326.33
323.5343, 12376.59
324.0164, 12421.05
324.4986, 12449.67
324.9807, 12485.05
325.4628, 12563.93
325.9449, 12682.82
326.4270, 12774.36
326.9091, 12805.00
327.3913, 12805.71
327.8734, 12821.85
328.3555, 12854.07
328.8376, 12896.32
329.3197, 12959.12
329.8018, 13027.43
330.2840, 13069.87
330.7661, 13076.98
331.2482, 13076.41
331.7303, 13099.82
332.2124, 13150.16
332.6945, 13192.87
333.1767, 13230.13
333.6588, 13255.89
334.1409, 13253.59
334.6230, 13230.58
335.1051, 13223.82
335.5872, 13262.97
336.0694, 13342.19
336.5515, 13395.92
337.0336, 13404.13
337.5157, 13414.22
337.9979, 13436.65
338.4800, 13468.42
338.9621, 13507.06
339.4442, 13551.57
339.9263, 13596.15
340.4084, 13627.04
340.8906, 13630.27
341.3727, 13645.07
341.8548, 13680.09
342.3369, 13719.51
342.8190, 13749.08
343.3011, 13769.23
343.7833, 13793.87
344.2654, 13837.65
344.7475, 13901.44
345.2296, 13971.45
345.7117, 14067.71
346.1938, 14146.47
346.6760, 14182.47
347.1581, 14189.80
347.6402, 14195.77
348.1223, 14213.30
348.6044, 14239.42
349.0865, 14267.85
349.5687, 14298.27
350.0508, 14332.84
350.5329, 14377.55
351.0150, 14424.60
351.4971, 14465.50
351.9792, 14498.29
352.4614, 14527.10
352.9435, 14552.69
353.4256, 14576.28
353.9077, 14606.09
354.3898, 14649.59
354.8719, 14688.36
355.3541, 14693.25
355.8362, 14666.34
356.3183, 14642.46
356.8004, 14624.37
357.2825, 14616.16
357.7646, 14627.29
358.2468, 14656.51
358.7289, 14684.81
359.2110, 14696.21
359.6931, 14693.06
360.1752, 14707.74
360.6573, 14764.88
361.1395, 14809.40
361.6216, 14809.68
362.1037, 14789.06
362.5858, 14790.41
363.0679, 14832.00
363.5500, 14889.07
364.0322, 14907.67
364.5143, 14839.50
364.9964, 14817.94
365.4785, 14880.57
365.9606, 14955.32
366.4427, 14990.61
366.9249, 14986.00
367.4070, 14977.92
367.8891, 15003.75
368.3712, 15062.75
368.8533, 15100.80
369.3354, 15099.35
369.8176, 15100.89
370.2997, 15121.06
370.7818, 15153.89
371.2639, 15190.05
371.7460, 15226.42
372.2281, 15262.73
372.7103, 15299.28
373.1924, 15335.99
373.6745, 15372.44
374.1566, 15414.06
374.6387, 15450.20
375.1208, 15466.91
375.6030, 15461.25
376.0851, 15457.58
376.5672, 15475.41
377.0493, 15502.21
377.5314, 15511.37
378.0135, 15497.21
378.4957, 15479.15
378.9778, 15477.76
379.4599, 15492.60
379.9420, 15488.05
380.4241, 15436.28
380.9063, 15390.47
381.3884, 15388.60
381.8705, 15417.63
382.3526, 15441.00
382.8347, 15439.51
383.3168, 15423.40
383.7990, 15421.48
384.2811, 15465.53
384.7632, 15481.12
385.2453, 15451.23
385.7274, 15403.80
386.2095, 15353.97
386.6917, 15308.37
387.1738, 15275.60
387.6559, 15265.36
388.1380, 15278.31
388.6201, 15303.36
389.1022, 15354.86
389.5844, 15402.25
390.0665, 15438.98
390.5486, 15464.10
391.0307, 15474.93
391.5128, 15467.39
391.9949, 15450.89
392.4771, 15442.13
392.9592, 15442.56
393.4413, 15436.32
393.9234, 15404.55
394.4055, 15375.64
394.8876, 15386.00
395.3698, 15440.50
395.8519, 15487.02
396.3340, 15488.79
396.8161, 15468.08
397.2982, 15469.64
397.7803, 15501.13
398.2625, 15526.32
398.7446, 15512.53
399.2267, 15460.49
399.7088, 15418.30
400.1909, 15385.87
400.6730, 15362.58
401.1552, 15361.78
401.6373, 15368.14
402.1194, 15346.77
402.6015, 15281.86
403.0836, 15199.40
403.5657, 15154.57
404.0479, 15182.36
404.5300, 15184.69
405.0121, 15143.40
405.4942, 15095.28
405.9763, 15062.74
406.4584, 15045.98
406.9406, 15033.23
407.4227, 15012.74
407.9048, 14987.86
408.3869, 14984.24
408.8690, 15019.45
409.3511, 15043.88
409.8333, 15033.30
410.3154, 15006.16
410.7975, 14984.50
411.2796, 14975.93
411.7617, 14964.48
412.2438, 14923.32
412.7260, 14860.40
413.2081, 14828.22
413.6902, 14844.67
414.1723, 14881.20
414.6544, 14912.03
415.1365, 14937.57
415.6187, 14955.01
416.1008, 14965.14
416.5829, 14965.79
417.0650, 14948.93
417.5471, 14918.81
418.0292, 14894.53
418.5114, 14887.83
418.9935, 14893.11
419.4756, 14891.22
419.9577, 14883.11
420.4398, 14866.27
420.9219, 14831.02
421.4041, 14793.13
421.8862, 14769.37
422.3683, 14760.48
422.8504, 14751.92
423.3325, 14727.14
423.8146, 14685.66
424.2968, 14650.73
424.7789, 14620.07
425.2610, 14600.05
425.7431, 14609.32
426.2252, 14625.00
426.7073, 14609.66
427.1895, 14543.27
427.6716, 14462.96
428.1537, 14412.76
428.6358, 14391.77
429.1179, 14387.26
429.6000, 14407.34
430.0822, 14427.21
430.5643, 14413.99
431.0464, 14369.81
431.5285, 14332.73
432.0106, 14320.61
432.4927, 14314.93
432.9749, 14294.83
433.4570, 14262.42
433.9391, 14235.99
434.4212, 14227.13
434.9033, 14231.67
435.3854, 14233.45
435.8676, 14235.95
436.3497, 14231.10
436.8318, 14213.75
437.3139, 14191.70
437.7960, 14169.68
438.2781, 14149.74
438.7603, 14134.09
439.2424, 14125.82
439.7245, 14124.98
440.2066, 14124.97
440.6887, 14133.43
441.1708, 14131.33
441.6530, 14105.82
442.1351, 14068.87
442.6172, 14036.75
443.0993, 14014.40
443.5814, 13998.28
444.0635, 13989.00
444.5457, 13984.63
445.0278, 13968.53
445.5099, 13932.88
445.9920, 13892.45
446.4741, 13865.17
446.9562, 13849.62
447.4384, 13830.71
447.9205, 13806.53
448.4026, 13777.59
448.8847, 13740.39
449.3668, 13698.32
449.8489, 13662.32
450.3311, 13638.13
450.8132, 13622.59
451.2953, 13607.54
451.7774, 13601.01
452.2595, 13582.50
452.7416, 13537.22
453.2238, 13492.76
453.7059, 13476.35
454.1880, 13482.12
454.6701, 13474.90
455.1522, 13417.69
455.6343, 13326.75
456.1165, 13285.84
456.5986, 13317.26
457.0807, 13345.28
457.5628, 13335.17
458.0449, 13309.90
458.5270, 13291.19
459.0092, 13283.01
459.4913, 13275.53
459.9734, 13260.85
460.4555, 13242.33
460.9376, 13229.75
461.4197, 13225.44
461.9019, 13215.79
462.3840, 13186.39
462.8661, 13139.00
463.3482, 13105.64
463.8303, 13099.55
464.3124, 13091.59
464.7946, 13071.71
465.2767, 13044.16
465.7588, 13013.07
466.2409, 12980.26
466.7230, 12950.70
467.2051, 12933.72
467.6873, 12934.82
468.1694, 12921.98
468.6515, 12867.73
469.1336, 12828.23
469.6157, 12835.26
470.0978, 12869.36
470.5800, 12895.95
471.0621, 12903.88
471.5442, 12890.07
472.0263, 12838.96
472.5084, 12753.10
472.9905, 12684.65
473.4727, 12651.81
473.9548, 12633.73
474.4369, 12606.66
474.9190, 12571.09
475.4011, 12538.17
475.8832, 12517.08
476.3654, 12493.30
476.8475, 12442.99
477.3296, 12378.78
477.8117, 12343.76
478.2938, 12362.17
478.7759, 12410.46
479.2581, 12431.62
479.7402, 12413.17
480.2223, 12388.68
480.7044, 12350.77
481.1865, 12314.80
481.6686, 12292.34
482.1508, 12280.80
482.6329, 12268.26
483.1150, 12243.92
483.5971, 12215.76
484.0792, 12208.57
484.5613, 12228.19
485.0435, 12235.28
485.5256, 12205.34
486.0077, 12164.35
486.4898, 12146.42
486.9719, 12154.03
487.4540, 12162.65
487.9362, 12164.71
488.4183, 12161.87
488.9004, 12151.15
489.3825, 12134.84
489.8646, 12129.31
490.3467, 12148.17
490.8289, 12182.05
491.3110, 12192.06
491.7931, 12153.10
492.2752, 12122.16
492.7573, 12111.06
493.2394, 12101.65
493.7216, 12077.20
494.2037, 12038.21
494.6858, 11998.93
495.1679, 11970.34
495.6500, 11951.05
496.1321, 11936.36
496.6143, 11929.37
497.0964, 11917.65
497.5785, 11891.42
498.0606, 11860.46
498.5427, 11838.21
499.0248, 11827.92
499.5070, 11813.45
499.9891, 11777.80
500.4712, 11737.75
500.9533, 11719.02
501.4355, 11723.20
501.9176, 11735.23
502.3997, 11746.92
502.8818, 11756.23
503.3639, 11751.02
503.8460, 11706.87
504.3282, 11679.34
504.8103, 11682.91
505.2924, 11698.43
505.7745, 11713.10
506.2566, 11723.28
506.7387, 11727.40
507.2209, 11722.75
507.7030, 11710.91
508.1851, 11699.09
508.6672, 11686.38
509.1493, 11676.18
509.6314, 11664.85
510.1136, 11659.90
510.5957, 11675.78
511.0778, 11720.11
511.5599, 11753.14
512.0420, 11750.28
512.5241, 11728.75
513.0062, 11708.55
513.4883, 11692.39
513.9705, 11679.19
514.4526, 11668.27
514.9347, 11659.78
515.4168, 11654.90
515.8989, 11651.75
516.3810, 11655.24
516.8632, 11677.19
517.3453, 11697.60
517.8274, 11696.43
518.3095, 11675.08
518.7916, 11653.69
519.2737, 11649.73
519.7559, 11657.83
520.2380, 11659.65
520.7201, 11653.68
521.2022, 11648.96
521.6843, 11653.39
522.1664, 11657.80
522.6486, 11644.25
523.1307, 11605.94
523.6128, 11585.07
524.0949, 11608.40
524.5770, 11646.67
525.0591, 11674.00
525.5413, 11688.44
526.0234, 11696.54
526.5055, 11703.18
526.9876, 11704.24
527.4697, 11683.13
527.9518, 11609.66
528.4340, 11571.46
528.9161, 11592.41
529.3982, 11630.29
529.8803, 11669.27
530.3624, 11702.63
530.8445, 11716.79
531.3267, 11689.53
531.8088, 11651.40
532.2909, 11665.73
532.7730, 11731.55
533.2551, 11781.51
533.7372, 11788.09
534.2194, 11776.79
534.7015, 11784.30
535.1836, 11813.12
535.6657, 11837.69
536.1478, 11854.90
536.6299, 11867.37
537.1121, 11874.45
537.5942, 11878.02
538.0763, 11880.19
538.5584, 11881.77
539.0405, 11886.60
539.5226, 11903.76
540.0048, 11937.54
540.4869, 11964.99
540.9690, 11986.76
541.4511, 11999.51
541.9332, 11997.98
542.4153, 11987.30
542.8975, 11978.82
543.3796, 11978.33
543.8617, 11977.57
544.3438, 11961.75
544.8259, 11940.13
545.3080, 11941.68
545.7902, 11974.25
546.2723, 12016.83
546.7544, 12050.82
547.2365, 12076.61
547.7186, 12087.75
548.2007, 12080.66
548.6829, 12064.92
549.1650, 12034.23
549.6471, 12000.35
550.1292, 11978.07
550.6113, 11969.74
551.0934, 11962.49
551.5756, 11942.77
552.0577, 11912.56
552.5398, 11881.09
553.0219, 11845.74
553.5040, 11819.68
553.9861, 11813.71
554.4683, 11819.29
554.9504, 11818.98
555.4325, 11810.95
555.9146, 11802.76
556.3967, 11802.74
556.8788, 11799.65
557.3610, 11779.60
557.8431, 11744.80
558.3252, 11707.47
558.8073, 11674.45
559.2894, 11647.34
559.7715, 11633.64
560.2537, 11644.64
560.7358, 11641.12
561.2179, 11595.72
561.7000, 11553.97
562.1821, 11549.14
562.6642, 11571.04
563.1464, 11580.26
563.6285, 11549.72
564.1106, 11509.56
564.5927, 11496.09
565.0748, 11501.91
565.5569, 11498.21
566.0391, 11476.02
566.5212, 11444.54
567.0033, 11412.76
567.4854, 11379.08
567.9675, 11357.37
568.4496, 11366.91
568.9318, 11364.48
569.4139, 11326.28
569.8960, 11274.20
570.3781, 11232.18
570.8602, 11207.79
571.3423, 11200.21
571.8245, 11222.21
572.3066, 11263.53
572.7887, 11265.59
573.2708, 11215.54
573.7529, 11178.74
574.2350, 11201.13
574.7172, 11252.49
575.1993, 11262.19
575.6814, 11211.71
576.1635, 11172.83
576.6456, 11167.19
577.1277, 11175.09
577.6099, 11181.90
578.0920, 11187.00
578.5741, 11196.72
579.0562, 11215.71
579.5383, 11236.56
580.0204, 11240.86
580.5026, 11225.09
580.9847, 11207.63
581.4668, 11187.17
581.9489, 11169.65
582.4310, 11157.41
582.9132, 11150.69
583.3953, 11150.94
583.8774, 11163.33
584.3596, 11176.51
584.8417, 11188.33
585.3238, 11194.24
585.8059, 11178.69
586.2880, 11140.08
586.7701, 11106.38
587.2523, 11107.06
587.7344, 11139.92
588.2165, 11161.78
588.6986, 11179.41
589.1807, 11174.51
589.6628, 11118.40
590.1450, 11058.10
590.6271, 11039.71
591.1092, 11064.48
591.5913, 11087.98
592.0734, 11078.61
592.5555, 11054.26
593.0377, 11041.85
593.5198, 11039.97
594.0019, 11034.85
594.4840, 11020.12
594.9661, 11002.82
595.4482, 10992.09
595.9304, 10983.39
596.4125, 10999.50
596.8946, 11079.91
597.3767, 11138.75
597.8588, 11130.75
598.3409, 11085.74
598.8231, 11044.00
599.3052, 11018.50
599.7873, 11005.79
600.2694, 11006.02
600.7515, 11016.47
601.2336, 11026.61
601.7158, 11035.68
602.1979, 11046.74
602.6800, 11065.96
603.1621, 11085.60
603.6442, 11083.35
604.1263, 11049.90
604.6085, 11017.22
605.0906, 10979.85
605.5727, 10951.91
606.0548, 10949.74
606.5369, 10964.83
607.0190, 10974.28
607.5012, 10965.52
607.9833, 10950.79
608.4654, 10953.24
608.9475, 10972.49
609.4296, 10980.62
609.9117, 10972.09
610.3939, 10955.79
610.8760, 10932.29
611.3581, 10905.82
611.8402, 10893.18
612.3223, 10914.15
612.8044, 10920.81
613.2866, 10880.19
613.7687, 10831.22
614.2508, 10818.41
614.7329, 10839.91
615.2150, 10861.62
615.6971, 10859.53
616.1793, 10841.26
616.6614, 10827.08
617.1435, 10817.73
617.6256, 10809.55
618.1077, 10806.15
618.5898, 10798.30
619.0720, 10768.80
619.5541, 10725.21
620.0362, 10703.08
620.5183, 10720.89
621.0004, 10746.99
621.4825, 10770.93
621.9647, 10791.72
622.4468, 10809.58
622.9289, 10823.71
623.4110, 10829.87
623.8931, 10823.24
624.3752, 10806.11
624.8574, 10788.86
625.3395, 10767.96
625.8216, 10758.78
626.3037, 10777.45
626.7858, 10798.24
627.2679, 10795.76
627.7501, 10772.29
628.2322, 10751.10
628.7143, 10739.08
629.1964, 10730.31
629.6785, 10716.22
630.1606, 10703.99
630.6428, 10713.27
631.1249, 10746.31
631.6070, 10774.18
632.0891, 10762.93
632.5712, 10716.90
633.0533, 10688.66
633.5355, 10684.43
634.0176, 10682.96
634.4997, 10675.65
634.9818, 10670.21
635.4639, 10677.57
635.9460, 10697.17
636.4282, 10707.51
636.9103, 10695.04
637.3924, 10676.82
637.8745, 10664.20
638.3566, 10655.85
638.8387, 10647.45
639.3209, 10637.80
639.8030, 10630.51
