##NAMES=Karchevskyite
##RRUFFID=R070103
##IDEAL CHEMISTRY=Mg_18_Al_9_(OH)_54_Sr_2_(CO_3_)_9_(H_2_O)_6_(H_3_O)_5_
##LOCALITY=Zheleznyi mine, Kovdor Massif, Kola Peninsula, Russia
##OWNER=RRUFF
##SOURCE=Michael Scott
##DESCRIPTION=Colorless hexagonal plates, co-type material, associated with phlogopite, dolomite, pyrite, and magnetite. We only observed the subcell.
##STATUS=The identification of this mineral has been confirmed only by single crystal X-ray diffraction.
##URL=rruff.info/R070103
127.5224, 1020.876
128.0046, 1071.844
128.4867, 1124.415
128.9688, 1178.525
129.4509, 1235.574
129.9330, 1296.677
130.4151, 1356.362
130.8973, 1406.571
131.3794, 1447.947
131.8615, 1483.949
132.3436, 1511.692
132.8257, 1533.183
133.3078, 1566.486
133.7900, 1616.172
134.2721, 1676.018
134.7542, 1730.661
135.2363, 1778.890
135.7184, 1825.521
136.2005, 1871.654
136.6827, 1916.836
137.1648, 1969.779
137.6469, 2037.893
138.1290, 2119.715
138.6111, 2180.936
139.0932, 2218.008
139.5753, 2240.707
140.0575, 2259.717
140.5396, 2272.313
141.0217, 2288.621
141.5038, 2311.837
141.9859, 2341.672
142.4680, 2378.531
142.9502, 2421.128
143.4323, 2471.060
143.9144, 2532.828
144.3965, 2615.011
144.8786, 2697.806
145.3607, 2770.903
145.8429, 2822.414
146.3250, 2882.942
146.8071, 2959.408
147.2892, 3051.615
147.7713, 3131.088
148.2534, 3185.477
148.7356, 3234.502
149.2177, 3294.183
149.6998, 3387.490
150.1819, 3468.863
150.6640, 3528.584
151.1461, 3561.717
151.6283, 3594.657
152.1104, 3631.621
152.5925, 3668.189
153.0746, 3697.202
153.5567, 3717.963
154.0388, 3731.059
154.5210, 3738.221
155.0031, 3748.526
155.4852, 3737.534
155.9673, 3684.707
156.4494, 3604.130
156.9315, 3539.696
157.4137, 3514.053
157.8958, 3500.380
158.3779, 3482.338
158.8600, 3454.384
159.3421, 3423.573
159.8242, 3390.553
160.3064, 3355.850
160.7885, 3321.116
161.2706, 3286.313
161.7527, 3252.040
162.2348, 3218.918
162.7169, 3188.601
163.1991, 3158.397
163.6812, 3125.312
164.1633, 3087.729
164.6454, 3055.022
165.1275, 3033.812
165.6096, 3020.382
166.0918, 3008.154
166.5739, 2998.583
167.0560, 2986.598
167.5381, 2966.709
168.0202, 2933.710
168.5023, 2901.443
168.9845, 2878.349
169.4666, 2863.618
169.9487, 2855.006
170.4308, 2863.188
170.9129, 2873.155
171.3950, 2865.797
171.8772, 2825.650
172.3593, 2775.771
172.8414, 2734.254
173.3235, 2701.036
173.8056, 2678.444
174.2877, 2680.334
174.7699, 2693.872
175.2520, 2695.275
175.7341, 2664.170
176.2162, 2619.556
176.6983, 2585.801
177.1804, 2563.257
177.6626, 2549.713
178.1447, 2549.972
178.6268, 2559.246
179.1089, 2561.373
179.5910, 2542.038
180.0731, 2510.470
180.5553, 2485.252
181.0374, 2468.472
181.5195, 2456.917
182.0016, 2448.903
182.4837, 2443.725
182.9658, 2435.194
183.4479, 2415.496
183.9301, 2388.365
184.4122, 2367.198
184.8943, 2355.766
185.3764, 2349.844
185.8585, 2342.966
186.3406, 2335.276
186.8228, 2322.555
187.3049, 2296.612
187.7870, 2260.217
188.2691, 2230.089
188.7512, 2214.444
189.2333, 2208.200
189.7155, 2192.826
190.1976, 2166.846
190.6797, 2140.295
191.1618, 2126.895
191.6439, 2126.203
192.1260, 2124.939
192.6082, 2116.857
193.0903, 2102.882
193.5724, 2092.315
194.0545, 2085.409
194.5366, 2080.873
195.0187, 2078.956
195.5009, 2080.298
195.9830, 2076.237
196.4651, 2057.571
196.9472, 2024.085
197.4293, 2003.112
197.9114, 1998.996
198.3936, 2004.726
198.8757, 2004.467
199.3578, 1997.403
199.8399, 1988.058
200.3220, 1978.313
200.8041, 1967.862
201.2863, 1960.623
201.7684, 1958.522
202.2505, 1959.694
202.7326, 1955.786
203.2147, 1945.033
203.6968, 1934.236
204.1790, 1930.924
204.6611, 1937.414
205.1432, 1938.351
205.6253, 1927.838
206.1074, 1907.416
206.5895, 1897.294
207.0716, 1900.875
207.5538, 1908.593
208.0359, 1909.211
208.5180, 1900.575
209.0001, 1892.361
209.4822, 1888.134
209.9643, 1888.432
210.4465, 1884.820
210.9286, 1876.222
211.4107, 1864.920
211.8928, 1854.186
212.3749, 1844.033
212.8570, 1834.688
213.3392, 1825.786
213.8213, 1816.693
214.3034, 1811.723
214.7855, 1813.563
215.2676, 1817.974
215.7497, 1814.245
216.2319, 1798.395
216.7140, 1782.534
217.1961, 1772.015
217.6782, 1767.089
218.1603, 1767.880
218.6424, 1777.282
219.1246, 1792.026
219.6067, 1801.108
220.0888, 1805.236
220.5709, 1802.554
221.0530, 1789.116
221.5351, 1755.576
222.0173, 1735.243
222.4994, 1736.567
222.9815, 1755.913
223.4636, 1763.916
223.9457, 1756.055
224.4278, 1742.766
224.9100, 1731.723
225.3921, 1723.221
225.8742, 1716.569
226.3563, 1712.030
226.8384, 1709.573
227.3205, 1707.417
227.8026, 1706.381
228.2848, 1704.807
228.7669, 1700.555
229.2490, 1690.843
229.7311, 1683.603
230.2132, 1681.248
230.6953, 1684.430
231.1775, 1686.807
231.6596, 1689.724
232.1417, 1690.788
232.6238, 1685.907
233.1059, 1669.786
233.5880, 1656.807
234.0702, 1651.718
234.5523, 1656.641
235.0344, 1660.815
235.5165, 1665.260
235.9986, 1668.380
236.4807, 1667.073
236.9629, 1658.781
237.4450, 1650.053
237.9271, 1644.048
238.4092, 1644.294
238.8913, 1636.615
239.3734, 1614.744
239.8556, 1586.901
240.3377, 1572.922
240.8198, 1580.591
241.3019, 1590.831
241.7840, 1595.955
242.2661, 1595.473
242.7483, 1590.304
243.2304, 1576.811
243.7125, 1558.987
244.1946, 1550.691
244.6767, 1558.165
245.1588, 1566.593
245.6410, 1567.162
246.1231, 1553.161
246.6052, 1546.571
247.0873, 1553.164
247.5694, 1568.969
248.0515, 1573.191
248.5337, 1561.515
249.0158, 1544.174
249.4979, 1525.898
249.9800, 1500.917
250.4621, 1488.116
250.9442, 1494.225
251.4263, 1516.061
251.9085, 1528.118
252.3906, 1528.167
252.8727, 1521.246
253.3548, 1509.656
253.8369, 1488.214
254.3190, 1473.609
254.8012, 1468.412
255.2833, 1472.387
255.7654, 1483.479
256.2475, 1510.014
256.7296, 1533.165
257.2118, 1533.399
257.6939, 1497.554
258.1760, 1469.856
258.6581, 1460.989
259.1402, 1470.631
259.6223, 1473.637
260.1045, 1466.037
260.5866, 1456.988
261.0687, 1457.352
261.5508, 1472.786
262.0329, 1482.481
262.5150, 1479.079
262.9971, 1462.146
263.4792, 1453.623
263.9614, 1456.874
264.4435, 1464.182
264.9256, 1466.522
265.4077, 1462.447
265.8898, 1457.648
266.3719, 1453.897
266.8541, 1451.323
267.3362, 1446.278
267.8183, 1437.019
268.3004, 1427.800
268.7825, 1425.334
269.2646, 1431.808
269.7468, 1437.586
270.2289, 1440.796
270.7110, 1441.672
271.1931, 1433.214
271.6752, 1410.152
272.1573, 1385.889
272.6395, 1382.779
273.1216, 1406.380
273.6037, 1427.316
274.0858, 1432.761
274.5679, 1421.827
275.0500, 1417.969
275.5322, 1423.300
276.0143, 1432.118
276.4964, 1435.469
276.9785, 1432.613
277.4606, 1428.865
277.9427, 1425.390
278.4249, 1422.111
278.9070, 1423.877
279.3891, 1432.824
279.8712, 1442.655
280.3533, 1440.182
280.8354, 1423.838
281.3176, 1412.436
281.7997, 1417.334
282.2818, 1437.719
282.7639, 1453.983
283.2460, 1465.974
283.7281, 1473.621
284.2103, 1475.991
284.6924, 1473.009
285.1745, 1467.932
285.6566, 1459.375
286.1387, 1448.617
286.6208, 1447.043
287.1030, 1456.809
287.5851, 1471.439
288.0672, 1480.636
288.5493, 1484.654
289.0314, 1489.698
289.5135, 1502.493
289.9957, 1519.960
290.4778, 1526.310
290.9599, 1517.919
291.4420, 1505.883
291.9241, 1508.436
292.4063, 1523.819
292.8884, 1537.812
293.3705, 1538.734
293.8526, 1532.029
294.3347, 1534.542
294.8168, 1549.291
295.2990, 1568.105
295.7811, 1581.063
296.2632, 1589.093
296.7453, 1596.719
297.2274, 1606.063
297.7095, 1616.919
298.1917, 1629.222
298.6738, 1643.352
299.1559, 1657.288
299.6380, 1669.563
300.1201, 1679.888
300.6022, 1686.783
301.0844, 1685.077
301.5665, 1680.845
302.0486, 1683.754
302.5307, 1695.703
303.0128, 1710.999
303.4949, 1727.658
303.9771, 1743.815
304.4592, 1753.965
304.9413, 1750.907
305.4234, 1742.325
305.9055, 1737.648
306.3876, 1739.029
306.8697, 1739.384
307.3518, 1730.661
307.8340, 1716.572
308.3161, 1705.291
308.7982, 1703.711
309.2803, 1704.918
309.7624, 1702.785
310.2445, 1696.002
310.7267, 1688.569
311.2088, 1684.119
311.6909, 1680.627
312.1730, 1674.533
312.6551, 1658.751
313.1372, 1643.667
313.6194, 1636.916
314.1015, 1641.105
314.5836, 1645.947
315.0657, 1647.671
315.5478, 1646.714
316.0299, 1643.726
316.5121, 1636.210
316.9942, 1628.823
317.4763, 1623.595
317.9584, 1620.692
318.4405, 1620.114
318.9226, 1625.572
319.4048, 1632.438
319.8869, 1634.557
320.3690, 1624.666
320.8511, 1614.800
321.3332, 1608.847
321.8153, 1607.257
322.2975, 1608.816
322.7796, 1619.115
323.2617, 1630.544
323.7438, 1634.247
324.2259, 1619.038
324.7080, 1605.628
325.1902, 1599.955
325.6723, 1603.912
326.1544, 1606.824
326.6365, 1607.709
327.1186, 1607.475
327.6007, 1607.096
328.0829, 1606.382
328.5650, 1605.700
329.0471, 1603.846
329.5292, 1600.029
330.0113, 1602.590
330.4934, 1617.220
330.9756, 1634.098
331.4577, 1643.609
331.9398, 1640.061
332.4219, 1638.844
332.9040, 1645.424
333.3861, 1659.865
333.8683, 1661.068
334.3504, 1638.714
334.8325, 1615.772
335.3146, 1617.178
335.7967, 1656.085
336.2788, 1680.440
336.7610, 1676.138
337.2431, 1647.578
337.7252, 1631.824
338.2073, 1631.422
338.6894, 1638.348
339.1715, 1647.572
339.6537, 1659.711
340.1358, 1669.413
340.6179, 1675.840
341.1000, 1679.117
341.5821, 1678.722
342.0642, 1674.094
342.5464, 1668.758
343.0285, 1665.806
343.5106, 1665.098
343.9927, 1662.679
344.4748, 1657.244
344.9569, 1650.605
345.4391, 1645.749
345.9212, 1642.717
346.4033, 1642.915
346.8854, 1651.239
347.3675, 1664.276
347.8496, 1668.827
348.3318, 1660.101
348.8139, 1648.315
349.2960, 1648.466
349.7781, 1659.255
350.2602, 1672.647
350.7423, 1687.310
351.2244, 1700.528
351.7065, 1705.733
352.1887, 1699.800
352.6708, 1693.730
353.1529, 1700.859
353.6350, 1717.173
354.1171, 1731.359
354.5992, 1736.128
355.0814, 1736.433
355.5635, 1736.961
356.0456, 1738.134
356.5277, 1739.708
357.0098, 1739.494
357.4919, 1739.773
357.9741, 1744.458
358.4562, 1761.855
358.9383, 1779.259
359.4204, 1786.797
359.9025, 1782.542
360.3846, 1781.962
360.8668, 1796.383
361.3489, 1816.611
361.8310, 1832.068
362.3131, 1830.788
362.7952, 1832.406
363.2773, 1847.379
363.7595, 1876.466
364.2416, 1898.948
364.7237, 1909.913
365.2058, 1912.659
365.6879, 1909.866
366.1700, 1898.196
366.6522, 1885.024
367.1343, 1871.796
367.6164, 1858.383
368.0985, 1842.795
368.5806, 1820.070
369.0627, 1798.914
369.5449, 1784.400
370.0270, 1781.713
370.5091, 1777.733
370.9912, 1771.601
371.4733, 1763.610
371.9554, 1754.302
372.4376, 1741.258
372.9197, 1730.477
373.4018, 1725.346
373.8839, 1727.471
374.3660, 1730.775
374.8481, 1736.715
375.3303, 1742.551
375.8124, 1740.376
376.2945, 1727.452
376.7766, 1716.845
377.2587, 1715.761
377.7408, 1724.560
378.2230, 1731.804
378.7051, 1737.009
379.1872, 1741.409
379.6693, 1747.333
380.1514, 1754.699
380.6335, 1760.933
381.1157, 1763.583
381.5978, 1764.065
382.0799, 1766.777
382.5620, 1771.438
383.0441, 1780.440
383.5262, 1801.357
384.0084, 1829.741
384.4905, 1850.150
384.9726, 1854.287
385.4547, 1849.455
385.9368, 1844.118
386.4189, 1838.422
386.9011, 1835.964
387.3832, 1839.407
387.8653, 1847.729
388.3474, 1859.847
388.8295, 1878.500
389.3116, 1896.970
389.7938, 1911.599
390.2759, 1922.185
390.7580, 1928.276
391.2401, 1922.585
391.7222, 1916.306
392.2043, 1918.512
392.6865, 1933.974
393.1686, 1952.190
393.6507, 1973.082
394.1328, 1993.737
394.6149, 2008.310
395.0970, 2003.793
395.5792, 2001.743
396.0613, 2014.024
396.5434, 2049.757
397.0255, 2075.208
397.5076, 2080.125
397.9897, 2074.338
398.4718, 2071.023
398.9539, 2072.016
399.4361, 2074.104
399.9182, 2079.131
400.4003, 2088.558
400.8824, 2085.968
401.3645, 2064.341
401.8466, 2037.319
402.3288, 2018.231
402.8109, 2012.417
403.2930, 2001.411
403.7751, 1981.220
404.2572, 1953.205
404.7393, 1925.717
405.2215, 1898.391
405.7036, 1872.180
406.1857, 1848.025
406.6678, 1826.023
407.1499, 1803.608
407.6320, 1779.878
408.1142, 1757.203
408.5963, 1740.808
409.0784, 1730.649
409.5605, 1724.621
410.0426, 1727.575
410.5247, 1734.279
411.0069, 1722.802
411.4890, 1688.320
411.9711, 1653.185
412.4532, 1647.990
412.9353, 1664.150
413.4174, 1676.258
413.8996, 1669.677
414.3817, 1654.516
414.8638, 1641.595
415.3459, 1631.176
415.8280, 1622.601
416.3102, 1613.083
416.7923, 1605.938
417.2744, 1605.357
417.7565, 1624.400
418.2386, 1639.055
418.7207, 1630.830
419.2029, 1604.771
419.6850, 1585.846
420.1671, 1587.182
420.6492, 1596.023
421.1313, 1604.936
421.6134, 1616.174
422.0956, 1621.607
422.5777, 1617.080
423.0598, 1605.865
423.5419, 1595.297
424.0240, 1579.924
424.5061, 1571.168
424.9883, 1574.002
425.4704, 1592.782
425.9525, 1607.239
426.4346, 1616.538
426.9167, 1622.273
427.3988, 1625.894
427.8810, 1626.249
428.3631, 1627.603
428.8452, 1632.318
429.3273, 1639.528
429.8094, 1638.890
430.2915, 1627.870
430.7737, 1616.167
431.2558, 1612.408
431.7379, 1616.565
432.2200, 1621.580
432.7021, 1626.880
433.1842, 1631.781
433.6664, 1633.465
434.1485, 1632.207
434.6306, 1633.662
435.1127, 1644.443
435.5948, 1660.163
436.0769, 1671.282
436.5591, 1677.052
437.0412, 1677.889
437.5233, 1670.750
438.0054, 1658.926
438.4875, 1649.694
438.9696, 1645.419
439.4518, 1645.799
439.9339, 1653.443
440.4160, 1667.976
440.8981, 1679.283
441.3802, 1677.043
441.8623, 1671.120
442.3444, 1670.998
442.8265, 1689.696
443.3087, 1702.817
443.7908, 1695.703
444.2729, 1675.289
444.7550, 1667.785
445.2371, 1693.664
445.7192, 1721.254
446.2014, 1736.178
446.6835, 1730.521
447.1656, 1726.668
447.6477, 1725.612
448.1298, 1725.922
448.6119, 1725.675
449.0941, 1725.784
449.5762, 1723.315
450.0583, 1714.623
450.5404, 1699.582
451.0225, 1700.548
451.5046, 1723.681
451.9868, 1748.479
452.4689, 1750.764
452.9510, 1728.727
453.4331, 1722.346
453.9152, 1743.899
454.3973, 1779.395
454.8795, 1793.165
455.3616, 1785.954
455.8437, 1779.327
456.3258, 1790.527
456.8079, 1812.001
457.2900, 1826.158
457.7722, 1830.736
458.2543, 1830.447
458.7364, 1824.772
459.2185, 1817.831
459.7006, 1818.345
460.1827, 1840.316
460.6649, 1863.854
461.1470, 1871.794
461.6291, 1864.723
462.1112, 1857.173
462.5933, 1855.671
463.0754, 1857.228
463.5576, 1859.526
464.0397, 1864.957
464.5218, 1867.337
465.0039, 1860.591
465.4860, 1849.150
465.9681, 1845.881
466.4503, 1860.240
466.9324, 1875.933
467.4145, 1886.644
467.8966, 1888.997
468.3787, 1899.074
468.8608, 1924.761
469.3430, 1951.495
469.8251, 1959.721
470.3072, 1941.698
470.7893, 1928.235
471.2714, 1926.397
471.7535, 1934.651
472.2357, 1946.776
472.7178, 1963.838
473.1999, 1979.137
473.6820, 1987.598
474.1641, 1989.725
474.6462, 1988.223
475.1284, 1982.300
475.6105, 1975.947
476.0926, 1975.203
476.5747, 1979.028
477.0568, 1983.383
477.5389, 1988.542
478.0211, 1991.999
478.5032, 1990.592
478.9853, 1984.230
479.4674, 1974.406
479.9495, 1957.905
480.4316, 1940.102
480.9138, 1926.906
481.3959, 1920.218
481.8780, 1918.507
482.3601, 1925.982
482.8422, 1938.923
483.3243, 1945.127
483.8065, 1934.080
484.2886, 1921.992
484.7707, 1915.755
485.2528, 1917.703
485.7349, 1920.783
486.2170, 1923.929
486.6991, 1928.809
487.1812, 1938.239
487.6634, 1956.122
488.1455, 1970.397
488.6276, 1979.239
489.1097, 1982.644
489.5918, 1979.485
490.0739, 1968.381
490.5561, 1955.607
491.0382, 1944.173
491.5203, 1934.234
492.0024, 1930.047
492.4845, 1933.163
492.9666, 1938.886
493.4488, 1941.757
493.9309, 1941.688
494.4130, 1938.452
494.8951, 1928.289
495.3772, 1916.636
495.8593, 1911.239
496.3415, 1911.935
496.8236, 1913.709
497.3057, 1912.442
497.7878, 1910.800
498.2699, 1912.122
498.7520, 1922.157
499.2342, 1927.887
499.7163, 1919.199
500.1984, 1902.343
500.6805, 1892.209
501.1626, 1898.539
501.6447, 1906.689
502.1269, 1911.519
502.6090, 1912.001
503.0911, 1912.544
503.5732, 1913.848
504.0553, 1914.627
504.5374, 1912.632
505.0196, 1904.121
505.5017, 1903.855
505.9838, 1918.841
506.4659, 1941.272
506.9480, 1944.580
507.4301, 1926.328
507.9123, 1905.031
508.3944, 1888.009
508.8765, 1875.887
509.3586, 1873.177
509.8407, 1880.914
510.3228, 1892.901
510.8050, 1905.032
511.2871, 1916.044
511.7692, 1922.225
512.2513, 1918.113
512.7334, 1912.892
513.2155, 1916.959
513.6976, 1928.352
514.1797, 1938.102
514.6619, 1939.867
515.1440, 1939.507
515.6261, 1941.949
516.1082, 1950.065
516.5903, 1953.958
517.0724, 1945.716
517.5546, 1933.534
518.0367, 1927.740
518.5188, 1930.829
519.0009, 1939.332
519.4830, 1955.881
519.9651, 1978.998
520.4473, 1994.777
520.9294, 2001.384
521.4115, 2003.803
521.8936, 2003.210
522.3757, 1998.524
522.8578, 1999.720
523.3400, 2008.031
523.8221, 2020.429
524.3042, 2033.840
524.7863, 2048.010
525.2684, 2059.269
525.7505, 2062.443
526.2327, 2064.200
526.7148, 2080.444
527.1969, 2109.268
527.6790, 2134.618
528.1611, 2142.666
528.6432, 2142.134
529.1254, 2140.752
529.6075, 2136.339
530.0896, 2142.693
530.5717, 2176.602
531.0538, 2223.609
531.5359, 2263.046
532.0181, 2283.364
532.5002, 2300.561
532.9823, 2317.684
533.4644, 2335.161
533.9465, 2354.538
534.4286, 2371.854
534.9108, 2395.308
535.3929, 2431.600
535.8750, 2489.531
536.3571, 2533.644
536.8392, 2557.885
537.3214, 2575.931
537.8035, 2609.723
538.2856, 2659.724
538.7677, 2714.666
539.2498, 2772.719
539.7319, 2832.961
540.2141, 2893.636
540.6962, 2955.206
541.1783, 3016.764
541.6604, 3071.571
542.1425, 3127.093
542.6246, 3197.194
543.1068, 3285.701
543.5889, 3379.163
544.0710, 3459.618
544.5531, 3540.002
545.0352, 3640.686
545.5173, 3790.638
545.9995, 3940.190
546.4816, 4064.325
546.9637, 4167.618
547.4458, 4288.489
547.9279, 4449.915
548.4100, 4615.782
548.8922, 4767.917
549.3743, 4898.291
549.8564, 5038.350
550.3385, 5191.534
550.8206, 5351.796
551.3027, 5514.104
551.7849, 5680.404
552.2670, 5835.728
552.7491, 5971.291
553.2312, 6097.434
553.7133, 6248.997
554.1954, 6424.523
554.6776, 6594.060
555.1597, 6744.651
555.6418, 6876.231
556.1239, 6991.080
556.6060, 7090.263
557.0881, 7163.342
557.5703, 7206.625
558.0524, 7216.634
558.5345, 7188.225
559.0166, 7122.614
559.4987, 7015.441
559.9808, 6862.534
560.4630, 6665.534
560.9451, 6432.570
561.4272, 6138.322
561.9093, 5833.191
562.3914, 5530.778
562.8735, 5225.239
563.3557, 4954.176
563.8378, 4731.205
564.3199, 4525.131
564.8020, 4301.715
565.2841, 4051.692
565.7662, 3830.400
566.2484, 3641.915
566.7305, 3482.799
567.2126, 3348.561
567.6947, 3237.341
568.1768, 3134.105
568.6589, 3029.157
569.1411, 2928.003
569.6232, 2835.060
570.1053, 2751.120
570.5874, 2675.568
571.0695, 2610.256
571.5516, 2552.848
572.0338, 2502.792
572.5159, 2461.596
572.9980, 2422.233
573.4801, 2382.454
573.9622, 2342.887
574.4443, 2305.503
574.9265, 2266.619
575.4086, 2234.083
575.8907, 2210.635
576.3728, 2195.214
576.8549, 2181.175
577.3370, 2170.899
577.8192, 2157.571
578.3013, 2135.162
578.7834, 2102.738
579.2655, 2078.898
579.7476, 2064.641
580.2297, 2055.375
580.7119, 2045.500
581.1940, 2035.813
581.6761, 2029.986
582.1582, 2030.822
582.6403, 2033.196
583.1224, 2032.875
583.6046, 2029.412
584.0867, 2021.486
584.5688, 2004.334
585.0509, 1985.573
585.5330, 1968.169
586.0151, 1952.121
586.4973, 1942.900
586.9794, 1947.283
587.4615, 1955.633
587.9436, 1961.134
588.4257, 1963.185
588.9078, 1962.918
589.3900, 1959.439
589.8721, 1954.283
590.3542, 1949.801
590.8363, 1945.868
591.3184, 1943.335
591.8005, 1943.264
592.2827, 1944.502
592.7648, 1942.896
593.2469, 1938.455
593.7290, 1932.562
594.2111, 1923.887
594.6932, 1915.003
595.1754, 1910.719
595.6575, 1911.731
596.1396, 1915.079
596.6217, 1922.576
597.1038, 1929.580
597.5859, 1930.412
598.0680, 1913.583
598.5501, 1901.898
599.0322, 1906.614
599.5143, 1921.554
599.9965, 1929.165
600.4786, 1921.629
600.9607, 1914.640
601.4428, 1912.885
601.9249, 1916.336
602.4070, 1918.060
602.8892, 1918.910
603.3713, 1915.810
603.8534, 1903.701
604.3355, 1883.506
604.8176, 1870.017
605.2997, 1865.552
605.7819, 1863.431
606.2640, 1852.621
606.7461, 1837.465
607.2282, 1829.050
607.7103, 1835.148
608.1924, 1845.679
608.6746, 1855.163
609.1567, 1862.742
609.6388, 1865.141
610.1209, 1852.988
610.6030, 1842.304
611.0851, 1841.883
611.5673, 1854.193
612.0494, 1865.151
612.5315, 1879.000
613.0136, 1886.741
613.4957, 1879.126
613.9778, 1847.181
614.4600, 1832.104
614.9421, 1841.570
615.4242, 1859.889
615.9063, 1858.280
616.3884, 1838.263
616.8705, 1825.701
617.3527, 1834.421
617.8348, 1850.285
618.3169, 1849.270
618.7990, 1833.697
619.2811, 1814.895
619.7632, 1790.909
620.2454, 1772.211
620.7275, 1771.574
621.2096, 1791.921
621.6917, 1805.541
