##NAMES=Karchevskyite
##RRUFFID=R070103
##IDEAL CHEMISTRY=Mg_18_Al_9_(OH)_54_Sr_2_(CO_3_)_9_(H_2_O)_6_(H_3_O)_5_
##LOCALITY=Zheleznyi mine, Kovdor Massif, Kola Peninsula, Russia
##OWNER=RRUFF
##SOURCE=Michael Scott
##DESCRIPTION=Colorless hexagonal plates, co-type material, associated with phlogopite, dolomite, pyrite, and magnetite. We only observed the subcell.
##STATUS=The identification of this mineral has been confirmed only by single crystal X-ray diffraction.
##URL=rruff.info/R070103
142.0408, 1741.785
142.5229, 1771.771
143.0050, 1825.739
143.4871, 1901.862
143.9693, 1977.131
144.4514, 2049.406
144.9335, 2123.038
145.4156, 2203.397
145.8977, 2286.295
146.3798, 2362.738
146.8620, 2425.441
147.3441, 2474.883
147.8262, 2533.534
148.3083, 2613.136
148.7904, 2688.551
149.2725, 2746.049
149.7547, 2790.637
150.2368, 2840.005
150.7189, 2910.046
151.2010, 3000.317
151.6831, 3059.054
152.1652, 3068.544
152.6474, 3069.028
153.1295, 3078.847
153.6116, 3096.775
154.0937, 3113.546
154.5758, 3123.996
155.0579, 3126.917
155.5401, 3112.816
156.0222, 3070.069
156.5043, 3022.072
156.9864, 2979.248
157.4685, 2942.740
157.9506, 2913.247
158.4328, 2891.999
158.9149, 2879.637
159.3970, 2869.839
159.8791, 2865.147
160.3612, 2861.061
160.8433, 2853.483
161.3255, 2842.592
161.8076, 2832.922
162.2897, 2828.222
162.7718, 2828.419
163.2539, 2828.570
163.7360, 2828.795
164.2182, 2828.759
164.7003, 2827.152
165.1824, 2823.987
165.6645, 2823.342
166.1466, 2832.790
166.6287, 2848.395
167.1109, 2850.011
167.5930, 2818.036
168.0751, 2781.803
168.5572, 2774.412
169.0393, 2798.610
169.5214, 2823.125
170.0036, 2825.726
170.4857, 2809.801
170.9678, 2787.181
171.4499, 2750.380
171.9320, 2712.582
172.4141, 2691.573
172.8963, 2689.842
173.3784, 2686.917
173.8605, 2664.245
174.3426, 2629.587
174.8247, 2600.864
175.3068, 2587.848
175.7890, 2579.520
176.2711, 2559.961
176.7532, 2526.920
177.2353, 2495.943
177.7174, 2480.372
178.1995, 2473.751
178.6817, 2465.043
179.1638, 2449.988
179.6459, 2432.315
180.1280, 2417.214
180.6101, 2405.252
181.0923, 2393.188
181.5744, 2378.576
182.0565, 2362.668
182.5386, 2347.169
183.0207, 2332.164
183.5028, 2318.063
183.9850, 2306.131
184.4671, 2297.003
184.9492, 2287.302
185.4313, 2274.628
185.9134, 2260.391
186.3955, 2246.186
186.8777, 2233.261
187.3598, 2219.996
187.8419, 2203.191
188.3240, 2181.768
188.8061, 2161.657
189.2882, 2145.784
189.7704, 2132.978
190.2525, 2122.368
190.7346, 2114.097
191.2167, 2107.491
191.6988, 2102.556
192.1809, 2100.282
192.6631, 2095.440
193.1452, 2080.659
193.6273, 2063.865
194.1094, 2053.201
194.5915, 2051.398
195.0736, 2055.436
195.5558, 2062.998
196.0379, 2075.590
196.5200, 2084.773
197.0021, 2086.569
197.4842, 2083.448
197.9663, 2075.641
198.4485, 2061.742
198.9306, 2047.526
199.4127, 2041.278
199.8948, 2044.558
200.3769, 2047.442
200.8590, 2049.006
201.3412, 2047.292
201.8233, 2038.665
202.3054, 2021.239
202.7875, 2002.655
203.2696, 1992.717
203.7517, 1992.627
204.2339, 1992.809
204.7160, 1989.636
205.1981, 1986.284
205.6802, 1985.505
206.1623, 1987.969
206.6444, 1990.971
207.1266, 1993.104
207.6087, 1994.844
208.0908, 1990.538
208.5729, 1973.875
209.0550, 1953.735
209.5371, 1934.261
210.0193, 1916.071
210.5014, 1902.408
210.9835, 1898.448
211.4656, 1904.587
211.9477, 1908.937
212.4298, 1908.580
212.9120, 1906.422
213.3941, 1903.285
213.8762, 1899.508
214.3583, 1897.551
214.8404, 1900.380
215.3225, 1907.817
215.8047, 1914.617
216.2868, 1920.584
216.7689, 1925.150
217.2510, 1925.983
217.7331, 1924.125
218.2152, 1925.438
218.6974, 1938.748
219.1795, 1961.664
219.6616, 1972.750
220.1437, 1963.713
220.6258, 1950.408
221.1079, 1939.402
221.5901, 1931.862
222.0722, 1930.905
222.5543, 1943.839
223.0364, 1966.619
223.5185, 1979.100
224.0006, 1976.440
224.4828, 1970.247
224.9649, 1970.126
225.4470, 1972.173
225.9291, 1967.047
226.4112, 1944.314
226.8933, 1911.843
227.3755, 1890.734
227.8576, 1883.316
228.3397, 1883.296
228.8218, 1895.441
229.3039, 1911.050
229.7860, 1915.127
230.2682, 1896.498
230.7503, 1866.523
231.2324, 1845.349
231.7145, 1833.802
232.1966, 1828.730
232.6787, 1834.726
233.1609, 1844.510
233.6430, 1849.500
234.1251, 1846.716
234.6072, 1838.961
235.0893, 1827.915
235.5714, 1812.463
236.0536, 1800.974
236.5357, 1800.944
237.0178, 1804.911
237.4999, 1803.851
237.9820, 1794.035
238.4641, 1785.238
238.9463, 1791.419
239.4284, 1812.536
239.9105, 1823.168
240.3926, 1807.547
240.8747, 1782.970
241.3568, 1768.879
241.8390, 1767.413
242.3211, 1770.379
242.8032, 1773.444
243.2853, 1776.409
243.7674, 1778.054
244.2495, 1777.940
244.7317, 1776.423
245.2138, 1774.059
245.6959, 1770.872
246.1780, 1766.966
246.6601, 1762.431
247.1422, 1757.238
247.6244, 1750.972
248.1065, 1742.993
248.5886, 1735.141
249.0707, 1729.646
249.5528, 1726.112
250.0349, 1721.900
250.5171, 1714.498
250.9992, 1706.325
251.4813, 1702.002
251.9634, 1702.658
252.4455, 1703.524
252.9276, 1699.756
253.4098, 1692.573
253.8919, 1686.834
254.3740, 1683.863
254.8561, 1682.434
255.3382, 1681.134
255.8203, 1679.920
256.3025, 1679.997
256.7846, 1682.660
257.2667, 1687.365
257.7488, 1691.319
258.2309, 1693.650
258.7130, 1695.876
259.1952, 1698.659
259.6773, 1702.051
260.1594, 1706.884
260.6415, 1714.743
261.1236, 1723.390
261.6057, 1726.230
262.0879, 1719.802
262.5700, 1713.715
263.0521, 1712.967
263.5342, 1715.244
264.0163, 1715.060
264.4984, 1709.916
264.9806, 1702.766
265.4627, 1700.138
265.9448, 1704.669
266.4269, 1706.387
266.9090, 1699.847
267.3911, 1690.913
267.8733, 1687.550
268.3554, 1691.779
268.8375, 1698.487
269.3196, 1700.699
269.8017, 1695.243
270.2838, 1695.431
270.7660, 1707.912
271.2481, 1721.531
271.7302, 1725.806
272.2123, 1720.874
272.6944, 1716.441
273.1765, 1722.169
273.6587, 1739.711
274.1408, 1751.192
274.6229, 1756.945
275.1050, 1757.581
275.5871, 1749.531
276.0692, 1736.217
276.5514, 1725.857
277.0335, 1724.329
277.5156, 1730.453
277.9977, 1734.141
278.4798, 1731.442
278.9619, 1730.884
279.4441, 1734.999
279.9262, 1741.961
280.4083, 1749.627
280.8904, 1757.032
281.3725, 1763.746
281.8546, 1768.623
282.3368, 1772.597
282.8189, 1772.876
283.3010, 1763.081
283.7831, 1753.502
284.2652, 1754.787
284.7473, 1768.738
285.2295, 1786.528
285.7116, 1794.412
286.1937, 1786.170
286.6758, 1785.979
287.1579, 1803.361
287.6400, 1820.284
288.1222, 1826.913
288.6043, 1823.888
289.0864, 1818.533
289.5685, 1817.616
290.0506, 1821.174
290.5327, 1821.139
291.0149, 1812.349
291.4970, 1805.878
291.9791, 1806.158
292.4612, 1811.338
292.9433, 1818.221
293.4254, 1826.141
293.9076, 1833.490
294.3897, 1834.494
294.8718, 1824.731
295.3539, 1818.545
295.8360, 1828.349
296.3181, 1840.814
296.8003, 1839.378
297.2824, 1816.343
297.7645, 1789.799
298.2466, 1784.912
298.7287, 1803.611
299.2108, 1819.870
299.6930, 1826.807
300.1751, 1828.287
300.6572, 1826.544
301.1393, 1821.580
301.6214, 1817.863
302.1036, 1821.124
302.5857, 1828.641
303.0678, 1829.094
303.5499, 1817.948
304.0320, 1804.867
304.5142, 1800.004
304.9963, 1801.559
305.4784, 1800.978
305.9605, 1792.088
306.4426, 1781.200
306.9247, 1778.316
307.4069, 1784.353
307.8890, 1789.064
308.3711, 1784.711
308.8532, 1772.886
309.3353, 1762.885
309.8174, 1755.028
310.2996, 1748.906
310.7817, 1744.744
311.2638, 1742.187
311.7459, 1739.988
312.2280, 1737.405
312.7101, 1735.132
313.1923, 1735.917
313.6744, 1746.260
314.1565, 1747.404
314.6386, 1727.304
315.1207, 1699.443
315.6028, 1679.533
316.0850, 1671.594
316.5671, 1671.586
317.0492, 1674.662
317.5313, 1681.764
318.0134, 1689.432
318.4955, 1700.461
318.9777, 1709.787
319.4598, 1714.136
319.9419, 1713.774
320.4240, 1710.807
320.9061, 1706.817
321.3882, 1701.784
321.8704, 1695.169
322.3525, 1683.474
322.8346, 1674.080
323.3167, 1667.770
323.7988, 1664.825
324.2809, 1666.311
324.7631, 1672.863
325.2452, 1681.978
325.7273, 1688.012
326.2094, 1690.289
326.6915, 1690.710
327.1736, 1686.883
327.6558, 1683.303
328.1379, 1683.923
328.6200, 1689.021
329.1021, 1694.822
329.5842, 1696.926
330.0663, 1695.090
330.5485, 1694.948
331.0306, 1696.781
331.5127, 1700.513
331.9948, 1707.911
332.4769, 1717.191
332.9590, 1723.849
333.4412, 1725.078
333.9233, 1722.253
334.4054, 1715.907
334.8875, 1703.269
335.3696, 1698.341
335.8517, 1717.695
336.3339, 1745.852
336.8160, 1760.721
337.2981, 1754.614
337.7802, 1744.067
338.2623, 1742.372
338.7444, 1747.717
339.2266, 1750.810
339.7087, 1747.394
340.1908, 1742.968
340.6729, 1747.197
341.1550, 1760.978
341.6371, 1771.800
342.1193, 1776.402
342.6014, 1776.276
343.0835, 1771.194
343.5656, 1761.437
344.0477, 1753.007
344.5298, 1751.622
345.0120, 1757.497
345.4941, 1760.521
345.9762, 1756.064
346.4583, 1753.693
346.9404, 1760.130
347.4225, 1771.794
347.9047, 1780.124
348.3868, 1780.487
348.8689, 1776.492
349.3510, 1778.680
349.8331, 1796.159
350.3152, 1807.562
350.7974, 1811.051
351.2795, 1809.369
351.7616, 1801.347
352.2437, 1788.564
352.7258, 1779.207
353.2079, 1784.565
353.6901, 1808.313
354.1722, 1823.697
354.6543, 1822.848
355.1364, 1820.399
355.6185, 1819.686
356.1006, 1820.948
356.5828, 1824.069
357.0649, 1829.541
357.5470, 1836.122
358.0291, 1840.680
358.5112, 1843.184
358.9933, 1843.768
359.4755, 1839.342
359.9576, 1834.655
360.4397, 1834.528
360.9218, 1840.180
361.4039, 1846.864
361.8860, 1851.483
362.3682, 1853.888
362.8503, 1852.209
363.3324, 1843.237
363.8145, 1835.477
364.2966, 1841.917
364.7787, 1859.320
365.2609, 1867.489
365.7430, 1853.288
366.2251, 1832.109
366.7072, 1820.120
367.1893, 1817.417
367.6714, 1817.033
368.1536, 1815.730
368.6357, 1813.136
369.1178, 1807.634
369.5999, 1795.107
370.0820, 1785.371
370.5641, 1784.983
371.0463, 1787.599
371.5284, 1783.703
372.0105, 1770.554
372.4926, 1753.213
372.9747, 1737.920
373.4568, 1722.419
373.9390, 1717.065
374.4211, 1728.555
374.9032, 1742.390
375.3853, 1753.595
375.8674, 1760.811
376.3495, 1762.725
376.8317, 1757.908
377.3138, 1747.779
377.7959, 1739.268
378.2780, 1731.708
378.7601, 1727.234
379.2422, 1727.090
379.7244, 1729.287
380.2065, 1732.832
380.6886, 1737.382
381.1707, 1740.803
381.6528, 1737.983
382.1349, 1729.118
382.6171, 1730.341
383.0992, 1754.049
383.5813, 1774.120
384.0634, 1767.633
384.5455, 1741.761
385.0276, 1721.009
385.5098, 1719.462
385.9919, 1726.117
386.4740, 1726.069
386.9561, 1719.328
387.4382, 1713.755
387.9203, 1713.275
388.4025, 1716.646
388.8846, 1720.775
389.3667, 1727.083
389.8488, 1731.203
390.3309, 1728.410
390.8130, 1723.774
391.2952, 1724.854
391.7773, 1733.262
392.2594, 1745.205
392.7415, 1757.171
393.2236, 1769.946
393.7057, 1777.177
394.1879, 1777.906
394.6700, 1774.929
395.1521, 1764.505
395.6342, 1751.792
396.1163, 1746.811
396.5984, 1755.217
397.0806, 1772.277
397.5627, 1786.155
398.0448, 1798.509
398.5269, 1803.771
399.0090, 1795.621
399.4911, 1785.204
399.9733, 1780.095
400.4554, 1780.882
400.9375, 1783.492
401.4196, 1785.284
401.9017, 1786.143
402.3839, 1784.776
402.8660, 1779.786
403.3481, 1775.509
403.8302, 1777.354
404.3123, 1780.777
404.7944, 1777.930
405.2766, 1764.082
405.7587, 1748.665
406.2408, 1740.565
406.7229, 1738.015
407.2050, 1732.563
407.6871, 1720.405
408.1693, 1707.480
408.6514, 1703.423
409.1335, 1709.803
409.6156, 1712.162
410.0977, 1706.796
410.5798, 1698.266
411.0620, 1687.690
411.5441, 1676.599
412.0262, 1669.776
412.5083, 1670.819
412.9904, 1677.956
413.4725, 1682.271
413.9547, 1680.345
414.4368, 1679.713
414.9189, 1682.399
415.4010, 1685.696
415.8831, 1685.464
416.3652, 1681.722
416.8474, 1680.265
417.3295, 1689.748
417.8116, 1711.101
418.2937, 1724.300
418.7758, 1724.113
419.2579, 1722.138
419.7401, 1723.526
420.2222, 1726.547
420.7043, 1728.313
421.1864, 1727.914
421.6685, 1725.534
422.1506, 1719.308
422.6328, 1709.711
423.1149, 1705.872
423.5970, 1712.836
424.0791, 1723.218
424.5612, 1728.563
425.0433, 1729.099
425.5255, 1726.275
426.0076, 1718.959
426.4897, 1709.453
426.9718, 1698.022
427.4539, 1685.666
427.9360, 1677.110
428.4182, 1675.418
428.9003, 1679.734
429.3824, 1686.348
429.8645, 1701.974
430.3466, 1711.221
430.8287, 1706.929
431.3109, 1699.053
431.7930, 1697.317
432.2751, 1703.106
432.7572, 1711.000
433.2393, 1716.008
433.7214, 1718.168
434.2036, 1715.544
434.6857, 1702.559
435.1678, 1692.176
435.6499, 1688.144
436.1320, 1689.338
436.6141, 1695.378
437.0963, 1707.226
437.5784, 1718.995
438.0605, 1722.878
438.5426, 1719.517
439.0247, 1716.524
439.5068, 1715.413
439.9890, 1715.167
440.4711, 1715.243
440.9532, 1715.517
441.4353, 1714.766
441.9174, 1712.670
442.3995, 1709.499
442.8817, 1705.759
443.3638, 1701.198
443.8459, 1693.926
444.3280, 1682.262
444.8101, 1669.682
445.2922, 1664.570
445.7744, 1674.285
446.2565, 1680.054
446.7386, 1676.869
447.2207, 1673.666
447.7028, 1679.153
448.1849, 1691.498
448.6671, 1701.074
449.1492, 1700.143
449.6313, 1690.503
450.1134, 1681.187
450.5955, 1671.034
451.0776, 1663.717
451.5598, 1658.290
452.0419, 1657.097
452.5240, 1666.385
453.0061, 1687.137
453.4882, 1702.304
453.9703, 1693.619
454.4525, 1669.074
454.9346, 1652.957
455.4167, 1648.766
455.8988, 1646.782
456.3809, 1637.628
456.8630, 1625.054
457.3452, 1624.833
457.8273, 1651.957
458.3094, 1674.178
458.7915, 1674.043
459.2736, 1661.712
459.7557, 1651.941
460.2379, 1648.997
460.7200, 1650.349
461.2021, 1653.388
461.6842, 1658.670
462.1663, 1662.207
462.6484, 1665.815
463.1306, 1665.787
463.6127, 1655.693
464.0948, 1642.570
464.5769, 1638.546
465.0590, 1649.248
465.5411, 1664.634
466.0233, 1666.206
466.5054, 1651.945
466.9875, 1651.765
467.4696, 1682.446
467.9518, 1712.672
468.4339, 1714.182
468.9160, 1694.700
469.3981, 1682.400
469.8802, 1690.871
470.3623, 1707.398
470.8445, 1723.873
471.3266, 1738.890
471.8087, 1746.194
472.2908, 1742.431
472.7729, 1731.956
473.2550, 1721.589
473.7372, 1709.497
474.2193, 1702.843
474.7014, 1705.874
475.1835, 1710.764
475.6656, 1712.360
476.1477, 1711.619
476.6299, 1711.949
477.1120, 1715.254
477.5941, 1721.433
478.0762, 1732.328
478.5583, 1754.379
479.0404, 1763.666
479.5226, 1740.954
480.0047, 1716.006
480.4868, 1709.561
480.9689, 1719.532
481.4510, 1726.999
481.9331, 1714.450
482.4153, 1695.432
482.8974, 1695.426
483.3795, 1714.513
483.8616, 1734.307
484.3437, 1748.931
484.8258, 1757.224
485.3080, 1754.302
485.7901, 1735.414
486.2722, 1722.459
486.7543, 1719.382
487.2364, 1723.758
487.7185, 1738.109
488.2007, 1759.156
488.6828, 1776.332
489.1649, 1782.456
489.6470, 1778.858
490.1291, 1768.966
490.6112, 1739.843
491.0934, 1728.604
491.5755, 1755.150
492.0576, 1787.417
492.5397, 1803.301
493.0218, 1801.452
493.5039, 1793.449
493.9861, 1785.167
494.4682, 1777.137
494.9503, 1768.907
495.4324, 1759.645
495.9145, 1758.724
496.3966, 1775.943
496.8788, 1799.979
497.3609, 1809.808
497.8430, 1803.508
498.3251, 1791.826
498.8072, 1768.046
499.2893, 1746.595
499.7715, 1746.537
500.2536, 1764.938
500.7357, 1779.992
501.2178, 1776.199
501.6999, 1758.590
502.1820, 1748.730
502.6642, 1751.836
503.1463, 1754.299
503.6284, 1755.213
504.1105, 1754.847
504.5926, 1751.804
505.0747, 1747.089
505.5569, 1745.241
506.0390, 1752.281
506.5211, 1763.297
507.0032, 1765.865
507.4853, 1759.365
507.9674, 1748.914
508.4496, 1730.899
508.9317, 1714.951
509.4138, 1720.089
509.8959, 1751.808
510.3780, 1772.646
510.8601, 1763.669
511.3423, 1746.357
511.8244, 1739.211
512.3065, 1742.147
512.7886, 1747.861
513.2707, 1752.390
513.7528, 1755.429
514.2349, 1756.120
514.7170, 1754.465
515.1992, 1750.299
515.6813, 1741.841
516.1634, 1732.645
516.6455, 1723.354
517.1276, 1715.031
517.6097, 1709.930
518.0919, 1709.257
518.5740, 1712.697
519.0561, 1723.640
519.5382, 1742.145
520.0203, 1748.370
520.5024, 1730.083
520.9846, 1705.074
521.4667, 1698.732
521.9488, 1711.063
522.4309, 1725.688
522.9130, 1748.663
523.3951, 1765.651
523.8773, 1761.557
524.3594, 1743.830
524.8415, 1731.128
525.3236, 1731.854
525.8057, 1739.536
526.2878, 1741.871
526.7700, 1735.624
527.2521, 1734.089
527.7342, 1741.557
528.2163, 1749.801
528.6984, 1756.044
529.1805, 1760.617
529.6627, 1764.453
530.1448, 1767.631
530.6269, 1770.914
531.1090, 1772.544
531.5911, 1774.323
532.0732, 1785.833
532.5554, 1810.585
533.0375, 1839.381
533.5196, 1865.224
534.0017, 1887.859
534.4838, 1902.681
534.9659, 1899.777
535.4481, 1900.927
535.9302, 1915.370
536.4123, 1937.280
536.8944, 1959.154
537.3765, 1979.104
537.8586, 1999.752
538.3408, 2023.993
538.8229, 2051.788
539.3050, 2081.687
539.7871, 2113.894
540.2692, 2147.923
540.7513, 2184.153
541.2335, 2221.927
541.7156, 2260.534
542.1977, 2299.446
542.6798, 2341.250
543.1619, 2388.411
543.6440, 2438.781
544.1262, 2488.274
544.6083, 2536.811
545.0904, 2587.015
545.5725, 2639.784
546.0546, 2696.313
546.5367, 2761.431
547.0189, 2844.003
547.5010, 2922.502
547.9831, 2998.144
548.4652, 3068.043
548.9474, 3124.322
549.4295, 3172.507
549.9116, 3229.846
550.3937, 3308.254
550.8759, 3399.116
551.3580, 3485.690
551.8401, 3567.639
552.3222, 3656.887
552.8043, 3761.561
553.2864, 3867.731
553.7686, 3963.124
554.2507, 4048.521
554.7328, 4119.604
555.2149, 4164.913
555.6970, 4206.290
556.1791, 4267.042
556.6613, 4330.093
557.1434, 4360.416
557.6255, 4347.915
558.1076, 4317.415
558.5897, 4305.298
559.0718, 4316.807
559.5540, 4274.917
560.0361, 4152.374
560.5182, 4013.460
561.0003, 3875.543
561.4824, 3736.708
561.9645, 3591.366
562.4467, 3438.882
562.9288, 3287.222
563.4109, 3135.514
563.8930, 2991.478
564.3751, 2870.824
564.8572, 2773.993
565.3394, 2686.521
565.8215, 2599.816
566.3036, 2516.355
566.7857, 2443.531
567.2678, 2386.514
567.7499, 2332.399
568.2321, 2280.845
568.7142, 2232.492
569.1963, 2188.462
569.6784, 2147.888
570.1605, 2108.980
570.6426, 2070.472
571.1248, 2033.794
571.6069, 1999.978
572.0890, 1969.221
572.5711, 1946.335
573.0532, 1935.385
573.5353, 1926.488
574.0175, 1910.789
574.4996, 1889.410
574.9817, 1868.985
575.4638, 1847.783
575.9459, 1830.255
576.4280, 1822.255
576.9102, 1817.257
577.3923, 1803.360
577.8744, 1780.184
578.3565, 1762.529
578.8386, 1766.890
579.3207, 1789.022
579.8029, 1793.887
580.2850, 1772.706
580.7671, 1753.689
581.2492, 1745.636
581.7313, 1742.509
582.2134, 1742.563
582.6956, 1744.974
583.1777, 1740.902
583.6598, 1720.945
584.1419, 1696.895
584.6240, 1678.954
585.1061, 1667.313
585.5883, 1661.939
586.0704, 1663.243
586.5525, 1667.027
587.0346, 1666.436
587.5167, 1659.128
587.9988, 1658.925
588.4810, 1682.743
588.9631, 1694.689
589.4452, 1673.497
589.9273, 1639.543
590.4094, 1619.299
590.8915, 1619.798
591.3737, 1627.331
591.8558, 1633.717
592.3379, 1637.986
592.8200, 1637.876
593.3021, 1633.229
593.7842, 1623.708
594.2664, 1607.507
594.7485, 1588.383
595.2306, 1575.672
595.7127, 1573.625
596.1948, 1569.868
596.6769, 1558.751
597.1591, 1551.026
597.6412, 1556.185
598.1233, 1569.139
598.6054, 1579.081
599.0875, 1581.086
599.5696, 1578.008
600.0518, 1571.687
600.5339, 1562.720
601.0160, 1559.483
601.4981, 1565.081
601.9802, 1569.564
602.4623, 1566.152
602.9445, 1556.058
603.4266, 1544.713
603.9087, 1528.900
604.3908, 1517.186
604.8729, 1512.467
605.3550, 1512.094
605.8372, 1514.607
606.3193, 1519.325
606.8014, 1525.912
607.2835, 1534.654
607.7656, 1543.243
608.2477, 1546.663
608.7299, 1544.689
609.2120, 1537.931
609.6941, 1520.930
610.1762, 1507.092
610.6583, 1510.778
611.1404, 1526.180
611.6226, 1536.308
612.1047, 1538.366
612.5868, 1535.202
613.0689, 1521.524
613.5510, 1506.596
614.0331, 1506.603
614.5153, 1520.783
614.9974, 1530.288
615.4795, 1518.887
615.9616, 1493.500
616.4437, 1482.099
616.9258, 1489.184
617.4080, 1496.483
617.8901, 1501.304
618.3722, 1504.760
618.8543, 1508.696
619.3364, 1512.248
619.8185, 1511.609
620.3007, 1498.048
620.7828, 1488.617
621.2649, 1503.368
621.7470, 1527.340
622.2291, 1529.952
622.7112, 1506.883
623.1934, 1483.065
623.6755, 1481.346
624.1576, 1498.530
624.6397, 1512.109
625.1218, 1521.570
625.6039, 1528.476
626.0861, 1533.626
626.5682, 1535.849
627.0503, 1532.307
627.5324, 1524.382
628.0145, 1518.910
628.4966, 1519.108
628.9788, 1522.073
629.4609, 1526.309
629.9430, 1531.323
630.4251, 1535.230
630.9072, 1537.756
631.3893, 1542.737
631.8715, 1555.342
632.3536, 1574.010
632.8357, 1579.675
633.3178, 1561.657
633.7999, 1549.601
634.2820, 1557.369
634.7642, 1566.010
635.2463, 1557.765
635.7284, 1535.712
636.2105, 1521.295
