##NAMES=Kasolite
##RRUFFID=R070155
##IDEAL CHEMISTRY=Pb^2+^(U^6+^O_2_)SiO_4_&#183;H_2_O
##LOCALITY=Katherine District, Northern Territory, Australia
##OWNER=RRUFF
##SOURCE=James Shigley
##DESCRIPTION=Radiating thin yellow laths
##STATUS=The identification of this mineral has been confirmed by single-crystal X-ray diffraction.
##URL=rruff.info/R070155
171.4499, 11575.73
171.9320, 11609.56
172.4141, 11663.16
172.8962, 11708.73
173.3783, 11733.74
173.8604, 11744.43
174.3426, 11750.95
174.8247, 11742.70
175.3068, 11754.13
175.7889, 11824.67
176.2710, 11939.15
176.7531, 12024.72
177.2353, 12040.40
177.7174, 12026.14
178.1995, 12048.78
178.6816, 12116.92
179.1637, 12191.95
179.6458, 12247.00
180.1280, 12286.63
180.6101, 12338.99
181.0922, 12421.92
181.5743, 12513.59
182.0564, 12584.19
182.5385, 12630.22
183.0207, 12672.92
183.5028, 12728.92
183.9849, 12795.56
184.4670, 12853.13
184.9491, 12891.74
185.4312, 12922.98
185.9134, 12958.38
186.3955, 12997.82
186.8776, 13043.54
187.3597, 13104.02
187.8418, 13175.60
188.3239, 13233.22
188.8061, 13264.90
189.2882, 13286.78
189.7703, 13315.43
190.2524, 13350.91
190.7345, 13384.24
191.2166, 13407.22
191.6988, 13421.52
192.1809, 13436.80
192.6630, 13448.09
193.1451, 13469.88
193.6272, 13519.78
194.1093, 13594.69
194.5915, 13661.94
195.0736, 13697.88
195.5557, 13705.99
196.0378, 13705.45
196.5199, 13679.68
197.0020, 13671.43
197.4842, 13723.38
197.9663, 13823.15
198.4484, 13908.87
198.9305, 13929.52
199.4126, 13898.08
199.8947, 13886.26
200.3769, 13906.83
200.8590, 13937.48
201.3411, 13965.54
201.8232, 13991.21
202.3053, 14014.99
202.7874, 14041.16
203.2696, 14066.75
203.7517, 14074.39
204.2338, 14045.91
204.7159, 14028.83
205.1980, 14061.40
205.6801, 14123.19
206.1623, 14169.41
206.6444, 14168.52
207.1265, 14134.26
207.6086, 14110.99
208.0907, 14098.80
208.5728, 14098.74
209.0549, 14123.00
209.5371, 14156.46
210.0192, 14172.66
210.5013, 14149.37
210.9834, 14106.55
211.4655, 14097.03
211.9476, 14136.01
212.4298, 14175.27
212.9119, 14186.91
213.3940, 14188.97
213.8761, 14205.71
214.3582, 14251.98
214.8403, 14310.34
215.3225, 14342.44
215.8046, 14334.49
216.2867, 14340.25
216.7688, 14393.97
217.2509, 14464.63
217.7330, 14521.19
218.2152, 14551.49
218.6973, 14571.73
219.1794, 14607.13
219.6615, 14661.88
220.1436, 14715.03
220.6257, 14755.77
221.1079, 14794.25
221.5900, 14840.56
222.0721, 14897.87
222.5542, 14954.58
223.0363, 14993.16
223.5184, 15010.33
224.0006, 15034.17
224.4827, 15082.04
224.9648, 15132.23
225.4469, 15172.76
225.9290, 15201.53
226.4111, 15218.51
226.8933, 15218.96
227.3754, 15202.24
227.8575, 15189.57
228.3396, 15190.03
228.8217, 15190.17
229.3038, 15181.70
229.7860, 15164.45
230.2681, 15142.18
230.7502, 15118.18
231.2323, 15092.14
231.7144, 15061.05
232.1965, 15027.97
232.6787, 14984.14
233.1608, 14923.01
233.6429, 14847.45
234.1250, 14767.45
234.6071, 14686.87
235.0892, 14606.13
235.5714, 14528.00
236.0535, 14454.55
236.5356, 14379.67
237.0177, 14300.72
237.4998, 14217.76
237.9819, 14129.72
238.4641, 14028.57
238.9462, 13924.98
239.4283, 13845.09
239.9104, 13796.26
240.3925, 13752.98
240.8746, 13704.01
241.3568, 13651.89
241.8389, 13599.97
242.3210, 13551.81
242.8031, 13501.91
243.2852, 13435.69
243.7673, 13347.10
244.2495, 13275.10
244.7316, 13254.33
245.2137, 13252.11
245.6958, 13233.03
246.1779, 13186.98
246.6600, 13132.02
247.1422, 13084.56
247.6243, 13044.56
248.1064, 13006.55
248.5885, 12964.07
249.0706, 12926.82
249.5527, 12907.80
250.0349, 12910.87
250.5170, 12911.60
250.9991, 12889.12
251.4812, 12847.61
251.9633, 12811.46
252.4454, 12788.16
252.9276, 12768.97
253.4097, 12742.79
253.8918, 12709.89
254.3739, 12681.75
254.8560, 12666.76
255.3382, 12660.39
255.8203, 12652.87
256.3024, 12644.08
256.7845, 12630.96
257.2666, 12607.49
257.7487, 12576.39
258.2308, 12547.36
258.7130, 12519.57
259.1951, 12497.03
259.6772, 12486.37
260.1593, 12488.67
260.6414, 12496.67
261.1235, 12508.34
261.6057, 12521.78
262.0878, 12531.01
262.5699, 12538.42
263.0520, 12538.92
263.5341, 12521.90
264.0162, 12489.77
264.4984, 12465.57
264.9805, 12462.28
265.4626, 12476.29
265.9447, 12494.81
266.4268, 12530.48
266.9089, 12552.09
267.3911, 12529.24
267.8732, 12478.62
268.3553, 12448.93
268.8374, 12463.19
269.3195, 12498.95
269.8016, 12508.17
270.2838, 12481.71
270.7659, 12464.25
271.2480, 12469.47
271.7301, 12489.75
272.2122, 12518.68
272.6943, 12555.69
273.1765, 12589.64
273.6586, 12604.88
274.1407, 12596.30
274.6228, 12590.32
275.1049, 12580.48
275.5870, 12578.79
276.0692, 12604.36
276.5513, 12654.84
277.0334, 12699.05
277.5155, 12707.14
277.9976, 12675.91
278.4797, 12663.02
278.9619, 12679.39
279.4440, 12701.01
279.9261, 12717.95
280.4082, 12730.93
280.8903, 12744.81
281.3724, 12763.49
281.8546, 12784.61
282.3367, 12793.92
282.8188, 12787.48
283.3009, 12774.60
283.7830, 12745.87
284.2651, 12714.91
284.7473, 12700.88
285.2294, 12711.57
285.7115, 12736.83
286.1936, 12756.71
286.6757, 12782.22
287.1578, 12782.79
287.6400, 12744.01
288.1221, 12691.92
288.6042, 12638.80
289.0863, 12590.49
289.5684, 12556.60
290.0505, 12552.75
290.5327, 12591.40
291.0148, 12607.49
291.4969, 12582.58
291.9790, 12554.13
292.4611, 12537.82
292.9432, 12531.98
293.4254, 12527.82
293.9075, 12520.10
294.3896, 12508.20
294.8717, 12485.47
295.3538, 12440.66
295.8359, 12398.58
296.3181, 12359.94
296.8002, 12329.12
297.2823, 12314.50
297.7644, 12321.40
298.2465, 12339.27
298.7286, 12344.34
299.2108, 12330.24
299.6929, 12319.99
300.1750, 12327.02
300.6571, 12334.48
301.1392, 12324.67
301.6213, 12294.67
302.1035, 12266.84
302.5856, 12271.24
303.0677, 12309.33
303.5498, 12332.41
304.0319, 12323.72
304.5140, 12309.14
304.9962, 12307.35
305.4783, 12315.86
305.9604, 12320.79
306.4425, 12312.82
306.9246, 12295.06
307.4067, 12275.69
307.8889, 12254.47
308.3710, 12233.18
308.8531, 12215.69
309.3352, 12198.76
309.8173, 12175.21
310.2994, 12132.28
310.7816, 12092.77
311.2637, 12083.02
311.7458, 12102.22
312.2279, 12133.10
312.7100, 12183.75
313.1921, 12229.48
313.6743, 12223.26
314.1564, 12143.91
314.6385, 12071.16
315.1206, 12046.74
315.6027, 12056.27
316.0848, 12070.33
316.5670, 12082.82
317.0491, 12091.90
317.5312, 12095.60
318.0133, 12094.44
318.4954, 12084.82
318.9775, 12059.95
319.4597, 12030.51
319.9418, 12004.82
320.4239, 11983.96
320.9060, 11966.98
321.3881, 11954.52
321.8702, 11946.26
322.3524, 11931.32
322.8345, 11903.88
323.3166, 11877.27
323.7987, 11859.01
324.2808, 11844.75
324.7629, 11824.67
325.2451, 11793.69
325.7272, 11757.51
326.2093, 11730.77
326.6914, 11719.17
327.1735, 11710.54
327.6556, 11715.33
328.1378, 11716.44
328.6199, 11695.62
329.1020, 11651.50
329.5841, 11600.82
330.0662, 11560.97
330.5483, 11530.61
331.0305, 11518.44
331.5126, 11542.89
331.9947, 11567.59
332.4768, 11583.54
332.9589, 11589.07
333.4410, 11583.37
333.9232, 11564.54
334.4053, 11535.44
334.8874, 11506.69
335.3695, 11476.97
335.8516, 11450.56
336.3337, 11417.48
336.8159, 11392.92
337.2980, 11399.60
337.7801, 11446.34
338.2622, 11497.80
338.7443, 11510.33
339.2264, 11482.53
339.7086, 11448.45
340.1907, 11399.75
340.6728, 11362.77
341.1549, 11365.26
341.6370, 11402.17
342.1191, 11431.85
342.6013, 11426.17
343.0834, 11399.25
343.5655, 11380.18
344.0476, 11370.93
344.5297, 11367.41
345.0118, 11371.89
345.4940, 11379.79
345.9761, 11378.49
346.4582, 11357.86
346.9403, 11336.82
347.4224, 11330.24
347.9045, 11334.80
348.3867, 11338.73
348.8688, 11337.58
349.3509, 11332.80
349.8330, 11326.55
350.3151, 11317.82
350.7972, 11310.75
351.2794, 11311.68
351.7615, 11311.56
352.2436, 11296.87
352.7257, 11267.17
353.2078, 11239.04
353.6899, 11229.97
354.1721, 11242.65
354.6542, 11246.35
355.1363, 11243.85
355.6184, 11231.54
356.1005, 11197.61
356.5826, 11154.20
357.0648, 11124.04
357.5469, 11119.34
358.0290, 11131.50
358.5111, 11137.05
358.9932, 11139.32
359.4753, 11127.89
359.9575, 11085.67
360.4396, 11042.53
360.9217, 11025.39
361.4038, 11035.81
361.8859, 11050.71
362.3680, 11043.88
362.8502, 11014.18
363.3322, 10993.71
363.8144, 10985.63
364.2965, 10983.89
364.7786, 10996.13
365.2607, 11011.07
365.7428, 11004.80
366.2249, 10955.32
366.7071, 10893.91
367.1892, 10878.17
367.6713, 10913.74
368.1534, 10941.98
368.6355, 10937.57
369.1176, 10917.90
369.5998, 10902.89
370.0819, 10892.80
370.5640, 10890.71
371.0461, 10906.36
371.5282, 10929.94
372.0103, 10939.38
372.4925, 10929.90
372.9746, 10913.60
373.4567, 10900.22
373.9388, 10889.83
374.4209, 10880.22
374.9030, 10874.00
375.3852, 10866.07
375.8673, 10846.55
376.3494, 10822.07
376.8315, 10813.75
377.3136, 10834.26
377.7957, 10870.69
378.2779, 10889.07
378.7600, 10869.90
379.2421, 10858.29
379.7242, 10863.86
380.2063, 10871.43
380.6884, 10864.41
381.1706, 10843.05
381.6527, 10824.46
382.1348, 10827.98
382.6169, 10855.38
383.0990, 10870.45
383.5811, 10859.81
384.0633, 10850.59
384.5454, 10855.93
385.0275, 10865.51
385.5096, 10860.06
385.9917, 10828.61
386.4738, 10792.21
386.9560, 10795.76
387.4381, 10851.81
387.9202, 10878.96
388.4023, 10825.29
388.8844, 10765.55
389.3665, 10762.33
389.8487, 10812.94
390.3308, 10857.27
390.8129, 10850.29
391.2950, 10814.78
391.7771, 10802.02
392.2592, 10818.16
392.7414, 10835.86
393.2235, 10834.79
393.7056, 10822.15
394.1877, 10821.00
394.6698, 10842.30
395.1519, 10861.89
395.6341, 10864.54
396.1162, 10856.67
396.5983, 10852.57
397.0804, 10857.05
397.5625, 10862.75
398.0446, 10857.17
398.5268, 10830.92
399.0089, 10825.94
399.4910, 10865.85
399.9731, 10905.59
400.4552, 10916.28
400.9373, 10902.90
401.4195, 10885.85
401.9016, 10878.06
402.3837, 10877.47
402.8658, 10874.47
403.3479, 10858.79
403.8300, 10857.88
404.3122, 10892.58
404.7943, 10930.39
405.2764, 10943.36
405.7585, 10927.19
406.2406, 10899.24
406.7227, 10869.67
407.2049, 10839.37
407.6870, 10834.37
408.1691, 10873.77
408.6512, 10908.69
409.1333, 10905.32
409.6154, 10881.06
410.0976, 10866.24
410.5797, 10871.80
411.0618, 10887.71
411.5439, 10907.94
412.0260, 10931.19
412.5081, 10947.87
412.9903, 10954.66
413.4724, 10954.08
413.9545, 10947.19
414.4366, 10933.26
414.9187, 10922.94
415.4008, 10923.32
415.8830, 10924.49
416.3651, 10918.41
416.8472, 10904.60
417.3293, 10883.92
417.8114, 10855.37
418.2935, 10821.88
418.7757, 10799.86
419.2578, 10800.52
419.7399, 10799.03
420.2220, 10800.40
420.7041, 10794.62
421.1862, 10762.89
421.6684, 10706.41
422.1505, 10656.21
422.6326, 10655.34
423.1147, 10709.14
423.5968, 10722.53
424.0789, 10662.86
424.5611, 10602.27
425.0432, 10565.66
425.5253, 10545.87
426.0074, 10532.89
426.4895, 10524.97
426.9716, 10516.65
427.4538, 10501.91
427.9359, 10480.70
428.4180, 10451.74
428.9001, 10406.24
429.3822, 10364.83
429.8643, 10355.83
430.3465, 10375.99
430.8286, 10387.40
431.3107, 10376.28
431.7928, 10354.60
432.2749, 10327.82
432.7570, 10298.89
433.2392, 10280.35
433.7213, 10279.76
434.2034, 10292.71
434.6855, 10306.37
435.1676, 10334.05
435.6497, 10342.53
436.1319, 10316.79
436.6140, 10280.08
437.0961, 10246.95
437.5782, 10221.89
438.0603, 10207.72
438.5424, 10208.80
439.0246, 10223.88
439.5067, 10235.25
439.9888, 10247.49
440.4709, 10248.19
440.9530, 10226.53
441.4352, 10197.04
441.9173, 10174.77
442.3994, 10163.89
442.8815, 10158.18
443.3636, 10152.30
443.8457, 10146.34
444.3279, 10141.82
444.8100, 10140.93
445.2921, 10136.96
445.7742, 10118.06
446.2563, 10091.10
446.7384, 10076.46
447.2206, 10091.46
447.7027, 10106.90
448.1848, 10095.52
448.6669, 10069.35
449.1490, 10063.52
449.6311, 10092.40
450.1133, 10130.60
450.5954, 10138.98
451.0775, 10104.33
451.5596, 10079.21
452.0417, 10067.08
452.5238, 10060.26
453.0060, 10058.31
453.4881, 10058.21
453.9702, 10053.69
454.4523, 10040.73
454.9344, 10024.18
455.4165, 10017.41
455.8987, 10025.07
456.3808, 10029.57
456.8629, 10023.17
457.3450, 10016.72
457.8271, 10020.61
458.3092, 10032.26
458.7914, 10036.11
459.2735, 10015.13
459.7556, 9982.842
460.2377, 9963.645
460.7198, 9957.886
461.2019, 9963.314
461.6841, 9985.124
462.1662, 10012.91
462.6483, 10026.36
463.1304, 10024.05
463.6125, 10013.60
464.0946, 9990.757
464.5768, 9964.590
465.0589, 9941.537
465.5410, 9923.879
466.0231, 9917.582
466.5052, 9929.254
466.9873, 9955.758
467.4695, 9971.184
467.9516, 9970.882
468.4337, 9964.499
468.9158, 9943.438
469.3979, 9922.625
469.8800, 9919.947
470.3622, 9936.127
470.8443, 9951.677
471.3264, 9942.793
471.8085, 9913.384
472.2906, 9902.777
472.7727, 9920.932
473.2549, 9935.833
473.7370, 9919.713
474.2191, 9894.366
474.7012, 9892.194
475.1833, 9928.419
475.6654, 9957.212
476.1476, 9938.930
476.6297, 9894.889
477.1118, 9869.471
477.5939, 9871.077
478.0760, 9879.542
478.5581, 9875.853
479.0403, 9860.299
479.5224, 9859.095
480.0045, 9882.958
480.4866, 9906.104
480.9687, 9925.952
481.4508, 9939.291
481.9330, 9939.199
482.4151, 9925.177
482.8972, 9909.131
483.3793, 9907.575
483.8614, 9922.500
484.3435, 9926.108
484.8257, 9911.302
485.3078, 9894.473
485.7899, 9876.313
486.2720, 9862.161
486.7541, 9861.128
487.2362, 9877.879
487.7183, 9900.313
488.2004, 9919.845
488.6826, 9936.313
489.1647, 9952.438
489.6468, 9971.577
490.1289, 9976.244
490.6110, 9942.763
491.0931, 9872.919
491.5753, 9829.859
492.0574, 9829.805
492.5395, 9837.803
493.0216, 9849.422
493.5037, 9857.301
493.9858, 9843.768
494.4680, 9806.084
494.9501, 9772.247
495.4322, 9784.137
495.9143, 9851.269
496.3964, 9883.623
496.8785, 9851.595
497.3607, 9817.645
497.8428, 9797.288
498.3249, 9788.216
498.8070, 9789.531
499.2891, 9802.838
499.7712, 9813.688
500.2534, 9801.702
500.7355, 9772.750
501.2176, 9756.550
501.6997, 9759.204
502.1818, 9769.385
502.6639, 9784.187
503.1461, 9800.025
503.6282, 9797.157
504.1103, 9753.290
504.5924, 9715.225
505.0745, 9704.348
505.5566, 9709.839
506.0388, 9717.527
506.5209, 9723.452
507.0030, 9730.087
507.4851, 9742.294
507.9672, 9761.288
508.4493, 9761.145
508.9315, 9715.098
509.4136, 9683.572
509.8957, 9691.902
510.3778, 9717.382
510.8599, 9737.413
511.3420, 9746.140
511.8242, 9739.669
512.3063, 9700.730
512.7884, 9641.744
513.2705, 9614.642
513.7526, 9629.209
514.2347, 9650.099
514.7169, 9651.492
515.1990, 9641.606
515.6811, 9652.125
516.1632, 9710.613
516.6453, 9746.266
517.1274, 9715.455
517.6096, 9662.163
518.0917, 9641.157
518.5738, 9656.810
519.0559, 9671.079
519.5380, 9648.232
520.0201, 9594.567
520.5023, 9568.722
520.9844, 9590.442
521.4665, 9607.695
521.9486, 9609.418
522.4307, 9603.877
522.9128, 9597.893
523.3950, 9592.256
523.8771, 9583.679
524.3592, 9564.518
524.8413, 9542.229
525.3234, 9533.912
525.8055, 9540.315
526.2877, 9551.211
526.7698, 9565.204
527.2519, 9577.481
527.7340, 9574.517
528.2161, 9548.894
528.6982, 9532.500
529.1804, 9538.954
529.6625, 9548.712
530.1446, 9542.044
530.6267, 9524.672
531.1088, 9520.917
531.5909, 9547.244
532.0731, 9584.852
532.5552, 9583.234
533.0373, 9527.161
533.5194, 9479.131
534.0015, 9435.719
534.4836, 9413.550
534.9658, 9436.179
535.4479, 9489.687
535.9300, 9529.503
536.4121, 9534.194
536.8942, 9521.591
537.3763, 9503.416
537.8585, 9482.601
538.3406, 9472.706
538.8227, 9478.821
539.3048, 9490.846
539.7869, 9495.224
540.2690, 9489.110
540.7512, 9499.167
541.2333, 9551.803
541.7154, 9589.212
542.1975, 9586.126
542.6796, 9557.743
543.1617, 9519.278
543.6439, 9477.364
544.1260, 9443.055
544.6081, 9433.516
545.0902, 9447.521
545.5723, 9453.793
546.0544, 9447.241
546.5366, 9443.662
547.0187, 9458.413
547.5008, 9478.374
547.9829, 9481.528
548.4650, 9458.569
548.9471, 9443.319
549.4293, 9463.076
549.9114, 9492.903
550.3935, 9500.010
550.8756, 9483.031
551.3577, 9458.697
551.8398, 9436.179
552.3220, 9418.600
552.8041, 9419.228
553.2862, 9461.192
553.7683, 9480.704
554.2504, 9460.122
554.7325, 9430.895
555.2147, 9409.992
555.6968, 9397.879
556.1789, 9389.080
556.6610, 9382.096
557.1431, 9374.830
557.6252, 9361.804
558.1074, 9343.903
558.5895, 9333.691
559.0716, 9337.096
559.5537, 9342.658
560.0358, 9336.072
560.5179, 9316.109
561.0001, 9305.202
561.4822, 9316.939
561.9643, 9322.940
562.4464, 9304.764
562.9285, 9276.402
563.4106, 9257.387
563.8928, 9253.148
564.3749, 9256.364
564.8570, 9260.531
565.3391, 9265.420
565.8212, 9265.382
566.3033, 9258.256
566.7855, 9250.810
567.2676, 9255.112
567.7497, 9255.523
568.2318, 9227.297
568.7139, 9163.300
569.1960, 9115.131
569.6782, 9115.295
570.1603, 9137.839
570.6424, 9159.878
571.1245, 9177.313
571.6066, 9182.410
572.0887, 9170.374
572.5709, 9146.828
573.0530, 9123.520
573.5351, 9096.438
574.0172, 9078.573
574.4993, 9072.771
574.9814, 9072.702
575.4636, 9082.373
575.9457, 9094.468
576.4278, 9095.255
576.9099, 9077.815
577.3920, 9054.043
577.8741, 9029.858
578.3563, 9009.239
578.8384, 9014.557
579.3205, 9053.880
579.8026, 9086.275
580.2847, 9076.955
580.7668, 9033.604
581.2490, 9006.064
581.7311, 9010.610
582.2132, 9006.610
582.6953, 8976.347
583.1774, 8943.711
583.6595, 8932.853
584.1417, 8941.198
584.6238, 8946.955
585.1059, 8934.556
585.5880, 8910.518
586.0701, 8888.953
586.5522, 8869.414
587.0344, 8856.836
587.5165, 8857.137
587.9986, 8858.349
588.4807, 8845.981
588.9628, 8822.969
589.4449, 8806.119
589.9271, 8802.802
590.4092, 8801.283
590.8913, 8798.072
591.3734, 8791.713
591.8555, 8776.586
592.3376, 8753.040
592.8198, 8734.266
593.3019, 8736.252
593.7840, 8756.172
594.2661, 8757.156
594.7482, 8726.182
595.2303, 8702.870
595.7125, 8706.957
596.1946, 8717.542
596.6767, 8717.470
597.1588, 8706.173
597.6409, 8695.155
598.1230, 8685.268
598.6052, 8681.192
599.0873, 8696.271
599.5694, 8722.232
600.0515, 8727.029
600.5336, 8697.984
601.0157, 8663.957
601.4979, 8667.960
601.9800, 8719.568
602.4621, 8741.351
602.9442, 8705.570
603.4263, 8672.228
603.9084, 8658.665
604.3906, 8653.219
604.8727, 8641.268
605.3548, 8620.146
605.8369, 8601.499
606.3190, 8594.268
606.8011, 8594.495
607.2833, 8597.373
607.7654, 8602.063
608.2475, 8601.048
608.7296, 8589.723
609.2117, 8574.500
609.6938, 8567.431
610.1760, 8573.563
610.6581, 8571.462
611.1402, 8550.889
611.6223, 8534.054
612.1044, 8535.723
612.5865, 8544.561
613.0687, 8541.332
613.5508, 8520.467
614.0329, 8499.362
614.5150, 8498.125
614.9971, 8510.493
615.4792, 8516.231
615.9614, 8514.234
616.4435, 8506.065
616.9256, 8489.061
617.4077, 8470.188
617.8898, 8465.609
618.3719, 8483.723
618.8541, 8493.677
619.3362, 8495.438
619.8183, 8487.737
620.3004, 8459.479
620.7825, 8423.859
621.2646, 8407.124
621.7468, 8419.214
622.2289, 8435.366
622.7110, 8418.422
623.1931, 8375.732
623.6752, 8359.884
624.1573, 8379.543
624.6395, 8397.863
625.1216, 8391.366
625.6037, 8372.782
626.0858, 8374.030
626.5679, 8404.430
627.0500, 8424.247
627.5322, 8422.880
628.0143, 8413.871
628.4964, 8399.928
628.9785, 8386.394
629.4606, 8385.583
629.9427, 8402.808
630.4249, 8420.639
630.9070, 8411.881
631.3891, 8378.625
631.8712, 8351.166
632.3533, 8332.059
632.8354, 8315.331
633.3176, 8297.050
633.7997, 8279.507
634.2818, 8267.050
634.7639, 8259.441
635.2460, 8257.306
635.7281, 8265.811
636.2103, 8275.358
636.6924, 8282.125
637.1745, 8284.015
637.6566, 8274.226
638.1387, 8249.883
638.6208, 8227.456
639.1030, 8237.695
639.5851, 8278.881
640.0672, 8295.273
640.5493, 8279.459
641.0314, 8253.836
641.5135, 8219.757
641.9957, 8188.590
642.4778, 8186.574
642.9599, 8226.439
643.4420, 8247.841
643.9241, 8220.936
644.4063, 8187.421
644.8884, 8178.276
645.3705, 8185.481
645.8526, 8185.392
646.3347, 8168.858
646.8168, 8153.053
647.2990, 8168.776
647.7811, 8212.981
648.2632, 8226.642
648.7453, 8200.224
649.2274, 8171.405
649.7095, 8154.879
650.1917, 8148.157
650.6738, 8147.744
651.1559, 8155.260
651.6380, 8160.446
652.1201, 8160.688
652.6022, 8159.040
653.0844, 8153.184
653.5665, 8148.004
654.0486, 8157.605
654.5307, 8184.949
655.0128, 8204.985
655.4949, 8178.653
655.9771, 8114.657
656.4592, 8081.583
656.9413, 8085.057
657.4234, 8091.396
657.9055, 8086.359
658.3876, 8077.991
658.8698, 8078.047
659.3519, 8086.451
659.8340, 8100.799
660.3161, 8139.618
660.7982, 8164.062
661.2803, 8145.880
661.7625, 8106.012
662.2446, 8071.330
662.7267, 8049.785
663.2088, 8037.934
663.6909, 8034.091
664.1730, 8036.961
664.6552, 8041.807
665.1373, 8048.425
665.6194, 8061.442
666.1015, 8085.709
666.5836, 8110.669
667.0657, 8124.827
667.5479, 8127.510
668.0300, 8121.491
668.5121, 8093.728
668.9942, 8073.493
669.4763, 8078.256
