##NAMES=Kasolite
##RRUFFID=R070155
##IDEAL CHEMISTRY=Pb^2+^(U^6+^O_2_)SiO_4_&#183;H_2_O
##LOCALITY=Katherine District, Northern Territory, Australia
##OWNER=RRUFF
##SOURCE=James Shigley
##DESCRIPTION=Radiating thin yellow laths
##STATUS=The identification of this mineral has been confirmed by single-crystal X-ray diffraction.
##URL=rruff.info/R070155
163.6809, 8312.241
164.1631, 8335.880
164.6452, 8356.461
165.1273, 8386.360
165.6094, 8446.269
166.0915, 8506.268
166.5736, 8545.110
167.0558, 8558.662
167.5379, 8564.735
168.0200, 8565.746
168.5021, 8567.299
168.9842, 8580.473
169.4663, 8615.433
169.9485, 8662.456
170.4306, 8716.051
170.9127, 8780.352
171.3948, 8836.820
171.8769, 8860.264
172.3590, 8859.741
172.8412, 8864.071
173.3233, 8897.328
173.8054, 8944.248
174.2875, 8982.813
174.7696, 9002.801
175.2517, 9020.797
175.7339, 9054.608
176.2160, 9103.548
176.6981, 9160.525
177.1802, 9231.926
177.6623, 9308.000
178.1444, 9366.763
178.6266, 9395.773
179.1087, 9409.758
179.5908, 9428.259
180.0729, 9451.185
180.5550, 9479.668
181.0371, 9519.228
181.5193, 9566.232
182.0014, 9607.676
182.4835, 9640.646
182.9656, 9664.803
183.4477, 9678.011
183.9299, 9679.280
184.4120, 9676.502
184.8941, 9677.139
185.3762, 9680.989
185.8583, 9686.780
186.3404, 9698.590
186.8226, 9712.734
187.3047, 9713.906
187.7868, 9699.698
188.2689, 9679.511
188.7510, 9667.329
189.2331, 9662.726
189.7153, 9656.307
190.1974, 9641.873
190.6795, 9620.733
191.1616, 9600.802
191.6437, 9582.146
192.1258, 9565.865
192.6080, 9556.414
193.0901, 9554.146
193.5722, 9549.816
194.0543, 9535.258
194.5364, 9511.177
195.0185, 9492.838
195.5007, 9483.480
195.9828, 9479.322
196.4649, 9468.946
196.9470, 9450.431
197.4291, 9436.344
197.9112, 9439.248
198.3934, 9460.316
198.8755, 9474.564
199.3576, 9476.009
199.8397, 9468.841
200.3218, 9471.890
200.8039, 9489.238
201.2861, 9502.950
201.7682, 9493.370
202.2503, 9455.958
202.7324, 9428.422
203.2145, 9420.832
203.6966, 9430.044
204.1788, 9431.578
204.6609, 9421.917
205.1430, 9412.690
205.6251, 9417.199
206.1072, 9439.027
206.5893, 9458.833
207.0715, 9473.136
207.5536, 9481.797
208.0357, 9480.261
208.5178, 9460.249
208.9999, 9443.374
209.4820, 9456.707
209.9642, 9507.147
210.4463, 9566.091
210.9284, 9631.602
211.4105, 9705.115
211.8926, 9751.993
212.3748, 9760.213
212.8569, 9755.662
213.3390, 9775.895
213.8211, 9827.829
214.3032, 9886.059
214.7853, 9943.668
215.2675, 10000.22
215.7496, 10054.66
216.2317, 10103.73
216.7138, 10153.53
217.1959, 10214.89
217.6780, 10290.44
218.1602, 10373.24
218.6423, 10464.90
219.1244, 10576.38
219.6065, 10657.07
220.0886, 10694.80
220.5707, 10709.18
221.0529, 10740.61
221.5350, 10792.62
222.0171, 10855.87
222.4992, 10930.41
222.9813, 11025.30
223.4634, 11105.07
223.9456, 11163.42
224.4277, 11208.40
224.9098, 11261.81
225.3919, 11340.24
225.8740, 11401.83
226.3561, 11421.25
226.8383, 11368.09
227.3204, 11346.86
227.8025, 11380.26
228.2846, 11445.63
228.7667, 11463.95
229.2488, 11411.33
229.7310, 11345.78
230.2131, 11298.65
230.6952, 11286.42
231.1773, 11256.75
231.6594, 11200.55
232.1415, 11124.02
232.6237, 11055.38
233.1058, 11005.25
233.5879, 10949.04
234.0700, 10870.30
234.5521, 10755.46
235.0342, 10646.99
235.5164, 10549.26
235.9985, 10461.29
236.4806, 10376.90
236.9627, 10296.54
237.4448, 10220.75
237.9269, 10149.29
238.4091, 10082.54
238.8912, 10020.98
239.3733, 9969.157
239.8554, 9924.515
240.3375, 9864.864
240.8196, 9779.672
241.3018, 9691.711
241.7839, 9616.295
242.2660, 9557.491
242.7481, 9503.325
243.2302, 9454.168
243.7124, 9409.425
244.1945, 9361.579
244.6766, 9309.355
245.1587, 9255.467
245.6408, 9200.660
246.1229, 9141.986
246.6051, 9088.512
247.0872, 9042.307
247.5693, 9003.045
248.0514, 8965.019
248.5335, 8928.440
249.0156, 8892.706
249.4978, 8856.168
249.9799, 8812.989
250.4620, 8782.745
250.9441, 8776.062
251.4262, 8791.173
251.9083, 8780.348
252.3905, 8729.378
252.8726, 8669.385
253.3547, 8627.747
253.8368, 8608.513
254.3189, 8598.364
254.8010, 8598.147
255.2832, 8607.398
255.7653, 8610.134
256.2474, 8604.888
256.7295, 8594.904
257.2116, 8581.824
257.6937, 8562.002
258.1758, 8548.537
258.6580, 8546.504
259.1401, 8555.346
259.6222, 8555.560
260.1043, 8541.049
260.5865, 8526.231
261.0686, 8527.957
261.5507, 8556.255
262.0328, 8572.473
262.5149, 8563.339
262.9970, 8530.297
263.4792, 8520.832
263.9613, 8548.886
264.4434, 8579.086
264.9255, 8571.360
265.4076, 8508.934
265.8897, 8463.750
266.3719, 8453.758
266.8540, 8476.813
267.3361, 8495.936
267.8182, 8511.063
268.3003, 8522.063
268.7824, 8528.814
269.2646, 8531.097
269.7467, 8529.624
270.2288, 8523.940
270.7109, 8514.345
271.1930, 8500.323
271.6751, 8475.074
272.1573, 8459.840
272.6394, 8484.220
273.1215, 8558.896
273.6036, 8613.219
274.0857, 8624.350
274.5678, 8599.930
275.0500, 8599.677
275.5321, 8630.952
276.0142, 8666.390
276.4963, 8674.570
276.9784, 8650.892
277.4605, 8641.619
277.9427, 8664.486
278.4248, 8709.632
278.9069, 8723.087
279.3890, 8697.565
279.8711, 8666.432
280.3532, 8661.369
280.8354, 8683.258
281.3175, 8709.503
281.7996, 8736.307
282.2817, 8763.247
282.7638, 8791.181
283.2459, 8821.805
283.7281, 8843.674
284.2102, 8840.508
284.6923, 8813.530
285.1744, 8793.974
285.6565, 8790.791
286.1386, 8798.663
286.6208, 8803.371
287.1029, 8804.853
287.5850, 8803.807
288.0671, 8798.433
288.5492, 8789.791
289.0313, 8785.998
289.5135, 8789.857
289.9956, 8798.744
290.4777, 8808.809
290.9598, 8820.126
291.4419, 8827.180
291.9240, 8823.228
292.4062, 8810.537
292.8883, 8798.799
293.3704, 8789.967
293.8525, 8782.902
294.3346, 8775.565
294.8167, 8768.037
295.2989, 8760.603
295.7810, 8753.760
296.2631, 8747.236
296.7452, 8739.957
297.2273, 8731.384
297.7094, 8722.651
298.1916, 8715.013
298.6737, 8708.516
299.1558, 8703.021
299.6379, 8700.240
300.1200, 8698.158
300.6021, 8693.021
301.0843, 8684.071
301.5664, 8672.090
302.0485, 8651.800
302.5306, 8626.942
303.0127, 8612.999
303.4948, 8637.752
303.9770, 8672.657
304.4591, 8675.842
304.9412, 8631.283
305.4233, 8578.493
305.9054, 8553.166
306.3875, 8548.247
306.8697, 8544.245
307.3518, 8536.261
307.8339, 8521.211
308.3160, 8493.556
308.7981, 8449.329
309.2802, 8404.542
309.7624, 8368.856
310.2445, 8341.537
310.7266, 8321.598
311.2087, 8316.710
311.6908, 8313.585
312.1729, 8301.729
312.6551, 8278.495
313.1372, 8253.255
313.6193, 8225.794
314.1014, 8200.575
314.5835, 8184.805
315.0656, 8201.857
315.5478, 8212.929
316.0299, 8190.096
316.5120, 8124.992
316.9941, 8070.035
317.4762, 8057.364
317.9583, 8062.616
318.4405, 8057.130
318.9226, 8014.420
319.4047, 7975.838
319.8868, 7963.451
320.3690, 7981.449
320.8511, 7984.765
321.3332, 7951.337
321.8153, 7903.070
322.2974, 7860.386
322.7795, 7822.538
323.2617, 7794.962
323.7438, 7782.021
324.2259, 7784.011
324.7080, 7785.838
325.1901, 7788.556
325.6722, 7789.050
326.1544, 7785.040
326.6365, 7778.325
327.1186, 7764.912
327.6007, 7740.495
328.0828, 7706.375
328.5649, 7678.348
329.0471, 7657.119
329.5292, 7641.404
330.0113, 7630.706
330.4934, 7627.982
330.9755, 7625.479
331.4576, 7623.233
331.9398, 7620.955
332.4219, 7616.782
332.9040, 7607.553
333.3861, 7600.638
333.8682, 7600.873
334.3503, 7612.948
334.8325, 7619.601
335.3146, 7618.210
335.7967, 7612.029
336.2788, 7608.876
336.7609, 7607.995
337.2430, 7611.955
337.7252, 7624.557
338.2073, 7648.971
338.6894, 7661.666
339.1715, 7657.208
339.6536, 7648.272
340.1357, 7662.085
340.6179, 7703.918
341.1000, 7736.574
341.5821, 7737.790
342.0642, 7709.990
342.5463, 7703.132
343.0284, 7721.290
343.5106, 7748.008
343.9927, 7761.261
344.4748, 7761.662
344.9569, 7762.590
345.4390, 7769.890
345.9211, 7781.288
346.4033, 7789.691
346.8854, 7795.109
347.3675, 7797.293
347.8496, 7791.955
348.3317, 7782.120
348.8138, 7779.591
349.2960, 7793.327
349.7781, 7812.226
350.2602, 7813.743
350.7423, 7799.429
351.2244, 7791.049
351.7065, 7816.955
352.1887, 7858.741
352.6708, 7881.299
353.1529, 7868.022
353.6350, 7844.588
354.1171, 7833.955
354.5992, 7834.537
355.0814, 7840.544
355.5635, 7853.749
356.0456, 7868.131
356.5277, 7877.702
357.0098, 7881.313
357.4919, 7880.135
357.9741, 7873.218
358.4562, 7862.132
358.9383, 7850.008
359.4204, 7835.110
359.9025, 7821.935
360.3846, 7816.295
360.8668, 7822.580
361.3489, 7819.500
361.8310, 7785.596
362.3131, 7740.858
362.7952, 7712.046
363.2773, 7728.214
363.7595, 7741.965
364.2416, 7734.625
364.7237, 7702.836
365.2058, 7673.500
365.6879, 7644.538
366.1700, 7623.336
366.6522, 7616.546
367.1343, 7649.991
367.6164, 7670.266
368.0985, 7665.674
368.5806, 7637.681
369.0627, 7611.644
369.5449, 7581.573
370.0270, 7558.644
370.5091, 7550.435
370.9912, 7570.387
371.4733, 7580.061
371.9554, 7569.644
372.4376, 7547.885
372.9197, 7548.840
373.4018, 7588.163
373.8839, 7621.236
374.3660, 7620.562
374.8481, 7572.678
375.3303, 7553.471
375.8124, 7574.750
376.2945, 7612.842
376.7766, 7622.277
377.2587, 7597.271
377.7408, 7576.636
378.2230, 7578.668
378.7051, 7601.327
379.1872, 7617.261
379.6693, 7624.947
380.1514, 7631.287
380.6335, 7647.086
381.1157, 7671.000
381.5978, 7687.727
382.0799, 7687.546
382.5620, 7679.333
383.0442, 7687.291
383.5263, 7711.269
384.0084, 7732.333
384.4905, 7726.885
384.9726, 7706.918
385.4547, 7701.748
385.9369, 7723.606
386.4190, 7753.908
386.9011, 7773.031
387.3832, 7782.732
387.8653, 7789.282
388.3474, 7791.661
388.8296, 7795.164
389.3117, 7806.174
389.7938, 7827.146
390.2759, 7850.363
390.7580, 7873.164
391.2401, 7894.780
391.7223, 7913.996
392.2044, 7930.343
392.6865, 7944.070
393.1686, 7954.049
393.6507, 7959.323
394.1328, 7967.456
394.6150, 7985.001
395.0971, 8004.848
395.5792, 8019.937
396.0613, 8023.791
396.5434, 8028.017
397.0255, 8035.070
397.5077, 8044.876
397.9898, 8055.738
398.4719, 8066.548
398.9540, 8079.116
399.4361, 8094.830
399.9182, 8121.804
400.4004, 8139.113
400.8825, 8138.778
401.3646, 8128.975
401.8467, 8135.567
402.3288, 8167.862
402.8109, 8199.923
403.2931, 8219.573
403.7752, 8223.108
404.2573, 8233.730
404.7394, 8253.860
405.2215, 8277.798
405.7036, 8297.150
406.1858, 8311.496
406.6679, 8323.800
407.1500, 8333.825
407.6321, 8342.390
408.1142, 8357.590
408.5963, 8381.178
409.0785, 8398.494
409.5606, 8391.108
410.0427, 8363.330
410.5248, 8336.952
411.0069, 8313.931
411.4890, 8298.193
411.9712, 8300.400
412.4533, 8318.245
412.9354, 8337.283
413.4175, 8350.280
413.8996, 8357.419
414.3817, 8358.442
414.8639, 8353.022
415.3460, 8342.539
415.8281, 8321.936
416.3102, 8297.438
416.7923, 8281.116
417.2744, 8290.768
417.7566, 8301.654
418.2387, 8295.657
418.7208, 8271.290
419.2029, 8247.267
419.6850, 8231.608
420.1671, 8219.880
420.6493, 8207.694
421.1314, 8197.786
421.6135, 8183.406
422.0956, 8158.343
422.5777, 8125.610
423.0598, 8100.366
423.5420, 8093.174
424.0241, 8087.300
424.5062, 8074.705
424.9883, 8049.783
425.4704, 8028.226
425.9525, 8008.021
426.4347, 7991.724
426.9168, 7986.432
427.3989, 8005.220
427.8810, 8009.147
428.3631, 7979.299
428.8452, 7913.800
429.3274, 7874.983
429.8095, 7869.923
430.2916, 7877.896
430.7737, 7878.208
431.2558, 7870.186
431.7379, 7867.102
432.2201, 7874.060
432.7022, 7885.867
433.1843, 7887.458
433.6664, 7878.825
434.1485, 7869.799
434.6306, 7868.223
435.1128, 7871.483
435.5949, 7872.452
436.0770, 7870.341
436.5591, 7865.914
437.0412, 7860.364
437.5233, 7853.271
438.0055, 7843.600
438.4876, 7821.052
438.9697, 7801.713
439.4518, 7806.800
439.9339, 7836.004
440.4160, 7861.152
440.8982, 7863.587
441.3803, 7854.467
441.8624, 7844.779
442.3445, 7835.773
442.8266, 7828.749
443.3088, 7824.202
443.7909, 7821.998
444.2730, 7821.750
444.7551, 7822.290
445.2372, 7825.622
445.7194, 7834.553
446.2015, 7857.042
446.6836, 7865.748
447.1657, 7846.437
447.6478, 7819.622
448.1299, 7812.398
448.6121, 7839.397
449.0942, 7861.121
449.5763, 7866.491
450.0584, 7856.965
450.5405, 7857.788
451.0226, 7872.912
451.5048, 7889.732
451.9869, 7897.806
452.4690, 7896.105
452.9511, 7897.466
453.4332, 7903.294
453.9153, 7912.741
454.3975, 7925.473
454.8796, 7941.416
455.3617, 7955.771
455.8438, 7965.794
456.3259, 7972.490
456.8080, 7981.100
457.2902, 7992.223
457.7723, 7996.315
458.2544, 7971.350
458.7365, 7934.163
459.2186, 7917.803
459.7007, 7943.183
460.1829, 7982.239
460.6650, 8019.053
461.1471, 8051.722
461.6292, 8072.328
462.1113, 8067.185
462.5934, 8055.199
463.0756, 8050.627
463.5577, 8059.558
464.0398, 8064.350
464.5219, 8050.910
465.0040, 8032.594
465.4861, 8028.282
465.9683, 8051.230
466.4504, 8077.612
466.9325, 8106.666
467.4146, 8138.285
467.8967, 8155.788
468.3788, 8149.417
468.8610, 8139.455
469.3431, 8139.095
469.8252, 8151.165
470.3073, 8164.722
470.7894, 8178.994
471.2715, 8194.422
471.7537, 8214.581
472.2358, 8241.403
472.7179, 8260.276
473.2000, 8259.697
473.6821, 8243.783
474.1642, 8240.954
474.6464, 8252.424
475.1285, 8267.527
475.6106, 8272.457
476.0927, 8271.843
476.5748, 8281.372
477.0569, 8310.581
477.5391, 8343.450
478.0212, 8360.536
478.5033, 8364.783
478.9854, 8366.966
479.4675, 8364.637
479.9496, 8368.154
480.4318, 8391.397
480.9139, 8440.371
481.3960, 8481.287
481.8781, 8492.320
482.3602, 8489.238
482.8423, 8490.274
483.3245, 8511.073
483.8066, 8524.641
484.2887, 8516.700
484.7708, 8490.867
485.2529, 8482.417
485.7350, 8505.759
486.2172, 8533.318
486.6993, 8553.306
487.1814, 8563.931
487.6635, 8570.661
488.1456, 8571.337
488.6277, 8570.186
489.1099, 8575.312
489.5920, 8589.392
490.0741, 8596.475
490.5562, 8589.396
491.0383, 8572.026
491.5204, 8561.135
492.0026, 8556.656
492.4847, 8558.427
492.9668, 8566.217
493.4489, 8580.047
493.9310, 8604.250
494.4131, 8643.943
494.8953, 8678.096
495.3774, 8675.897
495.8595, 8648.782
496.3416, 8624.965
496.8237, 8624.142
497.3058, 8626.239
497.7880, 8611.075
498.2701, 8579.760
498.7522, 8557.615
499.2343, 8564.862
499.7164, 8581.300
500.1985, 8591.463
500.6807, 8584.723
501.1628, 8582.858
501.6449, 8591.375
502.1270, 8606.998
502.6091, 8622.799
503.0912, 8641.688
503.5734, 8656.886
504.0555, 8663.457
504.5376, 8660.501
505.0197, 8674.906
505.5019, 8720.326
505.9840, 8758.958
506.4661, 8750.078
506.9482, 8686.022
507.4303, 8648.555
507.9124, 8651.150
508.3946, 8679.373
508.8767, 8717.751
509.3588, 8763.748
509.8409, 8787.124
510.3230, 8745.474
510.8051, 8678.339
511.2873, 8674.084
511.7694, 8733.308
512.2515, 8795.108
512.7336, 8813.874
513.2157, 8806.894
513.6978, 8795.142
514.1799, 8780.040
514.6620, 8768.033
515.1442, 8764.127
515.6263, 8765.870
516.1084, 8767.960
516.5905, 8762.192
517.0726, 8762.444
517.5547, 8781.153
518.0369, 8824.053
518.5190, 8841.685
519.0011, 8808.118
519.4832, 8768.475
519.9653, 8755.691
520.4474, 8786.345
520.9296, 8805.844
521.4117, 8807.409
521.8938, 8798.291
522.3759, 8794.531
522.8580, 8797.006
523.3401, 8799.717
523.8223, 8798.366
524.3044, 8794.968
524.7865, 8803.063
525.2686, 8823.499
525.7507, 8840.471
526.2328, 8830.547
526.7150, 8807.275
527.1971, 8804.082
527.6792, 8835.844
528.1613, 8870.052
528.6434, 8876.159
529.1255, 8862.619
529.6077, 8847.748
530.0898, 8834.964
530.5719, 8827.087
531.0540, 8827.064
531.5361, 8834.940
532.0182, 8843.256
532.5004, 8847.180
532.9825, 8852.773
533.4646, 8864.257
533.9467, 8894.301
534.4288, 8911.167
534.9109, 8906.777
535.3931, 8893.059
535.8752, 8892.181
536.3574, 8910.114
536.8395, 8924.510
537.3216, 8927.880
537.8037, 8922.253
538.2858, 8920.537
538.7679, 8922.707
539.2501, 8928.906
539.7322, 8943.927
540.2143, 8963.892
540.6964, 8970.116
541.1785, 8956.945
541.6606, 8945.614
542.1428, 8966.074
542.6249, 9006.136
543.1070, 9039.571
543.5891, 9056.438
544.0712, 9061.989
544.5533, 9051.300
545.0355, 9028.980
545.5176, 9018.836
545.9997, 9041.081
546.4818, 9070.103
546.9639, 9092.774
547.4460, 9108.981
547.9282, 9114.949
548.4103, 9103.809
548.8924, 9086.293
549.3745, 9073.016
549.8566, 9064.669
550.3387, 9058.813
550.8209, 9053.627
551.3030, 9051.159
551.7851, 9062.083
552.2672, 9089.559
552.7493, 9111.537
553.2314, 9110.108
553.7136, 9091.230
554.1957, 9092.114
554.6778, 9115.384
555.1599, 9134.182
555.6420, 9117.651
556.1241, 9078.297
556.6063, 9038.158
557.0884, 8996.645
557.5705, 8968.543
558.0526, 8974.596
558.5347, 9002.873
559.0168, 9027.120
559.4990, 9027.966
559.9811, 9029.638
560.4632, 9049.531
560.9453, 9089.724
561.4274, 9108.653
561.9095, 9072.278
562.3917, 9034.310
562.8738, 9026.688
563.3559, 9071.003
563.8380, 9096.747
564.3201, 9095.324
564.8022, 9082.912
565.2844, 9087.308
565.7665, 9111.708
566.2486, 9128.257
566.7307, 9125.482
567.2128, 9111.405
567.6949, 9112.100
568.1771, 9126.396
568.6592, 9135.180
569.1413, 9115.143
569.6234, 9085.110
570.1055, 9074.594
570.5876, 9087.591
571.0698, 9110.823
571.5519, 9150.109
572.0340, 9188.706
572.5161, 9206.502
572.9982, 9175.657
573.4803, 9148.200
573.9625, 9142.730
574.4446, 9152.090
574.9267, 9156.039
575.4088, 9152.233
575.8909, 9143.315
576.3730, 9126.487
576.8552, 9101.029
577.3373, 9089.787
577.8194, 9095.516
578.3015, 9109.930
578.7836, 9132.460
579.2657, 9162.947
579.7479, 9174.001
580.2300, 9158.935
580.7121, 9136.402
581.1942, 9135.114
581.6763, 9149.687
582.1584, 9160.652
582.6406, 9161.031
583.1227, 9153.646
583.6048, 9136.943
584.0869, 9113.495
584.5690, 9094.323
585.0511, 9087.373
585.5333, 9084.794
586.0154, 9082.601
586.4975, 9080.903
586.9796, 9076.626
587.4617, 9069.886
587.9438, 9059.868
588.4260, 9044.855
588.9081, 9014.906
589.3902, 8998.990
589.8723, 9002.771
590.3544, 9019.296
590.8365, 9037.186
591.3187, 9058.521
591.8008, 9066.463
592.2829, 9046.054
592.7650, 9010.135
593.2471, 9005.771
593.7292, 9032.160
594.2114, 9059.877
594.6935, 9067.550
595.1756, 9062.998
595.6577, 9056.851
596.1398, 9050.085
596.6219, 9044.091
597.1041, 9038.020
597.5862, 9033.918
598.0683, 9034.093
598.5504, 9048.562
599.0325, 9056.834
599.5146, 9042.445
599.9968, 9017.723
600.4789, 9020.846
600.9610, 9081.850
601.4431, 9126.520
601.9252, 9124.889
602.4073, 9079.503
602.8895, 9064.960
603.3716, 9088.795
603.8537, 9117.152
604.3358, 9121.953
604.8179, 9107.348
605.3000, 9101.769
605.7822, 9109.377
606.2643, 9118.824
606.7464, 9115.876
607.2285, 9105.734
607.7106, 9098.797
608.1927, 9098.342
608.6749, 9102.654
609.1570, 9115.908
609.6391, 9133.638
610.1212, 9143.039
610.6033, 9132.391
611.0854, 9119.854
611.5676, 9110.570
612.0497, 9104.412
612.5318, 9107.557
613.0139, 9125.530
613.4960, 9146.072
613.9781, 9161.799
614.4603, 9172.734
614.9424, 9178.037
615.4245, 9175.829
615.9066, 9172.293
616.3887, 9176.353
616.8708, 9186.980
617.3530, 9197.425
617.8351, 9205.764
618.3172, 9212.946
618.7993, 9220.151
619.2814, 9227.225
619.7635, 9233.792
620.2457, 9241.010
620.7278, 9246.570
621.2099, 9247.559
621.6920, 9244.036
622.1741, 9243.032
622.6563, 9241.964
623.1384, 9247.465
623.6205, 9265.246
624.1026, 9305.134
624.5847, 9330.753
625.0668, 9335.654
625.5490, 9333.837
626.0311, 9343.668
626.5132, 9367.115
626.9953, 9381.043
627.4774, 9378.075
627.9595, 9368.327
628.4417, 9373.650
628.9238, 9390.834
629.4059, 9402.657
629.8880, 9392.169
630.3701, 9377.527
630.8522, 9383.174
631.3344, 9405.854
631.8165, 9420.995
632.2986, 9404.888
632.7807, 9385.391
633.2628, 9379.094
633.7449, 9387.604
634.2271, 9410.771
634.7092, 9469.219
635.1913, 9527.203
635.6734, 9553.315
636.1555, 9535.083
636.6376, 9519.960
637.1198, 9513.520
637.6019, 9510.021
638.0840, 9492.313
638.5661, 9461.454
639.0482, 9451.734
639.5303, 9489.854
640.0125, 9543.748
640.4946, 9549.360
640.9767, 9516.713
641.4588, 9492.340
641.9409, 9515.652
642.4230, 9550.258
642.9052, 9563.531
643.3873, 9551.813
643.8694, 9550.919
644.3515, 9593.677
644.8336, 9636.798
645.3157, 9646.728
645.7979, 9592.153
646.2800, 9569.638
646.7621, 9591.479
647.2442, 9633.098
647.7263, 9664.419
648.2084, 9685.479
648.6906, 9697.878
649.1727, 9701.533
649.6548, 9697.218
650.1369, 9678.977
650.6190, 9651.246
651.1011, 9634.939
651.5833, 9645.177
652.0654, 9669.337
652.5475, 9702.817
653.0296, 9742.367
653.5117, 9767.662
653.9938, 9748.110
654.4760, 9728.007
654.9581, 9737.072
655.4402, 9788.807
655.9223, 9827.016
656.4044, 9847.171
656.8865, 9855.362
657.3687, 9852.326
657.8508, 9831.595
658.3329, 9829.734
658.8150, 9854.940
659.2971, 9888.337
659.7793, 9898.056
660.2614, 9888.135
660.7435, 9886.938
661.2256, 9910.352
661.7078, 9936.782
