##NAMES=Katayamalite
##RRUFFID=R070147
##IDEAL CHEMISTRY=KLi_3_Ca_7_Ti^4+^_2_(SiO_3_)_12_(OH)_2_
##LOCALITY=Dara-i-Pioz, Hait, Alayskiy (Alay; Alai) Range, South Tien-Shan Mts., Tajikistan
##OWNER=RRUFF
##SOURCE=Michael Scott
##DESCRIPTION=Light tan colored platy massive
##STATUS=The identification of this mineral is confirmed by single-crystal X-ray diffraction and chemical analysis.
##URL=rruff.info/R070147
##MEASURED CHEMISTRY=(K_0.90_Na_0.07_)Li_3.08_(Ca_6.89_Mn_0.02_Ba_0.02_)(Ti_1.67_Zr_0.17_Sn_0.13_Fe_0.06_Al_0.01_)(SiO_3_)_12_(OH_1.05_F_0.95_)
194.5915, 7428.452
195.0736, 7460.811
195.5557, 7494.289
196.0378, 7515.824
196.5199, 7513.240
197.0020, 7516.999
197.4842, 7542.973
197.9663, 7584.702
198.4484, 7628.826
198.9305, 7667.355
199.4126, 7702.295
199.8947, 7743.688
200.3769, 7797.072
200.8590, 7848.120
201.3411, 7884.885
201.8232, 7916.660
202.3053, 7959.386
202.7874, 8026.217
203.2696, 8107.245
203.7517, 8171.474
204.2338, 8215.418
204.7159, 8246.918
205.1980, 8260.728
205.6801, 8268.353
206.1623, 8285.812
206.6444, 8322.371
207.1265, 8370.420
207.6086, 8410.918
208.0907, 8439.889
208.5728, 8469.285
209.0549, 8496.280
209.5371, 8527.959
210.0192, 8574.400
210.5013, 8641.565
210.9834, 8718.556
211.4655, 8784.291
211.9476, 8835.607
212.4298, 8882.282
212.9119, 8922.178
213.3940, 8961.303
213.8761, 9006.553
214.3582, 9060.705
214.8403, 9115.041
215.3225, 9152.839
215.8046, 9166.945
216.2867, 9187.405
216.7688, 9237.454
217.2509, 9285.629
217.7330, 9310.691
218.2152, 9307.414
218.6973, 9281.851
219.1794, 9241.167
219.6615, 9185.938
220.1436, 9112.688
220.6257, 8999.569
221.1079, 8883.078
221.5900, 8783.759
222.0721, 8704.242
222.5542, 8631.604
223.0363, 8552.138
223.5184, 8464.131
224.0006, 8381.349
224.4827, 8306.246
224.9648, 8235.477
225.4469, 8166.847
225.9290, 8100.898
226.4111, 8038.633
226.8933, 7981.084
227.3754, 7928.227
227.8575, 7882.600
228.3396, 7855.082
228.8217, 7823.188
229.3038, 7763.386
229.7860, 7687.996
230.2681, 7632.891
230.7502, 7636.854
231.2323, 7689.607
231.7144, 7706.950
232.1965, 7664.424
232.6787, 7617.980
233.1608, 7590.935
233.6429, 7578.021
234.1250, 7568.069
234.6071, 7553.621
235.0892, 7538.085
235.5714, 7534.073
236.0535, 7547.732
236.5356, 7561.515
237.0177, 7565.534
237.4998, 7566.348
237.9819, 7572.732
238.4641, 7589.025
238.9462, 7611.633
239.4283, 7633.112
239.9104, 7651.115
240.3925, 7674.909
240.8746, 7719.758
241.3568, 7766.223
241.8389, 7792.416
242.3210, 7788.334
242.8031, 7777.834
243.2852, 7794.044
243.7673, 7841.414
244.2495, 7888.322
244.7316, 7922.656
245.2137, 7955.307
245.6958, 7999.073
246.1779, 8056.688
246.6600, 8107.110
247.1422, 8122.346
247.6243, 8102.964
248.1064, 8101.579
248.5885, 8141.017
249.0706, 8189.850
249.5527, 8223.245
250.0349, 8241.271
250.5170, 8258.180
250.9991, 8284.386
251.4812, 8318.055
251.9633, 8348.065
252.4454, 8367.678
252.9276, 8392.900
253.4097, 8440.190
253.8918, 8503.785
254.3739, 8562.521
254.8560, 8606.937
255.3382, 8639.441
255.8203, 8663.444
256.3024, 8676.315
256.7845, 8688.602
257.2666, 8707.389
257.7487, 8730.616
258.2308, 8755.803
258.7130, 8791.790
259.1951, 8822.989
259.6772, 8827.223
260.1593, 8802.709
260.6414, 8769.051
261.1235, 8732.224
261.6057, 8694.051
262.0878, 8657.650
262.5699, 8626.030
263.0520, 8592.583
263.5341, 8555.787
264.0162, 8514.563
264.4984, 8455.405
264.9805, 8359.298
265.4626, 8255.764
265.9447, 8196.702
266.4268, 8194.333
266.9089, 8192.170
267.3911, 8159.949
267.8732, 8107.143
268.3553, 8057.538
268.8374, 8018.000
269.3195, 7982.250
269.8016, 7939.363
270.2838, 7888.952
270.7659, 7844.524
271.2480, 7810.766
271.7301, 7784.511
272.2122, 7759.548
272.6943, 7734.371
273.1765, 7718.471
273.6586, 7726.842
274.1407, 7760.217
274.6228, 7774.377
275.1049, 7751.018
275.5870, 7719.721
276.0692, 7700.756
276.5513, 7694.922
277.0334, 7697.225
277.5155, 7705.811
277.9976, 7719.891
278.4797, 7731.389
278.9619, 7739.003
279.4440, 7745.777
279.9261, 7751.374
280.4082, 7757.060
280.8903, 7765.560
281.3724, 7778.357
281.8546, 7794.418
282.3367, 7810.906
282.8188, 7832.124
283.3009, 7847.763
283.7830, 7850.982
284.2651, 7850.270
284.7473, 7857.526
285.2294, 7875.889
285.7115, 7895.564
286.1936, 7899.499
286.6757, 7868.930
287.1578, 7868.146
287.6400, 7924.688
288.1221, 7987.662
288.6042, 8021.233
289.0863, 8024.631
289.5684, 8020.723
290.0505, 8031.096
290.5327, 8056.880
291.0148, 8086.233
291.4969, 8123.509
291.9790, 8159.839
292.4611, 8194.396
292.9432, 8225.530
293.4254, 8250.109
293.9075, 8265.256
294.3896, 8273.751
294.8717, 8289.903
295.3538, 8326.572
295.8359, 8353.276
296.3181, 8363.625
296.8002, 8363.037
297.2823, 8355.899
297.7644, 8343.907
298.2465, 8328.909
298.7286, 8315.033
299.2108, 8305.220
299.6929, 8287.854
300.1750, 8251.588
300.6571, 8215.236
301.1392, 8191.645
301.6213, 8181.117
302.1035, 8173.994
302.5856, 8165.602
303.0677, 8156.264
303.5498, 8126.602
304.0319, 8055.558
304.5140, 7988.455
304.9962, 7951.730
305.4783, 7936.598
305.9604, 7920.061
306.4425, 7885.614
306.9246, 7842.754
307.4067, 7819.136
307.8889, 7824.469
308.3710, 7821.362
308.8531, 7776.798
309.3352, 7718.094
309.8173, 7677.688
310.2994, 7666.666
310.7816, 7668.446
311.2637, 7671.625
311.7458, 7675.608
312.2279, 7667.649
312.7100, 7636.129
313.1921, 7597.681
313.6743, 7575.228
314.1564, 7570.688
314.6385, 7566.319
315.1206, 7549.764
315.6027, 7528.031
316.0848, 7517.092
316.5670, 7521.361
317.0491, 7529.357
317.5312, 7529.102
318.0133, 7521.186
318.4954, 7515.324
318.9775, 7518.716
319.4597, 7520.365
319.9418, 7505.597
320.4239, 7477.198
320.9060, 7457.058
321.3881, 7462.255
321.8702, 7487.073
322.3524, 7497.878
322.8345, 7486.001
323.3166, 7472.619
323.7987, 7462.000
324.2808, 7454.410
324.7629, 7448.735
325.2451, 7444.368
325.7272, 7445.385
326.2093, 7460.823
326.6914, 7512.697
327.1735, 7537.959
327.6556, 7519.519
328.1378, 7487.654
328.6199, 7462.526
329.1020, 7447.134
329.5841, 7434.064
330.0662, 7414.375
330.5483, 7386.045
331.0305, 7375.743
331.5126, 7395.290
331.9947, 7420.492
332.4768, 7453.898
332.9589, 7486.724
333.4410, 7503.949
333.9232, 7495.591
334.4053, 7472.210
334.8874, 7466.565
335.3695, 7494.248
335.8516, 7508.006
336.3337, 7489.868
336.8159, 7462.017
337.2980, 7440.331
337.7801, 7428.700
338.2622, 7424.699
338.7443, 7425.251
339.2264, 7430.244
339.7086, 7445.364
340.1907, 7484.185
340.6728, 7517.548
341.1549, 7525.451
341.6370, 7513.166
342.1191, 7498.636
342.6013, 7486.031
343.0834, 7478.724
343.5655, 7486.000
344.0476, 7510.356
344.5297, 7536.087
345.0118, 7553.516
345.4940, 7567.314
345.9761, 7586.628
346.4582, 7617.298
346.9403, 7644.676
347.4224, 7651.317
347.9045, 7645.095
348.3867, 7653.967
348.8688, 7689.171
349.3509, 7736.847
349.8330, 7778.387
350.3151, 7814.149
350.7972, 7844.488
351.2794, 7858.117
351.7615, 7873.230
352.2436, 7909.257
352.7257, 7966.944
353.2078, 8033.645
353.6899, 8101.225
354.1721, 8169.219
354.6542, 8227.962
355.1363, 8266.392
355.6184, 8309.860
356.1005, 8370.732
356.5826, 8440.848
357.0648, 8506.297
357.5469, 8561.292
358.0290, 8610.176
358.5111, 8661.155
358.9932, 8711.138
359.4753, 8770.043
359.9575, 8839.329
360.4396, 8915.111
360.9217, 8996.326
361.4038, 9081.780
361.8859, 9168.488
362.3680, 9252.253
362.8502, 9333.312
363.3322, 9425.425
363.8144, 9536.974
364.2965, 9648.564
364.7786, 9758.473
365.2607, 9862.330
365.7428, 9950.832
366.2249, 10014.49
366.7071, 10075.87
367.1892, 10177.16
367.6713, 10324.66
368.1534, 10448.10
368.6355, 10521.53
369.1176, 10568.76
369.5998, 10611.16
370.0819, 10649.24
370.5640, 10688.43
371.0461, 10732.52
371.5282, 10779.66
372.0103, 10827.64
372.4925, 10877.09
372.9746, 10920.76
373.4567, 10948.39
373.9388, 10964.28
374.4209, 10993.22
374.9030, 11045.17
375.3852, 11101.77
375.8673, 11158.25
376.3494, 11211.67
376.8315, 11252.75
377.3136, 11276.18
377.7957, 11292.18
378.2779, 11321.86
378.7600, 11383.32
379.2421, 11423.80
379.7242, 11443.51
380.2063, 11441.12
380.6884, 11413.23
381.1706, 11361.01
381.6527, 11291.10
382.1348, 11209.58
382.6169, 11116.39
383.0990, 11001.08
383.5811, 10839.95
384.0633, 10683.18
384.5454, 10545.26
385.0275, 10415.69
385.5096, 10276.56
385.9917, 10120.86
386.4738, 9969.152
386.9560, 9855.172
387.4381, 9785.912
387.9202, 9718.612
388.4023, 9651.380
388.8844, 9581.397
389.3665, 9501.798
389.8487, 9416.075
390.3308, 9340.217
390.8129, 9281.453
391.2950, 9238.855
391.7771, 9215.094
392.2592, 9213.643
392.7414, 9208.296
393.2235, 9183.774
393.7056, 9146.248
394.1877, 9108.334
394.6698, 9064.640
395.1519, 9031.756
395.6341, 9025.006
396.1162, 9033.875
396.5983, 9038.568
397.0804, 9034.231
397.5625, 9024.348
398.0446, 9013.640
398.5268, 9003.188
399.0089, 8982.560
399.4910, 8936.279
399.9731, 8894.760
400.4552, 8886.654
400.9373, 8896.944
401.4195, 8886.222
401.9016, 8831.063
402.3837, 8747.432
402.8658, 8682.461
403.3479, 8650.549
403.8300, 8615.305
404.3122, 8569.858
404.7943, 8523.813
405.2764, 8483.238
405.7585, 8449.082
406.2406, 8419.703
406.7227, 8394.699
407.2049, 8373.671
407.6870, 8351.568
408.1691, 8327.885
408.6512, 8303.767
409.1333, 8276.354
409.6154, 8249.881
410.0976, 8230.804
410.5797, 8222.549
411.0618, 8218.113
411.5439, 8209.370
412.0260, 8197.619
412.5081, 8192.994
412.9903, 8201.974
413.4724, 8211.537
413.9545, 8200.520
414.4366, 8170.367
414.9187, 8152.240
415.4008, 8160.771
415.8830, 8176.914
416.3651, 8186.387
416.8472, 8188.878
417.3293, 8187.694
417.8114, 8184.576
418.2935, 8179.444
418.7757, 8172.048
419.2578, 8167.173
419.7399, 8153.440
420.2220, 8125.314
420.7041, 8091.326
421.1862, 8054.750
421.6684, 8018.484
422.1505, 7989.635
422.6326, 7975.867
423.1147, 7977.125
423.5968, 7982.295
424.0789, 7999.782
424.5611, 8009.565
425.0432, 7996.471
425.5253, 7976.423
426.0074, 7971.214
426.4895, 7989.423
426.9716, 8014.762
427.4538, 8030.462
427.9359, 8036.666
428.4180, 8032.559
428.9001, 8009.039
429.3822, 7989.183
429.8643, 8002.332
430.3465, 8040.357
430.8286, 8063.689
431.3107, 8042.736
431.7928, 8017.124
432.2749, 8027.051
432.7570, 8066.890
433.2392, 8104.598
433.7213, 8124.231
434.2034, 8135.727
434.6855, 8163.349
435.1676, 8228.511
435.6497, 8267.702
436.1319, 8247.037
436.6140, 8221.455
437.0961, 8235.695
437.5782, 8289.052
438.0603, 8354.206
438.5424, 8410.538
439.0246, 8458.898
439.5067, 8505.083
439.9888, 8552.486
440.4709, 8591.455
440.9530, 8614.639
441.4352, 8632.944
441.9173, 8653.717
442.3994, 8679.178
442.8815, 8714.556
443.3636, 8770.514
443.8457, 8843.150
444.3279, 8907.267
444.8100, 8961.268
445.2921, 9007.034
445.7742, 9035.279
446.2563, 9057.246
446.7384, 9098.812
447.2206, 9180.793
447.7027, 9260.438
448.1848, 9301.452
448.6669, 9318.943
449.1490, 9352.571
449.6311, 9416.090
450.1133, 9483.038
450.5954, 9518.563
451.0775, 9513.076
451.5596, 9518.421
452.0417, 9546.669
452.5238, 9572.921
453.0060, 9579.729
453.4881, 9576.183
453.9702, 9582.923
454.4523, 9610.475
454.9344, 9647.379
455.4165, 9671.363
455.8987, 9685.651
456.3808, 9677.376
456.8629, 9624.204
457.3450, 9565.226
457.8271, 9516.778
458.3092, 9479.593
458.7914, 9450.741
459.2735, 9433.763
459.7556, 9420.478
460.2377, 9395.172
460.7198, 9357.521
461.2019, 9315.736
461.6841, 9269.280
462.1662, 9224.355
462.6483, 9192.475
463.1304, 9177.279
463.6125, 9156.032
464.0946, 9118.469
464.5768, 9074.371
465.0589, 9034.025
465.5410, 8997.631
466.0231, 8957.294
466.5052, 8905.467
466.9873, 8847.481
467.4695, 8811.257
467.9516, 8826.429
468.4337, 8824.325
468.9158, 8785.885
469.3979, 8738.637
469.8800, 8705.226
470.3622, 8688.088
470.8443, 8676.810
471.3264, 8663.329
471.8085, 8647.671
472.2906, 8626.920
472.7727, 8593.397
473.2549, 8573.035
473.7370, 8591.674
474.2191, 8623.524
474.7012, 8640.320
475.1833, 8635.649
475.6654, 8628.255
476.1476, 8627.563
476.6297, 8632.673
477.1118, 8642.051
477.5939, 8655.486
478.0760, 8672.479
478.5581, 8691.967
479.0403, 8714.493
479.5224, 8746.435
480.0045, 8791.299
480.4866, 8839.355
480.9687, 8884.776
481.4508, 8934.211
481.9330, 8997.232
482.4151, 9075.159
482.8972, 9158.399
483.3793, 9239.033
483.8614, 9316.730
484.3435, 9386.031
484.8257, 9440.049
485.3078, 9494.931
485.7899, 9559.313
486.2720, 9626.351
486.7541, 9690.198
487.2362, 9750.837
487.7183, 9796.994
488.2004, 9812.149
488.6826, 9804.077
489.1647, 9802.498
489.6468, 9814.049
490.1289, 9820.747
490.6110, 9810.531
491.0931, 9782.092
491.5753, 9738.575
492.0574, 9654.930
492.5395, 9585.097
493.0216, 9559.591
493.5037, 9555.230
493.9858, 9541.578
494.4680, 9510.749
494.9501, 9472.110
495.4322, 9436.348
495.9143, 9403.979
496.3964, 9368.375
496.8785, 9331.729
497.3607, 9288.894
497.8428, 9237.142
498.3249, 9179.445
498.8070, 9117.025
499.2891, 9050.036
499.7712, 8986.782
500.2534, 8938.233
500.7355, 8901.163
501.2176, 8861.691
501.6997, 8819.313
502.1818, 8769.894
502.6639, 8707.838
503.1461, 8635.559
503.6282, 8564.276
504.1103, 8483.423
504.5924, 8417.555
505.0745, 8389.372
505.5566, 8376.422
506.0388, 8343.671
506.5209, 8286.232
507.0030, 8232.147
507.4851, 8211.160
507.9672, 8223.263
508.4493, 8228.729
508.9315, 8225.354
509.4136, 8217.665
509.8957, 8209.043
510.3778, 8195.488
510.8599, 8170.352
511.3420, 8132.869
511.8242, 8094.165
512.3063, 8061.745
512.7884, 8036.151
513.2705, 8020.897
513.7526, 8017.735
514.2347, 8017.207
514.7169, 8013.286
515.1990, 8008.400
515.6811, 8010.451
516.1632, 8029.706
516.6453, 8035.050
517.1274, 7997.480
517.6096, 7952.407
518.0917, 7944.015
518.5738, 7972.663
519.0559, 8004.764
519.5380, 8014.947
520.0201, 8005.091
520.5023, 7985.434
520.9844, 7943.384
521.4665, 7913.546
521.9486, 7904.223
522.4307, 7904.881
522.9128, 7907.273
523.3950, 7911.051
523.8771, 7921.368
524.3592, 7949.836
524.8413, 7984.599
525.3234, 8000.597
525.8055, 7997.503
526.2877, 7984.627
526.7698, 7959.555
527.2519, 7933.835
527.7340, 7932.574
528.2161, 7961.409
528.6982, 7984.675
529.1804, 7994.561
529.6625, 7999.744
530.1446, 8005.117
530.6267, 8011.218
531.1088, 8017.348
531.5909, 8023.067
532.0731, 8029.272
532.5552, 8038.122
533.0373, 8050.344
533.5194, 8063.113
534.0015, 8083.167
534.4836, 8096.559
534.9658, 8088.157
535.4479, 8067.615
535.9300, 8060.303
536.4121, 8080.991
536.8942, 8110.702
537.3763, 8134.284
537.8585, 8151.046
538.3406, 8154.424
538.8227, 8140.516
539.3048, 8126.082
539.7869, 8130.413
540.2690, 8155.364
540.7512, 8172.034
541.2333, 8172.464
541.7154, 8174.880
542.1975, 8185.767
542.6796, 8201.554
543.1617, 8216.833
543.6439, 8230.502
544.1260, 8247.028
544.6081, 8275.019
545.0902, 8312.844
545.5723, 8330.954
546.0544, 8310.240
546.5366, 8314.675
547.0187, 8406.172
547.5008, 8524.109
547.9829, 8588.401
548.4650, 8581.149
548.9471, 8574.687
549.4293, 8599.570
549.9114, 8644.298
550.3935, 8694.739
550.8756, 8750.669
551.3577, 8820.576
551.8398, 8911.631
552.3220, 9016.283
552.8041, 9111.539
553.2862, 9178.065
553.7683, 9270.952
554.2504, 9410.962
554.7325, 9556.321
555.2147, 9677.236
555.6968, 9783.379
556.1789, 9906.021
556.6610, 10062.98
557.1431, 10240.13
557.6252, 10417.90
558.1074, 10597.49
558.5895, 10784.82
559.0716, 10981.94
559.5537, 11186.12
560.0358, 11394.54
560.5179, 11609.17
561.0001, 11834.59
561.4822, 12079.76
561.9643, 12326.48
562.4464, 12564.65
562.9285, 12802.70
563.4106, 13050.79
563.8928, 13311.45
564.3749, 13586.48
564.8570, 13892.46
565.3391, 14220.45
565.8212, 14468.71
566.3033, 14609.62
566.7855, 14729.44
567.2676, 14885.35
567.7497, 15017.48
568.2318, 15064.82
568.7139, 15020.52
569.1960, 14928.33
569.6782, 14802.85
570.1603, 14643.20
570.6424, 14454.54
571.1245, 14231.71
571.6066, 13940.18
572.0887, 13558.52
572.5709, 13134.09
573.0530, 12764.37
573.5351, 12467.75
574.0172, 12169.36
574.4993, 11856.42
574.9814, 11553.17
575.4636, 11266.67
575.9457, 10997.17
576.4278, 10741.37
576.9099, 10496.99
577.3920, 10279.28
577.8741, 10116.01
578.3563, 9994.427
578.8384, 9864.896
579.3205, 9720.895
579.8026, 9572.767
580.2847, 9418.683
580.7668, 9267.683
581.2490, 9163.722
581.7311, 9146.851
582.2132, 9109.904
582.6953, 9022.129
583.1774, 8921.729
583.6595, 8831.761
584.1417, 8758.043
584.6238, 8704.966
585.1059, 8680.622
585.5880, 8665.724
586.0701, 8609.053
586.5522, 8503.213
587.0344, 8420.959
587.5165, 8383.994
587.9986, 8362.547
588.4807, 8335.879
588.9628, 8303.783
589.4449, 8263.514
589.9271, 8201.204
590.4092, 8145.547
590.8913, 8119.231
591.3734, 8104.950
591.8555, 8073.791
592.3376, 8021.716
592.8198, 7969.084
593.3019, 7934.338
593.7840, 7916.214
594.2661, 7904.575
594.7482, 7899.526
595.2303, 7900.890
595.7125, 7921.778
596.1946, 7939.519
596.6767, 7934.429
597.1588, 7907.633
597.6409, 7878.475
598.1230, 7853.310
598.6052, 7831.220
599.0873, 7811.480
599.5694, 7794.124
600.0515, 7780.150
600.5336, 7770.027
601.0157, 7759.327
601.4979, 7740.478
601.9800, 7711.164
602.4621, 7700.252
602.9442, 7729.010
603.4263, 7750.338
603.9084, 7749.466
604.3906, 7739.682
604.8727, 7736.084
605.3548, 7740.584
605.8369, 7741.672
606.3190, 7726.571
606.8011, 7704.996
607.2833, 7693.085
607.7654, 7690.914
608.2475, 7696.124
608.7296, 7709.383
609.2117, 7725.000
609.6938, 7735.135
610.1760, 7741.559
610.6581, 7734.219
611.1402, 7691.702
611.6223, 7660.811
612.1044, 7668.157
612.5865, 7693.479
613.0687, 7709.059
613.5508, 7707.478
614.0329, 7700.643
614.5150, 7702.414
614.9971, 7707.834
615.4792, 7696.488
615.9614, 7666.094
616.4435, 7644.599
616.9256, 7647.445
617.4077, 7663.252
617.8898, 7672.224
618.3719, 7674.905
618.8541, 7668.566
619.3362, 7642.067
619.8183, 7617.698
620.3004, 7603.949
620.7825, 7601.362
621.2646, 7615.348
621.7468, 7646.764
622.2289, 7672.524
622.7110, 7654.234
623.1931, 7602.303
623.6752, 7589.294
624.1573, 7626.509
624.6395, 7658.578
625.1216, 7656.762
625.6037, 7634.577
626.0858, 7616.900
626.5679, 7601.627
627.0500, 7596.715
627.5322, 7612.353
628.0143, 7630.129
628.4964, 7638.917
628.9785, 7640.931
629.4606, 7641.962
629.9427, 7644.284
630.4249, 7645.833
630.9070, 7644.169
631.3891, 7639.342
631.8712, 7629.345
632.3533, 7609.547
632.8354, 7600.559
633.3176, 7619.392
633.7997, 7651.184
634.2818, 7667.218
634.7639, 7663.577
635.2460, 7661.488
635.7281, 7671.825
636.2103, 7678.826
636.6924, 7667.750
637.1745, 7645.659
637.6566, 7628.186
638.1387, 7621.384
638.6208, 7619.697
639.1030, 7615.499
639.5851, 7608.995
640.0672, 7607.080
640.5493, 7611.412
641.0314, 7615.262
641.5135, 7613.182
641.9957, 7610.277
642.4778, 7616.720
642.9599, 7635.380
643.4420, 7648.511
643.9241, 7649.756
644.4063, 7646.888
644.8884, 7643.734
645.3705, 7640.750
645.8526, 7638.109
646.3347, 7635.836
646.8168, 7633.315
647.2990, 7630.581
647.7811, 7627.397
648.2632, 7617.709
648.7453, 7597.145
649.2274, 7585.551
649.7095, 7592.417
650.1917, 7612.249
650.6738, 7639.690
651.1559, 7676.939
651.6380, 7704.269
652.1201, 7714.502
652.6022, 7718.126
653.0844, 7714.700
653.5665, 7711.239
654.0486, 7723.226
654.5307, 7753.370
655.0128, 7779.934
655.4949, 7774.223
655.9771, 7743.031
656.4592, 7727.505
656.9413, 7728.378
657.4234, 7742.528
657.9055, 7776.093
658.3876, 7814.385
658.8698, 7834.373
659.3519, 7834.994
659.8340, 7844.638
660.3161, 7876.500
660.7982, 7906.219
661.2803, 7918.500
661.7625, 7924.220
662.2446, 7940.761
662.7267, 7970.118
663.2088, 7997.018
663.6909, 8007.818
664.1730, 8006.191
664.6552, 7998.754
665.1373, 7984.286
665.6194, 7987.605
666.1015, 8022.428
666.5836, 8064.355
667.0657, 8087.829
667.5479, 8091.949
668.0300, 8093.895
668.5121, 8103.645
668.9942, 8098.787
669.4763, 8054.607
669.9584, 8005.363
670.4406, 7990.811
670.9227, 8008.282
671.4048, 8020.568
671.8868, 8001.463
672.3690, 7965.931
672.8511, 7939.479
673.3332, 7920.993
673.8153, 7900.146
674.2974, 7874.704
674.7795, 7846.263
675.2617, 7814.292
675.7438, 7780.404
676.2259, 7756.533
676.7080, 7752.920
677.1901, 7744.967
677.6722, 7729.066
678.1544, 7710.147
678.6365, 7689.491
679.1186, 7668.923
679.6007, 7649.392
680.0828, 7627.686
680.5649, 7619.594
681.0471, 7662.430
681.5292, 7729.508
682.0113, 7738.558
682.4934, 7681.463
682.9755, 7631.179
683.4576, 7635.908
683.9398, 7674.368
684.4219, 7690.172
684.9040, 7672.491
685.3861, 7656.334
685.8682, 7634.560
686.3503, 7621.962
686.8325, 7628.865
687.3146, 7647.037
