##NAMES=Katayamalite
##RRUFFID=R070147
##IDEAL CHEMISTRY=KLi_3_Ca_7_Ti^4+^_2_(SiO_3_)_12_(OH)_2_
##LOCALITY=Dara-i-Pioz, Hait, Alayskiy (Alay; Alai) Range, South Tien-Shan Mts., Tajikistan
##OWNER=RRUFF
##SOURCE=Michael Scott
##DESCRIPTION=Light tan colored platy massive
##STATUS=The identification of this mineral is confirmed by single-crystal X-ray diffraction and chemical analysis.
##URL=rruff.info/R070147
##MEASURED CHEMISTRY=(K_0.90_Na_0.07_)Li_3.08_(Ca_6.89_Mn_0.02_Ba_0.02_)(Ti_1.67_Zr_0.17_Sn_0.13_Fe_0.06_Al_0.01_)(SiO_3_)_12_(OH_1.05_F_0.95_)
193.5722, 10227.49
194.0543, 10264.63
194.5364, 10312.63
195.0185, 10352.01
195.5007, 10369.78
195.9828, 10366.64
196.4649, 10367.81
196.9470, 10372.72
197.4291, 10383.55
197.9112, 10408.00
198.3934, 10448.51
198.8755, 10485.37
199.3576, 10504.55
199.8397, 10504.49
200.3218, 10516.19
200.8039, 10542.48
201.2861, 10579.54
201.7682, 10619.05
202.2503, 10660.65
202.7324, 10706.23
203.2145, 10756.65
203.6966, 10811.86
204.1788, 10873.33
204.6609, 10942.69
205.1430, 11016.94
205.6251, 11086.73
206.1072, 11152.01
206.5893, 11212.92
207.0715, 11269.71
207.5536, 11321.82
208.0357, 11368.79
208.5178, 11406.58
208.9999, 11439.51
209.4820, 11488.01
209.9642, 11554.36
210.4463, 11631.43
210.9284, 11717.00
211.4105, 11814.12
211.8926, 11906.06
212.3748, 11991.22
212.8569, 12068.94
213.3390, 12140.57
213.8211, 12206.33
214.3032, 12264.37
214.7853, 12310.08
215.2675, 12335.64
215.7496, 12371.63
216.2317, 12433.25
216.7138, 12517.03
217.1959, 12559.01
217.6780, 12547.03
218.1602, 12510.33
218.6423, 12480.18
219.1244, 12470.58
219.6065, 12432.17
220.0886, 12345.96
220.5707, 12208.89
221.0529, 12093.78
221.5350, 12003.55
222.0171, 11929.54
222.4992, 11861.96
222.9813, 11802.62
223.4634, 11746.90
223.9456, 11692.90
224.4277, 11638.99
224.9098, 11598.85
225.3919, 11578.75
225.8740, 11565.76
226.3561, 11542.63
226.8383, 11501.13
227.3204, 11465.55
227.8025, 11443.42
228.2846, 11436.73
228.7667, 11431.02
229.2488, 11431.46
229.7310, 11428.94
230.2131, 11410.02
230.6952, 11366.94
231.1773, 11321.53
231.6594, 11280.61
232.1415, 11247.37
232.6237, 11202.50
233.1058, 11136.10
233.5879, 11064.76
234.0700, 11015.81
234.5521, 11006.95
235.0342, 10990.22
235.5164, 10943.87
235.9985, 10850.13
236.4806, 10798.66
236.9627, 10805.84
237.4448, 10845.68
237.9269, 10876.34
238.4091, 10890.36
238.8912, 10906.88
239.3733, 10934.68
239.8554, 10981.62
240.3375, 11011.72
240.8196, 11012.30
241.3018, 11002.64
241.7839, 11017.97
242.2660, 11068.64
242.7481, 11127.72
243.2302, 11187.15
243.7124, 11248.07
244.1945, 11305.12
244.6766, 11354.27
245.1587, 11401.40
245.6408, 11461.61
246.1229, 11550.49
246.6051, 11626.86
247.0872, 11669.65
247.5693, 11657.30
248.0514, 11676.07
248.5335, 11736.05
249.0156, 11823.12
249.4978, 11908.31
249.9799, 11995.02
250.4620, 12073.48
250.9441, 12135.70
251.4262, 12167.67
251.9083, 12225.90
252.3905, 12324.58
252.8726, 12442.76
253.3547, 12530.57
253.8368, 12573.07
254.3189, 12612.95
254.8010, 12669.41
255.2832, 12752.48
255.7653, 12822.44
256.2474, 12873.77
256.7295, 12914.37
257.2116, 12963.08
257.6937, 13030.08
258.1758, 13085.10
258.6580, 13111.59
259.1401, 13098.48
259.6222, 13095.26
260.1043, 13110.71
260.5865, 13130.93
261.0686, 13123.87
261.5507, 13081.73
262.0328, 13029.59
262.5149, 12979.16
262.9970, 12935.44
263.4792, 12873.31
263.9613, 12785.85
264.4434, 12684.14
264.9255, 12586.81
265.4076, 12487.62
265.8897, 12408.92
266.3719, 12369.47
266.8540, 12386.04
267.3361, 12365.36
267.8182, 12294.64
268.3003, 12198.01
268.7824, 12120.19
269.2646, 12062.58
269.7467, 12021.09
270.2288, 11999.57
270.7109, 12004.43
271.1930, 11988.34
271.6751, 11942.34
272.1573, 11885.04
272.6394, 11855.11
273.1215, 11860.01
273.6036, 11862.30
274.0857, 11840.46
274.5678, 11790.42
275.0500, 11760.78
275.5321, 11755.94
276.0142, 11764.83
276.4963, 11767.00
276.9784, 11760.42
277.4605, 11758.68
277.9427, 11772.37
278.4248, 11802.01
278.9069, 11816.00
279.3890, 11810.35
279.8711, 11796.29
280.3532, 11791.00
280.8354, 11794.99
281.3175, 11802.30
281.7996, 11812.40
282.2817, 11824.91
282.7638, 11830.47
283.2459, 11826.18
283.7281, 11822.68
284.2102, 11837.03
284.6923, 11869.39
285.1744, 11904.42
285.6565, 11930.60
286.1386, 11951.61
286.6208, 11996.36
287.1029, 12070.39
287.5850, 12148.19
288.0671, 12192.54
288.5492, 12206.37
289.0313, 12226.94
289.5135, 12274.84
289.9956, 12342.12
290.4777, 12399.59
290.9598, 12447.03
291.4419, 12488.13
291.9240, 12522.32
292.4062, 12551.82
292.8883, 12588.83
293.3704, 12649.27
293.8525, 12718.40
294.3346, 12756.91
294.8167, 12762.65
295.2989, 12761.87
295.7810, 12790.07
296.2631, 12835.54
296.7452, 12859.40
297.2273, 12834.54
297.7094, 12785.43
298.1916, 12751.46
298.6737, 12732.88
299.1558, 12721.63
299.6379, 12714.47
300.1200, 12709.54
300.6021, 12703.52
301.0843, 12706.61
301.5664, 12699.58
302.0485, 12649.47
302.5306, 12558.96
303.0127, 12465.31
303.4948, 12395.37
303.9770, 12340.58
304.4591, 12284.48
304.9412, 12211.56
305.4233, 12147.12
305.9054, 12127.67
306.3875, 12145.42
306.8697, 12154.61
307.3518, 12111.86
307.8339, 12048.24
308.3160, 12002.07
308.7981, 11991.57
309.2802, 11989.93
309.7624, 11981.02
310.2445, 11965.41
310.7266, 11945.46
311.2087, 11913.54
311.6908, 11882.12
312.1729, 11862.87
312.6551, 11862.12
313.1372, 11866.75
313.6193, 11872.56
314.1014, 11878.54
314.5835, 11881.90
315.0656, 11873.97
315.5478, 11867.89
316.0299, 11875.13
316.5120, 11907.63
316.9941, 11930.98
317.4762, 11923.59
317.9583, 11898.40
318.4405, 11880.40
318.9226, 11888.86
319.4047, 11897.71
319.8868, 11892.45
320.3690, 11864.67
320.8511, 11842.80
321.3332, 11837.45
321.8153, 11841.30
322.2974, 11843.05
322.7795, 11837.28
323.2617, 11832.12
323.7438, 11829.65
324.2259, 11829.68
324.7080, 11833.81
325.1901, 11852.56
325.6722, 11872.01
326.1544, 11875.73
326.6365, 11841.91
327.1186, 11813.84
327.6007, 11799.47
328.0828, 11799.70
328.5649, 11807.61
329.0471, 11831.50
329.5292, 11858.02
330.0113, 11876.15
330.4934, 11891.43
330.9755, 11889.53
331.4576, 11857.09
331.9398, 11796.01
332.4219, 11767.62
332.9040, 11788.92
333.3861, 11824.02
333.8682, 11846.09
334.3503, 11849.57
334.8325, 11854.64
335.3146, 11868.18
335.7967, 11885.55
336.2788, 11878.51
336.7609, 11833.64
337.2430, 11792.58
337.7252, 11784.47
338.2073, 11814.21
338.6894, 11852.12
339.1715, 11902.58
339.6536, 11955.00
340.1357, 11975.32
340.6179, 11957.02
341.1000, 11939.67
341.5821, 11948.70
342.0642, 11983.63
342.5463, 12010.38
343.0284, 12025.63
343.5106, 12034.79
343.9927, 12041.28
344.4748, 12045.27
344.9569, 12062.60
345.4390, 12109.62
345.9211, 12178.33
346.4033, 12233.50
346.8854, 12273.37
347.3675, 12305.58
347.8496, 12331.43
348.3317, 12354.32
348.8138, 12390.01
349.2960, 12454.86
349.7781, 12532.85
350.2602, 12595.09
350.7423, 12641.00
351.2244, 12684.55
351.7065, 12728.28
352.1887, 12779.29
352.6708, 12852.77
353.1529, 12975.27
353.6350, 13103.27
354.1171, 13184.21
354.5992, 13225.41
355.0814, 13270.55
355.5635, 13348.54
356.0456, 13446.51
356.5277, 13551.72
357.0098, 13669.92
357.4919, 13780.80
357.9741, 13855.71
358.4562, 13910.18
358.9383, 13992.08
359.4204, 14142.04
359.9025, 14315.70
360.3846, 14483.96
360.8668, 14642.79
361.3489, 14794.25
361.8310, 14921.48
362.3131, 15042.77
362.7952, 15190.11
363.2773, 15396.12
363.7595, 15608.13
364.2416, 15805.43
364.7237, 15983.83
365.2058, 16159.07
365.6879, 16326.13
366.1700, 16492.69
366.6522, 16666.69
367.1343, 16884.85
367.6164, 17072.95
368.0985, 17204.46
368.5806, 17275.14
369.0627, 17370.60
369.5449, 17508.50
370.0270, 17657.70
370.5091, 17799.77
370.9912, 17943.52
371.4733, 18063.53
371.9554, 18141.88
372.4376, 18190.80
372.9197, 18278.18
373.4018, 18421.58
373.8839, 18572.02
374.3660, 18704.11
374.8481, 18815.26
375.3303, 18911.22
375.8124, 18985.10
376.2945, 19050.31
376.7766, 19150.05
377.2587, 19296.00
377.7408, 19412.47
378.2230, 19456.51
378.7051, 19430.00
379.1872, 19404.73
379.6693, 19385.78
380.1514, 19353.94
380.6335, 19282.85
381.1157, 19173.52
381.5978, 19045.79
382.0799, 18914.56
382.5620, 18768.12
383.0442, 18570.63
383.5263, 18319.62
384.0084, 18049.38
384.4905, 17762.91
384.9726, 17476.86
385.4547, 17236.79
385.9369, 17062.56
386.4190, 16923.13
386.9011, 16790.34
387.3832, 16661.74
387.8653, 16531.25
388.3474, 16387.25
388.8296, 16241.92
389.3117, 16106.59
389.7938, 15978.00
390.2759, 15877.44
390.7580, 15844.78
391.2401, 15849.49
391.7223, 15827.15
392.2044, 15715.69
392.6865, 15596.25
393.1686, 15516.41
393.6507, 15489.22
394.1328, 15460.38
394.6150, 15398.75
395.0971, 15331.63
395.5792, 15288.99
396.0613, 15309.23
396.5434, 15321.67
397.0255, 15302.00
397.5077, 15249.88
397.9898, 15213.00
398.4719, 15224.43
398.9540, 15231.86
399.4361, 15202.22
399.9182, 15095.51
400.4004, 15011.52
400.8825, 14962.53
401.3646, 14939.56
401.8467, 14911.80
402.3288, 14871.71
402.8109, 14839.99
403.2931, 14831.99
403.7752, 14859.94
404.2573, 14855.83
404.7394, 14808.39
405.2215, 14743.35
405.7036, 14703.27
406.1858, 14691.73
406.6679, 14679.37
407.1500, 14652.17
407.6321, 14614.75
408.1142, 14597.81
408.5963, 14603.41
409.0785, 14617.18
409.5606, 14624.60
410.0427, 14627.58
410.5248, 14638.40
411.0069, 14666.06
411.4890, 14695.36
411.9712, 14694.59
412.4533, 14668.08
412.9354, 14643.99
413.4175, 14646.93
413.8996, 14662.75
414.3817, 14673.25
414.8639, 14677.50
415.3460, 14669.40
415.8281, 14637.21
416.3102, 14589.24
416.7923, 14541.53
417.2744, 14489.24
417.7566, 14449.87
418.2387, 14446.56
418.7208, 14481.72
419.2029, 14500.62
419.6850, 14471.36
420.1671, 14419.10
420.6493, 14366.80
421.1314, 14314.66
421.6135, 14269.63
422.0956, 14229.75
422.5777, 14196.80
423.0598, 14177.98
423.5420, 14195.23
424.0241, 14210.33
424.5062, 14202.65
424.9883, 14135.54
425.4704, 14116.05
425.9525, 14168.71
426.4347, 14257.94
426.9168, 14323.92
427.3989, 14362.85
427.8810, 14386.41
428.3631, 14392.97
428.8452, 14381.94
429.3274, 14386.26
429.8095, 14411.11
430.2916, 14439.80
430.7737, 14451.87
431.2558, 14445.61
431.7379, 14454.60
432.2201, 14490.23
432.7022, 14540.86
433.1843, 14569.00
433.6664, 14574.82
434.1485, 14598.62
434.6306, 14688.55
435.1128, 14816.83
435.5949, 14903.04
436.0770, 14934.09
436.5591, 14947.56
437.0412, 14971.45
437.5233, 15008.93
438.0055, 15067.79
438.4876, 15167.50
438.9697, 15280.41
439.4518, 15379.18
439.9339, 15464.55
440.4160, 15549.46
440.8982, 15644.74
441.3803, 15741.45
441.8624, 15831.55
442.3445, 15902.20
442.8266, 15980.30
443.3088, 16075.71
443.7909, 16186.32
444.2730, 16303.92
444.7551, 16443.27
445.2372, 16576.12
445.7194, 16687.53
446.2015, 16761.43
446.6836, 16857.86
447.1657, 16989.90
447.6478, 17139.00
448.1299, 17287.27
448.6121, 17444.65
449.0942, 17581.31
449.5763, 17686.36
450.0584, 17763.60
450.5405, 17840.62
451.0226, 17920.08
451.5048, 17994.57
451.9869, 18058.08
452.4690, 18109.84
452.9511, 18165.11
453.4332, 18228.50
453.9153, 18289.56
454.3975, 18331.45
454.8796, 18354.43
455.3617, 18357.32
455.8438, 18331.68
456.3259, 18286.63
456.8080, 18243.88
457.2902, 18204.31
457.7723, 18162.95
458.2544, 18114.16
458.7365, 18061.16
459.2186, 18011.84
459.7007, 17974.50
460.1829, 17932.06
460.6650, 17864.72
461.1471, 17779.38
461.6292, 17697.98
462.1113, 17633.24
462.5934, 17573.44
463.0756, 17510.49
463.5577, 17441.13
464.0398, 17375.19
464.5219, 17323.26
465.0040, 17273.50
465.4861, 17212.01
465.9683, 17130.94
466.4504, 17044.56
466.9325, 16950.60
467.4146, 16850.65
467.8967, 16758.18
468.3788, 16669.57
468.8610, 16592.65
469.3431, 16533.00
469.8252, 16495.48
470.3073, 16461.90
470.7894, 16434.95
471.2715, 16408.36
471.7537, 16366.21
472.2358, 16304.81
472.7179, 16255.38
473.2000, 16229.36
473.6821, 16224.47
474.1642, 16229.67
474.6464, 16244.67
475.1285, 16273.71
475.6106, 16327.39
476.0927, 16398.85
476.5748, 16468.32
477.0569, 16534.04
477.5391, 16592.70
478.0212, 16623.19
478.5033, 16640.71
478.9854, 16689.11
479.4675, 16817.45
479.9496, 16967.82
480.4318, 17090.90
480.9139, 17179.85
481.3960, 17278.50
481.8781, 17415.04
482.3602, 17567.25
482.8423, 17712.34
483.3245, 17840.10
483.8066, 17967.51
484.2887, 18104.04
484.7708, 18244.32
485.2529, 18368.08
485.7350, 18478.35
486.2172, 18569.75
486.6993, 18639.94
487.1814, 18686.80
487.6635, 18719.28
488.1456, 18739.52
488.6277, 18742.71
489.1099, 18722.16
489.5920, 18675.72
490.0741, 18614.35
490.5562, 18534.01
491.0383, 18443.19
491.5204, 18377.69
492.0026, 18338.30
492.4847, 18287.90
492.9668, 18181.21
493.4489, 18044.90
493.9310, 17960.29
494.4131, 17941.54
494.8953, 17932.67
495.3774, 17875.04
495.8595, 17785.23
496.3416, 17699.26
496.8237, 17633.81
497.3058, 17573.24
497.7880, 17511.88
498.2701, 17447.75
498.7522, 17367.30
499.2343, 17241.85
499.7164, 17114.79
500.1985, 17014.06
500.6807, 16957.86
501.1628, 16899.25
501.6449, 16834.84
502.1270, 16761.82
502.6091, 16675.05
503.0912, 16542.21
503.5734, 16438.25
504.0555, 16387.68
504.5376, 16384.40
505.0197, 16355.92
505.5019, 16291.22
505.9840, 16224.00
506.4661, 16174.84
506.9482, 16144.25
507.4303, 16121.20
507.9124, 16105.25
508.3946, 16096.27
508.8767, 16101.32
509.3588, 16117.30
509.8409, 16119.13
510.3230, 16085.75
510.8051, 16039.44
511.2873, 16022.13
511.7694, 16031.52
512.2515, 16045.74
512.7336, 16043.35
513.2157, 16040.44
513.6978, 16060.08
514.1799, 16116.25
514.6620, 16162.68
515.1442, 16162.36
515.6263, 16139.08
516.1084, 16128.21
516.5905, 16156.50
517.0726, 16181.88
517.5547, 16190.20
518.0369, 16181.89
518.5190, 16172.87
519.0011, 16153.28
519.4832, 16143.12
519.9653, 16155.44
520.4474, 16206.37
520.9296, 16235.79
521.4117, 16233.62
521.8938, 16221.79
522.3759, 16232.40
522.8580, 16267.19
523.3401, 16315.87
523.8223, 16388.99
524.3044, 16467.85
524.7865, 16485.82
525.2686, 16443.64
525.7507, 16396.59
526.2328, 16383.44
526.7150, 16393.59
527.1971, 16405.96
527.6792, 16417.91
528.1613, 16433.77
528.6434, 16464.69
529.1255, 16500.63
529.6077, 16526.42
530.0898, 16527.04
530.5719, 16524.72
531.0540, 16538.43
531.5361, 16561.92
532.0182, 16562.61
532.5004, 16503.81
532.9825, 16442.83
533.4646, 16407.07
533.9467, 16401.86
534.4288, 16410.14
534.9109, 16433.50
535.3931, 16469.32
535.8752, 16519.68
536.3574, 16596.80
536.8395, 16650.06
537.3216, 16665.89
537.8037, 16655.08
538.2858, 16652.06
538.7679, 16657.58
539.2501, 16662.04
539.7322, 16649.56
540.2143, 16630.93
540.6964, 16646.94
541.1785, 16700.25
541.6606, 16766.34
542.1428, 16826.81
542.6249, 16882.56
543.1070, 16935.56
543.5891, 16988.94
544.0712, 17035.73
544.5533, 17067.38
545.0355, 17088.64
545.5176, 17111.13
545.9997, 17136.31
546.4818, 17166.13
546.9639, 17197.20
547.4460, 17227.19
547.9282, 17279.93
548.4103, 17368.16
548.8924, 17471.28
549.3745, 17577.20
549.8566, 17687.67
550.3387, 17794.77
550.8209, 17889.75
551.3030, 17989.01
551.7851, 18125.06
552.2672, 18301.20
552.7493, 18490.31
553.2314, 18681.77
553.7136, 18879.11
554.1957, 19093.04
554.6778, 19323.57
555.1599, 19572.56
555.6420, 19835.17
556.1241, 20116.54
556.6063, 20429.25
557.0884, 20776.75
557.5705, 21133.27
558.0526, 21461.28
558.5347, 21790.07
559.0168, 22164.65
559.4990, 22630.77
559.9811, 23104.14
560.4632, 23555.69
560.9453, 23988.77
561.4274, 24424.68
561.9095, 24876.70
562.3917, 25316.62
562.8738, 25733.35
563.3559, 26113.38
563.8380, 26504.59
564.3201, 26922.47
564.8022, 27329.42
565.2844, 27696.40
565.7665, 28024.63
566.2486, 28318.96
566.7307, 28598.56
567.2128, 28820.95
567.6949, 28907.30
568.1771, 28863.70
568.6592, 28727.21
569.1413, 28503.14
569.6234, 28203.37
570.1055, 27829.22
570.5876, 27384.18
571.0698, 26898.64
571.5519, 26382.90
572.0340, 25839.70
572.5161, 25269.41
572.9982, 24649.46
573.4803, 24060.66
573.9625, 23536.40
574.4446, 23054.98
574.9267, 22602.38
575.4088, 22166.00
575.8909, 21766.37
576.3730, 21408.79
576.8552, 21093.70
577.3373, 20819.04
577.8194, 20595.35
578.3015, 20389.93
578.7836, 20181.23
579.2657, 19972.54
579.7479, 19792.70
580.2300, 19645.92
580.7121, 19504.79
581.1942, 19333.01
581.6763, 19145.53
582.1584, 18985.43
582.6406, 18870.59
583.1227, 18772.41
583.6048, 18664.02
584.0869, 18553.20
584.5690, 18456.88
585.0511, 18392.78
585.5333, 18335.70
586.0154, 18268.73
586.4975, 18192.54
586.9796, 18134.41
587.4617, 18123.62
587.9438, 18111.79
588.4260, 18073.38
588.9081, 17996.63
589.3902, 17925.78
589.8723, 17861.74
590.3544, 17803.26
590.8365, 17747.74
591.3187, 17693.66
591.8008, 17657.62
592.2829, 17650.55
592.7650, 17653.28
593.2471, 17613.51
593.7292, 17538.94
594.2114, 17488.07
594.6935, 17520.43
595.1756, 17579.11
595.6577, 17583.06
596.1398, 17533.99
596.6219, 17492.07
597.1041, 17507.23
597.5862, 17536.95
598.0683, 17545.31
598.5504, 17516.43
599.0325, 17487.79
599.5146, 17459.50
599.9968, 17439.20
600.4789, 17438.07
600.9610, 17476.57
601.4431, 17499.16
601.9252, 17490.72
602.4073, 17462.13
602.8895, 17453.50
603.3716, 17469.94
603.8537, 17480.89
604.3358, 17465.23
604.8179, 17430.80
605.3000, 17416.05
605.7822, 17421.63
606.2643, 17430.98
606.7464, 17432.49
607.2285, 17427.83
607.7106, 17419.50
608.1927, 17407.99
608.6749, 17393.06
609.1570, 17361.43
609.6391, 17329.75
610.1212, 17322.65
610.6033, 17377.96
611.0854, 17424.47
611.5676, 17437.29
612.0497, 17424.38
612.5318, 17423.63
613.0139, 17446.01
613.4960, 17463.41
613.9781, 17461.64
614.4603, 17440.82
614.9424, 17436.52
615.4245, 17452.16
615.9066, 17470.86
616.3887, 17481.70
616.8708, 17484.09
617.3530, 17468.67
617.8351, 17427.81
618.3172, 17398.27
618.7993, 17440.76
619.2814, 17519.77
619.7635, 17568.59
620.2457, 17531.88
620.7278, 17490.91
621.2099, 17495.41
621.6920, 17531.32
622.1741, 17555.67
622.6563, 17544.02
623.1384, 17532.16
623.6205, 17533.43
624.1026, 17548.58
624.5847, 17562.54
625.0668, 17581.74
625.5490, 17589.22
626.0311, 17560.94
626.5132, 17491.88
626.9953, 17474.93
627.4774, 17522.36
627.9595, 17594.47
628.4417, 17659.17
628.9238, 17710.06
629.4059, 17719.78
629.8880, 17661.40
630.3701, 17591.68
630.8522, 17565.35
631.3344, 17571.94
631.8165, 17585.48
632.2986, 17593.37
632.7807, 17607.13
633.2628, 17642.67
633.7449, 17698.41
634.2271, 17723.55
634.7092, 17678.48
635.1913, 17637.03
635.6734, 17636.35
636.1555, 17688.81
636.6376, 17720.96
637.1198, 17726.43
637.6019, 17725.21
638.0840, 17739.69
638.5661, 17768.27
639.0482, 17793.71
639.5303, 17814.49
640.0125, 17826.61
640.4946, 17815.47
640.9767, 17790.96
641.4588, 17776.99
641.9409, 17795.43
642.4230, 17818.09
642.9052, 17825.52
643.3873, 17821.29
643.8694, 17819.29
644.3515, 17819.30
644.8336, 17826.44
645.3157, 17845.28
645.7979, 17876.75
646.2800, 17905.44
646.7621, 17929.68
647.2442, 17953.30
647.7263, 17981.00
648.2084, 18014.22
648.6906, 18033.88
649.1727, 18036.19
649.6548, 18034.25
650.1369, 18047.00
650.6190, 18069.16
651.1011, 18083.59
651.5833, 18080.32
652.0654, 18076.31
652.5475, 18084.79
653.0296, 18104.56
653.5117, 18133.02
653.9938, 18183.94
654.4760, 18228.90
654.9581, 18257.67
655.4402, 18269.96
655.9223, 18267.61
656.4044, 18231.71
656.8865, 18206.01
657.3687, 18210.64
657.8508, 18247.85
658.3329, 18287.74
658.8150, 18331.34
659.2971, 18373.93
659.7793, 18405.85
660.2614, 18431.99
660.7435, 18482.66
661.2256, 18571.41
661.7078, 18641.08
662.1899, 18594.75
662.6720, 18497.33
663.1541, 18457.62
663.6362, 18566.31
664.1183, 18675.12
664.6005, 18709.22
665.0826, 18695.46
665.5647, 18696.07
666.0468, 18745.76
666.5289, 18782.15
667.0110, 18789.21
667.4932, 18770.61
667.9753, 18757.32
668.4574, 18753.79
668.9395, 18740.55
669.4216, 18693.86
669.9037, 18623.95
670.3859, 18597.03
670.8680, 18615.03
671.3501, 18637.93
671.8322, 18628.43
672.3143, 18602.87
672.7964, 18586.19
673.2786, 18587.04
673.7607, 18579.42
674.2428, 18543.25
674.7249, 18493.85
675.2070, 18448.12
675.6891, 18403.37
676.1713, 18370.71
676.6534, 18346.05
677.1355, 18335.33
677.6176, 18359.66
678.0997, 18437.36
678.5818, 18478.52
679.0640, 18442.55
679.5461, 18361.41
680.0282, 18330.64
680.5103, 18347.23
680.9924, 18377.64
681.4745, 18414.05
681.9567, 18446.44
682.4388, 18455.43
682.9209, 18442.47
683.4030, 18435.79
683.8851, 18461.80
684.3672, 18491.40
684.8494, 18502.73
685.3315, 18484.93
685.8136, 18475.86
686.2957, 18472.46
