##NAMES=Kellyite
##RRUFFID=R060903
##IDEAL CHEMISTRY=(Mn^2+^,Mg,Al)_3_(Si,Al)_2_O_5_(OH)_4_
##LOCALITY=Near Bald Knob, Alleghany County, North Carolina, USA
##OWNER=RRUFF
##SOURCE=Michael Scott
##DESCRIPTION=Light-yellow irregular to platy tablets
##STATUS=The identification of this mineral has been confirmed by X-ray diffraction and chemical analysis
##URL=rruff.info/R060903
##MEASURED CHEMISTRY=(Mn^2+^_1.77_Al_0.96_Mg_0.19_Fe^2+^_0.08_)_Σ=3_(Si_1.04_Al_0.96_)_Σ=2_O_5_(OH)_4_ ; trace amounts of F; the lighter fragment  up-right is kutnohorite: (Ca_0.81_Mn_0.19_)_Σ=1_(Mn_0.99_Mg_0.01_)_Σ=1_(CO_3_)_2_; C not measured but estimated by difference
146.1110, 3691.935
146.5931, 3702.347
147.0752, 3716.017
147.5573, 3722.892
148.0394, 3713.843
148.5215, 3700.897
149.0037, 3702.524
149.4858, 3732.168
149.9679, 3763.328
150.4500, 3789.036
150.9321, 3808.410
151.4142, 3823.847
151.8964, 3830.233
152.3785, 3832.733
152.8606, 3843.456
153.3427, 3874.727
153.8248, 3906.250
154.3069, 3929.048
154.7890, 3923.201
155.2712, 3932.782
155.7533, 3972.594
156.2354, 4035.995
156.7175, 4093.126
157.1996, 4131.878
157.6817, 4166.610
158.1639, 4206.730
158.6460, 4256.180
159.1281, 4309.125
159.6102, 4365.062
160.0923, 4423.619
160.5744, 4481.555
161.0566, 4541.167
161.5387, 4597.858
162.0208, 4647.190
162.5029, 4681.010
162.9850, 4712.121
163.4671, 4751.306
163.9493, 4800.082
164.4314, 4834.482
164.9135, 4828.077
165.3956, 4803.026
165.8777, 4790.169
166.3598, 4813.409
166.8420, 4846.207
167.3241, 4873.627
167.8062, 4895.845
168.2883, 4905.873
168.7704, 4890.554
169.2525, 4859.784
169.7346, 4833.957
170.2168, 4832.146
170.6989, 4836.607
171.1810, 4830.865
171.6631, 4812.139
172.1452, 4783.515
172.6273, 4742.536
173.1095, 4692.439
173.5916, 4642.695
174.0737, 4596.497
174.5558, 4554.642
175.0379, 4519.933
175.5201, 4495.979
176.0022, 4473.801
176.4843, 4441.538
176.9664, 4400.875
177.4485, 4361.597
177.9306, 4332.597
178.4128, 4310.205
178.8949, 4285.640
179.3770, 4252.038
179.8591, 4218.807
180.3412, 4202.445
180.8233, 4202.450
181.3055, 4206.202
181.7876, 4202.425
182.2697, 4193.329
182.7518, 4185.841
183.2339, 4183.765
183.7160, 4184.317
184.1982, 4179.654
184.6803, 4169.112
185.1624, 4160.577
185.6445, 4166.459
186.1266, 4183.635
186.6087, 4195.144
187.0908, 4188.729
187.5730, 4170.544
188.0551, 4164.121
188.5372, 4170.871
189.0193, 4183.247
189.5014, 4193.607
189.9835, 4201.961
190.4657, 4206.781
190.9478, 4207.060
191.4299, 4203.104
191.9120, 4196.249
192.3941, 4185.952
192.8762, 4174.342
193.3584, 4165.069
193.8405, 4158.288
194.3226, 4151.122
194.8047, 4141.740
195.2868, 4130.319
195.7689, 4119.375
196.2511, 4108.052
196.7332, 4098.644
197.2153, 4097.634
197.6974, 4106.203
198.1795, 4114.362
198.6616, 4115.789
199.1438, 4110.219
199.6259, 4104.022
200.1080, 4095.477
200.5901, 4088.470
201.0722, 4098.528
201.5543, 4131.091
202.0364, 4157.860
202.5186, 4154.849
203.0007, 4117.273
203.4828, 4088.653
203.9649, 4073.808
204.4470, 4071.527
204.9291, 4080.389
205.4113, 4104.252
205.8934, 4127.780
206.3755, 4136.735
206.8576, 4126.673
207.3397, 4124.733
207.8218, 4137.929
208.3040, 4163.003
208.7861, 4178.914
209.2682, 4182.014
209.7503, 4183.531
210.2324, 4195.285
210.7145, 4222.306
211.1967, 4241.034
211.6788, 4245.938
212.1609, 4238.117
212.6430, 4229.743
213.1251, 4218.668
213.6072, 4210.876
214.0894, 4213.090
214.5715, 4228.919
215.0536, 4244.291
215.5357, 4254.731
216.0178, 4260.209
216.4999, 4273.367
216.9820, 4298.016
217.4642, 4324.930
217.9463, 4344.896
218.4284, 4356.860
218.9105, 4363.178
219.3926, 4362.354
219.8747, 4353.504
220.3569, 4350.139
220.8390, 4355.880
221.3211, 4363.541
221.8032, 4363.611
222.2853, 4351.170
222.7674, 4341.966
223.2496, 4341.397
223.7317, 4351.188
224.2138, 4358.034
224.6959, 4363.037
225.1780, 4364.454
225.6601, 4358.185
226.1423, 4336.620
226.6244, 4322.110
227.1065, 4322.883
227.5886, 4342.729
228.0707, 4358.844
228.5528, 4371.541
229.0350, 4380.255
229.5171, 4382.322
229.9992, 4368.784
230.4813, 4364.093
230.9634, 4378.165
231.4455, 4417.958
231.9276, 4449.725
232.4098, 4469.722
232.8919, 4484.011
233.3740, 4501.989
233.8561, 4524.481
234.3382, 4549.537
234.8203, 4578.665
235.3025, 4616.352
235.7846, 4642.053
236.2667, 4649.690
236.7488, 4648.525
237.2309, 4655.524
237.7130, 4673.826
238.1952, 4695.375
238.6773, 4718.864
239.1594, 4747.984
239.6415, 4767.264
240.1236, 4770.313
240.6057, 4766.417
241.0879, 4774.118
241.5700, 4795.368
242.0521, 4825.167
242.5342, 4864.219
243.0163, 4920.502
243.4984, 4962.985
243.9806, 4985.361
244.4627, 4996.219
244.9448, 5013.889
245.4269, 5042.399
245.9090, 5071.216
246.3911, 5096.107
246.8732, 5114.749
247.3554, 5134.605
247.8375, 5153.287
248.3196, 5173.868
248.8017, 5203.529
249.2838, 5243.837
249.7659, 5290.280
250.2481, 5343.230
250.7302, 5408.830
251.2123, 5464.282
251.6944, 5504.746
252.1765, 5537.369
252.6586, 5579.088
253.1408, 5633.815
253.6229, 5691.940
254.1050, 5751.202
254.5871, 5813.016
255.0692, 5871.324
255.5513, 5927.591
256.0334, 5979.782
256.5156, 6022.676
256.9977, 6048.992
257.4798, 6079.253
257.9619, 6125.578
258.4440, 6200.965
258.9261, 6252.809
259.4083, 6274.523
259.8904, 6276.195
260.3725, 6279.480
260.8546, 6283.487
261.3367, 6290.517
261.8188, 6304.897
262.3010, 6334.631
262.7831, 6342.141
263.2652, 6319.111
263.7473, 6279.266
264.2294, 6252.894
264.7115, 6248.313
265.1937, 6238.426
265.6758, 6207.635
266.1579, 6148.256
266.6400, 6105.309
267.1221, 6084.866
267.6042, 6076.308
268.0864, 6058.370
268.5685, 6027.533
269.0506, 5996.937
269.5327, 5974.118
270.0148, 5962.153
270.4969, 5940.461
270.9791, 5906.647
271.4612, 5866.016
271.9433, 5829.025
272.4254, 5796.778
272.9075, 5764.803
273.3896, 5727.548
273.8718, 5682.703
274.3539, 5658.836
274.8360, 5661.436
275.3181, 5676.959
275.8002, 5682.780
276.2823, 5677.541
276.7645, 5669.071
277.2466, 5660.669
277.7287, 5652.450
278.2108, 5639.256
278.6929, 5619.266
279.1750, 5597.351
279.6572, 5581.752
280.1393, 5573.136
280.6214, 5564.185
281.1035, 5547.530
281.5856, 5524.140
282.0677, 5522.391
282.5499, 5548.482
283.0320, 5580.105
283.5141, 5581.651
283.9962, 5551.880
284.4783, 5527.368
284.9604, 5525.443
285.4425, 5542.898
285.9247, 5554.493
286.4068, 5559.910
286.8889, 5561.037
287.3710, 5555.822
287.8531, 5545.080
288.3352, 5543.601
288.8174, 5563.870
289.2995, 5598.447
289.7816, 5615.994
290.2637, 5615.029
290.7458, 5604.455
291.2279, 5590.042
291.7101, 5572.726
292.1922, 5559.082
292.6743, 5553.372
293.1564, 5552.500
293.6385, 5549.179
294.1206, 5543.443
294.6028, 5535.328
295.0849, 5514.706
295.5670, 5489.072
296.0491, 5489.012
296.5312, 5549.022
297.0133, 5626.438
297.4955, 5631.036
297.9776, 5563.809
298.4597, 5486.085
298.9418, 5447.314
299.4239, 5438.705
299.9060, 5440.396
300.3882, 5449.051
300.8703, 5462.647
301.3524, 5480.920
301.8345, 5503.049
302.3166, 5521.870
302.7987, 5527.299
303.2809, 5526.339
303.7630, 5531.951
304.2451, 5551.564
304.7272, 5573.285
305.2093, 5583.513
305.6914, 5583.763
306.1736, 5582.230
306.6557, 5582.434
307.1378, 5584.621
307.6199, 5590.850
308.1020, 5607.731
308.5841, 5618.333
309.0663, 5606.903
309.5484, 5577.317
310.0305, 5542.867
310.5126, 5505.725
310.9947, 5469.539
311.4768, 5438.026
311.9590, 5412.245
312.4411, 5390.495
312.9232, 5379.450
313.4053, 5372.390
313.8874, 5353.737
314.3695, 5302.978
314.8517, 5246.825
315.3337, 5204.067
315.8159, 5180.947
316.2980, 5160.167
316.7801, 5135.212
317.2622, 5107.392
317.7443, 5078.706
318.2264, 5051.377
318.7086, 5022.623
319.1907, 4989.231
319.6728, 4948.660
320.1549, 4914.531
320.6370, 4891.274
321.1191, 4876.513
321.6013, 4867.177
322.0834, 4870.014
322.5655, 4871.259
323.0476, 4864.344
323.5297, 4847.017
324.0118, 4835.496
324.4940, 4828.095
324.9761, 4829.282
325.4582, 4843.309
325.9403, 4894.766
326.4224, 4933.986
326.9045, 4946.206
327.3867, 4929.427
327.8688, 4921.964
328.3509, 4932.507
328.8330, 4947.783
329.3151, 4958.589
329.7972, 4959.869
330.2794, 4963.376
330.7615, 4970.338
331.2436, 4980.695
331.7257, 4993.516
332.2078, 5013.807
332.6899, 5031.495
333.1721, 5039.692
333.6542, 5032.068
334.1363, 5028.513
334.6184, 5034.405
335.1005, 5044.814
335.5826, 5041.317
336.0648, 5017.075
336.5469, 4991.484
337.0290, 4974.311
337.5111, 4967.371
337.9932, 4961.456
338.4753, 4955.475
338.9575, 4950.907
339.4396, 4952.105
339.9217, 4960.890
340.4038, 4968.005
340.8859, 4967.877
341.3680, 4959.970
341.8502, 4957.658
342.3323, 4962.737
342.8144, 4969.663
343.2965, 4968.232
343.7786, 4958.089
344.2607, 4953.136
344.7429, 4960.473
345.2250, 4978.040
345.7071, 4993.267
346.1892, 5005.541
346.6713, 5021.118
347.1534, 5053.237
347.6355, 5097.717
348.1176, 5129.864
348.5998, 5133.149
349.0819, 5124.630
349.5640, 5144.327
350.0461, 5191.889
350.5282, 5240.069
351.0103, 5265.018
351.4925, 5274.102
351.9746, 5283.964
352.4567, 5299.278
352.9388, 5315.906
353.4209, 5328.079
353.9030, 5336.779
354.3852, 5346.646
354.8673, 5367.810
355.3494, 5389.260
355.8315, 5394.798
356.3136, 5375.165
356.7957, 5356.539
357.2779, 5365.317
357.7600, 5391.290
358.2421, 5409.968
358.7242, 5403.166
359.2063, 5389.290
359.6884, 5381.144
360.1706, 5380.806
360.6527, 5382.772
361.1348, 5386.388
361.6169, 5390.193
362.0990, 5392.129
362.5811, 5390.805
363.0633, 5387.986
363.5454, 5381.385
364.0275, 5370.312
364.5096, 5367.866
364.9917, 5386.513
365.4738, 5410.702
365.9560, 5427.042
366.4381, 5425.575
366.9202, 5424.404
367.4023, 5425.629
367.8844, 5429.478
368.3665, 5437.129
368.8487, 5452.854
369.3308, 5469.553
369.8129, 5483.364
370.2950, 5490.639
370.7771, 5500.139
371.2592, 5507.691
371.7414, 5517.764
372.2235, 5546.039
372.7056, 5607.011
373.1877, 5664.704
373.6698, 5700.244
374.1519, 5702.690
374.6341, 5723.529
375.1162, 5769.168
375.5983, 5826.093
376.0804, 5870.349
376.5625, 5896.221
377.0446, 5929.687
377.5267, 5980.561
378.0089, 6048.376
378.4910, 6115.616
378.9731, 6181.921
379.4552, 6248.580
379.9373, 6317.256
380.4194, 6388.498
380.9016, 6456.063
381.3837, 6521.351
381.8658, 6581.237
382.3479, 6628.020
382.8300, 6661.711
383.3121, 6685.087
383.7943, 6698.098
384.2764, 6701.990
384.7585, 6698.838
385.2406, 6686.172
385.7227, 6672.246
386.2048, 6672.721
386.6870, 6682.830
387.1691, 6685.491
387.6512, 6656.822
388.1333, 6620.816
388.6154, 6609.678
389.0975, 6629.762
389.5797, 6654.677
390.0618, 6665.270
390.5439, 6666.839
391.0260, 6667.647
391.5081, 6676.435
391.9902, 6681.628
392.4724, 6674.877
392.9545, 6656.283
393.4366, 6636.161
393.9187, 6623.034
394.4008, 6608.860
394.8829, 6586.425
395.3651, 6559.672
395.8472, 6518.723
396.3293, 6451.083
396.8114, 6363.996
397.2935, 6288.439
397.7756, 6245.753
398.2578, 6203.314
398.7399, 6143.715
399.2220, 6043.764
399.7041, 5964.508
400.1862, 5917.253
400.6683, 5887.993
401.1505, 5851.708
401.6326, 5800.672
402.1147, 5753.658
402.5968, 5717.338
403.0789, 5693.680
403.5610, 5662.929
404.0432, 5618.911
404.5253, 5576.043
405.0074, 5550.548
405.4895, 5545.900
405.9716, 5545.805
406.4537, 5550.645
406.9359, 5556.877
407.4180, 5547.336
407.9001, 5519.885
408.3822, 5487.469
408.8643, 5455.355
409.3464, 5424.375
409.8285, 5405.113
410.3106, 5401.534
410.7928, 5404.377
411.2749, 5398.244
411.7570, 5384.483
412.2391, 5372.702
412.7212, 5367.975
413.2033, 5368.531
413.6855, 5371.373
414.1676, 5376.371
414.6497, 5382.973
415.1318, 5391.494
415.6139, 5401.079
416.0960, 5410.058
416.5782, 5417.766
417.0603, 5424.647
417.5424, 5431.214
418.0245, 5437.268
418.5066, 5441.839
418.9887, 5441.332
419.4709, 5440.892
419.9530, 5445.640
420.4351, 5462.693
420.9172, 5474.208
421.3993, 5462.277
421.8814, 5441.154
422.3636, 5440.242
422.8457, 5486.176
423.3278, 5535.688
423.8099, 5572.901
424.2920, 5594.229
424.7741, 5615.882
425.2563, 5640.430
425.7384, 5664.938
426.2205, 5685.773
426.7026, 5699.721
427.1847, 5715.103
427.6668, 5731.287
428.1490, 5749.127
428.6311, 5775.352
429.1132, 5810.703
429.5953, 5853.583
430.0774, 5905.518
430.5595, 5969.139
431.0417, 6023.687
431.5238, 6065.534
432.0059, 6100.415
432.4880, 6137.745
432.9701, 6177.513
433.4522, 6220.131
433.9344, 6270.895
434.4165, 6325.380
434.8986, 6364.247
435.3807, 6386.134
435.8628, 6407.702
436.3449, 6451.498
436.8271, 6508.619
437.3092, 6555.190
437.7913, 6584.226
438.2734, 6599.073
438.7555, 6600.384
439.2376, 6589.530
439.7197, 6572.700
440.2018, 6554.907
440.6840, 6532.122
441.1661, 6498.643
441.6482, 6451.008
442.1303, 6402.785
442.6124, 6364.898
443.0945, 6329.911
443.5767, 6287.159
444.0588, 6219.723
444.5409, 6156.268
445.0230, 6109.777
445.5051, 6081.068
445.9872, 6050.149
446.4694, 6016.550
446.9515, 5978.287
447.4336, 5933.671
447.9157, 5870.038
448.3978, 5818.142
448.8799, 5784.127
449.3621, 5762.188
449.8442, 5737.744
450.3263, 5711.822
450.8084, 5681.490
451.2905, 5642.235
451.7726, 5591.909
452.2548, 5557.606
452.7369, 5544.360
453.2190, 5536.596
453.7011, 5515.658
454.1832, 5481.253
454.6653, 5442.334
455.1475, 5395.506
455.6296, 5349.407
456.1117, 5330.837
456.5938, 5339.071
457.0759, 5346.530
457.5580, 5327.495
458.0402, 5294.111
458.5223, 5273.512
459.0044, 5270.895
459.4865, 5273.569
459.9686, 5270.719
460.4507, 5263.885
460.9329, 5256.118
461.4150, 5241.923
461.8971, 5232.766
462.3792, 5241.046
462.8613, 5265.800
463.3434, 5286.345
463.8256, 5289.402
464.3077, 5286.417
464.7898, 5286.399
465.2719, 5295.890
465.7540, 5302.065
466.2361, 5298.323
466.7183, 5289.411
467.2004, 5287.333
467.6825, 5304.964
468.1646, 5317.122
468.6467, 5315.321
469.1288, 5296.707
469.6110, 5278.828
470.0930, 5257.695
470.5752, 5241.564
471.0573, 5242.758
471.5394, 5270.199
472.0215, 5279.219
472.5036, 5256.490
472.9857, 5214.027
473.4679, 5190.471
473.9500, 5187.782
474.4321, 5185.283
474.9142, 5167.224
475.3963, 5138.333
475.8784, 5121.557
476.3606, 5119.854
476.8427, 5120.324
477.3248, 5105.717
477.8069, 5082.045
478.2890, 5064.339
478.7711, 5063.153
479.2533, 5066.149
479.7354, 5059.804
480.2175, 5045.962
480.6996, 5033.927
481.1817, 5029.858
481.6638, 5029.238
482.1460, 5028.573
482.6281, 5026.949
483.1102, 5025.527
483.5923, 5026.162
484.0744, 5026.508
484.5565, 5023.301
485.0387, 5002.578
485.5208, 4991.675
486.0029, 5000.560
486.4850, 5028.348
486.9671, 5054.139
487.4492, 5082.093
487.9314, 5103.187
488.4135, 5110.488
488.8956, 5098.079
489.3777, 5090.418
489.8598, 5090.028
490.3419, 5093.242
490.8241, 5090.624
491.3062, 5080.431
491.7883, 5081.306
492.2704, 5107.413
492.7525, 5149.453
493.2346, 5168.134
493.7168, 5162.418
494.1989, 5153.508
494.6810, 5158.276
495.1631, 5173.170
495.6452, 5190.953
496.1273, 5210.952
496.6095, 5230.984
497.0916, 5248.190
497.5737, 5263.306
498.0558, 5278.144
498.5379, 5292.011
499.0201, 5307.013
499.5022, 5325.668
499.9843, 5348.268
500.4664, 5368.426
500.9485, 5377.233
501.4306, 5386.607
501.9127, 5405.285
502.3948, 5448.386
502.8770, 5483.215
503.3591, 5499.422
503.8412, 5506.603
504.3233, 5525.850
504.8054, 5566.155
505.2875, 5604.257
505.7697, 5632.846
506.2518, 5651.769
506.7339, 5671.407
507.2160, 5692.838
507.6981, 5712.082
508.1802, 5723.691
508.6624, 5727.771
509.1445, 5735.635
509.6266, 5748.910
510.1087, 5767.022
510.5908, 5794.383
511.0729, 5828.271
511.5551, 5852.850
512.0372, 5854.551
512.5193, 5844.639
513.0014, 5837.717
513.4835, 5834.114
513.9656, 5833.170
514.4478, 5835.303
514.9299, 5839.416
515.4120, 5844.482
515.8941, 5851.030
516.3762, 5856.929
516.8583, 5867.567
517.3405, 5876.351
517.8226, 5869.962
518.3047, 5821.263
518.7868, 5780.296
519.2689, 5766.916
519.7510, 5783.830
520.2332, 5793.651
520.7153, 5797.003
521.1974, 5792.403
521.6795, 5775.944
522.1616, 5740.957
522.6437, 5718.604
523.1259, 5715.699
523.6080, 5721.414
524.0901, 5715.761
524.5722, 5698.347
525.0543, 5674.402
525.5364, 5639.803
526.0186, 5601.350
526.5007, 5581.529
526.9828, 5580.147
527.4649, 5580.978
527.9470, 5570.563
528.4291, 5554.021
528.9113, 5538.771
529.3934, 5526.208
529.8755, 5515.555
530.3576, 5516.346
530.8397, 5517.141
531.3218, 5498.529
531.8040, 5425.949
532.2861, 5358.317
532.7682, 5323.980
533.2503, 5321.101
533.7324, 5318.458
534.2145, 5315.822
534.6967, 5308.842
535.1788, 5294.361
535.6609, 5265.901
536.1430, 5246.173
536.6251, 5241.257
537.1072, 5239.868
537.5894, 5225.394
538.0715, 5195.496
538.5536, 5164.199
539.0357, 5133.324
539.5178, 5104.594
539.9999, 5083.052
540.4821, 5068.954
540.9642, 5060.487
541.4463, 5059.104
541.9284, 5061.985
542.4105, 5056.170
542.8926, 5028.679
543.3748, 5027.502
543.8569, 5022.552
544.3390, 5014.027
544.8211, 4991.225
545.3032, 4986.859
545.7853, 4975.106
546.2675, 4963.046
546.7495, 4961.277
547.2316, 4956.384
547.7137, 4957.808
548.1959, 4950.150
548.6780, 4923.322
549.1601, 4870.439
549.6422, 4832.487
550.1243, 4815.432
550.6064, 4807.521
551.0886, 4800.813
551.5707, 4797.208
552.0528, 4787.053
552.5349, 4765.945
553.0170, 4742.083
553.4991, 4734.716
553.9813, 4744.093
554.4634, 4752.413
554.9455, 4752.307
555.4276, 4745.593
555.9097, 4735.883
556.3918, 4723.380
556.8740, 4710.339
557.3561, 4698.163
557.8382, 4686.658
558.3203, 4675.020
558.8024, 4662.177
559.2845, 4652.426
559.7667, 4649.222
560.2488, 4650.292
560.7309, 4652.383
561.2130, 4652.174
561.6951, 4655.407
562.1772, 4669.964
562.6594, 4692.378
563.1415, 4697.393
563.6236, 4671.713
564.1057, 4644.429
564.5878, 4627.541
565.0699, 4622.861
565.5521, 4617.541
566.0342, 4610.864
566.5163, 4604.938
566.9984, 4601.002
567.4805, 4599.191
567.9626, 4603.626
568.4448, 4617.952
568.9269, 4633.705
569.4090, 4637.512
569.8911, 4630.894
570.3732, 4620.028
570.8553, 4601.561
571.3375, 4584.544
571.8196, 4581.346
572.3017, 4591.029
572.7838, 4599.254
573.2659, 4598.012
573.7480, 4592.920
574.2302, 4587.277
574.7123, 4578.257
575.1944, 4575.780
575.6765, 4589.281
576.1586, 4607.263
576.6407, 4614.496
577.1229, 4604.639
577.6050, 4595.319
578.0871, 4588.518
578.5692, 4584.638
579.0513, 4588.029
579.5334, 4601.405
580.0156, 4609.157
580.4977, 4599.157
580.9798, 4575.072
581.4619, 4555.811
581.9440, 4541.332
582.4261, 4534.855
582.9083, 4544.559
583.3904, 4563.577
583.8725, 4580.045
584.3546, 4592.053
584.8367, 4598.598
585.3188, 4594.371
585.8010, 4584.671
586.2831, 4579.392
586.7652, 4584.910
587.2473, 4592.561
587.7294, 4600.104
588.2115, 4607.374
588.6937, 4613.238
589.1758, 4615.482
589.6579, 4618.820
590.1400, 4626.619
590.6221, 4641.518
591.1042, 4648.919
591.5864, 4647.807
592.0685, 4641.200
592.5506, 4627.626
593.0327, 4607.820
593.5148, 4603.961
593.9969, 4626.187
594.4791, 4655.827
594.9612, 4664.459
595.4433, 4655.385
595.9254, 4639.845
596.4075, 4608.028
596.8896, 4583.034
597.3718, 4594.359
597.8539, 4638.215
598.3360, 4675.211
598.8181, 4681.112
599.3002, 4678.529
599.7823, 4681.574
600.2645, 4692.965
600.7466, 4707.622
601.2287, 4727.601
601.7108, 4748.843
602.1929, 4767.579
602.6750, 4784.327
603.1572, 4795.889
603.6393, 4798.751
604.1214, 4798.717
604.6035, 4812.202
605.0856, 4839.853
605.5677, 4867.496
606.0499, 4889.989
606.5320, 4907.620
607.0141, 4919.155
607.4962, 4925.074
607.9783, 4932.804
608.4604, 4945.602
608.9425, 4964.083
609.4246, 4990.244
609.9067, 5026.596
610.3889, 5061.794
610.8710, 5089.252
611.3531, 5113.462
611.8352, 5139.235
612.3173, 5170.453
612.7994, 5199.993
613.2816, 5230.389
613.7637, 5258.386
614.2458, 5274.971
614.7279, 5276.201
615.2100, 5276.204
615.6921, 5278.625
616.1743, 5283.781
616.6564, 5294.508
617.1385, 5311.211
617.6206, 5328.413
618.1027, 5340.021
618.5848, 5349.437
619.0670, 5364.685
619.5491, 5386.552
620.0312, 5413.647
620.5133, 5452.297
620.9954, 5493.043
621.4775, 5523.670
621.9597, 5533.981
622.4418, 5542.541
622.9239, 5560.385
623.4060, 5580.405
623.8881, 5587.558
624.3702, 5569.093
624.8524, 5550.860
625.3345, 5536.671
625.8166, 5526.749
626.2987, 5525.364
626.7808, 5535.942
627.2629, 5544.260
627.7451, 5539.803
628.2272, 5524.313
628.7093, 5512.746
629.1914, 5505.271
629.6735, 5503.238
630.1556, 5512.865
630.6378, 5527.928
631.1199, 5536.785
631.6020, 5535.489
632.0841, 5531.258
632.5662, 5522.558
633.0483, 5515.643
633.5305, 5520.417
634.0126, 5550.383
634.4947, 5581.049
634.9768, 5604.575
635.4589, 5623.047
635.9410, 5646.395
636.4232, 5677.196
