##NAMES=Kellyite
##RRUFFID=R060903
##IDEAL CHEMISTRY=(Mn^2+^,Mg,Al)_3_(Si,Al)_2_O_5_(OH)_4_
##LOCALITY=Near Bald Knob, Alleghany County, North Carolina, USA
##OWNER=RRUFF
##SOURCE=Michael Scott
##DESCRIPTION=Light-yellow irregular to platy tablets
##STATUS=The identification of this mineral has been confirmed by X-ray diffraction and chemical analysis
##URL=rruff.info/R060903
##MEASURED CHEMISTRY=(Mn^2+^_1.77_Al_0.96_Mg_0.19_Fe^2+^_0.08_)_Σ=3_(Si_1.04_Al_0.96_)_Σ=2_O_5_(OH)_4_ ; trace amounts of F; the lighter fragment  up-right is kutnohorite: (Ca_0.81_Mn_0.19_)_Σ=1_(Mn_0.99_Mg_0.01_)_Σ=1_(CO_3_)_2_; C not measured but estimated by difference
142.2584, 991.5678
142.7406, 998.7211
143.2227, 1009.552
143.7048, 1018.266
144.1869, 1022.898
144.6690, 1032.876
145.1511, 1051.521
145.6333, 1072.521
146.1154, 1093.622
146.5975, 1114.182
147.0796, 1134.400
147.5617, 1155.557
148.0438, 1181.900
148.5260, 1197.877
149.0081, 1198.405
149.4902, 1194.395
149.9723, 1192.311
150.4544, 1193.455
150.9365, 1195.198
151.4187, 1193.367
151.9008, 1184.383
152.3829, 1178.730
152.8650, 1181.392
153.3471, 1183.719
153.8292, 1177.157
154.3114, 1160.369
154.7935, 1140.890
155.2756, 1131.242
155.7577, 1134.217
156.2398, 1144.398
156.7219, 1171.055
157.2041, 1199.296
157.6862, 1214.150
158.1683, 1211.518
158.6504, 1201.096
159.1325, 1200.773
159.6146, 1216.808
160.0968, 1235.849
160.5789, 1259.909
161.0610, 1285.834
161.5431, 1309.230
162.0252, 1328.660
162.5073, 1348.152
162.9895, 1376.217
163.4716, 1425.302
163.9537, 1466.625
164.4358, 1494.430
164.9179, 1515.914
165.4000, 1539.201
165.8822, 1567.310
166.3643, 1597.826
166.8464, 1625.605
167.3285, 1649.984
167.8106, 1672.436
168.2927, 1695.288
168.7749, 1715.552
169.2570, 1729.085
169.7391, 1734.061
170.2212, 1732.725
170.7033, 1730.177
171.1854, 1730.553
171.6676, 1723.773
172.1497, 1704.479
172.6318, 1678.042
173.1139, 1651.791
173.5960, 1628.368
174.0781, 1606.921
174.5603, 1585.731
175.0424, 1566.785
175.5245, 1544.820
176.0066, 1516.277
176.4887, 1484.365
176.9708, 1454.271
177.4530, 1427.771
177.9351, 1404.289
178.4172, 1382.958
178.8993, 1365.333
179.3814, 1346.240
179.8635, 1323.000
180.3457, 1297.622
180.8278, 1272.772
181.3099, 1249.082
181.7920, 1227.717
182.2741, 1212.938
182.7562, 1207.330
183.2384, 1201.165
183.7205, 1189.995
184.2026, 1176.592
184.6847, 1165.986
185.1668, 1160.197
185.6489, 1158.107
186.1311, 1157.798
186.6132, 1159.530
187.0953, 1161.791
187.5774, 1165.151
188.0595, 1168.664
188.5416, 1170.083
189.0238, 1168.163
189.5059, 1164.730
189.9880, 1163.881
190.4701, 1166.809
190.9522, 1168.609
191.4343, 1166.519
191.9165, 1162.350
192.3986, 1159.404
192.8807, 1158.564
193.3628, 1159.940
193.8449, 1165.211
194.3270, 1177.075
194.8092, 1184.154
195.2913, 1179.781
195.7734, 1168.492
196.2555, 1159.122
196.7376, 1154.535
197.2197, 1152.565
197.7019, 1149.545
198.1840, 1145.249
198.6661, 1141.120
199.1482, 1135.778
199.6303, 1131.121
200.1124, 1131.464
200.5946, 1138.924
201.0767, 1149.297
201.5588, 1156.077
202.0409, 1159.666
202.5230, 1160.389
203.0051, 1155.284
203.4873, 1147.951
203.9694, 1145.227
204.4515, 1149.749
204.9336, 1156.416
205.4157, 1156.823
205.8978, 1150.152
206.3800, 1145.470
206.8621, 1146.320
207.3442, 1150.144
207.8263, 1153.089
208.3084, 1154.235
208.7905, 1154.666
209.2727, 1155.739
209.7548, 1157.460
210.2369, 1159.335
210.7190, 1160.494
211.2011, 1162.018
211.6832, 1165.185
212.1654, 1170.197
212.6475, 1177.084
213.1296, 1186.149
213.6117, 1197.429
214.0938, 1209.842
214.5760, 1227.027
215.0581, 1243.514
215.5402, 1251.287
216.0223, 1248.691
216.5044, 1244.844
216.9865, 1248.847
217.4687, 1261.073
217.9508, 1276.217
218.4329, 1298.620
218.9150, 1320.976
219.3971, 1335.898
219.8792, 1342.655
220.3614, 1345.728
220.8435, 1349.385
221.3256, 1353.500
221.8077, 1352.915
222.2898, 1341.460
222.7719, 1329.327
223.2541, 1326.861
223.7362, 1333.838
224.2183, 1339.719
224.7004, 1335.905
225.1825, 1321.921
225.6646, 1308.818
226.1468, 1295.905
226.6289, 1284.310
227.1110, 1275.957
227.5931, 1270.165
228.0752, 1262.954
228.5573, 1250.654
229.0395, 1234.135
229.5216, 1223.456
230.0037, 1220.113
230.4858, 1220.461
230.9679, 1226.024
231.4500, 1234.570
231.9322, 1238.623
232.4143, 1232.512
232.8964, 1218.665
233.3785, 1212.194
233.8606, 1218.711
234.3427, 1225.087
234.8249, 1223.694
235.3070, 1218.789
235.7891, 1220.616
236.2712, 1235.256
236.7533, 1258.611
237.2354, 1275.121
237.7176, 1281.301
238.1997, 1286.084
238.6818, 1289.320
239.1639, 1292.664
239.6460, 1299.835
240.1281, 1312.824
240.6103, 1327.745
241.0924, 1335.004
241.5745, 1326.308
242.0566, 1321.611
242.5387, 1324.033
243.0208, 1330.530
243.5030, 1338.194
243.9851, 1346.041
244.4672, 1354.099
244.9493, 1362.555
245.4314, 1374.365
245.9135, 1380.907
246.3957, 1378.043
246.8778, 1372.566
247.3599, 1369.834
247.8420, 1371.046
248.3241, 1374.425
248.8062, 1377.371
249.2884, 1377.871
249.7705, 1384.225
250.2526, 1398.291
250.7347, 1415.832
251.2168, 1436.454
251.6989, 1458.845
252.1811, 1478.533
252.6632, 1489.349
253.1453, 1486.989
253.6274, 1501.621
254.1095, 1543.370
254.5916, 1590.086
255.0738, 1636.461
255.5559, 1680.381
256.0380, 1719.340
256.5201, 1750.026
257.0022, 1772.583
257.4843, 1804.593
257.9665, 1864.555
258.4486, 1915.016
258.9307, 1937.568
259.4128, 1945.468
259.8949, 1948.853
260.3770, 1901.503
260.8592, 1964.843
261.3413, 2005.952
261.8234, 2026.028
262.3055, 1962.072
262.7876, 2006.625
263.2697, 2007.693
263.7519, 2006.980
264.2340, 2066.806
264.7161, 2015.072
265.1982, 2073.938
265.6803, 2088.654
266.1624, 2081.597
266.6446, 2071.916
267.1267, 2057.593
267.6088, 2041.411
268.0909, 2024.161
268.5730, 2007.620
269.0551, 1995.383
269.5373, 1989.235
270.0194, 1979.018
270.5015, 1956.296
270.9836, 1933.721
271.4657, 1921.038
271.9478, 1918.166
272.4300, 1913.414
272.9121, 1893.439
273.3942, 1858.913
273.8763, 1829.804
274.3584, 1808.896
274.8405, 1793.587
275.3227, 1782.826
275.8048, 1776.023
276.2869, 1770.896
276.7690, 1765.295
277.2511, 1760.266
277.7332, 1760.415
278.2154, 1768.748
278.6975, 1775.949
279.1796, 1775.299
279.6617, 1769.214
280.1438, 1762.235
280.6259, 1755.805
281.1081, 1749.428
281.5902, 1742.289
282.0723, 1734.283
282.5544, 1725.957
283.0365, 1715.885
283.5186, 1706.274
284.0008, 1700.883
284.4829, 1698.810
284.9650, 1702.792
285.4471, 1720.848
285.9292, 1749.899
286.4113, 1768.949
286.8935, 1765.370
287.3756, 1750.569
287.8577, 1748.235
288.3398, 1761.956
288.8219, 1777.706
289.3040, 1791.628
289.7862, 1803.401
290.2683, 1811.431
290.7504, 1814.379
291.2325, 1816.794
291.7146, 1827.105
292.1967, 1848.960
292.6789, 1863.399
293.1610, 1863.224
293.6431, 1856.919
294.1252, 1853.202
294.6073, 1853.265
295.0894, 1852.296
295.5716, 1845.008
296.0537, 1829.976
296.5358, 1817.440
297.0179, 1804.847
297.5000, 1796.587
297.9821, 1800.755
298.4643, 1812.597
298.9464, 1816.744
299.4285, 1800.907
299.9106, 1767.413
300.3927, 1744.009
300.8748, 1734.100
301.3570, 1729.998
301.8391, 1733.848
302.3212, 1741.615
302.8033, 1748.885
303.2854, 1753.687
303.7675, 1755.062
304.2497, 1749.565
304.7318, 1726.341
305.2139, 1714.496
305.6960, 1722.782
306.1781, 1737.722
306.6602, 1749.193
307.1424, 1754.476
307.6245, 1756.340
308.1066, 1758.622
308.5887, 1762.291
309.0708, 1762.426
309.5529, 1756.388
310.0351, 1748.666
310.5172, 1741.924
310.9993, 1735.533
311.4814, 1726.514
311.9635, 1710.502
312.4456, 1688.945
312.9278, 1674.083
313.4099, 1672.054
313.8920, 1667.055
314.3741, 1651.446
314.8562, 1628.408
315.3383, 1602.768
315.8205, 1574.566
316.3026, 1546.920
316.7847, 1524.832
317.2668, 1508.766
317.7489, 1495.991
318.2310, 1490.616
318.7132, 1485.180
319.1953, 1469.008
319.6774, 1437.858
320.1595, 1404.456
320.6416, 1376.329
321.1237, 1353.329
321.6059, 1336.266
322.0880, 1327.005
322.5701, 1320.771
323.0522, 1310.122
323.5343, 1294.612
324.0164, 1281.171
324.4986, 1270.156
324.9807, 1262.898
325.4628, 1263.655
325.9449, 1272.989
326.4270, 1281.081
326.9091, 1276.940
327.3913, 1259.311
327.8734, 1253.968
328.3555, 1274.304
328.8376, 1294.265
329.3197, 1295.215
329.8018, 1282.906
330.2840, 1276.086
330.7661, 1286.581
331.2482, 1310.695
331.7303, 1331.160
332.2124, 1346.800
332.6945, 1360.222
333.1767, 1370.310
333.6588, 1378.919
334.1409, 1388.642
334.6230, 1400.207
335.1051, 1411.573
335.5872, 1419.467
336.0694, 1422.705
336.5515, 1424.886
337.0336, 1425.851
337.5157, 1426.084
337.9979, 1428.625
338.4800, 1431.619
338.9621, 1427.931
339.4442, 1408.105
339.9263, 1373.365
340.4084, 1349.841
340.8906, 1341.442
341.3727, 1339.640
341.8548, 1345.778
342.3369, 1354.619
342.8190, 1357.369
343.3011, 1348.694
343.7833, 1334.609
344.2654, 1323.949
344.7475, 1316.462
345.2296, 1314.051
345.7117, 1319.752
346.1938, 1329.702
346.6760, 1339.721
347.1581, 1349.423
347.6402, 1359.634
348.1223, 1370.486
348.6044, 1382.271
349.0865, 1396.333
349.5687, 1413.606
350.0508, 1431.589
350.5329, 1446.601
351.0150, 1458.927
351.4971, 1474.338
351.9792, 1495.222
352.4614, 1518.630
352.9435, 1546.251
353.4256, 1576.130
353.9077, 1595.559
354.3898, 1592.758
354.8719, 1571.754
355.3541, 1566.022
355.8362, 1585.870
356.3183, 1605.667
356.8004, 1620.468
357.2825, 1630.444
357.7646, 1634.676
358.2468, 1632.917
358.7289, 1628.923
359.2110, 1629.935
359.6931, 1640.719
360.1752, 1647.223
360.6573, 1647.357
361.1395, 1645.561
361.6216, 1644.205
362.1037, 1643.578
362.5858, 1643.158
363.0679, 1643.368
363.5500, 1643.936
364.0322, 1638.049
364.5143, 1616.758
364.9964, 1601.263
365.4785, 1600.717
365.9606, 1609.095
366.4427, 1617.777
366.9249, 1623.184
367.4070, 1627.786
367.8891, 1636.406
368.3712, 1649.792
368.8533, 1659.600
369.3354, 1661.200
369.8176, 1659.846
370.2997, 1660.284
370.7818, 1662.594
371.2639, 1667.832
371.7460, 1678.440
372.2281, 1691.954
372.7103, 1703.260
373.1924, 1711.246
373.6745, 1719.242
374.1566, 1730.841
374.6387, 1745.638
375.1208, 1757.505
375.6030, 1759.031
376.0851, 1764.061
376.5672, 1781.641
377.0493, 1809.556
377.5314, 1840.894
378.0135, 1872.136
378.4957, 1904.947
378.9778, 1943.944
379.4599, 1983.930
379.9420, 2037.819
380.4241, 2116.654
380.9063, 2202.821
381.3884, 2283.269
381.8705, 2354.665
382.3526, 2418.765
382.8347, 2477.028
383.3168, 2529.887
383.7990, 2574.990
384.2811, 2618.149
384.7632, 2646.408
385.2453, 2653.181
385.7274, 2642.826
386.2095, 2621.663
386.6917, 2591.256
387.1738, 2555.177
387.6559, 2517.911
388.1380, 2477.209
388.6201, 2446.257
389.1022, 2424.165
389.5844, 2418.315
390.0665, 2438.766
390.5486, 2487.252
391.0307, 2541.866
391.5128, 2590.738
391.9949, 2636.002
392.4771, 2685.960
392.9592, 2743.644
393.4413, 2793.856
393.9234, 2823.116
394.4055, 2831.891
394.8876, 2836.294
395.3698, 2846.715
395.8519, 2843.647
396.3340, 2812.696
396.8161, 2759.350
397.2982, 2695.278
397.7803, 2624.641
398.2625, 2551.875
398.7446, 2486.781
399.2267, 2443.447
399.7088, 2385.630
400.1909, 2301.340
400.6730, 2211.961
401.1552, 2131.050
401.6373, 2060.783
402.1194, 1995.504
402.6015, 1929.706
403.0836, 1863.705
403.5657, 1810.176
404.0479, 1774.215
404.5300, 1744.086
405.0121, 1719.009
405.4942, 1695.979
405.9763, 1670.211
406.4584, 1638.934
406.9406, 1609.012
407.4227, 1591.507
407.9048, 1586.237
408.3869, 1575.168
408.8690, 1549.342
409.3511, 1523.107
409.8333, 1512.794
410.3154, 1516.875
410.7975, 1518.370
411.2796, 1508.877
411.7617, 1495.321
412.2438, 1486.631
412.7260, 1482.720
413.2081, 1475.933
413.6902, 1459.784
414.1723, 1437.762
414.6544, 1426.954
415.1365, 1435.781
415.6187, 1442.967
416.1008, 1443.362
416.5829, 1440.503
417.0650, 1437.683
417.5471, 1435.980
418.0292, 1435.962
418.5114, 1438.593
418.9935, 1444.453
419.4756, 1449.627
419.9577, 1454.479
420.4398, 1458.282
420.9219, 1458.591
421.4041, 1458.035
421.8862, 1461.904
422.3683, 1473.865
422.8504, 1488.556
423.3325, 1494.598
423.8146, 1490.073
424.2968, 1489.142
424.7789, 1499.672
425.2610, 1511.588
425.7431, 1514.088
426.2252, 1506.974
426.7073, 1502.381
427.1895, 1509.807
427.6716, 1521.986
428.1537, 1525.095
428.6358, 1517.958
429.1179, 1514.327
429.6000, 1524.148
430.0822, 1545.274
430.5643, 1564.964
431.0464, 1577.903
431.5285, 1595.904
432.0106, 1623.257
432.4927, 1657.129
432.9749, 1694.609
433.4570, 1734.484
433.9391, 1776.628
434.4212, 1820.630
434.9033, 1866.089
435.3854, 1915.427
435.8676, 1965.058
436.3497, 2022.369
436.8318, 2097.976
437.3139, 2181.955
437.7960, 2256.911
438.2781, 2313.334
438.7603, 2359.122
439.2424, 2411.807
439.7245, 2474.570
440.2066, 2519.494
440.6887, 2533.829
441.1708, 2531.609
441.6530, 2528.733
442.1351, 2525.068
442.6172, 2509.889
443.0993, 2472.514
443.5814, 2423.899
444.0635, 2377.717
444.5457, 2334.802
445.0278, 2292.487
445.5099, 2249.476
445.9920, 2205.779
446.4741, 2162.660
446.9562, 2118.474
447.4384, 2076.774
447.9205, 2038.581
448.4026, 2002.671
448.8847, 1968.112
449.3668, 1934.618
449.8489, 1903.132
450.3311, 1874.727
450.8132, 1849.704
451.2953, 1824.269
451.7774, 1798.934
452.2595, 1772.476
452.7416, 1745.397
453.2238, 1716.904
453.7059, 1684.889
454.1880, 1648.250
454.6701, 1610.990
455.1522, 1576.652
455.6343, 1545.386
456.1165, 1520.180
456.5986, 1504.044
457.0807, 1489.718
457.5628, 1468.076
458.0449, 1440.814
458.5270, 1418.307
459.0092, 1403.249
459.4913, 1393.097
459.9734, 1387.168
460.4555, 1384.678
460.9376, 1384.068
461.4197, 1384.968
461.9019, 1385.718
462.3840, 1382.185
462.8661, 1366.323
463.3482, 1361.621
463.8303, 1378.241
464.3124, 1396.638
464.7946, 1402.896
465.2767, 1399.424
465.7588, 1397.927
466.2409, 1407.047
466.7230, 1423.438
467.2051, 1435.581
467.6873, 1441.814
468.1694, 1448.825
468.6515, 1460.062
469.1336, 1472.043
469.6157, 1483.096
470.0978, 1493.096
470.5800, 1498.032
471.0621, 1493.703
471.5442, 1483.521
472.0263, 1472.009
472.5084, 1459.596
472.9905, 1449.534
473.4727, 1445.667
473.9548, 1445.769
474.4369, 1437.229
474.9190, 1412.336
475.4011, 1390.243
475.8832, 1376.492
476.3654, 1366.195
476.8475, 1354.559
477.3296, 1340.519
477.8117, 1324.902
478.2938, 1307.716
478.7759, 1288.958
479.2581, 1276.912
479.7402, 1280.424
480.2223, 1277.766
480.7044, 1256.926
481.1865, 1229.063
481.6686, 1207.710
482.1508, 1196.903
482.6329, 1190.702
483.1150, 1184.657
483.5971, 1178.949
484.0792, 1174.622
484.5613, 1172.354
485.0435, 1169.379
485.5256, 1162.348
486.0077, 1151.814
486.4898, 1144.839
486.9719, 1144.901
487.4540, 1144.773
487.9362, 1140.113
488.4183, 1133.599
488.9004, 1129.477
489.3825, 1129.086
489.8646, 1131.026
490.3467, 1133.489
490.8289, 1136.363
491.3110, 1140.318
491.7931, 1148.856
492.2752, 1154.695
492.7573, 1153.663
493.2394, 1148.875
493.7216, 1145.135
494.2037, 1144.000
494.6858, 1145.478
495.1679, 1149.242
495.6500, 1155.442
496.1321, 1167.381
496.6143, 1189.741
497.0964, 1208.553
497.5785, 1204.897
498.0606, 1181.557
498.5427, 1170.098
499.0248, 1182.483
499.5070, 1198.531
499.9891, 1206.619
500.4712, 1210.269
500.9533, 1217.802
501.4355, 1232.288
501.9176, 1248.516
502.3997, 1257.345
502.8818, 1254.882
503.3639, 1259.683
503.8460, 1278.538
504.3282, 1298.103
504.8103, 1312.740
505.2924, 1324.864
505.7745, 1339.328
506.2566, 1358.508
506.7387, 1379.664
507.2209, 1399.246
507.7030, 1417.469
508.1851, 1437.750
508.6672, 1461.958
509.1493, 1485.952
509.6314, 1504.529
510.1136, 1518.234
510.5957, 1534.529
511.0778, 1556.944
511.5599, 1579.316
512.0420, 1595.759
512.5241, 1610.244
513.0062, 1632.506
513.4883, 1665.778
513.9705, 1700.468
514.4526, 1720.905
514.9347, 1723.571
515.4168, 1727.581
515.8989, 1736.888
516.3810, 1743.211
516.8632, 1742.043
517.3453, 1736.235
517.8274, 1730.397
518.3095, 1725.927
518.7916, 1722.895
519.2737, 1724.457
519.7559, 1728.513
520.2380, 1722.904
520.7201, 1703.134
521.2022, 1680.983
521.6843, 1667.932
522.1664, 1663.992
522.6486, 1655.221
523.1307, 1639.278
523.6128, 1621.146
524.0949, 1598.978
524.5770, 1577.083
525.0591, 1564.061
525.5413, 1561.398
526.0234, 1558.111
526.5055, 1538.740
526.9876, 1501.671
527.4697, 1472.824
527.9518, 1455.343
528.4340, 1442.086
528.9161, 1435.342
529.3982, 1428.809
529.8803, 1412.314
530.3624, 1381.179
530.8445, 1350.554
531.3267, 1330.335
531.8088, 1318.814
532.2909, 1313.589
532.7730, 1314.450
533.2551, 1315.839
533.7372, 1314.046
534.2194, 1309.013
534.7015, 1300.161
535.1836, 1283.187
535.6657, 1268.235
536.1478, 1255.132
536.6299, 1245.759
537.1121, 1245.342
537.5942, 1252.356
538.0763, 1255.934
538.5584, 1244.974
539.0405, 1222.739
539.5226, 1204.452
540.0048, 1189.516
540.4869, 1180.840
540.9690, 1185.492
541.4511, 1193.192
541.9332, 1189.745
542.4153, 1172.920
542.8975, 1158.565
543.3796, 1156.207
543.8617, 1156.769
544.3438, 1149.734
544.8259, 1136.061
545.3080, 1123.496
545.7902, 1116.355
546.2723, 1113.498
546.7544, 1112.245
547.2365, 1114.942
547.7186, 1114.564
548.2007, 1110.125
548.6829, 1103.571
549.1650, 1094.760
549.6471, 1084.667
550.1292, 1075.599
550.6113, 1069.305
551.0934, 1063.611
551.5756, 1055.059
552.0577, 1044.028
552.5398, 1033.622
553.0219, 1025.047
553.5040, 1016.384
553.9861, 1004.608
554.4683, 989.2384
554.9504, 978.4929
555.4325, 980.4636
555.9146, 978.3355
556.3967, 959.9747
556.8788, 934.9841
557.3610, 917.1392
557.8431, 910.7290
558.3252, 910.5143
558.8073, 911.6951
559.2894, 914.3160
559.7715, 912.6849
560.2537, 904.4617
560.7358, 896.4377
561.2179, 893.9792
561.7000, 892.7925
562.1821, 885.8756
562.6642, 869.7248
563.1464, 857.9119
563.6285, 862.9612
564.1106, 873.3438
564.5927, 871.5137
565.0748, 857.6121
565.5569, 846.0767
566.0391, 847.2213
566.5212, 856.7845
567.0033, 858.6384
567.4854, 847.5475
567.9675, 838.0430
568.4496, 830.4512
568.9318, 825.0901
569.4139, 822.3991
569.8960, 822.1599
570.3781, 824.0087
570.8602, 829.8234
571.3423, 835.0768
571.8245, 831.6175
572.3066, 820.8804
572.7887, 813.2852
573.2708, 812.2936
573.7529, 813.3522
574.2350, 810.7848
574.7172, 803.8714
575.1993, 801.0102
575.6814, 804.9579
576.1635, 809.5563
576.6456, 814.0641
577.1277, 817.3016
577.6099, 817.5482
578.0920, 814.5054
578.5741, 810.2480
579.0562, 806.6635
579.5383, 803.7488
580.0204, 801.0481
580.5026, 797.7272
580.9847, 797.5416
581.4668, 804.4022
581.9489, 814.3597
582.4310, 820.5772
582.9132, 822.8085
583.3953, 822.3354
583.8774, 817.9639
584.3596, 812.2344
584.8417, 806.6085
585.3238, 801.5919
585.8059, 797.9531
586.2880, 796.1490
586.7701, 795.7809
587.2523, 796.3530
587.7344, 798.4404
588.2165, 799.0823
588.6986, 796.8821
589.1807, 794.5262
589.6628, 793.2996
590.1450, 793.0376
590.6271, 793.2869
591.1092, 793.6999
591.5913, 795.0287
592.0734, 798.9590
592.5555, 803.8414
593.0377, 806.2773
593.5198, 805.8008
594.0019, 804.8528
594.4840, 805.4302
594.9661, 807.3967
595.4482, 809.7276
595.9304, 813.1181
596.4125, 815.7653
596.8946, 816.5841
597.3767, 817.3354
597.8588, 819.6134
598.3409, 823.2241
598.8231, 826.5804
599.3052, 830.3630
599.7873, 832.1379
600.2694, 825.2952
600.7515, 812.3413
601.2336, 807.1636
601.7158, 814.8255
602.1979, 828.2380
602.6800, 839.1913
603.1621, 847.3615
603.6442, 855.3959
604.1263, 864.7370
604.6085, 872.2519
605.0906, 876.7366
605.5727, 879.1105
606.0548, 879.7974
606.5369, 879.1251
607.0190, 878.8018
607.5012, 879.7217
607.9833, 882.1896
608.4654, 887.4539
608.9475, 895.6176
609.4296, 904.1945
609.9117, 911.6680
610.3939, 919.5506
610.8760, 930.8039
611.3581, 947.1001
611.8402, 961.6339
612.3223, 974.5883
612.8044, 985.4006
613.2866, 991.2388
613.7687, 995.4661
614.2508, 1003.869
614.7329, 1018.571
615.2150, 1035.623
615.6971, 1051.364
616.1793, 1065.517
616.6614, 1075.365
617.1435, 1078.950
617.6256, 1085.848
618.1077, 1101.776
618.5898, 1124.398
619.0720, 1148.487
619.5541, 1176.498
620.0362, 1199.899
620.5183, 1214.951
621.0004, 1226.970
621.4825, 1237.514
621.9647, 1248.298
622.4468, 1262.662
622.9289, 1282.454
623.4110, 1304.357
623.8931, 1324.345
624.3752, 1342.366
624.8574, 1354.674
625.3395, 1359.185
625.8216, 1362.120
626.3037, 1367.486
626.7858, 1374.361
627.2679, 1380.491
627.7501, 1390.682
628.2322, 1391.237
628.7143, 1370.006
629.1964, 1343.844
629.6785, 1327.094
630.1606, 1320.083
630.6428, 1318.182
631.1249, 1319.703
631.6070, 1319.887
632.0891, 1305.912
632.5712, 1276.065
