##NAMES=Kentrolite
##RRUFFID=R060245
##IDEAL CHEMISTRY=Pb^2+^_2_Mn^3+^_2_O_2_(Si_2_O_7_)
##LOCALITY=Percha Creek area, Hillsboro District, Sierra County, New Mexico, USA
##OWNER=RRUFF
##SOURCE=William W. Pinch
##DESCRIPTION=Dark-purple colored single crystals associated with orange colored prismatic vanadinite and calcite
##STATUS=The identification of this mineral is confirmed by single-crystal X-ray diffraction and chemical analysis.
##URL=rruff.info/R060245
##MEASURED CHEMISTRY=Pb_2.00_(Mn^3+^_1.54_Fe^3+^_0.36_Al_0.10_)_Î£=2_O_2_Si_2.00_O_7_
147.9396, 241.4546
148.4218, 246.3839
148.9039, 249.5165
149.3860, 253.3098
149.8681, 257.7907
150.3502, 262.8726
150.8323, 268.4351
151.3145, 275.1455
151.7966, 281.7138
152.2787, 287.7072
152.7608, 292.1497
153.2429, 297.4505
153.7250, 304.6391
154.2072, 312.9141
154.6893, 320.0297
155.1714, 323.4923
155.6535, 324.6258
156.1356, 326.2217
156.6177, 328.9879
157.0999, 331.9375
157.5820, 334.9373
158.0641, 337.9923
158.5462, 341.1160
159.0283, 345.5340
159.5104, 349.3287
159.9926, 351.2585
160.4747, 348.7826
160.9568, 346.6573
161.4389, 346.5191
161.9210, 348.1595
162.4031, 350.0802
162.8853, 351.9824
163.3674, 353.7558
163.8495, 355.2990
164.3316, 356.4012
164.8137, 357.4099
165.2958, 358.7088
165.7780, 360.2848
166.2601, 361.2731
166.7422, 361.2332
167.2243, 360.3528
167.7064, 358.8792
168.1885, 356.3114
168.6707, 353.5912
169.1528, 351.3323
169.6349, 349.5545
170.1170, 348.1604
170.5991, 347.6625
171.0812, 347.4413
171.5634, 346.4327
172.0455, 343.6253
172.5276, 340.0911
173.0097, 336.7795
173.4918, 333.7108
173.9739, 331.0254
174.4561, 328.8544
174.9382, 327.1025
175.4203, 325.5375
175.9024, 324.0689
176.3845, 322.7177
176.8666, 321.3877
177.3488, 319.9372
177.8309, 318.9867
178.3130, 319.8958
178.7951, 322.1127
179.2772, 323.5533
179.7593, 322.4062
180.2415, 319.7612
180.7236, 317.6942
181.2057, 316.5045
181.6878, 315.8241
182.1699, 315.2464
182.6520, 314.7697
183.1342, 314.3174
183.6163, 313.4532
184.0984, 312.5307
184.5805, 312.8483
185.0626, 315.0793
185.5447, 317.8116
186.0269, 318.4350
186.5090, 317.0191
186.9911, 315.4056
187.4732, 315.0945
187.9553, 315.7841
188.4374, 316.0489
188.9196, 315.6039
189.4017, 314.6609
189.8838, 313.6364
190.3659, 312.5172
190.8480, 311.3379
191.3301, 310.5145
191.8123, 309.9008
192.2944, 307.9002
192.7765, 303.7569
193.2586, 298.3071
193.7407, 294.2310
194.2228, 291.6652
194.7050, 289.4681
195.1871, 286.4837
195.6692, 282.7250
196.1513, 279.6029
196.6334, 277.4221
197.1155, 276.0933
197.5977, 275.4284
198.0798, 275.5717
198.5619, 275.8091
199.0440, 275.5088
199.5261, 274.6557
200.0082, 273.4434
200.4904, 271.5932
200.9725, 269.3569
201.4546, 268.5489
201.9367, 269.5253
202.4188, 270.9151
202.9009, 271.4156
203.3831, 270.9823
203.8652, 269.9802
204.3473, 268.3033
204.8294, 266.0397
205.3115, 264.1545
205.7936, 262.6240
206.2758, 261.5182
206.7579, 261.1204
207.2400, 261.6938
207.7221, 261.7841
208.2042, 260.7142
208.6863, 258.5304
209.1685, 257.8273
209.6506, 259.2848
210.1327, 261.0562
210.6148, 260.7625
211.0969, 257.6898
211.5790, 255.0256
212.0612, 253.7063
212.5433, 253.7735
213.0254, 253.5677
213.5075, 252.9516
213.9896, 252.2434
214.4717, 251.9261
214.9538, 252.2643
215.4360, 252.2253
215.9181, 251.2931
216.4002, 249.3546
216.8823, 248.4643
217.3644, 249.0561
217.8465, 250.2008
218.3287, 250.6863
218.8108, 250.1413
219.2929, 249.8019
219.7750, 250.1090
220.2571, 251.1898
220.7392, 251.7435
221.2214, 251.5362
221.7035, 251.0465
222.1856, 250.9353
222.6677, 251.4865
223.1498, 251.8146
223.6319, 251.5987
224.1141, 250.7385
224.5962, 250.1181
225.0783, 249.8114
225.5604, 249.6838
226.0425, 249.6523
226.5246, 250.0753
227.0068, 249.8777
227.4889, 248.5948
227.9710, 245.9705
228.4531, 243.7884
228.9352, 241.8754
229.4173, 240.5404
229.8995, 240.4604
230.3816, 242.8498
230.8637, 244.2559
231.3458, 243.3346
231.8279, 239.4759
232.3100, 237.2126
232.7922, 237.1503
233.2743, 238.1846
233.7564, 238.9169
234.2385, 239.1582
234.7206, 239.4298
235.2027, 239.9292
235.6849, 240.7419
236.1670, 241.2386
236.6491, 241.4101
237.1312, 241.2771
237.6133, 240.7635
238.0954, 239.3247
238.5776, 238.4617
239.0597, 238.7549
239.5418, 240.4488
240.0239, 241.5136
240.5060, 241.6294
240.9881, 241.3808
241.4703, 241.4643
241.9524, 241.8783
242.4345, 242.6402
242.9166, 243.9143
243.3987, 245.8509
243.8808, 247.1135
244.3630, 247.1785
244.8451, 247.0366
245.3272, 247.9754
245.8093, 250.7944
246.2914, 253.2194
246.7735, 254.5147
247.2557, 254.4901
247.7378, 255.4203
248.2199, 257.8449
248.7020, 260.6996
249.1841, 262.6901
249.6662, 263.0323
250.1484, 264.0475
250.6305, 266.4405
251.1126, 270.2799
251.5947, 273.8328
252.0768, 277.2181
252.5589, 280.1380
253.0411, 282.1647
253.5232, 282.8125
254.0053, 283.5668
254.4874, 284.7411
254.9695, 286.3491
255.4516, 287.8407
255.9338, 288.7542
256.4159, 290.1222
256.8980, 293.1313
257.3801, 298.6777
257.8622, 303.7765
258.3444, 307.8551
258.8265, 310.9608
259.3086, 313.5508
259.7907, 315.3324
260.2728, 316.9638
260.7549, 318.9273
261.2371, 321.1885
261.7192, 323.9591
262.2013, 327.4621
262.6834, 331.6095
263.1655, 335.0660
263.6476, 337.5218
264.1298, 339.8603
264.6119, 342.9174
265.0940, 346.9129
265.5761, 350.7947
266.0582, 354.4037
266.5403, 357.7396
267.0225, 360.9289
267.5046, 363.9818
267.9867, 366.8110
268.4688, 369.2686
268.9509, 371.2582
269.4330, 373.3314
269.9152, 375.3904
270.3973, 377.6244
270.8794, 380.9687
271.3615, 385.8762
271.8436, 390.6286
272.3257, 393.9304
272.8079, 395.6344
273.2900, 396.9541
273.7721, 397.8869
274.2542, 398.6043
274.7363, 399.7082
275.2184, 401.3378
275.7006, 402.8286
276.1827, 403.7776
276.6648, 404.1827
277.1469, 404.1600
277.6290, 403.5779
278.1111, 402.7353
278.5933, 402.3008
279.0754, 402.3109
279.5575, 402.4795
280.0396, 402.7342
280.5217, 403.0716
281.0038, 403.1854
281.4860, 403.0421
281.9681, 402.6911
282.4502, 402.1002
282.9323, 401.2342
283.4144, 400.5724
283.8965, 400.1910
284.3787, 400.1302
284.8608, 400.9913
285.3429, 402.9466
285.8250, 405.3717
286.3071, 407.3578
286.7892, 408.9172
287.2714, 410.5314
287.7535, 412.2521
288.2356, 414.1774
288.7177, 416.8224
289.1998, 420.2944
289.6819, 424.0469
290.1641, 427.2461
290.6462, 430.0129
291.1283, 433.3103
291.6104, 437.3433
292.0925, 442.1934
292.5746, 448.2338
293.0568, 455.5653
293.5389, 463.1770
294.0210, 470.0455
294.5031, 476.2855
294.9852, 482.1942
295.4673, 487.4399
295.9495, 492.6257
296.4316, 498.7209
296.9137, 505.6889
297.3958, 513.4700
297.8779, 522.5707
298.3600, 532.4119
298.8422, 541.8108
299.3243, 550.5316
299.8064, 558.5929
300.2885, 565.7966
300.7706, 572.2240
301.2527, 578.7025
301.7349, 586.2826
302.2170, 594.1833
302.6991, 600.8096
303.1812, 605.5643
303.6633, 609.6070
304.1454, 614.5565
304.6276, 619.9722
305.1097, 624.3733
305.5918, 626.3426
306.0739, 626.9590
306.5560, 627.6548
307.0381, 629.0038
307.5203, 629.4010
308.0024, 627.2625
308.4845, 623.1389
308.9666, 618.3183
309.4487, 613.2081
309.9308, 607.8230
310.4130, 602.3775
310.8951, 597.0217
311.3772, 590.9531
311.8593, 583.1607
312.3414, 574.4750
312.8235, 566.1091
313.3057, 558.5726
313.7878, 551.4029
314.2699, 544.3295
314.7520, 537.3616
315.2341, 530.4755
315.7162, 523.2933
316.1984, 516.3463
316.6805, 510.3172
317.1626, 506.2694
317.6447, 502.3142
318.1268, 497.4341
318.6089, 491.6705
319.0911, 486.6295
319.5732, 482.9405
320.0553, 480.1186
320.5374, 477.8283
321.0195, 476.6427
321.5016, 475.2635
321.9838, 472.8617
322.4659, 469.8186
322.9480, 467.9876
323.4301, 468.4642
323.9122, 469.7269
324.3943, 470.9901
324.8765, 472.3199
325.3586, 473.4376
325.8407, 473.9364
326.3228, 474.1775
326.8049, 475.0894
327.2870, 476.9221
327.7692, 479.2466
328.2513, 481.8923
328.7334, 484.6406
329.2155, 488.1734
329.6976, 493.4842
330.1797, 499.2645
330.6619, 503.3216
331.1440, 504.0221
331.6261, 505.2085
332.1082, 507.8300
332.5903, 511.8970
333.0724, 517.1035
333.5546, 524.4745
334.0367, 532.0694
334.5188, 537.4860
335.0009, 539.4741
335.4830, 542.2556
335.9651, 546.9247
336.4473, 553.3088
336.9294, 558.5970
337.4115, 562.3289
337.8936, 565.8582
338.3757, 570.3050
338.8578, 575.9462
339.3399, 581.3068
339.8221, 586.2607
340.3042, 590.7736
340.7863, 594.4494
341.2684, 597.3082
341.7505, 599.5367
342.2326, 601.4006
342.7148, 602.8824
343.1969, 603.2527
343.6790, 602.3248
344.1611, 600.5159
344.6432, 598.5882
345.1253, 596.5284
345.6075, 593.8981
346.0896, 590.4796
346.5717, 586.2791
347.0538, 581.3727
347.5359, 575.6271
348.0180, 569.6161
348.5002, 563.8731
348.9823, 558.3851
349.4644, 553.1369
349.9465, 548.5375
350.4286, 543.9876
350.9107, 538.3401
351.3929, 531.6414
351.8750, 524.3705
352.3571, 516.4086
352.8392, 508.2359
353.3213, 500.7934
353.8034, 494.7035
354.2856, 488.9422
354.7677, 482.4123
355.2498, 475.2672
355.7319, 468.0171
356.2140, 460.4638
356.6961, 453.2078
357.1783, 446.8370
357.6604, 441.6291
358.1425, 436.7834
358.6246, 431.9367
359.1067, 427.0417
359.5888, 421.9771
360.0710, 416.3130
360.5531, 410.7431
361.0352, 405.6507
361.5173, 401.1070
361.9994, 396.7069
362.4815, 392.2539
362.9637, 387.8851
363.4458, 383.7480
363.9279, 379.7682
364.4100, 376.1141
364.8921, 373.3123
365.3742, 371.2246
365.8564, 368.2899
366.3385, 363.0098
366.8206, 357.6216
367.3027, 353.4724
367.7848, 352.2911
368.2669, 350.3901
368.7491, 347.1408
369.2312, 343.0271
369.7133, 339.5069
370.1954, 337.1017
370.6775, 334.7187
371.1596, 331.8897
371.6418, 328.1878
372.1239, 325.2321
372.6060, 323.1967
373.0881, 321.8180
373.5702, 320.8575
374.0523, 320.7725
374.5345, 319.9963
375.0166, 317.7313
375.4987, 314.0032
375.9808, 311.7564
376.4629, 311.3712
376.9450, 311.5745
377.4272, 311.2081
377.9093, 310.2057
378.3914, 309.1324
378.8735, 307.9986
379.3556, 306.9060
379.8377, 306.3448
380.3199, 306.3943
380.8020, 306.0052
381.2841, 303.8662
381.7662, 300.4584
382.2483, 298.7342
382.7304, 299.2591
383.2126, 300.4599
383.6947, 300.0569
384.1768, 298.3417
384.6589, 296.7882
385.1410, 296.0320
385.6231, 295.8711
386.1053, 296.2063
386.5874, 297.0535
387.0695, 297.5889
387.5516, 296.6617
388.0337, 295.0164
388.5158, 294.0122
388.9980, 294.8690
389.4801, 295.6388
389.9622, 294.5739
390.4443, 291.9735
390.9264, 289.0377
391.4085, 285.8620
391.8907, 282.9749
392.3728, 280.8888
392.8549, 279.9959
393.3370, 279.1827
393.8191, 278.0215
394.3012, 276.6334
394.7834, 275.2228
395.2655, 273.8522
395.7476, 272.4662
396.2297, 270.9415
396.7118, 269.2095
397.1939, 267.8640
397.6761, 267.4794
398.1582, 267.2674
398.6403, 266.5697
399.1224, 264.9404
399.6045, 263.2899
400.0866, 261.6964
400.5688, 260.1445
401.0509, 258.5660
401.5330, 256.7711
402.0151, 255.1729
402.4972, 253.9767
402.9793, 253.2684
403.4615, 252.7813
403.9436, 252.6393
404.4257, 252.6176
404.9078, 252.3434
405.3899, 251.7937
405.8720, 251.0584
406.3542, 250.0372
406.8363, 248.7765
407.3184, 248.1012
407.8005, 248.1407
408.2826, 248.1980
408.7647, 247.3141
409.2469, 245.6067
409.7290, 244.6945
410.2111, 245.1599
410.6932, 246.2223
411.1753, 246.2299
411.6574, 245.2918
412.1396, 244.4619
412.6217, 244.7065
413.1038, 245.4715
413.5859, 245.5033
414.0680, 244.5363
414.5501, 243.7912
415.0323, 244.6930
415.5144, 246.6371
415.9965, 248.4641
416.4786, 249.9068
416.9607, 250.8454
417.4428, 250.7034
417.9250, 249.6598
418.4071, 249.3477
418.8892, 251.3774
419.3713, 254.1210
419.8534, 256.1891
420.3355, 257.0641
420.8177, 257.6172
421.2998, 257.7676
421.7819, 257.8234
422.2640, 258.4571
422.7461, 260.6003
423.2282, 262.6479
423.7104, 263.9012
424.1925, 263.9957
424.6746, 264.6479
425.1567, 265.9095
425.6388, 267.7487
426.1209, 270.2297
426.6031, 273.9925
427.0852, 277.3322
427.5673, 279.9979
428.0494, 282.0673
428.5315, 283.8673
429.0136, 285.4130
429.4958, 286.5973
429.9779, 287.3028
430.4600, 287.4821
430.9421, 287.4569
431.4242, 287.2057
431.9063, 286.8045
432.3885, 286.4500
432.8706, 286.1515
433.3527, 285.5020
433.8348, 284.2509
434.3169, 282.5817
434.7990, 281.0670
435.2812, 279.7187
435.7633, 278.2807
436.2454, 276.1947
436.7275, 273.8971
437.2096, 272.5431
437.6917, 272.7433
438.1739, 272.9942
438.6560, 271.2891
439.1381, 268.2967
439.6202, 265.7816
440.1023, 264.7197
440.5844, 264.4675
441.0666, 264.7411
441.5487, 265.5433
442.0308, 266.0440
442.5129, 265.3400
442.9950, 264.3526
443.4771, 263.9613
443.9593, 264.9296
444.4414, 265.9539
444.9235, 266.5237
445.4056, 266.8422
445.8877, 267.6533
446.3698, 269.0880
446.8520, 271.0084
447.3341, 273.5884
447.8162, 277.3740
448.2983, 279.9694
448.7804, 280.1906
449.2625, 280.0288
449.7447, 281.9239
450.2268, 286.9838
450.7089, 291.5426
451.1910, 294.6880
451.6731, 296.7554
452.1552, 299.3737
452.6374, 302.4940
453.1195, 306.1630
453.6016, 310.5835
454.0837, 315.6979
454.5658, 320.8003
455.0479, 325.8467
455.5301, 330.7582
456.0122, 335.0993
456.4943, 339.0612
456.9764, 343.3919
457.4585, 348.7835
457.9406, 354.5542
458.4228, 359.4694
458.9049, 363.5954
459.3870, 368.0390
459.8691, 373.8212
460.3512, 380.2452
460.8333, 386.5517
461.3155, 392.8593
461.7976, 398.4557
462.2797, 402.3564
462.7618, 405.3258
463.2439, 408.6255
463.7260, 412.6992
464.2082, 417.2536
464.6903, 422.5128
465.1724, 428.4642
465.6545, 433.4232
466.1366, 436.5153
466.6187, 438.8044
467.1009, 440.9658
467.5830, 443.1878
468.0651, 445.1612
468.5472, 447.2504
469.0293, 448.9727
469.5114, 449.3067
469.9936, 447.9817
470.4757, 445.7579
470.9578, 442.7400
471.4399, 438.9325
471.9220, 434.9602
472.4041, 430.9455
472.8863, 426.5502
473.3684, 421.5181
473.8505, 415.8539
474.3326, 409.7591
474.8147, 403.2081
475.2968, 396.3439
475.7790, 389.3211
476.2611, 382.1364
476.7432, 375.0210
477.2253, 367.8193
477.7074, 360.7934
478.1895, 354.4737
478.6717, 348.8644
479.1538, 343.4021
479.6359, 337.3200
480.1180, 331.2556
480.6001, 326.0299
481.0822, 322.1476
481.5644, 318.5814
482.0465, 315.0943
482.5286, 311.5320
483.0107, 307.5579
483.4928, 301.7953
483.9749, 296.7164
484.4571, 293.6598
484.9392, 292.9844
485.4213, 291.8391
485.9034, 289.6649
486.3855, 287.1344
486.8676, 284.6323
487.3498, 281.8906
487.8319, 279.6769
488.3140, 278.3175
488.7961, 277.3760
489.2782, 275.6706
489.7603, 272.8539
490.2425, 270.5004
490.7246, 269.5571
491.2067, 269.8190
491.6888, 268.8549
492.1709, 266.4905
492.6530, 263.9575
493.1352, 262.4786
493.6173, 261.8253
494.0994, 261.0963
494.5815, 260.1704
495.0636, 259.0317
495.5457, 257.5623
496.0279, 255.8580
496.5100, 254.2043
496.9921, 252.4558
497.4742, 250.9939
497.9563, 250.2806
498.4384, 250.2918
498.9206, 250.3923
499.4027, 250.3098
499.8848, 250.1385
500.3669, 249.9651
500.8490, 249.9150
501.3311, 249.6798
501.8133, 249.0140
502.2954, 248.1382
502.7775, 247.4669
503.2596, 246.8144
503.7417, 246.6095
504.2238, 247.0676
504.7060, 248.1712
505.1881, 249.1813
505.6702, 250.1872
506.1523, 250.9367
506.6344, 251.1819
507.1165, 250.8397
507.5987, 250.4943
508.0808, 250.0310
508.5629, 249.8891
509.0450, 251.0807
509.5271, 253.4892
510.0092, 255.4870
510.4914, 256.0966
510.9735, 256.2018
511.4556, 257.8589
511.9377, 260.8802
512.4199, 263.7850
512.9020, 265.3429
513.3841, 266.2941
513.8662, 267.5879
514.3483, 269.4478
514.8304, 271.1934
515.3126, 271.8509
515.7947, 272.3155
516.2768, 273.7357
516.7589, 277.5094
517.2410, 281.1804
517.7231, 283.6944
518.2053, 285.3573
518.6874, 287.7294
519.1695, 291.9599
519.6516, 296.0057
520.1337, 298.9806
520.6158, 300.5216
521.0980, 302.7137
521.5801, 305.7047
522.0622, 309.1676
522.5443, 312.8082
523.0264, 316.5992
523.5085, 320.8377
523.9907, 325.7316
524.4728, 330.8500
524.9549, 335.2128
525.4370, 338.8683
525.9191, 342.5220
526.4012, 346.4271
526.8834, 350.6590
527.3655, 355.5421
527.8476, 361.0354
528.3297, 366.3721
528.8118, 370.6919
529.2939, 374.5355
529.7761, 378.5998
530.2582, 383.1505
530.7403, 387.5807
531.2224, 391.5493
531.7045, 395.1331
532.1866, 398.4462
532.6688, 400.8138
533.1509, 403.6557
533.6330, 408.0986
534.1151, 413.9736
534.5972, 418.0247
535.0793, 419.2197
535.5615, 419.5760
536.0436, 419.9654
536.5257, 420.3597
537.0078, 421.0631
537.4899, 422.4897
537.9720, 423.5882
538.4542, 422.8084
538.9363, 420.0434
539.4184, 417.1672
539.9005, 414.5899
540.3826, 412.2198
540.8647, 410.0543
541.3469, 408.0556
541.8290, 405.9216
542.3111, 403.4544
542.7932, 400.7241
543.2753, 397.7257
543.7574, 394.4664
544.2396, 391.3780
544.7217, 389.0610
545.2038, 386.9443
545.6859, 384.4307
546.1680, 381.2007
546.6501, 377.8956
547.1323, 374.1861
547.6144, 370.6652
548.0965, 368.2948
548.5786, 368.1753
549.0607, 368.1803
549.5428, 368.0364
550.0250, 367.7185
550.5071, 366.8617
550.9892, 365.0737
551.4713, 363.4608
551.9534, 362.8173
552.4355, 363.3152
552.9177, 362.8147
553.3998, 361.0182
553.8819, 359.1426
554.3640, 359.0811
554.8461, 360.4168
555.3282, 360.7215
555.8104, 359.1048
556.2925, 356.7017
556.7746, 354.7777
557.2567, 353.2985
557.7388, 352.1539
558.2209, 351.7313
558.7031, 351.3070
559.1852, 350.3628
559.6673, 348.8832
560.1494, 347.0616
560.6315, 344.4020
561.1136, 341.8388
561.5958, 340.0086
562.0779, 339.2675
562.5600, 338.7440
563.0421, 338.3899
563.5242, 338.2114
564.0063, 338.2973
564.4885, 338.9617
564.9706, 339.1198
565.4527, 338.4541
565.9348, 337.1904
566.4169, 336.0106
566.8990, 334.9071
567.3812, 333.9716
567.8633, 333.0283
568.3454, 332.2692
568.8275, 332.6303
569.3096, 334.1359
569.7917, 335.6848
570.2739, 336.0714
570.7560, 335.9528
571.2381, 336.2851
571.7202, 337.2449
572.2023, 338.7519
572.6844, 341.3610
573.1666, 344.3466
573.6487, 346.6658
574.1308, 346.5782
574.6129, 347.2461
575.0950, 349.6491
575.5771, 353.6489
576.0593, 358.3443
576.5414, 364.3785
577.0235, 370.1699
577.5056, 374.8889
577.9877, 378.2534
578.4698, 383.3128
578.9520, 390.5577
579.4341, 398.2734
579.9162, 404.6985
580.3983, 409.9282
580.8804, 415.8624
581.3625, 422.7046
581.8447, 430.3655
582.3268, 438.8719
582.8089, 448.0377
583.2910, 457.7531
583.7731, 468.0486
584.2552, 478.6818
584.7373, 489.5682
585.2194, 500.6447
585.7015, 511.6684
586.1837, 522.9451
586.6658, 533.7462
587.1479, 543.5095
587.6300, 551.8028
588.1121, 561.3444
588.5942, 573.6848
589.0764, 586.4864
589.5585, 598.3224
590.0406, 609.1347
590.5227, 619.1827
591.0048, 628.5992
591.4869, 637.2033
591.9691, 644.8062
592.4512, 651.3589
592.9333, 656.7119
593.4154, 660.8749
593.8975, 663.7585
594.3796, 665.1013
594.8618, 664.9466
595.3439, 663.6055
595.8260, 661.4090
596.3081, 658.0355
596.7902, 652.8962
597.2723, 646.0011
597.7545, 638.2819
598.2366, 630.5808
598.7187, 622.1365
599.2008, 612.1988
599.6829, 600.0250
600.1650, 587.6808
600.6472, 575.6215
601.1293, 563.5645
601.6114, 551.1484
602.0935, 537.9471
602.5756, 525.5253
603.0577, 514.1978
603.5399, 503.6561
604.0220, 492.7036
604.5041, 481.3836
604.9862, 470.1830
605.4683, 458.8118
605.9504, 447.8581
606.4326, 439.3648
606.9147, 433.2069
607.3968, 427.2538
607.8789, 419.9184
608.3610, 411.9823
608.8431, 404.3134
609.3253, 396.8512
609.8074, 390.3666
610.2895, 386.3139
610.7716, 382.9265
611.2537, 378.4596
611.7358, 371.7698
612.2180, 365.0344
612.7001, 357.8495
613.1822, 350.9279
613.6643, 345.4914
614.1464, 342.5193
614.6285, 339.0242
615.1107, 333.8843
615.5928, 327.7661
616.0749, 323.7591
616.5570, 322.0474
617.0391, 320.1704
617.5212, 316.5759
618.0034, 311.7714
618.4855, 306.7677
618.9676, 301.5552
619.4497, 296.8199
619.9318, 293.2500
620.4139, 290.3630
620.8961, 287.7154
621.3782, 285.3264
621.8603, 282.6969
622.3424, 279.4147
622.8245, 275.8241
623.3066, 272.3209
623.7888, 268.7103
624.2709, 265.5428
624.7530, 263.1311
625.2351, 261.1068
625.7172, 258.5460
626.1993, 255.1375
626.6815, 252.1532
627.1636, 250.2039
627.6457, 248.9415
628.1278, 246.6990
628.6099, 243.4719
629.0920, 240.4746
629.5742, 238.6917
630.0563, 237.6292
630.5384, 236.2622
631.0205, 234.5346
631.5026, 233.1214
631.9847, 233.3264
632.4669, 233.6463
632.9490, 232.4338
633.4311, 228.5333
633.9132, 225.1060
634.3953, 223.0172
634.8774, 221.8503
635.3596, 221.0680
635.8417, 220.9344
636.3238, 220.6690
636.8059, 220.0088
637.2880, 219.2604
637.7701, 219.4207
638.2523, 220.7063
638.7344, 221.2645
639.2165, 220.0950
639.6986, 217.8683
640.1807, 216.4837
640.6628, 215.8593
