##NAMES=Kentrolite
##RRUFFID=R060245
##IDEAL CHEMISTRY=Pb^2+^_2_Mn^3+^_2_O_2_(Si_2_O_7_)
##LOCALITY=Percha Creek area, Hillsboro District, Sierra County, New Mexico, USA
##OWNER=RRUFF
##SOURCE=William W. Pinch
##DESCRIPTION=Dark-purple colored single crystals associated with orange colored prismatic vanadinite and calcite
##STATUS=The identification of this mineral is confirmed by single-crystal X-ray diffraction and chemical analysis.
##URL=rruff.info/R060245
##MEASURED CHEMISTRY=Pb_2.00_(Mn^3+^_1.54_Fe^3+^_0.36_Al_0.10_)_Î£=2_O_2_Si_2.00_O_7_
149.9992, 110.3189
150.4813, 110.2457
150.9634, 110.1006
151.4456, 109.7954
151.9277, 109.0694
152.4098, 107.8433
152.8919, 107.0070
153.3740, 107.5793
153.8561, 108.4107
154.3383, 108.5268
154.8204, 107.5554
155.3025, 106.0637
155.7846, 104.9782
156.2667, 104.4180
156.7488, 104.0513
157.2310, 103.8842
157.7131, 103.7901
158.1952, 103.6364
158.6773, 103.3539
159.1594, 102.9819
159.6415, 102.6532
160.1237, 102.0574
160.6058, 101.9227
161.0879, 102.9853
161.5700, 104.4637
162.0521, 105.1857
162.5342, 104.3325
163.0164, 102.0448
163.4985, 100.5897
163.9806, 100.5242
164.4627, 100.6295
164.9448, 100.6156
165.4269, 100.5015
165.9091, 100.4147
166.3912, 100.4484
166.8733, 100.6089
167.3554, 100.8294
167.8375, 101.2737
168.3196, 101.6352
168.8018, 101.7412
169.2839, 101.5917
169.7660, 101.2728
170.2481, 100.7810
170.7302, 100.1398
171.2123, 99.71867
171.6945, 99.64774
172.1766, 99.74550
172.6587, 99.89438
173.1408, 100.1041
173.6229, 100.2200
174.1050, 100.0568
174.5872, 99.68214
175.0693, 99.23096
175.5514, 98.63029
176.0335, 97.99378
176.5156, 97.58921
176.9977, 97.53683
177.4799, 97.49886
177.9620, 97.31665
178.4441, 96.98223
178.9262, 96.44785
179.4083, 95.41709
179.8904, 94.03206
180.3726, 93.35432
180.8547, 94.05909
181.3368, 94.72408
181.8189, 94.67396
182.3010, 94.02217
182.7831, 93.14308
183.2653, 92.24025
183.7474, 91.29298
184.2295, 90.63750
184.7116, 90.71062
185.1937, 90.72550
185.6758, 90.30497
186.1580, 89.53628
186.6401, 88.80244
187.1222, 88.55242
187.6043, 88.99834
188.0864, 88.98454
188.5685, 88.19073
189.0507, 87.27195
189.5328, 86.43319
190.0149, 85.74995
190.4970, 85.29762
190.9791, 85.18778
191.4612, 85.59096
191.9434, 85.82932
192.4255, 85.91201
192.9076, 85.85191
193.3897, 85.67198
193.8718, 85.37046
194.3539, 84.89916
194.8361, 84.17454
195.3182, 83.04305
195.8003, 82.05634
196.2824, 81.27470
196.7645, 80.61117
197.2466, 79.94311
197.7288, 79.24061
198.2109, 78.66148
198.6930, 78.47963
199.1751, 78.74839
199.6572, 78.98542
200.1393, 79.10889
200.6215, 79.15837
201.1036, 79.20755
201.5857, 79.29004
202.0678, 79.31181
202.5499, 79.06170
203.0320, 78.56271
203.5142, 78.19566
203.9963, 78.15884
204.4784, 78.34992
204.9605, 78.56371
205.4426, 78.83789
205.9247, 78.97996
206.4069, 78.76116
206.8890, 78.22477
207.3711, 77.66023
207.8532, 77.11169
208.3353, 76.62683
208.8174, 76.50134
209.2996, 77.03117
209.7817, 77.63213
210.2638, 77.80916
210.7459, 77.63036
211.2280, 77.51570
211.7101, 77.96445
212.1923, 78.94820
212.6744, 79.37500
213.1565, 78.62089
213.6386, 77.76356
214.1207, 77.35622
214.6028, 77.36479
215.0850, 77.46420
215.5671, 77.35631
216.0492, 77.01037
216.5313, 76.70800
217.0134, 76.58322
217.4956, 76.39395
217.9777, 75.96323
218.4598, 75.34567
218.9419, 74.75916
219.4240, 74.43225
219.9061, 74.40796
220.3883, 74.43620
220.8704, 74.60478
221.3525, 74.74893
221.8346, 74.79194
222.3167, 74.73587
222.7988, 74.63009
223.2810, 74.52549
223.7631, 74.42808
224.2452, 74.29971
224.7273, 74.16573
225.2094, 73.98660
225.6915, 73.68633
226.1737, 73.29691
226.6558, 72.94794
227.1379, 72.77927
227.6200, 72.83199
228.1021, 72.90469
228.5842, 73.20448
229.0664, 73.35770
229.5485, 73.04116
230.0306, 72.30075
230.5127, 71.48763
230.9948, 70.93326
231.4769, 70.66538
231.9591, 70.63639
232.4412, 71.23067
232.9233, 71.74537
233.4054, 71.63396
233.8875, 70.90842
234.3696, 70.05328
234.8518, 69.49360
235.3339, 69.27151
235.8160, 69.19508
236.2981, 69.22373
236.7802, 69.41950
237.2623, 69.94996
237.7445, 70.79061
238.2266, 71.59637
238.7087, 72.19731
239.1908, 72.50721
239.6729, 72.12608
240.1550, 70.20507
240.6372, 68.13985
241.1193, 67.18362
241.6014, 67.39063
242.0835, 67.90955
242.5656, 68.18871
243.0477, 68.26672
243.5299, 68.34346
244.0120, 68.45255
244.4941, 68.55812
244.9762, 68.66389
245.4583, 68.77583
245.9404, 68.75352
246.4226, 68.30143
246.9047, 67.68586
247.3868, 67.50971
247.8689, 68.23623
248.3510, 69.11819
248.8331, 69.22591
249.3153, 68.46832
249.7974, 67.84431
250.2795, 68.09525
250.7616, 68.74258
251.2437, 69.13500
251.7258, 69.11510
252.2080, 68.85078
252.6901, 68.43642
253.1722, 67.83096
253.6543, 67.40098
254.1364, 67.50817
254.6185, 67.79699
255.1007, 67.92358
255.5828, 67.78893
256.0649, 67.55033
256.5470, 67.41781
257.0291, 67.42350
257.5112, 67.33616
257.9933, 66.65617
258.4755, 66.08340
258.9576, 66.30826
259.4397, 67.54403
259.9218, 68.99464
260.4039, 69.73982
260.8860, 69.70478
261.3682, 69.39590
261.8503, 68.48021
262.3324, 67.60252
262.8145, 67.21896
263.2966, 67.40024
263.7787, 67.78667
264.2609, 68.07592
264.7430, 68.32344
265.2251, 68.15814
265.7072, 66.72752
266.1893, 65.44233
266.6714, 65.16976
267.1536, 65.92804
267.6357, 66.99432
268.1178, 67.64730
268.5999, 67.83126
269.0820, 67.91797
269.5641, 67.88658
270.0463, 67.78342
270.5284, 67.62092
271.0105, 67.40073
271.4926, 67.11203
271.9747, 66.65137
272.4568, 65.94588
272.9390, 65.69775
273.4211, 66.38966
273.9032, 67.14442
274.3853, 67.75719
274.8674, 68.18968
275.3495, 68.42777
275.8317, 68.42958
276.3138, 68.19111
276.7959, 68.01199
277.2780, 67.98913
277.7601, 67.93615
278.2422, 67.68465
278.7244, 67.36824
279.2065, 67.27438
279.6886, 67.64790
280.1707, 68.42031
280.6528, 68.86259
281.1349, 68.55602
281.6171, 68.34116
282.0992, 68.44003
282.5813, 68.72095
283.0634, 68.96925
283.5455, 69.05467
284.0276, 69.02846
284.5098, 69.12608
284.9919, 69.50175
285.4740, 69.81968
285.9561, 69.96524
286.4382, 70.05701
286.9203, 70.22720
287.4025, 70.53514
287.8846, 70.95940
288.3667, 71.46117
288.8488, 72.32551
289.3309, 72.83828
289.8130, 72.52232
290.2952, 72.07685
290.7773, 72.31166
291.2594, 73.44561
291.7415, 74.85177
292.2236, 75.34792
292.7057, 74.10854
293.1879, 73.30074
293.6700, 72.95670
294.1521, 72.95933
294.6342, 73.34768
295.1163, 74.07007
295.5984, 74.88122
296.0806, 75.46696
296.5627, 75.79015
297.0448, 75.96177
297.5269, 75.84312
298.0090, 75.71300
298.4911, 75.75000
298.9733, 75.95047
299.4554, 76.17871
299.9375, 76.27682
300.4196, 76.18309
300.9017, 76.39229
301.3839, 77.37935
301.8660, 78.16340
302.3481, 78.13705
302.8302, 77.52384
303.3123, 77.03035
303.7944, 77.22940
304.2766, 78.08886
304.7587, 78.46448
305.2408, 77.66385
305.7229, 77.16222
306.2050, 77.59257
306.6871, 78.56700
307.1693, 79.35197
307.6514, 79.51150
308.1335, 79.23159
308.6156, 79.35008
309.0977, 80.48302
309.5798, 81.30505
310.0620, 81.45116
310.5441, 81.29719
311.0262, 81.32350
311.5083, 81.72433
311.9904, 82.32295
312.4725, 82.72356
312.9547, 82.68169
313.4368, 82.77229
313.9189, 83.11622
314.4010, 83.51673
314.8831, 83.78831
315.3652, 83.89237
315.8474, 83.94583
316.3295, 84.11610
316.8116, 84.47252
317.2937, 84.76838
317.7758, 84.79995
318.2579, 84.93643
318.7401, 85.56200
319.2222, 86.59676
319.7043, 87.53690
320.1864, 87.84731
320.6685, 87.40450
321.1506, 87.34104
321.6328, 87.77660
322.1149, 88.40173
322.5970, 89.28139
323.0791, 90.26484
323.5612, 91.00349
324.0433, 91.22025
324.5255, 90.99698
325.0076, 91.22511
325.4897, 92.18465
325.9718, 93.28301
326.4539, 94.77849
326.9360, 96.26495
327.4182, 97.07976
327.9003, 96.89124
328.3824, 96.12876
328.8645, 96.01064
329.3466, 97.20622
329.8287, 98.19103
330.3109, 98.80897
330.7930, 99.25005
331.2751, 99.70291
331.7572, 100.2154
332.2393, 100.6776
332.7214, 100.9117
333.2036, 100.8216
333.6857, 100.7084
334.1678, 100.3031
334.6499, 100.0853
335.1320, 100.6224
335.6141, 101.7632
336.0963, 102.6947
336.5784, 102.4993
337.0605, 100.9618
337.5426, 100.1616
338.0247, 100.9431
338.5068, 101.5823
338.9890, 101.3032
339.4711, 100.4247
339.9532, 99.69855
340.4353, 99.63754
340.9174, 100.1318
341.3996, 100.4711
341.8817, 100.5796
342.3638, 100.6025
342.8459, 100.6643
343.3280, 100.6189
343.8102, 100.2281
344.2923, 99.39114
344.7744, 98.34402
345.2565, 97.64964
345.7386, 97.72794
346.2207, 97.32052
346.7029, 95.86447
347.1850, 94.29503
347.6671, 93.40591
348.1492, 93.27374
348.6313, 93.30451
349.1134, 92.71873
349.5956, 91.32283
350.0777, 90.17715
350.5598, 89.36876
351.0419, 88.73839
351.5240, 88.34563
352.0061, 88.10023
352.4883, 87.80096
352.9704, 87.30647
353.4525, 86.62184
353.9346, 85.79260
354.4167, 84.54324
354.8988, 83.53187
355.3810, 83.25761
355.8631, 83.22779
356.3452, 82.70360
356.8273, 81.27027
357.3094, 79.41994
357.7915, 78.25549
358.2737, 78.01628
358.7558, 77.87113
359.2379, 77.86802
359.7200, 77.73894
360.2021, 77.18143
360.6842, 76.14566
361.1664, 75.01964
361.6485, 74.26810
362.1306, 73.93732
362.6127, 73.45517
363.0948, 72.59292
363.5769, 71.71902
364.0591, 71.09133
364.5412, 70.65007
365.0233, 70.13600
365.5054, 69.20916
365.9875, 68.03496
366.4696, 67.40841
366.9518, 67.62728
367.4339, 67.81082
367.9160, 67.33934
368.3981, 66.58221
368.8802, 66.13741
369.3623, 66.38348
369.8445, 66.78184
370.3266, 66.48332
370.8087, 65.40623
371.2908, 64.34406
371.7729, 63.56768
372.2550, 62.96952
372.7372, 62.44460
373.2193, 61.98624
373.7014, 61.60136
374.1835, 61.32710
374.6656, 61.14275
375.1477, 60.95026
375.6299, 60.73560
376.1120, 60.50258
376.5941, 60.24251
377.0762, 59.96237
377.5583, 59.69697
378.0404, 59.47135
378.5226, 59.26375
379.0047, 59.06578
379.4868, 58.88416
379.9689, 58.61930
380.4510, 58.08496
380.9331, 57.42762
381.4153, 57.10236
381.8974, 57.60136
382.3795, 57.92701
382.8616, 57.06538
383.3437, 55.36567
383.8258, 54.32734
384.3080, 54.73900
384.7901, 55.84243
385.2722, 56.03619
385.7543, 55.07871
386.2364, 54.33103
386.7185, 54.25658
387.2007, 54.56002
387.6828, 54.96630
388.1649, 55.41972
388.6470, 55.68704
389.1291, 55.45388
389.6112, 54.62757
390.0934, 54.13469
390.5755, 54.33484
391.0576, 54.54641
391.5397, 54.35069
392.0218, 53.80041
392.5039, 53.11760
392.9861, 52.40131
393.4682, 51.70387
393.9503, 51.30463
394.4324, 51.38961
394.9145, 51.51517
395.3966, 51.74213
395.8788, 51.92428
396.3609, 51.83206
396.8430, 51.40859
397.3251, 50.88704
397.8072, 50.62592
398.2893, 50.75549
398.7715, 50.80006
399.2536, 50.77684
399.7357, 50.66886
400.2178, 50.37597
400.6999, 49.97235
401.1820, 49.68083
401.6642, 49.69600
402.1463, 49.98405
402.6284, 50.10086
403.1105, 49.86773
403.5926, 49.66580
404.0747, 49.51760
404.5569, 49.45315
405.0390, 49.54180
405.5211, 49.80877
406.0032, 50.12364
406.4853, 50.26400
406.9674, 50.21144
407.4496, 50.03932
407.9317, 49.56606
408.4138, 49.12776
408.8959, 48.98769
409.3780, 49.09604
409.8601, 49.14693
410.3423, 48.76836
410.8244, 48.05642
411.3065, 47.86028
411.7886, 48.59255
412.2707, 49.13594
412.7528, 48.81760
413.2350, 48.07589
413.7171, 47.52488
414.1992, 47.39427
414.6813, 47.49471
415.1634, 47.61637
415.6455, 47.76149
416.1277, 47.88045
416.6098, 47.92627
417.0919, 47.97002
417.5740, 48.17255
418.0561, 48.54185
418.5382, 48.66413
419.0204, 48.02108
419.5025, 47.02034
419.9846, 46.60622
420.4667, 46.96787
420.9488, 47.50961
421.4309, 47.86840
421.9131, 48.02838
422.3952, 47.94016
422.8773, 47.28955
423.3594, 46.65799
423.8415, 46.60022
424.3236, 46.94265
424.8058, 46.96595
425.2879, 46.26925
425.7700, 45.26429
426.2521, 44.84581
426.7342, 45.12449
427.2163, 45.53576
427.6985, 46.17939
428.1806, 46.80444
428.6627, 47.10011
429.1448, 47.04555
429.6269, 46.91528
430.1090, 46.96557
430.5912, 47.21002
431.0733, 47.37098
431.5554, 47.63562
432.0375, 47.63689
432.5196, 47.03320
433.0017, 46.12619
433.4839, 45.41303
433.9660, 45.12695
434.4481, 45.11361
434.9302, 45.02896
435.4123, 44.75703
435.8944, 44.63227
436.3766, 44.75912
436.8587, 44.93573
437.3408, 45.03956
437.8229, 45.06171
438.3050, 45.06000
438.7871, 45.09521
439.2693, 45.16004
439.7514, 45.11474
440.2335, 44.78601
440.7156, 44.60103
441.1977, 44.75277
441.6798, 45.07685
442.1620, 45.39383
442.6441, 45.65107
443.1262, 45.81045
443.6083, 45.78295
444.0904, 45.55020
444.5725, 45.35655
445.0547, 45.24379
445.5368, 45.19219
446.0189, 45.20433
446.5010, 45.26799
446.9831, 45.32094
447.4652, 45.20197
447.9474, 45.09056
448.4295, 45.49573
448.9116, 46.53045
449.3937, 47.19540
449.8758, 46.62561
450.3579, 45.40014
450.8401, 44.82977
451.3222, 45.19855
451.8043, 45.73573
452.2864, 46.17624
452.7685, 46.47816
453.2506, 46.45891
453.7328, 46.03046
454.2149, 45.59529
454.6970, 45.66854
455.1791, 46.36619
455.6612, 46.83592
456.1433, 47.09766
456.6255, 47.10402
457.1076, 46.57895
457.5897, 45.74955
458.0718, 45.25672
458.5539, 45.48067
459.0360, 46.19341
459.5182, 46.68640
460.0003, 46.85279
460.4824, 46.92009
460.9645, 46.70272
461.4466, 46.51739
461.9287, 46.76477
462.4109, 47.39582
462.8930, 47.89525
463.3751, 47.71944
463.8572, 46.86215
464.3393, 46.12200
464.8214, 45.49119
465.3036, 45.00435
465.7857, 44.60565
466.2678, 44.37150
466.7499, 44.44512
467.2320, 44.89547
467.7141, 45.48949
468.1963, 45.89729
468.6784, 46.10534
469.1605, 46.30070
469.6426, 46.62697
470.1247, 46.80893
470.6068, 46.59792
471.0890, 46.07004
471.5711, 45.54602
472.0532, 45.08257
472.5353, 44.75505
473.0174, 44.80534
473.4995, 45.25608
473.9817, 45.50210
474.4638, 45.10416
474.9459, 44.43043
475.4280, 44.25279
475.9101, 44.75172
476.3922, 45.16692
476.8744, 45.18734
477.3565, 44.96016
477.8386, 44.58786
478.3207, 44.10070
478.8028, 43.82732
479.2849, 44.16905
479.7671, 45.12822
480.2492, 45.46847
480.7313, 44.40800
481.2134, 43.69860
481.6955, 44.29231
482.1776, 45.52488
482.6598, 46.42061
483.1419, 46.61132
483.6240, 46.28096
484.1061, 45.63536
484.5882, 44.33469
485.0703, 43.70304
485.5525, 44.24629
486.0346, 44.91307
486.5167, 45.32655
486.9988, 45.47359
487.4809, 45.41196
487.9630, 45.13445
488.4452, 44.75743
488.9273, 44.60699
489.4094, 44.78620
489.8915, 44.87049
490.3736, 44.53539
490.8557, 44.21427
491.3379, 44.30962
491.8200, 44.81406
492.3021, 45.20850
492.7842, 45.00481
493.2663, 44.46336
493.7484, 44.23455
494.2306, 44.38653
494.7127, 44.64122
495.1948, 44.93467
495.6769, 45.17841
496.1590, 45.16160
496.6411, 44.72839
497.1233, 44.31523
497.6054, 44.10057
498.0875, 44.05128
498.5696, 44.11069
499.0517, 44.26488
499.5338, 44.55257
500.0160, 45.08099
500.4981, 45.90015
500.9802, 46.27141
501.4623, 45.87561
501.9444, 45.44085
502.4265, 45.21058
502.9087, 45.13920
503.3908, 45.11772
503.8729, 45.10258
504.3550, 45.14028
504.8371, 45.33582
505.3192, 45.79090
505.8014, 46.12540
506.2835, 46.22591
506.7656, 46.31613
507.2477, 46.58670
507.7298, 46.92154
508.2119, 46.99805
508.6941, 46.52902
509.1762, 45.90267
509.6583, 46.03725
510.1404, 47.10937
510.6225, 47.90312
511.1046, 47.78166
511.5868, 47.51009
512.0688, 47.89817
512.5510, 48.92058
513.0331, 49.72868
513.5152, 49.71679
513.9973, 49.35194
514.4794, 49.35773
514.9615, 49.75686
515.4437, 50.04441
515.9258, 49.85295
516.4079, 49.41523
516.8900, 49.46296
517.3721, 50.25941
517.8542, 50.91692
518.3364, 51.07539
518.8185, 51.10125
519.3006, 51.44137
519.7827, 52.10107
520.2648, 52.69368
520.7469, 52.86408
521.2291, 52.64785
521.7112, 52.57685
522.1933, 52.59763
522.6754, 52.85241
523.1575, 53.50936
523.6396, 54.32607
524.1218, 55.15959
524.6039, 55.93813
525.0860, 56.47628
525.5681, 56.42762
526.0502, 55.81113
526.5323, 55.60232
527.0145, 55.95550
527.4966, 56.46065
527.9787, 56.96477
528.4608, 57.48018
528.9429, 58.04827
529.4250, 58.71169
529.9072, 59.31818
530.3893, 59.76225
530.8714, 60.05111
531.3535, 60.20121
531.8356, 60.20613
532.3177, 60.10591
532.7999, 59.84902
533.2820, 59.46659
533.7641, 59.41517
534.2462, 59.84842
534.7283, 60.45955
535.2104, 61.37028
535.6926, 62.30112
536.1747, 62.69135
536.6568, 62.36799
537.1389, 61.80893
537.6210, 61.70826
538.1031, 62.24112
538.5853, 62.44812
539.0674, 61.81672
539.5495, 61.42503
540.0316, 61.73838
540.5137, 62.50989
540.9958, 63.40409
541.4780, 64.29736
541.9601, 65.00774
542.4422, 65.17500
542.9243, 64.75423
543.4064, 64.40791
543.8885, 64.16069
544.3707, 64.08824
544.8528, 64.35030
545.3349, 64.81272
545.8170, 65.12493
546.2991, 65.18710
546.7813, 65.04221
547.2634, 64.62179
547.7455, 64.00463
548.2276, 63.49062
548.7097, 63.16748
549.1918, 63.00193
549.6740, 62.97137
550.1561, 63.10468
550.6382, 63.23867
551.1203, 63.28583
551.6024, 63.41937
552.0845, 63.95341
552.5667, 64.60421
553.0488, 64.71735
553.5309, 64.01202
554.0130, 63.05087
554.4951, 62.93878
554.9772, 64.12971
555.4594, 64.78401
555.9415, 64.44696
556.4236, 63.99453
556.9057, 63.64227
557.3878, 63.43739
557.8699, 63.43609
558.3521, 63.70054
558.8342, 64.06863
559.3163, 64.36263
559.7984, 64.57848
560.2805, 64.63816
560.7626, 64.47749
561.2448, 64.23637
561.7269, 63.85344
562.2090, 63.42778
562.6911, 63.55318
563.1732, 64.82558
563.6553, 66.21684
564.1375, 67.03378
564.6196, 67.45074
565.1017, 67.90971
565.5838, 68.56422
566.0659, 69.31538
566.5480, 70.02639
567.0302, 70.70325
567.5123, 71.32787
567.9944, 71.60010
568.4765, 72.15112
568.9586, 73.44797
569.4407, 75.10448
569.9229, 76.50117
570.4050, 77.40505
570.8871, 78.09435
571.3692, 78.85600
571.8513, 79.67021
572.3334, 80.98497
572.8156, 83.34990
573.2977, 85.40828
573.7798, 85.92312
574.2619, 85.67467
574.7440, 86.16934
575.2261, 88.00800
575.7083, 90.18511
576.1904, 92.08717
576.6725, 93.74026
577.1546, 95.19983
577.6367, 96.46883
578.1188, 97.60999
578.6010, 98.67973
579.0831, 99.67629
579.5652, 100.5626
580.0473, 101.1860
580.5294, 101.8995
581.0115, 102.8517
581.4937, 103.9130
581.9758, 104.9189
582.4579, 105.8412
582.9400, 106.7884
583.4221, 107.9355
583.9042, 109.2597
584.3864, 110.2719
584.8685, 111.0023
585.3506, 111.3628
585.8328, 111.0230
586.3149, 110.4878
586.7970, 110.3064
587.2791, 110.5760
587.7612, 110.8746
588.2433, 110.9480
588.7255, 110.8502
589.2076, 110.6997
589.6897, 110.5064
590.1718, 110.1641
590.6539, 109.5748
591.1360, 108.8203
591.6182, 108.1561
592.1003, 107.7801
592.5824, 107.0960
593.0645, 105.8922
593.5466, 104.4556
594.0287, 102.8415
594.5109, 101.1877
594.9930, 99.84750
595.4751, 99.10440
595.9572, 98.65805
596.4393, 97.53259
596.9214, 95.36782
597.4036, 93.51714
597.8857, 92.63940
598.3678, 91.72861
598.8499, 90.10085
599.3320, 87.92652
599.8141, 85.88470
600.2963, 84.21230
600.7784, 82.87820
601.2605, 81.96304
601.7426, 81.39924
602.2247, 80.80153
602.7068, 80.09004
603.1890, 79.18786
603.6711, 77.92357
604.1532, 76.22228
604.6353, 74.85152
605.1174, 73.99111
605.5995, 73.25194
606.0817, 72.63858
606.5638, 71.98330
607.0459, 71.00164
607.5280, 69.63569
608.0101, 68.16096
608.4922, 66.81680
608.9744, 65.58949
609.4565, 65.09174
609.9386, 66.00423
610.4207, 66.53335
610.9028, 65.93393
611.3849, 64.68606
611.8671, 63.11425
612.3492, 61.22673
612.8313, 59.77833
613.3134, 59.70314
613.7955, 60.24685
614.2776, 59.86015
614.7598, 58.46700
615.2419, 57.32106
615.7240, 57.21711
616.2061, 57.76825
616.6882, 57.91661
617.1703, 57.57963
617.6525, 56.98876
618.1346, 55.84793
618.6167, 54.71625
619.0988, 54.00144
619.5809, 53.62671
620.0630, 53.31585
620.5452, 52.92484
621.0273, 52.47130
621.5094, 51.97985
621.9915, 51.44049
622.4736, 50.93064
622.9557, 50.44872
623.4379, 50.01527
623.9200, 49.74084
624.4021, 49.52049
624.8842, 49.04600
625.3663, 47.93711
625.8484, 47.05049
626.3306, 47.36180
626.8127, 48.24894
627.2948, 48.33377
627.7769, 47.35947
628.2590, 46.26565
628.7411, 45.89988
629.2233, 46.19239
629.7054, 46.27546
630.1875, 45.83751
630.6696, 45.58266
631.1517, 45.93347
631.6339, 46.23441
632.1160, 45.77728
632.5981, 44.65336
633.0802, 43.63198
633.5623, 43.28740
634.0444, 43.38464
634.5266, 43.38983
635.0087, 43.29470
635.4908, 43.22118
635.9729, 43.19639
636.4550, 43.21886
636.9371, 43.32935
637.4193, 43.51664
637.9014, 43.60460
638.3835, 43.45457
638.8656, 43.31254
639.3477, 43.44954
639.8298, 43.66008
640.3120, 43.47774
640.7941, 42.79864
641.2762, 42.10793
641.7583, 42.01291
642.2404, 42.52777
642.7225, 42.76233
