##NAMES=Kentbrooksite
##RRUFFID=R110208
##IDEAL CHEMISTRY=(Na,La^3+^)_15_(Ca,La^3+^)_6_Mn^2+^_3_Zr^4+^_3_Nb^5+^Si_25_O_73_(O,OH,H_2_O)_3_(F,Cl)_2_
##LOCALITY=Pocos de Caldas plateau, Minas Gerais, Brazil
##OWNER=RRUFF
##SOURCE=Gunnar Farber
##DESCRIPTION=Red massive crystalline associated with aegirine and nepheline
##STATUS=The identification of this mineral has been confirmed only by single crystal X-ray diffraction.
##URL=rruff.info/R110208
109.9240, 255.0449
110.4061, 254.7315
110.8882, 254.8622
111.3703, 255.4741
111.8524, 256.3553
112.3345, 256.9213
112.8167, 256.7753
113.2988, 256.8329
113.7809, 257.3322
114.2630, 258.0763
114.7451, 258.8169
115.2272, 259.3916
115.7094, 259.8145
116.1915, 260.2753
116.6736, 260.7438
117.1557, 261.2691
117.6378, 262.0075
118.1199, 262.8615
118.6021, 263.4717
119.0842, 263.4051
119.5663, 262.6174
120.0484, 262.6214
120.5305, 264.0692
121.0126, 265.8896
121.4948, 267.1624
121.9769, 267.7518
122.4590, 268.0359
122.9411, 268.4613
123.4232, 268.9397
123.9053, 268.9992
124.3875, 268.1444
124.8696, 266.7243
125.3517, 265.7007
125.8338, 265.2219
126.3159, 265.1596
126.7980, 265.3996
127.2802, 265.9128
127.7623, 266.5644
128.2444, 267.2957
128.7265, 268.1168
129.2086, 268.8824
129.6907, 269.5221
130.1729, 270.1476
130.6550, 270.8840
131.1371, 271.7111
131.6192, 272.4427
132.1013, 272.7364
132.5834, 272.0674
133.0656, 272.0429
133.5477, 272.8684
134.0298, 274.1104
134.5119, 275.6313
134.9940, 277.3387
135.4761, 278.9706
135.9583, 279.8949
136.4404, 278.9573
136.9225, 278.7244
137.4046, 279.9084
137.8867, 281.7645
138.3688, 283.2748
138.8510, 283.9951
139.3331, 284.0289
139.8152, 283.7131
140.2973, 283.2241
140.7794, 282.2706
141.2615, 280.4634
141.7437, 277.9799
142.2258, 275.6017
142.7079, 273.8532
143.1900, 272.4236
143.6721, 270.6114
144.1542, 268.1611
144.6364, 265.5908
145.1185, 263.4544
145.6006, 261.8273
146.0827, 260.1784
146.5648, 258.3055
147.0469, 256.2336
147.5291, 253.8819
148.0112, 251.0685
148.4933, 248.1208
148.9754, 245.8226
149.4575, 244.5034
149.9396, 243.2960
150.4218, 241.7134
150.9039, 240.0773
151.3860, 238.8843
151.8681, 238.5160
152.3502, 238.8265
152.8323, 238.5657
153.3145, 236.9067
153.7966, 235.4373
154.2787, 234.5581
154.7608, 234.1124
155.2429, 233.7336
155.7250, 233.1316
156.2072, 232.2871
156.6893, 231.5076
157.1714, 230.5366
157.6535, 229.8345
158.1356, 229.6961
158.6177, 230.0545
159.0999, 230.6110
159.5820, 231.1689
160.0641, 231.7627
160.5462, 231.7275
161.0283, 230.3136
161.5104, 228.8110
161.9926, 228.4296
162.4747, 229.3112
162.9568, 230.2690
163.4389, 229.9300
163.9210, 228.3642
164.4031, 226.9083
164.8853, 225.9108
165.3674, 225.1134
165.8495, 224.1046
166.3316, 222.7305
166.8137, 221.4029
167.2958, 220.5291
167.7780, 220.0216
168.2601, 219.6439
168.7422, 219.3644
169.2243, 219.1454
169.7064, 218.8338
170.1885, 218.3745
170.6707, 217.8629
171.1528, 217.2945
171.6349, 216.7071
172.1170, 216.2400
172.5991, 215.9464
173.0812, 215.8182
173.5634, 216.0434
174.0455, 217.3221
174.5276, 218.4129
175.0097, 218.5498
175.4918, 217.8683
175.9739, 217.1628
176.4561, 217.3950
176.9382, 218.9719
177.4203, 220.1115
177.9024, 220.2998
178.3845, 220.4969
178.8666, 221.3129
179.3488, 222.7604
179.8309, 224.3671
180.3130, 225.4382
180.7951, 225.5303
181.2772, 226.0930
181.7593, 227.4537
182.2415, 229.0051
182.7236, 230.3521
183.2057, 231.3859
183.6878, 232.1647
184.1699, 232.7298
184.6520, 232.7056
185.1342, 233.2924
185.6163, 235.0985
186.0984, 237.2786
186.5805, 238.8620
187.0626, 239.5396
187.5447, 239.8531
188.0269, 240.7572
188.5090, 242.4128
188.9911, 243.8909
189.4732, 244.7233
189.9553, 245.2838
190.4374, 246.3218
190.9196, 248.2415
191.4017, 250.2995
191.8838, 251.2892
192.3659, 251.1432
192.8480, 251.1549
193.3301, 252.1428
193.8123, 253.8215
194.2944, 255.1321
194.7765, 255.6913
195.2586, 255.9058
195.7407, 256.2175
196.2228, 256.6261
196.7050, 257.0894
197.1871, 257.6304
197.6692, 258.2413
198.1513, 258.7555
198.6334, 259.3351
199.1155, 259.6042
199.5977, 259.1525
200.0798, 258.0029
200.5619, 256.7987
201.0440, 256.2639
201.5261, 256.5408
202.0082, 256.5219
202.4904, 256.0189
202.9725, 255.2071
203.4546, 254.1692
203.9367, 252.9056
204.4188, 251.3328
204.9009, 249.1776
205.3831, 246.0087
205.8652, 243.6238
206.3473, 242.4377
206.8294, 241.7002
207.3115, 241.2393
207.7936, 240.9106
208.2758, 240.4041
208.7579, 239.1933
209.2400, 236.6266
209.7221, 234.8149
210.2042, 234.0972
210.6863, 233.7544
211.1685, 233.3799
211.6506, 232.8578
212.1327, 232.2305
212.6148, 231.5363
213.0969, 230.6573
213.5790, 229.9972
214.0612, 229.6888
214.5433, 229.4999
215.0254, 229.2987
215.5075, 229.0413
215.9896, 228.6582
216.4717, 228.0134
216.9539, 226.8396
217.4360, 226.0811
217.9181, 225.9395
218.4002, 226.1248
218.8823, 226.4629
219.3644, 226.9143
219.8466, 227.2592
220.3287, 227.0811
220.8108, 226.2151
221.2929, 225.7828
221.7750, 226.0919
222.2571, 226.8546
222.7393, 227.8175
223.2214, 228.9696
223.7035, 230.0673
224.1856, 230.6836
224.6677, 230.8577
225.1498, 231.1833
225.6320, 232.0086
226.1141, 233.0314
226.5962, 233.7078
227.0783, 233.8685
227.5604, 233.9252
228.0425, 234.2109
228.5247, 234.7025
229.0068, 235.4543
229.4889, 236.7132
229.9710, 238.2231
230.4531, 239.4334
230.9352, 240.2769
231.4174, 240.8159
231.8995, 241.0929
232.3816, 241.1353
232.8637, 240.9741
233.3458, 240.7729
233.8279, 240.3960
234.3101, 239.2730
234.7922, 236.9249
235.2743, 234.6261
235.7564, 233.3428
236.2385, 232.6375
236.7206, 231.6066
237.2028, 229.6655
237.6849, 226.9951
238.1670, 224.2390
238.6491, 220.9405
239.1312, 218.3159
239.6133, 217.1107
240.0955, 216.7653
240.5776, 216.3062
241.0597, 215.1018
241.5418, 213.3479
242.0239, 211.9676
242.5060, 210.7075
242.9882, 210.2796
243.4703, 211.7492
243.9524, 213.9176
244.4345, 214.9395
244.9166, 213.5662
245.3987, 210.4526
245.8809, 208.7354
246.3630, 209.4243
246.8451, 210.3439
247.3272, 211.3966
247.8093, 212.3057
248.2914, 212.6158
248.7736, 212.0235
249.2557, 210.8834
249.7378, 210.6582
250.2199, 212.2362
250.7020, 213.6988
251.1841, 214.7465
251.6663, 215.5571
252.1484, 216.3839
252.6305, 217.3589
253.1126, 218.3531
253.5947, 218.9669
254.0768, 218.4516
254.5590, 218.4612
255.0411, 219.4956
255.5232, 220.9446
256.0053, 222.0807
256.4874, 222.5956
256.9695, 222.8215
257.4517, 223.5596
257.9338, 225.7328
258.4159, 227.3221
258.8980, 227.8366
259.3801, 227.9693
259.8622, 228.4644
260.3444, 229.5761
260.8265, 231.0213
261.3086, 232.2785
261.7907, 233.3927
262.2728, 234.2005
262.7549, 234.4766
263.2371, 234.5561
263.7192, 234.8100
264.2013, 235.3319
264.6834, 235.8795
265.1655, 236.0934
265.6476, 235.8492
266.1298, 235.5090
266.6119, 234.8571
267.0940, 234.2343
267.5761, 234.0574
268.0582, 234.3896
268.5403, 234.7937
269.0225, 234.6897
269.5046, 233.8686
269.9867, 233.5938
270.4688, 234.4821
270.9509, 235.5641
271.4330, 235.9455
271.9152, 235.5401
272.3973, 234.9391
272.8794, 234.6606
273.3615, 234.7424
273.8436, 234.9314
274.3257, 235.3094
274.8079, 235.7324
275.2900, 236.0628
275.7721, 236.3021
276.2542, 236.5644
276.7363, 236.9022
277.2184, 237.3461
277.7006, 237.9821
278.1827, 239.2487
278.6648, 240.3526
279.1469, 240.5211
279.6290, 239.8701
280.1111, 239.3531
280.5933, 239.5180
281.0754, 240.2876
281.5575, 241.1927
282.0396, 242.4230
282.5217, 243.5585
283.0038, 244.3144
283.4860, 244.7381
283.9681, 245.0623
284.4502, 245.3217
284.9323, 245.6076
285.4144, 246.0836
285.8965, 246.7720
286.3787, 247.5777
286.8608, 248.3999
287.3429, 249.2827
287.8250, 250.4499
288.3071, 252.1107
288.7892, 253.9005
289.2714, 255.3257
289.7535, 256.3836
290.2356, 257.2155
290.7177, 257.7329
291.1998, 258.0685
291.6819, 258.6432
292.1641, 259.6846
292.6462, 260.7132
293.1283, 260.9637
293.6104, 260.5505
294.0925, 260.6085
294.5746, 262.0667
295.0568, 264.2191
295.5389, 265.5562
296.0210, 265.6932
296.5031, 265.6439
296.9852, 266.3952
297.4673, 267.6797
297.9495, 268.7950
298.4316, 269.3023
298.9137, 269.5892
299.3958, 270.2152
299.8779, 271.2154
300.3600, 272.4568
300.8422, 274.1756
301.3243, 276.0313
301.8064, 277.3496
302.2885, 277.6330
302.7706, 277.6754
303.2527, 278.5230
303.7349, 280.2503
304.2170, 281.7542
304.6991, 282.2785
305.1812, 282.3858
305.6633, 282.8779
306.1454, 283.9871
306.6276, 285.1444
307.1097, 285.9434
307.5918, 286.3836
308.0739, 286.3922
308.5560, 285.5479
309.0381, 284.6107
309.5203, 284.4760
310.0024, 285.2272
310.4845, 286.1263
310.9666, 286.6644
311.4487, 286.9173
311.9308, 287.2477
312.4130, 287.7043
312.8951, 288.2897
313.3772, 289.1550
313.8593, 290.2267
314.3414, 290.9528
314.8235, 290.7737
315.3057, 290.0580
315.7878, 289.8160
316.2699, 290.2992
316.7520, 290.8497
317.2341, 290.9026
317.7162, 290.6540
318.1984, 290.5232
318.6805, 290.6699
319.1626, 291.0170
319.6447, 291.4807
320.1268, 292.0858
320.6089, 292.6855
321.0911, 293.1203
321.5732, 293.5262
322.0553, 294.1016
322.5374, 294.9317
323.0195, 295.8731
323.5016, 296.8033
323.9838, 297.7280
324.4659, 298.5816
324.9480, 299.1634
325.4301, 299.7968
325.9122, 300.9687
326.3943, 302.8453
326.8765, 304.5628
327.3586, 305.2676
327.8407, 305.1778
328.3228, 305.5335
328.8049, 306.8163
329.2870, 308.3582
329.7692, 309.6057
330.2513, 310.5595
330.7334, 311.0673
331.2155, 310.6960
331.6976, 309.8539
332.1797, 309.6346
332.6619, 310.4153
333.1440, 311.0726
333.6261, 310.3513
334.1082, 308.7695
334.5903, 307.5224
335.0724, 307.5002
335.5546, 307.7451
336.0367, 306.9842
336.5188, 305.1574
337.0009, 302.9389
337.4830, 300.5238
337.9651, 298.0095
338.4473, 295.5725
338.9294, 293.1547
339.4115, 290.9426
339.8936, 289.2260
340.3757, 287.9296
340.8578, 286.5043
341.3400, 284.5806
341.8221, 282.6019
342.3042, 281.2852
342.7863, 280.7423
343.2684, 280.1539
343.7505, 279.1330
344.2327, 277.7694
344.7148, 276.1859
345.1969, 274.2916
345.6790, 272.4968
346.1611, 271.3625
346.6432, 270.7858
347.1254, 270.3221
347.6075, 269.7837
348.0896, 269.3333
348.5717, 269.3462
349.0538, 269.8789
349.5359, 270.1719
350.0181, 269.4796
350.5002, 268.0460
350.9823, 267.0616
351.4644, 266.8116
351.9465, 266.8432
352.4286, 266.9027
352.9108, 266.9946
353.3929, 267.2001
353.8750, 267.6823
354.3571, 268.1682
354.8392, 267.8904
355.3214, 266.3473
355.8035, 265.2621
356.2856, 265.8990
356.7677, 267.2935
357.2498, 267.5828
357.7319, 266.1385
358.2141, 264.0387
358.6962, 262.7407
359.1783, 262.3781
359.6604, 261.9470
360.1425, 261.3057
360.6246, 260.5638
361.1068, 259.9012
361.5889, 259.3051
362.0710, 258.4926
362.5531, 257.1821
363.0352, 255.3703
363.5173, 253.6916
363.9995, 252.1711
364.4816, 250.7354
364.9637, 249.3127
365.4458, 247.9478
365.9279, 246.7612
366.4100, 245.8230
366.8922, 245.0885
367.3743, 244.4457
367.8564, 244.2204
368.3385, 243.6225
368.8206, 242.2645
369.3027, 240.6009
369.7849, 239.0944
370.2670, 237.8914
370.7491, 236.9715
371.2312, 236.3323
371.7133, 236.0862
372.1954, 235.8178
372.6776, 235.6691
373.1597, 235.3868
373.6418, 234.6526
374.1239, 233.5874
374.6060, 232.6902
375.0881, 232.3956
375.5703, 232.6779
376.0524, 232.5612
376.5345, 231.6260
377.0166, 230.7833
377.4987, 230.2176
377.9808, 229.8752
378.4630, 229.6739
378.9451, 229.5766
379.4272, 229.5597
379.9093, 229.5556
380.3914, 229.4434
380.8735, 229.5682
381.3557, 230.1713
381.8378, 230.8262
382.3199, 231.2347
382.8020, 231.3502
383.2841, 231.2885
383.7662, 231.1318
384.2484, 230.8341
384.7305, 230.7578
385.2126, 231.2409
385.6947, 231.6226
386.1768, 231.6542
386.6589, 231.4232
387.1411, 231.0975
387.6232, 230.7332
388.1053, 230.4145
388.5874, 230.4945
389.0695, 231.2695
389.5516, 231.8843
390.0338, 232.2946
390.5159, 232.4058
390.9980, 232.0701
391.4801, 231.2506
391.9622, 230.1740
392.4443, 228.9271
392.9265, 227.4263
393.4086, 226.6221
393.8907, 227.4682
394.3728, 228.2605
394.8549, 227.9028
395.3370, 226.5921
395.8192, 225.2323
396.3013, 224.4485
396.7834, 224.0542
397.2655, 223.3772
397.7476, 222.2384
398.2297, 221.2879
398.7119, 221.1414
399.1940, 221.3022
399.6761, 221.0937
400.1582, 220.2101
400.6403, 219.2179
401.1224, 218.7876
401.6046, 218.8734
402.0867, 218.7036
402.5688, 217.7756
403.0509, 216.8116
403.5330, 216.7546
404.0151, 217.6200
404.4973, 218.4172
404.9794, 218.7115
405.4615, 218.6579
405.9436, 218.4535
406.4257, 218.0952
406.9078, 217.7964
407.3900, 217.6735
407.8721, 217.7650
408.3542, 218.1792
408.8363, 219.2005
409.3184, 220.3001
409.8005, 221.1862
410.2827, 221.8727
410.7648, 222.3838
411.2469, 222.7061
411.7290, 222.9081
412.2111, 223.1398
412.6932, 223.4263
413.1754, 223.6743
413.6575, 223.8064
414.1396, 223.9233
414.6217, 224.1209
415.1038, 224.4176
415.5859, 224.8009
416.0681, 225.2702
416.5502, 225.8360
417.0323, 226.3661
417.5144, 226.6162
417.9965, 227.0842
418.4786, 228.2149
418.9608, 229.6837
419.4429, 230.8848
419.9250, 231.5043
420.4071, 231.6739
420.8892, 231.7405
421.3713, 231.5265
421.8535, 231.4875
422.3356, 231.6783
422.8177, 232.0057
423.2998, 232.5987
423.7819, 233.3533
424.2640, 233.7829
424.7462, 233.2886
425.2283, 231.7846
425.7104, 230.5994
426.1925, 229.6421
426.6746, 229.1545
427.1567, 229.7002
427.6389, 230.6431
428.1210, 230.9792
428.6031, 230.1796
429.0852, 228.7395
429.5673, 227.7405
430.0494, 227.4344
430.5316, 226.6592
431.0137, 224.3250
431.4958, 221.9991
431.9779, 220.7982
432.4600, 220.7459
432.9421, 220.9525
433.4243, 220.8738
433.9064, 220.5221
434.3885, 219.8795
434.8706, 218.7764
435.3527, 217.7729
435.8348, 217.3632
436.3170, 217.2709
436.7991, 217.0007
437.2812, 216.1779
437.7633, 215.5013
438.2454, 215.8435
438.7275, 217.0419
439.2097, 217.9509
439.6918, 218.1335
440.1739, 217.9173
440.6560, 217.6965
441.1381, 217.4377
441.6202, 217.4148
442.1024, 217.8515
442.5845, 218.4832
443.0666, 219.1371
443.5487, 219.7624
444.0308, 220.0339
444.5129, 219.6022
444.9951, 218.5729
445.4772, 217.9616
445.9593, 218.0789
446.4414, 218.1893
446.9235, 217.9497
447.4056, 217.5994
447.8878, 217.5710
448.3699, 218.0039
448.8520, 218.5592
449.3341, 218.7029
449.8162, 218.2305
450.2983, 217.9141
450.7805, 217.9968
451.2626, 217.9897
451.7447, 217.5701
452.2268, 216.8374
452.7089, 216.1104
453.1910, 215.6186
453.6732, 215.2716
454.1553, 214.6475
454.6374, 213.3284
455.1195, 212.4653
455.6016, 212.6654
456.0837, 213.0613
456.5659, 212.8541
457.0480, 211.9283
457.5301, 210.8696
458.0122, 210.3520
458.4943, 210.3584
458.9764, 210.0748
459.4586, 209.2988
459.9407, 208.4925
460.4228, 208.0366
460.9049, 207.7006
461.3870, 207.0031
461.8691, 205.5382
462.3513, 204.0401
462.8334, 203.6903
463.3155, 204.4251
463.7976, 204.5234
464.2797, 203.1928
464.7618, 201.2999
465.2440, 199.9778
465.7261, 199.2316
466.2082, 198.3899
466.6903, 197.0501
467.1724, 195.5849
467.6545, 194.4434
468.1367, 193.6582
468.6188, 193.0617
469.1009, 192.6290
469.5830, 192.2778
470.0651, 191.5775
470.5472, 190.2132
471.0294, 188.9551
471.5115, 188.2408
471.9936, 187.6408
472.4757, 186.4361
472.9578, 184.5001
473.4399, 182.5682
473.9221, 181.5714
474.4042, 181.7239
474.8863, 181.5776
475.3684, 180.9405
475.8505, 180.2446
476.3326, 179.7171
476.8148, 179.2269
477.2969, 178.4937
477.7790, 177.3785
478.2611, 176.0938
478.7432, 175.1226
479.2253, 174.5954
479.7075, 174.0248
480.1896, 173.1906
480.6717, 172.4428
481.1538, 172.1191
481.6359, 172.1085
482.1180, 171.9101
482.6002, 171.0261
483.0823, 169.7623
483.5644, 169.0354
484.0465, 169.0011
484.5286, 168.9512
485.0107, 168.6201
485.4929, 168.0768
485.9750, 167.3515
486.4571, 166.4092
486.9392, 165.5002
487.4213, 164.5549
487.9034, 163.7829
488.3856, 163.8609
488.8677, 165.0062
489.3498, 166.1146
489.8319, 166.1968
490.3140, 165.2958
490.7961, 164.5531
491.2783, 163.7089
491.7604, 163.2873
492.2425, 163.9632
492.7246, 165.1484
493.2067, 165.6825
493.6888, 165.1577
494.1710, 164.1707
494.6531, 163.6273
495.1352, 163.6379
495.6173, 163.7820
496.0994, 164.1931
496.5815, 164.5883
497.0637, 164.7948
497.5458, 164.8786
498.0279, 165.0097
498.5100, 165.2895
498.9921, 165.6434
499.4742, 165.9257
499.9564, 166.2363
500.4385, 166.2052
500.9206, 165.1226
501.4027, 164.2034
501.8848, 164.4090
502.3669, 165.6017
502.8491, 166.7527
503.3312, 166.9882
503.8133, 166.7093
504.2954, 167.1584
504.7775, 168.5622
505.2596, 169.5933
505.7418, 169.2864
506.2239, 168.4376
506.7060, 168.3091
507.1881, 169.2060
507.6702, 169.7938
508.1523, 169.1058
508.6345, 167.7736
509.1166, 166.8511
509.5987, 166.4922
510.0808, 166.3164
510.5629, 166.0609
511.0450, 165.7194
511.5272, 165.2426
512.0093, 164.4485
512.4914, 163.7493
512.9735, 163.2805
513.4556, 162.9662
513.9377, 162.7532
514.4199, 162.6096
514.9020, 162.4153
515.3841, 161.9934
515.8662, 161.2846
516.3483, 160.7644
516.8304, 160.4536
517.3126, 160.3230
517.7947, 160.4944
518.2768, 160.8067
518.7589, 161.0642
519.2410, 161.1944
519.7231, 161.1740
520.2053, 160.8581
520.6874, 160.2050
521.1695, 159.8978
521.6516, 160.2194
522.1337, 160.6657
522.6158, 160.7793
523.0980, 160.7208
523.5801, 160.9747
524.0622, 161.9857
524.5443, 163.1097
525.0264, 163.5146
525.5085, 163.3513
525.9907, 163.5253
526.4728, 164.4209
526.9549, 165.6401
527.4370, 166.5856
527.9191, 167.2063
528.4012, 167.9594
528.8834, 168.8073
529.3655, 169.8735
529.8476, 171.4224
530.3297, 173.2790
530.8118, 174.9439
531.2939, 176.1450
531.7761, 177.0244
532.2582, 177.9326
532.7403, 178.8384
533.2224, 179.8307
533.7045, 180.9346
534.1866, 182.0839
534.6688, 183.2173
535.1509, 184.3606
535.6330, 185.6156
536.1151, 187.0950
536.5972, 188.6702
537.0793, 189.9731
537.5615, 190.9084
538.0436, 191.9380
538.5257, 193.1893
539.0078, 194.5938
539.4899, 196.1205
539.9720, 197.7636
540.4542, 199.4170
540.9363, 200.9854
541.4184, 202.5515
541.9005, 204.2427
542.3826, 206.0598
542.8647, 207.9122
543.3469, 209.7579
543.8290, 211.6174
544.3111, 213.6088
544.7932, 215.9958
545.2753, 217.8748
545.7574, 218.6689
546.2396, 219.2338
546.7217, 220.4133
547.2038, 222.1289
547.6859, 223.6616
548.1680, 224.4917
548.6501, 224.7805
549.1323, 225.2670
549.6144, 226.2466
550.0965, 226.8957
550.5786, 227.0718
551.0607, 226.9801
551.5428, 226.7941
552.0250, 226.5022
552.5071, 225.9266
552.9892, 224.7136
553.4713, 223.1943
553.9534, 222.4369
554.4355, 222.6204
554.9177, 222.6553
555.3998, 221.9617
555.8819, 221.0009
556.3640, 220.5193
556.8461, 220.6324
557.3282, 220.3386
557.8104, 219.0002
558.2925, 217.1927
558.7746, 215.3758
559.2567, 213.6605
559.7388, 212.6071
560.2209, 212.7192
560.7031, 213.4523
561.1852, 213.0683
561.6673, 210.5413
562.1494, 208.2851
562.6315, 206.1953
563.1136, 204.4909
563.5958, 203.6486
564.0779, 203.3967
564.5600, 202.8358
565.0421, 201.2641
565.5242, 199.0285
566.0063, 197.2840
566.4885, 196.1436
566.9706, 195.1894
567.4527, 194.5517
567.9348, 193.9078
568.4169, 192.9845
568.8990, 191.8153
569.3812, 190.6857
569.8633, 189.9858
570.3454, 189.2972
570.8275, 187.8035
571.3096, 185.5788
571.7917, 183.7480
572.2739, 182.8789
572.7560, 182.4752
573.2381, 181.6770
573.7202, 180.4568
574.2023, 178.9832
574.6844, 177.1579
575.1666, 175.1751
575.6487, 172.9966
576.1308, 170.7722
576.6129, 168.8555
577.0950, 167.4310
577.5771, 166.3045
578.0593, 165.0286
578.5414, 163.4946
579.0235, 162.1074
579.5056, 160.9815
579.9877, 159.9175
580.4698, 158.8366
580.9520, 157.7494
581.4341, 156.6693
581.9162, 155.5683
582.3983, 154.5490
582.8804, 153.8403
583.3625, 153.3996
583.8447, 152.7664
584.3268, 151.7578
584.8089, 150.7083
585.2910, 150.0212
585.7731, 149.6541
586.2552, 149.1620
586.7374, 148.3944
587.2195, 147.6120
587.7016, 146.8075
588.1837, 146.1202
588.6658, 145.8910
589.1479, 146.1940
589.6301, 146.5730
590.1122, 146.4331
590.5943, 145.6961
591.0764, 145.1890
591.5585, 145.2554
592.0406, 145.1472
592.5228, 144.4241
593.0049, 143.5567
593.4870, 143.1506
593.9691, 143.3500
594.4512, 143.7018
594.9333, 143.7638
595.4155, 143.6119
595.8976, 143.6137
596.3797, 143.8410
596.8618, 143.9851
597.3439, 143.8138
597.8260, 143.4528
598.3082, 143.2114
598.7903, 143.0931
599.2724, 143.0855
599.7545, 143.2826
600.2366, 143.5284
600.7188, 143.5824
601.2009, 143.4823
601.6830, 143.5685
602.1651, 144.1129
602.6472, 144.9172
603.1293, 145.2088
603.6115, 144.5146
604.0936, 144.1797
604.5757, 144.5453
605.0578, 145.0349
605.5399, 145.4207
