##NAMES=Kentbrooksite
##RRUFFID=R110208
##IDEAL CHEMISTRY=(Na,La^3+^)_15_(Ca,La^3+^)_6_Mn^2+^_3_Zr^4+^_3_Nb^5+^Si_25_O_73_(O,OH,H_2_O)_3_(F,Cl)_2_
##LOCALITY=Pocos de Caldas plateau, Minas Gerais, Brazil
##OWNER=RRUFF
##SOURCE=Gunnar Farber
##DESCRIPTION=Red massive crystalline associated with aegirine and nepheline
##STATUS=The identification of this mineral has been confirmed only by single crystal X-ray diffraction.
##URL=rruff.info/R110208
182.0944, 248.0735
182.5765, 249.8606
183.0586, 251.8304
183.5407, 254.1220
184.0228, 257.3014
184.5049, 261.4397
184.9871, 265.8824
185.4692, 269.9660
185.9513, 273.7153
186.4334, 277.0146
186.9155, 279.7087
187.3976, 281.9221
187.8798, 284.0440
188.3619, 286.0343
188.8440, 288.0990
189.3261, 290.7487
189.8082, 293.9305
190.2903, 296.6174
190.7725, 298.1606
191.2546, 298.7292
191.7367, 298.9568
192.2188, 298.6592
192.7009, 298.5703
193.1830, 300.3126
193.6652, 303.8856
194.1473, 307.2039
194.6294, 308.8461
195.1115, 308.9682
195.5936, 309.5687
196.0757, 310.8266
196.5579, 312.4836
197.0400, 314.2599
197.5221, 316.2173
198.0042, 317.6781
198.4863, 317.9077
198.9684, 316.8827
199.4506, 316.8667
199.9327, 318.3768
200.4148, 320.5059
200.8969, 321.1101
201.3790, 319.9571
201.8611, 318.5934
202.3433, 318.0779
202.8254, 318.5380
203.3075, 318.2759
203.7896, 316.9969
204.2717, 315.0835
204.7538, 313.4771
205.2360, 312.1967
205.7181, 311.1206
206.2002, 310.3887
206.6823, 310.1764
207.1644, 309.0424
207.6465, 306.5414
208.1287, 303.2269
208.6108, 300.7694
209.0929, 299.4363
209.5750, 298.2021
210.0571, 296.3779
210.5392, 293.7676
211.0214, 291.4490
211.5035, 289.5055
211.9856, 287.9263
212.4677, 286.5574
212.9498, 285.2790
213.4319, 284.4844
213.9140, 284.7303
214.3962, 286.6837
214.8783, 287.2624
215.3604, 285.9168
215.8425, 283.0487
216.3246, 280.1348
216.8067, 276.7806
217.2889, 274.0738
217.7710, 272.9119
218.2531, 274.0822
218.7352, 274.3687
219.2173, 273.1093
219.6994, 270.7385
220.1816, 269.3560
220.6637, 269.0753
221.1458, 269.5137
221.6279, 270.6966
222.1100, 273.4164
222.5921, 274.7148
223.0743, 273.8059
223.5564, 271.2763
224.0385, 269.9319
224.5206, 270.4525
225.0027, 271.1364
225.4848, 270.8053
225.9670, 268.6861
226.4491, 267.4984
226.9312, 267.8341
227.4133, 269.2973
227.8954, 269.9193
228.3775, 269.2181
228.8597, 268.3690
229.3418, 268.0756
229.8239, 268.4820
230.3060, 269.1308
230.7881, 270.1750
231.2702, 271.4546
231.7524, 272.2054
232.2345, 272.4557
232.7166, 272.1221
233.1987, 270.9621
233.6808, 268.1142
234.1629, 266.4050
234.6451, 266.5582
235.1272, 268.0143
235.6093, 268.3032
236.0914, 267.0025
236.5735, 265.1205
237.0556, 263.0438
237.5378, 260.1163
238.0199, 258.5368
238.5020, 259.1830
238.9841, 261.2905
239.4662, 261.6424
239.9483, 259.3240
240.4305, 256.5209
240.9126, 254.2089
241.3947, 251.9720
241.8768, 251.3225
242.3589, 253.5436
242.8410, 257.3341
243.3232, 257.7996
243.8053, 252.8382
244.2874, 247.4252
244.7695, 244.1039
245.2516, 243.6144
245.7337, 243.5178
246.2159, 243.9356
246.6980, 244.6665
247.1801, 245.0068
247.6622, 244.5767
248.1443, 244.3245
248.6264, 244.7924
249.1086, 246.5105
249.5907, 247.6367
250.0728, 247.8277
250.5549, 247.5009
251.0370, 247.8655
251.5191, 249.5411
252.0013, 250.9370
252.4834, 251.2538
252.9655, 249.8909
253.4476, 249.0217
253.9297, 248.7099
254.4118, 248.8676
254.8940, 249.2700
255.3761, 249.8052
255.8582, 250.7918
256.3403, 252.5770
256.8224, 255.7432
257.3046, 257.6606
257.7867, 257.7787
258.2688, 256.9756
258.7509, 257.0293
259.2330, 258.4195
259.7151, 259.6646
260.1973, 259.9695
260.6794, 258.8344
261.1615, 259.0874
261.6436, 261.3251
262.1257, 264.4294
262.6078, 266.4818
263.0900, 267.1251
263.5721, 267.5520
264.0542, 268.2433
264.5363, 269.3455
265.0184, 269.6998
265.5005, 268.9112
265.9827, 267.8566
266.4648, 267.9914
266.9469, 269.8979
267.4290, 271.2655
267.9111, 270.9893
268.3932, 268.8697
268.8754, 268.6713
269.3575, 271.1527
269.8396, 274.3723
270.3217, 275.6795
270.8038, 274.5501
271.2859, 273.5098
271.7681, 273.2619
272.2502, 273.7759
272.7323, 274.3374
273.2144, 275.0127
273.6965, 275.5760
274.1786, 275.6322
274.6608, 275.0122
275.1429, 274.8271
275.6250, 275.4531
276.1071, 276.7728
276.5892, 278.0947
277.0714, 279.5797
277.5535, 280.5478
278.0356, 280.0273
278.5177, 277.8249
278.9998, 276.1547
279.4819, 275.6147
279.9641, 275.9147
280.4462, 275.7942
280.9283, 275.1675
281.4104, 274.4815
281.8925, 274.1615
282.3746, 274.2166
282.8568, 274.0854
283.3389, 273.6526
283.8210, 273.0063
284.3031, 272.2786
284.7852, 271.4347
285.2673, 270.8472
285.7495, 270.7648
286.2316, 271.1794
286.7137, 272.0377
287.1958, 273.4990
287.6779, 275.1614
288.1600, 276.3420
288.6422, 277.0444
289.1243, 277.0788
289.6064, 275.8380
290.0885, 273.6432
290.5706, 272.4598
291.0527, 272.7823
291.5349, 273.3634
292.0170, 271.5300
292.4991, 267.5729
292.9812, 264.6192
293.4633, 265.4366
293.9454, 268.7074
294.4276, 270.0568
294.9097, 268.9924
295.3918, 267.1156
295.8739, 266.6454
296.3560, 267.2359
296.8381, 267.2182
297.3203, 264.9744
297.8024, 261.7373
298.2845, 260.1625
298.7666, 260.3983
299.2487, 261.2775
299.7308, 261.7253
300.2130, 261.8806
300.6951, 262.1414
301.1772, 262.9828
301.6593, 263.8647
302.1414, 263.9028
302.6235, 263.1112
303.1057, 262.1362
303.5878, 261.2138
304.0699, 260.5178
304.5520, 260.4516
305.0341, 261.8133
305.5162, 263.2421
305.9984, 263.2253
306.4805, 261.9004
306.9626, 260.2000
307.4447, 258.4063
307.9268, 256.7314
308.4089, 255.5120
308.8911, 255.0076
309.3732, 254.7090
309.8553, 253.9962
310.3374, 253.0905
310.8195, 252.7333
311.3016, 254.0847
311.7838, 255.7950
312.2659, 256.6779
312.7480, 256.4068
313.2301, 255.4941
313.7122, 253.7996
314.1943, 251.6751
314.6765, 249.8993
315.1586, 249.1166
315.6407, 248.5875
316.1228, 247.7410
316.6049, 246.3536
317.0870, 245.3365
317.5692, 245.4679
318.0513, 246.1376
318.5334, 246.4928
319.0155, 245.5903
319.4976, 244.8886
319.9797, 245.2543
320.4619, 246.8565
320.9440, 248.0726
321.4261, 247.8536
321.9082, 247.2567
322.3903, 247.2835
322.8724, 248.5899
323.3546, 250.0876
323.8367, 251.3759
324.3188, 252.4736
324.8009, 254.1048
325.2830, 257.8254
325.7651, 261.2175
326.2473, 262.7062
326.7294, 258.9291
327.2115, 256.9697
327.6936, 258.6107
328.1757, 263.0108
328.6578, 266.0018
329.1400, 266.3989
329.6221, 266.3446
330.1042, 266.7513
330.5863, 268.0518
331.0684, 269.0976
331.5505, 269.6716
332.0327, 270.0209
332.5148, 270.7238
332.9969, 272.2006
333.4790, 273.4457
333.9611, 274.0358
334.4432, 273.6993
334.9254, 273.8310
335.4075, 274.8737
335.8896, 275.9950
336.3717, 275.9384
336.8538, 274.2220
337.3359, 272.4743
337.8180, 271.1079
338.3001, 270.1247
338.7823, 269.3767
339.2644, 269.0968
339.7465, 268.6261
340.2286, 267.1451
340.7107, 264.4537
341.1928, 262.0501
341.6750, 260.2848
342.1571, 259.0290
342.6392, 258.0320
343.1213, 257.3861
343.6034, 256.4817
344.0855, 254.7444
344.5677, 252.2231
345.0498, 249.5947
345.5319, 246.7327
346.0140, 244.1721
346.4961, 243.1596
346.9782, 243.6463
347.4604, 244.3950
347.9425, 244.8709
348.4246, 245.0669
348.9067, 244.8973
349.3888, 244.3284
349.8709, 243.5411
350.3531, 242.4089
350.8352, 241.1444
351.3173, 240.5391
351.7994, 241.7173
352.2815, 243.4992
352.7636, 243.7483
353.2458, 242.4624
353.7279, 240.8800
354.2100, 239.6448
354.6921, 238.8822
355.1742, 238.8965
355.6563, 240.5316
356.1385, 242.1720
356.6206, 242.0090
357.1027, 240.3555
357.5848, 238.7883
358.0669, 238.6051
358.5490, 238.7685
359.0312, 238.2163
359.5133, 236.4226
359.9954, 234.6102
360.4775, 233.5611
360.9596, 233.0049
361.4417, 232.3811
361.9239, 231.5939
362.4060, 230.5740
362.8881, 229.3323
363.3702, 227.9131
363.8523, 226.0443
364.3344, 222.9325
364.8166, 219.5696
365.2987, 217.0666
365.7808, 216.1877
366.2629, 215.7572
366.7450, 215.8464
367.2271, 216.4306
367.7093, 216.1732
368.1914, 214.0996
368.6735, 211.6490
369.1556, 209.7378
369.6377, 208.4284
370.1198, 207.6938
370.6020, 208.0479
371.0841, 209.0479
371.5662, 209.0548
372.0483, 207.4382
372.5304, 205.5903
373.0125, 203.9876
373.4947, 202.4888
373.9768, 201.7497
374.4589, 202.1702
374.9410, 203.0217
375.4231, 203.0541
375.9052, 201.9277
376.3874, 200.9368
376.8695, 200.4234
377.3516, 200.3863
377.8337, 200.9468
378.3158, 202.3781
378.7979, 203.6894
379.2801, 203.6522
379.7622, 202.1880
380.2443, 201.1729
380.7264, 201.0853
381.2085, 201.5711
381.6906, 201.5800
382.1728, 201.0959
382.6549, 200.8195
383.1370, 201.3813
383.6191, 202.5784
384.1012, 203.6245
384.5833, 204.4548
385.0655, 205.0894
385.5476, 205.4943
386.0297, 205.7104
386.5118, 205.8707
386.9939, 206.0480
387.4760, 206.2076
387.9582, 206.1805
388.4403, 205.9621
388.9224, 206.0085
389.4045, 207.1256
389.8866, 208.6280
390.3687, 209.5338
390.8509, 209.1858
391.3330, 208.4973
391.8151, 208.1339
392.2972, 207.9921
392.7793, 207.6412
393.2614, 206.5965
393.7436, 205.4388
394.2257, 204.6210
394.7078, 204.4513
395.1899, 204.0684
395.6720, 202.9085
396.1541, 201.3839
396.6363, 200.1584
397.1184, 199.8254
397.6005, 199.4118
398.0826, 198.4648
398.5647, 196.8604
399.0468, 195.6157
399.5290, 195.1858
400.0111, 194.9535
400.4932, 194.4199
400.9753, 193.2981
401.4574, 192.2355
401.9395, 191.0332
402.4217, 189.8805
402.9038, 189.8449
403.3859, 191.8476
403.8680, 193.6172
404.3501, 193.9075
404.8322, 192.1262
405.3144, 190.9055
405.7965, 190.2697
406.2786, 190.1787
406.7607, 190.6720
407.2428, 191.8335
407.7249, 193.1441
408.2071, 194.5525
408.6892, 195.9856
409.1713, 196.8939
409.6534, 197.2384
410.1355, 197.2885
410.6176, 197.1381
411.0998, 196.8495
411.5819, 196.8406
412.0640, 197.2918
412.5461, 197.8882
413.0282, 198.0004
413.5103, 197.7285
413.9925, 197.6656
414.4746, 198.3274
414.9567, 199.3633
415.4388, 200.3346
415.9209, 201.2510
416.4030, 201.7752
416.8852, 201.0488
417.3673, 199.8450
417.8494, 199.4171
418.3315, 201.0957
418.8136, 203.0040
419.2957, 204.1163
419.7779, 204.4502
420.2600, 204.2289
420.7421, 202.8979
421.2242, 201.4467
421.7063, 200.6148
422.1884, 200.6226
422.6706, 201.0510
423.1527, 202.3288
423.6348, 203.9016
424.1169, 204.7352
424.5990, 204.3027
425.0811, 203.4785
425.5633, 202.1697
426.0454, 200.1250
426.5275, 199.4488
427.0096, 201.4870
427.4917, 203.8164
427.9738, 204.2688
428.4560, 201.3760
428.9381, 199.7876
429.4202, 200.7598
429.9023, 203.2428
430.3844, 203.3536
430.8665, 200.2324
431.3487, 197.1782
431.8308, 195.9812
432.3129, 196.7410
432.7950, 197.3688
433.2771, 197.8607
433.7592, 198.1787
434.2414, 198.2440
434.7235, 198.0715
435.2056, 197.8401
435.6877, 197.7146
436.1698, 197.4972
436.6519, 196.3747
437.1341, 194.4305
437.6162, 193.0866
438.0983, 194.2027
438.5804, 196.4279
439.0625, 197.1921
439.5446, 195.6702
440.0268, 194.0223
440.5089, 194.5027
440.9910, 196.2710
441.4731, 197.5979
441.9552, 197.2551
442.4373, 196.5839
442.9195, 196.4962
443.4016, 197.0045
443.8837, 197.3755
444.3658, 197.5350
444.8479, 197.3014
445.3300, 196.5199
445.8122, 194.7071
446.2943, 192.9289
446.7764, 190.9993
447.2585, 189.2074
447.7406, 188.3004
448.2227, 189.4913
448.7049, 190.4119
449.1870, 190.2458
449.6691, 188.7312
450.1512, 187.7737
450.6333, 187.8028
451.1154, 187.9393
451.5976, 187.3181
452.0797, 185.7576
452.5618, 184.0320
453.0439, 182.0723
453.5260, 180.1317
454.0081, 178.9970
454.4903, 178.7737
454.9724, 178.6542
455.4545, 178.0972
455.9366, 177.2004
456.4187, 176.6465
456.9008, 176.4827
457.3830, 176.5338
457.8651, 176.7001
458.3472, 176.9315
458.8293, 177.0703
459.3114, 177.1054
459.7935, 176.9776
460.2757, 176.7187
460.7578, 176.2729
461.2399, 175.3725
461.7220, 173.0813
462.2041, 170.6770
462.6862, 169.5663
463.1684, 170.2218
463.6505, 170.9447
464.1326, 170.7213
464.6147, 170.0991
465.0968, 169.7829
465.5789, 170.9886
466.0611, 171.5202
466.5432, 170.1385
467.0253, 167.0848
467.5074, 165.0922
467.9895, 165.6293
468.4716, 166.3674
468.9538, 166.1391
469.4359, 164.1721
469.9180, 162.9588
470.4001, 162.7694
470.8822, 163.1333
471.3643, 163.4838
471.8465, 164.0709
472.3286, 163.8200
472.8107, 161.9734
473.2928, 159.0259
473.7749, 158.1007
474.2570, 159.5805
474.7392, 161.0985
475.2213, 160.5563
475.7034, 158.3126
476.1855, 156.9651
476.6676, 156.9775
477.1497, 157.2632
477.6319, 155.9825
478.1140, 153.6763
478.5961, 152.1309
479.0782, 152.9657
479.5603, 154.4477
480.0424, 154.1711
480.5246, 152.3989
481.0067, 151.2763
481.4888, 153.1456
481.9709, 155.7080
482.4530, 156.7070
482.9352, 154.8678
483.4173, 153.5581
483.8994, 155.0866
484.3815, 157.7656
484.8636, 159.0105
485.3457, 156.7732
485.8279, 154.5490
486.3100, 153.2036
486.7921, 152.7686
487.2742, 152.5775
487.7563, 152.4988
488.2384, 152.8007
488.7206, 153.7551
489.2027, 155.8748
489.6848, 157.2167
490.1669, 157.5280
490.6490, 157.3075
491.1311, 157.0834
491.6133, 156.7039
492.0954, 157.4988
492.5775, 160.5844
493.0596, 164.9710
493.5417, 166.6422
494.0238, 165.5559
494.5060, 164.1498
494.9881, 164.1540
495.4702, 165.2245
495.9523, 166.7030
496.4344, 168.6452
496.9165, 170.2903
497.3987, 170.1181
497.8808, 169.1744
498.3629, 169.4378
498.8450, 173.4732
499.3271, 177.5125
499.8092, 178.8678
500.2914, 177.9308
500.7735, 176.8267
501.2556, 175.7411
501.7377, 175.2121
502.2198, 175.6154
502.7019, 177.2687
503.1841, 179.1433
503.6662, 181.8271
504.1483, 184.3717
504.6304, 185.5719
505.1125, 184.1872
505.5946, 183.4581
506.0768, 184.0310
506.5589, 185.6591
507.0410, 187.1733
507.5231, 188.6233
508.0052, 189.8109
508.4873, 190.5180
508.9695, 190.7285
509.4516, 191.3813
509.9337, 192.6450
510.4158, 193.6606
510.8979, 193.0918
511.3800, 191.3020
511.8622, 189.9455
512.3443, 189.4983
512.8264, 189.6301
513.3085, 190.0421
513.7906, 190.6847
514.2728, 191.3795
514.7549, 192.2685
515.2370, 193.0116
515.7191, 193.1935
516.2012, 192.7551
516.6833, 192.4280
517.1655, 192.4972
517.6476, 192.8565
518.1297, 193.4197
518.6118, 194.4334
519.0939, 195.3223
519.5760, 195.9247
520.0582, 196.3426
520.5403, 196.8248
521.0224, 197.1941
521.5045, 197.8680
521.9866, 199.0076
522.4688, 200.6175
522.9509, 202.2603
523.4330, 203.9375
523.9151, 205.6600
524.3972, 207.4983
524.8793, 209.4486
525.3615, 211.1079
525.8436, 212.3179
526.3257, 213.5955
526.8078, 215.9716
527.2899, 219.1900
527.7720, 221.9854
528.2542, 223.5573
528.7363, 224.6387
529.2184, 225.9799
529.7005, 227.6260
530.1826, 229.8866
530.6647, 233.5683
531.1469, 237.5672
531.6290, 241.0812
532.1111, 244.0132
532.5932, 246.2770
533.0753, 247.6043
533.5574, 248.3601
534.0396, 248.9015
534.5217, 248.6673
535.0038, 248.9731
535.4859, 250.3648
535.9680, 252.4526
536.4501, 253.9809
536.9323, 254.5301
537.4144, 255.2453
537.8965, 256.7143
538.3786, 258.9675
538.8607, 260.2959
539.3428, 260.5009
539.8250, 260.3500
540.3071, 260.2307
540.7892, 260.2235
541.2713, 261.3494
541.7534, 264.0395
542.2355, 267.1214
542.7177, 268.9992
543.1998, 269.9149
543.6819, 270.5837
544.1640, 270.8051
544.6461, 271.2921
545.1282, 273.1668
545.6104, 276.1474
546.0925, 278.5312
546.5746, 278.8300
547.0567, 278.6539
547.5388, 279.1343
548.0209, 280.6644
548.5031, 282.0474
548.9852, 283.0415
549.4673, 283.7733
549.9494, 284.3935
550.4315, 285.1579
550.9136, 285.4099
551.3958, 284.9848
551.8779, 284.0207
552.3600, 282.9287
552.8421, 281.6978
553.3242, 280.3411
553.8063, 278.7160
554.2885, 276.9155
554.7706, 275.8574
555.2527, 275.6188
555.7348, 275.3170
556.2169, 273.8027
556.6990, 271.6473
557.1812, 270.4100
557.6633, 270.5135
558.1454, 270.8825
558.6275, 270.7154
559.1096, 270.0576
559.5917, 268.9816
560.0739, 266.4240
560.5560, 264.5031
561.0381, 265.0493
561.5202, 267.3811
562.0023, 268.5075
562.4844, 266.4923
562.9666, 264.1162
563.4487, 262.6286
563.9308, 262.2439
564.4129, 261.8101
564.8950, 261.4758
565.3771, 260.9241
565.8593, 259.7003
566.3414, 257.4489
566.8235, 256.1484
567.3056, 256.2833
567.7877, 256.9770
568.2698, 256.4445
568.7520, 254.7705
569.2341, 253.4509
569.7162, 253.1815
570.1983, 253.5268
570.6804, 254.1013
571.1625, 254.7619
571.6447, 254.5323
572.1268, 251.8185
572.6089, 248.4630
573.0910, 246.5102
573.5731, 246.3856
574.0552, 245.9480
574.5374, 244.0021
575.0195, 241.3775
575.5016, 238.8435
575.9837, 237.2179
576.4658, 234.8475
576.9479, 231.0645
577.4301, 226.5393
577.9122, 222.5584
578.3943, 219.2390
578.8764, 216.1431
579.3585, 213.1702
579.8406, 210.3172
580.3228, 207.5094
580.8049, 204.7042
581.2870, 202.2315
581.7691, 200.3779
582.2512, 199.0455
582.7333, 197.9114
583.2155, 196.9941
583.6975, 195.9018
584.1796, 193.9485
584.6617, 191.6229
585.1439, 189.7984
585.6260, 189.1347
586.1081, 188.2645
586.5902, 186.0266
587.0723, 183.0158
587.5544, 180.4249
588.0366, 178.5934
588.5187, 177.1702
589.0008, 175.9752
589.4829, 175.0351
589.9650, 174.8095
590.4471, 176.2525
590.9293, 177.1492
591.4114, 176.1463
591.8935, 172.8018
592.3756, 170.8530
592.8577, 170.6712
593.3398, 170.8729
593.8220, 169.5797
594.3041, 167.1103
594.7862, 166.1457
595.2683, 167.5145
595.7504, 169.6357
596.2325, 170.6113
596.7147, 170.7130
597.1968, 170.6340
597.6789, 170.6889
598.1610, 170.6773
598.6431, 170.3882
599.1252, 169.8836
599.6074, 169.4468
600.0895, 168.7700
600.5716, 168.5260
601.0537, 169.2471
601.5358, 171.2917
602.0179, 172.6912
602.5001, 173.1381
602.9822, 173.2207
603.4643, 173.3555
603.9464, 173.5704
604.4285, 173.6949
604.9106, 173.6378
605.3928, 173.6373
605.8749, 174.1323
606.3570, 175.0886
606.8391, 176.0039
607.3212, 176.6333
607.8033, 177.2550
608.2855, 178.4256
608.7676, 179.9928
609.2497, 181.4436
609.7318, 182.4079
610.2139, 183.1885
610.6960, 183.9688
611.1782, 184.7610
611.6603, 185.5882
612.1424, 186.2898
612.6245, 187.1610
613.1066, 188.4968
613.5887, 190.9653
614.0709, 192.3899
614.5530, 192.4120
615.0351, 191.7299
615.5172, 190.8711
615.9993, 189.5903
616.4814, 189.3476
616.9636, 190.6575
617.4457, 192.6377
617.9278, 193.5451
618.4099, 193.4732
618.8920, 193.4030
619.3741, 193.5616
619.8563, 194.0819
620.3384, 195.6808
620.8205, 198.0322
621.3026, 199.5111
621.7847, 198.3521
622.2668, 196.5567
622.7490, 195.4499
623.2311, 195.1456
623.7132, 195.6086
624.1953, 198.0029
624.6774, 200.3654
625.1595, 201.2812
625.6417, 199.7958
626.1238, 198.7063
626.6059, 198.0569
627.0880, 197.7731
627.5701, 197.7933
628.0522, 198.1321
628.5344, 198.7138
629.0165, 199.6832
629.4986, 200.6469
629.9807, 200.6972
630.4628, 199.9777
630.9449, 199.2741
631.4271, 199.3695
631.9092, 199.4151
632.3913, 198.0506
632.8734, 195.5573
633.3555, 193.7709
633.8376, 194.3085
634.3198, 195.2624
634.8019, 195.5384
635.2840, 194.9636
635.7661, 194.0103
636.2482, 191.9411
636.7303, 190.1572
637.2125, 189.7595
637.6946, 191.4670
638.1767, 192.4630
638.6588, 192.5351
639.1409, 192.0683
639.6230, 191.2863
640.1052, 190.2539
640.5873, 190.1546
641.0694, 191.6264
641.5515, 193.5888
642.0336, 194.4555
642.5157, 194.4499
642.9979, 194.2314
643.4800, 194.0193
643.9621, 193.7928
644.4442, 193.5602
644.9263, 193.3100
645.4084, 192.9839
645.8906, 192.3551
646.3727, 191.8310
646.8548, 191.5782
647.3369, 191.5836
647.8190, 191.9155
648.3011, 192.6094
648.7833, 193.5746
649.2654, 194.8739
649.7475, 196.5870
650.2296, 197.7699
650.7117, 198.3096
651.1938, 198.5748
651.6760, 198.9816
652.1581, 199.4799
652.6402, 199.8819
653.1223, 200.0708
653.6044, 200.2910
654.0865, 200.8146
654.5687, 201.5269
655.0508, 202.2081
655.5329, 202.8948
656.0150, 203.4230
656.4971, 203.7227
656.9792, 203.8072
657.4614, 203.7357
657.9435, 203.2246
658.4256, 202.9631
658.9077, 203.2107
659.3898, 203.9489
659.8719, 204.7719
660.3541, 205.7067
660.8362, 206.5933
661.3183, 207.4578
661.8004, 208.1983
662.2825, 208.2735
662.7646, 207.6095
663.2468, 207.0771
663.7289, 207.3576
664.2110, 208.2674
664.6931, 209.6270
665.1752, 211.5459
665.6573, 213.5286
666.1395, 215.5503
666.6216, 217.4612
667.1037, 219.0768
667.5858, 220.4383
668.0679, 221.3463
668.5500, 221.2530
669.0322, 220.9288
669.5143, 222.3231
669.9964, 225.9016
670.4785, 228.8835
670.9606, 230.1282
671.4427, 230.4120
671.9249, 231.9498
672.4070, 234.6100
672.8891, 237.3121
673.3712, 239.2788
673.8533, 241.0080
674.3354, 243.1017
674.8176, 245.5387
675.2997, 247.8456
675.7818, 249.7884
676.2639, 251.4988
676.7460, 252.8805
677.2281, 253.5832
677.7103, 255.2896
