##NAMES=Kermesite
##RRUFFID=R060742
##IDEAL CHEMISTRY=Sb^3+^_2_OS^2-^_2_
##LOCALITY=Pezinok, Czechoslovakia
##OWNER=RRUFF
##SOURCE=Michael Scott
##DESCRIPTION=Dark red elongated bladed crystals associated with quartz and blue tanished gudmundite, R060741
##STATUS=The identification of this mineral is confirmed by single-crystal X-ray diffraction and chemical analysis.
##URL=rruff.info/R060742
##MEASURED CHEMISTRY=Sb_2_O_1.11_S_1.9_
117.666, 6742.888
118.148, 7130.234
118.630, 7528.461
119.112, 7942.630
119.594, 8363.959
120.076, 8786.146
120.559, 9208.118
121.041, 9627.918
121.523, 10058.110
122.005, 10493.660
122.487, 10907.280
122.969, 11289.630
123.451, 11641.970
123.933, 11965.750
124.415, 12251.510
124.898, 12515.080
125.380, 12780.370
125.862, 13048.230
126.344, 13293.880
126.826, 13497.170
127.308, 13659.550
127.790, 13781.850
128.272, 13886.260
128.755, 13948.570
129.237, 13899.790
129.719, 13721.670
130.201, 13482.130
130.683, 13247.660
131.165, 13022.860
131.647, 12842.760
132.129, 12728.990
132.611, 12679.200
133.094, 12682.900
133.576, 12734.530
134.058, 12842.930
134.540, 13043.510
135.022, 13347.780
135.504, 13684.670
135.986, 13995.680
136.468, 14274.070
136.951, 14582.510
137.433, 14941.590
137.915, 15343.650
138.397, 15749.130
138.879, 16167.050
139.361, 16575.740
139.843, 16968.189
140.325, 17355.561
140.807, 17697.311
141.290, 17986.061
141.772, 18219.311
142.254, 18405.410
142.736, 18554.971
143.218, 18649.279
143.700, 18645.510
144.182, 18506.561
144.664, 18324.689
145.146, 18139.740
145.629, 17968.260
146.111, 17755.891
146.593, 17492.199
147.075, 17181.461
147.557, 16865.461
148.039, 16530.131
148.521, 16196.290
149.003, 15870.940
149.486, 15545.830
149.968, 15244.210
150.450, 14969.500
150.932, 14722.870
151.414, 14488.320
151.896, 14251.450
152.378, 14031.450
152.860, 13843.740
153.342, 13691.530
153.824, 13568.250
154.307, 13482.710
154.789, 13443.800
155.271, 13393.730
155.753, 13305.080
156.235, 13206.170
156.717, 13133.750
157.199, 13115.310
157.682, 13106.890
158.164, 13088.380
158.646, 13046.630
159.128, 13019.660
159.610, 13018.610
160.092, 13038.620
160.574, 13070.670
161.056, 13132.740
161.538, 13191.460
162.020, 13226.330
162.503, 13227.650
162.985, 13210.980
163.467, 13173.020
163.949, 13118.930
164.431, 13069.830
164.913, 13025.740
165.395, 12995.610
165.877, 12987.840
166.360, 13030.140
166.842, 13075.310
167.324, 13090.120
167.806, 13077.270
168.288, 13071.510
168.770, 13099.570
169.252, 13146.510
169.734, 13192.590
170.217, 13230.840
170.699, 13264.500
171.181, 13293.940
171.663, 13318.480
172.145, 13346.000
172.627, 13391.540
173.109, 13444.450
173.591, 13484.100
174.073, 13492.420
174.555, 13484.960
175.038, 13482.830
175.520, 13490.440
176.002, 13491.740
176.484, 13466.500
176.966, 13420.230
177.448, 13371.170
177.930, 13322.640
178.413, 13279.800
178.895, 13252.970
179.377, 13248.150
179.859, 13250.980
180.341, 13238.100
180.823, 13212.290
181.305, 13195.210
181.787, 13206.970
182.269, 13239.490
182.751, 13270.830
183.234, 13293.370
183.716, 13314.710
184.198, 13347.870
184.680, 13392.740
185.162, 13445.120
185.644, 13514.470
186.126, 13592.760
186.608, 13646.430
187.091, 13662.400
187.573, 13647.770
188.055, 13623.020
188.537, 13589.230
189.019, 13536.420
189.501, 13443.170
189.983, 13312.820
190.465, 13190.190
190.947, 13086.790
191.430, 13002.610
191.912, 12945.880
192.394, 12920.720
192.876, 12910.310
193.358, 12892.880
193.840, 12868.470
194.322, 12850.510
194.804, 12847.640
195.286, 12859.060
195.769, 12866.240
196.251, 12865.680
196.733, 12868.070
197.215, 12894.990
197.697, 12949.030
198.179, 13005.870
198.661, 13056.210
199.143, 13100.750
199.626, 13132.020
200.108, 13144.290
200.590, 13149.010
201.072, 13172.010
201.554, 13214.890
202.036, 13267.880
202.518, 13326.750
203.000, 13391.690
203.482, 13458.680
203.965, 13530.390
204.447, 13601.900
204.929, 13654.210
205.411, 13683.100
205.893, 13705.050
206.375, 13731.310
206.857, 13762.950
207.339, 13792.320
207.822, 13817.240
208.304, 13839.340
208.786, 13865.560
209.268, 13895.510
209.750, 13932.020
210.232, 13980.360
210.714, 14045.040
211.196, 14104.820
211.678, 14152.300
212.161, 14189.990
212.643, 14245.930
213.125, 14325.480
213.607, 14416.140
214.089, 14507.490
214.571, 14599.130
215.053, 14692.150
215.535, 14783.250
216.018, 14872.200
216.500, 14975.280
216.982, 15092.500
217.464, 15219.240
217.946, 15351.550
218.428, 15491.570
218.910, 15627.240
219.392, 15756.090
219.874, 15876.870
220.357, 15989.790
220.839, 16088.060
221.321, 16183.760
221.803, 16296.830
222.285, 16436.680
222.767, 16573.750
223.249, 16694.211
223.731, 16791.881
224.214, 16913.881
224.696, 17080.641
225.178, 17258.869
225.660, 17396.881
226.142, 17470.990
226.624, 17545.061
227.106, 17642.430
227.588, 17775.939
228.070, 17893.670
228.553, 18000.551
229.035, 18089.131
229.517, 18144.301
229.999, 18146.510
230.481, 18146.539
230.963, 18164.061
231.445, 18205.779
231.927, 18249.990
232.410, 18306.150
232.892, 18362.029
233.374, 18386.260
233.856, 18366.520
234.338, 18334.100
234.820, 18303.480
235.302, 18285.020
235.784, 18245.230
236.266, 18172.340
236.749, 18079.400
237.231, 18010.770
237.713, 17980.070
238.195, 17954.051
238.677, 17916.631
239.159, 17862.391
239.641, 17808.961
240.123, 17756.750
240.605, 17705.430
241.088, 17652.029
241.570, 17585.721
242.052, 17531.180
242.534, 17504.160
243.016, 17521.631
243.498, 17530.199
243.980, 17523.539
244.462, 17504.670
244.945, 17488.910
245.427, 17479.051
245.909, 17467.340
246.391, 17446.480
246.873, 17402.150
247.355, 17378.529
247.837, 17387.920
248.319, 17422.311
248.801, 17441.980
249.284, 17458.619
249.766, 17445.221
250.248, 17382.141
250.730, 17253.359
251.212, 17112.869
251.694, 16968.189
252.176, 16818.471
252.658, 16639.439
253.141, 16405.141
253.623, 16181.710
254.105, 16018.880
254.587, 15946.310
255.069, 15868.240
255.551, 15767.710
256.033, 15651.420
256.515, 15556.220
256.997, 15472.340
257.480, 15422.680
257.962, 15430.770
258.444, 15528.060
258.926, 15601.520
259.408, 15627.600
259.890, 15614.190
260.372, 15622.730
260.854, 15651.730
261.336, 15704.330
261.819, 15794.370
262.301, 15950.470
262.783, 16059.630
263.265, 16087.750
263.747, 16050.080
264.229, 16068.450
264.711, 16163.670
265.193, 16279.230
265.676, 16368.350
266.158, 16423.641
266.640, 16480.529
267.122, 16544.990
267.604, 16616.061
268.086, 16682.340
268.568, 16745.119
269.050, 16803.039
269.532, 16854.160
270.015, 16898.830
270.497, 16940.279
270.979, 16980.029
271.461, 17017.680
271.943, 17044.711
272.425, 17055.789
272.907, 17070.131
273.389, 17107.721
273.871, 17174.381
274.354, 17229.891
274.836, 17268.430
275.318, 17290.760
275.800, 17301.811
276.282, 17301.141
276.764, 17289.711
277.246, 17261.920
277.728, 17214.859
278.211, 17181.619
278.693, 17171.199
279.175, 17177.100
279.657, 17174.131
280.139, 17160.311
280.621, 17145.131
281.103, 17138.580
281.585, 17140.939
282.068, 17135.699
282.550, 17119.330
283.032, 17093.820
283.514, 17066.439
283.996, 17038.109
284.478, 17002.910
284.960, 16954.631
285.442, 16893.350
285.924, 16827.131
286.406, 16748.520
286.889, 16672.820
287.371, 16646.660
287.853, 16672.641
288.335, 16705.289
288.817, 16709.039
289.299, 16687.590
289.781, 16667.410
290.263, 16651.010
290.746, 16640.131
291.228, 16647.570
291.710, 16672.730
292.192, 16683.910
292.674, 16641.609
293.156, 16562.211
293.638, 16511.801
294.120, 16509.221
294.603, 16528.471
295.085, 16509.990
295.567, 16461.199
296.049, 16453.561
296.531, 16396.002
297.013, 16468.129
297.495, 16508.777
297.977, 16519.637
298.459, 16411.488
298.942, 16457.014
299.424, 16440.953
299.906, 16422.367
300.388, 16489.521
300.870, 16455.840
301.352, 16444.051
301.834, 16499.580
302.316, 16571.369
302.798, 16592.580
303.281, 16579.131
303.763, 16588.490
304.245, 16672.131
304.727, 16791.211
305.209, 16896.750
305.691, 16982.900
306.173, 17051.551
306.655, 17087.949
307.138, 17106.869
307.620, 17145.439
308.102, 17213.730
308.584, 17316.850
309.066, 17469.199
309.548, 17680.801
310.030, 17900.590
310.512, 18102.711
310.994, 18288.930
311.477, 18458.141
311.959, 18618.270
312.441, 18756.410
312.923, 18875.949
313.405, 18985.891
313.887, 19018.391
314.369, 18959.141
314.851, 18797.480
315.333, 18518.990
315.816, 18088.000
316.298, 17565.789
316.780, 16952.490
317.262, 16239.820
317.744, 15536.770
318.226, 14854.030
318.708, 14207.980
319.190, 13616.590
319.672, 13070.800
320.155, 12593.360
320.637, 12199.320
321.119, 11888.700
321.601, 11626.250
322.083, 11424.330
322.565, 11253.840
323.047, 11089.680
323.530, 10901.990
324.012, 10746.330
324.494, 10645.490
324.976, 10597.820
325.458, 10547.210
325.940, 10482.000
326.422, 10415.530
326.904, 10356.840
327.386, 10304.880
327.868, 10262.390
328.351, 10239.040
328.833, 10230.560
329.315, 10201.670
329.797, 10129.410
330.279, 10057.130
330.761, 10009.540
331.243, 10013.750
331.725, 10000.250
332.208, 9966.724
332.690, 9913.750
333.172, 9842.532
333.654, 9751.492
334.136, 9645.755
334.618, 9524.127
335.100, 9379.409
335.582, 9240.837
336.065, 9107.502
336.547, 8981.461
337.029, 8864.742
337.511, 8757.481
337.993, 8657.425
338.475, 8560.089
338.957, 8464.586
339.439, 8381.962
339.921, 8312.309
340.404, 8255.122
340.886, 8213.027
341.368, 8189.639
341.850, 8160.079
342.332, 8111.810
342.814, 8046.187
343.296, 7987.916
343.778, 7936.702
344.260, 7893.096
344.743, 7856.876
345.225, 7828.414
345.707, 7807.954
346.189, 7796.851
346.671, 7793.704
347.153, 7797.258
347.635, 7808.297
348.117, 7815.404
348.599, 7803.738
349.082, 7777.516
349.564, 7754.002
350.046, 7741.192
350.528, 7730.475
351.010, 7701.834
351.492, 7657.447
351.974, 7620.907
352.457, 7623.386
352.939, 7644.450
353.421, 7646.388
353.903, 7613.466
354.385, 7570.492
354.867, 7540.605
355.349, 7521.960
355.831, 7507.107
356.313, 7496.083
356.796, 7484.886
357.278, 7467.775
357.760, 7440.461
358.242, 7417.317
358.724, 7412.666
359.206, 7418.864
359.688, 7420.200
360.170, 7404.016
360.652, 7384.843
361.135, 7371.539
361.617, 7366.003
362.099, 7361.749
362.581, 7357.157
363.063, 7352.043
363.545, 7346.212
364.027, 7334.891
364.509, 7327.068
364.991, 7328.138
365.474, 7339.424
365.956, 7346.522
366.438, 7343.432
366.920, 7337.176
367.402, 7333.770
367.884, 7349.889
368.366, 7351.492
368.848, 7321.863
369.331, 7264.112
369.813, 7233.001
370.295, 7249.633
370.777, 7273.487
371.259, 7280.527
371.741, 7259.505
372.223, 7241.120
372.705, 7224.027
373.188, 7210.663
373.670, 7212.420
374.152, 7239.138
374.634, 7261.972
375.116, 7266.086
375.598, 7247.656
376.080, 7225.163
376.562, 7195.816
377.044, 7166.200
377.526, 7151.001
378.009, 7153.017
378.491, 7153.145
378.973, 7141.768
379.455, 7120.216
379.937, 7107.185
380.419, 7104.479
380.901, 7103.900
381.384, 7091.458
381.866, 7069.350
382.348, 7059.273
382.830, 7075.146
383.312, 7104.127
383.794, 7113.865
384.276, 7104.566
384.758, 7091.874
385.240, 7092.241
385.723, 7098.770
386.205, 7094.898
386.687, 7072.720
387.169, 7044.293
387.651, 7021.277
388.133, 7003.455
388.615, 6990.063
389.097, 6983.933
389.579, 6980.534
390.062, 6974.494
390.544, 6963.778
391.026, 6954.534
391.508, 6951.606
391.990, 6953.090
392.472, 6955.434
392.954, 6959.030
393.436, 6962.081
393.918, 6966.668
394.401, 6974.461
394.883, 6970.585
395.365, 6934.917
395.847, 6891.567
396.329, 6864.643
396.811, 6878.505
397.293, 6889.016
397.775, 6881.912
398.258, 6858.129
398.740, 6842.793
399.222, 6846.737
399.704, 6852.884
400.186, 6851.519
400.668, 6833.716
401.150, 6822.199
401.632, 6823.166
402.114, 6830.419
402.597, 6824.183
403.079, 6794.315
403.561, 6768.420
404.043, 6759.514
404.525, 6772.038
405.007, 6782.042
405.489, 6791.303
405.971, 6795.648
406.453, 6787.125
406.936, 6763.788
407.418, 6740.181
407.900, 6716.928
408.382, 6696.768
408.864, 6698.454
409.346, 6724.715
409.828, 6755.741
410.310, 6774.290
410.793, 6781.684
411.275, 6785.813
411.757, 6789.054
412.239, 6789.208
412.721, 6778.797
413.203, 6759.499
413.685, 6744.618
414.167, 6744.790
414.650, 6753.825
415.132, 6764.910
415.614, 6779.708
416.096, 6786.318
416.578, 6762.052
417.060, 6722.260
417.542, 6699.556
418.024, 6729.403
418.506, 6764.949
418.988, 6772.440
419.471, 6748.711
419.953, 6725.965
420.435, 6722.409
420.917, 6724.868
421.399, 6721.135
421.881, 6696.940
422.363, 6678.529
422.845, 6675.947
423.328, 6686.337
423.810, 6692.813
424.292, 6692.866
424.774, 6689.109
425.256, 6682.564
425.738, 6670.971
426.220, 6660.689
426.702, 6651.299
427.185, 6643.267
427.667, 6637.621
428.149, 6634.344
428.631, 6633.193
429.113, 6634.159
429.595, 6637.189
430.077, 6641.609
430.559, 6647.633
431.041, 6654.353
431.524, 6660.218
432.006, 6665.002
432.488, 6673.188
432.970, 6688.923
433.452, 6706.287
433.934, 6703.065
434.416, 6679.071
434.898, 6663.039
435.380, 6687.014
435.863, 6735.271
436.345, 6760.228
436.827, 6753.421
437.309, 6733.935
437.791, 6712.451
438.273, 6694.194
438.755, 6693.028
439.237, 6730.324
439.720, 6778.688
440.202, 6811.990
440.684, 6829.425
441.166, 6843.053
441.648, 6860.355
442.130, 6877.204
442.612, 6889.407
443.094, 6895.248
443.576, 6896.733
444.059, 6889.750
444.541, 6877.922
445.023, 6874.016
445.505, 6892.076
445.987, 6910.256
446.469, 6917.025
446.951, 6902.013
447.433, 6898.292
447.915, 6922.017
448.398, 6950.991
448.880, 6954.130
449.362, 6916.118
449.844, 6878.276
450.326, 6850.031
450.808, 6830.633
451.290, 6807.659
451.772, 6778.103
452.254, 6751.589
452.737, 6737.506
453.219, 6737.254
453.701, 6734.817
454.183, 6728.891
454.665, 6718.963
455.147, 6700.544
455.629, 6674.213
456.112, 6652.359
456.594, 6644.788
457.076, 6646.667
457.558, 6645.904
458.040, 6642.222
458.522, 6635.926
459.004, 6625.432
459.486, 6612.761
459.968, 6601.533
460.451, 6593.839
460.933, 6587.386
461.415, 6577.608
461.897, 6566.566
462.379, 6562.842
462.861, 6580.517
463.343, 6601.001
463.825, 6610.312
464.307, 6602.610
464.790, 6593.308
465.272, 6586.961
465.754, 6581.818
466.236, 6575.440
466.718, 6556.379
467.200, 6547.357
467.682, 6561.344
468.164, 6599.093
468.647, 6615.250
469.129, 6592.826
469.611, 6565.843
470.093, 6558.736
470.575, 6581.543
471.057, 6594.702
471.539, 6593.464
472.021, 6582.164
472.503, 6570.003
472.986, 6556.825
473.468, 6543.289
473.950, 6528.005
474.432, 6512.020
474.914, 6504.464
475.396, 6506.738
475.878, 6508.082
476.360, 6491.722
476.842, 6464.775
477.325, 6451.215
477.807, 6464.810
478.289, 6484.374
478.771, 6482.821
479.253, 6464.728
479.735, 6447.369
480.217, 6436.945
480.699, 6433.862
481.181, 6441.817
481.664, 6464.026
482.146, 6480.432
482.628, 6477.434
483.110, 6464.333
483.592, 6451.998
484.074, 6434.038
484.556, 6426.037
485.039, 6438.833
485.521, 6469.398
486.003, 6488.519
486.485, 6482.827
486.967, 6477.310
487.449, 6487.252
487.931, 6533.139
488.413, 6541.269
488.895, 6493.755
489.378, 6425.670
489.860, 6392.140
490.342, 6400.255
490.824, 6411.643
491.306, 6417.013
491.788, 6416.757
492.270, 6409.489
492.752, 6394.292
493.234, 6382.929
493.717, 6392.420
494.199, 6413.877
494.681, 6417.290
495.163, 6394.712
495.645, 6363.688
496.127, 6338.913
496.609, 6321.316
497.091, 6313.363
497.573, 6322.081
498.056, 6336.694
498.538, 6352.989
499.020, 6370.332
499.502, 6377.443
499.984, 6364.061
500.466, 6341.314
500.948, 6317.568
501.430, 6285.529
501.913, 6265.229
502.395, 6269.409
502.877, 6287.089
503.359, 6293.948
503.841, 6279.288
504.323, 6265.947
504.805, 6260.771
505.287, 6264.165
505.770, 6264.443
506.252, 6259.745
506.734, 6254.782
507.216, 6253.059
507.698, 6254.533
508.180, 6260.762
508.662, 6274.365
509.144, 6289.225
509.626, 6292.526
510.108, 6285.019
510.591, 6275.494
511.073, 6270.364
511.555, 6265.843
512.037, 6250.301
512.519, 6223.921
513.001, 6203.523
513.483, 6208.131
513.966, 6224.648
514.448, 6235.532
514.930, 6232.003
515.412, 6229.107
515.894, 6241.913
516.376, 6261.128
516.858, 6266.634
517.340, 6233.733
517.822, 6202.554
518.305, 6191.117
518.787, 6203.615
519.269, 6209.999
519.751, 6204.958
520.233, 6196.280
520.715, 6188.995
521.197, 6181.176
521.679, 6179.827
522.161, 6189.097
522.644, 6202.744
523.126, 6205.755
523.608, 6196.822
524.090, 6185.423
524.572, 6174.852
525.054, 6165.112
525.536, 6153.543
526.018, 6139.537
526.500, 6132.528
526.983, 6145.061
527.465, 6170.675
527.947, 6197.706
528.429, 6228.383
528.911, 6246.937
529.393, 6231.850
529.875, 6193.420
530.357, 6153.323
530.839, 6110.016
531.322, 6077.681
531.804, 6069.501
532.286, 6085.615
532.768, 6100.034
533.250, 6106.043
533.732, 6108.269
534.214, 6109.792
534.696, 6112.273
535.179, 6111.976
535.661, 6107.093
536.143, 6100.443
536.625, 6096.581
537.107, 6095.616
537.589, 6097.671
538.071, 6105.192
538.553, 6116.247
539.036, 6114.997
539.518, 6099.748
540.000, 6084.023
540.482, 6080.119
540.964, 6084.713
541.446, 6084.180
541.928, 6075.337
542.410, 6068.057
542.892, 6076.882
543.375, 6095.398
543.857, 6109.399
544.339, 6107.590
544.821, 6103.822
545.303, 6110.364
545.785, 6124.489
546.267, 6132.399
546.749, 6119.824
547.231, 6106.153
547.714, 6104.069
548.196, 6121.938
548.678, 6131.213
549.160, 6125.647
549.642, 6112.706
550.124, 6098.727
550.606, 6079.680
551.088, 6068.419
551.570, 6069.296
552.053, 6078.376
552.535, 6082.244
553.017, 6079.888
553.499, 6078.108
553.981, 6080.169
554.463, 6085.744
554.945, 6095.605
555.427, 6110.671
555.909, 6120.790
556.392, 6114.112
556.874, 6096.407
557.356, 6077.408
557.838, 6055.707
558.320, 6041.167
558.802, 6047.963
559.284, 6067.754
559.766, 6082.333
560.249, 6074.858
560.731, 6069.555
561.213, 6078.980
561.695, 6103.923
562.177, 6127.210
562.659, 6150.100
563.141, 6167.813
563.623, 6176.837
564.106, 6172.717
564.588, 6170.639
565.070, 6175.170
565.552, 6176.890
566.034, 6153.871
566.516, 6100.459
566.998, 6069.639
567.480, 6084.643
567.963, 6127.081
568.445, 6147.758
568.927, 6147.705
569.409, 6144.647
569.891, 6149.942
570.373, 6159.861
570.855, 6163.665
571.337, 6158.760
571.819, 6169.380
572.302, 6137.123
572.784, 6177.952
573.266, 6201.040
573.748, 6207.340
574.230, 6146.572
574.712, 6172.409
575.194, 6163.539
575.676, 6153.245
576.158, 6191.271
576.641, 6140.258
577.123, 6177.518
577.605, 6179.541
578.087, 6197.691
578.569, 6180.919
579.051, 6174.934
579.533, 6203.881
580.015, 6213.486
580.497, 6192.694
580.980, 6175.251
581.462, 6171.771
581.944, 6178.697
582.426, 6191.455
582.908, 6192.753
583.390, 6168.301
583.872, 6137.908
584.354, 6123.244
584.836, 6120.695
585.319, 6117.045
585.801, 6107.077
586.283, 6092.719
586.765, 6072.444
587.247, 6044.289
587.729, 6023.976
588.211, 6024.205
588.693, 6027.417
589.176, 6019.256
589.658, 5987.647
590.140, 5968.093
590.622, 5966.385
591.104, 5974.539
591.586, 5977.589
592.068, 5974.836
592.550, 5971.871
593.032, 5969.688
593.515, 5969.051
593.997, 5975.378
594.479, 5988.087
594.961, 5995.607
595.443, 5985.758
595.925, 5967.481
596.407, 5954.732
596.890, 5949.834
597.372, 5942.863
597.854, 5918.293
598.336, 5891.806
598.818, 5880.889
599.300, 5907.550
599.782, 5929.402
600.264, 5933.953
600.746, 5927.392
601.229, 5925.770
601.711, 5934.225
602.193, 5940.226
602.675, 5939.448
603.157, 5932.561
603.639, 5928.854
604.121, 5929.159
604.603, 5929.532
605.085, 5926.032
605.568, 5919.641
606.050, 5917.490
606.532, 5920.662
607.014, 5924.306
607.496, 5923.943
607.978, 5920.199
608.460, 5914.053
608.942, 5904.009
609.424, 5894.222
609.907, 5887.044
610.389, 5882.179
610.871, 5878.603
611.353, 5874.056
611.835, 5872.736
612.317, 5881.745
612.799, 5901.425
613.281, 5900.760
613.763, 5862.010
614.246, 5825.672
614.728, 5815.455
615.210, 5836.403
615.692, 5856.998
616.174, 5877.816
616.656, 5897.100
617.138, 5914.801
617.620, 5929.918
618.103, 5935.861
618.585, 5928.392
619.067, 5915.732
619.549, 5907.392
620.031, 5902.043
620.513, 5896.195
620.995, 5887.185
621.477, 5877.764
621.959, 5867.824
622.442, 5857.888
622.924, 5853.743
623.406, 5861.350
623.888, 5871.442
624.370, 5878.422
624.852, 5879.156
625.334, 5888.188
625.816, 5911.523
626.299, 5935.599
626.781, 5948.880
627.263, 5951.673
627.745, 5937.644
628.227, 5899.640
628.709, 5856.888
629.191, 5845.898
