##NAMES=Kermesite
##RRUFFID=R060742
##IDEAL CHEMISTRY=Sb^3+^_2_OS^2-^_2_
##LOCALITY=Pezinok, Czechoslovakia
##OWNER=RRUFF
##SOURCE=Michael Scott
##DESCRIPTION=Dark red elongated bladed crystals associated with quartz and blue tanished gudmundite, R060741
##STATUS=The identification of this mineral is confirmed by single-crystal X-ray diffraction and chemical analysis.
##URL=rruff.info/R060742
##MEASURED CHEMISTRY=Sb_2_O_1.11_S_1.9_
118.1530, 606.0350
118.6350, 675.4110
119.1170, 771.4260
119.6000, 909.5410
120.0820, 1066.259
120.5640, 1268.331
121.0460, 1537.007
121.5280, 1878.297
122.0100, 2280.164
122.4920, 2719.920
122.9740, 3150.288
123.4560, 3698.065
123.9390, 4317.877
124.4210, 5063.615
124.9030, 5980.666
125.3850, 7081.160
125.8670, 8379.108
126.3490, 9900.134
126.8310, 11705.54
127.3130, 13699.27
127.7960, 15930.10
128.2780, 18331.02
128.7600, 20945.92
129.2420, 23823.45
129.7240, 26781.30
130.2060, 28933.30
130.6880, 30715.60
131.1700, 31362.68
131.6520, 30307.80
132.1350, 27992.80
132.6170, 25157.39
133.0990, 22105.76
133.5810, 18942.84
134.0630, 16389.34
134.5450, 14466.16
135.0270, 12970.37
135.5090, 11923.77
135.9920, 11267.32
136.4740, 10845.38
136.9560, 10593.49
137.4380, 10510.63
137.9200, 10498.80
138.4020, 10494.84
138.8840, 10605.98
139.3660, 10884.90
139.8480, 11331.12
140.3310, 11936.73
140.8130, 12684.40
141.2950, 13612.23
141.7770, 14744.71
142.2590, 16068.48
142.7410, 17604.34
143.2230, 19386.75
143.7050, 21416.38
144.1880, 23604.62
144.6700, 25961.50
145.1520, 28446.68
145.6340, 30925.39
146.1160, 33619.23
146.5980, 36173.02
147.0800, 38328.17
147.5620, 40142.03
148.0440, 41211.77
148.5270, 41065.22
149.0090, 39937.23
149.4910, 38143.55
149.9730, 35396.55
150.4550, 32137.38
150.9370, 28975.31
151.4190, 25849.79
151.9010, 23018.27
152.3830, 20657.49
152.8660, 18687.92
153.3480, 17045.33
153.8300, 15770.96
154.3120, 14804.59
154.7940, 14015.48
155.2760, 13405.34
155.7580, 12988.75
156.2400, 12787.95
156.7230, 12766.45
157.2050, 12870.82
157.6870, 13081.17
158.1690, 13397.70
158.6510, 13831.33
159.1330, 14406.86
159.6150, 15070.30
160.0970, 15814.21
160.5790, 16615.05
161.0620, 17417.17
161.5440, 18310.05
162.0260, 19209.89
162.5080, 19728.06
162.9900, 19854.74
163.4720, 19541.32
163.9540, 18720.01
164.4360, 17503.22
164.9190, 16135.95
165.4010, 14689.62
165.8830, 13194.14
166.3650, 11917.42
166.8470, 10916.23
167.3290, 10107.39
167.8110, 9466.034
168.2930, 8974.516
168.7750, 8594.006
169.2580, 8314.101
169.7400, 8131.631
170.2220, 7997.216
170.7040, 7929.936
171.1860, 7896.676
171.6680, 7896.594
172.1500, 7919.621
172.6320, 7945.987
173.1150, 7968.356
173.5970, 7986.180
174.0790, 7970.074
174.5610, 7951.058
175.0430, 7857.681
175.5250, 7645.546
176.0070, 7337.312
176.4890, 6988.906
176.9710, 6629.617
177.4540, 6259.181
177.9360, 5925.383
178.4180, 5629.022
178.9000, 5376.573
179.3820, 5174.566
179.8640, 5018.117
180.3460, 4897.838
180.8280, 4809.668
181.3110, 4753.948
181.7930, 4708.063
182.2750, 4667.353
182.7570, 4642.809
183.2390, 4640.877
183.7210, 4658.717
184.2030, 4689.851
184.6850, 4731.496
185.1670, 4783.740
185.6500, 4831.565
186.1320, 4871.450
186.6140, 4909.475
187.0960, 4947.935
187.5780, 4986.044
188.0600, 5020.569
188.5420, 5047.565
189.0240, 5066.815
189.5070, 5099.044
189.9890, 5163.455
190.4710, 5223.033
190.9530, 5272.002
191.4350, 5308.482
191.9170, 5327.810
192.3990, 5320.122
192.8810, 5286.897
193.3630, 5300.643
193.8460, 5406.669
194.3280, 5519.099
194.8100, 5624.640
195.2920, 5720.927
195.7740, 5805.962
196.2560, 5875.070
196.7380, 5930.610
197.2200, 6010.663
197.7020, 6130.165
198.1850, 6262.017
198.6670, 6402.121
199.1490, 6551.461
199.6310, 6710.587
200.1130, 6880.801
200.5950, 7062.282
201.0770, 7252.102
201.5590, 7442.279
202.0420, 7652.511
202.5240, 7893.406
203.0060, 8156.212
203.4880, 8427.390
203.9700, 8699.735
204.4520, 8971.992
204.9340, 9233.719
205.4160, 9515.461
205.8980, 9746.975
206.3800, 9892.509
206.8630, 9986.139
207.3450, 10066.49
207.8270, 10152.07
208.3090, 10250.54
208.7910, 10396.74
209.2730, 10614.89
209.7550, 10858.59
210.2380, 11105.48
210.7200, 11376.44
211.2020, 11697.60
211.6840, 12080.52
212.1660, 12518.21
212.6480, 12992.75
213.1300, 13510.58
213.6120, 14057.71
214.0940, 14619.84
214.5770, 15208.74
215.0590, 15836.99
215.5410, 16505.73
216.0230, 17225.26
216.5050, 18026.84
216.9870, 18910.81
217.4690, 19886.62
217.9510, 20940.23
218.4340, 22083.87
218.9160, 23327.73
219.3980, 24675.92
219.8800, 26130.27
220.3620, 27691.83
220.8440, 29375.25
221.3260, 31172.66
221.8080, 33067.77
222.2900, 35067.44
222.7730, 37172.24
223.2550, 39394.27
223.7370, 41709.24
224.2190, 44070.43
224.7010, 46484.45
225.1830, 48957.80
225.6650, 51557.00
226.1470, 54168.52
226.6290, 56766.94
227.1120, 59321.88
227.5940, 61764.90
228.0760, 64044.44
228.5580, 66184.65
229.0400, 68036.22
229.5220, 69668.85
230.0040, 70974.44
230.4860, 71897.48
230.9690, 72422.99
231.4510, 72542.65
231.9330, 72203.16
232.4150, 71348.52
232.8970, 70346.02
233.3790, 69092.70
233.8610, 67781.19
234.3430, 66422.14
234.8250, 65051.79
235.3070, 63747.02
235.7900, 62559.92
236.2720, 61488.96
236.7540, 60526.13
237.2360, 59639.13
237.7180, 58903.80
238.2000, 58300.18
238.6820, 57863.13
239.1650, 57655.01
239.6470, 57735.06
240.1290, 58084.60
240.6110, 58577.10
241.0930, 59299.42
241.5750, 60064.64
242.0570, 60956.33
242.5390, 61824.01
243.0210, 62465.15
243.5030, 62820.71
243.9860, 62826.67
244.4680, 62283.54
244.9500, 61159.62
245.4320, 59491.42
245.9140, 57259.16
246.3960, 54602.02
246.8780, 51596.60
247.3610, 48217.16
247.8430, 44664.23
248.3250, 41265.02
248.8070, 37987.10
249.2890, 34957.87
249.7710, 32190.79
250.2530, 29685.71
250.7350, 27444.39
251.2170, 25489.75
251.6990, 23766.30
252.1820, 22204.91
252.6640, 20811.71
253.1460, 19579.18
253.6280, 18564.54
254.1100, 17693.18
254.5920, 16918.45
255.0740, 16238.96
255.5560, 15636.77
256.0390, 15106.49
256.5210, 14646.47
257.0030, 14243.23
257.4850, 13902.34
257.9670, 13614.72
258.4490, 13368.93
258.9310, 13163.69
259.4130, 12982.34
259.8960, 12801.26
260.3780, 12632.92
260.8600, 12528.31
261.3420, 12508.35
261.8240, 12525.08
262.3060, 12536.14
262.7880, 12547.18
263.2700, 12584.64
263.7520, 12650.26
264.2340, 12751.53
264.7170, 12905.00
265.1990, 13116.38
265.6810, 13361.55
266.1630, 13636.34
266.6450, 13933.66
267.1270, 14232.82
267.6090, 14509.89
268.0910, 14800.23
268.5740, 15137.90
269.0560, 15522.00
269.5380, 15943.03
270.0200, 16403.79
270.5020, 16894.69
270.9840, 17375.71
271.4660, 17854.66
271.9480, 18314.59
272.4310, 18755.67
272.9130, 19172.94
273.3950, 19545.43
273.8770, 19869.28
274.3590, 20137.96
274.8410, 20337.71
275.3230, 20465.66
275.8050, 20550.10
276.2870, 20621.09
276.7700, 20650.12
277.2520, 20562.50
277.7340, 20322.38
278.2160, 20034.73
278.6980, 19863.45
279.1800, 19829.41
279.6620, 19853.27
280.1440, 19897.57
280.6260, 20014.45
281.1090, 20254.68
281.5910, 20626.16
282.0730, 21107.25
282.5550, 21677.86
283.0370, 22357.77
283.5190, 23066.46
284.0010, 23796.18
284.4830, 24556.68
284.9660, 25388.06
285.4480, 26262.85
285.9300, 27124.28
286.4120, 27928.99
286.8940, 28678.10
287.3760, 29274.60
287.8580, 29825.52
288.3400, 30124.02
288.8230, 30132.00
289.3050, 29841.16
289.7870, 29220.01
290.2690, 28242.94
290.7510, 26978.45
291.2330, 25631.16
291.7150, 24058.95
292.1970, 22613.07
292.6790, 21300.63
293.1610, 20135.08
293.6440, 19120.57
294.1260, 18262.30
294.6080, 17555.93
295.0900, 17001.39
295.5720, 16603.62
296.0540, 16349.25
296.5360, 16280.66
297.0180, 16310.40
297.5010, 16392.22
297.9830, 16522.63
298.4650, 16726.78
298.9470, 17033.83
299.4290, 17447.38
299.9110, 17915.07
300.3930, 18450.86
300.8750, 19029.81
301.3580, 19638.78
301.8400, 20277.99
302.3220, 20953.74
302.8040, 21682.39
303.2860, 22445.97
303.7680, 23150.05
304.2500, 23695.74
304.7320, 24436.91
305.2140, 25383.70
305.6970, 26664.68
306.1790, 28464.24
306.6610, 30800.26
307.1430, 33756.41
307.6250, 37429.93
308.1070, 41806.08
308.5890, 46898.91
309.0710, 52740.23
309.5530, 59346.20
310.0360, 66513.88
310.5180, 74306.13
311.0000, 82504.42
311.4820, 91075.78
311.9640, 99965.59
312.4460, 108966.6
312.9280, 117956.3
313.4100, 127174.9
313.8920, 136986.3
314.3750, 147386.7
314.8570, 157948.1
315.3390, 169974.6
315.8210, 181308.9
316.3030, 190752.4
316.7850, 197928.0
317.2670, 200509.6
317.7500, 196351.7
318.2320, 185191.0
318.7140, 171022.2
319.1960, 151217.4
319.6780, 131399.6
320.1600, 113174.8
320.6420, 96945.05
321.1240, 83046.49
321.6060, 71794.66
322.0890, 62878.22
322.5710, 55460.01
323.0530, 50007.72
323.5350, 45510.88
324.0170, 42049.08
324.4990, 39467.26
324.9810, 37671.68
325.4630, 36618.71
325.9450, 36206.49
326.4280, 36329.00
326.9100, 37077.67
327.3920, 38156.65
327.8740, 39641.10
328.3560, 41345.13
328.8380, 43210.97
329.3200, 45208.92
329.8020, 47290.75
330.2840, 49420.05
330.7670, 51597.35
331.2490, 53838.78
331.7310, 56205.41
332.2130, 58558.19
332.6950, 61182.13
333.1770, 63682.29
333.6590, 65671.66
334.1410, 67111.41
334.6240, 67573.78
335.1060, 66221.38
335.5880, 62922.65
336.0700, 58466.82
336.5520, 52143.79
337.0340, 45280.47
337.5160, 38802.05
337.9980, 32796.37
338.4800, 27511.98
338.9630, 23147.21
339.4450, 19654.31
339.9270, 16833.16
340.4090, 14751.74
340.8910, 13143.34
341.3730, 11837.12
341.8550, 10794.63
342.3370, 9913.477
342.8190, 9213.013
343.3020, 8632.059
343.7840, 8121.088
344.2660, 7671.650
344.7480, 7272.534
345.2300, 6918.337
345.7120, 6609.048
346.1940, 6323.360
346.6770, 6055.973
347.1590, 5815.242
347.6410, 5602.881
348.1230, 5418.640
348.6050, 5264.309
349.0870, 5141.551
349.5690, 5040.904
350.0510, 4946.621
350.5330, 4868.847
351.0160, 4778.847
351.4980, 4653.384
351.9800, 4532.693
352.4620, 4455.622
352.9440, 4419.535
353.4260, 4386.459
353.9080, 4318.023
354.3900, 4211.712
354.8720, 4123.941
355.3550, 4074.026
355.8370, 4024.949
356.3190, 3966.926
356.8010, 3904.278
357.2830, 3845.240
357.7650, 3794.262
358.2470, 3747.681
358.7290, 3696.224
359.2110, 3637.730
359.6940, 3581.351
360.1760, 3528.495
360.6580, 3478.939
361.1400, 3432.488
361.6220, 3389.238
362.1040, 3348.969
362.5860, 3312.516
363.0690, 3279.160
363.5510, 3244.676
364.0330, 3205.926
364.5150, 3171.639
364.9970, 3157.035
365.4790, 3154.468
365.9610, 3137.941
366.4430, 3082.324
366.9250, 3021.290
367.4080, 2994.743
367.8900, 2999.648
368.3720, 3001.180
368.8540, 2980.074
369.3360, 2943.232
369.8180, 2911.490
370.3000, 2881.906
370.7820, 2861.093
371.2640, 2863.248
371.7470, 2870.733
372.2290, 2856.203
372.7110, 2813.113
373.1930, 2760.949
373.6750, 2723.504
374.1570, 2703.308
374.6390, 2690.764
375.1210, 2707.423
375.6030, 2710.601
376.0860, 2665.832
376.5680, 2589.215
377.0500, 2523.688
377.5320, 2499.450
378.0140, 2505.935
378.4960, 2496.551
378.9780, 2462.219
379.4600, 2426.219
379.9430, 2393.241
380.4250, 2360.777
380.9070, 2324.850
381.3890, 2284.409
381.8710, 2247.400
382.3530, 2223.498
382.8350, 2212.553
383.3170, 2205.682
383.7990, 2211.668
384.2820, 2207.928
384.7640, 2171.890
385.2460, 2112.594
385.7280, 2061.567
386.2100, 2034.452
386.6920, 2020.819
387.1740, 2008.724
387.6560, 1998.072
388.1380, 1988.188
388.6210, 1979.173
389.1030, 1970.449
389.5850, 1960.716
390.0670, 1950.892
390.5490, 1938.514
391.0310, 1918.391
391.5130, 1896.630
391.9960, 1883.954
392.4780, 1882.795
392.9600, 1883.611
393.4420, 1874.986
393.9240, 1854.702
394.4060, 1835.618
394.8880, 1816.472
395.3700, 1799.683
395.8520, 1786.413
396.3350, 1776.375
396.8170, 1770.095
397.2990, 1768.656
397.7810, 1768.236
398.2630, 1755.501
398.7450, 1720.925
399.2270, 1692.952
399.7090, 1678.869
400.1910, 1669.878
400.6740, 1660.633
401.1560, 1649.925
401.6380, 1637.439
402.1200, 1623.416
402.6020, 1607.610
403.0840, 1586.649
403.5660, 1555.870
404.0480, 1529.067
404.5300, 1518.121
405.0130, 1517.295
405.4950, 1515.728
405.9770, 1506.731
406.4590, 1500.536
406.9410, 1514.917
407.4230, 1543.030
407.9050, 1549.254
408.3870, 1514.416
408.8700, 1462.993
409.3520, 1440.011
409.8340, 1455.061
410.3160, 1463.145
410.7980, 1451.409
411.2800, 1435.404
411.7620, 1431.163
412.2440, 1437.472
412.7270, 1439.052
413.2090, 1422.457
413.6910, 1389.753
414.1730, 1368.311
414.6550, 1366.411
415.1370, 1366.990
415.6190, 1373.814
416.1010, 1379.098
416.5830, 1371.287
417.0650, 1347.534
417.5480, 1322.136
418.0300, 1317.372
418.5120, 1336.397
418.9940, 1343.204
419.4760, 1328.915
419.9580, 1308.733
420.4400, 1287.353
420.9220, 1267.111
421.4050, 1254.580
421.8870, 1257.180
422.3690, 1265.371
422.8510, 1266.905
423.3330, 1261.926
423.8150, 1253.038
424.2970, 1237.791
424.7790, 1222.755
425.2620, 1222.737
425.7440, 1243.908
426.2260, 1257.142
426.7080, 1251.696
427.1900, 1236.301
427.6720, 1217.547
428.1540, 1197.470
428.6360, 1180.039
429.1180, 1168.543
429.6010, 1162.906
430.0830, 1160.243
430.5650, 1163.167
431.0470, 1165.955
431.5290, 1169.894
432.0110, 1172.103
432.4930, 1167.477
432.9750, 1154.733
433.4570, 1140.984
433.9400, 1136.726
434.4220, 1143.400
434.9040, 1149.531
435.3860, 1155.911
435.8680, 1159.764
436.3500, 1156.668
436.8320, 1149.901
437.3140, 1148.410
437.7970, 1160.182
438.2790, 1175.318
438.7610, 1178.646
439.2430, 1170.898
439.7250, 1167.100
440.2070, 1174.561
440.6890, 1187.124
441.1710, 1192.512
441.6540, 1187.976
442.1360, 1189.468
442.6180, 1206.430
443.1000, 1227.134
443.5820, 1240.420
444.0640, 1245.830
444.5460, 1249.129
445.0280, 1254.875
445.5100, 1262.191
445.9920, 1264.072
446.4750, 1249.884
446.9570, 1243.378
447.4390, 1258.326
447.9210, 1275.823
448.4030, 1273.418
448.8850, 1247.923
449.3670, 1220.501
449.8490, 1218.637
450.3320, 1241.869
450.8140, 1246.650
451.2960, 1219.077
451.7780, 1194.590
452.2600, 1198.028
452.7420, 1216.185
453.2240, 1225.938
453.7060, 1220.312
454.1890, 1206.252
454.6710, 1183.742
455.1530, 1156.642
455.6350, 1140.046
456.1170, 1139.583
456.5990, 1145.915
457.0810, 1148.209
457.5630, 1146.015
458.0450, 1140.500
458.5280, 1124.400
459.0100, 1111.681
459.4920, 1113.212
459.9740, 1124.482
460.4560, 1135.241
460.9380, 1140.300
461.4200, 1139.438
461.9020, 1129.616
462.3840, 1099.089
462.8670, 1086.621
463.3490, 1115.935
463.8310, 1146.074
464.3130, 1147.359
464.7950, 1125.126
465.2770, 1109.796
465.7590, 1129.600
466.2410, 1166.060
466.7240, 1171.512
467.2060, 1141.080
467.6880, 1119.593
468.1700, 1131.646
468.6520, 1160.262
469.1340, 1176.820
469.6160, 1181.463
470.0980, 1174.096
470.5800, 1137.874
471.0630, 1098.601
471.5450, 1091.121
472.0270, 1116.161
472.5090, 1145.333
472.9910, 1156.650
473.4730, 1152.399
473.9550, 1152.456
474.4370, 1167.694
474.9190, 1173.866
475.4020, 1161.688
475.8840, 1143.188
476.3660, 1128.441
476.8480, 1119.977
477.3300, 1116.407
477.8120, 1116.739
478.2940, 1120.902
478.7760, 1128.520
479.2590, 1141.819
479.7410, 1153.922
480.2230, 1164.643
480.7050, 1170.945
481.1870, 1165.731
481.6690, 1142.192
482.1510, 1120.346
482.6330, 1115.631
483.1160, 1121.419
483.5980, 1124.101
484.0800, 1120.758
484.5620, 1115.051
485.0440, 1110.389
485.5260, 1106.853
486.0080, 1103.016
486.4900, 1092.939
486.9720, 1089.359
487.4540, 1106.245
487.9370, 1128.077
488.4190, 1131.473
488.9010, 1109.445
489.3830, 1079.709
489.8650, 1065.057
490.3470, 1066.359
490.8290, 1075.578
491.3110, 1105.321
491.7940, 1124.988
492.2760, 1112.060
492.7580, 1080.435
493.2400, 1055.861
493.7220, 1044.859
494.2040, 1044.120
494.6860, 1057.125
495.1680, 1078.689
495.6510, 1091.314
496.1330, 1090.174
496.6150, 1081.845
497.0970, 1072.897
497.5790, 1063.188
498.0610, 1053.793
498.5430, 1039.585
499.0250, 1031.114
499.5070, 1035.144
499.9900, 1047.164
500.4720, 1062.690
500.9540, 1079.635
501.4360, 1091.490
501.9180, 1084.985
502.4000, 1055.547
502.8820, 1036.826
503.3640, 1038.577
503.8460, 1040.984
504.3290, 1031.043
504.8110, 1014.765
505.2930, 1005.520
505.7750, 1011.084
506.2570, 1018.989
506.7390, 1013.080
507.2210, 999.1590
507.7030, 1000.830
508.1850, 1026.676
508.6680, 1056.145
509.1500, 1065.347
509.6320, 1051.010
510.1140, 1041.915
510.5960, 1045.997
511.0780, 1046.384
511.5600, 1033.141
512.0420, 1012.800
512.5250, 993.6750
513.0070, 979.2340
513.4890, 972.2160
513.9710, 979.2190
514.4530, 1002.240
514.9350, 1021.189
515.4170, 1038.182
515.8990, 1046.524
516.3810, 1033.364
516.8640, 1011.605
517.3460, 1006.819
517.8280, 1033.283
518.3100, 1063.836
518.7920, 1079.664
519.2740, 1082.996
519.7560, 1075.410
520.2390, 1056.342
520.7210, 1040.761
521.2030, 1046.475
521.6850, 1075.317
522.1670, 1087.832
522.6490, 1068.363
523.1310, 1053.441
523.6130, 1052.315
524.0950, 1061.618
524.5780, 1080.321
525.0600, 1106.808
525.5420, 1131.546
526.0240, 1143.385
526.5060, 1142.739
526.9880, 1137.561
527.4700, 1126.784
527.9520, 1113.750
528.4340, 1094.152
528.9170, 1075.279
529.3990, 1070.326
529.8810, 1087.169
530.3630, 1101.665
530.8450, 1098.769
531.3270, 1086.857
531.8090, 1077.948
532.2910, 1073.751
532.7730, 1070.074
533.2560, 1062.818
533.7380, 1053.218
534.2200, 1051.860
534.7020, 1073.432
535.1840, 1083.091
535.6660, 1066.030
536.1480, 1043.480
536.6300, 1031.349
537.1120, 1032.220
537.5950, 1042.120
538.0770, 1064.806
538.5590, 1092.770
539.0410, 1102.648
539.5230, 1092.600
540.0050, 1080.470
540.4870, 1071.468
540.9690, 1066.429
541.4520, 1066.280
541.9340, 1070.249
542.4160, 1080.855
542.8980, 1108.974
543.3800, 1135.776
543.8620, 1144.463
544.3440, 1138.067
544.8260, 1127.800
545.3080, 1119.264
545.7910, 1114.718
546.2730, 1120.514
546.7550, 1140.017
547.2370, 1159.745
547.7190, 1186.998
548.2010, 1205.849
548.6830, 1202.646
549.1660, 1183.831
549.6480, 1167.466
550.1300, 1157.125
550.6120, 1156.456
551.0940, 1175.242
551.5760, 1207.691
552.0580, 1232.582
552.5400, 1243.403
553.0220, 1249.926
553.5050, 1263.060
553.9870, 1283.612
554.4690, 1302.401
554.9510, 1317.438
555.4330, 1333.372
555.9150, 1352.820
556.3970, 1373.452
556.8790, 1392.428
557.3620, 1408.995
557.8440, 1424.354
558.3260, 1438.523
558.8080, 1452.172
559.2900, 1469.894
559.7720, 1492.486
560.2540, 1516.953
560.7360, 1542.704
561.2180, 1568.987
561.7010, 1594.370
562.1830, 1618.696
562.6650, 1642.235
563.1470, 1655.509
563.6290, 1674.321
564.1110, 1720.239
564.5930, 1788.934
565.0750, 1855.608
565.5570, 1904.316
566.0400, 1940.337
566.5220, 1975.869
567.0040, 2001.984
567.4860, 2051.269
567.9680, 2151.683
568.4500, 2255.909
568.9320, 2327.586
569.4140, 2379.044
569.8960, 2455.075
570.3790, 2581.866
570.8610, 2731.265
571.3430, 2878.607
571.8250, 3024.650
572.3070, 3171.847
572.7890, 3320.410
573.2710, 3477.058
573.7530, 3652.100
574.2350, 3845.675
574.7180, 4044.466
575.2000, 4255.711
575.6820, 4462.020
576.1640, 4664.764
576.6460, 4859.444
577.1280, 5040.896
577.6100, 5208.609
578.0930, 5368.895
578.5750, 5541.369
579.0570, 5711.889
579.5390, 5828.726
580.0210, 5888.263
580.5030, 5916.123
580.9850, 5931.467
581.4670, 5916.178
581.9490, 5824.759
582.4320, 5647.164
582.9140, 5446.852
583.3960, 5234.271
583.8780, 4998.820
584.3600, 4719.177
584.8420, 4412.449
585.3240, 4120.522
585.8060, 3862.577
586.2890, 3626.795
586.7710, 3388.365
587.2530, 3144.491
587.7350, 2923.368
588.2170, 2730.156
588.6990, 2556.261
589.1810, 2394.138
589.6630, 2246.540
590.1450, 2121.240
590.6280, 2022.348
591.1100, 1940.854
591.5920, 1881.462
592.0740, 1832.285
592.5560, 1775.742
593.0380, 1710.469
593.5200, 1648.684
594.0020, 1600.266
594.4840, 1561.839
594.9670, 1517.380
595.4490, 1458.774
595.9310, 1411.796
596.4130, 1380.153
596.8950, 1362.480
597.3770, 1365.567
597.8590, 1384.568
598.3410, 1398.159
598.8230, 1394.360
599.3060, 1384.398
599.7880, 1375.896
600.2700, 1369.990
600.7520, 1372.084
601.2340, 1383.943
601.7160, 1396.206
602.1980, 1398.822
602.6800, 1391.600
603.1620, 1378.384
603.6450, 1343.730
604.1270, 1322.840
604.6090, 1335.837
605.0910, 1357.026
605.5730, 1358.091
606.0550, 1336.484
606.5370, 1317.756
607.0190, 1325.506
607.5020, 1344.782
607.9840, 1350.902
608.4660, 1343.849
608.9480, 1326.348
609.4300, 1297.017
609.9120, 1264.815
610.3940, 1244.493
610.8760, 1239.915
611.3590, 1233.208
611.8410, 1220.923
612.3230, 1210.484
612.8050, 1205.840
613.2870, 1204.319
613.7690, 1201.938
