##NAMES=Kernite
##RRUFFID=R050661
##IDEAL CHEMISTRY=Na_2_B_4_O_6_(OH)_2_&#183;3H_2_O
##LOCALITY=Boron, Kern County, California, USA
##OWNER=RRUFF
##SOURCE=Marcus Origlieri
##DESCRIPTION=Colorless cleavage fragment
##STATUS=The identification of this mineral has been confirmed by X-ray diffraction.
##URL=rruff.info/R050661
92.02539, 220.9835
92.50751, 218.3163
92.98962, 218.6554
93.47174, 220.3867
93.95386, 223.4776
94.43597, 226.3406
94.91809, 228.6159
95.40021, 230.6586
95.88232, 232.7124
96.36444, 233.8381
96.84656, 236.2898
97.32867, 240.2900
97.81078, 245.9432
98.29290, 253.3509
98.77502, 262.4286
99.25713, 272.6908
99.73925, 284.6001
100.2214, 299.1552
100.7035, 314.2360
101.1856, 330.0207
101.6677, 345.9831
102.1498, 360.2479
102.6320, 370.5226
103.1141, 375.6721
103.5962, 378.6366
104.0783, 378.5377
104.5604, 376.6390
105.0425, 374.5869
105.5247, 373.0733
106.0068, 370.6992
106.4889, 365.1892
106.9710, 357.1360
107.4531, 345.9300
107.9352, 329.6604
108.4173, 309.2223
108.8995, 289.2480
109.3816, 270.1618
109.8637, 253.3725
110.3458, 240.3125
110.8279, 231.4390
111.3100, 224.9116
111.7922, 219.0052
112.2743, 214.2480
112.7564, 208.4291
113.2385, 200.7168
113.7206, 191.8811
114.2027, 182.1575
114.6849, 171.5308
115.1670, 160.5773
115.6491, 151.5259
116.1312, 145.0420
116.6133, 139.9314
117.0954, 136.2668
117.5776, 133.7299
118.0597, 131.8745
118.5418, 130.3701
119.0239, 129.2073
119.5060, 129.0790
119.9881, 130.3808
120.4703, 132.0958
120.9524, 134.0272
121.4345, 136.0645
121.9166, 138.0535
122.3987, 139.9717
122.8808, 141.8150
123.3630, 142.5466
123.8451, 141.8682
124.3272, 140.2355
124.8093, 137.9784
125.2914, 135.0991
125.7735, 131.8483
126.2557, 128.2179
126.7378, 124.3148
127.2199, 120.8263
127.7020, 118.3268
128.1841, 116.5068
128.6662, 114.3958
129.1483, 111.6403
129.6305, 108.7867
130.1126, 106.1907
130.5947, 103.8501
131.0768, 101.7213
131.5589, 99.73206
132.0410, 97.86031
132.5232, 96.31897
133.0053, 95.26189
133.4874, 94.46094
133.9695, 93.84435
134.4516, 93.39001
134.9337, 93.09953
135.4159, 92.97122
135.8980, 93.00919
136.3801, 93.23832
136.8622, 93.63559
137.3443, 94.19616
137.8264, 94.91367
138.3086, 95.78505
138.7907, 96.81580
139.2728, 98.00459
139.7549, 99.66736
140.2370, 101.1347
140.7191, 102.2402
141.2013, 103.1420
141.6834, 104.1530
142.1655, 105.4941
142.6476, 106.9591
143.1297, 107.6060
143.6118, 107.2865
144.0939, 106.5272
144.5761, 105.3562
145.0582, 103.8484
145.5403, 102.3331
146.0224, 100.9893
146.5045, 99.79660
146.9866, 98.62500
147.4688, 97.38095
147.9509, 96.23544
148.4330, 95.36204
148.9151, 94.77798
149.3972, 94.35381
149.8793, 93.95176
150.3615, 93.67067
150.8436, 93.68095
151.3257, 94.06960
151.8078, 94.77454
152.2899, 95.70133
152.7720, 97.04652
153.2542, 98.27673
153.7363, 99.13295
154.2184, 99.76385
154.7005, 100.3860
155.1826, 101.0890
155.6647, 101.8868
156.1469, 102.9266
156.6290, 104.5693
157.1111, 106.1075
157.5932, 107.2931
158.0753, 108.2223
158.5574, 109.1250
159.0396, 110.2213
159.5217, 111.5646
160.0038, 112.5897
160.4859, 113.3234
160.9680, 113.7752
161.4501, 113.7001
161.9323, 113.2427
162.4144, 112.9084
162.8965, 113.2485
163.3786, 114.4895
163.8607, 115.4951
164.3428, 116.0498
164.8250, 116.5368
165.3071, 117.2133
165.7892, 118.1235
166.2713, 119.1628
166.7534, 120.1740
167.2355, 121.1151
167.7177, 122.4017
168.1998, 124.1080
168.6819, 126.1817
169.1640, 128.7013
169.6461, 131.8022
170.1282, 134.8922
170.6104, 136.9798
171.0925, 138.1876
171.5746, 139.7292
172.0567, 142.3867
172.5388, 145.7716
173.0209, 148.7410
173.5031, 151.0119
173.9852, 152.8822
174.4673, 154.7886
174.9494, 156.6941
175.4315, 158.2582
175.9136, 159.3344
176.3958, 159.9198
176.8779, 159.7800
177.3600, 158.5585
177.8421, 156.7795
178.3242, 154.7286
178.8063, 152.4196
179.2885, 149.7925
179.7706, 146.7629
180.2527, 143.3015
180.7348, 139.5131
181.2169, 135.2891
181.6990, 130.8314
182.1812, 126.1444
182.6633, 121.2601
183.1454, 116.3814
183.6275, 111.7461
184.1096, 107.2778
184.5917, 103.2838
185.0738, 99.83094
185.5560, 96.69659
186.0381, 93.75898
186.5202, 90.97968
187.0023, 88.38253
187.4844, 86.02089
187.9665, 83.86993
188.4487, 82.05281
188.9308, 80.63583
189.4129, 79.51193
189.8950, 78.61768
190.3771, 77.93359
190.8592, 77.41448
191.3414, 76.99741
191.8235, 76.79372
192.3056, 76.48241
192.7877, 75.76568
193.2698, 74.99702
193.7519, 74.74963
194.2341, 75.29832
194.7162, 76.17709
195.1983, 76.35059
195.6804, 75.64528
196.1625, 75.06470
196.6446, 75.03439
197.1268, 75.34840
197.6089, 75.48299
198.0910, 75.13993
198.5731, 74.75216
199.0552, 75.04150
199.5373, 76.09563
200.0195, 77.20589
200.5016, 77.98825
200.9837, 78.49949
201.4658, 78.99759
201.9479, 79.45454
202.4300, 80.05480
202.9122, 80.93053
203.3943, 82.09158
203.8764, 83.49968
204.3585, 85.24058
204.8406, 87.31499
205.3227, 89.23765
205.8048, 90.51109
206.2870, 91.88988
206.7691, 93.99984
207.2512, 96.89779
207.7333, 100.0035
208.2154, 102.6263
208.6975, 104.6416
209.1797, 106.9152
209.6618, 109.7523
210.1439, 112.7927
210.6260, 115.8891
211.1081, 119.0024
211.5902, 122.1117
212.0724, 125.2625
212.5545, 128.5833
213.0366, 131.4698
213.5187, 133.5428
214.0008, 135.4434
214.4829, 137.6232
214.9651, 140.1362
215.4472, 142.6862
215.9293, 144.8245
216.4114, 146.3758
216.8935, 147.8427
217.3756, 149.2025
217.8578, 150.5201
218.3399, 151.8028
218.8220, 153.0662
219.3041, 154.3914
219.7862, 155.8780
220.2683, 157.4587
220.7505, 159.3933
221.2326, 161.7121
221.7147, 164.3257
222.1968, 167.2540
222.6789, 170.4728
223.1610, 173.8116
223.6432, 177.0266
224.1253, 180.0903
224.6074, 183.0456
225.0895, 186.0720
225.5716, 188.9005
226.0537, 191.4276
226.5358, 193.6136
227.0180, 195.1530
227.5001, 195.5562
227.9822, 194.5595
228.4643, 193.0664
228.9464, 191.0266
229.4285, 188.5572
229.9107, 185.7819
230.3928, 182.7314
230.8749, 179.4050
231.3570, 175.7655
231.8391, 171.8021
232.3212, 167.7457
232.8034, 163.4104
233.2855, 159.0979
233.7676, 155.1205
234.2497, 151.5084
234.7318, 148.3854
235.2139, 146.0063
235.6961, 144.2859
236.1782, 142.9287
236.6603, 141.9369
237.1424, 141.2454
237.6245, 140.7975
238.1066, 140.6329
238.5888, 140.5476
239.0709, 140.5030
239.5530, 140.4321
240.0351, 140.0032
240.5172, 138.6345
240.9993, 136.9243
241.4815, 136.1170
241.9636, 136.5373
242.4457, 137.2063
242.9278, 137.4598
243.4099, 137.4235
243.8920, 137.3226
244.3742, 137.1496
244.8563, 136.9906
245.3384, 137.0728
245.8205, 137.4841
246.3026, 137.9446
246.7847, 138.2108
247.2668, 138.4246
247.7490, 138.8161
248.2311, 139.4597
248.7132, 140.3601
249.1953, 141.5710
249.6774, 143.1771
250.1595, 144.9397
250.6417, 146.6189
251.1238, 148.3976
251.6059, 150.5285
252.0880, 153.1549
252.5701, 156.1682
253.0522, 159.3920
253.5344, 163.0012
254.0165, 166.4381
254.4986, 169.4393
254.9807, 172.2432
255.4628, 175.1819
255.9449, 178.4242
256.4271, 181.7302
256.9092, 184.6482
257.3913, 187.4610
257.8734, 189.2062
258.3555, 189.6541
258.8376, 189.2040
259.3198, 188.2596
259.8019, 186.9806
260.2840, 185.1501
260.7661, 182.2805
261.2482, 178.0730
261.7303, 173.2737
262.2125, 167.9180
262.6946, 162.1339
263.1767, 155.9303
263.6588, 149.3088
264.1409, 142.5475
264.6230, 136.0572
265.1052, 129.8204
265.5873, 123.9323
266.0694, 118.3539
266.5515, 113.0936
267.0336, 108.1989
267.5157, 103.6803
267.9979, 99.48506
268.4800, 95.51462
268.9621, 91.61192
269.4442, 88.38914
269.9263, 86.08236
270.4084, 84.13613
270.8906, 82.29604
271.3727, 80.48006
271.8548, 78.66319
272.3369, 76.79523
272.8190, 74.81831
273.3011, 73.03889
273.7833, 71.36494
274.2654, 69.91892
274.7475, 68.82053
275.2296, 68.04142
275.7117, 67.46095
276.1938, 66.98734
276.6760, 66.66561
277.1581, 66.15734
277.6402, 65.10445
278.1223, 64.23338
278.6044, 64.01383
279.0865, 64.31422
279.5686, 64.64161
280.0508, 64.59859
280.5329, 64.17764
281.0150, 63.76094
281.4971, 63.23101
281.9792, 62.81820
282.4613, 62.64247
282.9435, 62.65468
283.4256, 62.72882
283.9077, 62.78112
284.3898, 62.82505
284.8719, 62.98536
285.3540, 63.27353
285.8362, 63.64272
286.3183, 64.12074
286.8004, 64.66792
287.2825, 65.19727
287.7646, 65.65401
288.2467, 66.09502
288.7289, 66.73940
289.2110, 67.74564
289.6931, 68.73866
290.1752, 69.66109
290.6573, 70.53404
291.1394, 71.38661
291.6216, 72.23253
292.1037, 73.04528
292.5858, 73.78593
293.0679, 74.51353
293.5500, 75.04671
294.0321, 75.32589
294.5143, 75.41960
294.9964, 75.38095
295.4785, 75.22494
295.9606, 74.98837
296.4427, 74.71113
296.9248, 74.36523
297.4070, 74.06691
297.8891, 73.88451
298.3712, 73.71265
298.8533, 73.44972
299.3354, 73.08423
299.8175, 72.68060
300.2997, 72.30261
300.7818, 71.95610
301.2639, 71.59375
301.7460, 71.07446
302.2281, 70.65065
302.7102, 70.54832
303.1924, 70.74310
303.6745, 71.00172
304.1566, 71.19216
304.6387, 71.29053
305.1208, 71.12173
305.6029, 70.58849
306.0851, 69.91364
306.5672, 69.16805
307.0493, 68.36577
307.5314, 67.54472
308.0135, 66.74421
308.4956, 65.92520
308.9778, 64.92704
309.4599, 63.58562
309.9420, 62.30107
310.4241, 61.14440
310.9062, 60.13810
311.3883, 59.32705
311.8705, 58.72202
312.3526, 58.35408
312.8347, 58.36760
313.3168, 58.93071
313.7989, 59.40671
314.2810, 59.41847
314.7632, 59.36084
315.2453, 59.84832
315.7274, 61.06627
316.2095, 62.53748
316.6916, 63.64419
317.1737, 64.33585
317.6559, 64.85664
318.1380, 65.07183
318.6201, 65.21435
319.1022, 65.59914
319.5843, 66.24172
320.0664, 66.74307
320.5485, 66.74233
321.0306, 66.18093
321.5128, 65.37814
321.9949, 64.17533
322.4770, 62.87020
322.9591, 61.68828
323.4412, 60.59868
323.9233, 59.35667
324.4055, 57.76126
324.8876, 55.87963
325.3697, 54.28878
325.8518, 53.01654
326.3339, 51.94316
326.8160, 51.01586
327.2982, 50.25208
327.7803, 49.73298
328.2624, 49.53923
328.7445, 49.50710
329.2266, 49.16985
329.7087, 48.29384
330.1909, 47.57809
330.6730, 47.21447
331.1551, 47.06170
331.6372, 46.92516
332.1193, 46.74713
332.6014, 46.62901
333.0836, 46.72966
333.5657, 47.13411
334.0478, 47.52962
334.5299, 47.93516
335.0120, 48.30773
335.4941, 48.59287
335.9763, 48.79128
336.4584, 48.97437
336.9405, 49.19817
337.4226, 49.46518
337.9047, 49.80555
338.3868, 50.19333
338.8690, 50.67065
339.3511, 51.34883
339.8332, 52.15242
340.3153, 52.84768
340.7974, 53.27189
341.2795, 53.47679
341.7617, 53.78765
342.2438, 54.17575
342.7259, 54.68281
343.2080, 55.52594
343.6901, 56.44605
344.1722, 57.03174
344.6544, 57.10815
345.1365, 56.85470
345.6186, 56.63609
346.1007, 56.46380
346.5828, 56.31512
347.0649, 56.33582
347.5471, 56.29629
348.0292, 55.98411
348.5113, 55.36726
348.9934, 54.55904
349.4755, 53.70269
349.9576, 52.81192
350.4398, 51.77533
350.9219, 50.18554
351.4040, 48.83409
351.8861, 48.30170
352.3682, 48.42074
352.8503, 48.59947
353.3325, 48.39232
353.8146, 47.82655
354.2967, 47.31921
354.7788, 46.83199
355.2609, 46.44667
355.7430, 46.30221
356.2252, 46.23975
356.7073, 45.98188
357.1894, 45.39244
357.6715, 44.67849
358.1536, 44.36768
358.6357, 44.79673
359.1179, 45.14188
359.5999, 45.39665
360.0821, 45.54952
360.5642, 45.50496
361.0463, 45.28741
361.5284, 45.12068
362.0105, 45.32177
362.4926, 46.03723
362.9748, 46.55377
363.4569, 46.73182
363.9390, 46.85568
364.4211, 47.06443
364.9032, 47.32748
365.3853, 47.53028
365.8675, 47.58759
366.3496, 47.50721
366.8317, 47.35260
367.3138, 46.93870
367.7959, 46.69562
368.2780, 46.85149
368.7602, 47.17448
369.2423, 47.33546
369.7244, 47.18213
370.2065, 46.94478
370.6886, 47.12706
371.1707, 47.95594
371.6529, 48.63204
372.1350, 49.02262
372.6171, 49.25218
373.0992, 49.30390
373.5813, 49.21881
374.0634, 49.21613
374.5456, 49.54915
375.0277, 50.23142
375.5098, 50.92454
375.9919, 51.54127
376.4740, 52.26870
376.9561, 53.21519
377.4383, 54.33320
377.9204, 55.49938
378.4025, 56.64901
378.8846, 57.80267
379.3667, 58.98702
379.8488, 60.12255
380.3310, 61.50286
380.8131, 63.31184
381.2952, 65.39028
381.7773, 67.55845
382.2594, 69.73282
382.7415, 72.17404
383.2237, 75.27148
383.7058, 79.02615
384.1879, 82.73624
384.6700, 86.31532
385.1521, 89.69772
385.6342, 92.85158
386.1164, 95.76857
386.5985, 98.60339
387.0806, 101.7492
387.5627, 104.8167
388.0448, 106.9356
388.5269, 108.0414
389.0091, 108.1570
389.4912, 107.0536
389.9733, 104.9547
390.4554, 102.1810
390.9375, 98.62441
391.4196, 94.57143
391.9018, 90.04778
392.3839, 85.11073
392.8660, 80.46188
393.3481, 76.44338
393.8302, 72.86755
394.3123, 69.30618
394.7945, 65.68686
395.2766, 62.28918
395.7587, 59.12324
396.2408, 56.28035
396.7229, 54.00932
397.2050, 52.36871
397.6872, 51.08486
398.1693, 49.89826
398.6514, 48.82114
399.1335, 47.73024
399.6156, 46.53259
400.0977, 45.37891
400.5798, 44.37770
401.0620, 43.51863
401.5441, 42.72041
402.0262, 41.92237
402.5083, 41.15304
402.9904, 40.58598
403.4725, 40.31480
403.9547, 40.09483
404.4368, 39.91406
404.9189, 39.74683
405.4010, 39.53650
405.8831, 39.27154
406.3652, 39.04285
406.8474, 39.00894
407.3295, 39.32263
407.8116, 39.37392
408.2937, 38.81688
408.7758, 38.33361
409.2579, 38.37809
409.7401, 38.85862
410.2222, 39.37648
410.7043, 39.63636
411.1864, 39.67624
411.6685, 39.84597
412.1506, 40.38908
412.6328, 40.75839
413.1149, 40.64033
413.5970, 40.41498
414.0791, 40.49839
414.5612, 41.03190
415.0433, 41.85256
415.5255, 42.76107
416.0076, 43.83944
416.4897, 44.73421
416.9718, 45.17696
417.4539, 45.63752
417.9360, 46.28911
418.4182, 47.15295
418.9003, 48.19741
419.3824, 49.42356
419.8645, 50.81168
420.3466, 52.30781
420.8287, 53.92255
421.3109, 55.61141
421.7930, 57.31337
422.2751, 59.08039
422.7572, 60.99385
423.2393, 63.09771
423.7214, 65.23312
424.2036, 67.30285
424.6857, 69.29475
425.1678, 71.01713
425.6499, 72.47231
426.1320, 73.55630
426.6141, 74.23626
427.0963, 74.52482
427.5784, 74.46928
428.0605, 74.20144
428.5426, 73.55598
429.0247, 72.23281
429.5068, 70.19261
429.9890, 67.73366
430.4711, 64.83294
430.9532, 61.70001
431.4353, 59.01834
431.9174, 57.05065
432.3995, 55.14183
432.8817, 52.87784
433.3638, 50.45448
433.8459, 48.25618
434.3280, 46.40925
434.8101, 44.83620
435.2922, 43.44592
435.7744, 42.25518
436.2565, 41.24531
436.7386, 40.53547
437.2207, 39.91028
437.7028, 39.21389
438.1849, 38.46080
438.6671, 37.74736
439.1492, 37.12915
439.6313, 36.61393
440.1134, 36.26588
440.5955, 36.21195
441.0776, 36.17194
441.5598, 36.13772
442.0418, 36.09330
442.5240, 35.99533
443.0061, 35.84572
443.4882, 35.72959
443.9703, 35.76740
444.4524, 35.99386
444.9345, 36.21330
445.4167, 36.36998
445.8988, 36.57499
446.3809, 36.81346
446.8630, 37.13448
447.3451, 37.65138
447.8272, 38.45644
448.3094, 39.41783
448.7915, 40.17243
449.2736, 40.60432
449.7557, 41.15939
450.2378, 41.95097
450.7199, 42.90793
451.2021, 44.02430
451.6842, 45.28924
452.1663, 46.61846
452.6484, 47.88224
453.1305, 49.14006
453.6126, 50.69652
454.0948, 52.72919
454.5769, 54.65979
455.0590, 56.14246
455.5411, 57.24737
456.0232, 58.02118
456.5053, 58.42011
456.9875, 58.55939
457.4696, 58.47965
457.9517, 58.20728
458.4338, 57.86501
458.9159, 57.50025
459.3980, 57.06665
459.8802, 56.48809
460.3623, 55.77584
460.8444, 54.93593
461.3265, 53.96511
461.8086, 52.87127
462.2907, 51.60577
462.7729, 50.19832
463.2550, 48.79551
463.7371, 47.47480
464.2192, 46.24753
464.7013, 45.14092
465.1834, 44.17665
465.6656, 43.29533
466.1477, 42.53529
466.6298, 41.82294
467.1119, 41.04212
467.5940, 40.18096
468.0761, 39.38911
468.5583, 38.85637
469.0404, 38.61665
469.5225, 38.39339
470.0046, 38.29545
470.4867, 38.09888
470.9688, 37.54962
471.4510, 36.89492
471.9331, 36.53473
472.4152, 36.66469
472.8973, 37.13214
473.3794, 37.77108
473.8615, 38.73232
474.3437, 39.20995
474.8258, 38.46990
475.3079, 37.66741
475.7900, 37.52094
476.2721, 37.99789
476.7542, 38.65545
477.2364, 39.31220
477.7185, 39.94176
478.2006, 40.46861
478.6827, 40.87036
479.1648, 41.28727
479.6469, 41.75897
480.1291, 42.31248
480.6112, 42.97431
481.0933, 43.74434
481.5754, 44.62318
482.0575, 45.67505
482.5396, 46.82185
483.0217, 47.87376
483.5038, 48.78382
483.9860, 49.79911
484.4681, 51.21343
484.9502, 53.04284
485.4323, 54.65480
485.9144, 55.64230
486.3965, 56.85171
486.8787, 58.62717
487.3608, 60.88830
487.8429, 63.52083
488.3250, 66.48534
488.8071, 69.61754
489.2892, 72.54184
489.7714, 74.86178
490.2535, 78.04866
490.7356, 82.35926
491.2177, 87.13271
491.6998, 92.12837
492.1819, 97.29192
492.6641, 102.5859
493.1462, 107.9591
493.6283, 113.4584
494.1104, 119.3790
494.5925, 126.1512
495.0746, 132.1320
495.5568, 137.0250
496.0389, 140.8697
496.5210, 143.6748
497.0031, 145.4204
497.4852, 145.9879
497.9673, 145.3664
498.4495, 143.4906
498.9316, 139.9825
499.4137, 134.6205
499.8958, 128.5641
500.3779, 122.1736
500.8600, 115.5388
501.3422, 108.8442
501.8243, 101.8885
502.3064, 95.29050
502.7885, 89.33347
503.2706, 83.90611
503.7527, 78.71084
504.2349, 73.69751
504.7170, 69.00239
505.1991, 64.74625
505.6812, 60.91467
506.1633, 57.66582
506.6454, 55.23610
507.1276, 53.05460
507.6097, 50.95929
508.0918, 48.95955
508.5739, 47.11859
509.0560, 45.45583
509.5381, 43.91061
510.0203, 42.37533
510.5024, 40.77007
510.9845, 39.44545
511.4666, 38.54414
511.9487, 37.78715
512.4308, 37.12114
512.9130, 36.51162
513.3951, 35.92099
513.8772, 35.33525
514.3593, 34.74025
514.8414, 34.06973
515.3235, 33.29091
515.8057, 32.68105
516.2878, 32.45356
516.7699, 32.26234
517.2520, 31.76189
517.7341, 31.00092
518.2162, 30.34615
518.6984, 29.98992
519.1805, 29.79885
519.6626, 29.61942
520.1447, 29.44840
520.6268, 29.30240
521.1089, 29.20590
521.5911, 29.11950
522.0732, 28.93344
522.5553, 28.58020
523.0374, 28.33617
523.5195, 28.33649
524.0016, 28.40332
524.4838, 28.38796
524.9659, 28.28357
525.4480, 28.15877
525.9301, 28.06728
526.4122, 27.99167
526.8943, 27.83553
527.3765, 27.54518
527.8586, 27.24771
528.3407, 26.87866
528.8228, 26.55754
529.3049, 26.39947
529.7870, 26.40396
530.2692, 26.47226
530.7513, 26.53876
531.2334, 26.59707
531.7155, 26.58319
532.1976, 26.41799
532.6797, 26.36672
533.1619, 26.77558
533.6440, 27.24043
534.1261, 27.27972
534.6082, 26.76854
535.0903, 26.27237
535.5724, 26.18427
536.0546, 26.36701
536.5367, 26.54739
537.0188, 26.69454
537.5009, 26.81146
537.9830, 26.89327
538.4651, 26.94533
538.9473, 27.00081
539.4294, 27.13699
539.9115, 27.18009
540.3936, 26.98201
540.8757, 26.71100
541.3578, 26.58684
541.8400, 26.64521
542.3221, 26.75259
542.8042, 26.76315
543.2863, 26.67340
543.7684, 26.70279
544.2505, 26.89887
544.7326, 27.16718
545.2147, 27.62353
545.6968, 28.07581
546.1790, 28.26108
546.6611, 28.13103
547.1432, 27.96858
547.6253, 28.07177
548.1074, 28.42500
548.5895, 28.84324
549.0717, 29.31273
549.5538, 29.85872
550.0359, 30.52103
550.5180, 31.26378
551.0001, 32.05559
551.4822, 32.90552
551.9644, 33.76214
552.4465, 34.54388
552.9286, 35.32175
553.4107, 36.28526
553.8928, 37.47511
554.3749, 38.69406
554.8571, 39.81704
555.3392, 40.83681
555.8213, 41.45070
556.3034, 41.54211
556.7855, 41.43770
557.2676, 41.28808
557.7498, 40.95676
558.2319, 40.21637
558.7140, 39.04561
559.1961, 37.70510
559.6782, 36.42581
560.1603, 35.21198
560.6425, 34.26194
561.1246, 33.77023
561.6067, 33.27629
562.0888, 32.50987
562.5709, 31.72523
563.0530, 31.21713
563.5352, 31.06145
564.0173, 31.06914
564.4994, 31.14457
564.9815, 31.25680
565.4636, 31.30638
565.9457, 31.28332
566.4279, 31.19091
566.9100, 30.95033
567.3921, 30.65806
567.8742, 30.64071
568.3563, 31.11267
568.8384, 31.50001
569.3206, 31.45656
569.8027, 31.29869
570.2848, 31.46032
570.7669, 31.97421
571.2490, 32.51965
571.7311, 32.80048
572.2133, 32.85363
572.6954, 33.07744
573.1775, 33.69056
573.6596, 34.17579
574.1417, 34.44363
574.6238, 34.58098
575.1060, 34.59555
575.5881, 34.52931
576.0702, 34.54684
576.5523, 34.82784
577.0344, 35.29854
577.5165, 35.69624
577.9987, 36.02107
578.4808, 36.27160
578.9629, 36.44346
579.4450, 36.53396
579.9271, 36.54346
580.4092, 36.46609
580.8914, 36.34941
581.3735, 36.21740
581.8556, 36.05127
582.3377, 35.85044
582.8198, 35.60299
583.3019, 35.22114
583.7841, 34.62231
584.2662, 33.93393
584.7483, 33.51123
585.2304, 33.59670
585.7125, 33.55380
586.1946, 33.38591
586.6768, 33.09580
587.1589, 32.58817
587.6410, 31.95889
588.1231, 31.45985
588.6052, 31.27190
589.0873, 31.19009
589.5695, 30.69430
590.0516, 29.68241
590.5337, 29.02285
