##NAMES=Keyite
##RRUFFID=R090039
##IDEAL CHEMISTRY=([box]_0.5_Cu^2+^_0.5_)Cu^2+^Cd^2+^Zn^2+^_2_(As^5+^O_4_)_3_&#183;H_2_O
##LOCALITY=Tsumeb, Namibia
##OWNER=RRUFF
##SOURCE=William W. Pinch
##DESCRIPTION=Blue crystals associated with green zincolivenite on matrix of tennantite.
##STATUS=The identification of this mineral has been confirmed by single-crystal X-ray diffraction.
##URL=rruff.info/R090039
91.11523, 16.04250
91.59735, 14.81799
92.07947, 16.20707
92.56158, 19.27628
93.04370, 21.07744
93.52582, 18.32310
94.00793, 13.22734
94.49006, 10.88599
94.97218, 12.30888
95.45429, 15.48110
95.93641, 17.49835
96.41853, 18.37799
96.90064, 18.83662
97.38276, 19.55920
97.86488, 20.45169
98.34699, 20.29961
98.82911, 18.49099
99.31123, 15.72875
99.79334, 14.60319
100.2755, 15.50810
100.7576, 16.71859
101.2397, 16.49843
101.7218, 14.43825
102.2039, 12.90398
102.6861, 12.47746
103.1682, 13.14525
103.6503, 13.84427
104.1324, 14.69654
104.6145, 15.45275
105.0966, 15.78483
105.5788, 15.43543
106.0609, 15.08939
106.5430, 14.80061
107.0251, 14.34852
107.5072, 14.78929
107.9893, 16.99183
108.4715, 19.87664
108.9536, 21.50065
109.4357, 20.22764
109.9178, 19.16638
110.3999, 19.39135
110.8820, 22.23627
111.3642, 24.16758
111.8463, 24.44757
112.3284, 23.65606
112.8105, 23.40835
113.2926, 23.70195
113.7747, 24.72806
114.2569, 26.60272
114.7390, 30.42927
115.2211, 33.86714
115.7032, 35.55337
116.1853, 36.02245
116.6674, 37.97743
117.1496, 43.88149
117.6317, 50.97492
118.1138, 56.92401
118.5959, 59.31737
119.0780, 61.92939
119.5602, 66.68093
120.0423, 73.54182
120.5244, 80.84673
121.0065, 87.91885
121.4886, 94.82994
121.9707, 101.7042
122.4529, 108.1248
122.9350, 114.7304
123.4171, 122.2253
123.8992, 130.7052
124.3813, 139.2147
124.8634, 146.5864
125.3456, 153.3598
125.8277, 160.7926
126.3098, 170.2630
126.7919, 180.4908
127.2740, 189.4385
127.7561, 196.7898
128.2383, 203.4812
128.7204, 210.0470
129.2025, 216.6672
129.6846, 224.2859
130.1667, 234.0704
130.6488, 245.2849
131.1310, 256.3788
131.6131, 267.2903
132.0952, 277.7716
132.5773, 287.4749
133.0594, 296.4384
133.5415, 304.4507
134.0237, 311.7803
134.5058, 318.3723
134.9879, 323.0383
135.4700, 325.7053
135.9521, 326.3065
136.4343, 324.0951
136.9164, 318.5092
137.3985, 312.3642
137.8806, 308.1216
138.3627, 306.0715
138.8448, 303.7753
139.3270, 300.8467
139.8091, 297.2646
140.2912, 292.7308
140.7733, 286.5857
141.2554, 280.5772
141.7375, 276.6653
142.2197, 275.3907
142.7018, 274.7010
143.1839, 274.3140
143.6660, 274.2763
144.1481, 273.7248
144.6302, 271.9295
145.1124, 270.2440
145.5945, 270.4450
146.0766, 273.4643
146.5587, 276.9803
147.0408, 280.5847
147.5230, 284.4866
148.0051, 287.4906
148.4872, 287.1840
148.9693, 284.6983
149.4514, 284.2619
149.9335, 288.2584
150.4157, 291.7633
150.8978, 293.2763
151.3799, 291.7223
151.8620, 290.6456
152.3441, 290.5139
152.8262, 290.8097
153.3084, 290.5562
153.7905, 290.2091
154.2726, 288.9335
154.7547, 286.3392
155.2368, 281.7133
155.7189, 277.0209
156.2011, 272.0300
156.6832, 267.0558
157.1653, 263.0371
157.6474, 260.3330
158.1295, 258.4489
158.6116, 257.1802
159.0938, 257.0112
159.5759, 256.7032
160.0580, 255.8409
160.5401, 254.5641
161.0222, 253.3543
161.5044, 252.3331
161.9865, 251.4460
162.4686, 250.6762
162.9507, 250.4424
163.4328, 249.8486
163.9149, 248.1287
164.3971, 245.5498
164.8792, 243.5237
165.3613, 243.1247
165.8434, 243.3876
166.3255, 243.4264
166.8076, 242.3924
167.2898, 241.5622
167.7719, 242.1016
168.2540, 243.8092
168.7361, 244.8936
169.2182, 243.5381
169.7003, 241.1953
170.1825, 239.5995
170.6646, 239.9759
171.1467, 240.9297
171.6288, 241.6205
172.1109, 242.0279
172.5931, 241.7949
173.0752, 239.5030
173.5573, 236.5309
174.0394, 235.1128
174.5215, 237.5652
175.0036, 241.3017
175.4858, 243.3826
175.9679, 243.7668
176.4500, 243.7365
176.9321, 244.3391
177.4142, 245.3647
177.8963, 246.3221
178.3785, 246.4579
178.8606, 246.5855
179.3427, 248.3147
179.8248, 251.8194
180.3069, 255.3760
180.7890, 256.7337
181.2712, 256.5412
181.7533, 256.8487
182.2354, 259.0093
182.7175, 262.2854
183.1996, 264.9153
183.6818, 266.7619
184.1639, 268.6163
184.6460, 271.6296
185.1281, 275.5947
185.6102, 279.5909
186.0923, 283.3153
186.5745, 286.7290
187.0566, 289.5347
187.5387, 291.7199
188.0208, 293.4406
188.5029, 295.0045
188.9850, 296.3915
189.4672, 297.4068
189.9493, 297.8932
190.4314, 297.9106
190.9135, 297.8008
191.3956, 297.6143
191.8777, 297.2236
192.3599, 296.3332
192.8420, 294.9441
193.3241, 293.4606
193.8062, 292.0899
194.2883, 290.8056
194.7704, 289.4689
195.2526, 288.0479
195.7347, 286.6004
196.2168, 285.2343
196.6989, 283.9483
197.1810, 282.6905
197.6632, 281.5541
198.1453, 280.5253
198.6274, 278.8898
199.1095, 276.2650
199.5916, 273.4889
200.0737, 272.6803
200.5559, 274.1612
201.0380, 275.5175
201.5201, 275.2294
202.0022, 273.1500
202.4843, 271.5594
202.9664, 270.6296
203.4486, 270.2188
203.9307, 270.1304
204.4128, 270.4866
204.8949, 270.6923
205.3770, 270.4044
205.8591, 269.5757
206.3413, 268.5425
206.8234, 267.1909
207.3055, 265.7348
207.7876, 264.8895
208.2697, 264.9573
208.7519, 264.7256
209.2340, 263.1938
209.7161, 259.8422
210.1982, 257.9149
210.6803, 258.0291
211.1624, 259.4154
211.6446, 259.8877
212.1267, 259.0924
212.6088, 258.2521
213.0909, 257.9991
213.5730, 258.4376
214.0551, 259.0839
214.5373, 259.9392
215.0194, 260.9823
215.5015, 262.1420
215.9836, 263.3480
216.4657, 264.8379
216.9478, 266.8525
217.4300, 269.6445
217.9121, 272.1241
218.3942, 274.0814
218.8763, 275.7306
219.3584, 277.7242
219.8405, 280.2357
220.3227, 282.7302
220.8048, 284.8973
221.2869, 286.5900
221.7690, 288.3891
222.2511, 290.2362
222.7333, 292.2168
223.2154, 294.5309
223.6975, 297.2858
224.1796, 300.2457
224.6617, 303.3507
225.1438, 306.7206
225.6260, 309.9195
226.1081, 312.8996
226.5902, 315.7167
227.0723, 318.3505
227.5544, 320.5163
228.0365, 323.0094
228.5187, 326.4065
229.0008, 331.6129
229.4829, 335.4675
229.9650, 337.6700
230.4471, 338.5837
230.9292, 339.0938
231.4114, 338.7715
231.8935, 338.6901
232.3756, 339.3812
232.8577, 341.3051
233.3398, 342.9173
233.8220, 344.1742
234.3041, 345.1310
234.7862, 345.9516
235.2683, 346.9258
235.7504, 347.3211
236.2325, 346.6400
236.7147, 344.0807
237.1968, 342.6576
237.6789, 343.0571
238.1610, 344.3376
238.6431, 344.2936
239.1252, 341.8985
239.6074, 339.7943
240.0895, 339.3202
240.5716, 341.8066
241.0537, 342.0079
241.5358, 338.9774
242.0179, 334.1174
242.5001, 330.0609
242.9822, 326.7009
243.4643, 324.3219
243.9464, 323.4285
244.4285, 325.0910
244.9106, 324.4664
245.3928, 320.2678
245.8749, 314.5340
246.3570, 310.9596
246.8391, 310.8395
247.3212, 310.6586
247.8034, 309.3848
248.2855, 306.9712
248.7676, 303.4708
249.2497, 298.0900
249.7318, 292.1867
250.2139, 287.8912
250.6961, 285.9151
251.1782, 284.2378
251.6603, 282.0838
252.1424, 279.1433
252.6245, 277.7160
253.1066, 278.5922
253.5888, 280.2636
254.0709, 280.8156
254.5530, 280.0695
255.0351, 278.5366
255.5172, 276.1504
255.9993, 272.7769
256.4815, 269.7572
256.9636, 266.7992
257.4457, 264.5406
257.9278, 263.9199
258.4099, 265.8086
258.8921, 267.3328
259.3742, 267.7518
259.8563, 267.0449
260.3384, 266.4770
260.8205, 266.1376
261.3026, 265.8272
261.7848, 265.2549
262.2669, 264.1747
262.7490, 263.5464
263.2311, 263.6792
263.7132, 264.5186
264.1953, 265.1342
264.6775, 265.2780
265.1596, 265.5937
265.6417, 266.7702
266.1238, 269.1199
266.6059, 271.2485
267.0880, 272.9688
267.5702, 274.2823
268.0523, 275.0599
268.5344, 275.2195
269.0165, 275.0266
269.4986, 274.5896
269.9807, 273.7946
270.4629, 273.2469
270.9450, 273.0443
271.4271, 273.1396
271.9092, 273.3397
272.3913, 273.6154
272.8734, 274.0754
273.3556, 274.7570
273.8377, 275.6385
274.3198, 276.9752
274.8019, 279.0705
275.2840, 281.4461
275.7661, 282.5750
276.2483, 282.1237
276.7304, 281.8051
277.2125, 282.6025
277.6946, 284.5616
278.1768, 287.1977
278.6589, 290.9461
279.1410, 294.7491
279.6231, 295.9816
280.1052, 294.2476
280.5873, 292.7131
281.0695, 293.4566
281.5516, 296.4360
282.0337, 298.0186
282.5158, 297.9081
282.9979, 296.8281
283.4800, 295.9117
283.9622, 295.1789
284.4443, 294.1354
284.9264, 292.5201
285.4085, 290.3810
285.8906, 288.0331
286.3727, 285.4794
286.8549, 282.6922
287.3370, 279.5456
287.8191, 276.0558
288.3012, 272.5534
288.7833, 269.0926
289.2654, 265.7487
289.7476, 262.8707
290.2297, 260.5250
290.7118, 258.1488
291.1939, 254.9805
291.6760, 251.1901
292.1581, 247.5918
292.6403, 244.2967
293.1224, 241.4435
293.6045, 239.6190
294.0866, 238.8493
294.5687, 237.8536
295.0508, 235.0771
295.5330, 231.0640
296.0151, 227.8036
296.4972, 225.9536
296.9793, 224.7921
297.4614, 223.1880
297.9435, 221.1752
298.4257, 219.1295
298.9078, 217.4074
299.3899, 215.8500
299.8720, 214.1100
300.3541, 211.9988
300.8362, 209.9207
301.3184, 208.2309
301.8005, 206.9432
302.2826, 206.1849
302.7647, 206.5435
303.2469, 207.3070
303.7290, 207.3841
304.2111, 206.5509
304.6932, 205.3870
305.1753, 204.5300
305.6574, 203.7912
306.1396, 202.7575
306.6217, 200.9724
307.1038, 198.9031
307.5859, 196.8887
308.0680, 194.8972
308.5501, 193.3854
309.0323, 193.3439
309.5144, 193.9077
309.9965, 193.7035
310.4786, 192.0490
310.9607, 189.4972
311.4428, 185.9282
311.9250, 181.4312
312.4071, 177.6084
312.8892, 176.4663
313.3713, 176.1801
313.8534, 174.8137
314.3355, 170.5237
314.8177, 166.1092
315.2998, 163.1389
315.7819, 161.3743
316.2640, 159.4563
316.7461, 156.1383
317.2282, 152.8191
317.7104, 150.5928
318.1925, 150.4689
318.6746, 150.3206
319.1567, 149.4255
319.6388, 147.9540
320.1209, 146.3837
320.6031, 144.7854
321.0852, 143.1839
321.5673, 141.5217
322.0494, 139.6004
322.5315, 138.0724
323.0136, 137.1459
323.4958, 136.6847
323.9779, 136.4674
324.4600, 137.0270
324.9421, 137.3110
325.4242, 136.7789
325.9064, 135.0916
326.3885, 134.0128
326.8706, 134.0253
327.3527, 134.5746
327.8348, 135.0735
328.3170, 135.5238
328.7991, 135.8957
329.2812, 135.9116
329.7633, 135.5358
330.2454, 136.2133
330.7275, 139.2991
331.2097, 142.3336
331.6918, 143.4720
332.1739, 140.9726
332.6560, 139.4074
333.1381, 139.4310
333.6202, 140.7547
334.1024, 142.0722
334.5845, 143.3734
335.0666, 144.6575
335.5487, 145.9267
336.0308, 147.1714
336.5129, 148.2979
336.9951, 148.9216
337.4772, 149.6926
337.9593, 152.4202
338.4414, 158.1007
338.9235, 162.8687
339.4056, 164.6916
339.8878, 163.2273
340.3699, 163.5910
340.8520, 166.3199
341.3341, 169.8713
341.8162, 172.2155
342.2983, 173.1978
342.7805, 174.4336
343.2626, 176.5539
343.7447, 179.3398
344.2268, 181.2873
344.7089, 182.2175
345.1910, 183.4684
345.6732, 186.9357
346.1553, 192.2645
346.6374, 196.1058
347.1195, 197.5046
347.6016, 197.4314
348.0837, 197.4919
348.5659, 197.7166
349.0480, 198.5990
349.5301, 200.9500
350.0122, 204.2158
350.4944, 206.8611
350.9765, 208.6117
351.4586, 210.0052
351.9407, 211.9041
352.4228, 214.0360
352.9049, 215.4909
353.3871, 215.4038
353.8692, 214.5463
354.3513, 213.9469
354.8334, 213.6717
355.3155, 213.2738
355.7976, 213.0179
356.2798, 212.2884
356.7619, 210.0864
357.2440, 204.5004
357.7261, 198.5254
358.2082, 194.6221
358.6903, 192.4988
359.1725, 190.1475
359.6546, 185.7558
360.1367, 180.9962
360.6188, 177.4569
361.1009, 176.3129
361.5830, 175.2527
362.0652, 173.4158
362.5473, 170.9353
363.0294, 168.1369
363.5115, 164.4402
363.9936, 160.9789
364.4757, 158.4660
364.9579, 157.2665
365.4400, 155.9939
365.9221, 153.9995
366.4042, 151.8823
366.8863, 150.4013
367.3684, 150.4961
367.8506, 150.3938
368.3327, 149.5602
368.8148, 147.9121
369.2969, 146.5169
369.7790, 145.2331
370.2611, 144.3011
370.7433, 143.9134
371.2254, 144.4639
371.7075, 144.9434
372.1896, 145.2698
372.6717, 145.4663
373.1538, 145.6412
373.6360, 145.8643
374.1181, 145.9486
374.6002, 145.7422
375.0823, 145.0850
375.5645, 144.7118
376.0466, 144.6780
376.5287, 144.8699
377.0108, 145.1072
377.4929, 145.3737
377.9750, 145.7630
378.4572, 146.4334
378.9393, 147.3139
379.4214, 147.4823
379.9035, 146.7432
380.3856, 146.1120
380.8677, 146.8880
381.3499, 148.9396
381.8320, 150.4850
382.3141, 150.9938
382.7962, 150.9642
383.2783, 151.5643
383.7604, 152.7436
384.2426, 153.7262
384.7247, 153.6902
385.2068, 153.1046
385.6889, 153.1061
386.1710, 153.8914
386.6531, 154.9744
387.1353, 156.3091
387.6174, 157.5815
388.0995, 157.9995
388.5816, 156.0449
389.0637, 153.7357
389.5458, 153.2113
390.0280, 154.4797
390.5101, 156.2894
390.9922, 158.4156
391.4743, 160.3928
391.9564, 161.6965
392.4385, 161.7148
392.9207, 161.5664
393.4028, 161.7014
393.8849, 162.1047
394.3670, 162.7441
394.8491, 163.2729
395.3312, 164.2749
395.8134, 166.3162
396.2955, 170.1219
396.7776, 173.1154
397.2597, 174.4150
397.7418, 174.6654
398.2239, 174.7086
398.7061, 173.5771
399.1882, 173.3362
399.6703, 174.9121
400.1524, 178.4147
400.6346, 181.0871
401.1167, 182.8719
401.5988, 183.8544
402.0809, 183.8643
402.5630, 181.4535
403.0451, 181.0435
403.5273, 183.8794
404.0094, 188.6184
404.4915, 191.3323
404.9736, 191.4242
405.4557, 190.9259
405.9378, 190.5440
406.4200, 190.2443
406.9021, 190.6609
407.3842, 192.1335
407.8663, 193.5264
408.3484, 193.2867
408.8305, 191.3882
409.3127, 189.1040
409.7948, 186.5536
410.2769, 184.0017
410.7590, 182.2511
411.2411, 181.3016
411.7232, 180.7576
412.2054, 180.7251
412.6875, 180.8654
413.1696, 180.1831
413.6517, 178.4259
414.1338, 176.1707
414.6159, 173.7030
415.0981, 171.2336
415.5802, 169.3689
416.0623, 169.0920
416.5444, 169.1831
417.0265, 168.5246
417.5086, 167.0738
417.9908, 165.0264
418.4729, 161.5192
418.9550, 157.8857
419.4371, 155.6634
419.9192, 156.6082
420.4013, 157.3888
420.8835, 156.1318
421.3656, 153.5357
421.8477, 151.6734
422.3298, 151.9978
422.8119, 152.5434
423.2940, 152.3980
423.7762, 151.2860
424.2583, 150.0732
424.7404, 148.4627
425.2225, 146.9740
425.7047, 146.1983
426.1868, 147.4989
426.6689, 147.6883
427.1510, 145.6620
427.6331, 141.7192
428.1152, 139.2912
428.5974, 138.9550
429.0795, 139.2343
429.5616, 139.2333
430.0437, 138.8022
430.5258, 138.7910
431.0079, 139.4315
431.4901, 140.2579
431.9722, 140.3555
432.4543, 139.6536
432.9364, 138.9328
433.4185, 138.4219
433.9006, 138.1373
434.3828, 138.2077
434.8649, 138.6447
435.3470, 139.2912
435.8291, 140.3193
436.3112, 141.4856
436.7933, 141.9489
437.2755, 141.4447
437.7576, 140.4170
438.2397, 139.1165
438.7218, 137.6961
439.2039, 136.6634
439.6860, 136.7128
440.1682, 137.0547
440.6503, 136.6918
441.1324, 135.5203
441.6145, 134.7001
442.0966, 135.5668
442.5787, 136.8940
443.0609, 137.3587
443.5430, 135.9042
444.0251, 134.2102
444.5072, 132.5388
444.9893, 131.0268
445.4714, 130.1384
445.9536, 130.5594
446.4357, 131.1301
446.9178, 131.4084
447.3999, 131.4238
447.8820, 130.9680
448.3641, 129.5879
448.8463, 128.0017
449.3284, 127.0179
449.8105, 127.2216
450.2926, 126.9317
450.7747, 125.4817
451.2569, 123.2209
451.7390, 122.6229
452.2211, 124.4461
452.7032, 125.9941
453.1853, 125.2623
453.6674, 122.0443
454.1496, 120.1248
454.6317, 119.7882
455.1138, 120.3760
455.5959, 121.1324
456.0780, 122.0426
456.5602, 122.8970
457.0423, 123.7607
457.5244, 124.4360
458.0065, 124.3433
458.4886, 123.5516
458.9707, 122.8050
459.4529, 122.5512
459.9350, 122.7297
460.4171, 123.4081
460.8992, 124.8040
461.3813, 125.9590
461.8634, 125.6002
462.3456, 124.5772
462.8277, 124.3293
463.3098, 126.2591
463.7919, 128.3871
464.2740, 129.7690
464.7561, 130.4004
465.2383, 130.7101
465.7204, 130.5671
466.2025, 130.3149
466.6846, 130.1214
467.1667, 129.5667
467.6488, 129.7884
468.1310, 131.7021
468.6131, 134.1848
469.0952, 135.3953
469.5773, 134.2468
470.0594, 133.5636
470.5415, 134.1164
471.0237, 135.8636
471.5058, 137.7541
471.9879, 140.1009
472.4700, 141.8993
472.9521, 142.0056
473.4342, 140.2973
473.9164, 139.4282
474.3985, 139.6673
474.8806, 140.7671
475.3627, 142.6684
475.8448, 145.2695
476.3270, 147.5240
476.8091, 148.8388
477.2912, 149.5489
477.7733, 150.1498
478.2554, 150.6586
478.7375, 151.3405
479.2197, 152.6211
479.7018, 154.1250
480.1839, 155.2361
480.6660, 155.6202
481.1481, 156.1927
481.6302, 157.4804
482.1124, 159.3700
482.5945, 161.6705
483.0766, 165.4462
483.5587, 168.5874
484.0408, 169.3069
484.5229, 167.7118
485.0051, 168.0202
485.4872, 172.9730
485.9693, 178.6618
486.4514, 182.7120
486.9335, 183.8173
487.4156, 185.5475
487.8978, 188.1972
488.3799, 191.3088
488.8620, 194.1852
489.3441, 196.5504
489.8262, 199.4778
490.3083, 203.7274
490.7905, 208.9236
491.2726, 211.6911
491.7547, 211.5426
492.2368, 211.4589
492.7189, 213.7844
493.2010, 218.2404
493.6832, 222.9214
494.1653, 227.8529
494.6474, 232.3540
495.1295, 235.3723
495.6116, 237.2570
496.0938, 239.1225
496.5759, 241.0925
497.0580, 243.5029
497.5401, 247.2558
498.0222, 252.0198
498.5044, 255.9172
498.9865, 257.4880
499.4686, 258.0544
499.9507, 258.5595
500.4328, 259.0644
500.9149, 259.8281
501.3971, 261.4492
501.8792, 263.1897
502.3613, 264.2004
502.8434, 264.1861
503.3255, 263.6200
503.8076, 262.6019
504.2898, 261.1068
504.7719, 258.9702
505.2540, 256.0952
505.7361, 252.7188
506.2182, 248.7128
506.7003, 243.8884
507.1825, 240.0226
507.6646, 237.6246
508.1467, 235.1017
508.6288, 230.1528
509.1109, 222.7939
509.5930, 216.7025
510.0752, 212.9227
510.5573, 210.3349
511.0394, 206.7099
511.5215, 202.2499
512.0037, 198.2249
512.4858, 195.9822
512.9679, 194.3176
513.4500, 191.3203
513.9321, 186.9450
514.4142, 182.5989
514.8964, 179.5416
515.3785, 176.8881
515.8606, 173.6544
516.3427, 169.0117
516.8248, 164.7663
517.3069, 161.9458
517.7891, 159.9585
518.2712, 157.6982
518.7533, 154.3499
519.2354, 151.3095
519.7175, 149.1896
520.1996, 147.9570
520.6818, 146.3571
521.1639, 144.3165
521.6460, 141.9910
522.1281, 139.4844
522.6102, 136.7791
523.0923, 133.8625
523.5745, 130.6015
524.0566, 127.3273
524.5387, 124.4314
525.0208, 121.8992
525.5029, 119.9249
525.9850, 118.8820
526.4672, 118.1529
526.9493, 116.2270
527.4314, 113.1978
527.9135, 110.1051
528.3956, 107.2893
528.8777, 104.8620
529.3599, 103.0903
529.8420, 102.0040
530.3241, 101.1760
530.8062, 100.7923
531.2883, 100.3002
531.7704, 99.06971
532.2526, 96.15083
532.7347, 93.47643
533.2168, 91.44146
533.6989, 90.07240
534.1810, 89.37440
534.6631, 90.62876
535.1453, 91.23823
535.6274, 90.29929
536.1095, 87.74960
536.5916, 85.62707
537.0737, 83.96920
537.5558, 82.64619
538.0380, 81.57622
538.5201, 80.74943
539.0022, 80.14551
539.4843, 79.71907
539.9664, 79.62705
540.4485, 80.56419
540.9307, 82.32081
541.4128, 83.09963
541.8949, 81.90784
542.3770, 79.79450
542.8591, 78.23000
543.3412, 77.21125
543.8234, 76.60026
544.3055, 76.28011
544.7876, 76.34801
545.2697, 77.13936
545.7518, 78.76180
546.2339, 80.00956
546.7161, 80.35635
547.1982, 80.02799
547.6803, 79.21093
548.1624, 76.75106
548.6445, 75.32153
549.1266, 76.34964
549.6088, 78.49104
550.0909, 78.91936
550.5730, 75.96502
551.0551, 74.05012
551.5372, 74.88691
552.0193, 78.04382
552.5015, 78.85963
552.9836, 76.73984
553.4657, 74.37894
553.9478, 73.74297
554.4299, 74.64220
554.9120, 75.02158
555.3942, 74.67303
555.8763, 74.29173
556.3584, 74.78228
556.8405, 75.86337
557.3226, 76.81155
557.8047, 77.33838
558.2869, 77.76204
558.7690, 78.61009
559.2511, 79.60908
559.7332, 80.05434
560.2154, 78.45802
560.6975, 77.23374
561.1796, 78.11852
561.6617, 81.24013
562.1439, 83.38014
562.6260, 83.08221
563.1081, 82.22557
563.5902, 81.92973
564.0723, 82.58810
564.5544, 82.96141
565.0366, 82.92590
565.5187, 82.72997
566.0008, 82.63523
566.4829, 82.58804
566.9650, 82.98390
567.4471, 84.05405
567.9293, 85.47626
568.4114, 86.26472
568.8935, 86.48207
569.3756, 86.97787
569.8577, 88.43080
570.3398, 90.41423
570.8220, 92.16078
571.3041, 93.68008
571.7862, 95.09231
572.2683, 96.42443
572.7504, 97.73804
573.2325, 99.14693
573.7147, 100.7519
574.1968, 102.2154
574.6789, 103.1584
575.1610, 103.9707
575.6431, 105.1704
576.1252, 107.4595
576.6074, 109.3747
577.0895, 110.5386
577.5716, 111.1822
578.0537, 112.2326
578.5358, 113.8577
579.0179, 115.5155
579.5001, 117.1283
579.9822, 118.6689
580.4643, 119.1799
580.9464, 118.4728
581.4285, 118.0273
581.9106, 119.6265
582.3928, 122.5703
582.8749, 124.3487
583.3570, 124.4404
583.8391, 124.3307
584.3212, 125.6808
584.8033, 127.8048
585.2855, 129.5503
585.7676, 130.7069
586.2497, 131.1513
586.7318, 130.5158
587.2139, 129.0975
587.6960, 127.7460
