##NAMES=Keyite
##RRUFFID=R090039
##IDEAL CHEMISTRY=([box]_0.5_Cu^2+^_0.5_)Cu^2+^Cd^2+^Zn^2+^_2_(As^5+^O_4_)_3_&#183;H_2_O
##LOCALITY=Tsumeb, Namibia
##OWNER=RRUFF
##SOURCE=William W. Pinch
##DESCRIPTION=Blue crystals associated with green zincolivenite on matrix of tennantite.
##STATUS=The identification of this mineral has been confirmed by single-crystal X-ray diffraction.
##URL=rruff.info/R090039
92.06543, 436.5586
92.54755, 431.5104
93.02966, 432.3850
93.51178, 441.9576
93.99390, 446.6472
94.47601, 442.3587
94.95813, 432.6459
95.44025, 424.3981
95.92236, 423.4538
96.40448, 430.3885
96.88660, 433.5503
97.36871, 431.7544
97.85082, 428.4055
98.33294, 426.0350
98.81506, 424.7737
99.29717, 422.1731
99.77929, 416.3740
100.2614, 407.8232
100.7435, 401.3280
101.2256, 399.7536
101.7078, 400.8968
102.1899, 399.4789
102.6720, 392.7862
103.1541, 385.4912
103.6362, 381.8270
104.1183, 381.6863
104.6005, 382.8551
105.0826, 383.5947
105.5647, 383.7867
106.0468, 384.3793
106.5289, 385.7626
107.0110, 387.3398
107.4931, 388.5331
107.9753, 389.2009
108.4574, 390.0282
108.9395, 392.7035
109.4216, 400.2011
109.9037, 404.6740
110.3858, 404.5300
110.8680, 401.6115
111.3501, 397.4258
111.8322, 392.6932
112.3143, 387.7185
112.7964, 384.4801
113.2785, 383.9145
113.7607, 383.8768
114.2428, 383.6961
114.7249, 383.5799
115.2070, 384.3856
115.6891, 387.1745
116.1712, 391.7223
116.6534, 393.4635
117.1355, 390.0435
117.6176, 385.6203
118.0997, 383.5727
118.5818, 384.2701
119.0639, 385.3923
119.5461, 383.3358
120.0282, 379.5805
120.5103, 379.3437
120.9924, 387.9106
121.4745, 400.9488
121.9566, 408.0727
122.4388, 406.1222
122.9209, 401.1452
123.4030, 396.2497
123.8851, 391.8706
124.3672, 389.5404
124.8493, 392.2823
125.3315, 400.7545
125.8136, 404.7082
126.2957, 396.5543
126.7778, 388.7001
127.2599, 387.4866
127.7420, 392.9701
128.2242, 399.9604
128.7063, 400.9352
129.1884, 390.9828
129.6705, 385.0850
130.1526, 385.9199
130.6347, 388.5328
131.1169, 389.3817
131.5990, 387.2632
132.0811, 383.2138
132.5632, 379.4855
133.0453, 375.7934
133.5274, 372.8040
134.0096, 370.5371
134.4917, 369.0066
134.9738, 368.4897
135.4559, 369.2960
135.9380, 370.8124
136.4201, 370.9179
136.9023, 369.3024
137.3844, 367.0905
137.8665, 364.1981
138.3486, 360.8832
138.8307, 358.3745
139.3128, 357.6818
139.7950, 358.2242
140.2771, 358.3961
140.7592, 357.5560
141.2413, 356.8893
141.7234, 357.7494
142.2055, 360.3599
142.6877, 363.3329
143.1698, 367.2776
143.6519, 370.8020
144.1340, 371.9279
144.6161, 369.1997
145.0982, 363.9742
145.5803, 359.7451
146.0625, 356.8571
146.5446, 354.5464
147.0267, 351.6803
147.5088, 349.1731
147.9909, 348.6323
148.4730, 351.6600
148.9552, 357.9794
149.4373, 361.8204
149.9194, 361.5968
150.4015, 360.1029
150.8836, 356.8726
151.3657, 352.7648
151.8479, 349.4083
152.3300, 348.4281
152.8121, 350.3820
153.2942, 351.2192
153.7763, 350.5143
154.2584, 349.3510
154.7406, 348.1817
155.2227, 347.0810
155.7048, 345.9275
156.1869, 344.5850
156.6690, 342.9997
157.1511, 341.3685
157.6333, 339.1810
158.1154, 337.2218
158.5975, 336.3208
159.0796, 336.6696
159.5617, 337.5985
160.0438, 338.2676
160.5260, 338.6469
161.0081, 339.2494
161.4902, 340.4258
161.9723, 341.8695
162.4544, 343.0495
162.9365, 343.8609
163.4187, 344.3194
163.9008, 344.6775
164.3829, 344.9595
164.8650, 344.4238
165.3471, 341.5257
165.8292, 336.8628
166.3113, 334.6219
166.7935, 337.3421
167.2756, 341.3232
167.7577, 343.8710
168.2398, 344.8605
168.7219, 345.1049
169.2040, 345.5363
169.6862, 346.3509
170.1683, 345.9924
170.6504, 342.1172
171.1325, 338.3828
171.6146, 337.0151
172.0967, 338.3798
172.5789, 340.9717
173.0610, 342.9714
173.5431, 345.1265
174.0252, 344.6942
174.5073, 337.7913
174.9894, 330.9424
175.4716, 329.8013
175.9537, 335.9083
176.4358, 345.5849
176.9179, 351.3605
177.4000, 349.9976
177.8821, 348.7607
178.3643, 348.1037
178.8464, 347.5664
179.3285, 346.2978
179.8106, 343.9468
180.2927, 341.4530
180.7748, 341.4761
181.2570, 347.7183
181.7391, 351.8860
182.2212, 351.7028
182.7033, 349.1331
183.1854, 347.1522
183.6675, 347.1796
184.1497, 348.5092
184.6318, 348.8466
185.1139, 347.4281
185.5960, 346.4141
186.0781, 347.0887
186.5602, 348.8477
187.0423, 349.8022
187.5245, 348.6339
188.0066, 346.5085
188.4887, 346.3193
188.9708, 349.2663
189.4529, 352.0120
189.9350, 351.8465
190.4172, 349.0716
190.8993, 347.0836
191.3814, 348.2711
191.8635, 350.6409
192.3456, 351.2139
192.8277, 349.1273
193.3099, 346.3565
193.7920, 344.9351
194.2741, 345.0510
194.7562, 345.0995
195.2383, 343.8204
195.7204, 342.4362
196.2026, 342.0530
196.6847, 343.0529
197.1668, 344.8503
197.6489, 346.9489
198.1310, 350.0181
198.6131, 351.3723
199.0953, 348.5966
199.5774, 344.7010
200.0595, 342.2659
200.5416, 342.2736
201.0237, 344.0548
201.5058, 346.4003
201.9880, 350.4494
202.4701, 352.8885
202.9522, 352.6147
203.4343, 350.9420
203.9164, 348.8559
204.3985, 346.7710
204.8807, 345.0241
205.3628, 344.7241
205.8449, 347.4973
206.3270, 349.6751
206.8091, 350.9756
207.2912, 351.4574
207.7733, 350.8795
208.2555, 349.0764
208.7376, 346.6836
209.2197, 346.0821
209.7018, 350.4597
210.1839, 353.0892
210.6660, 351.4897
211.1482, 348.1118
211.6303, 346.6986
212.1124, 349.3312
212.5945, 354.6633
213.0766, 357.1649
213.5587, 354.3738
214.0409, 351.9283
214.5230, 351.2863
215.0051, 351.7095
215.4872, 351.7834
215.9693, 350.7281
216.4514, 348.9422
216.9336, 347.9596
217.4157, 347.4863
217.8978, 347.9077
218.3799, 349.9178
218.8620, 352.9736
219.3441, 355.8451
219.8263, 358.1039
220.3084, 359.5684
220.7905, 359.8044
221.2726, 358.1069
221.7547, 356.5532
222.2368, 356.5661
222.7190, 357.7213
223.2011, 358.2331
223.6832, 357.1205
224.1653, 355.0732
224.6474, 353.3648
225.1295, 351.7371
225.6117, 351.0093
226.0938, 352.3232
226.5759, 355.4069
227.0580, 357.9410
227.5401, 358.9706
228.0222, 359.0314
228.5043, 358.7944
228.9865, 358.1796
229.4686, 357.7114
229.9507, 357.8774
230.4328, 358.6724
230.9149, 359.6546
231.3970, 361.2933
231.8792, 362.5880
232.3613, 362.3480
232.8434, 360.3186
233.3255, 358.3156
233.8076, 358.4191
234.2897, 360.8532
234.7719, 362.7801
235.2540, 363.4900
235.7361, 363.4852
236.2182, 362.9081
236.7003, 361.7991
237.1824, 360.4334
237.6646, 358.7579
238.1467, 356.4719
238.6288, 355.5545
239.1109, 357.9562
239.5930, 360.6478
240.0751, 361.8747
240.5573, 361.5155
241.0394, 360.8542
241.5215, 361.7091
242.0036, 364.8416
242.4857, 366.3524
242.9678, 364.4412
243.4500, 362.1414
243.9321, 360.6371
244.4142, 360.1965
244.8963, 360.6966
245.3784, 362.3587
245.8605, 365.9231
246.3427, 367.8752
246.8248, 365.9352
247.3069, 364.3939
247.7890, 366.0659
248.2711, 370.6037
248.7532, 375.3080
249.2354, 377.4563
249.7175, 376.7917
250.1996, 374.4082
250.6817, 367.1196
251.1638, 361.1108
251.6459, 360.4896
252.1281, 364.4199
252.6102, 368.5594
253.0923, 368.4046
253.5744, 362.7926
254.0565, 360.1514
254.5386, 362.0916
255.0208, 364.9078
255.5029, 367.6669
255.9850, 369.9363
256.4671, 371.1224
256.9492, 370.5513
257.4313, 367.9890
257.9135, 366.4149
258.3956, 365.8931
258.8777, 366.0316
259.3598, 366.8206
259.8419, 368.1565
260.3240, 369.8716
260.8062, 371.9059
261.2883, 374.2580
261.7704, 376.1715
262.2525, 378.3325
262.7346, 379.5338
263.2167, 378.5946
263.6989, 376.1994
264.1810, 374.1708
264.6631, 373.7129
265.1452, 374.6382
265.6273, 375.2462
266.1094, 375.0836
266.5916, 375.1522
267.0737, 375.9936
267.5558, 377.3509
268.0379, 378.6337
268.5200, 379.5418
269.0021, 380.1116
269.4843, 380.4978
269.9664, 380.9921
270.4485, 381.0169
270.9306, 379.7305
271.4127, 377.8445
271.8948, 377.1049
272.3770, 378.5616
272.8591, 381.0890
273.3412, 381.6044
273.8233, 379.3774
274.3054, 377.2027
274.7875, 375.2505
275.2697, 374.0002
275.7518, 374.8466
276.2339, 378.7524
276.7160, 383.7048
277.1981, 385.6435
277.6802, 384.3581
278.1623, 382.6369
278.6444, 380.6725
279.1266, 378.8917
279.6087, 378.1834
280.0908, 378.9200
280.5729, 380.2179
281.0550, 380.8152
281.5371, 380.7065
282.0193, 380.8871
282.5014, 382.4271
282.9835, 384.1353
283.4656, 383.7466
283.9477, 380.5119
284.4298, 377.3009
284.9120, 378.1276
285.3941, 382.3173
285.8762, 384.6146
286.3583, 382.0022
286.8404, 377.8276
287.3225, 376.5746
287.8047, 378.9154
288.2868, 381.5231
288.7689, 381.6053
289.2510, 379.7220
289.7331, 377.8658
290.2152, 375.9898
290.6974, 374.4989
291.1795, 374.0126
291.6616, 374.5682
292.1437, 375.2050
292.6258, 375.1792
293.1079, 374.8633
293.5901, 375.0986
294.0722, 375.8973
294.5543, 377.3502
295.0364, 380.2560
295.5185, 384.4813
296.0006, 387.3089
296.4828, 386.8404
296.9649, 384.4967
297.4470, 383.0277
297.9291, 382.8472
298.4112, 382.7563
298.8933, 381.4508
299.3755, 379.2661
299.8576, 378.4415
300.3397, 380.6034
300.8218, 383.5065
301.3039, 383.9216
301.7860, 381.5229
302.2682, 379.1546
302.7503, 378.2348
303.2324, 378.5805
303.7145, 379.7646
304.1966, 382.3096
304.6787, 384.6267
305.1609, 384.7246
305.6430, 382.8745
306.1251, 381.2524
306.6072, 380.9100
307.0893, 381.4433
307.5714, 382.0200
308.0536, 382.5644
308.5357, 383.1117
309.0178, 383.6078
309.4999, 384.1097
309.9820, 384.8223
310.4641, 386.2387
310.9463, 387.7337
311.4284, 388.2767
311.9105, 387.7237
312.3926, 386.8695
312.8747, 385.5028
313.3568, 384.3236
313.8390, 384.8714
314.3211, 389.1006
314.8032, 393.4336
315.2853, 393.4952
315.7674, 389.1935
316.2495, 385.4131
316.7317, 384.8931
317.2138, 385.9090
317.6959, 385.6188
318.1780, 383.2684
318.6601, 381.0668
319.1422, 380.7386
319.6243, 382.0880
320.1064, 383.9276
320.5886, 386.4967
321.0707, 388.6888
321.5528, 389.1729
322.0349, 387.8873
322.5170, 386.1249
322.9991, 383.9323
323.4813, 381.7562
323.9634, 380.9827
324.4455, 382.1752
324.9276, 384.1615
325.4097, 386.1457
325.8918, 388.0650
326.3740, 389.2731
326.8561, 389.2150
327.3382, 388.4279
327.8203, 387.6012
328.3024, 386.6969
328.7845, 386.1961
329.2667, 386.4662
329.7488, 387.4334
330.2309, 389.0262
330.7130, 392.3985
331.1951, 395.5560
331.6772, 396.1473
332.1594, 394.2099
332.6415, 392.0846
333.1236, 390.6142
333.6057, 389.9801
334.0878, 390.4162
334.5699, 392.5389
335.0521, 394.6091
335.5342, 395.3539
336.0163, 395.0450
336.4984, 395.0237
336.9805, 396.1278
337.4626, 397.1602
337.9448, 395.5138
338.4269, 390.4565
338.9090, 387.7194
339.3911, 391.8196
339.8732, 399.3819
340.3553, 403.7164
340.8375, 403.0985
341.3196, 400.8151
341.8017, 400.4947
342.2838, 401.9203
342.7659, 402.7706
343.2480, 401.8335
343.7302, 400.5469
344.2123, 400.9204
344.6944, 403.0630
345.1765, 404.4107
345.6586, 402.0839
346.1407, 397.1955
346.6229, 396.3281
347.1050, 404.5109
347.5871, 412.2628
348.0692, 413.0627
348.5513, 408.3106
349.0334, 403.2874
349.5156, 400.3064
349.9977, 399.0655
350.4798, 398.8194
350.9619, 399.6587
351.4440, 401.0369
351.9261, 403.3044
352.4083, 405.8809
352.8904, 407.8491
353.3725, 408.9272
353.8546, 409.3317
354.3367, 409.3074
354.8188, 408.8119
355.3010, 408.0468
355.7831, 405.6249
356.2652, 403.8121
356.7473, 406.0468
357.2294, 412.2018
357.7115, 416.9508
358.1937, 414.9760
358.6758, 405.8970
359.1579, 400.7598
359.6400, 402.3809
360.1221, 404.7606
360.6042, 404.7851
361.0863, 403.1530
361.5685, 402.0612
362.0506, 402.7304
362.5327, 404.8862
363.0148, 407.4714
363.4969, 412.4791
363.9790, 415.4149
364.4612, 414.1309
364.9433, 411.0107
365.4254, 409.0818
365.9075, 409.3119
366.3896, 410.2889
366.8717, 409.6181
367.3539, 405.6331
367.8360, 403.9076
368.3181, 406.1305
368.8002, 409.1415
369.2823, 411.0608
369.7644, 411.6567
370.2466, 411.4689
370.7287, 410.8568
371.2108, 409.7523
371.6929, 409.4650
372.1750, 410.7926
372.6571, 412.0178
373.1393, 412.5398
373.6214, 412.6247
374.1035, 412.9231
374.5856, 413.8350
375.0677, 414.9295
375.5498, 414.6885
376.0320, 411.1901
376.5141, 409.2515
376.9962, 409.8531
377.4783, 411.7098
377.9604, 414.1255
378.4425, 416.7641
378.9247, 419.0075
379.4068, 420.0804
379.8889, 419.9594
380.3710, 418.7027
380.8531, 413.5951
381.3352, 409.7896
381.8174, 410.4496
382.2995, 414.5801
382.7816, 418.8617
383.2637, 420.7137
383.7458, 420.5487
384.2279, 421.2347
384.7101, 423.5577
385.1922, 425.5420
385.6743, 426.6958
386.1564, 427.1924
386.6385, 427.1333
387.1206, 426.4820
387.6028, 425.6689
388.0849, 425.3981
388.5670, 425.7676
389.0491, 426.2161
389.5312, 426.6608
390.0133, 427.1205
390.4955, 427.3861
390.9776, 427.5172
391.4597, 428.2071
391.9418, 430.6099
392.4239, 434.2852
392.9060, 436.4697
393.3882, 436.4512
393.8703, 435.8149
394.3524, 435.3262
394.8345, 435.0314
395.3166, 435.0639
395.7987, 435.4732
396.2809, 436.2357
396.7630, 437.6170
397.2451, 439.7110
397.7272, 441.1369
398.2093, 441.2215
398.6914, 440.2428
399.1736, 438.5068
399.6557, 435.5389
400.1378, 433.3687
400.6199, 433.7495
401.1020, 435.8596
401.5841, 437.7532
402.0662, 439.2513
402.5483, 439.5942
403.0305, 436.3172
403.5126, 429.7015
403.9947, 426.9907
404.4768, 433.3876
404.9589, 441.6418
405.4410, 444.4747
405.9232, 441.9277
406.4053, 438.7909
406.8874, 437.9160
407.3695, 439.0909
407.8516, 440.9890
408.3337, 445.0861
408.8159, 448.0980
409.2980, 448.7956
409.7801, 447.8140
410.2622, 445.7674
410.7443, 442.8056
411.2264, 439.9321
411.7086, 438.7464
412.1907, 439.8621
412.6728, 441.4073
413.1549, 444.3905
413.6370, 446.9966
414.1191, 447.7867
414.6013, 446.9300
415.0834, 445.5502
415.5655, 444.4380
416.0476, 443.6192
416.5297, 443.6348
417.0118, 446.2566
417.4940, 447.6786
417.9761, 446.5028
418.4582, 444.0485
418.9403, 441.6166
419.4224, 439.7478
419.9045, 438.8811
420.3867, 440.2020
420.8688, 445.2719
421.3509, 448.3136
421.8330, 447.2325
422.3151, 445.7572
422.7972, 445.8650
423.2794, 447.4460
423.7615, 449.2738
424.2436, 450.4492
424.7257, 451.0456
425.2078, 451.5258
425.6899, 451.6750
426.1721, 452.0970
426.6542, 453.8610
427.1363, 455.6566
427.6184, 455.7082
428.1005, 453.2694
428.5826, 449.9505
429.0648, 447.3350
429.5469, 445.3968
430.0290, 444.8045
430.5111, 446.2789
430.9932, 448.5887
431.4753, 451.0797
431.9575, 453.6040
432.4396, 454.9678
432.9217, 453.6945
433.4038, 451.2062
433.8859, 449.7390
434.3680, 449.3966
434.8502, 450.1972
435.3323, 452.7591
435.8144, 456.3929
436.2965, 459.1892
436.7786, 461.3418
437.2607, 462.2676
437.7429, 460.5546
438.2250, 457.4243
438.7071, 455.8825
439.1892, 456.9940
439.6713, 459.1539
440.1534, 460.1200
440.6356, 459.5412
441.1177, 459.3362
441.5998, 459.7951
442.0819, 460.5059
442.5640, 461.4514
443.0461, 462.4444
443.5282, 462.9095
444.0103, 462.4038
444.4925, 461.1102
444.9746, 460.0446
445.4567, 458.2659
445.9388, 457.9227
446.4209, 460.3388
446.9030, 463.7331
447.3852, 466.4178
447.8673, 467.9189
448.3494, 468.8060
448.8315, 469.8908
449.3136, 471.4271
449.7957, 471.8622
450.2779, 470.3865
450.7600, 468.5712
451.2421, 465.6372
451.7242, 462.8999
452.2063, 463.2025
452.6884, 468.7452
453.1706, 476.4393
453.6527, 478.2843
454.1348, 472.0401
454.6169, 467.0186
455.0990, 466.0143
455.5811, 466.7845
456.0633, 468.4510
456.5454, 470.7727
457.0275, 472.7657
457.5096, 473.3068
457.9917, 472.8997
458.4738, 473.5806
458.9560, 475.9538
459.4381, 478.0496
459.9202, 478.1037
460.4023, 477.0122
460.8844, 476.4356
461.3665, 477.0381
461.8487, 477.6657
462.3308, 476.6334
462.8129, 474.7497
463.2950, 475.3539
463.7771, 480.1752
464.2592, 486.0912
464.7414, 488.4797
465.2235, 486.9032
465.7056, 485.3251
466.1877, 484.0225
466.6698, 482.9879
467.1519, 481.9427
467.6341, 481.0746
468.1162, 481.3912
468.5983, 483.7971
469.0804, 487.5305
469.5625, 488.9698
470.0446, 484.5462
470.5268, 482.3638
471.0089, 484.4984
471.4910, 488.2935
471.9731, 491.7150
472.4552, 494.1408
472.9373, 495.4313
473.4195, 495.1314
473.9016, 493.0247
474.3837, 492.2591
474.8658, 494.0496
475.3479, 495.9149
475.8300, 497.4054
476.3122, 498.4605
476.7943, 499.0392
477.2764, 499.0974
477.7585, 498.8022
478.2406, 498.1562
478.7227, 497.0236
479.2049, 496.8746
479.6870, 499.0949
480.1691, 501.2172
480.6512, 501.0202
481.1333, 498.9961
481.6154, 497.5744
482.0976, 498.3615
482.5797, 500.2512
483.0618, 502.0758
483.5439, 503.8707
484.0260, 503.5311
484.5081, 498.3433
484.9902, 491.5694
485.4724, 490.4311
485.9545, 496.9155
486.4366, 502.7212
486.9187, 504.3393
487.4008, 503.9660
487.8829, 504.5892
488.3651, 506.6418
488.8472, 508.5704
489.3293, 508.7203
489.8114, 507.1204
490.2935, 507.9958
490.7756, 515.5104
491.2578, 520.1885
491.7399, 516.5371
492.2220, 509.5410
492.7041, 506.0963
493.1862, 508.4455
493.6683, 513.3726
494.1505, 516.3929
494.6326, 517.2984
495.1147, 517.1035
495.5968, 514.2723
496.0789, 511.8335
496.5610, 510.5598
497.0432, 510.5436
497.5253, 512.1559
498.0074, 516.0427
498.4895, 520.3091
498.9716, 521.1477
499.4537, 518.0619
499.9359, 514.5516
500.4180, 509.9712
500.9001, 506.6199
501.3822, 507.1022
501.8643, 511.0171
502.3464, 514.3514
502.8286, 514.6350
503.3107, 513.4808
503.7928, 513.5359
504.2749, 514.8834
504.7570, 515.6350
505.2391, 514.4223
505.7213, 512.2106
506.2034, 511.5821
506.6855, 512.9426
507.1676, 514.6713
507.6497, 517.4595
508.1318, 519.7973
508.6140, 519.3694
509.0961, 516.1688
509.5782, 512.7642
510.0603, 511.4276
510.5424, 512.0417
511.0245, 512.2737
511.5067, 510.5386
511.9888, 510.3531
512.4709, 514.1222
512.9530, 518.8258
513.4351, 520.7400
513.9172, 519.1104
514.3994, 516.7697
514.8815, 517.6261
515.3636, 522.1050
515.8457, 524.0463
516.3278, 522.0758
516.8099, 519.2772
517.2921, 515.8896
517.7742, 512.8683
518.2563, 511.8240
518.7384, 513.5763
519.2205, 516.4336
519.7026, 518.9290
520.1848, 521.0172
520.6669, 522.2722
521.1490, 522.4115
521.6311, 522.0842
522.1132, 522.0956
522.5953, 522.3008
523.0775, 521.6939
523.5596, 518.6143
524.0417, 516.0026
524.5238, 516.3226
525.0059, 518.8365
525.4880, 521.6326
525.9702, 524.0274
526.4523, 525.6555
526.9344, 525.7659
527.4165, 523.3981
527.8986, 522.0193
528.3807, 522.2079
528.8629, 522.7621
529.3450, 523.2221
529.8271, 523.5026
530.3092, 523.5804
530.7913, 523.4369
531.2734, 523.1223
531.7556, 522.6588
532.2377, 521.7894
532.7198, 521.5099
533.2019, 522.1209
533.6840, 523.2502
534.1661, 525.3835
534.6483, 528.0498
535.1304, 529.5334
535.6125, 528.4224
536.0946, 525.8085
536.5767, 523.2989
537.0588, 520.8487
537.5410, 519.4485
538.0231, 519.6912
538.5052, 521.0287
538.9873, 522.4468
539.4694, 523.8030
539.9515, 526.1476
540.4337, 532.2416
540.9158, 537.8190
541.3979, 537.5331
541.8800, 532.1144
542.3621, 526.8680
542.8442, 525.0162
543.3264, 525.7870
543.8085, 526.5532
544.2906, 526.6904
544.7726, 527.7429
545.2548, 531.0733
545.7369, 534.2786
546.2190, 535.2899
546.7011, 534.3585
547.1832, 533.1713
547.6653, 532.9157
548.1475, 533.4850
548.6296, 534.8190
549.1117, 537.8979
549.5938, 539.1555
550.0759, 533.8614
550.5580, 528.7906
551.0402, 530.8411
551.5223, 539.9886
552.0044, 546.8586
552.4865, 543.4044
552.9686, 535.1168
553.4507, 532.0179
553.9329, 534.5389
554.4150, 537.7644
554.8971, 539.3038
555.3792, 539.7170
555.8613, 540.4124
556.3434, 541.6028
556.8256, 542.4929
557.3077, 542.3525
557.7898, 542.2496
558.2719, 543.7712
558.7540, 546.5042
559.2361, 547.9641
559.7183, 546.1363
560.2004, 542.2621
560.6825, 541.8025
561.1646, 547.9803
561.6467, 552.0799
562.1288, 551.8666
562.6110, 550.6722
563.0931, 551.1990
563.5752, 553.2245
564.0573, 554.3133
564.5394, 552.0550
565.0215, 548.0406
565.5037, 546.6609
565.9858, 548.3432
566.4679, 549.8369
566.9500, 549.8303
567.4321, 549.1398
567.9142, 548.7857
568.3964, 548.7621
568.8785, 549.0968
569.3606, 550.0597
569.8427, 551.2054
570.3248, 551.9385
570.8069, 552.3649
571.2891, 553.2265
571.7712, 554.9859
572.2533, 557.2224
572.7354, 558.8942
573.2175, 560.0107
573.6996, 560.4674
574.1818, 559.3197
574.6639, 558.3876
575.1460, 558.8877
575.6281, 560.5585
576.1102, 562.6729
576.5923, 564.9991
577.0745, 566.8657
577.5566, 566.0267
578.0387, 561.5024
578.5208, 559.8342
579.0029, 565.1560
579.4850, 570.6918
579.9672, 570.5660
580.4493, 566.0324
580.9314, 562.6368
581.4135, 563.2761
581.8956, 565.1869
582.3777, 565.6146
582.8599, 564.9821
583.3420, 564.8648
583.8241, 565.7766
584.3062, 567.5894
584.7883, 570.5998
585.2704, 575.7015
585.7526, 577.0999
586.2347, 571.3036
586.7168, 565.8014
587.1989, 563.5328
587.6810, 563.7841
588.1631, 565.6511
588.6453, 568.6771
