##NAMES=Keyite
##RRUFFID=R050585
##IDEAL CHEMISTRY=([box]_0.5_Cu^2+^_0.5_)Cu^2+^Cd^2+^Zn^2+^_2_(As^5+^O_4_)_3_&#183;H_2_O
##LOCALITY=Tsumeb mine, Tsumeb, Otavi District, Oshikoto, Namibia
##OWNER=RRUFF
##SOURCE=University of Arizona Mineral Museum
##DESCRIPTION=Microscopic blue prismatic crystals embedded in green zincolivenite, R050583, and associated with schultenite, R050584
##STATUS=The identification of this mineral is confirmed by single-crystal X-ray diffraction and chemical analysis.
##URL=rruff.info/R050585
##MEASURED CHEMISTRY=(Cu^2+^_2.67_Fe_0.33_)_Σ=3_Zn_4.00_(Cd_1.65_Fe_0.14_Pb_0.11_Mn_0.06_Ca_0.04_)_Σ=2_(As_1.00_O_4_)_6_·2H_2_O ; = lighter phase. The darker phase: Zn_1.00_(Cu_0.91_Fe_0.09_)_Σ=1_(As_1.00_O_4_)(OH)  is zincolivenite
150.9828, 2990.208
151.4649, 3001.211
151.9470, 3032.612
152.4291, 3056.184
152.9112, 3059.323
153.3933, 3060.371
153.8755, 3072.332
154.3576, 3113.366
154.8397, 3148.707
155.3218, 3169.928
155.8039, 3175.263
156.2860, 3177.683
156.7682, 3172.560
157.2503, 3167.446
157.7324, 3171.845
158.2145, 3203.598
158.6966, 3233.079
159.1787, 3246.405
159.6609, 3234.310
160.1430, 3223.342
160.6251, 3230.121
161.1072, 3244.793
161.5893, 3244.245
162.0714, 3199.874
162.5536, 3148.979
163.0357, 3117.577
163.5178, 3130.355
163.9999, 3143.153
164.4820, 3133.654
164.9641, 3104.906
165.4463, 3075.909
165.9284, 3055.029
166.4105, 3039.147
166.8926, 3024.895
167.3747, 3011.975
167.8568, 2999.538
168.3390, 2988.440
168.8211, 2979.180
169.3032, 2965.888
169.7853, 2940.490
170.2674, 2908.667
170.7495, 2880.377
171.2317, 2855.474
171.7138, 2838.519
172.1959, 2837.318
172.6780, 2856.542
173.1601, 2878.001
173.6422, 2883.468
174.1244, 2877.470
174.6065, 2874.525
175.0886, 2886.794
175.5707, 2906.624
176.0528, 2922.642
176.5349, 2931.089
177.0171, 2936.771
177.4992, 2945.217
177.9813, 2956.057
178.4634, 2967.070
178.9455, 2971.371
179.4276, 2974.197
179.9098, 2988.379
180.3919, 3025.913
180.8740, 3072.707
181.3561, 3106.423
181.8382, 3126.401
182.3203, 3140.238
182.8025, 3150.661
183.2846, 3159.620
183.7667, 3175.479
184.2488, 3203.962
184.7309, 3242.370
185.2130, 3282.170
185.6951, 3324.193
186.1773, 3366.386
186.6594, 3404.588
187.1415, 3439.455
187.6236, 3478.943
188.1057, 3536.048
188.5878, 3604.260
189.0700, 3653.657
189.5521, 3677.950
190.0342, 3686.489
190.5163, 3693.389
190.9984, 3698.377
191.4805, 3704.562
191.9627, 3717.760
192.4448, 3736.630
192.9269, 3746.023
193.4090, 3743.953
193.8911, 3730.389
194.3732, 3702.876
194.8554, 3659.652
195.3375, 3611.290
195.8196, 3569.166
196.3017, 3533.668
196.7838, 3490.944
197.2659, 3435.936
197.7481, 3370.492
198.2302, 3303.038
198.7123, 3230.335
199.1944, 3165.028
199.6765, 3125.262
200.1586, 3113.339
200.6408, 3106.613
201.1229, 3098.907
201.6050, 3090.307
202.0871, 3077.897
202.5692, 3059.900
203.0513, 3040.680
203.5335, 3026.820
204.0156, 3018.151
204.4977, 3015.164
204.9798, 3019.968
205.4619, 3033.961
205.9440, 3045.008
206.4262, 3052.916
206.9083, 3057.418
207.3904, 3057.175
207.8725, 3050.861
208.3546, 3043.242
208.8367, 3035.385
209.3189, 3025.199
209.8010, 3024.829
210.2831, 3040.155
210.7652, 3065.562
211.2473, 3073.309
211.7294, 3054.938
212.2116, 3035.709
212.6937, 3037.890
213.1758, 3070.875
213.6579, 3094.306
214.1400, 3098.313
214.6221, 3084.979
215.1043, 3084.605
215.5864, 3101.777
216.0685, 3125.467
216.5506, 3145.213
217.0327, 3161.162
217.5148, 3173.135
217.9970, 3179.119
218.4791, 3178.239
218.9612, 3186.024
219.4433, 3208.365
219.9254, 3233.110
220.4075, 3243.179
220.8897, 3231.721
221.3718, 3219.036
221.8539, 3210.187
222.3360, 3204.390
222.8181, 3206.298
223.3002, 3221.539
223.7824, 3240.869
224.2645, 3246.101
224.7466, 3229.017
225.2287, 3212.156
225.7108, 3204.786
226.1929, 3211.528
226.6750, 3215.446
227.1572, 3217.592
227.6393, 3216.685
228.1214, 3207.715
228.6035, 3183.240
229.0856, 3161.958
229.5677, 3154.819
230.0499, 3172.132
230.5320, 3180.123
231.0141, 3176.440
231.4962, 3162.363
231.9783, 3141.917
232.4604, 3111.226
232.9426, 3079.393
233.4247, 3050.971
233.9068, 3025.770
234.3889, 3005.818
234.8710, 2994.521
235.3531, 2990.132
235.8353, 2976.542
236.3174, 2946.778
236.7995, 2915.815
237.2816, 2895.053
237.7637, 2888.395
238.2458, 2884.879
238.7280, 2885.908
239.2101, 2891.282
239.6922, 2885.905
240.1743, 2865.294
240.6564, 2838.370
241.1385, 2813.003
241.6207, 2788.320
242.1028, 2766.292
242.5849, 2748.655
243.0670, 2736.180
243.5491, 2717.254
244.0313, 2686.185
244.5134, 2653.412
244.9955, 2631.336
245.4776, 2624.277
245.9597, 2620.505
246.4418, 2617.728
246.9240, 2616.223
247.4061, 2614.149
247.8882, 2611.226
248.3703, 2607.994
248.8524, 2605.259
249.3345, 2603.261
249.8167, 2601.307
250.2988, 2598.669
250.7809, 2594.302
251.2630, 2593.290
251.7451, 2595.729
252.2272, 2601.399
252.7094, 2610.624
253.1915, 2626.363
253.6736, 2640.526
254.1557, 2648.305
254.6378, 2643.913
255.1199, 2652.215
255.6021, 2678.248
256.0842, 2714.440
256.5663, 2745.459
257.0484, 2774.169
257.5305, 2792.821
258.0126, 2794.088
258.4948, 2764.867
258.9769, 2756.397
259.4590, 2776.050
259.9411, 2814.275
260.4232, 2846.067
260.9053, 2870.396
261.3875, 2890.354
261.8696, 2905.851
262.3517, 2912.284
262.8338, 2928.909
263.3159, 2960.635
263.7980, 3002.228
264.2802, 3033.080
264.7623, 3047.137
265.2444, 3062.967
265.7265, 3094.638
266.2086, 3148.175
266.6907, 3192.873
267.1729, 3224.177
267.6550, 3244.611
268.1371, 3263.732
268.6192, 3280.354
269.1013, 3297.763
269.5834, 3323.123
270.0656, 3362.916
270.5477, 3377.445
271.0298, 3353.740
271.5119, 3302.385
271.9940, 3268.335
272.4761, 3255.530
272.9583, 3250.824
273.4404, 3245.178
273.9225, 3238.426
274.4046, 3231.921
274.8867, 3225.466
275.3688, 3219.496
275.8510, 3217.741
276.3331, 3222.890
276.8152, 3224.258
277.2973, 3209.450
277.7794, 3176.104
278.2615, 3149.403
278.7437, 3135.372
279.2258, 3131.467
279.7079, 3126.236
280.1900, 3119.222
280.6721, 3112.712
281.1542, 3106.341
281.6364, 3099.728
282.1185, 3103.993
282.6006, 3126.196
283.0827, 3160.256
283.5648, 3181.797
284.0469, 3190.060
284.5291, 3189.960
285.0112, 3182.401
285.4933, 3167.737
285.9754, 3158.010
286.4575, 3156.941
286.9396, 3162.829
287.4217, 3170.168
287.9038, 3178.796
288.3860, 3189.550
288.8681, 3203.985
289.3502, 3221.604
289.8323, 3240.274
290.3144, 3262.998
290.7965, 3284.888
291.2787, 3287.597
291.7608, 3269.447
292.2429, 3250.554
292.7250, 3252.177
293.2071, 3270.847
293.6892, 3289.239
294.1714, 3300.852
294.6535, 3308.994
295.1356, 3324.243
295.6177, 3347.315
296.0998, 3364.654
296.5819, 3358.547
297.0641, 3335.287
297.5462, 3315.867
298.0283, 3309.278
298.5104, 3309.709
298.9925, 3304.936
299.4746, 3294.854
299.9568, 3290.962
300.4389, 3314.289
300.9210, 3351.776
301.4031, 3373.335
301.8852, 3354.909
302.3673, 3322.231
302.8495, 3310.283
303.3316, 3318.710
303.8137, 3328.475
304.2958, 3323.643
304.7779, 3309.308
305.2600, 3294.688
305.7422, 3286.319
306.2243, 3277.183
306.7064, 3257.102
307.1885, 3226.616
307.6706, 3199.863
308.1527, 3195.792
308.6349, 3199.627
309.1170, 3191.013
309.5991, 3149.345
310.0812, 3102.038
310.5633, 3072.351
311.0454, 3058.829
311.5276, 3040.181
312.0097, 2995.262
312.4918, 2941.262
312.9739, 2896.797
313.4560, 2877.503
313.9381, 2862.384
314.4203, 2838.981
314.9024, 2807.799
315.3845, 2780.049
315.8666, 2766.880
316.3487, 2757.065
316.8308, 2739.992
317.3130, 2699.931
317.7951, 2663.515
318.2772, 2645.779
318.7593, 2644.760
319.2414, 2638.908
319.7235, 2612.458
320.2057, 2582.715
320.6878, 2563.396
321.1699, 2570.654
321.6520, 2575.414
322.1341, 2564.170
322.6162, 2539.555
323.0984, 2529.291
323.5805, 2555.742
324.0626, 2588.350
324.5447, 2606.510
325.0268, 2593.958
325.5089, 2581.821
325.9911, 2573.641
326.4732, 2569.385
326.9553, 2567.303
327.4374, 2564.078
327.9195, 2565.096
328.4016, 2573.341
328.8838, 2591.083
329.3659, 2613.229
329.8480, 2644.010
330.3301, 2680.734
330.8122, 2707.443
331.2943, 2719.947
331.7765, 2726.763
332.2586, 2731.420
332.7407, 2726.320
333.2228, 2733.319
333.7049, 2757.933
334.1870, 2795.892
334.6692, 2828.898
335.1513, 2852.212
335.6334, 2878.817
336.1155, 2917.922
336.5976, 2977.052
337.0797, 3025.091
337.5619, 3056.639
338.0440, 3077.438
338.5261, 3102.072
339.0082, 3129.917
339.4903, 3162.983
339.9724, 3202.879
340.4546, 3250.604
340.9367, 3299.721
341.4188, 3351.749
341.9009, 3403.480
342.3830, 3446.463
342.8651, 3479.351
343.3473, 3515.102
343.8294, 3564.109
344.3115, 3625.190
344.7936, 3672.616
345.2757, 3700.523
345.7578, 3726.895
346.2400, 3788.266
346.7221, 3881.634
347.2042, 3968.168
347.6863, 4026.867
348.1684, 4063.353
348.6505, 4093.219
349.1327, 4115.102
349.6148, 4140.641
350.0969, 4190.598
350.5790, 4258.411
351.0611, 4319.023
351.5432, 4357.550
352.0254, 4382.038
352.5075, 4408.481
352.9896, 4438.463
353.4717, 4457.015
353.9538, 4443.835
354.4359, 4409.474
354.9181, 4374.878
355.4002, 4360.895
355.8823, 4343.647
356.3644, 4295.602
356.8465, 4216.252
357.3286, 4136.260
357.8108, 4086.349
358.2929, 4044.405
358.7750, 3980.500
359.2571, 3853.521
359.7392, 3726.996
360.2213, 3640.231
360.7035, 3591.054
361.1856, 3542.488
361.6677, 3476.906
362.1498, 3405.428
362.6319, 3336.957
363.1140, 3274.508
363.5962, 3214.633
364.0783, 3153.618
364.5604, 3092.795
365.0425, 3041.650
365.5246, 3016.221
366.0067, 2992.223
366.4889, 2954.805
366.9710, 2875.569
367.4531, 2813.604
367.9352, 2783.551
368.4173, 2777.817
368.8994, 2762.640
369.3815, 2729.100
369.8636, 2693.376
370.3458, 2662.410
370.8279, 2634.977
371.3100, 2614.139
371.7921, 2601.997
372.2742, 2595.844
372.7563, 2590.300
373.2385, 2590.832
373.7206, 2582.797
374.2027, 2553.965
374.6848, 2491.324
375.1669, 2465.648
375.6490, 2491.818
376.1312, 2539.445
376.6133, 2557.523
377.0954, 2540.088
377.5775, 2517.064
378.0596, 2499.063
378.5417, 2486.164
379.0239, 2468.395
379.5060, 2443.836
379.9881, 2420.653
380.4702, 2408.420
380.9523, 2406.965
381.4344, 2414.558
381.9166, 2435.886
382.3987, 2464.724
382.8808, 2484.635
383.3629, 2495.430
383.8450, 2497.164
384.3271, 2482.828
384.8093, 2458.174
385.2914, 2442.058
385.7735, 2445.412
386.2556, 2454.994
386.7377, 2447.635
387.2198, 2426.301
387.7020, 2413.570
388.1841, 2434.114
388.6662, 2470.490
389.1483, 2500.372
389.6304, 2519.352
390.1125, 2528.619
390.5947, 2522.701
391.0768, 2506.633
391.5589, 2496.222
392.0410, 2506.690
392.5231, 2521.369
393.0052, 2526.314
393.4874, 2512.576
393.9695, 2505.400
394.4516, 2521.767
394.9337, 2550.556
395.4158, 2571.427
395.8979, 2569.068
396.3801, 2565.834
396.8622, 2570.843
397.3443, 2586.816
397.8264, 2603.765
398.3085, 2620.861
398.7906, 2637.922
399.2728, 2654.618
399.7549, 2668.121
400.2370, 2684.583
400.7191, 2708.653
401.2012, 2741.744
401.6833, 2760.602
402.1655, 2754.728
402.6476, 2744.918
403.1297, 2750.240
403.6118, 2778.763
404.0939, 2802.856
404.5760, 2817.316
405.0582, 2823.963
405.5403, 2832.456
406.0224, 2843.704
406.5045, 2853.879
406.9866, 2859.888
407.4688, 2861.505
407.9509, 2862.871
408.4330, 2864.781
408.9151, 2866.100
409.3972, 2863.699
409.8793, 2857.563
410.3615, 2851.588
410.8436, 2847.701
411.3257, 2845.685
411.8078, 2845.827
412.2899, 2848.904
412.7720, 2850.753
413.2542, 2846.449
413.7363, 2836.913
414.2184, 2824.636
414.7005, 2807.004
415.1826, 2789.291
415.6647, 2778.877
416.1469, 2776.124
416.6290, 2773.994
417.1111, 2770.204
417.5932, 2763.182
418.0753, 2751.094
418.5574, 2729.493
419.0396, 2705.849
419.5217, 2682.385
420.0038, 2659.568
420.4859, 2639.017
420.9680, 2623.268
421.4501, 2609.006
421.9323, 2594.368
422.4144, 2577.979
422.8965, 2562.395
423.3786, 2548.938
423.8607, 2536.760
424.3428, 2523.192
424.8250, 2503.490
425.3071, 2486.398
425.7892, 2475.628
426.2713, 2474.015
426.7534, 2470.705
427.2355, 2464.515
427.7177, 2457.311
428.1998, 2452.248
428.6819, 2450.908
429.1640, 2447.673
429.6461, 2438.799
430.1282, 2424.615
430.6104, 2420.782
431.0925, 2430.146
431.5746, 2442.268
432.0567, 2446.534
432.5388, 2442.714
433.0209, 2438.010
433.5031, 2434.332
433.9852, 2430.387
434.4673, 2420.541
434.9494, 2376.416
435.4315, 2406.128
435.9136, 2420.449
436.3958, 2420.213
436.8779, 2361.359
437.3600, 2378.556
437.8421, 2365.493
438.3242, 2351.339
438.8063, 2379.685
439.2885, 2330.156
439.7706, 2358.142
440.2527, 2355.404
440.7348, 2366.953
441.2169, 2348.056
441.6990, 2338.766
442.1812, 2360.244
442.6633, 2364.928
443.1454, 2343.130
443.6275, 2356.512
444.1096, 2307.471
444.5917, 2313.500
445.0739, 2343.375
445.5560, 2323.894
446.0381, 2338.614
446.5202, 2340.522
447.0023, 2283.660
447.4844, 2329.433
447.9666, 2331.042
448.4487, 2287.301
448.9308, 2330.029
449.4129, 2292.873
449.8950, 2284.441
450.3771, 2297.666
450.8593, 2288.633
451.3413, 2315.093
451.8235, 2307.665
452.3056, 2295.903
452.7877, 2293.933
453.2698, 2297.313
453.7519, 2306.971
454.2340, 2310.306
454.7162, 2299.112
455.1983, 2279.755
455.6804, 2276.898
456.1625, 2291.336
456.6446, 2308.401
457.1267, 2317.044
457.6089, 2318.586
458.0910, 2316.612
458.5731, 2310.560
459.0552, 2303.660
459.5373, 2298.852
460.0194, 2296.269
460.5016, 2296.296
460.9837, 2298.144
461.4658, 2303.341
461.9479, 2316.501
462.4300, 2340.958
462.9121, 2357.396
463.3943, 2346.169
463.8764, 2323.770
464.3585, 2311.663
464.8406, 2327.109
465.3227, 2343.153
465.8048, 2348.782
466.2870, 2343.833
466.7691, 2345.769
467.2512, 2362.726
467.7333, 2382.903
468.2154, 2399.582
468.6975, 2416.708
469.1797, 2422.966
469.6618, 2410.260
470.1439, 2388.305
470.6260, 2384.441
471.1081, 2405.787
471.5902, 2427.925
472.0724, 2439.295
472.5545, 2439.005
473.0366, 2445.643
473.5187, 2461.079
474.0008, 2477.989
474.4829, 2487.096
474.9651, 2488.917
475.4472, 2489.145
475.9293, 2487.490
476.4114, 2486.780
476.8935, 2494.428
477.3756, 2509.824
477.8578, 2525.712
478.3399, 2537.848
478.8220, 2546.834
479.3041, 2551.891
479.7862, 2549.399
480.2683, 2551.859
480.7505, 2577.447
481.2326, 2614.808
481.7147, 2640.150
482.1968, 2629.949
482.6789, 2616.606
483.1610, 2616.486
483.6432, 2631.753
484.1253, 2651.631
484.6074, 2684.044
485.0895, 2714.252
485.5716, 2729.698
486.0537, 2706.237
486.5359, 2695.433
487.0180, 2705.554
487.5001, 2732.387
487.9822, 2757.218
488.4643, 2781.155
488.9464, 2800.937
489.4286, 2813.766
489.9107, 2817.537
490.3928, 2825.105
490.8749, 2836.722
491.3570, 2852.029
491.8391, 2874.235
492.3213, 2903.152
492.8034, 2923.744
493.2855, 2922.635
493.7676, 2912.548
494.2497, 2931.447
494.7318, 2978.570
495.2140, 3024.332
495.6961, 3042.387
496.1782, 3042.997
496.6603, 3043.161
497.1424, 3047.020
497.6245, 3050.046
498.1067, 3041.779
498.5888, 3029.659
499.0709, 3030.855
499.5530, 3073.998
500.0351, 3115.249
500.5172, 3128.054
500.9994, 3106.137
501.4815, 3085.090
501.9636, 3076.795
502.4457, 3070.779
502.9278, 3057.602
503.4099, 3027.431
503.8921, 3001.385
504.3742, 2981.159
504.8563, 2966.458
505.3384, 2957.723
505.8205, 2961.795
506.3026, 2959.212
506.7848, 2937.307
507.2669, 2891.903
507.7490, 2858.591
508.2311, 2840.334
508.7132, 2827.455
509.1953, 2804.720
509.6775, 2773.461
510.1596, 2748.165
510.6417, 2735.987
511.1238, 2731.206
511.6059, 2723.806
512.0880, 2713.709
512.5701, 2701.464
513.0522, 2682.943
513.5344, 2664.030
514.0165, 2654.432
514.4986, 2660.481
514.9807, 2662.023
515.4628, 2640.188
515.9449, 2606.287
516.4271, 2579.876
516.9092, 2574.913
517.3913, 2571.408
517.8734, 2559.292
518.3555, 2537.645
518.8376, 2525.401
519.3198, 2538.712
519.8019, 2552.132
520.2840, 2548.800
520.7661, 2512.551
521.2482, 2492.842
521.7303, 2500.514
522.2125, 2520.910
522.6946, 2518.696
523.1767, 2488.226
523.6588, 2458.974
524.1409, 2443.269
524.6230, 2439.585
525.1052, 2435.813
525.5873, 2432.289
526.0694, 2425.977
526.5515, 2409.788
527.0336, 2388.150
527.5157, 2374.921
527.9979, 2377.184
528.4800, 2382.846
528.9621, 2380.136
529.4442, 2370.448
529.9263, 2357.792
530.4084, 2337.236
530.8906, 2319.538
531.3727, 2315.027
531.8548, 2326.399
532.3369, 2334.027
532.8190, 2332.716
533.3011, 2323.993
533.7833, 2309.286
534.2654, 2284.798
534.7475, 2258.527
535.2296, 2223.406
535.7117, 2186.448
536.1938, 2145.623
536.6760, 2179.367
537.1581, 2197.565
537.6402, 2201.050
538.1223, 2145.761
538.6044, 2166.368
539.0865, 2156.558
539.5687, 2145.501
540.0508, 2176.790
540.5329, 2130.049
541.0150, 2160.666
541.4971, 2160.403
541.9792, 2174.273
542.4614, 2157.539
542.9435, 2150.258
543.4256, 2173.590
543.9077, 2179.972
544.3898, 2159.716
544.8719, 2174.484
545.3541, 2126.674
545.8362, 2133.777
546.3183, 2164.573
546.8004, 2145.855
547.2825, 2161.183
547.7646, 2163.544
548.2468, 2106.979
548.7289, 2152.893
549.2110, 2154.488
549.6931, 2110.577
550.1752, 2152.980
550.6573, 2115.343
551.1395, 2106.274
551.6216, 2118.707
552.1037, 2108.726
552.5858, 2134.082
553.0679, 2125.396
553.5500, 2123.083
554.0322, 2144.104
554.5143, 2158.156
554.9964, 2159.025
555.4785, 2153.199
555.9606, 2151.115
556.4427, 2152.534
556.9249, 2156.257
557.4070, 2163.406
557.8891, 2171.510
558.3712, 2178.917
558.8533, 2185.790
559.3354, 2187.929
559.8176, 2172.861
560.2997, 2156.248
560.7818, 2154.166
561.2639, 2187.679
561.7460, 2216.958
562.2281, 2233.807
562.7103, 2240.023
563.1924, 2242.729
563.6745, 2237.697
564.1566, 2235.063
564.6387, 2240.274
565.1208, 2255.070
565.6030, 2258.662
566.0851, 2245.739
566.5672, 2233.933
567.0493, 2245.840
567.5314, 2279.883
568.0135, 2304.210
568.4957, 2310.910
568.9778, 2308.513
569.4599, 2307.640
569.9420, 2308.805
570.4241, 2314.173
570.9063, 2326.010
571.3884, 2341.929
571.8705, 2360.543
572.3526, 2381.587
572.8347, 2403.530
573.3168, 2428.769
573.7990, 2452.610
574.2811, 2470.444
574.7632, 2474.989
575.2453, 2482.875
575.7274, 2496.802
576.2095, 2515.818
576.6917, 2538.500
577.1738, 2570.793
577.6559, 2596.620
578.1380, 2608.761
578.6201, 2608.454
579.1022, 2617.139
579.5844, 2636.725
580.0665, 2658.139
580.5486, 2673.094
581.0307, 2683.032
581.5128, 2698.827
581.9949, 2723.557
582.4771, 2747.673
582.9592, 2755.793
583.4413, 2753.899
583.9234, 2756.777
584.4055, 2780.005
584.8876, 2803.010
585.3698, 2806.661
585.8519, 2794.631
586.3340, 2787.110
586.8161, 2797.772
587.2982, 2811.453
587.7803, 2820.484
588.2625, 2825.051
588.7446, 2821.937
589.2267, 2805.712
589.7088, 2785.538
590.1909, 2772.050
590.6730, 2769.763
591.1552, 2761.383
591.6373, 2741.041
592.1194, 2714.581
592.6015, 2701.792
593.0836, 2703.595
593.5657, 2702.824
594.0479, 2688.176
594.5300, 2663.951
595.0121, 2642.078
595.4942, 2622.798
595.9763, 2603.122
596.4584, 2576.754
596.9406, 2549.863
597.4227, 2530.665
597.9048, 2524.912
598.3869, 2520.681
598.8690, 2516.505
599.3511, 2509.509
599.8333, 2494.058
600.3154, 2465.593
600.7975, 2431.774
601.2796, 2387.403
601.7617, 2333.223
602.2438, 2307.622
602.7260, 2326.275
603.2081, 2346.525
603.6902, 2337.895
604.1723, 2297.359
604.6544, 2268.600
605.1365, 2255.390
605.6187, 2249.494
606.1008, 2242.571
606.5829, 2234.314
607.0650, 2222.966
607.5471, 2204.613
608.0292, 2186.508
608.5114, 2179.524
608.9935, 2180.736
609.4756, 2179.670
609.9577, 2164.433
610.4398, 2150.182
610.9219, 2149.733
611.4041, 2167.245
611.8862, 2174.973
612.3683, 2153.466
612.8504, 2129.154
613.3325, 2123.663
613.8146, 2156.557
614.2968, 2167.935
614.7789, 2146.047
615.2610, 2108.937
615.7431, 2093.210
616.2252, 2100.823
616.7073, 2110.630
617.1895, 2117.417
617.6716, 2120.039
618.1537, 2111.476
618.6358, 2092.777
619.1179, 2078.279
619.6000, 2084.676
620.0822, 2098.079
620.5643, 2100.251
621.0464, 2087.147
621.5285, 2073.520
622.0106, 2067.734
622.4927, 2065.612
622.9749, 2062.726
623.4570, 2057.099
623.9391, 2051.852
624.4212, 2045.053
624.9033, 2039.103
625.3854, 2042.314
625.8676, 2062.944
626.3497, 2073.908
626.8318, 2060.644
627.3139, 2027.041
627.7960, 2012.854
628.2781, 2019.707
628.7603, 2032.385
629.2424, 2040.335
629.7245, 2044.391
630.2066, 2047.165
630.6887, 2049.256
631.1708, 2048.817
631.6530, 2041.940
632.1351, 2032.008
632.6172, 2024.108
633.0993, 2017.712
633.5814, 2016.265
634.0635, 2026.416
634.5457, 2043.737
635.0278, 2051.110
635.5099, 2036.800
635.9920, 2023.588
636.4741, 2018.693
636.9562, 2022.601
637.4384, 2026.749
637.9205, 2031.841
638.4026, 2035.383
