##NAMES=Keyite
##RRUFFID=R050585
##IDEAL CHEMISTRY=([box]_0.5_Cu^2+^_0.5_)Cu^2+^Cd^2+^Zn^2+^_2_(As^5+^O_4_)_3_&#183;H_2_O
##LOCALITY=Tsumeb mine, Tsumeb, Otavi District, Oshikoto, Namibia
##OWNER=RRUFF
##SOURCE=University of Arizona Mineral Museum
##DESCRIPTION=Microscopic blue prismatic crystals embedded in green zincolivenite, R050583, and associated with schultenite, R050584
##STATUS=The identification of this mineral is confirmed by single-crystal X-ray diffraction and chemical analysis.
##URL=rruff.info/R050585
##MEASURED CHEMISTRY=(Cu^2+^_2.67_Fe_0.33_)_Σ=3_Zn_4.00_(Cd_1.65_Fe_0.14_Pb_0.11_Mn_0.06_Ca_0.04_)_Σ=2_(As_1.00_O_4_)_6_·2H_2_O ; = lighter phase. The darker phase: Zn_1.00_(Cu_0.91_Fe_0.09_)_Σ=1_(As_1.00_O_4_)(OH)  is zincolivenite
106.5063, 7272.532
106.9884, 7333.754
107.4705, 7397.608
107.9526, 7435.670
108.4348, 7442.096
108.9169, 7424.877
109.3990, 7391.970
109.8811, 7315.725
110.3632, 7271.458
110.8453, 7272.065
111.3275, 7295.161
111.8096, 7325.043
112.2917, 7354.788
112.7738, 7381.804
113.2559, 7395.065
113.7380, 7376.416
114.2202, 7365.152
114.7023, 7374.217
115.1844, 7397.250
115.6665, 7418.444
116.1486, 7425.194
116.6307, 7421.085
117.1129, 7433.584
117.5950, 7484.732
118.0771, 7535.894
118.5592, 7553.339
119.0413, 7533.786
119.5234, 7507.887
120.0056, 7496.528
120.4877, 7498.378
120.9698, 7515.074
121.4519, 7555.465
121.9340, 7610.963
122.4161, 7662.084
122.8982, 7707.496
123.3804, 7746.969
123.8625, 7778.971
124.3446, 7805.056
124.8267, 7832.739
125.3088, 7872.229
125.7909, 7925.313
126.2731, 7965.761
126.7552, 7995.906
127.2373, 8007.554
127.7194, 7989.354
128.2015, 7941.027
128.6837, 7878.260
129.1658, 7823.917
129.6479, 7783.915
130.1300, 7740.930
130.6121, 7700.362
131.0942, 7653.931
131.5764, 7589.279
132.0585, 7501.337
132.5406, 7400.612
133.0227, 7325.721
133.5048, 7298.507
133.9869, 7275.392
134.4691, 7256.351
134.9512, 7237.783
135.4333, 7214.833
135.9154, 7184.223
136.3975, 7146.183
136.8796, 7106.292
137.3618, 7046.263
137.8439, 7000.553
138.3260, 6996.448
138.8081, 7029.354
139.2902, 7062.451
139.7723, 7063.461
140.2545, 7031.776
140.7366, 7006.496
141.2187, 6992.688
141.7008, 6984.885
142.1829, 6977.941
142.6650, 6971.668
143.1472, 6964.530
143.6293, 6949.949
144.1114, 6930.263
144.5935, 6920.911
145.0756, 6935.542
145.5577, 6966.739
146.0399, 6988.353
146.5220, 6986.760
147.0041, 6986.188
147.4862, 7012.874
147.9683, 7064.902
148.4504, 7109.008
148.9326, 7105.192
149.4147, 7046.335
149.8968, 7014.795
150.3789, 7058.282
150.8610, 7114.332
151.3431, 7152.126
151.8252, 7164.462
152.3074, 7160.849
152.7895, 7152.994
153.2716, 7133.574
153.7537, 7126.674
154.2358, 7142.650
154.7179, 7166.106
155.2001, 7183.037
155.6822, 7187.461
156.1643, 7184.628
156.6464, 7191.258
157.1285, 7235.852
157.6106, 7256.328
158.0928, 7223.855
158.5749, 7168.102
159.0570, 7132.387
159.5391, 7144.757
160.0212, 7198.700
160.5033, 7220.274
160.9855, 7181.887
161.4676, 7144.443
161.9497, 7128.790
162.4318, 7130.454
162.9139, 7133.556
163.3960, 7126.478
163.8782, 7108.492
164.3603, 7089.084
164.8424, 7058.050
165.3245, 7033.133
165.8066, 7030.209
166.2887, 7049.400
166.7709, 7073.437
167.2530, 7090.155
167.7351, 7098.767
168.2172, 7032.368
168.6993, 7104.662
169.1814, 7145.083
169.6636, 7155.343
170.1457, 7045.105
170.6278, 7090.465
171.1099, 7073.469
171.5920, 7053.916
172.0741, 7121.175
172.5563, 7028.463
173.0384, 7094.346
173.5205, 7096.921
174.0026, 7128.470
174.4847, 7097.278
174.9668, 7085.465
175.4490, 7136.413
175.9311, 7152.609
176.4132, 7114.195
176.8953, 7147.586
177.3774, 7052.683
177.8595, 7070.360
178.3417, 7136.609
178.8238, 7101.350
179.3059, 7135.888
179.7880, 7143.843
180.2701, 7030.990
180.7522, 7128.234
181.2344, 7134.618
181.7165, 7047.708
182.1986, 7137.754
182.6807, 7063.707
183.1628, 7048.230
183.6449, 7076.833
184.1271, 7059.484
184.6092, 7114.582
185.0913, 7099.887
185.5734, 7078.957
186.0555, 7085.239
186.5376, 7072.131
187.0198, 7071.233
187.5019, 7071.440
187.9840, 7077.155
188.4661, 7093.794
188.9482, 7109.669
189.4303, 7124.198
189.9125, 7137.426
190.3946, 7150.693
190.8767, 7165.140
191.3588, 7178.475
191.8409, 7179.841
192.3230, 7156.910
192.8052, 7135.711
193.2873, 7117.147
193.7694, 7103.642
194.2515, 7100.822
194.7336, 7113.860
195.2157, 7139.818
195.6979, 7149.015
196.1800, 7135.950
196.6621, 7116.358
197.1442, 7088.073
197.6263, 7056.178
198.1084, 7035.731
198.5906, 7040.032
199.0727, 7066.524
199.5548, 7077.583
200.0369, 7067.576
200.5190, 7048.838
201.0011, 7019.973
201.4833, 6983.771
201.9654, 6960.365
202.4475, 6969.423
202.9296, 7008.196
203.4117, 7036.616
203.8938, 7061.502
204.3760, 7070.793
204.8581, 7044.571
205.3402, 6979.970
205.8223, 6914.961
206.3044, 6879.226
206.7865, 6867.968
207.2687, 6865.880
207.7508, 6876.324
208.2329, 6892.130
208.7150, 6904.868
209.1971, 6914.580
209.6792, 6919.207
210.1614, 6909.874
210.6435, 6893.138
211.1256, 6885.529
211.6077, 6903.733
212.0898, 6933.970
212.5719, 6944.212
213.0541, 6925.634
213.5362, 6901.555
214.0183, 6885.304
214.5004, 6875.936
214.9825, 6872.161
215.4646, 6877.436
215.9468, 6888.860
216.4289, 6892.781
216.9110, 6880.700
217.3931, 6872.999
217.8752, 6887.752
218.3573, 6917.066
218.8395, 6938.109
219.3216, 6930.997
219.8037, 6898.223
220.2858, 6870.050
220.7679, 6842.762
221.2500, 6825.833
221.7322, 6826.186
222.2143, 6840.684
222.6964, 6859.588
223.1785, 6876.713
223.6606, 6892.156
224.1427, 6903.748
224.6249, 6912.737
225.1070, 6915.971
225.5891, 6908.985
226.0712, 6894.016
226.5533, 6878.215
227.0354, 6866.866
227.5176, 6859.485
227.9997, 6860.138
228.4818, 6878.279
228.9639, 6896.618
229.4460, 6910.465
229.9281, 6918.454
230.4103, 6919.631
230.8924, 6909.736
231.3745, 6882.449
231.8566, 6873.154
232.3387, 6901.552
232.8208, 6929.951
233.3030, 6939.607
233.7851, 6930.860
234.2672, 6916.296
234.7493, 6909.519
235.2314, 6912.703
235.7135, 6916.327
236.1957, 6924.895
236.6778, 6930.405
237.1599, 6922.693
237.6420, 6904.485
238.1241, 6891.494
238.6062, 6905.021
239.0884, 6962.007
239.5705, 6988.401
240.0526, 6961.219
240.5347, 6927.258
241.0168, 6917.245
241.4989, 6932.434
241.9811, 6950.788
242.4632, 6944.808
242.9453, 6899.109
243.4274, 6877.776
243.9095, 6889.099
244.3916, 6914.494
244.8738, 6949.683
245.3559, 6990.597
245.8380, 7025.867
246.3201, 7040.895
246.8022, 7025.915
247.2843, 7021.124
247.7665, 7040.172
248.2486, 7058.908
248.7307, 7053.319
249.2128, 7023.329
249.6949, 6995.018
250.1770, 6999.966
250.6592, 7053.008
251.1413, 7089.498
251.6234, 7101.118
252.1055, 7102.906
252.5876, 7103.651
253.0697, 7105.317
253.5519, 7108.639
254.0340, 7114.498
254.5161, 7123.503
254.9982, 7133.414
255.4803, 7143.647
255.9624, 7155.070
256.4445, 7172.506
256.9267, 7195.366
257.4088, 7211.066
257.8909, 7202.704
258.3730, 7161.571
258.8551, 7144.572
259.3372, 7168.447
259.8194, 7205.647
260.3015, 7236.354
260.7836, 7257.804
261.2657, 7274.288
261.7478, 7289.974
262.2299, 7304.916
262.7121, 7315.196
263.1942, 7316.185
263.6763, 7315.462
264.1584, 7320.838
264.6405, 7332.680
265.1227, 7342.368
265.6048, 7339.060
266.0869, 7321.813
266.5690, 7319.940
267.0511, 7351.219
267.5332, 7386.625
268.0154, 7403.421
268.4975, 7399.926
268.9796, 7384.126
269.4617, 7357.304
269.9438, 7320.339
270.4259, 7300.058
270.9081, 7312.023
271.3902, 7330.416
271.8723, 7332.878
272.3544, 7319.074
272.8365, 7306.548
273.3186, 7310.255
273.8008, 7328.617
274.2829, 7338.520
274.7650, 7334.837
275.2471, 7326.234
275.7292, 7315.779
276.2113, 7304.405
276.6935, 7300.074
277.1756, 7313.893
277.6577, 7340.256
278.1398, 7345.297
278.6219, 7301.035
279.1040, 7257.957
279.5862, 7257.100
280.0683, 7294.009
280.5504, 7330.374
281.0325, 7343.290
281.5146, 7336.129
281.9967, 7329.976
282.4789, 7322.756
282.9610, 7318.262
283.4431, 7322.697
283.9252, 7333.854
284.4073, 7338.654
284.8894, 7328.150
285.3716, 7307.078
285.8537, 7291.178
286.3358, 7279.454
286.8179, 7273.751
287.3000, 7279.974
287.7821, 7294.733
288.2643, 7303.205
288.7464, 7295.730
289.2285, 7280.261
289.7106, 7276.720
290.1927, 7289.053
290.6748, 7304.750
291.1570, 7320.729
291.6391, 7335.938
292.1212, 7345.839
292.6033, 7346.429
293.0854, 7343.931
293.5675, 7354.000
294.0497, 7386.559
294.5318, 7404.912
295.0139, 7382.935
295.4960, 7336.136
295.9781, 7298.731
296.4602, 7280.954
296.9424, 7278.650
297.4245, 7288.931
297.9066, 7314.619
298.3887, 7336.077
298.8708, 7348.480
299.3529, 7352.389
299.8351, 7346.002
300.3172, 7326.535
300.7993, 7304.796
301.2814, 7298.637
301.7635, 7309.693
302.2456, 7315.172
302.7278, 7307.595
303.2099, 7292.295
303.6920, 7271.278
304.1741, 7243.229
304.6562, 7224.901
305.1383, 7243.524
305.6205, 7301.940
306.1026, 7341.876
306.5847, 7349.522
307.0668, 7338.452
307.5489, 7315.213
308.0310, 7280.812
308.5132, 7254.302
308.9953, 7259.080
309.4774, 7296.413
309.9595, 7312.641
310.4416, 7278.911
310.9237, 7242.331
311.4059, 7252.471
311.8880, 7306.348
312.3701, 7345.196
312.8522, 7315.190
313.3343, 7222.216
313.8164, 7176.498
314.2986, 7215.375
314.7807, 7266.044
315.2628, 7290.963
315.7449, 7291.704
316.2270, 7280.271
316.7091, 7259.444
317.1913, 7233.858
317.6734, 7229.363
318.1555, 7260.516
318.6376, 7293.452
319.1197, 7322.548
319.6018, 7344.126
320.0840, 7346.520
320.5661, 7320.337
321.0482, 7277.939
321.5303, 7261.871
322.0124, 7284.561
322.4945, 7311.486
322.9767, 7338.816
323.4588, 7365.296
323.9409, 7388.654
324.4230, 7407.950
324.9051, 7424.944
325.3872, 7444.172
325.8694, 7476.898
326.3515, 7491.165
326.8336, 7466.304
327.3157, 7430.514
327.7978, 7412.811
328.2799, 7420.576
328.7621, 7441.658
329.2442, 7459.657
329.7263, 7470.798
330.2084, 7488.846
330.6905, 7514.359
331.1726, 7545.842
331.6548, 7589.008
332.1369, 7640.939
332.6190, 7684.792
333.1011, 7700.475
333.5832, 7679.115
334.0653, 7680.397
334.5475, 7717.572
335.0296, 7760.544
335.5117, 7797.799
335.9938, 7828.250
336.4759, 7854.877
336.9580, 7880.234
337.4402, 7904.235
337.9223, 7920.150
338.4044, 7917.215
338.8865, 7918.076
339.3686, 7927.957
339.8507, 7945.825
340.3329, 7968.727
340.8150, 7994.984
341.2971, 8025.467
341.7792, 8064.696
342.2613, 8131.995
342.7434, 8183.152
343.2256, 8205.354
343.7077, 8212.717
344.1898, 8217.408
344.6719, 8224.458
345.1540, 8237.026
345.6361, 8264.143
346.1183, 8321.859
346.6004, 8362.246
347.0825, 8371.276
347.5646, 8372.108
348.0467, 8382.416
348.5288, 8405.171
349.0110, 8429.841
349.4931, 8442.520
349.9752, 8440.299
350.4573, 8437.733
350.9394, 8435.999
351.4215, 8433.150
351.9037, 8429.904
352.3858, 8425.148
352.8679, 8415.317
353.3500, 8393.607
353.8321, 8360.750
354.3142, 8342.146
354.7964, 8356.098
355.2785, 8362.129
355.7606, 8339.938
356.2427, 8298.954
356.7248, 8257.779
357.2069, 8225.973
357.6891, 8201.912
358.1712, 8183.850
358.6533, 8178.624
359.1354, 8163.234
359.6175, 8119.878
360.0996, 8065.320
360.5818, 8019.236
361.0639, 7990.030
361.5460, 7965.820
362.0281, 7927.853
362.5102, 7873.458
362.9923, 7828.398
363.4745, 7809.333
363.9566, 7798.088
364.4387, 7775.958
364.9208, 7739.643
365.4029, 7703.844
365.8850, 7679.699
366.3672, 7665.773
366.8493, 7654.391
367.3314, 7646.311
367.8135, 7636.911
368.2956, 7618.324
368.7777, 7591.520
369.2599, 7571.535
369.7420, 7570.141
370.2241, 7578.043
370.7062, 7580.088
371.1883, 7574.459
371.6704, 7563.979
372.1526, 7550.853
372.6347, 7534.652
373.1168, 7513.121
373.5989, 7471.078
374.0810, 7434.476
374.5631, 7431.162
375.0453, 7457.645
375.5274, 7482.361
376.0095, 7487.670
376.4916, 7475.957
376.9737, 7460.239
377.4558, 7431.323
377.9380, 7409.109
378.4201, 7404.985
378.9022, 7412.156
379.3843, 7417.929
379.8664, 7417.338
380.3485, 7412.791
380.8307, 7409.133
381.3128, 7406.541
381.7949, 7404.542
382.2770, 7407.170
382.7591, 7408.140
383.2412, 7397.433
383.7234, 7374.799
384.2055, 7353.983
384.6876, 7352.122
385.1697, 7375.293
385.6518, 7391.872
386.1339, 7396.305
386.6161, 7400.513
387.0982, 7414.217
387.5803, 7433.359
388.0624, 7443.758
388.5445, 7432.412
389.0266, 7403.376
389.5088, 7401.141
389.9909, 7467.563
390.4730, 7513.408
390.9551, 7514.117
391.4372, 7488.963
391.9193, 7458.053
392.4015, 7429.490
392.8836, 7409.783
393.3657, 7414.747
393.8478, 7455.011
394.3299, 7494.102
394.8120, 7535.104
395.2942, 7567.768
395.7763, 7582.449
396.2584, 7578.665
396.7405, 7567.109
397.2226, 7551.113
397.7047, 7530.529
398.1869, 7535.450
398.6690, 7586.070
399.1511, 7641.813
399.6332, 7685.095
400.1153, 7715.129
400.5974, 7730.959
401.0796, 7723.863
401.5617, 7704.580
402.0438, 7698.523
402.5259, 7709.215
403.0080, 7719.417
403.4901, 7717.375
403.9723, 7709.636
404.4544, 7705.251
404.9365, 7703.820
405.4186, 7709.208
405.9007, 7730.153
406.3828, 7763.066
406.8650, 7787.691
407.3471, 7794.753
407.8292, 7792.683
408.3113, 7795.665
408.7934, 7804.853
409.2755, 7812.023
409.7577, 7806.672
410.2398, 7800.810
410.7219, 7816.006
411.2040, 7856.023
411.6861, 7896.227
412.1682, 7909.815
412.6504, 7891.957
413.1325, 7888.190
413.6146, 7908.407
414.0967, 7932.997
414.5788, 7961.104
415.0609, 7985.627
415.5431, 7986.573
416.0252, 7948.497
416.5073, 7882.522
416.9894, 7840.470
417.4715, 7843.819
417.9536, 7846.016
418.4358, 7841.895
418.9179, 7834.930
419.4000, 7827.524
419.8821, 7820.888
420.3642, 7817.616
420.8463, 7823.835
421.3285, 7847.562
421.8106, 7858.395
422.2927, 7846.224
422.7748, 7830.760
423.2569, 7819.713
423.7390, 7813.765
424.2212, 7811.539
424.7033, 7815.092
425.1854, 7821.715
425.6675, 7812.611
426.1496, 7776.631
426.6317, 7743.654
427.1139, 7724.719
427.5960, 7714.926
428.0781, 7708.053
428.5602, 7701.745
429.0423, 7698.711
429.5244, 7707.625
430.0066, 7729.071
430.4887, 7735.134
430.9708, 7705.931
431.4529, 7669.323
431.9350, 7655.554
432.4171, 7665.294
432.8993, 7684.584
433.3814, 7719.123
433.8635, 7755.752
434.3456, 7767.691
434.8277, 7749.528
435.3098, 7721.812
435.7920, 7695.987
436.2741, 7674.032
436.7562, 7669.797
437.2383, 7698.692
437.7204, 7731.642
438.2025, 7756.302
438.6847, 7771.520
439.1668, 7774.763
439.6489, 7763.661
440.1310, 7742.911
440.6131, 7724.868
441.0952, 7694.333
441.5774, 7688.549
442.0595, 7734.070
442.5416, 7790.469
443.0237, 7819.854
443.5058, 7816.550
443.9879, 7800.077
444.4701, 7791.757
444.9522, 7793.299
445.4343, 7790.994
445.9164, 7779.354
446.3985, 7769.363
446.8806, 7762.096
447.3628, 7759.374
447.8449, 7764.842
448.3270, 7781.769
448.8091, 7804.846
449.2912, 7821.939
449.7733, 7833.486
450.2555, 7837.465
450.7376, 7824.308
451.2197, 7808.999
451.7018, 7802.712
452.1839, 7807.289
452.6660, 7816.764
453.1482, 7827.970
453.6303, 7840.492
454.1124, 7852.749
454.5945, 7865.830
455.0766, 7876.137
455.5587, 7880.246
456.0409, 7879.247
456.5230, 7874.852
457.0051, 7860.310
457.4872, 7847.934
457.9693, 7850.496
458.4514, 7866.025
458.9336, 7884.587
459.4157, 7904.274
459.8978, 7920.405
460.3799, 7917.124
460.8620, 7876.717
461.3441, 7853.417
461.8262, 7867.651
462.3083, 7897.622
462.7905, 7922.664
463.2726, 7938.210
463.7547, 7947.669
464.2368, 7954.130
464.7189, 7957.106
465.2010, 7960.939
465.6832, 7967.499
466.1653, 7972.776
466.6474, 7973.211
467.1295, 7971.912
467.6116, 7972.948
468.0938, 7978.009
468.5759, 7988.852
469.0580, 8012.906
469.5401, 8060.305
470.0222, 8092.151
470.5043, 8088.076
470.9865, 8076.112
471.4686, 8074.902
471.9507, 8085.082
472.4328, 8092.711
472.9149, 8082.252
473.3970, 8060.295
473.8792, 8050.827
474.3613, 8056.258
474.8434, 8070.094
475.3255, 8093.751
475.8076, 8122.392
476.2897, 8146.983
476.7719, 8172.797
477.2540, 8185.828
477.7361, 8163.497
478.2182, 8119.121
478.7003, 8093.808
479.1824, 8102.860
479.6646, 8132.452
480.1467, 8164.644
480.6288, 8206.191
481.1109, 8227.482
481.5930, 8201.658
482.0751, 8174.787
482.5573, 8187.791
483.0394, 8233.751
483.5215, 8273.644
484.0036, 8278.344
484.4857, 8253.686
484.9678, 8238.425
485.4500, 8238.228
485.9321, 8240.549
486.4142, 8242.314
486.8963, 8246.420
487.3784, 8258.040
487.8605, 8277.640
488.3427, 8296.803
488.8248, 8305.400
489.3069, 8303.024
489.7890, 8299.139
490.2711, 8292.933
490.7532, 8287.020
491.2354, 8280.366
491.7175, 8275.073
492.1996, 8275.950
492.6817, 8285.328
493.1638, 8301.237
493.6459, 8325.286
494.1281, 8356.555
494.6102, 8380.706
495.0923, 8390.095
495.5744, 8392.234
496.0565, 8402.680
496.5386, 8426.241
497.0208, 8436.627
497.5029, 8413.379
497.9850, 8382.712
498.4671, 8375.227
498.9492, 8390.823
499.4313, 8403.896
499.9135, 8392.532
500.3956, 8359.344
500.8777, 8339.187
501.3598, 8339.322
501.8419, 8343.981
502.3240, 8357.433
502.8062, 8371.130
503.2883, 8371.759
503.7704, 8356.745
504.2525, 8342.589
504.7346, 8357.521
505.2167, 8409.206
505.6989, 8433.277
506.1810, 8407.135
506.6631, 8376.520
507.1452, 8361.504
507.6273, 8358.830
508.1094, 8359.953
508.5916, 8361.179
509.0737, 8364.573
509.5558, 8375.261
510.0379, 8392.808
510.5200, 8405.965
511.0021, 8409.756
511.4843, 8408.513
511.9664, 8408.834
512.4485, 8411.107
512.9306, 8411.876
513.4127, 8406.653
513.8948, 8401.809
514.3770, 8407.652
514.8591, 8422.358
515.3412, 8429.813
515.8233, 8357.426
516.3054, 8432.311
516.7875, 8475.321
517.2697, 8488.172
517.7518, 8380.524
518.2339, 8428.475
518.7160, 8414.067
519.1981, 8397.104
519.6802, 8466.953
520.1624, 8376.833
520.6445, 8445.306
521.1266, 8450.470
521.6087, 8484.609
522.0908, 8456.008
522.5729, 8446.784
523.0551, 8500.322
523.5372, 8519.109
524.0193, 8483.284
524.5014, 8519.266
524.9835, 8426.953
525.4656, 8447.220
525.9478, 8516.060
526.4299, 8483.390
526.9120, 8520.518
527.3941, 8531.062
527.8762, 8420.800
528.3583, 8520.634
528.8405, 8529.609
529.3226, 8445.289
529.8047, 8537.925
530.2868, 8466.467
530.7689, 8453.580
531.2510, 8484.772
531.7332, 8470.015
532.2153, 8527.702
532.6974, 8515.598
533.1795, 8497.258
533.6616, 8506.130
534.1437, 8437.890
534.6259, 8512.709
535.1080, 8489.807
535.5901, 8515.479
536.0722, 8552.162
536.5543, 8504.540
537.0364, 8546.170
537.5186, 8449.392
538.0007, 8468.424
538.4828, 8474.986
538.9649, 8555.572
539.4470, 8459.469
539.9291, 8538.264
540.4113, 8516.037
540.8934, 8495.676
541.3755, 8505.059
541.8576, 8527.066
542.3397, 8534.592
542.8218, 8524.705
543.3040, 8509.785
543.7861, 8498.099
544.2682, 8489.383
544.7503, 8481.695
545.2324, 8461.770
545.7145, 8459.077
546.1967, 8501.908
546.6788, 8553.191
547.1609, 8564.624
547.6430, 8530.188
548.1251, 8493.346
548.6072, 8509.940
549.0894, 8583.152
549.5715, 8610.942
550.0536, 8556.685
550.5357, 8508.962
551.0178, 8505.038
551.4999, 8524.735
551.9821, 8540.783
552.4642, 8544.890
552.9463, 8546.342
553.4284, 8556.002
553.9105, 8570.678
554.3926, 8576.422
554.8748, 8569.080
555.3569, 8557.836
555.8390, 8548.981
556.3211, 8542.979
556.8032, 8545.165
557.2853, 8553.942
557.7675, 8572.591
558.2496, 8620.408
558.7317, 8674.921
559.2138, 8691.347
559.6959, 8654.636
560.1780, 8599.504
560.6602, 8579.562
561.1423, 8604.742
561.6244, 8625.458
562.1065, 8640.274
562.5886, 8651.697
563.0707, 8659.024
563.5529, 8663.851
564.0350, 8668.186
564.5171, 8671.955
564.9992, 8678.348
565.4813, 8696.503
565.9634, 8725.003
566.4456, 8737.630
566.9277, 8719.936
567.4098, 8699.901
567.8919, 8713.687
568.3740, 8756.954
568.8561, 8788.444
569.3383, 8779.703
569.8204, 8778.123
570.3025, 8834.219
570.7846, 8921.352
571.2667, 8973.049
571.7488, 8961.467
572.2310, 8910.980
572.7131, 8861.474
573.1952, 8803.279
573.6773, 8772.569
574.1594, 8782.107
574.6415, 8804.720
575.1237, 8841.911
575.6058, 8882.073
576.0879, 8903.465
576.5700, 8892.623
577.0521, 8866.079
577.5342, 8846.674
578.0164, 8834.468
578.4985, 8829.368
578.9806, 8834.298
579.4627, 8842.033
579.9448, 8841.678
580.4269, 8834.778
580.9091, 8839.229
581.3912, 8871.229
581.8733, 8904.055
582.3554, 8917.229
582.8375, 8916.483
583.3196, 8919.490
583.8018, 8933.859
584.2839, 8949.730
584.7660, 8948.778
585.2481, 8922.757
585.7302, 8903.354
586.2123, 8890.672
586.6945, 8883.990
587.1766, 8883.528
587.6587, 8888.803
588.1408, 8900.610
588.6229, 8921.439
589.1050, 8942.059
589.5872, 8949.120
590.0693, 8942.929
590.5514, 8927.148
591.0335, 8890.365
591.5156, 8866.385
591.9977, 8909.650
592.4799, 9007.894
592.9620, 9062.888
593.4441, 9031.458
593.9262, 8982.867
