##NAMES=Keystoneite
##RRUFFID=R070661
##IDEAL CHEMISTRY=Mg_0.5_Ni^2+^Fe^3+^(Te^4+^O_3_)_3_&#183;4.5H_2_O
##LOCALITY=McAlpine mine, Moccasin, Tuolumne County, California, USA
##OWNER=RRUFF
##SOURCE=Michael Scott
##DESCRIPTION=Clusters of greenish yellow acicular microcrystals associated with quartz and pyrite.
##STATUS=The identification of this mineral has been confirmed by single-crystal X-ray diffraction.
##URL=rruff.info/R070661
92.63123, 2503.091
93.11334, 2707.788
93.59546, 2921.294
94.07758, 3148.221
94.55969, 3386.308
95.04180, 3641.497
95.52392, 3944.633
96.00603, 4297.225
96.48815, 4658.438
96.97027, 4977.764
97.45238, 5261.121
97.93450, 5555.722
98.41662, 5889.598
98.89874, 6251.560
99.38085, 6597.452
99.86297, 6923.797
100.3451, 7233.545
100.8272, 7529.538
101.3093, 7808.571
101.7914, 8075.443
102.2736, 8329.370
102.7557, 8560.447
103.2378, 8801.206
103.7199, 9043.534
104.2020, 9295.631
104.6841, 9597.545
105.1663, 9964.121
105.6484, 10365.60
106.1305, 10791.74
106.6126, 11290.56
107.0947, 11730.75
107.5768, 12083.41
108.0590, 12342.79
108.5411, 12548.62
109.0232, 12693.49
109.5053, 12787.22
109.9874, 12848.70
110.4695, 12857.56
110.9517, 12850.64
111.4338, 12840.21
111.9159, 12840.15
112.3980, 12818.80
112.8801, 12757.60
113.3622, 12666.15
113.8444, 12595.53
114.3265, 12564.08
114.8086, 12550.59
115.2907, 12540.87
115.7728, 12545.82
116.2549, 12541.34
116.7370, 12513.55
117.2192, 12459.01
117.7013, 12413.28
118.1834, 12388.90
118.6655, 12381.22
119.1476, 12383.59
119.6297, 12386.67
120.1119, 12403.15
120.5940, 12444.88
121.0761, 12523.37
121.5582, 12605.52
122.0403, 12671.05
122.5224, 12723.28
123.0046, 12773.25
123.4867, 12824.03
123.9688, 12877.16
124.4509, 12933.65
124.9330, 12982.78
125.4151, 13043.84
125.8973, 13145.46
126.3794, 13287.21
126.8615, 13434.83
127.3436, 13570.86
127.8257, 13690.60
128.3078, 13780.32
128.7900, 13842.77
129.2721, 13869.37
129.7542, 13835.60
130.2363, 13725.99
130.7184, 13534.99
131.2005, 13298.14
131.6827, 13062.46
132.1648, 12832.51
132.6469, 12600.78
133.1290, 12372.83
133.6111, 12193.17
134.0932, 12083.29
134.5754, 12011.13
135.0575, 11884.03
135.5396, 11691.29
136.0217, 11505.56
136.5038, 11396.80
136.9859, 11368.97
137.4681, 11343.99
137.9502, 11301.06
138.4323, 11241.40
138.9144, 11191.76
139.3965, 11155.69
139.8786, 11122.82
140.3608, 11079.29
140.8429, 11024.71
141.3250, 10960.44
141.8071, 10871.97
142.2892, 10730.52
142.7713, 10674.53
143.2535, 10737.64
143.7356, 10873.88
144.2177, 10951.47
144.6998, 10939.98
145.1819, 10914.48
145.6640, 10916.83
146.1461, 10955.06
146.6283, 11005.94
147.1104, 11075.30
147.5925, 11161.92
148.0746, 11230.73
148.5567, 11277.72
149.0388, 11310.26
149.5210, 11334.01
150.0031, 11343.00
150.4852, 11350.38
150.9673, 11356.87
151.4494, 11359.76
151.9315, 11370.86
152.4137, 11426.52
152.8958, 11483.34
153.3779, 11475.73
153.8600, 11332.48
154.3421, 11181.70
154.8242, 11068.63
155.3064, 11037.66
155.7885, 10976.63
156.2706, 10852.11
156.7527, 10684.43
157.2348, 10535.68
157.7169, 10434.99
158.1991, 10345.08
158.6812, 10245.81
159.1633, 10110.33
159.6454, 9987.567
160.1275, 9903.348
160.6096, 9853.473
161.0918, 9786.140
161.5739, 9657.495
162.0560, 9513.820
162.5381, 9399.831
163.0202, 9351.653
163.5023, 9317.687
163.9845, 9273.004
164.4666, 9213.190
164.9487, 9161.937
165.4308, 9134.380
165.9129, 9121.724
166.3951, 9109.884
166.8772, 9102.180
167.3593, 9087.536
167.8414, 9052.040
168.3235, 8980.781
168.8056, 8921.881
169.2878, 8919.180
169.7699, 8956.177
170.2520, 8984.787
170.7341, 8961.994
171.2162, 8923.072
171.6983, 8906.966
172.1805, 8941.858
172.6626, 8981.782
173.1447, 8977.328
173.6268, 8934.683
174.1089, 8903.893
174.5910, 8930.112
175.0732, 8990.427
175.5553, 9047.767
176.0374, 9093.820
176.5195, 9126.572
177.0016, 9136.144
177.4837, 9120.850
177.9659, 9109.267
178.4480, 9130.564
178.9301, 9176.826
179.4122, 9225.858
179.8943, 9271.884
180.3764, 9313.299
180.8586, 9343.201
181.3407, 9357.520
181.8228, 9375.229
182.3049, 9424.715
182.7870, 9501.319
183.2691, 9577.612
183.7513, 9633.150
184.2334, 9675.783
184.7155, 9729.849
185.1976, 9800.246
185.6797, 9879.352
186.1618, 9958.416
186.6440, 10037.79
187.1261, 10104.99
187.6082, 10143.19
188.0903, 10158.54
188.5724, 10182.21
189.0545, 10221.44
189.5366, 10272.48
190.0188, 10327.80
190.5009, 10386.92
190.9830, 10449.51
191.4651, 10518.77
191.9472, 10593.13
192.4293, 10658.64
192.9115, 10706.93
193.3936, 10741.24
193.8757, 10776.03
194.3578, 10810.96
194.8399, 10846.88
195.3220, 10880.87
195.8042, 10912.86
196.2863, 10957.92
196.7684, 11034.42
197.2505, 11139.11
197.7326, 11211.67
198.2147, 11241.08
198.6969, 11256.15
199.1790, 11311.85
199.6611, 11413.43
200.1432, 11518.57
200.6253, 11609.14
201.1074, 11683.68
201.5896, 11741.98
202.0717, 11779.50
202.5538, 11803.44
203.0359, 11829.69
203.5180, 11854.88
204.0001, 11893.10
204.4823, 11967.08
204.9644, 12087.96
205.4465, 12165.35
205.9286, 12175.20
206.4107, 12133.47
206.8928, 12119.50
207.3750, 12139.63
207.8571, 12173.27
208.3392, 12207.88
208.8213, 12248.56
209.3034, 12269.63
209.7855, 12259.40
210.2677, 12220.21
210.7498, 12200.88
211.2319, 12208.50
211.7140, 12224.80
212.1961, 12226.64
212.6782, 12205.67
213.1604, 12195.67
213.6425, 12212.29
214.1246, 12259.73
214.6067, 12280.50
215.0888, 12267.89
215.5709, 12235.39
216.0531, 12199.58
216.5352, 12153.27
217.0173, 12121.37
217.4994, 12117.04
217.9815, 12148.95
218.4636, 12170.48
218.9458, 12173.46
219.4279, 12171.26
219.9100, 12196.02
220.3921, 12265.28
220.8742, 12329.56
221.3563, 12362.37
221.8385, 12344.87
222.3206, 12349.67
222.8027, 12388.55
223.2848, 12448.54
223.7669, 12487.92
224.2490, 12498.34
224.7312, 12499.90
225.2133, 12502.35
225.6954, 12503.41
226.1775, 12509.32
226.6596, 12516.02
227.1417, 12526.52
227.6239, 12563.13
228.1060, 12640.49
228.5881, 12724.65
229.0702, 12791.05
229.5523, 12832.87
230.0344, 12871.32
230.5165, 12914.20
230.9987, 12960.33
231.4808, 12974.06
231.9629, 12933.86
232.4450, 12885.07
232.9271, 12869.77
233.4092, 12906.43
233.8914, 12940.78
234.3735, 12962.77
234.8556, 12971.87
235.3377, 12980.70
235.8198, 12994.27
236.3019, 13003.52
236.7841, 12994.54
237.2662, 12944.94
237.7483, 12917.55
238.2304, 12936.12
238.7125, 13012.65
239.1946, 13053.87
239.6768, 13039.89
240.1589, 13005.04
240.6410, 12996.06
241.1231, 13022.31
241.6052, 13060.02
242.0873, 13109.62
242.5695, 13183.90
243.0516, 13217.80
243.5337, 13191.41
244.0158, 13134.86
244.4979, 13105.10
244.9800, 13129.97
245.4622, 13137.65
245.9443, 13103.32
246.4264, 13020.50
246.9085, 12911.12
247.3906, 12761.92
247.8727, 12590.74
248.3549, 12437.31
248.8370, 12307.40
249.3191, 12185.29
249.8012, 12069.57
250.2833, 11968.65
250.7654, 11849.71
251.2476, 11704.91
251.7297, 11543.69
252.2118, 11393.48
252.6939, 11258.26
253.1760, 11127.74
253.6581, 10995.77
254.1403, 10855.09
254.6224, 10730.04
255.1045, 10630.51
255.5866, 10547.71
256.0687, 10448.16
256.5508, 10319.82
257.0330, 10193.16
257.5151, 10084.38
257.9972, 9998.722
258.4793, 9920.620
258.9614, 9852.780
259.4435, 9791.295
259.9257, 9714.374
260.4078, 9606.393
260.8899, 9506.066
261.3720, 9446.656
261.8541, 9450.063
262.3362, 9431.646
262.8184, 9375.051
263.3005, 9287.130
263.7826, 9211.347
264.2647, 9156.593
264.7468, 9098.981
265.2289, 9014.628
265.7111, 8889.876
266.1932, 8781.728
266.6753, 8701.310
267.1574, 8645.501
267.6395, 8583.469
268.1216, 8517.498
268.6038, 8442.341
269.0859, 8350.677
269.5680, 8236.236
270.0501, 8128.800
270.5322, 8033.908
271.0143, 7950.415
271.4965, 7875.192
271.9786, 7809.274
272.4607, 7749.839
272.9428, 7701.073
273.4249, 7669.891
273.9070, 7614.909
274.3892, 7514.245
274.8713, 7375.634
275.3534, 7284.714
275.8355, 7252.292
276.3176, 7241.761
276.7997, 7214.929
277.2819, 7168.599
277.7640, 7127.045
278.2461, 7100.894
278.7282, 7086.796
279.2103, 7054.409
279.6924, 6999.431
280.1746, 6938.100
280.6567, 6887.727
281.1388, 6848.951
281.6209, 6814.032
282.1030, 6783.112
282.5851, 6755.010
283.0673, 6720.530
283.5494, 6677.916
284.0315, 6635.349
284.5136, 6602.881
284.9957, 6580.629
285.4778, 6560.327
285.9600, 6538.626
286.4421, 6516.604
286.9242, 6500.477
287.4063, 6491.511
287.8884, 6482.672
288.3705, 6460.808
288.8527, 6427.135
289.3348, 6404.203
289.8169, 6401.992
290.2990, 6417.010
290.7811, 6442.251
291.2632, 6480.842
291.7453, 6509.748
292.2274, 6488.265
292.7096, 6424.771
293.1917, 6379.792
293.6738, 6395.254
294.1559, 6445.690
294.6380, 6449.312
295.1201, 6401.112
295.6023, 6346.522
296.0844, 6340.400
296.5665, 6372.353
297.0486, 6397.371
297.5307, 6391.556
298.0128, 6367.707
298.4950, 6352.397
298.9771, 6345.626
299.4592, 6345.640
299.9413, 6354.458
300.4234, 6369.387
300.9055, 6382.497
301.3877, 6388.397
301.8698, 6391.170
302.3519, 6399.692
302.8340, 6414.734
303.3161, 6424.348
303.7982, 6405.709
304.2804, 6373.335
304.7625, 6358.346
305.2446, 6387.345
305.7267, 6434.197
306.2088, 6469.586
306.6909, 6493.204
307.1731, 6509.718
307.6552, 6519.638
308.1373, 6525.341
308.6194, 6530.711
309.1015, 6533.642
309.5836, 6539.388
310.0658, 6556.440
310.5479, 6585.416
311.0300, 6608.982
311.5121, 6603.320
311.9942, 6588.316
312.4763, 6591.033
312.9585, 6640.744
313.4406, 6697.655
313.9227, 6737.231
314.4048, 6758.357
314.8869, 6771.124
315.3690, 6766.671
315.8512, 6761.197
316.3333, 6773.118
316.8154, 6827.718
317.2975, 6884.678
317.7796, 6923.610
318.2617, 6943.971
318.7439, 6964.615
319.2260, 6993.258
319.7081, 7025.284
320.1902, 7056.327
320.6723, 7082.742
321.1544, 7110.421
321.6366, 7141.530
322.1187, 7175.885
322.6008, 7211.722
323.0829, 7251.241
323.5650, 7290.841
324.0471, 7327.650
324.5293, 7350.662
325.0114, 7381.857
325.4935, 7429.235
325.9756, 7492.497
326.4577, 7552.263
326.9398, 7606.753
327.4220, 7657.205
327.9041, 7704.430
328.3862, 7746.552
328.8683, 7787.311
329.3504, 7829.159
329.8326, 7871.264
330.3147, 7904.576
330.7968, 7908.323
331.2789, 7920.050
331.7610, 7966.817
332.2431, 8095.262
332.7253, 8183.727
333.2074, 8202.172
333.6895, 8165.415
334.1716, 8172.552
334.6537, 8249.691
335.1358, 8337.015
335.6180, 8396.996
336.1001, 8416.121
336.5822, 8440.160
337.0643, 8473.042
337.5464, 8513.072
338.0285, 8556.550
338.5107, 8605.930
338.9928, 8652.539
339.4749, 8691.240
339.9570, 8720.438
340.4391, 8747.600
340.9212, 8771.805
341.4034, 8795.366
341.8855, 8828.029
342.3676, 8872.931
342.8497, 8911.625
343.3318, 8924.004
343.8139, 8910.223
344.2961, 8928.899
344.7782, 8992.724
345.2603, 9075.426
345.7424, 9128.570
346.2245, 9151.390
346.7066, 9171.638
347.1888, 9203.884
347.6709, 9246.063
348.1530, 9294.976
348.6351, 9354.505
349.1172, 9405.580
349.5993, 9407.532
350.0815, 9369.751
350.5636, 9350.735
351.0457, 9395.180
351.5278, 9475.439
352.0099, 9534.271
352.4920, 9567.294
352.9742, 9591.670
353.4563, 9627.478
353.9384, 9668.766
354.4205, 9699.271
354.9026, 9708.751
355.3847, 9706.214
355.8669, 9700.830
356.3490, 9693.000
356.8311, 9683.557
357.3132, 9672.931
357.7953, 9661.117
358.2774, 9648.413
358.7596, 9627.869
359.2417, 9611.531
359.7238, 9607.701
360.2059, 9616.294
360.6880, 9631.915
361.1701, 9648.863
361.6523, 9672.298
362.1344, 9707.604
362.6165, 9776.728
363.0986, 9837.928
363.5807, 9866.040
364.0628, 9865.569
364.5450, 9878.950
365.0271, 9937.678
365.5092, 10003.91
365.9913, 10051.55
366.4734, 10048.16
366.9555, 10055.86
367.4377, 10092.16
367.9198, 10150.75
368.4019, 10199.71
368.8840, 10232.38
369.3661, 10257.95
369.8482, 10280.68
370.3304, 10293.06
370.8125, 10313.22
371.2946, 10338.04
371.7767, 10371.05
372.2588, 10424.80
372.7409, 10523.60
373.2230, 10611.08
373.7051, 10662.86
374.1873, 10665.63
374.6694, 10666.12
375.1515, 10653.38
375.6336, 10646.06
376.1157, 10687.77
376.5978, 10801.86
377.0800, 10899.07
377.5621, 10937.33
378.0442, 10911.93
378.5263, 10909.67
379.0084, 10936.15
379.4905, 10973.11
379.9727, 10992.74
380.4548, 10993.21
380.9369, 11006.21
381.4190, 11052.38
381.9011, 11120.49
382.3832, 11154.72
382.8654, 11150.70
383.3475, 11140.66
383.8296, 11166.87
384.3117, 11218.62
384.7938, 11247.34
385.2759, 11229.15
385.7581, 11186.73
386.2402, 11156.24
386.7223, 11137.39
387.2044, 11130.87
387.6865, 11159.07
388.1686, 11196.38
388.6508, 11189.02
389.1329, 11087.68
389.6150, 10996.62
390.0971, 11059.77
390.5792, 11232.25
391.0613, 11352.37
391.5435, 11287.38
392.0256, 11152.58
392.5077, 11048.89
392.9898, 10998.24
393.4719, 10969.64
393.9540, 10960.96
394.4362, 10962.78
394.9183, 10956.12
395.4004, 10927.37
395.8825, 10893.56
396.3646, 10862.27
396.8467, 10835.16
397.3289, 10807.07
397.8110, 10775.54
398.2931, 10742.72
398.7752, 10710.95
399.2573, 10662.58
399.7394, 10633.30
400.2216, 10641.88
400.7037, 10694.70
401.1858, 10722.86
401.6679, 10718.11
402.1500, 10694.78
402.6321, 10664.93
403.1143, 10630.02
403.5964, 10584.89
404.0785, 10522.08
404.5606, 10446.32
405.0427, 10392.32
405.5248, 10366.75
406.0070, 10350.17
406.4891, 10329.17
406.9712, 10301.81
407.4533, 10283.91
407.9354, 10281.98
408.4175, 10285.61
408.8997, 10264.77
409.3818, 10216.96
409.8639, 10174.20
410.3460, 10161.72
410.8281, 10173.13
411.3102, 10166.52
411.7924, 10135.34
412.2745, 10101.79
412.7566, 10101.81
413.2387, 10127.82
413.7208, 10145.68
414.2029, 10123.04
414.6851, 10087.93
415.1672, 10089.44
415.6493, 10129.34
416.1314, 10173.97
416.6135, 10195.48
417.0956, 10203.74
417.5778, 10214.83
418.0599, 10239.54
418.5420, 10264.79
419.0241, 10278.12
419.5062, 10282.17
419.9883, 10293.48
420.4705, 10319.73
420.9526, 10356.98
421.4347, 10403.49
421.9168, 10476.05
422.3989, 10533.22
422.8810, 10545.08
423.3632, 10531.19
423.8453, 10545.86
424.3274, 10620.27
424.8095, 10707.19
425.2916, 10791.64
425.7737, 10880.25
426.2559, 10945.86
426.7380, 10966.77
427.2201, 10974.04
427.7022, 11012.84
428.1843, 11109.00
428.6664, 11196.65
429.1486, 11258.03
429.6307, 11292.28
430.1128, 11327.06
430.5949, 11359.21
431.0770, 11396.99
431.5591, 11449.89
432.0413, 11521.01
432.5234, 11591.61
433.0055, 11657.79
433.4876, 11721.65
433.9697, 11789.79
434.4518, 11861.74
434.9340, 11936.03
435.4161, 12015.37
435.8982, 12097.23
436.3803, 12168.07
436.8624, 12220.41
437.3445, 12277.11
437.8267, 12386.43
438.3088, 12531.42
438.7909, 12648.91
439.2730, 12669.33
439.7551, 12661.04
440.2372, 12717.36
440.7194, 12848.64
441.2015, 12976.83
441.6836, 13024.83
442.1657, 13040.89
442.6478, 13091.08
443.1299, 13226.58
443.6121, 13377.11
444.0942, 13498.37
444.5763, 13595.20
445.0584, 13727.52
445.5405, 13953.00
446.0226, 14195.44
446.5048, 14406.83
446.9869, 14553.16
447.4690, 14703.95
447.9511, 14857.80
448.4332, 15021.48
448.9153, 15213.17
449.3975, 15443.51
449.8796, 15688.52
450.3617, 15942.14
450.8438, 16213.98
451.3259, 16463.05
451.8080, 16680.81
452.2902, 16889.17
452.7723, 17110.63
453.2544, 17345.30
453.7365, 17600.30
454.2186, 17876.39
454.7007, 18172.85
455.1828, 18468.33
455.6649, 18764.35
456.1471, 19058.86
456.6292, 19328.69
457.1113, 19587.75
457.5934, 19902.41
458.0755, 20298.22
458.5576, 20725.30
459.0398, 21129.13
459.5219, 21506.82
460.0040, 21863.73
460.4861, 22151.16
460.9682, 22439.28
461.4503, 22834.27
461.9325, 23363.64
462.4146, 23870.42
462.8967, 24254.14
463.3788, 24548.34
463.8609, 24793.34
464.3430, 25038.80
464.8252, 25206.96
465.3073, 25254.68
465.7894, 25184.56
466.2715, 25049.13
466.7536, 24856.54
467.2357, 24607.86
467.7179, 24301.41
468.2000, 23874.01
468.6821, 23470.23
469.1642, 23097.75
469.6463, 22748.46
470.1284, 22416.66
470.6106, 22097.19
471.0927, 21799.85
471.5748, 21529.75
472.0569, 21289.66
472.5390, 21064.99
473.0211, 20866.33
473.5033, 20664.99
473.9854, 20420.31
474.4675, 20128.00
474.9496, 19850.52
475.4317, 19605.50
475.9138, 19384.93
476.3960, 19175.85
476.8781, 18978.15
477.3602, 18766.30
477.8423, 18509.72
478.3244, 18228.39
478.8065, 17967.33
479.2887, 17735.86
479.7708, 17519.77
480.2529, 17315.05
480.7350, 17115.50
481.2171, 16905.73
481.6992, 16671.41
482.1814, 16431.69
482.6635, 16192.21
483.1456, 15954.43
483.6277, 15740.02
484.1098, 15574.80
484.5919, 15428.10
485.0741, 15271.99
485.5562, 15114.91
486.0383, 14933.47
486.5204, 14703.15
487.0025, 14437.96
487.4846, 14205.18
487.9668, 14029.90
488.4489, 13862.32
488.9310, 13682.42
489.4131, 13483.60
489.8952, 13292.92
490.3773, 13112.82
490.8595, 12934.14
491.3416, 12740.08
491.8237, 12523.38
492.3058, 12331.76
492.7879, 12188.92
493.2701, 12077.25
493.7522, 11930.00
494.2343, 11744.21
494.7164, 11551.07
495.1985, 11366.49
495.6806, 11192.86
496.1628, 11033.51
496.6449, 10891.02
497.1270, 10755.78
497.6091, 10617.62
498.0912, 10476.02
498.5733, 10333.66
499.0555, 10184.85
499.5376, 10039.40
500.0197, 9903.027
500.5018, 9777.136
500.9839, 9654.961
501.4660, 9535.811
501.9482, 9418.640
502.4303, 9301.124
502.9124, 9170.552
503.3945, 9055.474
503.8766, 8977.486
504.3587, 8922.041
504.8409, 8826.649
505.3230, 8649.287
505.8051, 8487.148
506.2872, 8386.993
506.7693, 8368.132
507.2514, 8321.408
507.7336, 8238.978
508.2157, 8139.510
508.6978, 8042.894
509.1799, 7948.248
509.6620, 7863.369
510.1441, 7795.526
510.6263, 7733.672
511.1084, 7637.194
511.5905, 7507.166
512.0726, 7386.118
512.5547, 7310.288
513.0368, 7263.970
513.5189, 7220.117
514.0010, 7178.546
514.4832, 7124.739
514.9653, 7038.221
515.4474, 6931.671
515.9295, 6827.947
516.4116, 6741.143
516.8937, 6655.654
517.3759, 6556.529
517.8580, 6444.891
518.3401, 6356.486
518.8222, 6319.734
519.3043, 6297.350
519.7864, 6265.857
520.2686, 6217.646
520.7507, 6167.408
521.2328, 6118.634
521.7149, 6067.525
522.1970, 6004.641
522.6791, 5918.638
523.1613, 5845.748
523.6434, 5801.740
524.1255, 5785.526
524.6076, 5757.997
525.0897, 5718.001
525.5718, 5671.867
526.0540, 5621.676
526.5361, 5568.981
527.0182, 5525.766
527.5003, 5494.768
527.9824, 5473.830
528.4645, 5467.512
528.9467, 5470.982
529.4288, 5465.845
529.9109, 5436.268
530.3930, 5396.801
530.8751, 5359.932
531.3572, 5326.303
531.8394, 5295.099
532.3215, 5266.723
532.8036, 5239.939
533.2857, 5212.812
533.7678, 5176.122
534.2499, 5149.429
534.7321, 5146.769
535.2142, 5158.727
535.6963, 5153.820
536.1784, 5120.717
536.6605, 5083.331
537.1426, 5048.010
537.6248, 5014.082
538.1069, 4988.167
538.5890, 4971.733
539.0711, 4960.459
539.5532, 4950.057
540.0353, 4940.563
540.5175, 4931.563
540.9996, 4920.917
541.4817, 4913.227
541.9638, 4925.339
542.4459, 4954.105
542.9280, 4971.506
543.4102, 4944.770
543.8923, 4902.460
544.3744, 4893.405
544.8565, 4923.157
545.3386, 4947.616
545.8207, 4927.199
546.3029, 4887.130
546.7850, 4856.437
547.2671, 4850.803
547.7492, 4849.171
548.2313, 4846.077
548.7134, 4841.721
549.1956, 4836.743
549.6777, 4829.560
550.1598, 4823.378
550.6419, 4820.453
551.1240, 4822.812
551.6061, 4818.014
552.0883, 4800.312
552.5704, 4782.712
553.0525, 4780.651
553.5346, 4797.443
554.0167, 4807.691
554.4988, 4804.461
554.9810, 4795.029
555.4631, 4799.556
555.9452, 4817.132
556.4273, 4829.285
556.9094, 4820.357
557.3915, 4800.602
557.8737, 4785.481
558.3558, 4775.488
558.8379, 4775.614
559.3200, 4796.795
559.8021, 4828.145
560.2842, 4855.625
560.7664, 4878.992
561.2485, 4893.762
561.7306, 4891.521
562.2127, 4878.874
562.6948, 4873.589
563.1769, 4882.785
563.6591, 4896.462
564.1412, 4909.809
564.6233, 4921.485
565.1054, 4944.639
565.5875, 4988.583
566.0696, 5031.822
566.5518, 5054.515
567.0339, 5052.905
567.5160, 5050.702
567.9981, 5047.666
568.4802, 5049.780
568.9623, 5077.314
569.4445, 5127.427
569.9266, 5164.240
570.4087, 5154.317
570.8908, 5126.147
571.3729, 5132.891
571.8550, 5173.792
572.3372, 5216.929
572.8193, 5237.476
573.3014, 5249.597
573.7835, 5269.031
574.2656, 5307.534
574.7477, 5337.879
575.2299, 5338.322
575.7120, 5325.749
576.1941, 5329.750
576.6762, 5367.449
577.1583, 5408.733
577.6404, 5447.742
578.1226, 5484.748
578.6047, 5520.493
579.0868, 5554.632
579.5689, 5588.000
580.0510, 5620.118
580.5331, 5651.004
581.0153, 5681.762
581.4974, 5711.880
581.9795, 5744.468
582.4616, 5786.730
582.9437, 5836.407
583.4258, 5882.561
583.9080, 5918.222
584.3901, 5951.280
584.8722, 5989.713
585.3543, 6033.562
585.8364, 6082.966
586.3185, 6146.827
586.8007, 6210.748
587.2828, 6263.555
587.7649, 6301.071
588.2470, 6337.421
