##NAMES=Keystoneite
##RRUFFID=R070661
##IDEAL CHEMISTRY=Mg_0.5_Ni^2+^Fe^3+^(Te^4+^O_3_)_3_&#183;4.5H_2_O
##LOCALITY=McAlpine mine, Moccasin, Tuolumne County, California, USA
##OWNER=RRUFF
##SOURCE=Michael Scott
##DESCRIPTION=Clusters of greenish yellow acicular microcrystals associated with quartz and pyrite.
##STATUS=The identification of this mineral has been confirmed by single-crystal X-ray diffraction.
##URL=rruff.info/R070661
89.93622, 11045.91
90.41833, 11263.39
90.90045, 11445.20
91.38257, 11610.45
91.86469, 11786.24
92.34680, 11990.69
92.82892, 12211.85
93.31104, 12392.43
93.79315, 12511.78
94.27527, 12584.12
94.75739, 12543.00
95.23950, 12390.22
95.72162, 12266.68
96.20374, 12184.28
96.68585, 12133.01
97.16797, 12086.21
97.65009, 12041.11
98.13220, 11996.97
98.61432, 11951.73
99.09644, 11903.00
99.57855, 11856.51
100.0607, 11814.03
100.5428, 11775.21
101.0249, 11741.21
101.5070, 11713.47
101.9891, 11691.48
102.4713, 11671.43
102.9534, 11673.29
103.4355, 11661.21
103.9176, 11622.15
104.3997, 11552.21
104.8818, 11447.45
105.3640, 11301.28
105.8461, 11111.24
106.3282, 10873.45
106.8103, 10577.41
107.2924, 10246.71
107.7745, 9895.524
108.2567, 9530.094
108.7388, 9155.976
109.2209, 8819.871
109.7030, 8546.965
110.1851, 8283.325
110.6672, 8010.423
111.1494, 7735.146
111.6315, 7478.667
112.1136, 7259.270
112.5957, 7080.984
113.0778, 6918.624
113.5599, 6768.765
114.0421, 6634.066
114.5242, 6517.565
115.0063, 6420.252
115.4884, 6334.299
115.9705, 6251.818
116.4526, 6171.065
116.9348, 6101.020
117.4169, 6057.304
117.8990, 6025.518
118.3811, 5970.558
118.8632, 5869.755
119.3453, 5761.579
119.8275, 5693.506
120.3096, 5669.088
120.7917, 5657.128
121.2738, 5636.603
121.7559, 5607.184
122.2381, 5575.302
122.7202, 5531.279
123.2023, 5491.604
123.6844, 5472.366
124.1665, 5481.256
124.6486, 5503.568
125.1308, 5514.274
125.6129, 5517.381
126.0950, 5498.013
126.5771, 5443.738
127.0592, 5371.826
127.5413, 5303.738
128.0235, 5253.928
128.5056, 5220.041
128.9877, 5170.847
129.4698, 5093.212
129.9519, 5011.795
130.4340, 4924.033
130.9162, 4835.700
131.3983, 4757.250
131.8804, 4699.615
132.3625, 4668.164
132.8446, 4635.149
133.3267, 4595.956
133.8089, 4558.702
134.2910, 4527.720
134.7731, 4503.949
135.2552, 4486.085
135.7373, 4472.000
136.2194, 4458.007
136.7016, 4457.804
137.1837, 4484.032
137.6658, 4521.173
138.1479, 4549.695
138.6300, 4562.880
139.1121, 4564.608
139.5943, 4561.453
140.0764, 4550.666
140.5585, 4542.191
141.0406, 4539.780
141.5227, 4542.987
142.0048, 4549.370
142.4870, 4555.244
142.9691, 4566.322
143.4512, 4592.313
143.9333, 4644.625
144.4154, 4698.466
144.8975, 4726.173
145.3797, 4723.467
145.8618, 4719.788
146.3439, 4736.030
146.8260, 4759.470
147.3081, 4774.923
147.7902, 4772.450
148.2724, 4760.049
148.7545, 4759.106
149.2366, 4779.121
149.7187, 4795.362
150.2008, 4799.988
150.6829, 4794.193
151.1651, 4780.327
151.6472, 4759.597
152.1293, 4731.916
152.6114, 4698.108
153.0935, 4652.623
153.5757, 4604.431
154.0578, 4552.949
154.5399, 4500.075
155.0220, 4450.910
155.5041, 4411.986
155.9862, 4387.573
156.4684, 4358.715
156.9505, 4323.728
157.4326, 4286.512
157.9147, 4247.658
158.3968, 4207.859
158.8789, 4169.197
159.3611, 4134.396
159.8432, 4099.093
160.3253, 4076.716
160.8074, 4083.636
161.2895, 4095.473
161.7716, 4081.642
162.2538, 4029.717
162.7359, 3962.379
163.2180, 3939.684
163.7001, 4018.413
164.1822, 4064.800
164.6643, 4034.292
165.1465, 3957.867
165.6286, 3892.214
166.1107, 3866.115
166.5928, 3870.254
167.0749, 3866.777
167.5570, 3848.405
168.0392, 3830.996
168.5213, 3822.724
169.0034, 3822.410
169.4855, 3823.466
169.9676, 3820.599
170.4497, 3816.600
170.9319, 3819.780
171.4140, 3838.345
171.8961, 3859.492
172.3782, 3869.456
172.8603, 3866.754
173.3424, 3864.356
173.8246, 3875.234
174.3067, 3892.911
174.7888, 3905.617
175.2709, 3909.045
175.7530, 3905.367
176.2351, 3895.475
176.7173, 3871.848
177.1994, 3858.515
177.6815, 3876.236
178.1636, 3914.918
178.6457, 3952.249
179.1278, 3977.205
179.6100, 3990.535
180.0921, 3995.639
180.5742, 3986.157
181.0563, 3975.125
181.5384, 3965.382
182.0205, 3958.735
182.5027, 3959.898
182.9848, 3974.439
183.4669, 4003.605
183.9490, 4034.650
184.4311, 4076.603
184.9132, 4113.092
185.3954, 4135.096
185.8775, 4143.090
186.3596, 4144.901
186.8417, 4148.054
187.3238, 4150.095
187.8059, 4161.287
188.2881, 4193.890
188.7702, 4226.287
189.2523, 4241.180
189.7344, 4236.382
190.2165, 4226.414
190.6986, 4236.875
191.1808, 4291.400
191.6629, 4325.881
192.1450, 4324.783
192.6271, 4313.030
193.1092, 4311.588
193.5914, 4327.919
194.0735, 4354.547
194.5556, 4374.815
195.0377, 4377.801
195.5198, 4386.673
196.0019, 4405.086
196.4841, 4428.615
196.9662, 4453.859
197.4483, 4479.669
197.9304, 4503.524
198.4125, 4516.114
198.8946, 4494.940
199.3768, 4489.149
199.8589, 4523.130
200.3410, 4577.447
200.8231, 4614.765
201.3052, 4611.898
201.7873, 4580.653
202.2695, 4580.225
202.7516, 4637.147
203.2337, 4690.216
203.7158, 4714.658
204.1979, 4716.328
204.6800, 4714.651
205.1622, 4723.091
205.6443, 4736.416
206.1264, 4730.081
206.6085, 4677.260
207.0906, 4629.586
207.5727, 4625.357
208.0549, 4659.852
208.5370, 4690.334
209.0191, 4682.041
209.5012, 4646.380
209.9833, 4636.818
210.4654, 4687.444
210.9476, 4743.694
211.4297, 4749.488
211.9118, 4701.529
212.3939, 4656.965
212.8760, 4669.903
213.3581, 4717.436
213.8403, 4736.951
214.3224, 4686.047
214.8045, 4615.251
215.2866, 4593.120
215.7687, 4629.215
216.2508, 4675.993
216.7330, 4705.841
217.2151, 4721.769
217.6972, 4724.852
218.1793, 4704.736
218.6614, 4674.288
219.1435, 4660.022
219.6257, 4669.068
220.1078, 4678.393
220.5899, 4665.417
221.0720, 4641.205
221.5541, 4629.369
222.0362, 4647.534
222.5184, 4687.051
223.0005, 4723.430
223.4826, 4762.527
223.9647, 4786.952
224.4468, 4779.276
224.9289, 4750.849
225.4111, 4728.013
225.8932, 4733.465
226.3753, 4760.750
226.8574, 4770.776
227.3395, 4749.687
227.8216, 4728.308
228.3038, 4721.917
228.7859, 4727.586
229.2680, 4736.858
229.7501, 4742.929
230.2322, 4746.277
230.7143, 4756.500
231.1965, 4783.748
231.6786, 4807.015
232.1607, 4815.607
232.6428, 4812.323
233.1249, 4806.285
233.6070, 4805.901
234.0892, 4811.543
234.5713, 4810.353
235.0534, 4787.235
235.5355, 4771.128
236.0176, 4780.032
236.4998, 4807.949
236.9819, 4833.559
237.4640, 4834.037
237.9461, 4805.006
238.4282, 4792.700
238.9103, 4811.766
239.3925, 4836.374
239.8746, 4864.308
240.3567, 4891.273
240.8388, 4908.323
241.3209, 4906.169
241.8030, 4882.486
242.2852, 4852.668
242.7673, 4805.001
243.2494, 4761.177
243.7315, 4735.620
244.2136, 4724.850
244.6957, 4712.735
245.1779, 4681.685
245.6600, 4626.832
246.1421, 4576.871
246.6242, 4541.592
247.1063, 4502.657
247.5884, 4443.800
248.0706, 4369.902
248.5527, 4302.766
249.0348, 4268.108
249.5169, 4277.246
249.9990, 4270.558
250.4811, 4234.293
250.9633, 4196.252
251.4454, 4176.591
251.9275, 4171.543
252.4096, 4157.278
252.8917, 4104.310
253.3738, 3996.295
253.8560, 3919.551
254.3381, 3891.976
254.8202, 3874.427
255.3023, 3850.879
255.7844, 3818.588
256.2665, 3780.062
256.7487, 3736.183
257.2308, 3681.686
257.7129, 3644.191
258.1950, 3635.331
258.6771, 3629.781
259.1592, 3614.794
259.6414, 3589.802
260.1235, 3561.375
260.6056, 3535.904
261.0877, 3513.469
261.5698, 3494.057
262.0519, 3485.053
262.5341, 3472.256
263.0162, 3447.606
263.4983, 3411.451
263.9804, 3368.957
264.4625, 3324.339
264.9446, 3275.327
265.4268, 3236.234
265.9089, 3209.589
266.3910, 3188.515
266.8731, 3175.864
267.3552, 3167.755
267.8373, 3151.352
268.3195, 3111.750
268.8016, 3041.631
269.2837, 2995.046
269.7658, 2987.018
270.2479, 2983.960
270.7300, 2971.158
271.2122, 2947.868
271.6943, 2918.970
272.1764, 2887.511
272.6585, 2851.926
273.1406, 2827.677
273.6227, 2817.035
274.1049, 2812.544
274.5870, 2816.707
275.0691, 2825.419
275.5512, 2826.990
276.0333, 2810.186
276.5154, 2772.653
276.9976, 2748.294
277.4797, 2752.997
277.9618, 2752.608
278.4439, 2726.615
278.9260, 2681.496
279.4081, 2638.566
279.8903, 2613.743
280.3724, 2607.152
280.8545, 2607.698
281.3366, 2625.968
281.8187, 2639.450
282.3008, 2638.927
282.7830, 2626.550
283.2651, 2608.320
283.7472, 2587.581
284.2293, 2564.658
284.7114, 2546.309
285.1935, 2536.679
285.6757, 2526.623
286.1578, 2511.220
286.6399, 2493.153
287.1220, 2479.175
287.6041, 2474.045
288.0862, 2476.183
288.5684, 2471.932
289.0505, 2450.706
289.5326, 2435.319
290.0147, 2436.792
290.4968, 2447.341
290.9789, 2452.953
291.4611, 2445.543
291.9432, 2428.123
292.4253, 2415.379
292.9074, 2408.858
293.3895, 2405.239
293.8716, 2407.705
294.3538, 2411.974
294.8359, 2410.458
295.3180, 2399.038
295.8001, 2382.797
296.2823, 2378.251
296.7644, 2402.761
297.2465, 2419.033
297.7286, 2421.145
298.2107, 2414.748
298.6928, 2404.581
299.1750, 2392.559
299.6571, 2381.549
300.1392, 2378.208
300.6213, 2390.876
301.1034, 2401.136
301.5855, 2409.475
302.0677, 2414.941
302.5498, 2415.331
303.0319, 2410.262
303.5140, 2403.026
303.9961, 2399.307
304.4782, 2396.897
304.9604, 2402.773
305.4425, 2427.846
305.9246, 2453.669
306.4067, 2464.754
306.8888, 2458.060
307.3709, 2442.548
307.8531, 2430.437
308.3352, 2422.119
308.8173, 2416.735
309.2994, 2415.677
309.7815, 2415.969
310.2636, 2416.337
310.7458, 2416.300
311.2279, 2415.272
311.7100, 2411.739
312.1921, 2403.246
312.6742, 2402.364
313.1563, 2409.911
313.6385, 2423.084
314.1206, 2447.387
314.6027, 2477.998
315.0848, 2500.726
315.5669, 2499.705
316.0490, 2471.553
316.5312, 2458.435
317.0133, 2472.558
317.4954, 2489.898
317.9775, 2503.692
318.4596, 2514.428
318.9417, 2525.712
319.4239, 2541.055
319.9060, 2559.785
320.3881, 2570.068
320.8702, 2555.633
321.3523, 2550.467
321.8344, 2570.803
322.3166, 2604.056
322.7987, 2630.192
323.2808, 2636.964
323.7629, 2628.691
324.2450, 2621.922
324.7271, 2613.417
325.2093, 2612.056
325.6914, 2624.933
326.1735, 2643.166
326.6556, 2655.633
327.1377, 2656.812
327.6198, 2653.627
328.1020, 2661.773
328.5841, 2686.530
329.0662, 2711.353
329.5483, 2738.322
330.0304, 2761.160
330.5125, 2771.408
330.9947, 2766.531
331.4768, 2758.186
331.9589, 2763.259
332.4410, 2784.475
332.9231, 2807.396
333.4052, 2837.571
333.8874, 2863.152
334.3695, 2871.913
334.8516, 2863.611
335.3337, 2855.926
335.8158, 2872.968
336.2979, 2916.169
336.7801, 2939.007
337.2622, 2921.549
337.7443, 2895.742
338.2264, 2875.003
338.7085, 2861.691
339.1906, 2861.592
339.6728, 2886.713
340.1549, 2931.389
340.6370, 2965.771
341.1191, 2989.834
341.6012, 3000.353
342.0833, 2989.385
342.5655, 2964.134
343.0476, 2943.761
343.5297, 2940.490
344.0118, 2947.368
344.4939, 2948.997
344.9760, 2943.478
345.4582, 2938.815
345.9403, 2946.455
346.4224, 2957.626
346.9045, 2956.249
347.3866, 2925.369
347.8687, 2891.723
348.3509, 2888.501
348.8330, 2916.240
349.3151, 2946.851
349.7972, 2966.166
350.2793, 2979.989
350.7614, 3001.874
351.2436, 3042.604
351.7257, 3073.787
352.2078, 3068.486
352.6899, 3034.860
353.1720, 3006.838
353.6541, 2995.094
354.1363, 2997.603
354.6184, 3014.123
355.1005, 3051.355
355.5826, 3077.938
356.0647, 3075.596
356.5468, 3056.730
357.0290, 3043.135
357.5111, 3040.838
357.9932, 3041.714
358.4753, 3034.257
358.9574, 3016.417
359.4395, 3001.698
359.9217, 2990.948
360.4038, 2984.187
360.8859, 2981.325
361.3680, 2982.374
361.8501, 2988.009
362.3322, 2999.707
362.8144, 3018.488
363.2965, 3034.019
363.7786, 3049.831
364.2607, 3059.692
364.7428, 3051.764
365.2249, 3033.357
365.7071, 3027.969
366.1892, 3054.162
366.6713, 3106.566
367.1534, 3135.593
367.6355, 3127.685
368.1176, 3113.999
368.5998, 3091.715
369.0819, 3069.951
369.5640, 3062.154
370.0461, 3074.609
370.5282, 3100.810
371.0103, 3125.308
371.4925, 3160.438
371.9746, 3173.200
372.4567, 3142.759
372.9388, 3102.579
373.4209, 3080.133
373.9030, 3081.986
374.3852, 3097.408
374.8673, 3115.196
375.3494, 3141.041
375.8315, 3150.763
376.3136, 3116.244
376.7957, 3090.059
377.2779, 3111.248
377.7600, 3169.122
378.2421, 3217.329
378.7242, 3208.759
379.2064, 3147.062
379.6885, 3114.836
380.1706, 3133.705
380.6527, 3155.827
381.1348, 3163.238
381.6169, 3160.996
382.0991, 3159.142
382.5812, 3164.639
383.0633, 3171.344
383.5454, 3161.809
384.0275, 3127.214
384.5096, 3103.758
384.9918, 3118.318
385.4739, 3145.850
385.9560, 3162.611
386.4381, 3162.176
386.9202, 3154.787
387.4023, 3152.091
387.8845, 3153.351
388.3666, 3143.635
388.8487, 3108.072
389.3308, 3071.942
389.8129, 3067.356
390.2950, 3096.274
390.7772, 3123.527
391.2593, 3133.899
391.7414, 3131.073
392.2235, 3119.745
392.7056, 3098.847
393.1877, 3077.691
393.6699, 3065.410
394.1520, 3061.570
394.6341, 3059.860
395.1162, 3058.176
395.5983, 3059.344
396.0804, 3068.958
396.5626, 3085.432
397.0447, 3098.114
397.5268, 3099.947
398.0089, 3091.964
398.4910, 3081.995
398.9731, 3062.880
399.4553, 3050.129
399.9374, 3055.137
400.4195, 3068.502
400.9016, 3073.016
401.3837, 3061.298
401.8658, 3041.959
402.3480, 3033.306
402.8301, 3049.977
403.3122, 3054.968
403.7943, 3042.220
404.2764, 3022.369
404.7585, 3000.780
405.2407, 2979.855
405.7228, 2962.781
406.2049, 2953.898
406.6870, 2954.570
407.1691, 2954.753
407.6512, 2956.734
408.1334, 2955.984
408.6155, 2946.166
409.0976, 2932.403
409.5797, 2926.680
410.0618, 2939.293
410.5439, 2962.753
411.0261, 2966.612
411.5082, 2938.799
411.9903, 2913.829
412.4724, 2899.363
412.9545, 2893.111
413.4366, 2895.124
413.9188, 2906.273
414.4009, 2918.802
414.8830, 2923.335
415.3651, 2919.653
415.8472, 2913.895
416.3293, 2907.093
416.8115, 2898.663
417.2936, 2882.816
417.7757, 2860.605
418.2578, 2852.485
418.7399, 2884.062
419.2220, 2935.130
419.7042, 2959.012
420.1863, 2946.668
420.6684, 2928.480
421.1505, 2928.628
421.6326, 2943.300
422.1147, 2955.061
422.5969, 2958.516
423.0790, 2961.371
423.5611, 2972.321
424.0432, 2988.546
424.5253, 2997.366
425.0074, 2991.284
425.4896, 2975.308
425.9717, 2963.763
426.4538, 2951.422
426.9359, 2950.456
427.4180, 2975.638
427.9001, 3007.529
428.3823, 3019.541
428.8644, 3006.592
429.3465, 2990.565
429.8286, 3001.534
430.3107, 3052.774
430.7928, 3082.639
431.2750, 3069.226
431.7571, 3059.264
432.2392, 3080.271
432.7213, 3124.266
433.2034, 3167.452
433.6855, 3194.090
434.1677, 3205.292
434.6498, 3205.761
435.1319, 3184.141
435.6140, 3169.374
436.0961, 3171.698
436.5782, 3181.098
437.0604, 3186.600
437.5425, 3184.623
438.0246, 3182.083
438.5067, 3186.523
438.9888, 3197.835
439.4709, 3218.108
439.9531, 3255.220
440.4352, 3294.136
440.9173, 3323.507
441.3994, 3344.045
441.8815, 3363.346
442.3636, 3384.628
442.8458, 3407.453
443.3279, 3430.238
443.8100, 3452.178
444.2921, 3478.722
444.7742, 3514.677
445.2563, 3558.330
445.7385, 3601.653
446.2206, 3642.175
446.7027, 3684.587
447.1848, 3736.586
447.6669, 3792.369
448.1490, 3834.554
448.6312, 3853.983
449.1133, 3866.968
449.5954, 3903.830
450.0775, 3979.022
450.5596, 4047.970
451.0417, 4107.694
451.5239, 4161.491
452.0060, 4207.032
452.4881, 4247.135
452.9702, 4293.781
453.4523, 4359.382
453.9344, 4444.027
454.4166, 4517.762
454.8987, 4554.361
455.3808, 4608.973
455.8629, 4706.013
456.3450, 4823.863
456.8271, 4932.628
457.3093, 5019.933
457.7914, 5096.833
458.2735, 5185.888
458.7556, 5293.309
459.2377, 5388.400
459.7198, 5455.140
460.2020, 5515.716
460.6841, 5584.161
461.1662, 5660.345
461.6483, 5735.249
462.1305, 5815.834
462.6126, 5890.099
463.0947, 5923.287
463.5768, 5910.195
464.0589, 5869.380
464.5410, 5799.747
465.0232, 5711.555
465.5053, 5631.075
465.9874, 5572.345
466.4695, 5508.562
466.9516, 5416.986
467.4337, 5306.379
467.9159, 5201.321
468.3980, 5109.692
468.8801, 5028.883
469.3622, 4957.131
469.8443, 4902.212
470.3264, 4834.754
470.8086, 4732.581
471.2907, 4633.148
471.7728, 4569.654
472.2549, 4538.917
472.7370, 4513.725
473.2191, 4472.863
473.7013, 4417.867
474.1834, 4365.559
474.6655, 4321.769
475.1476, 4273.714
475.6297, 4214.807
476.1118, 4152.839
476.5940, 4094.398
477.0761, 4041.887
477.5582, 3996.415
478.0403, 3961.204
478.5224, 3937.606
479.0045, 3912.618
479.4867, 3892.527
479.9688, 3861.283
480.4509, 3800.985
480.9330, 3719.799
481.4151, 3648.141
481.8972, 3610.534
482.3794, 3586.432
482.8615, 3539.632
483.3436, 3469.331
483.8257, 3406.485
484.3078, 3368.760
484.7899, 3348.404
485.2721, 3325.823
485.7542, 3302.908
486.2363, 3274.548
486.7184, 3235.579
487.2005, 3191.409
487.6826, 3150.404
488.1648, 3114.369
488.6469, 3077.524
489.1290, 3032.134
489.6111, 2975.383
490.0932, 2932.217
490.5753, 2913.960
491.0575, 2895.220
491.5396, 2865.283
492.0217, 2828.580
492.5038, 2792.630
492.9859, 2761.290
493.4680, 2734.149
493.9502, 2710.921
494.4323, 2692.973
494.9144, 2674.872
495.3965, 2660.718
495.8786, 2642.467
496.3607, 2612.138
496.8429, 2571.272
497.3250, 2531.295
497.8071, 2501.011
498.2892, 2477.586
498.7713, 2452.287
499.2534, 2423.964
499.7356, 2398.639
500.2177, 2382.080
500.6998, 2370.350
501.1819, 2354.438
501.6640, 2332.027
502.1461, 2308.485
502.6283, 2281.005
503.1104, 2255.159
503.5925, 2245.923
504.0746, 2257.936
504.5567, 2270.045
505.0388, 2255.737
505.5210, 2207.870
506.0031, 2166.387
506.4852, 2128.376
506.9673, 2098.802
507.4494, 2081.765
507.9315, 2074.639
508.4137, 2075.720
508.8958, 2085.302
509.3779, 2094.082
509.8600, 2075.660
510.3421, 2014.756
510.8242, 1966.675
511.3064, 1949.371
511.7885, 1939.185
512.2706, 1920.400
512.7527, 1893.448
513.2349, 1870.735
513.7170, 1864.421
514.1991, 1868.254
514.6812, 1864.556
515.1633, 1851.445
515.6454, 1839.796
516.1276, 1838.021
516.6097, 1840.864
517.0918, 1835.820
517.5739, 1818.231
518.0560, 1800.990
518.5381, 1792.533
519.0203, 1787.108
519.5024, 1772.199
519.9845, 1745.448
520.4666, 1722.517
520.9487, 1723.241
521.4308, 1753.500
521.9130, 1758.711
522.3951, 1711.863
522.8772, 1673.371
523.3593, 1674.714
523.8414, 1695.053
524.3235, 1698.104
524.8057, 1667.826
525.2878, 1625.055
525.7699, 1607.750
526.2520, 1621.804
526.7341, 1632.725
527.2162, 1635.892
527.6984, 1635.507
528.1805, 1633.316
528.6626, 1629.651
529.1447, 1625.310
529.6268, 1620.839
530.1089, 1615.810
530.5911, 1609.365
531.0732, 1601.551
531.5553, 1593.669
532.0374, 1586.330
532.5195, 1579.174
533.0016, 1570.742
533.4838, 1559.155
533.9659, 1551.907
534.4480, 1550.865
534.9301, 1554.492
535.4122, 1568.027
535.8943, 1587.574
536.3765, 1593.546
536.8586, 1567.553
537.3407, 1515.551
537.8228, 1488.217
538.3049, 1507.243
538.7870, 1521.665
539.2692, 1522.648
539.7513, 1516.669
540.2334, 1507.746
540.7155, 1497.456
541.1976, 1489.887
541.6797, 1489.419
542.1619, 1495.407
542.6440, 1505.334
543.1261, 1523.588
543.6082, 1534.771
544.0903, 1521.307
544.5724, 1494.784
545.0546, 1478.001
545.5367, 1475.158
546.0188, 1480.955
546.5009, 1500.854
546.9830, 1525.903
547.4651, 1534.501
547.9473, 1520.612
548.4294, 1501.688
548.9115, 1498.947
549.3936, 1516.514
549.8757, 1524.950
550.3578, 1520.300
550.8400, 1512.399
551.3221, 1499.091
551.8042, 1486.533
552.2863, 1486.364
552.7684, 1503.875
553.2505, 1525.475
553.7327, 1524.839
554.2148, 1496.736
554.6969, 1485.833
555.1790, 1512.958
555.6611, 1540.082
556.1432, 1538.356
556.6254, 1515.911
557.1075, 1500.251
557.5896, 1508.532
558.0717, 1521.831
558.5538, 1515.950
559.0359, 1495.908
559.5181, 1489.086
560.0002, 1508.279
560.4823, 1537.264
560.9644, 1548.868
561.4465, 1533.650
561.9286, 1526.980
562.4108, 1539.858
562.8929, 1551.867
563.3750, 1546.244
563.8571, 1529.371
564.3392, 1519.992
564.8214, 1529.823
565.3035, 1549.326
565.7856, 1552.519
566.2677, 1530.066
566.7498, 1519.542
567.2319, 1536.299
567.7141, 1559.557
568.1962, 1579.789
568.6783, 1595.854
569.1604, 1606.666
569.6425, 1613.581
570.1246, 1613.873
570.6068, 1597.220
571.0889, 1565.314
571.5710, 1545.497
572.0531, 1552.242
572.5352, 1574.127
573.0173, 1588.574
573.4995, 1593.155
573.9816, 1597.691
574.4637, 1602.151
574.9458, 1607.629
575.4279, 1614.527
575.9100, 1623.149
576.3922, 1635.886
576.8743, 1655.909
577.3564, 1676.726
577.8385, 1673.491
578.3206, 1629.313
578.8027, 1602.659
579.2849, 1617.343
579.7670, 1643.262
580.2491, 1663.739
580.7312, 1677.665
581.2133, 1689.596
581.6954, 1704.891
582.1776, 1718.319
582.6597, 1718.292
583.1418, 1705.589
583.6239, 1696.589
584.1060, 1698.621
584.5881, 1709.181
585.0703, 1724.450
585.5524, 1750.649
