##NAMES=Khanneshite
##RRUFFID=R070672
##IDEAL CHEMISTRY=(Na,Ca)_3_(Ba,Sr,Ce,Ca)_3_(CO_3_)_5_
##LOCALITY=Tuliylukht Bay, Khibiny Massif, Kola Peninsula, Murmanskaja Oblast', Northern Region, Russia
##OWNER=RRUFF
##SOURCE=Michael Scott
##DESCRIPTION=Vitreous orange massive on single grain
##STATUS=The identification of this mineral is not yet confirmed.
##URL=rruff.info/R070672
200.2855, 5131.283
200.7676, 5104.478
201.2497, 5089.188
201.7318, 5088.337
202.2139, 5099.553
202.6961, 5120.087
203.1782, 5153.112
203.6603, 5183.036
204.1424, 5195.783
204.6245, 5187.680
205.1066, 5188.618
205.5888, 5207.877
206.0709, 5239.054
206.5530, 5247.840
207.0351, 5228.063
207.5172, 5201.125
207.9993, 5185.361
208.4815, 5182.809
208.9636, 5183.676
209.4457, 5187.058
209.9278, 5192.844
210.4099, 5196.696
210.8920, 5197.312
211.3742, 5198.076
211.8563, 5203.626
212.3384, 5216.148
212.8205, 5226.663
213.3026, 5232.537
213.7847, 5233.344
214.2669, 5233.657
214.7490, 5234.664
215.2311, 5233.865
215.7132, 5227.359
216.1953, 5214.606
216.6774, 5197.484
217.1596, 5174.335
217.6417, 5141.217
218.1238, 5120.203
218.6059, 5115.395
219.0880, 5120.396
219.5701, 5122.140
220.0523, 5120.579
220.5344, 5115.923
221.0165, 5106.896
221.4986, 5089.136
221.9807, 5078.625
222.4628, 5076.177
222.9450, 5080.910
223.4271, 5091.717
223.9092, 5114.398
224.3913, 5133.750
224.8734, 5142.008
225.3555, 5140.593
225.8377, 5123.565
226.3198, 5084.349
226.8019, 5027.715
227.2840, 4979.796
227.7661, 4941.893
228.2482, 4911.574
228.7303, 4889.364
229.2125, 4883.033
229.6946, 4868.147
230.1767, 4837.446
230.6588, 4792.114
231.1409, 4760.756
231.6230, 4752.033
232.1052, 4747.959
232.5873, 4732.002
233.0694, 4697.025
233.5515, 4664.727
234.0336, 4639.684
234.5157, 4622.282
234.9979, 4605.546
235.4800, 4590.046
235.9621, 4574.585
236.4442, 4557.510
236.9263, 4537.174
237.4084, 4518.284
237.8906, 4502.705
238.3727, 4491.765
238.8548, 4474.886
239.3369, 4444.732
239.8190, 4413.918
240.3011, 4401.488
240.7833, 4420.979
241.2654, 4436.745
241.7475, 4437.444
242.2296, 4418.261
242.7117, 4402.607
243.1938, 4391.608
243.6760, 4383.456
244.1581, 4376.200
244.6402, 4375.726
245.1223, 4366.546
245.6044, 4339.218
246.0865, 4278.928
246.5687, 4243.748
247.0508, 4246.254
247.5329, 4269.100
248.0150, 4273.068
248.4971, 4248.246
248.9792, 4219.118
249.4614, 4196.567
249.9435, 4183.765
250.4256, 4168.963
250.9077, 4150.475
251.3898, 4130.300
251.8719, 4114.059
252.3541, 4101.747
252.8362, 4093.466
253.3183, 4091.212
253.8004, 4102.380
254.2825, 4100.868
254.7646, 4079.987
255.2468, 4046.128
255.7289, 4024.707
256.2110, 4024.567
256.6931, 4023.613
257.1752, 4006.902
257.6573, 3964.582
258.1395, 3931.998
258.6216, 3912.887
259.1037, 3905.617
259.5858, 3903.691
260.0679, 3912.126
260.5500, 3917.809
261.0322, 3909.343
261.5143, 3878.445
261.9964, 3857.326
262.4785, 3854.666
262.9606, 3865.887
263.4427, 3858.225
263.9249, 3819.742
264.4070, 3781.760
264.8891, 3771.112
265.3712, 3799.352
265.8533, 3819.639
266.3354, 3822.772
266.8176, 3811.343
267.2997, 3808.687
267.7818, 3820.747
268.2639, 3830.924
268.7460, 3821.718
269.2281, 3786.303
269.7103, 3757.399
270.1924, 3743.032
270.6745, 3741.442
271.1566, 3735.444
271.6387, 3724.816
272.1208, 3710.400
272.6030, 3691.961
273.0851, 3668.217
273.5672, 3646.274
274.0493, 3626.920
274.5314, 3610.380
275.0135, 3602.380
275.4957, 3608.018
275.9778, 3610.083
276.4599, 3585.835
276.9420, 3530.349
277.4241, 3480.560
277.9063, 3447.788
278.3884, 3429.725
278.8705, 3409.748
279.3526, 3387.730
279.8347, 3364.133
280.3168, 3337.917
280.7990, 3308.529
281.2811, 3283.575
281.7632, 3268.749
282.2453, 3261.435
282.7274, 3240.687
283.2095, 3202.778
283.6917, 3164.554
284.1738, 3148.303
284.6559, 3154.313
285.1380, 3159.176
285.6201, 3155.299
286.1022, 3143.976
286.5844, 3130.048
287.0665, 3112.384
287.5486, 3096.937
288.0307, 3094.240
288.5128, 3103.310
288.9949, 3107.058
289.4771, 3096.962
289.9591, 3076.467
290.4413, 3058.057
290.9234, 3041.721
291.4055, 3028.289
291.8876, 3019.841
292.3697, 3015.826
292.8518, 3012.451
293.3340, 3010.799
293.8161, 3008.569
294.2982, 2997.152
294.7803, 2975.433
295.2624, 2952.725
295.7445, 2940.349
296.2267, 2936.009
296.7088, 2930.014
297.1909, 2916.904
297.6730, 2899.655
298.1551, 2884.362
298.6372, 2870.813
299.1194, 2860.250
299.6015, 2857.936
300.0836, 2860.437
300.5657, 2857.821
301.0478, 2844.210
301.5299, 2823.571
302.0121, 2800.497
302.4942, 2774.651
302.9763, 2749.897
303.4584, 2726.811
303.9405, 2707.141
304.4226, 2694.142
304.9048, 2697.665
305.3869, 2704.499
305.8690, 2696.688
306.3511, 2673.382
306.8332, 2650.218
307.3153, 2647.551
307.7975, 2652.457
308.2796, 2643.214
308.7617, 2591.610
309.2438, 2533.879
309.7259, 2504.840
310.2080, 2505.086
310.6902, 2509.271
311.1723, 2506.921
311.6544, 2496.931
312.1365, 2477.776
312.6186, 2436.264
313.1007, 2394.900
313.5829, 2370.797
314.0650, 2364.711
314.5471, 2359.042
315.0292, 2344.273
315.5113, 2325.121
315.9934, 2306.915
316.4756, 2288.141
316.9577, 2273.515
317.4398, 2268.893
317.9219, 2274.229
318.4040, 2273.616
318.8861, 2256.144
319.3683, 2231.850
319.8504, 2210.286
320.3325, 2193.865
320.8146, 2180.719
321.2967, 2172.889
321.7788, 2170.237
322.2610, 2162.655
322.7431, 2142.825
323.2252, 2119.676
323.7073, 2100.323
324.1894, 2084.785
324.6715, 2074.383
325.1537, 2073.469
325.6358, 2081.511
326.1179, 2081.707
326.6000, 2059.242
327.0821, 2035.994
327.5642, 2026.911
328.0464, 2055.818
328.5285, 2073.067
329.0106, 2068.612
329.4927, 2044.292
329.9748, 2025.824
330.4569, 2018.485
330.9391, 2012.641
331.4212, 2001.943
331.9033, 1981.019
332.3854, 1964.077
332.8675, 1954.500
333.3496, 1950.696
333.8318, 1940.995
334.3139, 1918.400
334.7960, 1899.190
335.2781, 1895.859
335.7602, 1919.820
336.2423, 1930.559
336.7245, 1919.473
337.2066, 1893.672
337.6887, 1880.431
338.1708, 1883.845
338.6529, 1891.107
339.1350, 1895.949
339.6172, 1898.712
340.0993, 1895.922
340.5814, 1884.040
341.0635, 1868.971
341.5456, 1867.140
342.0277, 1881.087
342.5099, 1896.619
342.9920, 1906.981
343.4741, 1912.262
343.9562, 1911.091
344.4383, 1901.795
344.9204, 1888.773
345.4026, 1879.321
345.8847, 1873.494
346.3668, 1869.817
346.8489, 1869.286
347.3310, 1870.680
347.8131, 1868.141
348.2953, 1836.602
348.7774, 1864.089
349.2595, 1878.299
349.7416, 1879.948
350.2237, 1831.272
350.7058, 1847.688
351.1880, 1838.083
351.6701, 1827.457
352.1522, 1853.168
352.6343, 1812.053
353.1164, 1837.283
353.5985, 1836.095
354.0807, 1847.065
354.5628, 1831.856
355.0449, 1824.794
355.5270, 1844.016
356.0091, 1848.757
356.4912, 1830.716
356.9734, 1842.739
357.4555, 1801.178
357.9376, 1806.726
358.4197, 1832.626
358.9018, 1816.139
359.3839, 1828.876
359.8661, 1830.548
360.3482, 1781.766
360.8303, 1820.857
361.3124, 1822.013
361.7945, 1784.217
362.2766, 1820.440
362.7588, 1788.115
363.2409, 1780.320
363.7230, 1790.999
364.2051, 1782.517
364.6872, 1804.366
365.1693, 1797.086
365.6515, 1787.247
366.1336, 1788.831
366.6157, 1758.226
367.0978, 1787.471
367.5799, 1775.913
368.0620, 1784.708
368.5442, 1798.152
369.0263, 1776.401
369.5084, 1792.007
369.9905, 1749.801
370.4726, 1756.055
370.9547, 1757.143
371.4369, 1789.222
371.9190, 1747.486
372.4011, 1752.583
372.8832, 1777.648
373.3653, 1774.885
373.8474, 1783.824
374.3295, 1758.309
374.8116, 1765.252
375.2938, 1763.309
375.7759, 1792.283
376.2580, 1796.933
376.7401, 1772.238
377.2222, 1747.715
377.7043, 1779.099
378.1865, 1757.585
378.6686, 1764.681
379.1507, 1742.325
379.6328, 1745.486
380.1149, 1748.291
380.5970, 1764.199
381.0792, 1740.562
381.5613, 1768.330
382.0434, 1766.461
382.5255, 1773.383
383.0076, 1779.379
383.4897, 1745.591
383.9719, 1744.502
384.4540, 1790.182
384.9361, 1764.656
385.4182, 1753.557
385.9003, 1752.730
386.3824, 1800.198
386.8646, 1802.867
387.3467, 1751.976
387.8288, 1797.460
388.3109, 1783.728
388.7930, 1787.654
389.2751, 1791.334
389.7573, 1791.451
390.2394, 1781.410
390.7215, 1773.931
391.2036, 1778.492
391.6857, 1787.542
392.1678, 1794.758
392.6500, 1799.425
393.1321, 1801.043
393.6142, 1793.651
394.0963, 1783.135
394.5784, 1781.177
395.0605, 1805.182
395.5427, 1828.047
396.0248, 1835.329
396.5069, 1821.197
396.9890, 1807.900
397.4711, 1797.185
397.9532, 1791.006
398.4354, 1791.660
398.9175, 1809.351
399.3996, 1823.956
399.8817, 1829.951
400.3638, 1826.421
400.8459, 1823.171
401.3281, 1817.254
401.8102, 1813.783
402.2923, 1817.893
402.7744, 1836.556
403.2565, 1850.007
403.7386, 1854.480
404.2208, 1851.168
404.7029, 1848.091
405.1850, 1844.994
405.6671, 1842.632
406.1492, 1840.792
406.6313, 1838.786
407.1135, 1842.257
407.5956, 1853.610
408.0777, 1868.914
408.5598, 1878.928
409.0419, 1883.305
409.5240, 1885.435
410.0062, 1888.375
410.4883, 1891.200
410.9704, 1887.110
411.4525, 1874.691
411.9346, 1859.232
412.4167, 1844.809
412.8989, 1832.464
413.3810, 1826.413
413.8631, 1835.031
414.3452, 1848.912
414.8273, 1853.450
415.3094, 1848.237
415.7916, 1837.848
416.2737, 1821.163
416.7558, 1802.717
417.2379, 1789.343
417.7200, 1786.593
418.2021, 1787.346
418.6843, 1787.324
419.1664, 1786.680
419.6485, 1786.198
420.1306, 1784.603
420.6127, 1784.300
421.0948, 1787.863
421.5770, 1803.176
422.0591, 1811.646
422.5412, 1802.418
423.0233, 1781.822
423.5054, 1767.436
423.9875, 1763.326
424.4697, 1765.208
424.9518, 1773.567
425.4339, 1797.659
425.9160, 1806.435
426.3981, 1788.406
426.8802, 1759.652
427.3624, 1742.186
427.8445, 1738.444
428.3266, 1742.429
428.8087, 1757.027
429.2908, 1783.026
429.7729, 1791.133
430.2551, 1773.355
430.7372, 1751.198
431.2193, 1745.819
431.7014, 1759.853
432.1835, 1773.928
432.6656, 1785.989
433.1478, 1794.868
433.6299, 1794.763
434.1120, 1785.037
434.5941, 1775.296
435.0762, 1773.111
435.5583, 1776.783
436.0405, 1779.104
436.5226, 1779.495
437.0047, 1777.389
437.4868, 1769.092
437.9689, 1756.788
438.4510, 1748.589
438.9332, 1756.014
439.4153, 1766.490
439.8974, 1760.854
440.3795, 1736.536
440.8616, 1716.410
441.3438, 1720.367
441.8259, 1737.618
442.3080, 1753.560
442.7901, 1768.899
443.2722, 1776.289
443.7543, 1765.991
444.2365, 1740.555
444.7186, 1723.166
445.2007, 1724.484
445.6828, 1734.358
446.1649, 1746.544
446.6470, 1769.602
447.1292, 1782.307
447.6113, 1774.994
448.0934, 1755.582
448.5755, 1745.702
449.0576, 1754.148
449.5397, 1761.991
450.0219, 1761.403
450.5040, 1748.285
450.9861, 1744.784
451.4682, 1755.967
451.9503, 1771.133
452.4324, 1774.955
452.9146, 1764.174
453.3967, 1756.698
453.8788, 1759.369
454.3609, 1769.238
454.8430, 1768.789
455.3251, 1756.320
455.8072, 1745.434
456.2893, 1748.880
456.7715, 1764.562
457.2536, 1783.159
457.7357, 1806.396
458.2178, 1825.424
458.6999, 1820.341
459.1820, 1797.058
459.6642, 1781.406
460.1463, 1802.955
460.6284, 1834.224
461.1105, 1836.965
461.5926, 1803.724
462.0747, 1770.554
462.5569, 1764.090
463.0390, 1772.401
463.5211, 1779.030
464.0032, 1778.518
464.4853, 1774.556
464.9674, 1767.620
465.4496, 1758.062
465.9317, 1748.671
466.4138, 1733.806
466.8959, 1723.606
467.3780, 1724.287
467.8601, 1753.365
468.3423, 1772.429
468.8244, 1777.818
469.3065, 1772.961
469.7886, 1765.613
470.2707, 1751.213
470.7528, 1741.605
471.2350, 1742.964
471.7171, 1757.544
472.1992, 1764.856
472.6813, 1761.999
473.1634, 1756.756
473.6455, 1761.077
474.1277, 1775.819
474.6098, 1782.458
475.0919, 1772.307
475.5740, 1753.141
476.0561, 1748.980
476.5382, 1759.665
477.0204, 1769.398
477.5025, 1763.374
477.9846, 1748.058
478.4667, 1736.622
478.9488, 1730.739
479.4309, 1730.418
479.9131, 1740.080
480.3952, 1755.523
480.8773, 1767.069
481.3594, 1764.891
481.8415, 1760.828
482.3236, 1764.755
482.8058, 1777.636
483.2879, 1786.745
483.7700, 1783.708
484.2521, 1776.133
484.7342, 1770.761
485.2163, 1764.860
485.6985, 1765.894
486.1806, 1780.968
486.6627, 1805.879
487.1448, 1820.277
487.6269, 1817.674
488.1090, 1811.746
488.5912, 1807.657
489.0733, 1805.653
489.5554, 1805.493
490.0375, 1809.605
490.5196, 1812.685
491.0017, 1804.487
491.4839, 1782.341
491.9660, 1766.615
492.4481, 1764.380
492.9302, 1772.736
493.4123, 1779.247
493.8944, 1783.755
494.3766, 1791.666
494.8587, 1816.236
495.3408, 1847.643
495.8229, 1857.434
496.3050, 1834.204
496.7871, 1804.184
497.2693, 1796.760
497.7514, 1804.701
498.2335, 1809.934
498.7156, 1793.834
499.1977, 1778.719
499.6798, 1786.420
500.1620, 1819.962
500.6441, 1843.459
501.1262, 1834.180
501.6083, 1812.278
502.0904, 1795.371
502.5725, 1792.111
503.0547, 1788.410
503.5368, 1781.031
504.0189, 1771.304
504.5010, 1764.405
504.9831, 1760.653
505.4652, 1759.447
505.9474, 1761.086
506.4295, 1766.399
506.9116, 1770.846
507.3937, 1774.541
507.8758, 1777.246
508.3579, 1779.053
508.8401, 1780.078
509.3222, 1777.844
509.8043, 1768.984
510.2864, 1757.926
510.7685, 1758.715
511.2506, 1771.034
511.7328, 1784.775
512.2148, 1795.638
512.6970, 1802.165
513.1791, 1800.201
513.6612, 1787.305
514.1433, 1773.519
514.6254, 1765.166
515.1075, 1762.254
515.5897, 1764.793
516.0718, 1781.770
516.5539, 1796.546
517.0360, 1796.409
517.5181, 1782.141
518.0002, 1774.762
518.4824, 1789.425
518.9645, 1806.760
519.4466, 1814.444
519.9287, 1801.083
520.4108, 1792.033
520.8929, 1789.278
521.3751, 1790.375
521.8572, 1790.973
522.3393, 1791.390
522.8214, 1790.620
523.3035, 1788.176
523.7856, 1784.122
524.2678, 1778.420
524.7499, 1769.869
525.2320, 1764.471
525.7141, 1771.163
526.1962, 1787.672
526.6783, 1798.104
527.1605, 1797.870
527.6426, 1793.510
528.1247, 1796.375
528.6068, 1803.812
529.0889, 1806.144
529.5710, 1787.702
530.0532, 1767.856
530.5353, 1770.966
531.0174, 1799.734
531.4995, 1819.714
531.9816, 1800.222
532.4637, 1769.218
532.9459, 1752.514
533.4280, 1771.647
533.9101, 1788.590
534.3922, 1793.948
534.8743, 1791.316
535.3564, 1792.653
535.8386, 1804.048
536.3207, 1812.642
536.8028, 1812.999
537.2849, 1803.464
537.7670, 1798.140
538.2491, 1798.078
538.7313, 1800.333
539.2134, 1803.022
539.6955, 1806.363
540.1776, 1805.069
540.6597, 1795.618
541.1418, 1784.116
541.6240, 1785.335
542.1061, 1797.828
542.5882, 1809.053
543.0703, 1809.959
543.5524, 1805.549
544.0345, 1803.755
544.5167, 1805.348
544.9988, 1805.303
545.4809, 1793.341
545.9630, 1780.216
546.4451, 1778.436
546.9272, 1805.499
547.4094, 1829.966
547.8915, 1842.000
548.3736, 1843.165
548.8557, 1839.380
549.3378, 1827.702
549.8199, 1814.622
550.3021, 1800.749
550.7842, 1783.641
551.2663, 1778.452
551.7484, 1792.313
552.2305, 1809.235
552.7126, 1810.104
553.1948, 1790.862
553.6769, 1783.775
554.1590, 1799.137
554.6411, 1824.794
555.1232, 1829.673
555.6053, 1814.846
556.0875, 1801.423
556.5696, 1802.408
557.0517, 1812.448
557.5338, 1824.732
558.0159, 1839.235
558.4980, 1848.526
558.9802, 1845.022
559.4623, 1833.516
559.9444, 1819.654
560.4265, 1796.005
560.9086, 1781.762
561.3907, 1793.997
561.8729, 1822.132
562.3550, 1837.466
562.8371, 1816.300
563.3192, 1799.107
563.8013, 1802.903
564.2834, 1832.163
564.7656, 1846.833
565.2477, 1839.564
565.7298, 1827.032
566.2119, 1824.661
566.6940, 1835.058
567.1761, 1839.292
567.6583, 1833.176
568.1404, 1822.491
568.6225, 1818.283
569.1046, 1820.137
569.5867, 1822.992
570.0688, 1825.479
570.5510, 1827.058
571.0331, 1825.534
571.5152, 1821.154
571.9973, 1818.833
572.4794, 1824.486
572.9615, 1832.953
573.4437, 1838.428
573.9258, 1837.496
574.4079, 1837.872
574.8900, 1844.390
575.3721, 1853.835
575.8542, 1860.327
576.3364, 1858.969
576.8185, 1858.998
577.3006, 1863.416
577.7827, 1871.973
578.2648, 1877.250
578.7469, 1878.960
579.2291, 1877.846
579.7112, 1871.937
580.1933, 1860.315
580.6754, 1859.627
581.1575, 1873.651
581.6396, 1890.674
582.1218, 1893.425
582.6039, 1884.418
583.0860, 1875.301
583.5681, 1869.859
584.0502, 1866.698
584.5323, 1863.548
585.0145, 1860.897
585.4966, 1861.068
585.9787, 1869.430
586.4608, 1878.310
586.9429, 1881.663
587.4250, 1877.577
587.9072, 1872.923
588.3893, 1867.738
588.8714, 1863.655
589.3535, 1862.496
589.8356, 1866.551
590.3177, 1870.015
590.7999, 1871.777
591.2820, 1872.744
591.7641, 1875.979
592.2462, 1882.132
592.7283, 1888.221
593.2104, 1893.388
593.6926, 1897.506
594.1747, 1899.171
594.6568, 1898.216
595.1389, 1896.590
595.6210, 1895.717
596.1031, 1895.513
596.5853, 1895.753
597.0674, 1896.198
597.5495, 1897.576
598.0316, 1902.733
598.5137, 1909.027
598.9958, 1911.439
599.4780, 1898.404
599.9601, 1890.615
600.4422, 1901.749
600.9243, 1930.906
601.4064, 1946.726
601.8885, 1937.375
602.3707, 1923.592
602.8528, 1914.647
603.3349, 1911.082
603.8170, 1911.203
604.2991, 1915.904
604.7813, 1922.727
605.2634, 1928.308
605.7455, 1932.650
606.2276, 1939.407
606.7097, 1951.444
607.1918, 1963.974
607.6740, 1968.632
608.1561, 1966.432
608.6382, 1962.203
609.1203, 1956.427
609.6024, 1951.464
610.0845, 1950.579
610.5667, 1954.135
611.0488, 1956.527
611.5309, 1950.241
612.0130, 1944.747
612.4951, 1947.692
612.9772, 1970.415
613.4594, 1987.223
613.9415, 1996.373
614.4236, 1999.358
614.9057, 1998.228
615.3878, 1991.471
615.8699, 1984.321
616.3521, 1977.439
616.8342, 1971.267
617.3163, 1969.483
617.7984, 1972.375
618.2805, 1973.971
618.7626, 1965.503
619.2448, 1953.536
619.7269, 1956.133
620.2090, 1976.423
620.6911, 1993.947
621.1732, 1988.834
621.6553, 1972.574
622.1375, 1959.991
622.6196, 1958.518
623.1017, 1957.786
623.5838, 1952.057
624.0659, 1944.583
624.5480, 1943.643
625.0302, 1953.101
625.5123, 1965.821
625.9944, 1983.302
626.4765, 2004.947
626.9586, 2011.634
627.4407, 1998.529
627.9229, 1983.580
628.4050, 1979.995
628.8871, 1986.843
629.3692, 1995.469
629.8513, 2006.422
630.3334, 2013.643
630.8156, 2008.305
631.2977, 1994.406
631.7798, 1980.270
632.2619, 1964.865
632.7440, 1954.914
633.2261, 1959.628
633.7083, 1974.196
634.1904, 1984.359
634.6725, 1979.410
635.1546, 1975.084
635.6367, 1979.168
636.1188, 1993.273
636.6010, 2001.668
637.0831, 2002.437
637.5652, 2000.085
638.0473, 1996.137
638.5294, 1989.475
639.0115, 1990.227
639.4937, 2000.924
639.9758, 2014.007
640.4579, 2019.104
640.9400, 2017.386
641.4221, 2014.210
641.9042, 2008.748
642.3864, 2005.759
642.8685, 2013.779
643.3506, 2029.560
643.8327, 2042.384
644.3148, 2043.844
644.7969, 2043.685
645.2791, 2048.441
645.7612, 2059.015
646.2433, 2066.060
646.7254, 2068.768
647.2075, 2066.981
647.6896, 2059.238
648.1718, 2040.106
648.6539, 2030.491
649.1360, 2033.695
649.6181, 2041.601
650.1002, 2041.410
650.5823, 2033.638
651.0645, 2031.146
651.5466, 2039.058
652.0287, 2051.602
652.5108, 2061.960
652.9929, 2069.614
653.4750, 2072.066
653.9572, 2061.135
654.4393, 2049.933
654.9214, 2049.830
655.4035, 2061.131
655.8856, 2069.912
656.3677, 2071.620
656.8499, 2069.676
657.3320, 2065.491
657.8141, 2056.488
658.2962, 2052.550
658.7783, 2056.750
659.2604, 2062.377
659.7426, 2058.236
660.2246, 2042.540
660.7067, 2039.257
661.1888, 2056.595
661.6710, 2083.169
662.1531, 2101.534
662.6352, 2112.094
663.1173, 2116.600
663.5994, 2111.607
664.0815, 2103.970
664.5637, 2100.086
665.0458, 2099.654
665.5279, 2098.787
666.0100, 2091.519
666.4921, 2086.680
666.9742, 2090.637
667.4564, 2109.192
667.9385, 2120.894
668.4206, 2121.782
668.9027, 2119.822
669.3848, 2122.950
669.8669, 2132.310
670.3491, 2139.518
670.8312, 2143.644
671.3133, 2145.148
671.7954, 2143.563
672.2775, 2139.569
672.7596, 2136.559
673.2418, 2133.770
673.7239, 2134.379
674.2060, 2146.039
674.6881, 2165.206
675.1702, 2178.228
675.6523, 2169.814
676.1345, 2161.116
676.6166, 2163.506
677.0987, 2178.994
677.5808, 2197.154
678.0629, 2220.573
678.5450, 2243.295
679.0272, 2261.012
679.5093, 2272.903
679.9914, 2284.158
680.4735, 2294.600
680.9556, 2305.287
681.4377, 2318.162
681.9199, 2332.758
682.4020, 2345.258
682.8841, 2351.308
683.3662, 2360.864
683.8483, 2393.206
684.3304, 2437.562
684.8126, 2469.366
685.2947, 2463.432
685.7768, 2455.852
686.2589, 2465.331
686.7410, 2490.812
687.2231, 2508.107
687.7053, 2505.339
688.1874, 2507.013
688.6695, 2526.464
689.1516, 2566.293
689.6337, 2594.237
690.1158, 2608.956
690.5980, 2617.736
691.0801, 2625.865
691.5622, 2633.765
692.0443, 2643.197
692.5264, 2655.286
693.0085, 2665.688
693.4907, 2669.917
693.9728, 2669.793
694.4549, 2668.273
694.9370, 2658.762
695.4191, 2656.157
695.9012, 2669.021
696.3834, 2692.770
696.8655, 2714.397
697.3476, 2737.685
