##NAMES=Khinite
##RRUFFID=R080124
##IDEAL CHEMISTRY=Cu^2+^_3_Pb^2+^Te^6+^O_6_(OH)_2_
##LOCALITY=400 ft. level, Empire mine, Tombstone, Arizona
##OWNER=RRUFF
##SOURCE=William W. Pinch
##DESCRIPTION=Aggregates of dark emerald-green hexagonal prismatic crystals, this is the -3T polytype, previously known as parakhinite. Sample was used in the Hawthorne et al (2008) study
##STATUS=The identification of this mineral has been confirmed by single-crystal X-ray diffraction.
##URL=rruff.info/R080124
90.52570, 0.0000000E+00
91.00781, 11.01402
91.48993, 10.97232
91.97205, 10.95599
92.45416, 10.92731
92.93628, 10.92503
93.41840, 11.04988
93.90051, 11.34776
94.38263, 11.72484
94.86475, 12.04578
95.34686, 12.31078
95.82898, 12.53962
96.31110, 12.68248
96.79321, 12.75929
97.27533, 12.99288
97.75745, 13.46883
98.23956, 14.13093
98.72168, 14.68632
99.20380, 15.06949
99.68591, 15.53296
100.1680, 16.40248
100.6501, 17.74742
101.1323, 19.11807
101.6144, 20.33000
102.0965, 21.34900
102.5786, 22.61690
103.0607, 24.15314
103.5428, 25.92941
104.0250, 27.94244
104.5071, 30.18896
104.9892, 32.65195
105.4713, 35.37980
105.9534, 38.71541
106.4355, 41.54746
106.9177, 43.73039
107.3998, 45.40477
107.8819, 47.08344
108.3640, 48.76244
108.8461, 50.42952
109.3282, 52.10173
109.8104, 53.53392
110.2925, 55.21153
110.7746, 57.21357
111.2567, 59.50076
111.7388, 61.85484
112.2209, 64.00978
112.7031, 66.32874
113.1852, 69.09014
113.6673, 72.93543
114.1494, 76.64365
114.6315, 79.84399
115.1136, 82.53849
115.5958, 85.21036
116.0779, 87.84217
116.5600, 90.58535
117.0421, 93.59640
117.5242, 97.33298
118.0063, 101.0854
118.4885, 104.4466
118.9706, 107.2987
119.4527, 110.2088
119.9348, 113.4874
120.4169, 117.0254
120.8990, 120.6796
121.3812, 124.8423
121.8633, 128.8496
122.3454, 131.9872
122.8275, 134.0517
123.3096, 135.5492
123.7917, 136.4587
124.2739, 137.0157
124.7560, 138.0847
125.2381, 140.4953
125.7202, 143.7567
126.2023, 146.9648
126.6844, 149.8156
127.1666, 152.7062
127.6487, 156.2128
128.1308, 160.3334
128.6129, 164.7214
129.0950, 169.2776
129.5771, 173.9432
130.0593, 178.6166
130.5414, 183.7511
131.0235, 188.6466
131.5056, 191.0252
131.9877, 190.0363
132.4698, 187.1166
132.9520, 184.3048
133.4341, 181.6230
133.9162, 179.7365
134.3983, 178.8249
134.8804, 178.8616
135.3625, 179.8820
135.8447, 181.9701
136.3268, 184.7827
136.8089, 188.2247
137.2910, 192.5394
137.7731, 196.1699
138.2552, 198.7299
138.7374, 200.2912
139.2195, 200.1609
139.7016, 198.0209
140.1837, 194.5339
140.6658, 190.8853
141.1479, 186.6581
141.6301, 183.1055
142.1122, 180.7959
142.5943, 179.9486
143.0764, 179.6699
143.5585, 179.9252
144.0406, 180.7028
144.5228, 182.1275
145.0049, 184.9077
145.4870, 187.4373
145.9691, 188.8363
146.4512, 188.9482
146.9333, 188.2260
147.4155, 186.5023
147.8976, 183.8585
148.3797, 181.1810
148.8618, 178.5167
149.3439, 175.7596
149.8260, 172.8446
150.3082, 168.9449
150.7903, 165.7690
151.2724, 163.5758
151.7545, 162.3939
152.2366, 161.2920
152.7188, 160.0207
153.2009, 158.9085
153.6830, 158.2342
154.1651, 158.5296
154.6472, 158.7582
155.1293, 158.6212
155.6115, 158.0506
156.0936, 157.6109
156.5757, 157.6954
157.0578, 157.8598
157.5399, 157.6165
158.0220, 156.2222
158.5042, 154.9495
158.9863, 154.4321
159.4684, 154.9290
159.9505, 155.1322
160.4326, 154.2447
160.9147, 152.8873
161.3969, 151.9816
161.8790, 152.4174
162.3611, 152.9751
162.8432, 152.9198
163.3253, 151.9372
163.8074, 151.0214
164.2896, 150.5122
164.7717, 150.3842
165.2538, 150.5906
165.7359, 150.9864
166.2180, 151.7704
166.7001, 153.2560
167.1823, 155.8873
167.6644, 158.2965
168.1465, 159.6555
168.6286, 160.1101
169.1107, 160.0674
169.5928, 159.3492
170.0750, 158.4158
170.5571, 157.6985
171.0392, 157.2245
171.5213, 157.1177
172.0034, 157.6443
172.4855, 158.7033
172.9677, 159.8260
173.4498, 160.6479
173.9319, 161.3734
174.4140, 162.2982
174.8961, 163.5590
175.3782, 164.9833
175.8604, 166.4655
176.3425, 168.0033
176.8246, 169.5133
177.3067, 170.9280
177.7888, 172.2899
178.2709, 173.6673
178.7531, 175.1419
179.2352, 176.6135
179.7173, 177.8913
180.1994, 178.9886
180.6815, 180.1035
181.1636, 181.1390
181.6458, 182.2828
182.1279, 184.0841
182.6100, 187.0539
183.0921, 190.6557
183.5742, 193.9225
184.0563, 196.7916
184.5385, 199.4713
185.0206, 202.0281
185.5027, 204.5086
185.9848, 207.0174
186.4669, 209.6902
186.9490, 212.4140
187.4312, 214.9377
187.9133, 217.2020
188.3954, 219.3573
188.8775, 221.3646
189.3596, 223.2612
189.8417, 225.5362
190.3239, 228.4751
190.8060, 231.9782
191.2881, 235.3606
191.7702, 238.5300
192.2523, 241.8011
192.7344, 245.7744
193.2166, 250.4342
193.6987, 254.9013
194.1808, 258.6531
194.6629, 261.7796
195.1450, 265.5695
195.6271, 270.1218
196.1093, 275.0841
196.5914, 279.9772
197.0735, 284.7920
197.5556, 289.6422
198.0377, 294.6502
198.5198, 299.8607
199.0020, 304.7359
199.4841, 309.2978
199.9662, 313.4936
200.4483, 317.7464
200.9304, 322.3567
201.4125, 325.2063
201.8947, 325.5117
202.3768, 323.2805
202.8589, 318.2326
203.3410, 309.8402
203.8231, 299.2979
204.3052, 288.7097
204.7874, 277.9206
205.2695, 267.5012
205.7516, 257.6588
206.2337, 248.3804
206.7158, 239.7425
207.1979, 231.7044
207.6801, 224.3139
208.1622, 217.8345
208.6443, 212.3183
209.1264, 207.4158
209.6085, 203.0799
210.0906, 199.4465
210.5728, 195.6950
211.0549, 191.6914
211.5370, 187.6758
212.0191, 184.3287
212.5012, 181.7691
212.9833, 179.5185
213.4655, 177.3312
213.9476, 175.0669
214.4297, 173.3010
214.9118, 171.3382
215.3939, 171.5720
215.8760, 171.3548
216.3581, 170.7107
216.8403, 168.3611
217.3224, 168.2137
217.8045, 167.1839
218.2866, 166.1179
218.7687, 166.2805
219.2508, 167.3864
219.7330, 168.4289
220.2151, 168.5860
220.6972, 168.1121
221.1793, 166.9793
221.6614, 164.7185
222.1435, 163.0473
222.6257, 162.1170
223.1078, 161.7498
223.5899, 161.4138
224.0720, 160.9758
224.5541, 160.7867
225.0362, 161.0816
225.5184, 162.1920
226.0005, 162.9518
226.4826, 163.2206
226.9647, 163.1655
227.4468, 163.2467
227.9289, 163.4783
228.4111, 163.8322
228.8932, 164.3329
229.3753, 165.1271
229.8574, 165.7125
230.3395, 165.9834
230.8216, 166.0616
231.3038, 166.2633
231.7859, 166.5206
232.2680, 166.9989
232.7501, 167.8177
233.2322, 169.2130
233.7143, 170.4014
234.1965, 171.3093
234.6786, 172.0269
235.1607, 172.7847
235.6428, 173.4342
236.1249, 174.3339
236.6070, 175.7050
237.0892, 177.9174
237.5713, 179.7749
238.0534, 181.2112
238.5355, 182.3071
239.0176, 183.2272
239.4997, 183.7725
239.9819, 184.4468
240.4640, 185.5098
240.9461, 187.2676
241.4282, 188.7038
241.9103, 189.7645
242.3924, 190.5227
242.8746, 191.1481
243.3567, 191.6482
243.8388, 192.0081
244.3209, 192.1973
244.8030, 192.1209
245.2851, 192.1429
245.7673, 192.3593
246.2494, 192.6384
246.7315, 192.6642
247.2136, 192.2404
247.6957, 191.8790
248.1778, 191.8189
248.6600, 192.2350
249.1421, 192.3821
249.6242, 191.9896
250.1063, 191.4714
250.5884, 191.6269
251.0705, 192.5707
251.5527, 194.0010
252.0348, 195.8642
252.5169, 198.3135
252.9990, 200.6659
253.4811, 202.7756
253.9632, 204.9071
254.4454, 207.5733
254.9275, 211.1872
255.4096, 214.5660
255.8917, 217.1499
256.3738, 218.5666
256.8560, 220.8812
257.3381, 224.4168
257.8202, 228.5924
258.3023, 232.5857
258.7844, 236.1900
259.2665, 239.9776
259.7487, 244.1906
260.2308, 248.8877
260.7129, 253.4240
261.1950, 257.6096
261.6771, 261.8167
262.1592, 266.5785
262.6414, 272.0070
263.1235, 277.6071
263.6056, 283.2040
264.0877, 288.8460
264.5698, 294.5463
265.0519, 300.4462
265.5341, 306.1898
266.0162, 311.3193
266.4983, 315.5326
266.9804, 319.9744
267.4625, 325.1151
267.9446, 330.8944
268.4268, 336.2542
268.9089, 341.1867
269.3910, 345.5314
269.8731, 349.0494
270.3552, 351.5597
270.8373, 353.9504
271.3195, 356.8180
271.8016, 359.9206
272.2837, 360.8924
272.7658, 359.5910
273.2479, 356.4688
273.7300, 351.7026
274.2122, 345.1647
274.6943, 337.8871
275.1764, 329.9085
275.6585, 321.3909
276.1406, 313.1068
276.6227, 305.0154
277.1049, 297.2998
277.5870, 289.8328
278.0691, 282.5044
278.5512, 276.8624
279.0333, 273.6628
279.5154, 272.0566
279.9976, 268.8255
280.4797, 263.5285
280.9618, 258.8391
281.4439, 256.9520
281.9260, 257.9080
282.4081, 258.4113
282.8903, 257.7264
283.3724, 256.7026
283.8545, 257.5124
284.3366, 260.2719
284.8187, 263.6383
285.3008, 266.6401
285.7830, 269.3817
286.2651, 272.8280
286.7472, 277.2033
287.2293, 282.0944
287.7114, 286.9290
288.1935, 291.7033
288.6757, 296.1235
289.1578, 299.7681
289.6399, 302.8317
290.1220, 306.1350
290.6041, 309.7696
291.0862, 313.5575
291.5684, 317.3481
292.0505, 321.1344
292.5326, 324.6878
293.0147, 327.6272
293.4968, 330.2479
293.9789, 333.4987
294.4611, 337.3744
294.9432, 341.8769
295.4253, 347.1291
295.9074, 353.0728
296.3895, 359.2964
296.8716, 365.5296
297.3538, 372.0073
297.8359, 379.3040
298.3180, 387.5006
298.8001, 396.0958
299.2822, 405.1071
299.7643, 414.3046
300.2465, 422.9643
300.7286, 430.9368
301.2107, 438.1541
301.6928, 444.8141
302.1749, 450.8251
302.6570, 455.6664
303.1392, 459.2490
303.6213, 461.2895
304.1034, 461.2071
304.5855, 458.6582
305.0676, 454.1522
305.5497, 447.8544
306.0319, 439.9153
306.5140, 430.7817
306.9961, 420.3830
307.4782, 409.2117
307.9603, 397.5994
308.4424, 385.3937
308.9246, 373.3661
309.4067, 361.8287
309.8888, 350.9410
310.3709, 340.9482
310.8530, 332.7993
311.3351, 325.2716
311.8173, 317.1530
312.2994, 307.7440
312.7815, 299.0280
313.2636, 292.6613
313.7457, 287.8345
314.2278, 283.0568
314.7100, 277.5729
315.1921, 272.0991
315.6742, 267.0632
316.1563, 262.5580
316.6384, 258.2766
317.1205, 254.3771
317.6027, 250.6231
318.0848, 246.7351
318.5669, 242.3553
319.0490, 238.0648
319.5311, 234.1818
320.0132, 230.7376
320.4954, 227.1467
320.9775, 223.0862
321.4596, 218.9079
321.9417, 214.9716
322.4238, 211.4765
322.9059, 208.0933
323.3881, 204.8023
323.8702, 201.6138
324.3523, 198.3293
324.8344, 194.5914
325.3165, 190.9744
325.7986, 187.7828
326.2808, 185.4562
326.7629, 183.0700
327.2450, 180.3481
327.7271, 177.4683
328.2092, 175.1260
328.6913, 173.8978
329.1735, 172.7078
329.6556, 171.0889
330.1377, 168.6877
330.6198, 166.5243
331.1019, 164.6416
331.5840, 162.9868
332.0662, 161.4129
332.5483, 159.8019
333.0304, 158.4337
333.5125, 157.5063
333.9946, 157.1509
334.4767, 156.4335
334.9589, 155.0879
335.4410, 153.6481
335.9231, 152.8732
336.4052, 153.0922
336.8873, 153.1181
337.3694, 152.5843
337.8515, 151.5387
338.3336, 150.7909
338.8158, 150.4344
339.2979, 150.1814
339.7800, 149.6855
340.2621, 148.8687
340.7442, 148.4153
341.2263, 148.5282
341.7085, 149.0517
342.1906, 149.5184
342.6727, 149.9464
343.1548, 150.2308
343.6369, 150.2157
344.1190, 149.9256
344.6012, 149.7668
345.0833, 149.7757
345.5654, 149.9437
346.0475, 150.2930
346.5296, 150.8128
347.0117, 151.3870
347.4939, 152.0497
347.9760, 152.7177
348.4581, 153.0190
348.9402, 152.8571
349.4223, 152.7722
349.9044, 153.4503
350.3866, 154.7368
350.8687, 156.1090
351.3508, 157.6682
351.8329, 159.0587
352.3150, 159.4358
352.7971, 158.8374
353.2793, 158.4771
353.7614, 159.5991
354.2435, 161.5348
354.7256, 163.1837
355.2077, 164.0127
355.6898, 164.7073
356.1720, 165.8614
356.6541, 167.4131
357.1362, 169.0762
357.6183, 170.8946
358.1004, 172.6558
358.5826, 174.1647
359.0647, 175.3570
359.5468, 176.3661
360.0289, 177.3394
360.5110, 178.1758
360.9931, 178.6833
361.4753, 178.5112
361.9574, 178.2057
362.4395, 178.0860
362.9216, 178.2373
363.4037, 178.2093
363.8858, 177.9150
364.3680, 177.3583
364.8501, 176.5397
365.3322, 174.9310
365.8143, 173.6154
366.2964, 173.0476
366.7785, 173.2074
367.2607, 173.0578
367.7428, 171.9530
368.2249, 170.8753
368.7070, 170.4350
369.1891, 171.7336
369.6712, 172.2032
370.1534, 171.3650
370.6355, 169.6337
371.1176, 168.2899
371.5997, 167.3812
372.0818, 166.7922
372.5639, 166.4971
373.0461, 166.5603
373.5282, 166.7048
374.0103, 166.9581
374.4924, 167.2641
374.9745, 167.5216
375.4566, 167.6936
375.9388, 167.9330
376.4209, 168.2541
376.9030, 168.6715
377.3851, 169.3514
377.8672, 170.3678
378.3493, 171.4516
378.8315, 172.2498
379.3136, 172.7624
379.7957, 173.6017
380.2778, 175.0109
380.7599, 176.6980
381.2420, 177.8091
381.7242, 178.3262
382.2063, 179.1848
382.6884, 181.2640
383.1705, 184.2168
383.6526, 186.7338
384.1347, 188.6093
384.6169, 190.3401
385.0990, 192.2400
385.5811, 194.4219
386.0632, 197.1836
386.5453, 201.6267
387.0274, 206.3022
387.5096, 208.8172
387.9917, 209.1630
388.4738, 209.5183
388.9559, 211.5169
389.4380, 214.5322
389.9201, 217.8057
390.4023, 221.4366
390.8844, 224.8343
391.3665, 227.6940
391.8486, 230.0337
392.3307, 231.8073
392.8128, 232.5959
393.2950, 233.0738
393.7771, 233.7649
394.2592, 234.9595
394.7413, 235.7924
395.2234, 236.1523
395.7055, 235.9330
396.1877, 234.9715
396.6698, 232.4705
397.1519, 229.9475
397.6340, 227.9731
398.1161, 226.6763
398.5982, 224.9378
399.0804, 222.3112
399.5625, 219.4489
400.0446, 216.8266
400.5267, 214.6662
401.0088, 212.4145
401.4909, 209.9345
401.9731, 207.3329
402.4552, 205.1294
402.9373, 203.6163
403.4194, 202.0257
403.9015, 199.9115
404.3836, 197.0455
404.8658, 194.5296
405.3479, 192.3676
405.8300, 190.5791
406.3121, 189.2744
406.7942, 188.5212
407.2763, 187.7547
407.7585, 186.7807
408.2406, 185.6332
408.7227, 184.5135
409.2048, 183.4162
409.6869, 182.4068
410.1690, 181.4921
410.6512, 180.7060
411.1333, 180.1893
411.6154, 180.0023
412.0975, 180.0369
412.5796, 180.1064
413.0617, 180.2390
413.5439, 180.5654
414.0260, 181.2735
414.5081, 182.1838
414.9902, 183.0188
415.4723, 183.7521
415.9544, 184.5371
416.4366, 185.5427
416.9187, 186.6657
417.4008, 187.7462
417.8829, 188.3524
418.3650, 189.2259
418.8471, 190.9888
419.3293, 193.4932
419.8114, 195.9549
420.2935, 197.8278
420.7756, 199.6679
421.2577, 201.7727
421.7398, 204.1559
422.2220, 206.9390
422.7041, 210.4638
423.1862, 214.3794
423.6683, 218.0632
424.1504, 221.2446
424.6325, 224.4422
425.1147, 227.7644
425.5968, 231.2715
426.0789, 234.7235
426.5610, 237.7970
427.0431, 241.1097
427.5252, 245.1600
428.0074, 250.1806
428.4895, 255.4089
428.9716, 260.7752
429.4537, 266.2175
429.9358, 271.3937
430.4179, 276.1489
430.9001, 281.1189
431.3822, 286.7436
431.8643, 293.0385
432.3464, 298.7714
432.8285, 303.7934
433.3106, 308.7295
433.7928, 314.5418
434.2749, 321.1043
434.7570, 327.3792
435.2391, 333.1408
435.7212, 338.3473
436.2033, 342.7309
436.6855, 346.3233
437.1676, 349.8119
437.6497, 354.1537
438.1318, 358.5609
438.6139, 361.8330
439.0960, 363.7418
439.5782, 364.6486
440.0603, 364.6547
440.5424, 363.8820
441.0245, 362.5698
441.5066, 361.1312
441.9887, 358.9220
442.4709, 355.3139
442.9530, 350.3403
443.4351, 345.1776
443.9172, 340.5517
444.3993, 335.7651
444.8814, 330.3589
445.3636, 323.5407
445.8457, 317.0004
446.3278, 311.0019
446.8099, 305.4703
447.2920, 300.0612
447.7741, 294.8828
448.2563, 289.6534
448.7384, 284.2843
449.2205, 278.6296
449.7026, 273.5718
450.1847, 269.1872
450.6668, 265.3772
451.1490, 262.1400
451.6311, 259.5775
452.1132, 257.1550
452.5953, 254.7137
453.0774, 252.4077
453.5595, 250.6238
454.0417, 249.4082
454.5238, 248.2139
455.0059, 246.6219
455.4880, 244.7544
455.9701, 243.1520
456.4522, 241.8332
456.9344, 240.8094
457.4165, 240.0484
457.8986, 239.5836
458.3807, 239.5396
458.8628, 240.0271
459.3449, 240.8674
459.8271, 241.9745
460.3092, 243.2995
460.7913, 244.6488
461.2734, 245.6603
461.7555, 246.7919
462.2376, 248.5748
462.7198, 251.2291
463.2019, 253.7543
463.6840, 255.5013
464.1661, 256.8963
464.6482, 258.4549
465.1303, 260.3247
465.6125, 262.3517
466.0946, 264.6612
466.5767, 267.2030
467.0588, 269.3512
467.5409, 270.8915
468.0230, 272.1840
468.5052, 273.4084
468.9873, 274.7219
469.4694, 275.5500
469.9515, 275.6808
470.4336, 275.5146
470.9157, 275.6355
471.3979, 276.1440
471.8800, 276.5976
472.3621, 276.8399
472.8442, 276.9442
473.3263, 277.3143
473.8084, 277.9847
474.2906, 278.6515
474.7727, 278.9454
475.2548, 278.9990
475.7369, 279.4604
476.2190, 280.4079
476.7011, 281.7170
477.1833, 283.3180
477.6654, 285.1761
478.1475, 287.2039
478.6296, 289.7516
479.1117, 292.1833
479.5938, 293.6009
480.0760, 294.1723
480.5581, 294.9696
481.0402, 296.8865
481.5223, 299.1305
482.0044, 301.0666
482.4865, 302.4840
482.9687, 303.8070
483.4508, 304.9468
483.9329, 306.1427
484.4150, 307.7162
484.8971, 310.3002
485.3792, 312.6725
485.8614, 314.4060
486.3435, 315.5645
486.8256, 317.0868
487.3077, 319.1770
487.7898, 321.3681
488.2719, 323.3740
488.7541, 324.9679
489.2362, 326.9316
489.7183, 329.1656
490.2004, 331.9117
490.6825, 335.7898
491.1646, 340.9403
491.6468, 345.9258
492.1289, 350.2605
492.6110, 354.1892
493.0931, 358.7120
493.5752, 363.8430
494.0573, 369.1158
494.5395, 374.3250
495.0216, 379.4443
495.5037, 384.5392
495.9858, 389.5025
496.4679, 394.5569
496.9500, 399.9943
497.4322, 405.5948
497.9143, 410.8952
498.3964, 416.2653
498.8785, 420.8102
499.3606, 424.1048
499.8427, 426.1696
500.3249, 426.8909
500.8070, 426.3830
501.2891, 424.4479
501.7712, 420.9855
502.2533, 416.0008
502.7354, 409.4807
503.2176, 400.8253
503.6997, 390.9671
504.1818, 380.7658
504.6639, 370.0317
505.1460, 359.2709
505.6281, 348.4854
506.1103, 337.6909
506.5924, 327.3075
507.0745, 317.2993
507.5566, 307.8197
508.0387, 298.9348
508.5208, 290.6445
509.0030, 282.7587
509.4851, 275.1565
509.9672, 268.6466
510.4493, 264.7444
510.9314, 262.7617
511.4135, 260.2856
511.8957, 256.4796
512.3778, 252.4072
512.8599, 249.0965
513.3420, 246.5224
513.8242, 244.6135
514.3063, 243.4939
514.7884, 242.8876
515.2705, 242.6768
515.7526, 242.8534
516.2347, 243.1337
516.7169, 243.1798
517.1990, 243.4144
517.6811, 244.1731
518.1632, 246.0631
518.6453, 247.7178
519.1274, 248.7411
519.6096, 249.4928
520.0917, 250.6150
520.5738, 252.2219
521.0559, 254.0043
521.5380, 255.9621
522.0201, 258.0738
522.5023, 259.9039
522.9844, 261.3525
523.4665, 262.8303
523.9486, 264.6916
524.4307, 266.9215
524.9128, 269.0243
525.3950, 270.9195
525.8771, 272.7589
526.3592, 274.7183
526.8413, 276.7685
527.3234, 278.9003
527.8055, 281.2692
528.2877, 283.5249
528.7698, 285.1480
529.2519, 286.2600
529.7340, 287.4477
530.2161, 288.8397
530.6982, 290.5656
531.1804, 292.9751
531.6625, 296.2600
532.1446, 299.0316
532.6267, 300.4636
533.1088, 301.3397
533.5909, 302.3605
534.0731, 303.4415
534.5552, 304.9211
535.0373, 307.0116
535.5194, 309.4793
536.0015, 311.8530
536.4836, 314.0793
536.9658, 316.2720
537.4479, 318.4057
537.9300, 320.4798
538.4121, 322.7541
538.8942, 325.2108
539.3763, 327.8809
539.8585, 330.8333
540.3406, 334.0352
540.8227, 337.2609
541.3048, 340.4659
541.7869, 343.8558
542.2690, 347.7387
542.7512, 352.0211
543.2333, 356.4728
543.7154, 361.1057
544.1975, 365.7791
544.6796, 370.8902
545.1617, 376.1511
545.6439, 380.0742
546.1260, 380.5316
546.6081, 380.5700
547.0902, 382.2531
547.5723, 386.4248
548.0544, 389.5268
548.5366, 391.0055
549.0187, 391.2426
549.5008, 390.5436
549.9829, 388.3620
550.4650, 386.3027
550.9471, 384.8559
551.4293, 383.4222
551.9114, 380.4931
552.3935, 375.9116
552.8756, 370.5905
553.3577, 364.7618
553.8398, 358.4772
554.3220, 351.8398
554.8041, 344.8072
555.2862, 337.8943
555.7683, 331.2227
556.2504, 324.9590
556.7325, 319.4191
557.2147, 314.7457
557.6968, 310.2468
558.1789, 305.2736
558.6610, 300.0954
559.1431, 295.1606
559.6252, 290.2465
560.1074, 286.0006
560.5895, 282.8602
561.0716, 280.6178
561.5537, 278.6420
562.0358, 276.9847
562.5179, 275.3753
563.0001, 273.6753
563.4822, 271.8550
563.9643, 270.3259
564.4464, 269.0909
564.9285, 268.1440
565.4106, 267.5418
565.8928, 267.3529
566.3749, 267.0962
566.8570, 266.7977
567.3391, 266.2795
567.8212, 265.1767
568.3033, 263.5456
568.7855, 261.9120
569.2676, 260.6646
569.7497, 259.2795
570.2318, 256.8284
570.7139, 253.5000
571.1960, 249.9166
571.6782, 246.6523
572.1603, 243.1807
572.6424, 238.9796
573.1245, 233.9182
573.6066, 228.9998
574.0887, 224.5031
574.5709, 220.3186
575.0530, 216.3186
575.5351, 212.6151
576.0172, 208.8413
576.4993, 204.8006
576.9814, 200.7666
577.4636, 197.2591
577.9457, 194.3933
578.4278, 191.7554
578.9099, 189.2832
579.3920, 187.0038
579.8741, 185.0076
580.3563, 183.3038
580.8384, 181.8873
581.3205, 180.9048
581.8026, 180.1907
582.2847, 179.2649
582.7668, 178.1030
583.2490, 177.0246
583.7311, 176.4246
584.2131, 176.0229
584.6953, 175.4262
