##NAMES=Kidwellite
##RRUFFID=R060324
##IDEAL CHEMISTRY=NaFe^3+^_9+x_(PO_4_)_6_(OH)_11_&#183;3H_2_O (x &#8776; 1/3)
##LOCALITY=York mine, Polk County, Arkansas, USA
##OWNER=RRUFF
##SOURCE=Michael Scott
##DESCRIPTION=Light green radiating acicular crystals forming a spherical mat
##STATUS=The identification of this mineral has been confirmed by X-ray diffraction and chemical analysis
##URL=rruff.info/R060324
##MEASURED CHEMISTRY=(Na_0.98_Ca_0.02_)_Σ=1_(Fe^3+^_8.77_Al_0.21_Fe^2+^_0.02_)_Σ=9_(P_1.00_O_4_)_6_(OH)_11_·3H_2_O; OH estimated by charge balance; H_2_O by difference
90.97430, 49.97829
91.45642, 49.93938
91.93854, 49.81544
92.42065, 49.81592
92.90277, 50.44896
93.38489, 51.90859
93.86700, 53.28809
94.34912, 53.43872
94.83124, 52.48561
95.31335, 51.12512
95.79547, 49.31665
96.27759, 47.32863
96.75970, 46.27934
97.24182, 46.52046
97.72394, 47.54255
98.20605, 48.35299
98.68817, 48.95299
99.17029, 49.34465
99.65240, 49.52126
100.1345, 49.47803
100.6166, 49.26323
101.0988, 48.80305
101.5809, 48.15075
102.0630, 47.80981
102.5451, 47.94137
103.0272, 48.09288
103.5093, 47.70552
103.9915, 46.56983
104.4736, 45.42486
104.9557, 44.29878
105.4378, 43.00733
105.9199, 42.89791
106.4020, 44.87500
106.8842, 47.59099
107.3663, 48.65955
107.8484, 46.75756
108.3305, 44.72681
108.8126, 43.56596
109.2947, 44.01860
109.7769, 44.10474
110.2590, 43.58011
110.7411, 42.64425
111.2232, 41.93164
111.7053, 41.51716
112.1874, 41.28135
112.6696, 41.17512
113.1517, 41.27526
113.6338, 41.41695
114.1159, 41.63198
114.5980, 41.89853
115.0801, 42.06805
115.5623, 41.68435
116.0444, 41.39161
116.5265, 41.68613
117.0086, 43.48759
117.4907, 45.21030
117.9728, 46.35102
118.4550, 46.88754
118.9371, 46.88689
119.4192, 45.91142
119.9013, 44.51759
120.3834, 43.42990
120.8655, 42.90375
121.3477, 42.81197
121.8298, 43.21840
122.3119, 44.22719
122.7940, 45.16010
123.2761, 45.53778
123.7582, 45.47926
124.2404, 45.24966
124.7225, 44.68678
125.2046, 44.13530
125.6867, 44.02022
126.1688, 44.41774
126.6509, 45.21709
127.1331, 46.44871
127.6152, 48.04762
128.0973, 49.69087
128.5794, 51.03461
129.0615, 52.25496
129.5436, 53.72168
130.0258, 55.39129
130.5079, 57.48175
130.9900, 60.42117
131.4721, 64.18398
131.9542, 68.64233
132.4363, 73.96937
132.9185, 80.04110
133.4006, 85.87449
133.8827, 90.54292
134.3648, 94.84398
134.8469, 102.2315
135.3290, 113.0098
135.8112, 125.5950
136.2933, 137.9945
136.7754, 150.1819
137.2575, 163.3719
137.7396, 177.6025
138.2217, 192.6815
138.7039, 211.4614
139.1860, 234.9992
139.6681, 260.6331
140.1502, 284.7713
140.6323, 306.7230
141.1144, 328.6942
141.5966, 351.8434
142.0787, 376.6034
142.5608, 400.1452
143.0429, 422.6109
143.5250, 443.7414
144.0071, 462.6204
144.4893, 478.3208
144.9714, 493.0067
145.4535, 507.1454
145.9356, 519.4983
146.4177, 534.1144
146.8998, 551.5795
147.3820, 571.4379
147.8641, 592.5223
148.3462, 613.4138
148.8283, 636.5919
149.3104, 663.7050
149.7925, 696.4941
150.2747, 730.8181
150.7568, 766.4143
151.2389, 803.1840
151.7210, 840.0364
152.2031, 875.9929
152.6852, 912.2366
153.1674, 949.9133
153.6495, 993.3586
154.1316, 1033.403
154.6137, 1067.661
155.0958, 1096.009
155.5779, 1124.524
156.0601, 1153.788
156.5422, 1183.637
157.0243, 1213.591
157.5064, 1245.193
157.9885, 1275.406
158.4706, 1303.062
158.9528, 1327.882
159.4349, 1352.176
159.9170, 1374.964
160.3991, 1398.000
160.8812, 1423.317
161.3633, 1453.062
161.8455, 1483.958
162.3276, 1514.604
162.8097, 1544.214
163.2918, 1574.809
163.7739, 1605.684
164.2560, 1636.219
164.7382, 1657.867
165.2203, 1681.616
165.7024, 1707.361
166.1845, 1733.052
166.6666, 1758.721
167.1487, 1783.747
167.6309, 1807.489
168.1130, 1830.662
168.5951, 1854.332
169.0772, 1880.858
169.5593, 1907.378
170.0414, 1931.438
170.5236, 1952.454
171.0057, 1971.609
171.4878, 1990.537
171.9699, 2008.760
172.4520, 2024.381
172.9341, 2035.725
173.4163, 2044.338
173.8984, 2051.865
174.3805, 2058.347
174.8626, 2064.384
175.3447, 2071.511
175.8268, 2079.210
176.3090, 2085.091
176.7911, 2085.910
177.2732, 2084.087
177.7553, 2083.880
178.2374, 2088.215
178.7195, 2092.499
179.2017, 2090.061
179.6838, 2081.417
180.1659, 2071.591
180.6480, 2063.535
181.1301, 2057.169
181.6122, 2052.314
182.0944, 2050.052
182.5765, 2048.446
183.0586, 2043.864
183.5407, 2036.421
184.0228, 2028.036
184.5049, 2020.678
184.9871, 2013.903
185.4692, 2006.265
185.9513, 1996.082
186.4334, 1985.142
186.9155, 1978.029
187.3976, 1975.032
187.8798, 1972.846
188.3619, 1967.817
188.8440, 1960.362
189.3261, 1953.485
189.8082, 1948.561
190.2903, 1944.943
190.7725, 1940.111
191.2546, 1933.846
191.7367, 1927.197
192.2188, 1921.367
192.7009, 1916.252
193.1830, 1910.897
193.6652, 1904.675
194.1473, 1897.766
194.6294, 1891.565
195.1115, 1885.986
195.5936, 1881.358
196.0757, 1878.577
196.5579, 1877.714
197.0400, 1876.623
197.5221, 1874.547
198.0042, 1871.532
198.4863, 1867.611
198.9684, 1862.418
199.4506, 1857.194
199.9327, 1853.969
200.4148, 1852.877
200.8969, 1852.331
201.3790, 1851.752
201.8611, 1851.128
202.3433, 1850.736
202.8254, 1850.807
203.3075, 1850.683
203.7896, 1848.989
204.2717, 1845.361
204.7538, 1841.824
205.2360, 1839.163
205.7181, 1837.397
206.2002, 1836.287
206.6823, 1836.189
207.1644, 1836.304
207.6465, 1835.099
208.1287, 1832.381
208.6108, 1829.140
209.0929, 1825.837
209.5750, 1822.556
210.0571, 1818.871
210.5392, 1814.787
211.0214, 1810.354
211.5035, 1805.547
211.9856, 1800.293
212.4677, 1795.112
212.9498, 1790.303
213.4319, 1786.077
213.9140, 1781.623
214.3962, 1777.036
214.8783, 1772.111
215.3604, 1766.212
215.8425, 1758.543
216.3246, 1751.485
216.8067, 1746.402
217.2889, 1744.340
217.7710, 1740.685
218.2531, 1735.109
218.7352, 1727.997
219.2173, 1719.875
219.6994, 1709.860
220.1816, 1700.413
220.6637, 1692.646
221.1458, 1687.246
221.6279, 1681.394
222.1100, 1674.367
222.5921, 1667.144
223.0743, 1662.386
223.5564, 1661.604
224.0385, 1660.774
224.5206, 1657.898
225.0027, 1651.824
225.4848, 1646.781
225.9670, 1642.831
226.4491, 1640.015
226.9312, 1638.587
227.4133, 1639.438
227.8954, 1640.244
228.3775, 1639.696
228.8597, 1636.559
229.3418, 1635.073
229.8239, 1635.976
230.3060, 1638.296
230.7881, 1639.389
231.2702, 1638.922
231.7524, 1637.627
232.2345, 1635.720
232.7166, 1632.715
233.1987, 1630.217
233.6808, 1629.049
234.1629, 1628.197
234.6451, 1624.684
235.1272, 1617.086
235.6093, 1609.068
236.0914, 1602.527
236.5735, 1599.264
237.0556, 1593.317
237.5378, 1583.223
238.0199, 1570.945
238.5020, 1561.626
238.9841, 1557.058
239.4662, 1552.701
239.9483, 1546.567
240.4305, 1538.021
240.9126, 1529.249
241.3947, 1519.789
241.8768, 1510.211
242.3589, 1501.994
242.8410, 1495.628
243.3232, 1489.805
243.8053, 1483.850
244.2874, 1476.849
244.7695, 1471.904
245.2516, 1469.460
245.7337, 1468.848
246.2159, 1468.700
246.6980, 1469.427
247.1801, 1469.988
247.6622, 1469.574
248.1443, 1466.719
248.6264, 1467.167
249.1086, 1471.727
249.5907, 1479.195
250.0728, 1487.087
250.5549, 1495.017
251.0370, 1504.022
251.5191, 1514.711
252.0013, 1527.510
252.4834, 1540.110
252.9655, 1551.867
253.4476, 1563.647
253.9297, 1577.221
254.4118, 1593.420
254.8940, 1609.503
255.3761, 1624.067
255.8582, 1636.158
256.3403, 1650.971
256.8224, 1669.412
257.3046, 1689.899
257.7867, 1709.533
258.2688, 1728.488
258.7509, 1746.622
259.2330, 1763.511
259.7151, 1778.974
260.1973, 1795.191
260.6794, 1812.304
261.1615, 1829.757
261.6436, 1846.370
262.1257, 1862.318
262.6078, 1877.326
263.0900, 1891.042
263.5721, 1903.476
264.0542, 1915.520
264.5363, 1927.253
265.0184, 1938.582
265.5005, 1949.846
265.9827, 1961.070
266.4648, 1971.767
266.9469, 1981.523
267.4290, 1990.250
267.9111, 1999.687
268.3932, 2010.407
268.8754, 2020.818
269.3575, 2028.789
269.8396, 2033.688
270.3217, 2038.842
270.8038, 2045.398
271.2859, 2053.274
271.7681, 2059.209
272.2502, 2062.456
272.7323, 2065.342
273.2144, 2070.744
273.6965, 2079.524
274.1786, 2086.294
274.6608, 2089.714
275.1429, 2090.118
275.6250, 2089.974
276.1071, 2089.300
276.5892, 2088.061
277.0714, 2086.613
277.5535, 2085.160
278.0356, 2081.591
278.5177, 2074.947
278.9998, 2066.056
279.4819, 2058.923
279.9641, 2054.204
280.4462, 2048.302
280.9283, 2037.294
281.4104, 2021.074
281.8925, 2006.725
282.3746, 1996.119
282.8568, 1987.477
283.3389, 1975.604
283.8210, 1960.225
284.3031, 1943.627
284.7852, 1927.225
285.2673, 1911.094
285.7495, 1894.326
286.2316, 1876.602
286.7137, 1858.416
287.1958, 1840.732
287.6779, 1823.531
288.1600, 1806.719
288.6422, 1790.660
289.1243, 1774.991
289.6064, 1758.298
290.0885, 1740.063
290.5706, 1721.258
291.0527, 1703.151
291.5349, 1685.775
292.0170, 1669.288
292.4991, 1654.701
292.9812, 1641.257
293.4633, 1626.382
293.9454, 1609.539
294.4276, 1592.630
294.9097, 1578.282
295.3918, 1566.210
295.8739, 1555.230
296.3560, 1544.763
296.8381, 1535.000
297.3203, 1526.847
297.8024, 1520.419
298.2845, 1514.800
298.7666, 1509.418
299.2487, 1504.172
299.7308, 1498.600
300.2130, 1492.091
300.6951, 1485.299
301.1772, 1479.098
301.6593, 1473.518
302.1414, 1468.700
302.6235, 1465.316
303.1057, 1462.818
303.5878, 1460.142
304.0699, 1456.434
304.5520, 1452.760
305.0341, 1450.429
305.5162, 1449.356
305.9984, 1448.724
306.4805, 1448.233
306.9626, 1447.749
307.4447, 1447.064
307.9268, 1445.948
308.4089, 1444.794
308.8911, 1444.219
309.3732, 1443.988
309.8553, 1443.180
310.3374, 1441.376
310.8195, 1438.654
311.3016, 1434.731
311.7838, 1428.490
312.2659, 1423.340
312.7480, 1422.771
313.2301, 1425.193
313.7122, 1426.621
314.1943, 1424.593
314.6765, 1421.331
315.1586, 1418.395
315.6407, 1416.156
316.1228, 1413.792
316.6049, 1410.372
317.0870, 1406.648
317.5692, 1403.907
318.0513, 1404.132
318.5334, 1404.139
319.0155, 1401.971
319.4976, 1397.054
319.9797, 1392.727
320.4619, 1390.728
320.9440, 1389.620
321.4261, 1387.822
321.9082, 1384.023
322.3903, 1380.336
322.8724, 1377.518
323.3546, 1375.617
323.8367, 1373.606
324.3188, 1370.541
324.8009, 1367.731
325.2830, 1366.208
325.7651, 1367.749
326.2473, 1368.789
326.7294, 1368.651
327.2115, 1367.493
327.6936, 1366.473
328.1757, 1365.045
328.6578, 1364.256
329.1400, 1364.638
329.6221, 1366.937
330.1042, 1369.385
330.5863, 1372.186
331.0684, 1375.125
331.5505, 1377.451
332.0327, 1377.943
332.5148, 1379.238
332.9969, 1382.688
333.4790, 1389.596
333.9611, 1394.690
334.4432, 1396.845
334.9254, 1397.827
335.4075, 1400.697
335.8896, 1406.293
336.3717, 1412.134
336.8538, 1417.247
337.3359, 1421.519
337.8180, 1426.957
338.3001, 1433.710
338.7823, 1441.413
339.2644, 1449.601
339.7465, 1458.363
340.2286, 1467.594
340.7107, 1477.787
341.1928, 1488.585
341.6750, 1495.924
342.1571, 1499.100
342.6392, 1501.793
343.1213, 1507.479
343.6034, 1516.148
344.0855, 1524.155
344.5677, 1530.674
345.0498, 1536.313
345.5319, 1542.123
346.0140, 1548.081
346.4961, 1554.795
346.9782, 1563.254
347.4604, 1573.053
347.9425, 1581.760
348.4246, 1589.165
348.9067, 1595.738
349.3888, 1601.953
349.8709, 1607.892
350.3531, 1613.933
350.8352, 1620.705
351.3173, 1627.611
351.7994, 1633.636
352.2815, 1638.719
352.7636, 1642.954
353.2458, 1645.611
353.7279, 1647.484
354.2100, 1650.331
354.6921, 1656.416
355.1742, 1662.665
355.6563, 1665.752
356.1385, 1665.818
356.6206, 1664.703
357.1027, 1662.285
357.5848, 1659.883
358.0669, 1659.174
358.5490, 1661.670
359.0312, 1664.334
359.5133, 1665.356
359.9954, 1664.992
360.4775, 1664.084
360.9596, 1662.360
361.4417, 1660.662
361.9239, 1659.561
362.4060, 1659.237
362.8881, 1659.220
363.3702, 1659.520
363.8523, 1659.978
364.3344, 1660.360
364.8166, 1660.564
365.2987, 1660.721
365.7808, 1660.803
366.2629, 1660.778
366.7450, 1661.069
367.2271, 1661.825
367.7093, 1662.918
368.1914, 1664.236
368.6735, 1666.299
369.1556, 1668.045
369.6377, 1668.879
370.1198, 1669.010
370.6020, 1670.244
371.0841, 1673.103
371.5662, 1676.593
372.0483, 1680.188
372.5304, 1684.035
373.0125, 1687.785
373.4947, 1691.613
373.9768, 1695.234
374.4589, 1697.892
374.9410, 1699.075
375.4231, 1700.388
375.9052, 1702.981
376.3874, 1707.386
376.8695, 1708.643
377.3516, 1705.995
377.8337, 1701.502
378.3158, 1697.807
378.7979, 1695.140
379.2801, 1691.490
379.7622, 1686.431
380.2443, 1679.946
380.7264, 1671.377
381.2085, 1660.569
381.6906, 1648.949
382.1728, 1637.726
382.6549, 1626.699
383.1370, 1615.210
383.6191, 1602.786
384.1012, 1590.272
384.5833, 1579.060
385.0655, 1568.975
385.5476, 1558.846
386.0297, 1547.434
386.5118, 1535.512
386.9939, 1524.003
387.4760, 1512.964
387.9582, 1503.007
388.4403, 1494.804
388.9224, 1488.010
389.4045, 1481.940
389.8866, 1476.313
390.3687, 1471.198
390.8509, 1466.310
391.3330, 1461.778
391.8151, 1458.844
392.2972, 1459.532
392.7793, 1461.618
393.2614, 1462.942
393.7436, 1462.349
394.2257, 1461.738
394.7078, 1461.649
395.1899, 1462.127
395.6720, 1463.299
396.1541, 1465.200
396.6363, 1467.826
397.1184, 1471.027
397.6005, 1474.470
398.0826, 1479.541
398.5647, 1487.218
399.0468, 1496.379
399.5290, 1505.664
400.0111, 1515.279
400.4932, 1524.689
400.9753, 1533.381
401.4574, 1541.403
401.9395, 1550.859
402.4217, 1562.151
402.9038, 1574.502
403.3859, 1587.436
403.8680, 1600.984
404.3501, 1615.110
404.8322, 1629.897
405.3144, 1645.144
405.7965, 1659.856
406.2786, 1673.976
406.7607, 1687.994
407.2428, 1701.626
407.7249, 1714.858
408.2071, 1730.753
408.6892, 1749.967
409.1713, 1770.140
409.6534, 1788.290
410.1355, 1804.443
410.6176, 1820.669
411.0998, 1837.880
411.5819, 1855.509
412.0640, 1872.402
412.5461, 1888.422
413.0282, 1903.677
413.5103, 1918.265
413.9925, 1931.933
414.4746, 1944.212
414.9567, 1954.864
415.4388, 1964.651
415.9209, 1975.260
416.4030, 1985.767
416.8852, 1994.166
417.3673, 1998.644
417.8494, 2000.990
418.3315, 2002.740
418.8136, 2003.967
419.2957, 2003.893
419.7779, 2001.793
420.2600, 1998.291
420.7421, 1994.056
421.2242, 1989.847
421.7063, 1984.334
422.1884, 1976.871
422.6706, 1967.719
423.1527, 1957.541
423.6348, 1946.609
424.1169, 1934.753
424.5990, 1921.698
425.0811, 1907.103
425.5633, 1892.271
426.0454, 1877.273
426.5275, 1862.124
427.0096, 1846.555
427.4917, 1829.946
427.9738, 1814.014
428.4560, 1799.124
428.9381, 1785.141
429.4202, 1772.213
429.9023, 1761.414
430.3844, 1749.957
430.8665, 1735.175
431.3487, 1716.062
431.8308, 1699.979
432.3129, 1688.319
432.7950, 1678.961
433.2771, 1667.504
433.7592, 1653.922
434.2414, 1641.065
434.7235, 1630.636
435.2056, 1622.060
435.6877, 1612.812
436.1698, 1602.821
436.6519, 1593.341
437.1341, 1586.030
437.6162, 1580.364
438.0983, 1574.774
438.5804, 1568.734
439.0625, 1562.778
439.5446, 1557.268
440.0268, 1552.308
440.5089, 1548.248
440.9910, 1545.468
441.4731, 1543.606
441.9552, 1542.188
442.4373, 1541.064
442.9195, 1541.073
443.4016, 1543.679
443.8837, 1547.332
444.3658, 1550.139
444.8479, 1549.068
445.3300, 1549.569
445.8122, 1553.859
446.2943, 1561.588
446.7764, 1569.657
447.2585, 1577.975
447.7406, 1586.235
448.2227, 1594.312
448.7049, 1601.954
449.1870, 1609.667
449.6691, 1616.532
450.1512, 1623.900
450.6333, 1633.975
451.1154, 1648.109
451.5976, 1662.256
452.0797, 1675.438
452.5618, 1687.702
453.0439, 1698.763
453.5260, 1708.096
454.0081, 1717.198
454.4903, 1727.093
454.9724, 1737.696
455.4545, 1749.093
455.9366, 1761.376
456.4187, 1774.073
456.9008, 1785.652
457.3830, 1796.512
457.8651, 1808.373
458.3472, 1823.641
458.8293, 1840.140
459.3114, 1854.389
459.7935, 1866.244
460.2757, 1876.577
460.7578, 1884.708
461.2399, 1892.021
461.7220, 1900.694
462.2041, 1912.901
462.6862, 1923.996
463.1684, 1929.989
463.6505, 1932.584
464.1326, 1935.578
464.6147, 1942.248
465.0968, 1948.265
465.5789, 1951.724
466.0611, 1952.565
466.5432, 1950.199
467.0253, 1942.621
467.5074, 1932.754
467.9895, 1923.087
468.4716, 1915.471
468.9538, 1905.646
469.4359, 1893.136
469.9180, 1878.374
470.4001, 1862.596
470.8822, 1846.357
471.3643, 1828.337
471.8465, 1807.621
472.3286, 1783.927
472.8107, 1760.454
473.2928, 1737.251
473.7749, 1714.915
474.2570, 1695.028
474.7392, 1677.578
475.2213, 1659.580
475.7034, 1639.973
476.1855, 1619.951
476.6676, 1601.907
477.1497, 1585.684
477.6319, 1570.639
478.1140, 1556.549
478.5961, 1543.141
479.0782, 1529.658
479.5603, 1515.949
480.0424, 1503.427
480.5246, 1493.463
481.0067, 1485.332
481.4888, 1477.976
481.9709, 1470.885
482.4530, 1464.572
482.9352, 1459.407
483.4173, 1455.248
483.8994, 1451.652
484.3815, 1449.029
484.8636, 1446.461
485.3457, 1443.317
485.8279, 1439.126
486.3100, 1435.931
486.7921, 1435.169
487.2742, 1434.790
487.7563, 1432.912
488.2384, 1428.309
488.7206, 1424.365
489.2027, 1421.948
489.6848, 1420.394
490.1669, 1417.307
490.6490, 1412.459
491.1311, 1406.878
491.6133, 1400.999
492.0954, 1394.811
492.5775, 1388.549
493.0596, 1382.261
493.5417, 1375.860
494.0238, 1369.730
494.5060, 1363.556
494.9881, 1355.689
495.4702, 1345.102
495.9523, 1333.730
496.4344, 1324.750
496.9165, 1317.600
497.3987, 1310.210
497.8808, 1302.125
498.3629, 1292.726
498.8450, 1280.669
499.3271, 1265.609
499.8092, 1251.370
500.2914, 1240.606
500.7735, 1231.235
501.2556, 1220.965
501.7377, 1208.198
502.2198, 1195.885
502.7019, 1184.729
503.1841, 1174.438
503.6662, 1164.142
504.1483, 1153.681
504.6304, 1143.121
505.1125, 1132.618
505.5946, 1122.203
506.0768, 1111.372
506.5589, 1099.711
507.0410, 1088.390
507.5231, 1078.435
508.0052, 1070.046
508.4873, 1061.986
508.9695, 1054.322
509.4516, 1046.880
509.9337, 1039.499
510.4158, 1032.161
510.8979, 1024.610
511.3800, 1016.434
511.8622, 1007.985
512.3443, 999.5753
512.8264, 991.3239
513.3085, 984.2311
513.7906, 980.0768
514.2728, 977.1755
514.7549, 973.1253
515.2370, 966.9684
515.7191, 961.1740
516.2012, 957.8365
516.6833, 955.7653
517.1655, 953.0712
517.6476, 948.9822
518.1297, 944.3534
518.6118, 938.9431
519.0939, 932.9318
519.5760, 928.0958
520.0582, 925.3419
520.5403, 923.2787
521.0224, 921.5880
521.5045, 920.9132
521.9866, 918.5912
522.4688, 913.9783
522.9509, 908.4093
523.4330, 903.2302
523.9151, 898.3236
524.3972, 894.5139
524.8793, 892.3292
525.3615, 891.0944
525.8436, 888.9085
526.3257, 885.7769
526.8078, 882.7657
527.2899, 880.7890
527.7720, 879.3033
528.2542, 877.1364
528.7363, 874.2508
529.2184, 870.8453
529.7005, 866.6878
530.1826, 862.2856
530.6647, 858.2590
531.1469, 854.4740
531.6290, 851.6813
532.1111, 851.1362
532.5932, 851.8565
533.0753, 851.8418
533.5574, 849.2783
534.0396, 847.0566
534.5217, 846.2191
535.0038, 846.8763
535.4859, 847.8115
535.9680, 849.4354
536.4501, 850.8672
536.9323, 851.4687
537.4144, 850.6307
537.8965, 850.6900
538.3786, 851.8015
538.8607, 853.6653
539.3428, 855.9039
539.8250, 858.5606
540.3071, 861.3424
540.7892, 864.1013
541.2713, 866.9695
541.7534, 870.0056
542.2355, 873.2565
542.7177, 877.1621
543.1998, 882.3215
543.6819, 888.2626
544.1640, 894.2618
544.6461, 900.2676
545.1282, 906.3541
545.6104, 912.0394
546.0925, 917.9798
546.5746, 924.9295
547.0567, 933.4423
547.5388, 942.4776
548.0209, 951.9803
548.5031, 961.6545
548.9852, 971.0652
549.4673, 978.6893
549.9494, 987.6180
550.4315, 999.3076
550.9136, 1013.739
551.3958, 1026.043
551.8779, 1035.281
552.3600, 1044.006
552.8421, 1053.918
553.3242, 1065.130
553.8063, 1076.698
554.2885, 1088.898
554.7706, 1100.581
555.2527, 1109.489
555.7348, 1116.144
556.2169, 1123.925
556.6990, 1134.180
557.1812, 1145.474
557.6633, 1156.134
558.1454, 1166.130
558.6275, 1175.383
559.1096, 1183.140
559.5917, 1190.546
560.0739, 1198.774
560.5560, 1207.973
561.0381, 1216.073
561.5202, 1222.321
562.0023, 1227.009
562.4844, 1230.373
562.9666, 1233.408
563.4487, 1233.561
563.9308, 1230.195
564.4129, 1224.204
564.8950, 1217.000
565.3771, 1209.254
565.8593, 1198.898
566.3414, 1185.192
566.8235, 1168.596
567.3056, 1150.336
567.7877, 1130.396
568.2698, 1109.535
568.7520, 1087.220
569.2341, 1064.232
569.7162, 1042.654
570.1983, 1022.753
570.6804, 1003.976
571.1625, 986.1888
571.6447, 969.3428
572.1268, 953.4164
572.6089, 938.2512
573.0910, 924.0271
573.5731, 910.7390
574.0552, 898.4041
574.5374, 886.7505
575.0195, 874.9460
575.5016, 864.7225
575.9837, 857.3266
576.4658, 852.5534
576.9479, 847.0920
577.4301, 839.8129
577.9122, 833.1678
578.3943, 828.3160
578.8764, 825.6627
579.3585, 822.7252
579.8406, 819.5153
580.3228, 815.9880
580.8049, 811.7160
581.2870, 806.8016
581.7691, 802.9485
582.2512, 800.5941
582.7333, 799.1102
583.2155, 797.7486
