##NAMES=Kidwellite
##RRUFFID=R060324
##IDEAL CHEMISTRY=NaFe^3+^_9+x_(PO_4_)_6_(OH)_11_&#183;3H_2_O (x &#8776; 1/3)
##LOCALITY=York mine, Polk County, Arkansas, USA
##OWNER=RRUFF
##SOURCE=Michael Scott
##DESCRIPTION=Light green radiating acicular crystals forming a spherical mat
##STATUS=The identification of this mineral has been confirmed by X-ray diffraction and chemical analysis
##URL=rruff.info/R060324
##MEASURED CHEMISTRY=(Na_0.98_Ca_0.02_)_Σ=1_(Fe^3+^_8.77_Al_0.21_Fe^2+^_0.02_)_Σ=9_(P_1.00_O_4_)_6_(OH)_11_·3H_2_O; OH estimated by charge balance; H_2_O by difference
91.53320, 899.4336
92.01532, 903.0576
92.49744, 902.1441
92.97955, 908.1797
93.46167, 911.1403
93.94379, 905.5015
94.42590, 896.4677
94.90802, 886.2577
95.39014, 875.1270
95.87225, 863.1559
96.35437, 850.4714
96.83649, 836.7467
97.31860, 823.3168
97.80072, 811.6655
98.28284, 801.9496
98.76495, 792.9838
99.24707, 782.9307
99.72919, 769.0391
100.2113, 757.4694
100.6934, 750.0237
101.1755, 745.8090
101.6577, 743.0715
102.1398, 740.2610
102.6219, 737.1619
103.1040, 734.9891
103.5861, 733.7454
104.0682, 732.9682
104.5504, 732.1475
105.0325, 731.2766
105.5146, 730.9919
105.9967, 732.3175
106.4788, 736.3629
106.9609, 738.8969
107.4431, 739.1241
107.9252, 737.8371
108.4073, 736.0019
108.8894, 733.8387
109.3715, 731.3743
109.8536, 728.5305
110.3358, 725.0659
110.8179, 722.0499
111.3000, 720.4594
111.7821, 720.1155
112.2642, 719.2436
112.7463, 716.6115
113.2285, 713.4533
113.7106, 711.0223
114.1927, 709.6352
114.6748, 708.7137
115.1569, 707.5930
115.6390, 706.3740
116.1212, 704.5968
116.6033, 701.6066
117.0854, 698.2512
117.5675, 695.4181
118.0496, 693.5936
118.5317, 692.5103
119.0139, 690.9070
119.4960, 687.6481
119.9781, 685.0745
120.4602, 683.7858
120.9423, 683.4640
121.4244, 683.5856
121.9066, 683.8102
122.3887, 684.1805
122.8708, 683.9598
123.3529, 682.7281
123.8350, 681.4255
124.3171, 680.4896
124.7993, 679.9329
125.2814, 679.4984
125.7635, 678.9062
126.2456, 678.0930
126.7277, 677.5141
127.2098, 677.0792
127.6920, 676.9196
128.1741, 677.0085
128.6562, 677.2438
129.1383, 678.1804
129.6204, 681.3594
130.1025, 686.5332
130.5847, 690.6002
131.0668, 691.8295
131.5489, 690.8577
132.0310, 689.8236
132.5131, 688.8817
132.9952, 688.3543
133.4774, 688.7137
133.9595, 689.9473
134.4416, 691.0062
134.9237, 690.9615
135.4058, 689.7244
135.8879, 688.0228
136.3701, 685.6266
136.8522, 683.0496
137.3343, 680.6503
137.8164, 678.4923
138.2985, 676.3019
138.7806, 673.6389
139.2628, 670.6520
139.7449, 666.7728
140.2270, 661.2706
140.7091, 655.3240
141.1912, 650.1299
141.6733, 646.2470
142.1555, 643.1005
142.6376, 638.7824
143.1197, 632.0996
143.6018, 625.4727
144.0839, 618.9791
144.5660, 612.7112
145.0482, 606.7402
145.5303, 601.0955
146.0124, 595.8067
146.4945, 590.9916
146.9766, 587.0255
147.4587, 583.0647
147.9409, 578.7463
148.4230, 574.1149
148.9051, 569.3575
149.3872, 564.3047
149.8693, 559.2723
150.3514, 555.3658
150.8336, 553.5967
151.3157, 552.3574
151.7978, 549.8573
152.2799, 545.8023
152.7620, 542.2725
153.2441, 541.4132
153.7263, 542.1551
154.2084, 542.8596
154.6905, 542.8583
155.1726, 542.4782
155.6547, 542.3224
156.1368, 542.1036
156.6190, 542.7369
157.1011, 544.9448
157.5832, 548.2128
158.0653, 551.6025
158.5474, 554.5851
159.0295, 557.1735
159.5117, 559.5381
159.9938, 561.6239
160.4759, 563.5150
160.9580, 564.9675
161.4401, 566.1982
161.9222, 567.7310
162.4044, 570.2068
162.8865, 573.9657
163.3686, 576.6982
163.8507, 577.7390
164.3328, 578.4305
164.8149, 579.1474
165.2971, 580.0246
165.7792, 581.1418
166.2613, 582.6707
166.7434, 584.9688
167.2255, 586.5619
167.7076, 587.3708
168.1898, 587.6669
168.6719, 587.5377
169.1540, 587.0333
169.6361, 586.3174
170.1182, 585.6635
170.6003, 585.3429
171.0825, 584.2816
171.5646, 581.3199
172.0467, 578.0255
172.5288, 576.5443
173.0109, 577.6671
173.4930, 579.5991
173.9752, 579.2335
174.4573, 576.4719
174.9394, 573.4566
175.4215, 570.3829
175.9036, 567.4916
176.3857, 565.4948
176.8679, 564.9352
177.3500, 564.7866
177.8321, 563.6653
178.3142, 561.5290
178.7963, 559.1645
179.2784, 557.0035
179.7606, 555.0051
180.2427, 552.9951
180.7248, 550.9792
181.2069, 548.8788
181.6890, 546.5938
182.1711, 544.0984
182.6533, 541.6420
183.1354, 539.4914
183.6175, 537.6868
184.0996, 535.8796
184.5817, 533.6713
185.0638, 531.6441
185.5460, 530.3550
186.0281, 529.8944
186.5102, 529.5921
186.9923, 528.3990
187.4744, 525.8191
187.9565, 523.6668
188.4387, 522.3945
188.9208, 521.4239
189.4029, 520.3863
189.8850, 519.1560
190.3671, 517.8301
190.8492, 516.5383
191.3314, 515.0877
191.8135, 514.0536
192.2956, 513.7968
192.7777, 513.7578
193.2598, 513.4391
193.7419, 512.6483
194.2241, 511.5534
194.7062, 510.5617
195.1883, 509.9423
195.6704, 509.1012
196.1525, 507.5010
196.6346, 505.8450
197.1168, 505.0966
197.5989, 505.7053
198.0810, 507.1312
198.5631, 507.8051
199.0452, 507.2221
199.5273, 506.6188
200.0095, 506.2612
200.4916, 505.9962
200.9737, 505.4670
201.4558, 504.4122
201.9379, 503.2010
202.4200, 502.9451
202.9022, 503.9079
203.3843, 505.0926
203.8664, 506.3829
204.3485, 507.6640
204.8306, 508.5900
205.3127, 508.9636
205.7949, 508.9260
206.2770, 508.7621
206.7591, 508.2403
207.2412, 508.0673
207.7233, 508.8933
208.2054, 510.5562
208.6876, 512.0164
209.1697, 512.7244
209.6518, 513.1017
210.1339, 513.8312
210.6160, 515.0552
211.0981, 516.2800
211.5803, 516.9943
212.0624, 517.1949
212.5445, 517.5980
213.0266, 518.5419
213.5087, 519.7665
213.9908, 521.0060
214.4730, 522.1956
214.9551, 523.5270
215.4372, 525.3040
215.9193, 527.6394
216.4014, 529.7672
216.8836, 531.2287
217.3657, 532.5418
217.8478, 533.8817
218.3299, 535.2711
218.8120, 537.1096
219.2941, 540.3328
219.7763, 545.7697
220.2584, 549.7860
220.7405, 550.4473
221.2226, 550.3574
221.7047, 551.1014
222.1868, 553.1367
222.6690, 556.1827
223.1511, 560.1256
223.6332, 566.1193
224.1153, 570.3017
224.5974, 571.1791
225.0795, 571.1417
225.5617, 571.8382
226.0438, 573.7477
226.5259, 576.3057
227.0080, 578.6058
227.4901, 580.8025
227.9722, 582.3603
228.4544, 583.2271
228.9365, 583.5909
229.4186, 583.5089
229.9007, 583.0267
230.3828, 582.2571
230.8649, 581.3988
231.3471, 580.4880
231.8292, 579.3906
232.3113, 578.2193
232.7934, 576.8201
233.2755, 575.0330
233.7576, 572.8288
234.2398, 570.2986
234.7219, 567.6199
235.2040, 564.6802
235.6861, 561.7521
236.1682, 559.1711
236.6503, 556.4224
237.1325, 552.9098
237.6146, 548.5176
238.0967, 543.7787
238.5788, 539.4844
239.0609, 535.8708
239.5430, 532.2517
240.0252, 528.1868
240.5073, 524.3346
240.9894, 521.7355
241.4715, 520.6147
241.9536, 519.6272
242.4357, 516.6464
242.9179, 510.8996
243.4000, 506.7339
243.8821, 505.8681
244.3642, 506.1878
244.8463, 505.2484
245.3284, 502.5114
245.8106, 499.4198
246.2927, 497.6171
246.7748, 497.1160
247.2569, 497.1303
247.7390, 497.6539
248.2211, 498.5923
248.7033, 499.8278
249.1854, 501.3421
249.6675, 503.1844
250.1496, 505.3909
250.6317, 507.9701
251.1138, 511.0954
251.5960, 515.1579
252.0781, 519.6467
252.5602, 523.8659
253.0423, 527.6555
253.5244, 531.5973
254.0065, 536.0673
254.4887, 541.0266
254.9708, 546.5739
255.4529, 552.9149
255.9350, 559.7789
256.4171, 566.6971
256.8992, 573.5909
257.3813, 580.8271
257.8635, 588.8043
258.3456, 597.3113
258.8277, 606.2165
259.3098, 615.7471
259.7919, 625.4188
260.2740, 634.3790
260.7562, 642.4323
261.2383, 650.5810
261.7204, 659.2751
262.2025, 668.4647
262.6846, 678.3746
263.1667, 689.4348
263.6489, 700.7869
264.1310, 711.2431
264.6131, 720.6299
265.0952, 729.8801
265.5773, 739.2391
266.0594, 748.6987
266.5416, 758.3284
267.0237, 768.1907
267.5058, 778.1432
267.9879, 788.0647
268.4700, 797.9067
268.9521, 807.8643
269.4343, 818.9075
269.9164, 829.6390
270.3985, 838.7057
270.8806, 845.7162
271.3627, 851.7956
271.8448, 858.4598
272.3270, 866.0236
272.8091, 872.6583
273.2912, 877.4004
273.7733, 881.3571
274.2554, 885.3119
274.7375, 889.3876
275.2197, 892.8040
275.7018, 894.5684
276.1839, 894.4603
276.6660, 894.0703
277.1481, 894.2557
277.6302, 893.6637
278.1124, 891.4564
278.5945, 887.6327
279.0766, 882.8781
279.5587, 877.9322
280.0408, 872.8777
280.5229, 866.8285
281.0051, 859.2249
281.4872, 850.9962
281.9693, 842.4039
282.4514, 833.5172
282.9335, 824.3200
283.4156, 814.8534
283.8978, 805.1185
284.3799, 795.0364
284.8620, 784.2918
285.3441, 773.4806
285.8262, 762.6249
286.3083, 751.8586
286.7905, 741.4471
287.2726, 731.7762
287.7547, 722.6924
288.2368, 712.8713
288.7189, 701.4724
289.2010, 690.2819
289.6832, 679.7922
290.1653, 669.8660
290.6474, 660.1865
291.1295, 650.6271
291.6116, 641.2283
292.0938, 632.2224
292.5759, 623.8073
293.0580, 615.6057
293.5401, 606.9973
294.0222, 598.7302
294.5043, 591.8694
294.9865, 586.9185
295.4686, 583.1302
295.9507, 578.6068
296.4328, 572.4289
296.9149, 567.2141
297.3970, 563.7984
297.8792, 561.0399
298.3613, 557.9777
298.8434, 554.3095
299.3255, 550.4142
299.8076, 547.0435
300.2897, 544.8473
300.7719, 541.6329
301.2540, 536.2039
301.7361, 530.6750
302.2182, 526.2063
302.7003, 523.0683
303.1824, 520.9116
303.6646, 519.4262
304.1467, 518.8273
304.6288, 518.1488
305.1109, 517.7827
305.5930, 517.0028
306.0751, 515.4011
306.5573, 513.0330
307.0394, 510.1784
307.5215, 506.9406
308.0036, 503.2163
308.4857, 500.3956
308.9678, 499.3380
309.4500, 498.3730
309.9321, 497.2179
310.4142, 495.7788
310.8963, 493.9559
311.3784, 491.6226
311.8605, 488.8623
312.3427, 486.3746
312.8248, 484.1799
313.3069, 482.2547
313.7890, 480.9964
314.2711, 479.8789
314.7532, 478.0936
315.2354, 475.2162
315.7175, 471.7539
316.1996, 469.2501
316.6817, 468.5122
317.1638, 467.4799
317.6459, 465.6603
318.1281, 463.6217
318.6102, 461.8890
319.0923, 460.6240
319.5744, 459.6125
320.0565, 458.5374
320.5386, 457.4746
321.0208, 456.1522
321.5029, 454.0500
321.9850, 452.1040
322.4671, 451.0444
322.9492, 450.8570
323.4313, 450.8752
323.9135, 450.3893
324.3956, 449.3387
324.8777, 448.0606
325.3598, 445.8575
325.8419, 444.0655
326.3240, 443.4752
326.8062, 443.7833
327.2883, 444.0909
327.7704, 443.7039
328.2525, 442.6591
328.7346, 441.5852
329.2167, 440.1304
329.6989, 439.0761
330.1810, 438.5690
330.6631, 438.5815
331.1452, 439.0904
331.6273, 440.1028
332.1094, 441.5401
332.5916, 443.2753
333.0737, 446.0555
333.5558, 447.7775
334.0379, 447.1276
334.5200, 445.9234
335.0021, 446.0213
335.4843, 447.9945
335.9664, 450.7122
336.4485, 452.3238
336.9306, 452.4538
337.4127, 452.5880
337.8948, 452.5021
338.3770, 452.7325
338.8591, 453.7852
339.3412, 455.6049
339.8233, 457.5646
340.3055, 459.1639
340.7876, 460.4186
341.2697, 461.0574
341.7518, 460.0806
342.2339, 459.4593
342.7160, 460.2587
343.1982, 462.0455
343.6803, 463.6923
344.1624, 464.3487
344.6445, 464.2671
345.1266, 464.7158
345.6087, 465.8687
346.0909, 467.3198
346.5730, 469.2794
347.0551, 471.2957
347.5372, 472.6295
348.0193, 472.8427
348.5014, 472.7759
348.9836, 474.1499
349.4657, 477.4765
349.9478, 480.5057
350.4299, 482.3338
350.9120, 483.8429
351.3941, 485.6647
351.8763, 487.9117
352.3584, 490.2353
352.8405, 492.1745
353.3226, 493.7177
353.8047, 495.5580
354.2868, 497.8425
354.7690, 500.4182
355.2511, 503.1490
355.7332, 506.0582
356.2153, 509.2108
356.6974, 512.8361
357.1795, 516.7723
357.6617, 520.2877
358.1438, 523.0120
358.6259, 526.0404
359.1080, 530.4731
359.5901, 535.4943
360.0722, 539.7434
360.5544, 542.3179
361.0365, 544.3869
361.5186, 547.7200
362.0007, 552.4417
362.4828, 557.3287
362.9649, 561.7032
363.4471, 566.1367
363.9292, 571.4181
364.4113, 577.8090
364.8934, 584.2682
365.3755, 590.0149
365.8576, 595.1381
366.3398, 600.0746
366.8219, 604.8151
367.3040, 609.6024
367.7861, 614.7261
368.2682, 620.1548
368.7503, 625.6375
369.2325, 631.3049
369.7146, 636.9279
370.1967, 642.1064
370.6788, 646.8126
371.1609, 651.1458
371.6430, 655.2117
372.1252, 658.9416
372.6073, 662.0258
373.0894, 663.9117
373.5715, 665.5316
374.0536, 667.8856
374.5357, 670.7598
375.0179, 672.8713
375.5000, 673.4319
375.9821, 672.9446
376.4642, 672.7738
376.9463, 673.4915
377.4284, 673.2318
377.9106, 670.9278
378.3927, 667.2809
378.8748, 663.4634
379.3569, 659.7875
379.8390, 655.9957
380.3211, 651.7550
380.8033, 647.0517
381.2854, 641.8865
381.7675, 636.3511
382.2496, 630.3210
382.7317, 623.3928
383.2138, 615.6891
383.6960, 608.0433
384.1781, 601.0130
384.6602, 594.5992
385.1423, 588.3577
385.6244, 582.5363
386.1065, 576.5627
386.5887, 569.8938
387.0708, 563.0340
387.5529, 556.7315
388.0350, 551.2994
388.5171, 546.7167
388.9992, 542.9553
389.4814, 541.1658
389.9635, 538.4355
390.4456, 534.0316
390.9277, 529.1908
391.4098, 524.5775
391.8919, 520.4761
392.3741, 517.2414
392.8562, 515.4138
393.3383, 515.2760
393.8204, 514.3267
394.3025, 511.8683
394.7846, 509.3861
395.2668, 507.1816
395.7489, 505.3391
396.2310, 503.9030
396.7131, 502.8979
397.1952, 502.3191
397.6773, 502.2170
398.1595, 503.2383
398.6416, 503.6374
399.1237, 502.4922
399.6058, 501.1302
400.0879, 500.6862
400.5700, 501.4154
401.0522, 502.7706
401.5343, 504.2094
402.0164, 505.7680
402.4985, 507.1446
402.9806, 508.0728
403.4627, 509.0537
403.9449, 510.2181
404.4270, 511.6021
404.9091, 513.2473
405.3912, 515.1741
405.8733, 517.3859
406.3554, 519.9128
406.8376, 522.8837
407.3197, 525.8967
407.8018, 528.9891
408.2839, 531.9497
408.7660, 534.3929
409.2481, 536.1504
409.7303, 537.9388
410.2124, 540.6541
410.6945, 544.2219
411.1766, 547.5367
411.6587, 550.3552
412.1408, 552.8726
412.6230, 555.0771
413.1051, 557.0509
413.5872, 559.4590
414.0693, 563.2150
414.5514, 567.3473
415.0335, 570.3141
415.5157, 572.0019
415.9978, 572.8071
416.4799, 572.5598
416.9620, 571.6528
417.4441, 571.3788
417.9262, 572.4711
418.4084, 573.2847
418.8905, 572.8055
419.3726, 571.3246
419.8547, 569.6004
420.3368, 567.9092
420.8189, 566.0067
421.3011, 563.4251
421.7832, 560.0065
422.2653, 556.6534
422.7474, 553.8975
423.2295, 550.9572
423.7116, 546.8721
424.1938, 541.7430
424.6759, 536.7366
425.1580, 532.8699
425.6401, 530.0279
426.1222, 525.8912
426.6043, 519.3894
427.0865, 513.0494
427.5686, 507.2452
428.0507, 502.0308
428.5328, 497.5993
429.0149, 493.9923
429.4970, 490.6971
429.9792, 486.7839
430.4613, 481.9697
430.9434, 477.0635
431.4255, 471.3219
431.9076, 466.1256
432.3897, 462.5865
432.8719, 460.3654
433.3540, 458.1889
433.8361, 455.0575
434.3182, 451.1207
434.8003, 447.3285
435.2824, 443.2740
435.7646, 440.0963
436.2467, 438.6306
436.7288, 437.8093
437.2109, 436.4748
437.6930, 434.2591
438.1751, 431.7946
438.6573, 429.7100
439.1394, 427.9864
439.6215, 427.0112
440.1036, 427.4103
440.5857, 427.9516
441.0678, 427.5933
441.5500, 426.6202
442.0321, 426.1393
442.5142, 426.8983
442.9963, 428.4239
443.4784, 429.9586
443.9605, 431.5236
444.4427, 432.9247
444.9248, 433.9438
445.4069, 434.7901
445.8890, 435.8317
446.3711, 437.1548
446.8532, 438.4857
447.3354, 439.4295
447.8175, 440.2969
448.2996, 441.8182
448.7817, 444.1908
449.2638, 446.9838
449.7459, 449.7792
450.2281, 452.5790
450.7102, 455.4014
451.1923, 458.0184
451.6744, 460.8598
452.1565, 464.4591
452.6386, 468.5409
453.1208, 472.1393
453.6029, 474.6821
454.0850, 476.7065
454.5671, 479.7085
455.0492, 484.7404
455.5313, 489.3647
456.0135, 493.1577
456.4956, 496.8025
456.9777, 501.1333
457.4598, 506.0785
457.9419, 510.6911
458.4240, 513.9481
458.9062, 515.8133
459.3883, 518.6354
459.8704, 523.6276
460.3525, 528.2693
460.8346, 531.8488
461.3167, 534.8327
461.7989, 537.8920
462.2810, 541.3023
462.7631, 544.6352
463.2452, 547.1887
463.7273, 548.8510
464.2094, 550.4094
464.6916, 552.5133
465.1737, 553.9396
465.6558, 553.7646
466.1379, 552.2592
466.6200, 550.4812
467.1021, 548.9750
467.5843, 547.5759
468.0664, 546.1195
468.5485, 544.6835
469.0306, 542.5616
469.5127, 539.2196
469.9948, 535.0828
470.4770, 530.9232
470.9591, 526.7891
471.4412, 522.5565
471.9233, 518.1065
472.4054, 513.5280
472.8875, 509.1573
473.3697, 505.0873
473.8518, 500.6736
474.3339, 495.1764
474.8160, 488.6179
475.2981, 482.6247
475.7802, 477.1306
476.2624, 472.2694
476.7445, 468.3826
477.2266, 465.0964
477.7087, 461.8051
478.1908, 458.2420
478.6729, 454.4555
479.1551, 450.5021
479.6372, 446.0380
480.1193, 442.2155
480.6014, 438.9336
481.0835, 436.2665
481.5656, 434.5888
482.0478, 433.5926
482.5299, 432.5492
483.0120, 430.9874
483.4941, 429.0107
483.9762, 427.0264
484.4583, 424.9492
484.9405, 423.0552
485.4226, 421.6420
485.9047, 420.2513
486.3868, 418.4506
486.8689, 416.2215
487.3510, 414.0464
487.8332, 412.4169
488.3153, 411.2184
488.7974, 409.8837
489.2795, 408.4742
489.7616, 406.7285
490.2437, 404.3907
490.7259, 401.6234
491.2080, 398.5021
491.6901, 394.7723
492.1722, 391.2625
492.6543, 388.9152
493.1364, 387.2940
493.6186, 385.1637
494.1007, 382.1848
494.5828, 378.6253
495.0649, 374.6633
495.5470, 370.2453
496.0291, 365.9884
496.5113, 361.8316
496.9934, 357.8944
497.4755, 354.3524
497.9576, 351.0818
498.4397, 347.8128
498.9218, 344.4445
499.4040, 340.9492
499.8861, 337.3222
500.3682, 333.7547
500.8503, 329.7025
501.3324, 324.5397
501.8145, 319.4660
502.2967, 315.2554
502.7788, 311.7982
503.2609, 308.4712
503.7430, 304.8011
504.2251, 300.9444
504.7072, 297.5746
505.1894, 294.8444
505.6715, 292.2240
506.1536, 289.7921
506.6357, 287.2689
507.1178, 284.2932
507.5999, 280.8626
508.0821, 277.6199
508.5642, 275.2351
509.0463, 273.4055
509.5284, 271.1375
510.0105, 268.2654
510.4926, 265.4797
510.9748, 263.3557
511.4569, 261.5963
511.9390, 259.4390
512.4211, 256.5094
512.9032, 253.8240
513.3853, 252.0349
513.8674, 250.7860
514.3495, 249.5448
514.8317, 248.1783
515.3138, 246.6745
515.7959, 244.9511
516.2780, 242.9598
516.7601, 241.4621
517.2422, 241.0622
517.7244, 240.3887
518.2065, 238.6346
518.6886, 236.4340
519.1707, 234.7032
519.6528, 233.7701
520.1349, 233.3179
520.6171, 232.9513
521.0992, 232.7613
521.5813, 232.2890
522.0634, 231.0730
522.5455, 230.0342
523.0276, 229.7063
523.5098, 229.7671
523.9919, 229.5546
524.4740, 228.6924
524.9561, 227.6737
525.4382, 227.3223
525.9203, 227.6560
526.4025, 227.6908
526.8846, 227.0777
527.3667, 226.2534
527.8488, 225.4309
528.3309, 224.6729
528.8130, 224.4849
529.2952, 225.3945
529.7773, 226.6436
530.2594, 227.7139
530.7415, 228.5483
531.2236, 229.0037
531.7057, 229.0177
532.1879, 228.6052
532.6700, 227.6877
533.1521, 225.5451
533.6342, 224.6200
534.1163, 225.8322
534.5984, 227.5312
535.0806, 228.7311
535.5627, 229.4684
536.0448, 230.2087
536.5269, 231.2484
537.0090, 232.4315
537.4911, 233.2527
537.9733, 233.5609
538.4554, 233.8474
538.9375, 233.7911
539.4196, 234.0385
539.9017, 235.1646
540.3839, 237.0361
540.8660, 238.9661
541.3481, 240.6549
541.8302, 242.0313
542.3123, 242.6464
542.7944, 242.3307
543.2766, 242.7930
543.7587, 245.1539
544.2408, 248.2832
544.7229, 250.3566
545.2050, 251.2009
545.6871, 252.5785
546.1693, 255.6853
546.6514, 259.2488
547.1335, 261.7349
547.6156, 263.2003
548.0977, 264.7714
548.5798, 267.0768
549.0620, 270.0692
549.5441, 273.5655
550.0262, 278.1601
550.5083, 282.4725
550.9904, 286.4847
551.4725, 290.2234
551.9547, 293.5502
552.4368, 296.5862
552.9189, 299.7364
553.4010, 303.2943
553.8831, 307.1781
554.3652, 310.9745
554.8474, 314.5253
555.3295, 318.3487
555.8116, 323.3885
556.2937, 328.1874
556.7758, 331.2938
557.2579, 332.7699
557.7401, 334.5246
558.2222, 337.8184
558.7043, 342.0381
559.1864, 346.6454
559.6685, 351.6008
560.1506, 355.1661
560.6328, 355.9950
561.1149, 355.3601
561.5970, 356.2787
562.0791, 359.5448
562.5612, 361.5250
563.0433, 361.1130
563.5255, 359.4865
564.0076, 357.5111
564.4897, 355.2484
564.9718, 352.4976
565.4539, 349.1675
565.9360, 345.1295
566.4182, 339.9357
566.9003, 332.9090
567.3824, 325.9036
567.8645, 318.8731
568.3466, 312.0333
568.8287, 305.6187
569.3109, 299.5272
569.7930, 293.5807
570.2751, 287.6782
570.7572, 281.7710
571.2393, 275.7982
571.7214, 269.7826
572.2036, 263.6122
572.6857, 256.9644
573.1678, 250.5538
573.6499, 245.1894
574.1320, 240.8555
574.6141, 236.9017
575.0963, 233.1756
575.5784, 229.7604
576.0605, 226.9153
576.5426, 224.4760
577.0247, 221.8259
577.5068, 218.6643
577.9890, 215.3523
578.4711, 212.5351
578.9532, 210.1604
579.4353, 208.4846
579.9174, 208.3603
580.3995, 207.9955
580.8817, 206.1989
581.3638, 203.5800
581.8459, 201.4605
582.3280, 200.5030
582.8101, 199.9554
583.2922, 198.4095
583.7744, 195.7569
