##NAMES=Kimzeyite
##RRUFFID=R060148
##IDEAL CHEMISTRY=Ca_3_Zr^4+^_2_(Al_2_Si)O_12_
##LOCALITY=Magnet Cove, Arkansas, USA
##OWNER=RRUFF
##SOURCE=University of Arizona Mineral Museum
##DESCRIPTION=Black dodecahedra mixed with andradite and associated with quartz
##STATUS=The identification of this mineral has been confirmed by X-ray diffraction and chemical analysis
##URL=rruff.info/R060148
##MEASURED CHEMISTRY=(Ca_2.97_Mg_0.03_)_Σ=3_(Zr_1.58_Ti_0.42_)_Σ=2_(Si_1.06_Fe^3+^_0.98_Al_0.96_)_Σ=3_O_12_
92.37695, 149.9689
92.85907, 149.4270
93.34119, 149.8567
93.82330, 150.1889
94.30542, 149.1700
94.78754, 146.4910
95.26965, 142.5771
95.75177, 138.1400
96.23389, 132.9215
96.71600, 127.7909
97.19812, 123.5576
97.68024, 120.3375
98.16235, 117.9186
98.64447, 116.2483
99.12659, 115.7848
99.60870, 114.5077
100.0908, 111.9910
100.5729, 108.9896
101.0551, 106.0351
101.5372, 103.2957
102.0193, 100.8481
102.5014, 99.28042
102.9835, 99.51311
103.4656, 99.72105
103.9478, 99.82991
104.4299, 99.69214
104.9120, 99.08941
105.3941, 97.81033
105.8762, 95.75499
106.3583, 93.88229
106.8405, 92.25009
107.3226, 90.67645
107.8047, 88.94611
108.2868, 87.07372
108.7689, 85.38905
109.2510, 84.33389
109.7332, 83.94753
110.2153, 83.63115
110.6974, 83.33766
111.1795, 83.06389
111.6616, 82.79987
112.1437, 82.53918
112.6259, 82.30347
113.1080, 82.10574
113.5901, 81.94420
114.0722, 81.82771
114.5543, 81.79852
115.0364, 81.84959
115.5185, 81.84063
116.0007, 81.69731
116.4828, 81.51295
116.9649, 81.33884
117.4470, 81.18327
117.9291, 81.03088
118.4112, 80.81893
118.8934, 80.41845
119.3755, 80.29762
119.8576, 80.62228
120.3397, 81.13134
120.8218, 81.69994
121.3039, 82.27048
121.7861, 82.75605
122.2682, 82.90629
122.7503, 82.30232
123.2324, 81.77707
123.7145, 81.32500
124.1966, 80.99500
124.6788, 80.89091
125.1609, 81.10103
125.6430, 81.56372
126.1251, 81.73629
126.6072, 81.38145
127.0893, 81.04691
127.5715, 81.01426
128.0536, 81.23353
128.5357, 81.41835
129.0178, 81.34264
129.4999, 81.04054
129.9821, 80.80977
130.4642, 80.73079
130.9463, 80.68981
131.4284, 80.52680
131.9105, 80.19503
132.3926, 79.93757
132.8748, 79.96599
133.3569, 80.19607
133.8390, 80.51627
134.3211, 81.00156
134.8032, 81.55919
135.2853, 81.84805
135.7674, 81.67815
136.2496, 81.48042
136.7317, 81.44674
137.2138, 81.55803
137.6959, 81.75288
138.1780, 81.99532
138.6601, 82.28825
139.1423, 82.60132
139.6244, 83.00008
140.1065, 83.36552
140.5886, 83.64857
141.0707, 83.84931
141.5528, 84.00191
142.0350, 84.14296
142.5171, 84.26883
142.9992, 84.39116
143.4813, 84.48453
143.9634, 84.59026
144.4455, 84.71580
144.9277, 84.86903
145.4098, 85.08804
145.8919, 85.45165
146.3740, 86.14910
146.8561, 86.62935
147.3382, 86.73315
147.8204, 86.65304
148.3025, 86.59703
148.7846, 86.62527
149.2667, 86.75403
149.7488, 87.07849
150.2309, 87.68118
150.7131, 88.17470
151.1952, 88.42274
151.6773, 88.45016
152.1594, 88.32082
152.6415, 88.02258
153.1236, 87.59515
153.6058, 87.10354
154.0879, 86.51099
154.5700, 85.97375
155.0521, 85.63832
155.5342, 85.51228
156.0163, 85.43153
156.4985, 85.40434
156.9806, 85.36245
157.4627, 85.26649
157.9448, 85.11668
158.4269, 84.86833
158.9090, 84.36763
159.3912, 83.38762
159.8733, 82.75255
160.3554, 82.92933
160.8375, 83.36879
161.3196, 83.56554
161.8017, 83.28472
162.2839, 82.72287
162.7660, 82.48515
163.2481, 82.96925
163.7302, 83.25294
164.2123, 83.07510
164.6944, 82.66804
165.1766, 82.30827
165.6587, 82.14963
166.1408, 82.17175
166.6229, 82.24226
167.1050, 82.55225
167.5871, 82.70549
168.0693, 82.46938
168.5514, 82.01508
169.0335, 81.68433
169.5156, 81.71647
169.9977, 82.08514
170.4798, 82.32734
170.9620, 82.31478
171.4441, 82.32545
171.9262, 82.51739
172.4083, 82.85996
172.8904, 83.20447
173.3725, 83.46578
173.8547, 83.62222
174.3368, 83.66098
174.8189, 83.47036
175.3010, 83.24024
175.7831, 83.11723
176.2652, 83.10772
176.7474, 83.15701
177.2295, 83.23597
177.7116, 83.34584
178.1937, 83.49097
178.6758, 83.77292
179.1579, 84.05520
179.6401, 84.07718
180.1222, 83.72661
180.6043, 83.44677
181.0864, 83.62489
181.5685, 84.04829
182.0506, 84.37525
182.5328, 84.38677
183.0149, 84.19552
183.4970, 84.15283
183.9791, 84.30288
184.4612, 84.55373
184.9433, 84.98634
185.4255, 85.46733
185.9076, 85.75602
186.3897, 85.63094
186.8718, 85.14279
187.3539, 84.85183
187.8360, 84.87509
188.3182, 84.99785
188.8003, 85.19202
189.2824, 85.43584
189.7645, 85.71294
190.2466, 86.02985
190.7287, 86.39657
191.2109, 86.57998
191.6930, 86.36446
192.1751, 86.17531
192.6572, 86.17973
193.1393, 86.33566
193.6214, 86.49815
194.1036, 86.53506
194.5857, 86.42388
195.0678, 86.37057
195.5499, 86.34718
196.0320, 86.38897
196.5141, 86.56390
196.9963, 86.83981
197.4784, 87.08709
197.9605, 87.16492
198.4426, 87.03482
198.9247, 87.07836
199.4068, 87.48340
199.8890, 87.90201
200.3711, 88.06068
200.8532, 87.95445
201.3353, 87.83077
201.8174, 87.92945
202.2995, 88.26867
202.7817, 88.54581
203.2638, 88.73522
203.7459, 88.86723
204.2280, 88.95218
204.7101, 88.98911
205.1922, 89.02895
205.6744, 89.13011
206.1565, 89.27944
206.6386, 89.41110
207.1207, 89.46310
207.6028, 89.50975
208.0849, 89.67258
208.5671, 89.98875
209.0492, 90.31715
209.5313, 90.50344
210.0134, 90.61353
210.4955, 90.79377
210.9776, 91.20007
211.4598, 91.70187
211.9419, 91.98835
212.4240, 91.97116
212.9061, 91.90874
213.3882, 91.84657
213.8703, 91.85146
214.3525, 92.07609
214.8346, 92.70274
215.3167, 93.60857
215.7988, 94.33024
216.2809, 94.78732
216.7630, 95.17075
217.2451, 95.52718
217.7273, 95.88198
218.2094, 96.27893
218.6915, 96.74654
219.1736, 97.27800
219.6557, 97.82986
220.1378, 98.40099
220.6200, 98.99512
221.1021, 99.64580
221.5842, 100.3134
222.0663, 100.9381
222.5484, 101.4726
223.0305, 101.9267
223.5127, 102.3941
223.9948, 102.9224
224.4769, 103.4088
224.9590, 103.7745
225.4411, 104.0903
225.9232, 104.4575
226.4054, 104.9372
226.8875, 105.5309
227.3696, 106.3118
227.8517, 107.6457
228.3338, 108.7820
228.8159, 109.4639
229.2981, 109.8380
229.7802, 110.1480
230.2623, 110.5433
230.7444, 111.0265
231.2265, 111.6247
231.7086, 112.5054
232.1908, 113.3090
232.6729, 113.9374
233.1550, 114.4241
233.6371, 114.8219
234.1192, 115.1435
234.6013, 115.4196
235.0835, 115.8964
235.5656, 116.7636
236.0477, 117.5853
236.5298, 118.2265
237.0119, 118.7237
237.4940, 119.1800
237.9762, 119.6604
238.4583, 120.1328
238.9404, 120.4450
239.4225, 120.3727
239.9046, 120.4151
240.3867, 120.8898
240.8689, 121.6216
241.3510, 122.1371
241.8331, 122.1315
242.3152, 121.8353
242.7973, 121.9582
243.2794, 122.7403
243.7616, 123.4831
244.2437, 123.9514
244.7258, 124.1533
245.2079, 124.0613
245.6900, 123.5504
246.1721, 122.8718
246.6543, 122.5295
247.1364, 122.5849
247.6185, 122.7561
248.1006, 123.0006
248.5827, 123.2694
249.0648, 123.3777
249.5470, 123.2216
250.0291, 122.9163
250.5112, 122.5945
250.9933, 122.2189
251.4754, 122.0138
251.9576, 122.2311
252.4397, 122.7636
252.9218, 123.1337
253.4039, 123.1593
253.8860, 123.0461
254.3681, 122.9830
254.8503, 122.9668
255.3324, 123.0797
255.8145, 123.4607
256.2966, 124.0468
256.7787, 124.5162
257.2608, 124.7956
257.7430, 124.9569
258.2251, 125.0088
258.7072, 124.9793
259.1893, 125.0526
259.6714, 125.3592
260.1535, 125.8740
260.6357, 126.4942
261.1178, 127.3788
261.5999, 128.1287
262.0820, 128.4851
262.5641, 128.5229
263.0462, 128.4743
263.5284, 128.3392
264.0105, 128.1864
264.4926, 128.4760
264.9747, 129.5297
265.4568, 130.5791
265.9389, 131.2589
266.4211, 131.6617
266.9032, 131.9633
267.3853, 132.1934
267.8674, 132.4087
268.3495, 132.8862
268.8316, 133.8037
269.3138, 134.7283
269.7959, 135.5054
270.2780, 136.1830
270.7601, 136.8397
271.2422, 137.5252
271.7243, 138.2099
272.2065, 138.7819
272.6886, 139.1969
273.1707, 139.5586
273.6528, 139.7210
274.1349, 139.9163
274.6170, 140.4587
275.0992, 141.5212
275.5813, 142.8729
276.0634, 143.9246
276.5455, 144.5214
277.0276, 145.0981
277.5097, 145.5711
277.9919, 146.1454
278.4740, 147.0953
278.9561, 148.5188
279.4382, 150.1092
279.9203, 151.2860
280.4024, 151.8376
280.8846, 152.3955
281.3667, 152.7941
281.8488, 153.3625
282.3309, 154.4575
282.8130, 156.1237
283.2951, 157.9767
283.7773, 159.4289
284.2594, 160.2759
284.7415, 161.2204
285.2236, 162.3170
285.7057, 163.4728
286.1878, 164.6356
286.6700, 165.7954
287.1521, 166.9834
287.6342, 168.2529
288.1163, 169.6281
288.5984, 170.9575
289.0805, 172.3013
289.5627, 173.5463
290.0448, 174.6823
290.5269, 175.6799
291.0090, 176.4395
291.4911, 176.7935
291.9732, 176.6650
292.4554, 177.1038
292.9375, 178.7842
293.4196, 180.3524
293.9017, 181.2850
294.3838, 181.7527
294.8659, 182.2108
295.3481, 182.9970
295.8302, 184.0746
296.3123, 184.9011
296.7944, 185.2296
297.2765, 185.5601
297.7586, 185.9762
298.2408, 186.4563
298.7229, 186.9705
299.2050, 187.5052
299.6871, 188.0340
300.1692, 188.4494
300.6513, 188.6777
301.1335, 188.8662
301.6156, 189.0240
302.0977, 189.1491
302.5798, 189.2338
303.0619, 189.2755
303.5440, 189.2877
304.0262, 189.2990
304.5083, 189.3266
304.9904, 189.3249
305.4725, 189.2353
305.9546, 189.1535
306.4367, 189.2375
306.9189, 189.4890
307.4010, 189.6697
307.8831, 189.4041
308.3652, 188.3851
308.8473, 187.7244
309.3294, 187.5381
309.8116, 187.5430
310.2937, 187.6957
310.7758, 187.9131
311.2579, 187.9865
311.7400, 187.6748
312.2221, 186.8878
312.7043, 186.3458
313.1864, 186.3563
313.6685, 186.2732
314.1506, 185.6595
314.6327, 184.7220
315.1148, 184.0085
315.5970, 183.9489
316.0791, 184.4845
316.5612, 184.8035
317.0433, 184.7800
317.5254, 184.6828
318.0075, 184.5193
318.4897, 184.3258
318.9718, 184.1542
319.4539, 184.0331
319.9360, 183.9354
320.4181, 183.7689
320.9002, 183.3316
321.3824, 183.0901
321.8645, 183.3490
322.3466, 183.6753
322.8287, 183.5955
323.3108, 182.9674
323.7929, 182.0654
324.2751, 181.3492
324.7572, 180.8145
325.2393, 180.5066
325.7214, 180.5972
326.2035, 180.7524
326.6856, 180.8098
327.1678, 180.7138
327.6499, 180.4177
328.1320, 179.8217
328.6141, 178.8005
329.0962, 178.1086
329.5783, 177.9005
330.0605, 177.8237
330.5426, 177.9044
331.0247, 178.0076
331.5068, 177.8315
331.9889, 177.0984
332.4710, 175.8626
332.9532, 175.0144
333.4353, 175.0242
333.9174, 174.9238
334.3995, 174.5191
334.8816, 173.8947
335.3637, 173.1388
335.8459, 172.2933
336.3280, 171.4401
336.8101, 170.8607
337.2922, 170.8223
337.7743, 170.6680
338.2564, 170.3083
338.7386, 169.8433
339.2206, 169.3693
339.7028, 168.9091
340.1849, 168.4155
340.6670, 167.8073
341.1491, 167.0374
341.6312, 166.2709
342.1133, 165.5308
342.5955, 164.7788
343.0776, 163.9252
343.5597, 163.0148
344.0418, 162.2250
344.5239, 161.7690
345.0060, 161.6786
345.4882, 161.3579
345.9703, 160.7324
346.4524, 159.9218
346.9345, 158.7139
347.4166, 157.3629
347.8987, 156.3410
348.3809, 155.9956
348.8630, 156.1022
349.3451, 155.7357
349.8272, 154.5654
350.3093, 153.3974
350.7914, 152.3142
351.2736, 151.3410
351.7557, 150.5413
352.2378, 149.9314
352.7199, 149.4001
353.2020, 148.7778
353.6841, 148.0632
354.1663, 147.2552
354.6484, 146.2442
355.1305, 145.2241
355.6126, 144.3223
356.0947, 143.5411
356.5768, 142.7885
357.0590, 141.9446
357.5411, 141.0054
358.0232, 140.2142
358.5053, 139.7303
358.9874, 139.2277
359.4695, 138.5724
359.9517, 137.8002
360.4338, 136.9744
360.9159, 136.0636
361.3980, 135.1719
361.8801, 134.6229
362.3622, 134.5031
362.8444, 134.5556
363.3265, 135.1521
363.8086, 135.6594
364.2907, 135.2635
364.7728, 133.6163
365.2549, 131.5986
365.7371, 130.4085
366.2192, 130.1463
366.7013, 129.7329
367.1834, 128.6749
367.6655, 127.5871
368.1476, 126.8950
368.6298, 126.6157
369.1119, 126.5816
369.5940, 126.8419
370.0761, 127.2949
370.5582, 127.4162
371.0403, 127.0323
371.5225, 126.5464
372.0046, 126.2249
372.4867, 126.0167
372.9688, 125.8086
373.4509, 125.6256
373.9330, 125.3795
374.4152, 124.8253
374.8973, 123.9012
375.3794, 123.2201
375.8615, 123.3054
376.3436, 123.7277
376.8257, 123.8192
377.3079, 123.4270
377.7900, 122.9340
378.2721, 122.5585
378.7542, 122.3001
379.2363, 122.1811
379.7184, 122.2609
380.2006, 122.3948
380.6827, 122.3666
381.1648, 122.1787
381.6469, 122.0672
382.1290, 122.1737
382.6111, 122.3738
383.0933, 122.5086
383.5754, 122.5617
384.0575, 122.5349
384.5396, 122.3973
385.0217, 122.1670
385.5038, 121.9942
385.9860, 121.9441
386.4681, 121.8990
386.9502, 121.7904
387.4323, 121.6275
387.9144, 121.4118
388.3965, 121.1027
388.8787, 120.8093
389.3608, 120.8605
389.8429, 121.4079
390.3250, 121.9069
390.8071, 122.3287
391.2892, 122.6078
391.7714, 122.5699
392.2535, 122.1929
392.7356, 121.8005
393.2177, 121.7921
393.6998, 122.2770
394.1819, 122.6352
394.6641, 122.8439
395.1462, 122.9606
395.6283, 122.8981
396.1104, 122.7531
396.5925, 122.7974
397.0746, 123.2315
397.5568, 123.9666
398.0389, 124.5213
398.5210, 124.6595
399.0031, 124.8937
399.4852, 125.4802
399.9673, 126.1005
400.4495, 126.3538
400.9316, 126.1314
401.4137, 125.7188
401.8958, 125.5416
402.3779, 125.6462
402.8600, 125.8759
403.3422, 126.3186
403.8243, 126.7905
404.3064, 127.2417
404.7885, 127.6443
405.2706, 127.9612
405.7527, 128.1570
406.2349, 128.2421
406.7170, 128.2754
407.1991, 128.0921
407.6812, 128.1063
408.1633, 128.4750
408.6454, 129.0435
409.1276, 129.6806
409.6097, 130.3418
410.0918, 130.9531
410.5739, 131.4382
411.0560, 131.8171
411.5381, 131.9452
412.0203, 131.3943
412.5024, 130.9256
412.9845, 131.0500
413.4666, 131.6991
413.9487, 132.4137
414.4308, 132.9438
414.9130, 133.2916
415.3951, 133.4227
415.8772, 133.2388
416.3593, 133.0786
416.8414, 133.2023
417.3235, 133.4420
417.8057, 133.5629
418.2878, 133.4654
418.7699, 133.3211
419.2520, 133.2374
419.7341, 133.2260
420.2162, 133.4555
420.6984, 134.1564
421.1805, 134.8781
421.6626, 135.0005
422.1447, 134.5327
422.6268, 134.0291
423.1089, 133.6009
423.5911, 133.2901
424.0732, 133.1865
424.5553, 133.3011
425.0374, 133.4971
425.5195, 133.7400
426.0016, 133.9784
426.4838, 133.9516
426.9659, 133.4489
427.4480, 132.9131
427.9301, 132.5166
428.4122, 132.2354
428.8943, 132.0401
429.3765, 131.9272
429.8586, 131.8352
430.3407, 131.6554
430.8228, 131.3501
431.3049, 131.0301
431.7870, 130.5683
432.2692, 130.1906
432.7513, 130.1725
433.2334, 130.4440
433.7155, 130.6239
434.1976, 130.3791
434.6797, 129.7517
435.1619, 129.3544
435.6440, 129.3248
436.1261, 129.3761
436.6082, 129.6553
437.0903, 129.9108
437.5724, 129.8131
438.0546, 129.2583
438.5367, 128.4901
439.0188, 127.8659
439.5009, 127.3832
439.9830, 127.0549
440.4651, 126.8627
440.9473, 126.8424
441.4294, 127.1820
441.9115, 127.7303
442.3936, 128.0891
442.8757, 127.9347
443.3578, 127.4329
443.8400, 127.1886
444.3221, 127.3684
444.8042, 127.3862
445.2863, 126.8338
445.7684, 126.1288
446.2505, 125.6617
446.7327, 125.5193
447.2148, 125.4805
447.6969, 125.3898
448.1790, 125.2483
448.6611, 125.0344
449.1432, 124.6855
449.6254, 124.3827
450.1075, 124.3364
450.5896, 124.4712
451.0717, 124.5647
451.5538, 124.5401
452.0359, 124.4614
452.5181, 124.4247
453.0002, 124.4094
453.4823, 124.2482
453.9644, 123.8114
454.4465, 123.2471
454.9286, 122.9189
455.4108, 122.9256
455.8929, 122.8268
456.3750, 122.3448
456.8571, 121.8034
457.3392, 121.5986
457.8214, 121.7658
458.3035, 122.0201
458.7856, 122.1281
459.2677, 122.0891
459.7498, 121.9238
460.2319, 121.6491
460.7141, 121.2526
461.1962, 120.5043
461.6783, 119.7026
462.1604, 119.3345
462.6425, 119.5716
463.1246, 120.0594
463.6068, 120.1544
464.0889, 119.5804
464.5710, 119.3501
465.0531, 119.8188
465.5352, 120.2795
466.0173, 120.3713
466.4995, 120.1682
466.9816, 119.9318
467.4637, 119.8169
467.9458, 119.8070
468.4279, 119.8909
468.9100, 120.1838
469.3922, 120.2699
469.8743, 119.7021
470.3564, 119.0765
470.8385, 118.9427
471.3206, 119.3747
471.8027, 119.8701
472.2849, 119.9689
472.7670, 119.8002
473.2491, 119.8846
473.7312, 120.3394
474.2133, 120.8385
474.6954, 121.0633
475.1776, 121.1618
475.6597, 121.4993
476.1418, 122.3457
476.6239, 123.1807
477.1060, 123.5362
477.5881, 123.5755
478.0703, 123.7705
478.5524, 124.2612
479.0345, 125.0267
479.5166, 126.1331
479.9987, 127.7471
480.4808, 128.9008
480.9630, 129.0202
481.4451, 129.0976
481.9272, 129.8209
482.4093, 131.1113
482.8914, 132.5328
483.3735, 133.8254
483.8557, 135.0757
484.3378, 136.6186
484.8199, 139.0026
485.3020, 140.8757
485.7841, 141.7892
486.2662, 142.4826
486.7484, 143.5152
487.2305, 144.9509
487.7126, 146.5161
488.1947, 147.9667
488.6768, 149.3201
489.1589, 150.8712
489.6411, 152.7959
490.1232, 154.6463
490.6053, 156.2573
491.0874, 157.7456
491.5695, 159.2753
492.0516, 160.9032
492.5338, 162.4147
493.0159, 163.4936
493.4980, 164.1983
493.9801, 165.0427
494.4622, 166.2054
494.9443, 167.3181
495.4265, 168.0685
495.9086, 168.5319
496.3907, 168.8585
496.8728, 169.0929
497.3549, 169.1972
497.8370, 169.2356
498.3192, 169.1402
498.8013, 168.6020
499.2834, 167.4471
499.7655, 165.9560
500.2476, 164.5809
500.7297, 163.4089
501.2119, 162.0210
501.6940, 160.3016
502.1761, 158.4314
502.6582, 156.5138
503.1403, 154.5561
503.6224, 152.5265
504.1045, 150.4111
504.5866, 148.1865
505.0688, 145.7405
505.5509, 142.7595
506.0330, 140.0432
506.5151, 137.6408
506.9972, 135.4796
507.4793, 133.5177
507.9615, 131.7420
508.4436, 130.1604
508.9257, 128.8687
509.4078, 127.7750
509.8899, 126.3161
510.3720, 124.2502
510.8542, 122.3398
511.3363, 121.0517
511.8184, 119.9609
512.3005, 118.5814
512.7827, 116.7872
513.2648, 115.1276
513.7469, 114.0692
514.2290, 113.4638
514.7111, 112.8971
515.1932, 112.3347
515.6754, 111.7225
516.1575, 110.9889
516.6396, 110.1648
517.1217, 109.4097
517.6038, 108.7791
518.0859, 108.1630
518.5681, 107.4942
519.0502, 106.8117
519.5323, 106.1533
520.0144, 105.5295
520.4965, 105.0261
520.9786, 104.7753
521.4608, 104.8472
521.9429, 104.7396
522.4250, 104.3503
522.9071, 103.9213
523.3892, 103.5873
523.8713, 103.2563
524.3535, 102.7166
524.8356, 101.8899
525.3177, 101.0369
525.7998, 100.6487
526.2819, 100.8404
526.7640, 100.9212
527.2462, 100.7896
527.7283, 100.5981
528.2104, 100.5138
528.6925, 100.4240
529.1746, 100.0266
529.6567, 99.01662
530.1389, 97.92451
530.6210, 97.56510
531.1031, 97.89224
531.5852, 98.08591
532.0673, 97.87877
532.5494, 97.50333
533.0316, 97.19361
533.5137, 96.94578
533.9958, 96.81763
534.4779, 97.00748
534.9600, 97.16757
535.4421, 96.91841
535.9243, 96.38418
536.4064, 96.04433
536.8885, 96.15411
537.3706, 96.45279
537.8527, 96.37804
538.3348, 95.63715
538.8170, 95.09788
539.2991, 94.90850
539.7812, 94.77307
540.2633, 94.49656
540.7454, 94.12370
541.2275, 93.81400
541.7097, 93.66839
542.1918, 93.63521
542.6739, 93.60973
543.1560, 93.64566
543.6381, 93.51249
544.1202, 92.88706
544.6024, 92.30621
545.0845, 92.22042
545.5666, 92.54160
546.0487, 92.73357
546.5308, 92.32480
547.0129, 91.71368
547.4951, 91.61962
547.9772, 92.02584
548.4593, 92.26945
548.9414, 92.00149
549.4235, 91.51169
549.9056, 91.37495
550.3878, 91.67435
550.8699, 91.77184
551.3520, 91.38667
551.8341, 90.87875
552.3162, 90.49666
552.7983, 90.26015
553.2805, 90.13826
553.7626, 90.11822
554.2447, 90.17589
554.7268, 90.24950
555.2089, 90.41465
555.6910, 90.45384
556.1732, 90.27145
556.6553, 90.05571
557.1374, 89.95239
557.6195, 89.92339
558.1016, 89.79907
558.5837, 89.41487
559.0659, 88.94952
559.5480, 88.88823
560.0301, 89.31741
560.5122, 89.63572
560.9943, 89.64297
561.4764, 89.49904
561.9586, 89.35398
562.4407, 89.20892
562.9228, 89.05897
563.4049, 88.83557
563.8870, 88.65264
564.3691, 88.71667
564.8513, 88.96719
565.3334, 89.05300
565.8155, 88.78647
566.2976, 88.35825
566.7797, 88.12888
567.2618, 88.20006
567.7440, 88.25298
568.2261, 88.36324
568.7082, 88.38646
569.1903, 88.18195
569.6724, 87.82469
570.1545, 87.48109
570.6367, 87.23928
571.1188, 87.07917
571.6009, 86.96591
572.0830, 86.90304
572.5651, 86.87310
573.0472, 86.99397
573.5294, 87.02309
574.0115, 86.75240
574.4936, 86.28250
574.9757, 85.89793
575.4578, 85.74223
575.9399, 85.68439
576.4221, 85.56543
576.9042, 85.40498
577.3863, 85.34740
577.8684, 85.48061
578.3505, 85.58774
578.8326, 85.38187
579.3148, 84.83340
579.7969, 84.39817
580.2790, 84.08646
580.7611, 83.89352
581.2432, 83.94173
581.7253, 84.07231
582.2075, 83.98106
582.6896, 83.57629
583.1717, 83.10986
583.6538, 82.96034
584.1359, 83.19683
584.6180, 83.25113
585.1002, 82.92012
585.5823, 82.64494
586.0643, 82.69878
586.5464, 82.83318
