##NAMES=Kimzeyite
##RRUFFID=R060148
##IDEAL CHEMISTRY=Ca_3_Zr^4+^_2_(Al_2_Si)O_12_
##LOCALITY=Magnet Cove, Arkansas, USA
##OWNER=RRUFF
##SOURCE=University of Arizona Mineral Museum
##DESCRIPTION=Black dodecahedra mixed with andradite and associated with quartz
##STATUS=The identification of this mineral has been confirmed by X-ray diffraction and chemical analysis
##URL=rruff.info/R060148
##MEASURED CHEMISTRY=(Ca_2.97_Mg_0.03_)_Σ=3_(Zr_1.58_Ti_0.42_)_Σ=2_(Si_1.06_Fe^3+^_0.98_Al_0.96_)_Σ=3_O_12_
91.40820, 9.207307
91.89032, 9.528502
92.37244, 9.361231
92.85455, 8.784393
93.33667, 8.269743
93.81879, 8.263754
94.30090, 8.604640
94.78302, 8.789801
95.26514, 8.656148
95.74725, 8.348028
96.22937, 8.195770
96.71149, 8.212703
97.19360, 8.249672
97.67572, 8.115703
98.15784, 7.817482
98.63995, 7.642902
99.12207, 7.709088
99.60419, 7.985301
100.0863, 8.209860
100.5684, 8.381604
101.0505, 8.504389
101.5327, 8.578288
102.0148, 8.592055
102.4969, 8.590425
102.9790, 8.560773
103.4611, 8.471717
103.9432, 8.537994
104.4253, 8.808428
104.9075, 9.208110
105.3896, 9.582165
105.8717, 9.918406
106.3538, 10.25026
106.8359, 10.58608
107.3180, 10.84034
107.8002, 11.24245
108.2823, 11.82654
108.7644, 12.56318
109.2465, 13.37095
109.7286, 14.26698
110.2107, 15.21097
110.6929, 16.20213
111.1750, 17.15772
111.6571, 18.23944
112.1392, 19.39502
112.6213, 20.65156
113.1034, 22.22972
113.5856, 24.51347
114.0677, 26.96998
114.5498, 29.19952
115.0319, 30.79836
115.5140, 32.48840
115.9961, 34.52345
116.4783, 36.90339
116.9604, 39.26204
117.4425, 41.56669
117.9246, 43.77670
118.4067, 45.82983
118.8888, 47.62630
119.3710, 49.34080
119.8531, 51.04488
120.3352, 52.73003
120.8173, 54.47481
121.2994, 56.20707
121.7815, 58.02428
122.2637, 60.10534
122.7458, 62.63256
123.2279, 65.39542
123.7100, 68.21185
124.1921, 71.08037
124.6742, 73.92828
125.1564, 76.57004
125.6385, 79.10291
126.1206, 81.84713
126.6027, 85.06681
127.0848, 88.58993
127.5669, 92.12621
128.0491, 95.67287
128.5312, 99.13620
129.0133, 102.4167
129.4954, 105.4870
129.9775, 108.3700
130.4596, 111.1209
130.9418, 113.6876
131.4239, 115.9441
131.9060, 117.7946
132.3881, 119.3923
132.8702, 121.0059
133.3523, 122.6358
133.8345, 124.3658
134.3166, 126.3419
134.7987, 128.5781
135.2808, 130.6584
135.7629, 132.4206
136.2450, 133.9911
136.7272, 135.9034
137.2093, 138.1549
137.6914, 140.7816
138.1735, 143.9670
138.6556, 147.8264
139.1377, 151.5578
139.6199, 155.0609
140.1020, 158.3055
140.5841, 161.0195
141.0662, 162.8975
141.5483, 164.6122
142.0304, 167.0267
142.5126, 170.3081
142.9947, 173.7937
143.4768, 176.6977
143.9589, 178.5688
144.4410, 180.7203
144.9231, 183.2614
145.4053, 186.0139
145.8874, 188.8015
146.3695, 191.8615
146.8516, 194.6204
147.3337, 196.7732
147.8158, 197.9587
148.2980, 199.5941
148.7801, 201.9110
149.2622, 204.6362
149.7443, 207.1654
150.2264, 209.7504
150.7085, 211.9726
151.1907, 213.6539
151.6728, 214.5978
152.1549, 215.4216
152.6370, 216.0977
153.1191, 216.6621
153.6012, 217.1867
154.0834, 217.7972
154.5655, 218.2702
155.0476, 218.5385
155.5297, 218.9139
156.0118, 218.6419
156.4939, 217.1275
156.9761, 214.7697
157.4582, 212.9514
157.9403, 212.2247
158.4224, 211.9530
158.9045, 211.7747
159.3866, 211.8012
159.8688, 211.7070
160.3509, 211.2363
160.8330, 210.5054
161.3151, 210.0550
161.7972, 210.3864
162.2793, 210.9129
162.7615, 211.1860
163.2436, 210.8684
163.7257, 210.4795
164.2078, 210.2912
164.6899, 210.2605
165.1720, 210.0830
165.6541, 209.3282
166.1363, 208.4597
166.6184, 207.9346
167.1005, 208.2383
167.5826, 208.6647
168.0647, 208.7478
168.5468, 208.5122
169.0290, 208.3024
169.5111, 208.2624
169.9932, 208.3904
170.4753, 208.6861
170.9574, 209.3360
171.4395, 210.0313
171.9217, 210.4997
172.4038, 210.7421
172.8859, 210.9407
173.3680, 211.1496
173.8501, 211.4179
174.3322, 211.8349
174.8144, 212.4258
175.2965, 213.1968
175.7786, 214.2734
176.2607, 215.6835
176.7428, 216.9360
177.2249, 217.4288
177.7071, 217.3994
178.1892, 217.4449
178.6713, 217.8811
179.1534, 218.5423
179.6355, 219.1254
180.1176, 219.6065
180.5998, 220.1685
181.0819, 221.0811
181.5640, 222.2581
182.0461, 223.4318
182.5282, 224.5573
183.0103, 225.5730
183.4925, 226.3130
183.9746, 226.7528
184.4567, 226.9877
184.9388, 226.9672
185.4209, 226.7615
185.9030, 226.7917
186.3852, 227.3817
186.8673, 228.3869
187.3494, 229.3577
187.8315, 230.2947
188.3136, 231.1278
188.7957, 231.7492
189.2779, 232.1677
189.7600, 232.5509
190.2421, 232.9580
190.7242, 233.3899
191.2063, 233.9322
191.6884, 234.6674
192.1706, 235.3035
192.6527, 235.1840
193.1348, 234.2891
193.6169, 233.6543
194.0990, 233.9280
194.5811, 235.0428
195.0633, 236.0772
195.5454, 237.0409
196.0275, 237.8165
196.5096, 238.1037
196.9917, 237.8762
197.4738, 237.4988
197.9560, 237.0055
198.4381, 236.3968
198.9202, 236.3736
199.4023, 237.1860
199.8844, 238.2968
200.3665, 238.5365
200.8487, 237.7787
201.3308, 236.9593
201.8129, 236.5092
202.2950, 236.4375
202.7771, 236.6818
203.2592, 237.3731
203.7414, 238.2359
204.2235, 238.6294
204.7056, 238.4385
205.1877, 238.1991
205.6698, 238.1675
206.1519, 238.3613
206.6341, 238.6414
207.1162, 239.0401
207.5983, 239.4800
208.0804, 239.7429
208.5625, 239.7386
209.0446, 239.8204
209.5268, 240.2397
210.0089, 241.1316
210.4910, 241.6506
210.9731, 241.5272
211.4552, 241.1949
211.9373, 241.7067
212.4195, 243.2211
212.9016, 245.1624
213.3837, 247.4043
213.8658, 250.1945
214.3479, 252.3434
214.8300, 253.5740
215.3121, 254.3123
215.7943, 255.6229
216.2764, 257.6670
216.7585, 259.9128
217.2406, 262.1973
217.7227, 264.5779
218.2048, 266.6933
218.6870, 268.3940
219.1691, 269.8901
219.6512, 271.7470
220.1333, 274.1442
220.6154, 276.5790
221.0975, 278.8398
221.5797, 280.7328
222.0618, 282.9817
222.5439, 285.7808
223.0260, 288.8445
223.5081, 291.5480
223.9902, 293.5650
224.4724, 295.7813
224.9545, 298.5651
225.4366, 302.2231
225.9187, 305.7108
226.4008, 309.0968
226.8829, 312.3170
227.3651, 315.1878
227.8472, 317.4256
228.3293, 319.8389
228.8114, 322.7665
229.2935, 326.3378
229.7757, 330.0011
230.2578, 333.8122
230.7399, 337.6422
231.2220, 341.2848
231.7041, 344.5917
232.1862, 347.8901
232.6684, 351.2422
233.1505, 354.5352
233.6326, 358.2743
234.1147, 362.7216
234.5968, 367.4775
235.0789, 371.7376
235.5611, 375.3844
236.0432, 378.7042
236.5253, 381.6786
237.0074, 383.9429
237.4895, 387.0991
237.9716, 391.5942
238.4538, 396.7117
238.9359, 401.3495
239.4180, 405.7141
239.9001, 409.3297
240.3822, 411.8205
240.8643, 412.7396
241.3465, 414.5978
241.8286, 418.0704
242.3107, 422.0044
242.7928, 424.7657
243.2749, 426.0398
243.7570, 426.6616
244.2392, 426.6963
244.7213, 425.9914
245.2034, 425.6662
245.6855, 426.0400
246.1676, 426.5293
246.6497, 426.3990
247.1319, 425.4728
247.6140, 424.2471
248.0961, 422.7105
248.5782, 420.7795
249.0603, 419.3728
249.5424, 418.8141
250.0246, 418.4679
250.5067, 417.5557
250.9888, 415.6193
251.4709, 414.0209
251.9530, 413.0793
252.4351, 412.8123
252.9173, 412.7292
253.3994, 412.9062
253.8815, 413.1569
254.3636, 413.3174
254.8457, 413.4056
255.3278, 413.2928
255.8100, 412.6843
256.2921, 411.6629
256.7742, 412.4776
257.2563, 413.0967
257.7384, 413.5308
258.2205, 413.2254
258.7026, 413.8748
259.1848, 414.1417
259.6669, 414.3927
260.1490, 415.1765
260.6311, 415.8280
261.1132, 416.8158
261.5953, 417.8167
262.0775, 419.1309
262.5596, 421.0432
263.0417, 422.4175
263.5238, 422.8568
264.0059, 422.6522
264.4880, 423.3699
264.9702, 425.4268
265.4523, 427.5707
265.9344, 429.0459
266.4165, 429.8127
266.8986, 429.9988
267.3807, 429.3015
267.8629, 428.1421
268.3450, 428.0225
268.8271, 429.3510
269.3092, 430.7231
269.7913, 431.3148
270.2734, 430.9208
270.7556, 430.7964
271.2377, 431.0869
271.7198, 431.6273
272.2019, 432.0236
272.6840, 432.2474
273.1661, 432.4614
273.6483, 432.6964
274.1304, 432.9244
274.6125, 433.3888
275.0946, 434.0896
275.5767, 435.0155
276.0588, 436.2178
276.5410, 437.7425
277.0231, 439.2271
277.5052, 440.5095
277.9873, 441.5856
278.4694, 442.3309
278.9515, 442.5245
279.4337, 442.8253
279.9158, 444.3112
280.3979, 447.0760
280.8800, 449.9400
281.3621, 452.5117
281.8442, 454.8092
282.3264, 456.8451
282.8085, 458.5994
283.2906, 460.1942
283.7727, 461.7150
284.2548, 463.1669
284.7369, 464.7149
285.2191, 466.4536
285.7012, 468.3217
286.1833, 470.0883
286.6654, 471.7309
287.1475, 473.4404
287.6296, 475.4084
288.1118, 477.6183
288.5939, 479.8361
289.0760, 482.0092
289.5581, 484.1445
290.0402, 486.2220
290.5223, 488.2379
291.0045, 490.4952
291.4866, 493.5942
291.9687, 497.2735
292.4508, 500.1995
292.9329, 501.9294
293.4150, 503.1446
293.8972, 505.2017
294.3793, 508.0315
294.8614, 510.7894
295.3435, 512.8405
295.8256, 514.3737
296.3077, 515.9019
296.7899, 517.5150
297.2720, 519.0300
297.7541, 520.1218
298.2362, 520.8494
298.7183, 521.4963
299.2004, 522.3903
299.6826, 523.2645
300.1647, 523.5465
300.6468, 523.1198
301.1289, 522.5121
301.6110, 522.2565
302.0931, 522.2433
302.5753, 522.1854
303.0574, 522.0850
303.5395, 521.8019
304.0216, 521.1514
304.5037, 520.1234
304.9858, 518.8177
305.4680, 517.3483
305.9501, 515.6603
306.4322, 513.6537
306.9143, 510.7680
307.3964, 507.9321
307.8785, 506.3136
308.3607, 505.7699
308.8428, 504.8350
309.3249, 502.4277
309.8070, 499.1287
310.2891, 495.5458
310.7712, 491.2296
311.2534, 487.4044
311.7355, 485.4584
312.2176, 484.8633
312.6997, 483.7299
313.1818, 480.4761
313.6639, 476.6018
314.1461, 473.3036
314.6282, 471.0470
315.1103, 468.9562
315.5924, 466.6073
316.0745, 464.1189
316.5566, 461.6979
317.0388, 459.5356
317.5209, 457.4203
318.0030, 455.2099
318.4851, 452.8722
318.9672, 450.5250
319.4493, 448.2904
319.9315, 446.0644
320.4136, 443.6753
320.8957, 440.9761
321.3778, 438.2231
321.8599, 435.3307
322.3420, 432.2440
322.8242, 429.6934
323.3063, 428.1756
323.7884, 427.0922
324.2705, 425.9217
324.7526, 424.7389
325.2347, 423.2870
325.7169, 421.3763
326.1990, 419.0455
326.6811, 416.9627
327.1632, 415.5349
327.6453, 414.1210
328.1274, 412.3644
328.6096, 409.4852
329.0917, 407.2210
329.5738, 406.1043
330.0559, 405.6978
330.5380, 404.5458
331.0201, 402.0294
331.5023, 399.4410
331.9844, 397.2958
332.4665, 395.8211
332.9486, 394.2724
333.4307, 392.6167
333.9128, 390.9089
334.3950, 389.3077
334.8771, 387.9443
335.3592, 386.3996
335.8413, 384.4323
336.3234, 381.9331
336.8055, 380.1190
337.2877, 379.4155
337.7698, 378.8301
338.2519, 377.0826
338.7340, 373.7918
339.2161, 370.9037
339.6982, 368.9854
340.1803, 367.8395
340.6624, 366.3534
341.1446, 364.4474
341.6267, 362.4109
342.1088, 360.3948
342.5909, 358.4171
343.0730, 356.4727
343.5551, 354.6408
344.0373, 352.7692
344.5194, 350.4446
345.0015, 347.6198
345.4836, 344.9023
345.9657, 342.7361
346.4478, 341.0172
346.9300, 339.2074
347.4121, 337.2653
347.8942, 335.2135
348.3763, 332.9251
348.8584, 330.4720
349.3405, 328.2075
349.8227, 326.6459
350.3048, 325.3154
350.7869, 323.0676
351.2690, 319.8980
351.7511, 316.5893
352.2332, 313.8842
352.7154, 311.6061
353.1975, 309.3806
353.6796, 307.1123
354.1617, 304.8159
354.6438, 302.4056
355.1259, 299.9278
355.6081, 297.6607
356.0902, 296.1371
356.5723, 294.7459
357.0544, 292.6606
357.5365, 289.4243
358.0186, 286.2111
358.5008, 283.9866
358.9829, 282.3861
359.4650, 280.6284
359.9471, 277.9630
360.4292, 275.3134
360.9113, 273.3784
361.3935, 272.3553
361.8756, 271.2340
362.3577, 269.5499
362.8398, 267.5783
363.3219, 265.6315
363.8040, 263.8602
364.2862, 262.0737
364.7683, 260.1555
365.2504, 258.1131
365.7325, 256.2318
366.2146, 254.5726
366.6967, 253.0744
367.1789, 251.6988
367.6610, 250.4846
368.1431, 249.3414
368.6252, 248.0806
369.1073, 246.8548
369.5894, 246.1659
370.0716, 246.6648
370.5537, 247.0235
371.0358, 246.7370
371.5179, 245.5578
372.0000, 244.4605
372.4821, 243.3811
372.9643, 242.4338
373.4464, 241.8186
373.9285, 241.7329
374.4106, 241.5631
374.8927, 241.1418
375.3748, 240.4742
375.8570, 239.8158
376.3391, 239.1147
376.8212, 238.5122
377.3033, 238.1937
377.7854, 238.2251
378.2675, 238.0457
378.7497, 237.5404
379.2318, 236.8183
379.7139, 236.0518
380.1960, 235.2263
380.6781, 234.6236
381.1602, 234.5886
381.6424, 235.0024
382.1245, 235.0457
382.6066, 234.6284
383.0887, 234.0776
383.5708, 233.9249
384.0529, 234.0528
384.5351, 233.8595
385.0172, 232.7106
385.4993, 231.2820
385.9814, 230.8874
386.4635, 231.4851
386.9456, 232.1302
387.4278, 231.9988
387.9099, 231.4173
388.3920, 230.8679
388.8741, 230.3651
389.3562, 230.1211
389.8383, 230.5702
390.3205, 231.4648
390.8026, 232.0980
391.2847, 231.9181
391.7668, 231.4470
392.2489, 231.0472
392.7310, 230.7625
393.2132, 230.5665
393.6953, 230.4680
394.1774, 230.4462
394.6595, 230.4765
395.1416, 230.5740
395.6237, 230.7034
396.1059, 230.8841
396.5880, 231.1097
397.0701, 231.2746
397.5522, 231.2371
398.0343, 231.2144
398.5164, 231.3336
398.9986, 231.5293
399.4807, 231.9745
399.9628, 232.9856
400.4449, 234.2290
400.9270, 234.9054
401.4091, 234.5095
401.8913, 234.1979
402.3734, 234.4039
402.8555, 235.2714
403.3376, 235.7968
403.8197, 235.7390
404.3018, 235.6180
404.7840, 236.0159
405.2661, 237.0540
405.7482, 238.2185
406.2303, 239.5233
406.7124, 240.8570
407.1945, 241.7580
407.6767, 242.1671
408.1588, 242.4191
408.6409, 242.6871
409.1230, 242.9732
409.6051, 243.3416
410.0872, 243.7969
410.5694, 244.3411
411.0515, 245.0088
411.5336, 245.7844
412.0157, 246.5479
412.4978, 247.3145
412.9799, 248.0185
413.4621, 248.5482
413.9442, 248.9107
414.4263, 249.0911
414.9084, 248.7986
415.3905, 248.3847
415.8727, 248.5152
416.3548, 249.8046
416.8369, 250.9483
417.3190, 250.5954
417.8011, 249.1940
418.2832, 247.9237
418.7654, 247.4958
419.2475, 247.3228
419.7296, 247.0515
420.2117, 246.6428
420.6938, 246.0954
421.1759, 245.3437
421.6581, 244.4780
422.1402, 243.5844
422.6223, 242.7357
423.1044, 241.8112
423.5865, 240.7367
424.0686, 239.5415
424.5508, 238.4143
425.0329, 237.6124
425.5150, 236.6962
425.9971, 235.4418
426.4792, 233.5854
426.9613, 231.9625
427.4435, 230.7395
427.9256, 229.6729
428.4077, 228.3283
428.8898, 226.4363
429.3719, 224.8508
429.8540, 223.9116
430.3362, 223.5564
430.8183, 222.8008
431.3004, 221.5936
431.7825, 220.1413
432.2646, 218.4555
432.7467, 216.5398
433.2289, 215.0698
433.7110, 214.2419
434.1931, 213.7610
434.6752, 213.1970
435.1573, 212.5408
435.6394, 211.7023
436.1216, 210.5503
436.6037, 209.1911
437.0858, 207.8765
437.5679, 206.6063
438.0500, 205.3378
438.5321, 204.0184
439.0142, 202.6789
439.4963, 201.3507
439.9785, 199.9229
440.4606, 198.6760
440.9427, 198.0644
441.4248, 197.8675
441.9069, 197.4362
442.3890, 196.4783
442.8712, 195.1718
443.3533, 193.5054
443.8354, 191.3613
444.3175, 189.4702
444.7996, 188.0891
445.2817, 187.0953
445.7639, 186.3487
446.2460, 186.1096
446.7281, 185.7995
447.2102, 185.2713
447.6923, 184.5540
448.1744, 183.9057
448.6566, 183.4938
449.1387, 182.9628
449.6208, 182.1006
450.1029, 180.6752
450.5850, 179.6201
451.0671, 179.1025
451.5493, 178.7954
452.0314, 178.2025
452.5135, 177.2383
452.9956, 176.3883
453.4777, 175.7975
453.9598, 175.4259
454.4420, 175.1552
454.9241, 175.0134
455.4062, 174.7452
455.8883, 173.9734
456.3704, 172.8648
456.8525, 172.2712
457.3347, 172.3882
457.8168, 172.6706
458.2989, 172.3726
458.7810, 171.6738
459.2631, 171.1129
459.7452, 171.0222
460.2274, 171.1254
460.7095, 171.0472
461.1916, 170.8321
461.6737, 170.8352
462.1558, 171.5434
462.6379, 172.4238
463.1201, 172.9681
463.6022, 172.9616
464.0843, 172.8976
464.5664, 172.8534
465.0485, 172.9016
465.5306, 173.1587
466.0128, 173.8190
466.4949, 174.5230
466.9770, 175.1552
467.4591, 175.7081
467.9412, 176.3118
468.4233, 176.9529
468.9055, 177.6671
469.3876, 178.4822
469.8697, 179.4059
470.3518, 180.4189
470.8339, 181.5461
471.3160, 182.7597
471.7982, 183.9956
472.2803, 185.2233
472.7624, 186.6049
473.2445, 188.1651
473.7266, 189.9139
474.2087, 191.9002
474.6909, 194.1222
475.1730, 196.5110
475.6551, 198.9121
476.1372, 201.3882
476.6193, 204.2567
477.1014, 207.5873
477.5836, 211.1459
478.0657, 214.6726
478.5478, 218.1984
479.0299, 221.7439
479.5120, 225.0056
479.9941, 228.5539
480.4763, 233.0253
480.9584, 238.3670
481.4405, 243.8360
481.9226, 248.7266
482.4047, 253.7513
482.8868, 259.5447
483.3690, 266.4180
483.8511, 273.5458
484.3332, 280.6944
484.8153, 287.9248
485.2974, 295.4919
485.7795, 303.5131
486.2617, 311.6791
486.7438, 319.7775
487.2259, 327.8550
487.7080, 336.6164
488.1901, 346.1816
488.6722, 356.3683
489.1544, 367.3234
489.6365, 379.1917
490.1186, 390.8334
490.6007, 402.1323
491.0828, 413.3401
491.5649, 425.0604
492.0471, 437.1993
492.5292, 449.7754
493.0113, 462.8015
493.4934, 476.0890
493.9755, 489.5833
494.4576, 503.1432
494.9398, 516.3290
495.4219, 528.6514
495.9040, 540.3524
496.3861, 551.3782
496.8682, 561.8665
497.3503, 571.8284
497.8325, 582.0611
498.3146, 591.6967
498.7967, 599.6013
499.2788, 605.0929
499.7609, 608.8763
500.2430, 611.3448
500.7252, 612.4330
501.2073, 611.8241
501.6894, 609.5132
502.1715, 605.4343
502.6536, 599.4142
503.1357, 591.1233
503.6179, 581.8257
504.1000, 571.6517
504.5821, 560.4655
505.0642, 548.0186
505.5463, 533.8036
506.0284, 519.4526
506.5106, 505.1332
506.9927, 490.9357
507.4748, 477.1181
507.9569, 463.6347
508.4390, 450.7157
508.9211, 438.6129
509.4033, 427.2413
509.8854, 415.8434
510.3675, 404.3775
510.8496, 393.2344
511.3317, 382.5621
511.8138, 372.4742
512.2960, 363.5913
512.7781, 356.1597
513.2602, 349.3669
513.7423, 342.3896
514.2244, 335.3597
514.7065, 328.5952
515.1887, 322.0554
515.6708, 315.9631
516.1529, 310.6098
516.6350, 305.9634
517.1171, 301.5902
517.5992, 297.4265
518.0814, 293.4766
518.5635, 289.7500
519.0456, 286.1813
519.5277, 282.9423
520.0098, 280.0738
520.4919, 277.5344
520.9741, 275.2871
521.4562, 273.4091
521.9383, 271.7152
522.4204, 270.1976
522.9025, 268.8343
523.3846, 267.5486
523.8668, 266.4026
524.3489, 265.0924
524.8310, 263.2077
525.3131, 260.8581
525.7952, 259.1435
526.2773, 258.1599
526.7595, 257.4555
527.2416, 256.6564
527.7237, 255.7467
528.2058, 254.6406
528.6879, 253.1958
529.1700, 251.7406
529.6522, 250.6467
530.1343, 249.8250
530.6164, 248.9778
531.0985, 247.7249
531.5806, 246.5976
532.0627, 246.1008
532.5449, 246.3212
533.0270, 246.1954
533.5091, 245.1601
533.9912, 243.8430
534.4733, 242.6989
534.9554, 241.8447
535.4376, 241.0214
535.9197, 240.2395
536.4018, 239.4830
536.8839, 238.7567
537.3660, 238.0731
537.8481, 237.3596
538.3303, 236.5789
538.8124, 235.7461
539.2945, 234.9867
539.7766, 234.3303
540.2587, 233.4986
540.7408, 232.1169
541.2230, 230.3754
541.7051, 229.0127
542.1872, 228.0879
542.6693, 227.4865
543.1514, 227.4366
543.6335, 227.5741
544.1157, 227.2008
544.5978, 225.8883
545.0799, 224.3131
545.5620, 222.7083
546.0441, 221.2005
546.5262, 220.1015
547.0084, 219.8215
547.4905, 219.7102
547.9726, 219.5904
548.4547, 219.4691
548.9368, 218.9927
549.4189, 217.4998
549.9011, 216.1554
550.3832, 215.6705
550.8653, 216.5050
551.3474, 217.1269
551.8295, 217.4824
552.3116, 217.6512
552.7938, 217.7224
553.2759, 217.6869
553.7580, 217.6296
554.2401, 217.5578
554.7222, 217.4915
555.2043, 217.4789
555.6865, 217.5202
556.1686, 217.6052
556.6507, 217.7563
557.1328, 217.9394
557.6149, 218.0878
558.0970, 218.1997
558.5792, 218.3647
559.0613, 218.8304
559.5434, 219.2952
560.0255, 219.4214
560.5076, 218.9031
560.9897, 218.4551
561.4719, 218.4214
561.9540, 218.5822
562.4361, 218.5716
562.9182, 217.9456
563.4003, 217.5999
563.8824, 217.8147
564.3646, 218.4887
564.8467, 218.9366
565.3288, 219.1417
565.8109, 219.1440
566.2930, 218.8536
566.7751, 218.2472
567.2573, 218.0329
567.7394, 218.2658
568.2215, 218.6189
568.7036, 218.9654
569.1857, 219.1843
569.6678, 218.7205
570.1500, 217.2412
570.6321, 215.5962
571.1142, 214.7127
571.5963, 214.4248
572.0784, 214.3580
572.5605, 214.7285
573.0427, 214.9366
573.5248, 214.4610
574.0069, 213.4199
574.4890, 212.5744
574.9711, 212.3568
575.4532, 212.2523
575.9354, 212.0579
576.4175, 211.8178
576.8996, 211.2779
577.3817, 210.2505
577.8638, 209.1141
578.3459, 208.1993
578.8281, 207.5749
579.3102, 206.9500
579.7923, 206.3139
580.2744, 205.6299
580.7565, 204.7653
581.2386, 203.7373
581.7208, 202.8760
582.2029, 202.3096
582.6850, 201.9769
583.1671, 201.9292
583.6492, 202.0846
584.1313, 201.9553
584.6135, 200.9571
585.0956, 199.6978
585.5776, 198.7919
