##NAMES=Kinoite
##RRUFFID=R050168
##IDEAL CHEMISTRY=Ca_2_Cu^2+^_2_Si_3_O_10_&#183;2H_2_O
##LOCALITY=Christmas mine, Christmas, Gila County, Arizona, USA
##OWNER=RRUFF
##SOURCE=Marcus Origlieri
##DESCRIPTION=Blue tabular crystals associated with hydroxyapophyllite, R050169
##STATUS=The identification of this mineral is confirmed by single-crystal X-ray diffraction and chemical analysis.
##URL=rruff.info/R050168
##MEASURED CHEMISTRY=Ca_2.00_Cu_2.00_Si_3.00_O_10_Â·2.94H_2_O; trace amounts of Fe and Mn; H_2_O estimated by difference
93.46680, 44.66390
93.94891, 44.59872
94.43103, 44.65943
94.91315, 44.44942
95.39526, 44.08329
95.87738, 43.73017
96.35950, 43.45154
96.84161, 43.14803
97.32373, 42.81698
97.80585, 42.45417
98.28796, 42.08749
98.77008, 41.73349
99.25220, 41.38084
99.73431, 41.01466
100.2164, 40.64393
100.6985, 40.14537
101.1807, 39.48764
101.6628, 38.85085
102.1449, 38.42299
102.6270, 38.31221
103.1091, 38.45862
103.5912, 38.52741
104.0734, 38.47390
104.5555, 38.37305
105.0376, 38.21940
105.5197, 38.02372
106.0018, 37.80548
106.4839, 37.58249
106.9661, 37.35442
107.4482, 37.08649
107.9303, 36.69790
108.4124, 36.32699
108.8945, 36.05387
109.3766, 35.88837
109.8588, 35.78326
110.3409, 35.65524
110.8230, 35.47207
111.3051, 35.52137
111.7872, 36.06393
112.2693, 36.81111
112.7515, 37.29763
113.2336, 37.33971
113.7157, 37.22575
114.1978, 37.34635
114.6799, 37.70142
115.1620, 37.98568
115.6442, 37.98059
116.1263, 37.69705
116.6084, 37.38286
117.0905, 37.06841
117.5726, 36.76212
118.0547, 36.44115
118.5369, 36.10281
119.0190, 35.81578
119.5011, 35.67587
119.9832, 35.71203
120.4653, 35.84457
120.9474, 36.11387
121.4296, 36.42764
121.9117, 36.72811
122.3938, 36.99017
122.8759, 37.20005
123.3580, 37.31374
123.8401, 37.12044
124.3223, 37.05240
124.8044, 37.16471
125.2865, 37.42591
125.7686, 37.80927
126.2507, 38.32093
126.7328, 38.93932
127.2150, 39.35335
127.6971, 39.45837
128.1792, 39.51792
128.6613, 39.62419
129.1434, 39.78111
129.6255, 39.97359
130.1077, 40.21590
130.5898, 40.49242
131.0719, 40.68432
131.5540, 40.74979
132.0361, 40.74920
132.5182, 40.71611
133.0004, 40.63323
133.4825, 40.60838
133.9646, 40.81342
134.4467, 41.15407
134.9288, 41.41774
135.4109, 41.47008
135.8931, 41.36721
136.3752, 41.30916
136.8573, 41.33577
137.3394, 41.36809
137.8215, 41.37603
138.3036, 41.35642
138.7858, 41.30423
139.2679, 41.21646
139.7500, 41.09355
140.2321, 40.93116
140.7142, 40.65327
141.1963, 40.39586
141.6785, 40.20481
142.1606, 40.08918
142.6427, 40.03831
143.1248, 40.05262
143.6069, 40.19744
144.0890, 40.25365
144.5712, 40.22894
145.0533, 40.13136
145.5354, 39.94820
146.0175, 39.68157
146.4996, 39.36649
146.9817, 39.06514
147.4639, 38.80616
147.9460, 38.51284
148.4281, 38.13605
148.9102, 37.73559
149.3923, 37.39394
149.8744, 37.14830
150.3566, 36.95494
150.8387, 36.71301
151.3208, 36.42792
151.8029, 36.10352
152.2850, 35.69298
152.7671, 35.23226
153.2493, 34.85090
153.7314, 34.62626
154.2135, 34.49330
154.6956, 34.32496
155.1777, 34.12065
155.6598, 33.88388
156.1420, 33.59086
156.6241, 33.23723
157.1062, 32.93205
157.5883, 32.75080
158.0704, 32.63249
158.5525, 32.53367
159.0347, 32.44693
159.5168, 32.36806
159.9989, 32.29307
160.4810, 32.22846
160.9631, 32.15106
161.4452, 32.08382
161.9274, 31.99192
162.4095, 31.81934
162.8916, 31.52948
163.3737, 31.18066
163.8558, 30.96980
164.3379, 31.01402
164.8201, 31.05437
165.3022, 31.03708
165.7843, 30.99156
166.2664, 30.96072
166.7485, 30.97150
167.2306, 31.01730
167.7128, 31.04114
168.1949, 31.01601
168.6770, 30.99801
169.1591, 31.01620
169.6412, 31.05169
170.1233, 31.05974
170.6055, 31.00304
171.0876, 30.88446
171.5697, 30.83203
172.0518, 30.89615
172.5339, 30.96456
173.0160, 31.00046
173.4982, 30.99864
173.9803, 30.94621
174.4624, 30.80771
174.9445, 30.59602
175.4266, 30.48764
175.9087, 30.52319
176.3909, 30.63273
176.8730, 30.79297
177.3551, 31.00538
177.8372, 31.17848
178.3193, 31.20078
178.8014, 31.12021
179.2836, 31.07450
179.7657, 31.13213
180.2478, 31.22738
180.7299, 31.25173
181.2120, 31.17715
181.6941, 31.10382
182.1763, 31.12734
182.6584, 31.20039
183.1405, 31.23379
183.6226, 31.14603
184.1047, 30.98596
184.5868, 30.92912
185.0690, 31.06409
185.5511, 31.16968
186.0332, 31.13387
186.5153, 30.99883
186.9974, 30.84155
187.4795, 30.69325
187.9616, 30.55850
188.4438, 30.50822
188.9259, 30.62720
189.4080, 30.75066
189.8901, 30.85369
190.3722, 30.92164
190.8543, 30.92947
191.3365, 30.83975
191.8186, 30.63945
192.3007, 30.53172
192.7828, 30.60695
193.2649, 30.68851
193.7470, 30.71225
194.2292, 30.68748
194.7113, 30.66216
195.1934, 30.68465
195.6755, 30.77058
196.1576, 30.80293
196.6397, 30.73250
197.1219, 30.66445
197.6040, 30.63623
198.0861, 30.65570
198.5682, 30.72842
199.0503, 30.87151
199.5324, 31.10747
200.0146, 31.26315
200.4967, 31.28850
200.9788, 31.27865
201.4609, 31.27939
201.9430, 31.30049
202.4251, 31.35660
202.9073, 31.46897
203.3894, 31.64555
203.8715, 31.81970
204.3536, 32.00611
204.8357, 32.18001
205.3178, 32.31687
205.8000, 32.41374
206.2821, 32.48336
206.7642, 32.50448
207.2463, 32.49348
207.7284, 32.56713
208.2105, 32.84533
208.6927, 33.18624
209.1748, 33.37389
209.6569, 33.35742
210.1390, 33.30757
210.6211, 33.38690
211.1032, 33.54948
211.5854, 33.68565
212.0675, 33.75887
212.5496, 33.77811
213.0317, 33.74536
213.5138, 33.61662
213.9959, 33.53044
214.4781, 33.59099
214.9602, 33.75289
215.4423, 33.93082
215.9244, 34.09950
216.4065, 34.25117
216.8886, 34.34808
217.3708, 34.36060
217.8529, 34.35970
218.3350, 34.36639
218.8171, 34.38559
219.2992, 34.43049
219.7813, 34.53052
220.2635, 34.66775
220.7456, 34.71189
221.2277, 34.57858
221.7098, 34.44763
222.1919, 34.39405
222.6740, 34.38359
223.1562, 34.34797
223.6383, 34.22951
224.1204, 34.04027
224.6025, 33.93111
225.0846, 34.04782
225.5667, 34.09617
226.0489, 33.99161
226.5310, 33.77105
227.0131, 33.49392
227.4952, 33.18522
227.9773, 32.85596
228.4594, 32.66602
228.9416, 32.74905
229.4237, 32.84024
229.9058, 32.90311
230.3879, 32.92976
230.8700, 32.90734
231.3521, 32.81899
231.8343, 32.67381
232.3164, 32.62519
232.7985, 32.81787
233.2806, 32.94413
233.7627, 32.87490
234.2448, 32.67788
234.7270, 32.49049
235.2091, 32.39679
235.6912, 32.39139
236.1733, 32.43058
236.6554, 32.56939
237.1375, 32.68520
237.6197, 32.75844
238.1018, 32.78046
238.5839, 32.71777
239.0660, 32.52816
239.5481, 32.25609
240.0302, 32.15268
240.5124, 32.35144
240.9945, 32.53724
241.4766, 32.58377
241.9587, 32.53042
242.4408, 32.47822
242.9229, 32.47997
243.4051, 32.51889
243.8872, 32.53659
244.3693, 32.52115
244.8514, 32.50505
245.3335, 32.51804
245.8156, 32.54447
246.2978, 32.52993
246.7799, 32.43535
247.2620, 32.30246
247.7441, 32.23191
248.2262, 32.26512
248.7083, 32.26316
249.1904, 32.11216
249.6726, 31.85725
250.1547, 31.65968
250.6368, 31.57741
251.1189, 31.58557
251.6010, 31.65256
252.0831, 31.80056
252.5653, 31.90436
253.0474, 31.86979
253.5295, 31.72403
254.0116, 31.58875
254.4937, 31.50560
254.9758, 31.43529
255.4580, 31.31297
255.9401, 31.13430
256.4222, 31.00341
256.9043, 31.03098
257.3864, 31.17964
257.8686, 31.25004
258.3507, 31.16763
258.8328, 31.04053
259.3149, 30.96697
259.7970, 30.94179
260.2791, 30.92139
260.7613, 30.86473
261.2434, 30.78344
261.7255, 30.75105
262.2076, 30.82060
262.6897, 30.88018
263.1718, 30.84549
263.6540, 30.73747
264.1361, 30.63099
264.6182, 30.57304
265.1003, 30.55795
265.5824, 30.55008
266.0645, 30.54622
266.5467, 30.55524
267.0288, 30.57761
267.5109, 30.61409
267.9930, 30.66706
268.4751, 30.74543
268.9572, 30.84172
269.4394, 30.92518
269.9215, 31.01058
270.4036, 31.05640
270.8857, 31.01455
271.3678, 30.93467
271.8499, 30.89257
272.3321, 30.93002
272.8142, 31.03308
273.2963, 31.16072
273.7784, 31.34548
274.2605, 31.49694
274.7426, 31.54393
275.2248, 31.56346
275.7069, 31.66453
276.1890, 31.91131
276.6711, 32.22202
277.1532, 32.36283
277.6353, 32.18292
278.1175, 32.11609
278.5995, 32.31250
279.0817, 32.60839
279.5638, 32.86548
280.0459, 33.03370
280.5280, 33.11914
281.0101, 33.10532
281.4922, 32.86504
281.9744, 32.80500
282.4565, 33.06546
282.9386, 33.43150
283.4207, 33.75953
283.9028, 34.00635
284.3849, 34.19624
284.8671, 34.36347
285.3492, 34.50808
285.8313, 34.62717
286.3134, 34.71053
286.7955, 34.78006
287.2776, 34.84257
287.7598, 34.90197
288.2419, 34.96525
288.7240, 35.03920
289.2061, 35.12025
289.6882, 35.22462
290.1703, 35.40304
290.6525, 35.55819
291.1346, 35.60714
291.6167, 35.57726
292.0988, 35.58412
292.5809, 35.76368
293.0630, 36.15212
293.5452, 36.31747
294.0273, 36.00385
294.5094, 35.72340
294.9915, 35.68737
295.4736, 35.82432
295.9557, 35.94127
296.4379, 35.89083
296.9200, 35.68778
297.4021, 35.57452
297.8842, 35.71244
298.3663, 35.77047
298.8484, 35.63626
299.3306, 35.38728
299.8127, 35.13735
300.2948, 34.94944
300.7769, 34.81731
301.2590, 34.71917
301.7411, 34.74458
302.2233, 34.69396
302.7054, 34.49844
303.1875, 34.23960
303.6696, 34.00493
304.1517, 33.83076
304.6339, 33.69303
305.1160, 33.53532
305.5981, 33.31645
306.0802, 33.14354
306.5623, 33.06401
307.0444, 33.00037
307.5266, 32.88141
308.0087, 32.69351
308.4908, 32.48278
308.9729, 32.31882
309.4550, 32.23818
309.9371, 32.11108
310.4193, 31.90184
310.9014, 31.68203
311.3835, 31.48618
311.8656, 31.32177
312.3477, 31.18748
312.8298, 31.08413
313.3120, 31.01337
313.7941, 30.95992
314.2762, 30.89354
314.7583, 30.86959
315.2404, 30.96328
315.7225, 31.12333
316.2047, 31.22544
316.6868, 31.17190
317.1689, 30.97331
317.6510, 30.79756
318.1331, 30.64548
318.6152, 30.51384
319.0974, 30.39925
319.5795, 30.30586
320.0616, 30.24758
320.5437, 30.23340
321.0258, 30.24448
321.5079, 30.21630
321.9901, 30.05665
322.4722, 29.97674
322.9543, 30.07005
323.4364, 30.20795
323.9185, 30.25356
324.4006, 30.16364
324.8828, 30.00944
325.3649, 29.91839
325.8470, 29.95068
326.3291, 29.93141
326.8112, 29.84408
327.2933, 29.53156
327.7755, 29.69547
328.2576, 29.75576
328.7397, 29.71797
329.2218, 29.28833
329.7039, 29.36467
330.1860, 29.23824
330.6682, 29.10348
331.1503, 29.25104
331.6324, 28.87840
332.1145, 29.02148
332.5966, 28.95869
333.0787, 28.99012
333.5609, 28.81751
334.0430, 28.70794
334.5251, 28.80246
335.0072, 28.78396
335.4893, 28.58788
335.9714, 28.62531
336.4536, 28.24551
336.9357, 28.23184
337.4178, 28.37612
337.8999, 28.19029
338.3820, 28.23144
338.8641, 28.18615
339.3463, 27.74799
339.8284, 27.99305
340.3105, 27.94265
340.7926, 27.58887
341.2747, 27.81053
341.7568, 27.49213
342.2390, 27.38859
342.7211, 27.28881
343.2032, 27.17234
343.6853, 27.07602
344.1674, 27.03843
344.6495, 27.04791
345.1317, 27.05334
345.6138, 27.00890
346.0959, 26.91340
346.5780, 26.78885
347.0601, 26.55232
347.5422, 26.36884
348.0244, 26.33151
348.5065, 26.37519
348.9886, 26.38085
349.4707, 26.27347
349.9528, 26.07900
350.4349, 25.89738
350.9171, 25.68444
351.3992, 25.55944
351.8813, 25.61574
352.3634, 25.72496
352.8455, 25.75349
353.3276, 25.65551
353.8098, 25.49560
354.2919, 25.38490
354.7740, 25.34859
355.2561, 25.28429
355.7382, 25.12104
356.2203, 24.97275
356.7025, 24.92501
357.1846, 24.97334
357.6667, 25.03493
358.1488, 25.02932
358.6309, 24.95424
359.1130, 24.87632
359.5952, 24.76241
360.0773, 24.68642
360.5594, 24.71955
361.0415, 24.81009
361.5236, 24.84611
362.0057, 24.73489
362.4879, 24.54316
362.9700, 24.49050
363.4521, 24.65347
363.9342, 24.78749
364.4163, 24.81437
364.8984, 24.76855
365.3806, 24.65943
365.8627, 24.47740
366.3448, 24.30612
366.8269, 24.27983
367.3090, 24.41976
367.7911, 24.50487
368.2733, 24.44473
368.7554, 24.34324
369.2375, 24.25601
369.7196, 24.19032
370.2017, 24.17066
370.6838, 24.24654
371.1660, 24.39273
371.6481, 24.48399
372.1302, 24.49101
372.6123, 24.47755
373.0944, 24.47952
373.5765, 24.49442
374.0587, 24.51969
374.5408, 24.57608
375.0229, 24.62794
375.5050, 24.61019
375.9871, 24.51426
376.4692, 24.42117
376.9514, 24.35419
377.4335, 24.32347
377.9156, 24.35225
378.3977, 24.46885
378.8798, 24.57482
379.3619, 24.59029
379.8441, 24.53207
380.3262, 24.46674
380.8083, 24.39842
381.2904, 24.35266
381.7725, 24.38391
382.2546, 24.48958
382.7368, 24.55254
383.2189, 24.48788
383.7010, 24.37850
384.1831, 24.35070
384.6652, 24.42150
385.1473, 24.50545
385.6295, 24.54585
386.1116, 24.54039
386.5937, 24.50464
387.0758, 24.38906
387.5579, 24.09674
388.0400, 24.27965
388.5222, 24.36065
389.0043, 24.34530
389.4864, 23.93986
389.9685, 24.04212
390.4506, 23.94336
390.9327, 23.83800
391.4149, 24.01669
391.8970, 23.67691
392.3791, 23.85459
392.8612, 23.82814
393.3433, 23.89765
393.8254, 23.76487
394.3076, 23.69683
394.7897, 23.83463
395.2718, 23.86115
395.7539, 23.71182
396.2360, 23.79773
396.7181, 23.46818
397.2003, 23.50645
397.6824, 23.70442
398.1645, 23.57403
398.6466, 23.67235
399.1287, 23.68595
399.6108, 23.30844
400.0930, 23.61588
400.5751, 23.62958
401.0572, 23.34164
401.5393, 23.63088
402.0214, 23.38823
402.5035, 23.33779
402.9856, 23.43242
403.4677, 23.37936
403.9499, 23.56363
404.4320, 23.52267
404.9141, 23.46317
405.3962, 23.49390
405.8783, 23.27560
406.3604, 23.52425
406.8426, 23.45686
407.3247, 23.57231
407.8068, 23.61234
408.2889, 23.57442
408.7710, 23.54397
409.2531, 23.53746
409.7353, 23.54839
410.2174, 23.58210
410.6995, 23.64053
411.1816, 23.68397
411.6637, 23.62816
412.1458, 23.43848
412.6280, 23.33992
413.1101, 23.44664
413.5922, 23.58439
414.0743, 23.66478
414.5564, 23.68983
415.0385, 23.69958
415.5207, 23.71658
416.0028, 23.73943
416.4849, 23.77022
416.9670, 23.82495
417.4491, 23.84729
417.9312, 23.78454
418.4134, 23.67968
418.8955, 23.58195
419.3776, 23.50007
419.8597, 23.43507
420.3418, 23.39154
420.8239, 23.36787
421.3061, 23.34523
421.7882, 23.30613
422.2703, 23.28418
422.7524, 23.34073
423.2345, 23.47397
423.7166, 23.56121
424.1988, 23.51897
424.6809, 23.23366
425.1630, 23.48270
425.6451, 23.62810
426.1272, 23.67541
426.6093, 23.33088
427.0915, 23.49234
427.5736, 23.45102
428.0557, 23.40138
428.5378, 23.63406
429.0199, 23.34652
429.5020, 23.57471
429.9842, 23.59704
430.4663, 23.71358
430.9484, 23.62610
431.4305, 23.60163
431.9126, 23.78126
432.3947, 23.84788
432.8769, 23.73692
433.3590, 23.85945
433.8411, 23.56479
434.3232, 23.63622
434.8053, 23.86561
435.2874, 23.76490
435.7696, 23.89116
436.2517, 23.93098
436.7338, 23.57795
437.2159, 23.90813
437.6980, 23.94284
438.1801, 23.67417
438.6623, 23.98094
439.1444, 23.75409
439.6265, 23.71772
440.1086, 23.82468
440.5907, 23.78221
441.0728, 23.97534
441.5550, 23.94150
442.0371, 23.88739
442.5192, 23.92177
443.0013, 23.70539
443.4834, 23.95422
443.9655, 23.88527
444.4477, 23.97428
444.9298, 24.09910
445.4119, 23.94977
445.8940, 24.09067
446.3761, 23.78148
446.8582, 23.84890
447.3404, 23.87577
447.8225, 24.14336
448.3046, 23.83637
448.7867, 23.89332
449.2688, 24.10525
449.7509, 24.10033
450.2331, 24.18608
450.7152, 24.00345
451.1973, 24.07294
451.6794, 24.07293
452.1615, 24.31308
452.6436, 24.36363
453.1258, 24.18555
453.6079, 24.00844
454.0900, 24.26586
454.5721, 24.11143
455.0542, 24.17918
455.5363, 24.01746
456.0185, 24.22384
456.5006, 24.12831
456.9827, 24.08002
457.4648, 24.14842
457.9469, 24.26198
458.4290, 24.36146
458.9112, 24.43354
459.3933, 24.45394
459.8754, 24.38203
460.3575, 24.22417
460.8396, 24.21809
461.3217, 24.50776
461.8039, 24.75443
462.2860, 24.84230
462.7681, 24.84504
463.2502, 24.86059
463.7323, 24.92422
464.2144, 25.01214
464.6966, 25.09079
465.1787, 25.16685
465.6608, 25.21058
466.1429, 25.15392
466.6250, 25.13144
467.1071, 25.23696
467.5893, 25.42560
468.0714, 25.58199
468.5535, 25.62556
469.0356, 25.60614
469.5177, 25.68450
469.9998, 25.91969
470.4820, 26.09529
470.9641, 26.08135
471.4462, 26.03580
471.9283, 26.08483
472.4104, 26.24035
472.8925, 26.40549
473.3747, 26.51516
473.8568, 26.57586
474.3389, 26.60583
474.8210, 26.60059
475.3031, 26.58148
475.7852, 26.54968
476.2674, 26.51590
476.7495, 26.50706
477.2316, 26.56000
477.7137, 26.58862
478.1958, 26.49417
478.6779, 26.32551
479.1601, 26.23748
479.6422, 26.29172
480.1243, 26.37878
480.6064, 26.34925
481.0885, 26.18068
481.5706, 26.04073
482.0528, 25.97827
482.5349, 25.91228
483.0170, 25.77582
483.4991, 25.58840
483.9812, 25.41857
484.4633, 25.30564
484.9455, 25.22794
485.4276, 25.11987
485.9097, 24.95230
486.3918, 24.79599
486.8739, 24.64347
487.3560, 24.50778
487.8382, 24.41426
488.3203, 24.35276
488.8024, 24.27649
489.2845, 24.13765
489.7666, 23.94558
490.2487, 23.80301
490.7309, 23.78131
491.2130, 23.68911
491.6951, 23.38042
492.1772, 23.03366
492.6593, 22.85803
493.1414, 22.90655
493.6236, 23.00016
494.1057, 22.95334
494.5878, 22.78326
495.0699, 22.64027
495.5520, 22.55193
496.0341, 22.46937
496.5163, 22.33467
496.9984, 22.17840
497.4805, 22.07746
497.9626, 22.08844
498.4447, 22.11573
498.9268, 22.06850
499.4090, 21.96899
499.8911, 21.90535
500.3732, 21.91738
500.8553, 21.94510
501.3374, 21.89520
501.8195, 21.74721
502.3017, 21.62760
502.7838, 21.55029
503.2659, 21.49829
503.7480, 21.45953
504.2301, 21.43583
504.7122, 21.44372
505.1944, 21.49720
505.6765, 21.56836
506.1586, 21.57204
506.6407, 21.43989
507.1228, 21.34994
507.6049, 21.33039
508.0871, 21.33162
508.5692, 21.31569
509.0513, 21.28553
509.5334, 21.27410
510.0155, 21.31736
510.4977, 21.39628
510.9798, 21.40348
511.4619, 21.28304
511.9440, 21.21817
512.4261, 21.34448
512.9082, 21.50660
513.3903, 21.55352
513.8724, 21.46070
514.3546, 21.35801
514.8367, 21.33895
515.3188, 21.38350
515.8009, 21.44157
516.2830, 21.51337
516.7651, 21.57631
517.2473, 21.61431
517.7294, 21.63066
518.2115, 21.63734
518.6936, 21.60394
519.1757, 21.60637
519.6578, 21.71317
520.1400, 21.86774
520.6221, 21.98865
521.1042, 22.05560
521.5863, 22.06103
522.0684, 21.98053
522.5505, 21.79629
523.0327, 21.71880
523.5148, 21.79556
523.9969, 21.90593
524.4790, 22.05183
524.9611, 22.19409
525.4432, 22.28859
525.9254, 22.31821
526.4075, 22.28812
526.8896, 22.17673
527.3717, 21.94674
527.8538, 21.83568
528.3359, 21.98117
528.8181, 22.09970
529.3002, 22.04843
529.7823, 21.89164
530.2644, 21.75045
530.7465, 21.66951
531.2286, 21.63088
531.7108, 21.63327
532.1929, 21.67183
532.6750, 21.66830
533.1571, 21.59056
533.6392, 21.48819
534.1213, 21.39876
534.6035, 21.32393
535.0856, 21.28886
535.5677, 21.35936
536.0498, 21.41901
536.5319, 21.37678
537.0140, 21.25013
537.4962, 21.08159
537.9783, 20.88192
538.4604, 20.69805
538.9425, 20.61917
539.4246, 20.69995
539.9067, 20.74847
540.3889, 20.76239
540.8710, 20.74903
541.3531, 20.69502
541.8352, 20.61792
542.3173, 20.55973
542.7994, 20.54648
543.2816, 20.54236
543.7637, 20.44973
544.2458, 20.21881
544.7279, 20.06434
545.2100, 20.07150
545.6921, 20.11640
546.1743, 20.15518
546.6564, 20.17746
547.1385, 20.16281
547.6206, 20.08524
548.1027, 19.97957
548.5848, 19.88915
549.0670, 19.81433
549.5491, 19.77165
550.0312, 19.77293
550.5133, 19.80119
550.9954, 19.84290
551.4775, 19.90113
551.9597, 19.93001
552.4418, 19.88983
552.9239, 19.84233
553.4060, 19.84218
553.8881, 19.87813
554.3702, 19.90904
554.8524, 19.91517
555.3345, 19.89707
555.8166, 19.85340
556.2987, 19.75685
556.7808, 19.68849
557.2629, 19.66028
557.7451, 19.64448
558.2272, 19.62539
558.7093, 19.60556
559.1914, 19.59771
559.6735, 19.61188
560.1556, 19.63353
560.6378, 19.63685
561.1199, 19.62373
561.6020, 19.57661
562.0841, 19.45907
562.5662, 19.34095
563.0483, 19.26276
563.5305, 19.22822
564.0126, 19.25308
564.4947, 19.39835
564.9768, 19.56483
565.4589, 19.66129
565.9410, 19.69121
566.4232, 19.65671
566.9053, 19.54211
567.3874, 19.42195
567.8695, 19.42380
568.3516, 19.61201
568.8337, 19.70269
569.3159, 19.62140
569.7980, 19.51590
570.2801, 19.45008
570.7622, 19.42091
571.2443, 19.40640
571.7264, 19.39647
572.2086, 19.40148
572.6907, 19.45284
573.1728, 19.57752
573.6549, 19.63974
574.1370, 19.58428
574.6191, 19.51501
575.1013, 19.46409
575.5834, 19.43585
576.0655, 19.44076
576.5476, 19.49622
577.0297, 19.55422
577.5118, 19.56832
577.9940, 19.54031
578.4761, 19.46710
578.9582, 19.33220
579.4403, 19.20378
579.9224, 19.15459
580.4045, 19.18192
580.8867, 19.19685
581.3688, 19.16745
581.8509, 19.15829
582.3330, 19.24118
582.8151, 19.34667
583.2972, 19.35646
583.7794, 19.24350
584.2615, 19.09578
584.7436, 19.01583
585.2257, 19.00725
585.7078, 19.00070
586.1899, 18.96079
586.6721, 18.97060
