##NAMES=Kinoite
##RRUFFID=R050168
##IDEAL CHEMISTRY=Ca_2_Cu^2+^_2_Si_3_O_10_&#183;2H_2_O
##LOCALITY=Christmas mine, Christmas, Gila County, Arizona, USA
##OWNER=RRUFF
##SOURCE=Marcus Origlieri
##DESCRIPTION=Blue tabular crystals associated with hydroxyapophyllite, R050169
##STATUS=The identification of this mineral is confirmed by single-crystal X-ray diffraction and chemical analysis.
##URL=rruff.info/R050168
##MEASURED CHEMISTRY=Ca_2.00_Cu_2.00_Si_3.00_O_10_Â·2.94H_2_O; trace amounts of Fe and Mn; H_2_O estimated by difference
93.74609, 1.655648
94.22821, 1.635539
94.71033, 1.640250
95.19244, 1.668575
95.67456, 1.716292
96.15668, 1.785000
96.63879, 1.872232
97.12091, 1.973264
97.60303, 2.090698
98.08514, 2.214416
98.56726, 2.324220
99.04938, 2.419927
99.53149, 2.526216
100.0136, 2.661963
100.4957, 2.827255
100.9778, 2.974312
101.4600, 3.093946
101.9421, 3.200306
102.4242, 3.318098
102.9063, 3.441897
103.3884, 3.594055
103.8705, 3.796620
104.3527, 4.079241
104.8348, 4.325617
105.3169, 4.371586
105.7990, 4.782169
106.2811, 5.117971
106.7632, 5.383020
107.2454, 5.365430
107.7275, 5.712823
108.2096, 5.913928
108.6917, 6.109034
109.1738, 6.507799
109.6559, 6.531276
110.1381, 6.926865
110.6202, 7.173884
111.1023, 7.488877
111.5844, 7.656675
112.0665, 7.869939
112.5486, 8.230442
113.0308, 8.509467
113.5129, 8.660324
113.9950, 8.979638
114.4771, 8.997970
114.9592, 9.280417
115.4413, 9.676819
115.9235, 9.835126
116.4056, 10.15713
116.8877, 10.41677
117.3698, 10.70827
117.8519, 11.08062
118.3340, 11.27522
118.8162, 11.35373
119.2983, 11.46283
119.7804, 11.69000
120.2625, 11.96035
120.7446, 12.21236
121.2267, 12.41915
121.7089, 12.62581
122.1910, 12.86947
122.6731, 13.14148
123.1552, 13.40150
123.6373, 13.66831
124.1194, 13.89656
124.6016, 14.02686
125.0837, 13.94476
125.5658, 13.82481
126.0479, 13.83109
126.5300, 13.96230
127.0121, 14.18845
127.4943, 14.51264
127.9764, 14.91365
128.4585, 15.35164
128.9406, 15.83867
129.4227, 16.34265
129.9048, 16.78436
130.3869, 17.15556
130.8691, 17.53015
131.3512, 18.00631
131.8333, 18.50890
132.3154, 18.91338
132.7975, 19.19499
133.2796, 19.42654
133.7618, 19.80582
134.2439, 20.34534
134.7260, 21.00663
135.2081, 21.72849
135.6902, 22.51317
136.1723, 23.36152
136.6545, 24.27062
137.1366, 25.23658
137.6187, 26.30971
138.1008, 27.54634
138.5829, 28.84324
139.0650, 30.05598
139.5472, 31.25467
140.0293, 32.14439
140.5114, 32.56658
140.9935, 32.50622
141.4756, 32.03875
141.9577, 31.07047
142.4399, 29.70327
142.9220, 28.42020
143.4041, 27.16198
143.8862, 26.05961
144.3683, 25.20141
144.8504, 24.65381
145.3326, 24.20197
145.8147, 23.79738
146.2968, 23.44170
146.7789, 23.32818
147.2610, 23.57224
147.7431, 23.95003
148.2253, 24.27573
148.7074, 24.47357
149.1895, 24.72209
149.6716, 25.02251
150.1537, 25.36134
150.6358, 25.85479
151.1180, 26.54997
151.6001, 27.37556
152.0822, 28.24718
152.5643, 29.26500
153.0464, 30.22949
153.5285, 31.12559
154.0107, 31.97548
154.4928, 32.62863
154.9749, 33.18663
155.4570, 33.52095
155.9391, 33.47440
156.4212, 32.89588
156.9034, 32.05654
157.3855, 31.01013
157.8676, 29.72091
158.3497, 28.39191
158.8318, 26.95204
159.3139, 25.50147
159.7961, 24.19979
160.2782, 23.12162
160.7603, 22.17420
161.2424, 21.30974
161.7245, 20.50184
162.2066, 19.81742
162.6888, 19.28568
163.1709, 18.89210
163.6530, 18.60589
164.1351, 18.48371
164.6172, 18.42139
165.0993, 18.36124
165.5815, 18.32503
166.0636, 18.22874
166.5457, 17.99555
167.0278, 17.66014
167.5099, 17.33065
167.9920, 17.06329
168.4742, 16.82469
168.9563, 16.58842
169.4384, 16.36351
169.9205, 16.11707
170.4026, 15.77787
170.8847, 15.37726
171.3669, 15.05536
171.8490, 14.93803
172.3311, 14.93317
172.8132, 14.93382
173.2953, 14.91853
173.7774, 14.88849
174.2596, 14.82357
174.7417, 14.73178
175.2238, 14.67315
175.7059, 14.71944
176.1880, 14.82370
176.6701, 14.90908
177.1523, 14.92377
177.6344, 14.92677
178.1165, 14.98729
178.5986, 15.10460
179.0807, 15.25754
179.5628, 15.44146
180.0450, 15.65003
180.5271, 15.86443
181.0092, 16.06979
181.4913, 16.28324
181.9734, 16.53861
182.4555, 16.83669
182.9377, 17.14227
183.4198, 17.45375
183.9019, 17.75595
184.3840, 17.99032
184.8661, 18.14929
185.3482, 18.22416
185.8304, 18.20817
186.3125, 18.10440
186.7946, 17.88154
187.2767, 17.41944
187.7588, 16.76214
188.2409, 16.19350
188.7231, 15.85149
189.2052, 15.68796
189.6873, 15.51085
190.1694, 15.30648
190.6515, 15.14674
191.1336, 15.15554
191.6158, 15.32104
192.0979, 15.47402
192.5800, 15.50144
193.0621, 15.43632
193.5442, 15.50772
194.0263, 15.73431
194.5085, 16.04269
194.9906, 16.37956
195.4727, 16.74681
195.9548, 16.99159
196.4369, 17.00445
196.9190, 16.79912
197.4012, 16.60553
197.8833, 16.43141
198.3654, 16.25201
198.8475, 16.02530
199.3296, 15.74539
199.8117, 15.47034
200.2939, 15.22216
200.7760, 15.00175
201.2581, 14.80360
201.7402, 14.62907
202.2223, 14.47715
202.7044, 14.34670
203.1866, 14.23959
203.6687, 14.15044
204.1508, 14.07519
204.6329, 14.01280
205.1150, 13.98349
205.5971, 14.00204
206.0793, 14.03609
206.5614, 14.00176
207.0435, 13.86858
207.5256, 13.78722
208.0077, 13.84138
208.4898, 14.05424
208.9720, 14.26223
209.4541, 14.47765
209.9362, 14.67432
210.4183, 14.78199
210.9004, 14.76713
211.3825, 14.75801
211.8647, 14.81787
212.3468, 14.96475
212.8289, 15.09168
213.3110, 15.17773
213.7931, 15.25764
214.2752, 15.42094
214.7574, 15.70749
215.2395, 15.98425
215.7216, 16.18688
216.2037, 16.28753
216.6858, 16.41164
217.1679, 16.56599
217.6500, 16.74154
218.1322, 16.90579
218.6143, 17.03359
219.0964, 17.20618
219.5785, 17.46818
220.0606, 17.86187
220.5427, 18.21698
221.0249, 18.50946
221.5070, 18.77256
221.9891, 19.07573
222.4712, 19.42728
222.9533, 19.80970
223.4354, 20.21327
223.9176, 20.65904
224.3997, 21.07978
224.8818, 21.46664
225.3639, 21.83408
225.8460, 22.23844
226.3281, 22.72873
226.8103, 23.16748
227.2924, 23.48277
227.7745, 23.64615
228.2566, 23.77760
228.7387, 23.88013
229.2208, 23.95027
229.7030, 23.97285
230.1851, 23.92602
230.6672, 23.86798
231.1493, 23.81974
231.6314, 23.77808
232.1135, 23.75656
232.5957, 23.76237
233.0778, 23.78531
233.5599, 23.80655
234.0420, 23.83991
234.5241, 23.84922
235.0062, 23.81898
235.4884, 23.74280
235.9705, 23.64436
236.4526, 23.51106
236.9347, 23.35964
237.4168, 23.22056
237.8989, 23.08282
238.3811, 22.97460
238.8632, 22.91316
239.3453, 22.91845
239.8274, 22.90428
240.3095, 22.83606
240.7916, 22.76600
241.2738, 22.79655
241.7559, 22.96511
242.2380, 23.17243
242.7201, 23.37621
243.2022, 23.55308
243.6843, 23.81544
244.1665, 24.20579
244.6486, 24.65866
245.1307, 25.05359
245.6128, 25.33402
246.0949, 25.65271
246.5770, 26.07550
247.0592, 26.64670
247.5413, 27.14150
248.0234, 27.51456
248.5055, 27.83864
248.9876, 28.21438
249.4697, 28.64729
249.9519, 29.12782
250.4340, 29.68515
250.9161, 30.36386
251.3982, 30.88081
251.8803, 31.18241
252.3624, 31.36226
252.8446, 31.54279
253.3267, 31.74295
253.8088, 31.91220
254.2909, 32.05810
254.7730, 32.19743
255.2551, 32.17177
255.7373, 31.93424
256.2194, 31.57980
256.7015, 31.21571
257.1836, 30.81837
257.6657, 30.46015
258.1478, 30.18297
258.6299, 29.99979
259.1121, 29.69847
259.5942, 29.20650
260.0763, 28.67848
260.5584, 28.26286
261.0405, 27.97907
261.5226, 27.76770
262.0048, 27.61622
262.4869, 27.52600
262.9690, 27.52245
263.4511, 27.65434
263.9332, 27.80241
264.4153, 27.84466
264.8975, 27.74098
265.3796, 27.65847
265.8617, 27.64193
266.3438, 27.68136
266.8259, 27.65794
267.3080, 27.55064
267.7902, 27.41984
268.2723, 27.32290
268.7544, 27.27137
269.2365, 27.20514
269.7186, 27.11826
270.2007, 27.00914
270.6829, 26.87210
271.1650, 26.70471
271.6471, 26.51498
272.1292, 26.30151
272.6113, 26.05301
273.0934, 25.84070
273.5756, 25.68095
274.0577, 25.56190
274.5398, 25.42036
275.0219, 25.22697
275.5040, 25.10563
275.9861, 25.16857
276.4683, 25.44207
276.9504, 25.65651
277.4325, 25.75053
277.9146, 25.80402
278.3967, 26.03370
278.8788, 26.46270
279.3610, 26.94358
279.8431, 27.36427
280.3252, 27.71503
280.8073, 28.20526
281.2894, 28.86809
281.7715, 29.64394
282.2537, 30.41457
282.7358, 31.17434
283.2179, 31.99167
283.7000, 32.95227
284.1821, 34.04893
284.6642, 35.01546
285.1464, 35.84562
285.6285, 36.55944
286.1106, 37.21369
286.5927, 37.80836
287.0748, 38.22420
287.5569, 38.39228
288.0391, 38.32705
288.5212, 38.13253
289.0033, 37.81017
289.4854, 37.35016
289.9675, 36.68174
290.4496, 35.82002
290.9318, 34.98290
291.4139, 34.26490
291.8960, 33.62326
292.3781, 32.91254
292.8602, 32.11786
293.3423, 31.34570
293.8245, 30.66084
294.3066, 30.07146
294.7887, 29.61941
295.2708, 29.35329
295.7529, 29.21582
296.2350, 29.07352
296.7172, 28.92815
297.1993, 28.87630
297.6814, 29.04420
298.1635, 29.37474
298.6456, 29.70092
299.1277, 29.97778
299.6099, 30.24232
300.0920, 30.54113
300.5741, 30.87558
301.0562, 31.22493
301.5383, 31.66063
302.0204, 32.09430
302.5026, 32.34855
302.9847, 32.37300
303.4668, 32.25237
303.9489, 32.04849
304.4310, 31.77372
304.9131, 31.45896
305.3953, 31.09085
305.8774, 30.70664
306.3595, 30.33944
306.8416, 29.97478
307.3237, 29.70260
307.8058, 29.69730
308.2880, 29.85266
308.7701, 29.93016
309.2522, 29.80615
309.7343, 29.55465
310.2164, 29.21913
310.6985, 28.79210
311.1807, 28.36455
311.6628, 28.05707
312.1449, 27.77647
312.6270, 27.39133
313.1091, 26.70122
313.5912, 26.00150
314.0734, 25.48218
314.5555, 25.15201
315.0376, 24.86721
315.5197, 24.57928
316.0018, 24.28636
316.4839, 23.99392
316.9661, 23.59570
317.4482, 23.29412
317.9303, 23.21186
318.4124, 23.32217
318.8945, 23.45457
319.3766, 23.53198
319.8588, 23.61379
320.3409, 23.74162
320.8230, 23.93184
321.3051, 24.15933
321.7872, 24.43880
322.2693, 24.75399
322.7515, 25.05543
323.2336, 25.34411
323.7157, 25.60661
324.1978, 25.83487
324.6799, 26.01089
325.1620, 26.18164
325.6442, 26.40385
326.1263, 26.61842
326.6084, 26.72048
327.0905, 26.60122
327.5726, 26.45850
328.0547, 26.35294
328.5369, 26.30587
329.0190, 26.23569
329.5011, 26.12874
329.9832, 26.00479
330.4653, 25.88448
330.9474, 25.73278
331.4296, 25.62918
331.9117, 25.60375
332.3938, 25.66163
332.8759, 25.69295
333.3580, 25.64988
333.8401, 25.62611
334.3223, 25.70059
334.8044, 25.91796
335.2865, 26.14607
335.7686, 26.37254
336.2507, 26.59758
336.7328, 26.81152
337.2150, 27.01711
337.6971, 27.20864
338.1792, 27.38743
338.6613, 27.55543
339.1434, 27.69650
339.6255, 27.81583
340.1077, 27.90205
340.5898, 27.93295
341.0719, 27.90754
341.5540, 27.82945
342.0361, 27.71124
342.5182, 27.55514
343.0003, 27.28959
343.4825, 26.89694
343.9646, 26.44303
344.4467, 26.04295
344.9288, 25.70327
345.4109, 25.29003
345.8930, 24.73463
346.3752, 24.06914
346.8573, 23.43617
347.3394, 22.82805
347.8215, 22.26818
348.3036, 21.79365
348.7857, 21.39095
349.2679, 20.99669
349.7500, 20.59795
350.2321, 20.19501
350.7142, 19.77304
351.1963, 19.34043
351.6784, 18.96196
352.1606, 18.71883
352.6427, 18.56352
353.1248, 18.39687
353.6069, 18.19543
354.0890, 17.99684
354.5711, 17.84952
355.0533, 17.74010
355.5354, 17.62739
356.0175, 17.47844
356.4996, 17.32217
356.9817, 17.20288
357.4638, 17.13167
357.9460, 17.02585
358.4281, 16.81119
358.9102, 16.52731
359.3923, 16.23518
359.8744, 15.94839
360.3565, 15.66743
360.8387, 15.40094
361.3208, 15.14620
361.8029, 14.88405
362.2850, 14.57646
362.7671, 14.27266
363.2492, 14.01345
363.7314, 13.82072
364.2135, 13.65890
364.6956, 13.54513
365.1777, 13.45949
365.6598, 13.34153
366.1419, 13.14829
366.6241, 12.94033
367.1062, 12.74524
367.5883, 12.55836
368.0704, 12.39782
368.5525, 12.25940
369.0346, 12.15020
369.5168, 12.07882
369.9989, 12.08326
370.4810, 12.08610
370.9631, 12.06563
371.4452, 12.01613
371.9273, 11.98821
372.4095, 11.99713
372.8916, 12.01483
373.3737, 12.01610
373.8558, 11.98812
374.3379, 11.96921
374.8200, 11.96486
375.3022, 11.97363
375.7843, 11.98464
376.2664, 11.99105
376.7485, 12.01483
377.2306, 12.07859
377.7127, 12.19410
378.1949, 12.27789
378.6770, 12.31822
379.1591, 12.33473
379.6412, 12.35478
380.1233, 12.37628
380.6054, 12.42505
381.0876, 12.52042
381.5697, 12.65553
382.0518, 12.79314
382.5339, 12.93450
383.0160, 13.06494
383.4981, 13.14260
383.9803, 13.18374
384.4624, 13.27492
384.9445, 13.45609
385.4266, 13.68583
385.9087, 13.90498
386.3908, 14.11184
386.8730, 14.30046
387.3551, 14.44141
387.8372, 14.56805
388.3193, 14.74683
388.8014, 15.00264
389.2835, 15.27039
389.7657, 15.49516
390.2478, 15.68649
390.7299, 15.86107
391.2120, 16.01186
391.6941, 16.16044
392.1762, 16.34138
392.6584, 16.55915
393.1405, 16.72808
393.6226, 16.75888
394.1047, 16.73372
394.5868, 16.73982
395.0689, 16.85950
395.5511, 16.96060
396.0332, 16.98590
396.5153, 16.94722
396.9974, 16.90956
397.4795, 16.88266
397.9616, 16.86646
398.4438, 16.86072
398.9259, 16.86381
399.4080, 16.88011
399.8901, 16.92463
400.3722, 16.98071
400.8543, 17.01650
401.3365, 17.00500
401.8186, 17.00509
402.3007, 17.02837
402.7828, 17.07421
403.2649, 17.15006
403.7470, 17.26294
404.2292, 17.39877
404.7113, 17.54537
405.1934, 17.70675
405.6755, 17.86706
406.1576, 18.01248
406.6397, 18.15742
407.1219, 18.35985
407.6040, 18.63221
408.0861, 18.91284
408.5682, 19.16183
409.0503, 19.37568
409.5324, 19.60901
410.0146, 19.85948
410.4967, 20.14165
410.9788, 20.50633
411.4609, 20.93919
411.9430, 21.32978
412.4251, 21.59006
412.9073, 21.79489
413.3894, 22.10925
413.8715, 22.53483
414.3536, 23.05828
414.8357, 23.75416
415.3178, 24.53486
415.8000, 25.21402
416.2821, 25.71822
416.7642, 26.18882
417.2463, 26.74750
417.7284, 27.38333
418.2105, 28.04979
418.6927, 28.72658
419.1748, 29.42867
419.6569, 30.16949
420.1390, 30.95519
420.6211, 31.78925
421.1032, 32.77394
421.5854, 33.78511
422.0675, 34.68923
422.5496, 35.39556
423.0317, 36.05775
423.5138, 36.76969
423.9959, 37.49836
424.4781, 38.07863
424.9602, 38.48645
425.4423, 38.72304
425.9244, 38.78476
426.4065, 38.64828
426.8886, 38.38395
427.3708, 38.01107
427.8529, 37.49847
428.3350, 36.78870
428.8171, 35.83030
429.2992, 34.76318
429.7813, 33.58897
430.2635, 32.31761
430.7456, 31.10347
431.2277, 29.94532
431.7098, 28.86485
432.1919, 27.87939
432.6740, 26.98980
433.1562, 26.19016
433.6383, 25.48728
434.1204, 24.86308
434.6025, 24.26890
435.0846, 23.70610
435.5667, 23.23733
436.0489, 22.93273
436.5310, 22.74456
437.0131, 22.49323
437.4952, 22.16415
437.9773, 21.91445
438.4594, 21.96789
438.9416, 22.20935
439.4236, 22.38898
439.9058, 22.37428
440.3879, 22.33770
440.8700, 22.43726
441.3521, 22.65446
441.8342, 22.92394
442.3163, 23.24366
442.7985, 23.58037
443.2806, 23.90590
443.7627, 24.20716
444.2448, 24.52681
444.7269, 24.86258
445.2090, 25.22959
445.6912, 25.64438
446.1733, 26.13746
446.6554, 26.65253
447.1375, 27.18703
447.6196, 27.73793
448.1017, 28.25468
448.5839, 28.67719
449.0660, 29.10893
449.5481, 29.59661
450.0302, 30.18786
450.5123, 30.74799
450.9944, 31.28275
451.4766, 31.77807
451.9587, 32.20932
452.4408, 32.58165
452.9229, 32.88174
453.4050, 33.11298
453.8871, 33.27328
454.3693, 33.36715
454.8514, 33.40218
455.3335, 33.33739
455.8156, 33.11176
456.2977, 32.73893
456.7798, 32.34349
457.2620, 31.93554
457.7441, 31.51559
458.2262, 31.09578
458.7083, 30.66736
459.1904, 30.17222
459.6725, 29.53647
460.1547, 28.84130
460.6368, 28.19333
461.1189, 27.58856
461.6010, 27.01924
462.0831, 26.47790
462.5652, 25.96662
463.0474, 25.50015
463.5295, 25.09238
464.0116, 24.70022
464.4937, 24.27514
464.9758, 23.85080
465.4579, 23.50982
465.9401, 23.31996
466.4222, 23.18146
466.9043, 23.05919
467.3864, 22.94958
467.8685, 22.86478
468.3506, 22.73482
468.8328, 22.67619
469.3149, 22.77944
469.7970, 23.17040
470.2791, 23.50987
470.7612, 23.72681
471.2433, 23.88915
471.7255, 24.19373
472.2076, 24.69311
472.6897, 25.20165
473.1718, 25.64120
473.6539, 26.00979
474.1360, 26.47010
474.6182, 27.04231
475.1003, 27.63326
475.5824, 28.13169
476.0645, 28.55291
476.5466, 28.99962
477.0287, 29.47422
477.5109, 30.02234
477.9930, 30.71432
478.4751, 31.54497
478.9572, 32.48899
479.4393, 33.58641
479.9214, 34.76817
480.4036, 35.91539
480.8857, 37.02509
481.3678, 38.19886
481.8499, 39.49211
482.3320, 40.89725
482.8141, 42.39436
483.2963, 44.07745
483.7784, 45.74381
484.2605, 47.29307
484.7426, 48.75717
485.2247, 50.20479
485.7068, 51.69782
486.1890, 53.11715
486.6711, 54.46343
487.1532, 55.78224
487.6353, 56.78748
488.1174, 57.49851
488.5995, 57.86304
489.0817, 57.80559
489.5638, 57.21539
490.0459, 56.47593
490.5280, 55.60126
491.0101, 54.61283
491.4922, 53.50717
491.9744, 52.24256
492.4565, 51.03086
492.9386, 49.87954
493.4207, 48.81806
493.9028, 48.10492
494.3849, 47.74836
494.8671, 47.59589
495.3492, 47.62104
495.8313, 47.73940
496.3134, 47.69247
496.7955, 47.38083
497.2776, 46.99644
497.7598, 46.82620
498.2419, 46.75747
498.7240, 46.51204
499.2061, 45.92240
499.6882, 45.12621
500.1703, 44.21050
500.6525, 43.17961
501.1346, 42.02607
501.6167, 40.62217
502.0988, 39.15786
502.5809, 37.77434
503.0630, 36.53137
503.5452, 35.28135
504.0273, 34.00336
504.5094, 32.70991
504.9915, 31.45257
505.4736, 30.18589
505.9557, 29.02557
506.4379, 28.02076
506.9200, 27.16538
507.4021, 26.36002
507.8842, 25.60532
508.3663, 24.87602
508.8484, 24.11513
509.3306, 23.31914
509.8127, 22.67862
510.2948, 22.22853
510.7769, 21.87563
511.2590, 21.50504
511.7411, 21.12072
512.2233, 20.75367
512.7054, 20.39136
513.1875, 20.06768
513.6696, 19.82897
514.1517, 19.67311
514.6339, 19.58825
515.1160, 19.60067
515.5981, 19.66151
516.0802, 19.72493
516.5623, 19.78231
517.0444, 19.85653
517.5266, 19.95472
518.0087, 20.07682
518.4908, 20.22274
518.9729, 20.40006
519.4550, 20.59359
519.9371, 20.77902
520.4193, 20.97409
520.9014, 21.24351
521.3835, 21.64062
521.8656, 22.04451
522.3477, 22.39677
522.8298, 22.67919
523.3120, 23.06755
523.7941, 23.57411
524.2762, 24.14424
524.7583, 24.72449
525.2404, 25.31658
525.7225, 25.94236
526.2047, 26.61151
526.6868, 27.31219
527.1689, 28.02598
527.6510, 28.75169
528.1331, 29.49731
528.6152, 30.24812
529.0974, 31.03379
529.5795, 31.97573
530.0616, 33.05676
530.5437, 34.02701
531.0258, 34.71061
531.5079, 35.21853
531.9901, 35.67659
532.4722, 36.12735
532.9543, 36.47606
533.4364, 36.71744
533.9185, 36.82927
534.4006, 36.78571
534.8828, 36.57209
535.3649, 36.20825
535.8470, 35.68052
536.3291, 34.99963
536.8112, 34.24566
537.2933, 33.40672
537.7755, 32.51442
538.2576, 31.58522
538.7397, 30.60564
539.2218, 29.62227
539.7039, 28.64298
540.1860, 27.67066
540.6682, 26.70709
541.1503, 25.76168
541.6324, 24.90230
542.1145, 24.17060
542.5966, 23.49247
543.0787, 22.73722
543.5609, 21.93093
544.0430, 21.17047
544.5251, 20.52007
545.0072, 19.92912
545.4893, 19.35848
545.9714, 18.80771
546.4536, 18.28769
546.9357, 17.80531
547.4178, 17.35507
547.8999, 16.94592
548.3820, 16.62882
548.8641, 16.23647
549.3463, 15.61579
549.8284, 14.94463
550.3105, 14.46067
550.7926, 14.32505
551.2747, 14.13648
551.7568, 13.79861
552.2390, 13.36258
552.7211, 13.05599
553.2032, 12.92196
553.6853, 12.78364
554.1674, 12.53141
554.6495, 12.17798
555.1317, 11.93136
555.6138, 11.80595
556.0959, 11.70853
556.5780, 11.54911
557.0601, 11.34898
557.5422, 11.16537
558.0244, 11.01069
558.5065, 10.87193
558.9886, 10.74086
559.4707, 10.61632
559.9528, 10.49924
560.4349, 10.40205
560.9171, 10.29984
561.3992, 10.17191
561.8813, 10.02233
562.3634, 9.885708
562.8455, 9.762020
563.3276, 9.659293
563.8098, 9.583953
564.2919, 9.544704
564.7740, 9.503321
565.2561, 9.459220
565.7382, 9.413356
566.2203, 9.367135
566.7025, 9.321922
567.1846, 9.269526
567.6667, 9.209239
568.1488, 9.139482
568.6309, 9.050903
569.1130, 8.944156
569.5952, 8.850348
570.0773, 8.791874
570.5594, 8.750288
571.0415, 8.687502
571.5236, 8.604967
572.0057, 8.518576
572.4879, 8.415729
572.9700, 8.326222
573.4521, 8.294647
573.9342, 8.341558
574.4163, 8.362700
574.8984, 8.293489
575.3806, 8.182451
575.8627, 8.077851
576.3448, 7.950889
576.8269, 7.879016
577.3090, 7.901586
577.7911, 7.979608
578.2733, 8.027303
578.7554, 8.041428
579.2375, 8.028483
579.7196, 7.982159
580.2017, 7.907115
580.6838, 7.849769
581.1660, 7.811292
581.6481, 7.784016
582.1302, 7.772287
582.6123, 7.769175
583.0944, 7.740925
583.5765, 7.682581
584.0587, 7.623209
584.5408, 7.595989
585.0229, 7.587624
585.5050, 7.576452
585.9871, 7.561056
586.4692, 7.533330
586.9514, 7.485990
