##NAMES=Kinoite
##RRUFFID=R040155
##IDEAL CHEMISTRY=Ca_2_Cu^2+^_2_Si_3_O_10_&#183;2H_2_O
##LOCALITY=Christmas mine, Christmas, Gila County, Arizona, USA
##OWNER=RRUFF
##SOURCE=University of Arizona Mineral Museum
##DESCRIPTION=Pale blue crust
##STATUS=The identification of this mineral has been confirmed by X-ray diffraction and chemical analysis
##URL=rruff.info/R040155
##MEASURED CHEMISTRY=Ca_2.00_Cu_2.00_Si_3.00_O_10_Â·2H_2_O
137.6089, 940.4967
138.0910, 1006.057
138.5731, 1074.706
139.0553, 1151.314
139.5374, 1212.532
140.0195, 1257.495
140.5016, 1285.838
140.9837, 1293.116
141.4658, 1274.102
141.9480, 1242.361
142.4301, 1205.332
142.9122, 1157.650
143.3943, 1115.857
143.8764, 1079.092
144.3585, 1047.847
144.8407, 1033.634
145.3228, 1044.163
145.8049, 1066.011
146.2870, 1086.742
146.7691, 1102.326
147.2512, 1121.616
147.7334, 1144.410
148.2155, 1169.118
148.6976, 1205.778
149.1797, 1262.458
149.6618, 1328.944
150.1439, 1391.171
150.6261, 1441.067
151.1082, 1493.236
151.5903, 1551.289
152.0724, 1617.466
152.5545, 1684.388
153.0366, 1756.497
153.5188, 1828.511
154.0009, 1889.790
154.4830, 1940.773
154.9651, 1979.885
155.4472, 2008.174
155.9293, 2036.233
156.4115, 2037.886
156.8936, 1998.924
157.3757, 1927.152
157.8578, 1849.521
158.3399, 1761.759
158.8221, 1677.657
159.3042, 1605.331
159.7863, 1552.749
160.2684, 1506.419
160.7505, 1459.292
161.2326, 1412.455
161.7148, 1377.868
162.1969, 1366.185
162.6790, 1366.911
163.1611, 1369.985
163.6432, 1376.332
164.1253, 1380.781
164.6075, 1381.679
165.0896, 1379.004
165.5717, 1370.396
166.0538, 1355.282
166.5359, 1333.204
167.0180, 1303.632
167.5002, 1260.632
167.9823, 1213.419
168.4644, 1167.808
168.9465, 1123.924
169.4286, 1083.745
169.9107, 1047.472
170.3929, 1016.088
170.8750, 990.7307
171.3571, 974.5508
171.8392, 963.9092
172.3213, 955.8378
172.8034, 950.8540
173.2856, 945.7926
173.7677, 936.3308
174.2498, 923.8654
174.7319, 913.3535
175.2140, 907.4623
175.6961, 905.4454
176.1783, 906.4960
176.6604, 910.9685
177.1425, 917.5405
177.6246, 924.6953
178.1067, 932.4639
178.5888, 941.5571
179.0710, 950.8841
179.5531, 961.7625
180.0352, 977.4427
180.5173, 999.9505
180.9994, 1026.189
181.4815, 1051.548
181.9637, 1076.220
182.4458, 1099.218
182.9279, 1120.925
183.4100, 1140.726
183.8921, 1157.088
184.3742, 1171.820
184.8564, 1181.886
185.3385, 1178.129
185.8206, 1159.885
186.3027, 1135.486
186.7848, 1110.864
187.2669, 1086.392
187.7491, 1063.907
188.2312, 1042.414
188.7133, 1023.393
189.1954, 1012.162
189.6775, 1009.114
190.1596, 1012.564
190.6418, 1021.988
191.1239, 1037.260
191.6060, 1054.255
192.0881, 1072.616
192.5702, 1091.912
193.0524, 1107.513
193.5345, 1118.296
194.0166, 1128.194
194.4987, 1145.174
194.9808, 1169.981
195.4629, 1190.662
195.9451, 1200.438
196.4272, 1199.631
196.9093, 1198.634
197.3914, 1199.803
197.8735, 1197.593
198.3556, 1179.125
198.8378, 1142.342
199.3199, 1102.996
199.8020, 1069.323
200.2841, 1041.934
200.7662, 1014.641
201.2483, 985.1262
201.7305, 957.3256
202.2126, 944.2715
202.6947, 950.4836
203.1768, 954.5684
203.6589, 940.3621
204.1410, 904.2876
204.6232, 876.1036
205.1053, 858.5628
205.5874, 850.5265
206.0695, 849.9954
206.5516, 859.6384
207.0337, 869.7789
207.5159, 873.0778
207.9980, 867.6911
208.4801, 863.8210
208.9622, 862.3314
209.4443, 863.3114
209.9264, 867.8615
210.4086, 877.4880
210.8907, 887.6945
211.3728, 894.2100
211.8549, 895.1891
212.3370, 899.1449
212.8191, 908.2599
213.3013, 921.7300
213.7834, 933.2935
214.2655, 942.0378
214.7476, 950.3837
215.2297, 960.1848
215.7118, 971.6219
216.1940, 984.2040
216.6761, 997.2535
217.1582, 1010.957
217.6403, 1029.665
218.1224, 1056.983
218.6045, 1084.202
219.0867, 1100.827
219.5688, 1098.604
220.0509, 1105.519
220.5330, 1130.462
221.0151, 1174.324
221.4972, 1207.735
221.9794, 1225.630
222.4615, 1239.061
222.9436, 1260.905
223.4257, 1296.722
223.9078, 1329.626
224.3899, 1353.494
224.8721, 1367.354
225.3542, 1390.587
225.8363, 1431.790
226.3184, 1474.423
226.8005, 1498.155
227.2827, 1493.398
227.7648, 1487.599
228.2469, 1487.586
228.7290, 1494.219
229.2111, 1500.402
229.6932, 1508.437
230.1754, 1514.093
230.6575, 1510.400
231.1396, 1489.471
231.6217, 1473.363
232.1038, 1470.148
232.5859, 1483.656
233.0681, 1489.226
233.5502, 1484.135
234.0323, 1473.095
234.5144, 1462.714
234.9965, 1453.942
235.4786, 1444.291
235.9608, 1432.352
236.4429, 1417.150
236.9250, 1405.408
237.4071, 1400.682
237.8892, 1397.279
238.3713, 1385.165
238.8535, 1357.467
239.3356, 1332.459
239.8177, 1314.994
240.2998, 1304.456
240.7819, 1304.917
241.2640, 1322.887
241.7462, 1348.075
242.2283, 1361.408
242.7104, 1352.239
243.1925, 1348.821
243.6746, 1362.314
244.1567, 1399.661
244.6389, 1430.045
245.1210, 1449.241
245.6031, 1463.933
246.0852, 1485.927
246.5673, 1518.040
247.0494, 1552.723
247.5316, 1588.249
248.0137, 1626.227
248.4958, 1659.337
248.9779, 1684.983
249.4600, 1707.050
249.9421, 1732.593
250.4243, 1764.783
250.9064, 1795.060
251.3885, 1819.686
251.8706, 1836.463
252.3527, 1856.036
252.8348, 1882.532
253.3170, 1909.254
253.7991, 1922.547
254.2812, 1917.736
254.7633, 1908.235
255.2454, 1899.250
255.7275, 1892.515
256.2097, 1879.873
256.6918, 1859.871
257.1739, 1835.118
257.6560, 1809.243
258.1381, 1779.919
258.6202, 1754.203
259.1024, 1734.910
259.5845, 1723.456
260.0666, 1713.210
260.5487, 1703.615
261.0308, 1695.682
261.5129, 1691.077
261.9951, 1690.471
262.4772, 1691.683
262.9593, 1693.728
263.4414, 1696.293
263.9235, 1701.312
264.4056, 1709.052
264.8878, 1719.080
265.3699, 1732.303
265.8520, 1751.701
266.3341, 1766.095
266.8162, 1770.262
267.2983, 1762.579
267.7805, 1754.462
268.2626, 1745.258
268.7447, 1736.429
269.2268, 1731.114
269.7089, 1730.458
270.1910, 1729.220
270.6732, 1724.897
271.1553, 1717.045
271.6374, 1710.592
272.1195, 1705.643
272.6016, 1701.928
273.0837, 1697.387
273.5659, 1690.317
274.0480, 1690.906
274.5301, 1706.056
275.0122, 1736.401
275.4943, 1760.076
275.9764, 1774.278
276.4586, 1787.079
276.9407, 1811.830
277.4228, 1849.434
277.9049, 1888.175
278.3870, 1922.224
278.8691, 1951.988
279.3513, 1986.924
279.8334, 2027.433
280.3155, 2072.089
280.7976, 2121.976
281.2798, 2177.128
281.7619, 2226.477
282.2440, 2260.469
282.7261, 2282.662
283.2082, 2323.180
283.6903, 2385.518
284.1725, 2453.318
284.6546, 2509.838
285.1367, 2554.586
285.6188, 2586.960
286.1009, 2604.033
286.5830, 2608.227
287.0652, 2612.036
287.5473, 2616.870
288.0294, 2612.746
288.5115, 2586.495
288.9936, 2539.568
289.4757, 2485.249
289.9579, 2422.890
290.4400, 2357.365
290.9221, 2299.283
291.4042, 2248.567
291.8863, 2206.254
292.3684, 2178.781
292.8506, 2162.482
293.3327, 2140.432
293.8148, 2101.077
294.2969, 2056.118
294.7790, 2027.882
295.2611, 2016.328
295.7433, 2013.414
296.2254, 2014.495
296.7075, 2018.836
297.1896, 2024.015
297.6717, 2027.869
298.1538, 2033.567
298.6360, 2046.595
299.1181, 2066.677
299.6002, 2089.117
300.0823, 2112.359
300.5644, 2135.387
301.0465, 2157.124
301.5287, 2180.071
302.0108, 2198.111
302.4929, 2202.132
302.9750, 2193.704
303.4571, 2181.622
303.9392, 2173.804
304.4214, 2165.304
304.9035, 2147.819
305.3856, 2114.229
305.8677, 2080.112
306.3498, 2058.379
306.8319, 2047.728
307.3141, 2043.252
307.7962, 2047.091
308.2783, 2053.492
308.7604, 2058.061
309.2425, 2062.526
309.7246, 2059.023
310.2068, 2038.430
310.6889, 2005.356
311.1710, 1971.643
311.6531, 1942.730
312.1352, 1915.478
312.6173, 1888.064
313.0995, 1860.756
313.5816, 1832.533
314.0637, 1797.128
314.5458, 1760.685
315.0279, 1734.420
315.5100, 1732.050
315.9922, 1733.892
316.4743, 1728.063
316.9564, 1710.166
317.4385, 1697.182
317.9206, 1693.128
318.4027, 1697.696
318.8849, 1710.458
319.3670, 1736.802
319.8491, 1766.486
320.3312, 1796.651
320.8133, 1827.554
321.2954, 1856.550
321.7776, 1881.431
322.2597, 1905.020
322.7418, 1930.328
323.2239, 1962.094
323.7060, 1991.315
324.1881, 2016.746
324.6703, 2038.496
325.1524, 2054.338
325.6345, 2059.082
326.1166, 2060.319
326.5987, 2064.275
327.0808, 2079.099
327.5630, 2087.009
328.0451, 2082.141
328.5272, 2065.374
329.0093, 2055.678
329.4914, 2053.930
329.9735, 2058.601
330.4557, 2069.829
330.9378, 2096.114
331.4199, 2113.766
331.9020, 2117.097
332.3841, 2109.809
332.8662, 2109.303
333.3484, 2114.311
333.8305, 2128.035
334.3126, 2153.823
334.7947, 2195.415
335.2768, 2237.143
335.7589, 2279.643
336.2411, 2320.995
336.7232, 2356.651
337.2053, 2384.480
337.6874, 2412.090
338.1695, 2444.823
338.6516, 2483.683
339.1338, 2518.056
339.6159, 2550.102
340.0980, 2573.403
340.5801, 2572.854
341.0622, 2546.076
341.5443, 2516.977
342.0265, 2497.462
342.5086, 2485.672
342.9907, 2462.631
343.4728, 2428.275
343.9549, 2383.625
344.4370, 2327.087
344.9192, 2260.018
345.4013, 2192.018
345.8834, 2126.563
346.3655, 2063.409
346.8476, 2005.443
347.3297, 1953.028
347.8119, 1901.724
348.2940, 1842.845
348.7761, 1781.402
349.2582, 1734.578
349.7403, 1712.503
350.2225, 1700.543
350.7046, 1676.630
351.1867, 1642.167
351.6688, 1609.627
352.1509, 1589.380
352.6331, 1576.360
353.1152, 1563.299
353.5973, 1549.125
354.0794, 1533.507
354.5615, 1514.453
355.0436, 1493.348
355.5258, 1474.403
356.0079, 1463.398
356.4900, 1453.644
356.9721, 1438.701
357.4542, 1416.152
357.9363, 1393.259
358.4185, 1372.049
358.9006, 1353.464
359.3827, 1339.126
359.8648, 1332.347
360.3469, 1327.859
360.8290, 1326.178
361.3112, 1329.145
361.7933, 1320.872
362.2754, 1281.326
362.7575, 1233.522
363.2396, 1202.346
363.7217, 1209.673
364.2039, 1218.333
364.6860, 1218.279
365.1681, 1209.138
365.6502, 1201.587
366.1323, 1197.423
366.6144, 1194.815
367.0966, 1192.511
367.5787, 1191.041
368.0608, 1189.214
368.5429, 1187.392
369.0250, 1185.278
369.5071, 1181.391
369.9893, 1174.998
370.4714, 1167.720
370.9535, 1160.430
371.4356, 1154.006
371.9177, 1145.265
372.3998, 1131.591
372.8820, 1116.859
373.3641, 1110.606
373.8462, 1115.729
374.3283, 1121.845
374.8104, 1124.989
375.2925, 1124.979
375.7747, 1123.826
376.2568, 1120.499
376.7389, 1118.053
377.2210, 1121.211
377.7031, 1130.306
378.1852, 1140.149
378.6674, 1149.123
379.1495, 1157.581
379.6316, 1166.331
380.1137, 1174.902
380.5958, 1187.358
381.0779, 1211.558
381.5601, 1244.574
382.0422, 1269.257
382.5243, 1279.058
383.0064, 1282.971
383.4885, 1295.000
383.9706, 1314.765
384.4528, 1338.573
384.9349, 1367.648
385.4170, 1398.354
385.8991, 1424.700
386.3812, 1445.009
386.8633, 1464.300
387.3455, 1488.604
387.8276, 1515.519
388.3097, 1539.967
388.7918, 1555.328
389.2739, 1569.510
389.7560, 1589.985
390.2382, 1617.931
390.7203, 1644.796
391.2024, 1666.986
391.6845, 1685.141
392.1666, 1700.248
392.6487, 1714.945
393.1309, 1724.271
393.6130, 1724.175
394.0951, 1715.431
394.5772, 1706.692
395.0593, 1705.245
395.5414, 1701.277
396.0236, 1688.627
396.5057, 1656.734
396.9878, 1627.563
397.4699, 1602.328
397.9520, 1581.262
398.4341, 1565.289
398.9163, 1557.432
399.3984, 1551.581
399.8805, 1545.988
400.3626, 1541.424
400.8447, 1534.487
401.3268, 1522.729
401.8090, 1510.421
402.2911, 1504.304
402.7732, 1507.679
403.2553, 1508.602
403.7374, 1502.603
404.2195, 1490.284
404.7017, 1482.373
405.1838, 1478.839
405.6659, 1479.828
406.1480, 1487.308
406.6301, 1501.440
407.1122, 1512.316
407.5944, 1516.055
408.0765, 1517.741
408.5586, 1529.850
409.0407, 1552.278
409.5228, 1578.566
410.0049, 1602.366
410.4871, 1626.408
410.9692, 1660.638
411.4513, 1708.085
411.9334, 1757.988
412.4155, 1797.539
412.8976, 1830.193
413.3798, 1864.341
413.8619, 1902.587
414.3440, 1945.632
414.8261, 1996.064
415.3082, 2054.102
415.7903, 2113.742
416.2725, 2173.057
416.7546, 2231.508
417.2367, 2289.682
417.7188, 2344.222
418.2009, 2400.828
418.6830, 2464.787
419.1652, 2533.674
419.6473, 2596.083
420.1294, 2643.931
420.6115, 2688.031
421.0937, 2734.163
421.5758, 2779.860
422.0579, 2832.666
422.5400, 2906.118
423.0221, 2984.774
423.5042, 3044.823
423.9864, 3081.439
424.4685, 3103.544
424.9506, 3113.453
425.4327, 3111.279
425.9148, 3093.263
426.3969, 3057.544
426.8791, 3008.175
427.3612, 2949.455
427.8433, 2883.258
428.3254, 2801.245
428.8075, 2697.560
429.2896, 2579.155
429.7718, 2471.628
430.2539, 2375.833
430.7360, 2285.084
431.2181, 2193.276
431.7002, 2101.505
432.1823, 2027.950
432.6645, 1975.977
433.1466, 1933.789
433.6287, 1884.530
434.1108, 1830.650
434.5929, 1784.289
435.0750, 1751.966
435.5572, 1730.126
436.0393, 1713.078
436.5214, 1700.843
437.0035, 1693.849
437.4856, 1694.681
437.9677, 1700.361
438.4499, 1706.639
438.9320, 1711.538
439.4141, 1718.315
439.8962, 1729.538
440.3783, 1744.426
440.8604, 1761.302
441.3426, 1775.122
441.8247, 1793.761
442.3068, 1823.861
442.7889, 1869.109
443.2710, 1911.391
443.7531, 1938.786
444.2353, 1963.437
444.7174, 1999.258
445.1995, 2064.194
445.6816, 2122.364
446.1637, 2161.624
446.6458, 2184.494
447.1280, 2223.153
447.6101, 2289.601
448.0922, 2358.852
448.5743, 2416.575
449.0564, 2459.688
449.5385, 2500.238
450.0207, 2536.406
450.5028, 2571.956
450.9849, 2615.265
451.4670, 2667.836
451.9491, 2719.079
452.4312, 2770.719
452.9134, 2819.413
453.3955, 2836.239
453.8776, 2818.059
454.3597, 2790.434
454.8418, 2780.116
455.3239, 2782.225
455.8061, 2777.010
456.2882, 2759.429
456.7703, 2733.302
457.2524, 2704.262
457.7345, 2671.680
458.2166, 2632.054
458.6988, 2577.794
459.1809, 2518.461
459.6630, 2466.405
460.1451, 2423.509
460.6272, 2379.210
461.1093, 2324.120
461.5915, 2264.741
462.0736, 2210.251
462.5557, 2166.048
463.0378, 2124.831
463.5199, 2085.522
464.0020, 2047.913
464.4842, 2009.384
464.9663, 1960.687
465.4484, 1917.799
465.9305, 1889.518
466.4126, 1884.904
466.8947, 1878.862
467.3769, 1870.044
467.8590, 1860.417
468.3411, 1852.799
468.8232, 1846.492
469.3053, 1843.585
469.7874, 1843.670
470.2696, 1847.016
470.7517, 1859.485
471.2338, 1882.413
471.7159, 1910.155
472.1980, 1937.029
472.6801, 1963.307
473.1623, 1994.231
473.6444, 2029.723
474.1265, 2072.153
474.6086, 2127.827
475.0907, 2195.383
475.5728, 2266.007
476.0550, 2331.562
476.5371, 2398.740
477.0192, 2479.132
477.5013, 2573.569
477.9834, 2671.338
478.4655, 2763.397
478.9477, 2854.464
479.4298, 2949.132
479.9119, 3046.535
480.3940, 3152.281
480.8761, 3274.782
481.3582, 3408.248
481.8404, 3534.562
482.3225, 3635.680
482.8046, 3738.237
483.2867, 3856.808
483.7688, 3997.961
484.2509, 4136.447
484.7331, 4273.730
485.2152, 4405.009
485.6973, 4529.371
486.1794, 4652.615
486.6615, 4760.285
487.1436, 4857.097
487.6258, 4937.747
488.1079, 4975.057
488.5900, 4962.908
489.0721, 4923.194
489.5542, 4865.343
490.0363, 4789.144
490.5185, 4696.107
491.0006, 4582.909
491.4827, 4466.671
491.9648, 4364.453
492.4470, 4277.482
492.9291, 4216.378
493.4112, 4195.374
493.8933, 4194.418
494.3754, 4186.205
494.8575, 4171.434
495.3397, 4155.022
495.8218, 4138.784
496.3039, 4123.026
496.7860, 4110.756
497.2681, 4105.601
497.7502, 4090.547
498.2324, 4056.267
498.7145, 4006.723
499.1966, 3946.604
499.6787, 3879.759
500.1608, 3800.480
500.6429, 3703.752
501.1251, 3590.493
501.6072, 3475.738
502.0893, 3360.835
502.5714, 3242.905
503.0535, 3118.703
503.5356, 2979.962
504.0178, 2855.977
504.4999, 2751.104
504.9820, 2658.146
505.4641, 2562.692
505.9462, 2462.270
506.4283, 2374.068
506.9105, 2306.100
507.3926, 2254.117
507.8747, 2199.859
508.3568, 2142.617
508.8389, 2093.145
509.3210, 2063.612
509.8032, 2047.262
510.2853, 2024.272
510.7674, 1990.954
511.2495, 1956.191
511.7316, 1927.974
512.2137, 1905.003
512.6959, 1885.035
513.1780, 1862.006
513.6601, 1845.629
514.1422, 1847.174
514.6243, 1863.762
515.1064, 1875.645
515.5886, 1869.231
516.0707, 1859.834
516.5528, 1856.362
517.0349, 1859.741
517.5170, 1869.372
517.9991, 1885.084
518.4813, 1907.035
518.9634, 1936.144
519.4455, 1976.653
519.9276, 2016.895
520.4097, 2053.672
520.8918, 2087.642
521.3740, 2127.778
521.8561, 2174.911
522.3382, 2225.457
522.8203, 2275.984
523.3024, 2326.521
523.7845, 2386.446
524.2667, 2458.259
524.7488, 2533.384
525.2309, 2604.920
525.7130, 2673.254
526.1951, 2737.780
526.6772, 2794.567
527.1594, 2852.088
527.6415, 2920.769
528.1236, 2998.555
528.6057, 3078.322
529.0878, 3164.572
529.5699, 3244.818
530.0521, 3306.465
530.5342, 3345.025
531.0163, 3381.009
531.4984, 3428.004
531.9805, 3473.147
532.4626, 3503.023
532.9448, 3515.135
533.4269, 3512.346
533.9090, 3494.933
534.3911, 3462.858
534.8732, 3416.707
535.3553, 3354.786
535.8375, 3280.397
536.3196, 3192.516
536.8017, 3089.047
537.2838, 2993.520
537.7659, 2906.101
538.2480, 2823.103
538.7302, 2740.381
539.2123, 2657.677
539.6944, 2577.975
540.1765, 2500.950
540.6586, 2428.867
541.1407, 2364.545
541.6229, 2306.662
542.1050, 2249.464
542.5871, 2186.996
543.0692, 2125.615
543.5513, 2073.479
544.0334, 2031.330
544.5156, 1987.637
544.9977, 1929.168
545.4798, 1871.454
545.9619, 1828.310
546.4440, 1819.831
546.9261, 1799.861
547.4083, 1751.060
547.8904, 1688.844
548.3725, 1641.983
548.8546, 1617.980
549.3367, 1596.669
549.8188, 1574.507
550.3010, 1551.278
550.7831, 1523.379
551.2652, 1489.170
551.7473, 1455.644
552.2294, 1427.125
552.7115, 1403.535
553.1937, 1386.812
553.6758, 1378.238
554.1579, 1371.841
554.6400, 1357.685
555.1221, 1339.393
555.6042, 1328.068
556.0864, 1334.932
556.5685, 1342.916
557.0506, 1332.635
557.5327, 1308.648
558.0148, 1288.029
558.4969, 1281.533
558.9791, 1279.106
559.4612, 1275.716
559.9433, 1271.354
560.4254, 1263.316
560.9075, 1245.939
561.3896, 1227.620
561.8718, 1215.722
562.3539, 1215.639
562.8360, 1212.715
563.3181, 1204.915
563.8002, 1194.139
564.2823, 1184.336
564.7645, 1175.326
565.2466, 1168.556
565.7287, 1165.565
566.2108, 1165.396
566.6929, 1162.591
567.1750, 1156.993
567.6572, 1152.824
568.1393, 1155.245
568.6214, 1161.430
569.1035, 1165.849
569.5856, 1167.681
570.0677, 1167.672
570.5499, 1165.420
571.0320, 1161.959
571.5141, 1158.914
571.9962, 1156.835
572.4783, 1155.326
572.9604, 1154.534
573.4426, 1154.302
573.9247, 1153.832
574.4068, 1154.817
574.8889, 1153.797
575.3710, 1148.794
575.8531, 1138.691
576.3353, 1130.769
576.8174, 1125.302
577.2995, 1121.727
577.7816, 1119.038
578.2637, 1117.010
578.7458, 1119.503
579.2280, 1128.868
579.7101, 1139.705
580.1922, 1140.686
580.6743, 1133.566
581.1564, 1128.257
581.6385, 1133.329
582.1207, 1140.673
582.6028, 1137.691
583.0849, 1125.783
583.5670, 1115.717
584.0491, 1113.975
584.5313, 1116.545
585.0134, 1121.516
585.4955, 1130.684
585.9776, 1135.309
586.4597, 1128.326
586.9418, 1117.643
587.4240, 1112.467
587.9061, 1118.349
588.3882, 1121.227
588.8703, 1117.668
589.3524, 1110.671
589.8345, 1109.859
590.3167, 1117.016
590.7988, 1123.578
591.2809, 1126.169
591.7630, 1125.113
592.2451, 1119.971
592.7272, 1110.475
593.2094, 1103.480
593.6915, 1107.885
594.1736, 1118.202
594.6557, 1123.381
595.1378, 1120.513
595.6199, 1116.892
596.1021, 1118.680
596.5842, 1122.959
597.0663, 1125.579
597.5485, 1125.394
598.0306, 1123.040
598.5127, 1115.662
598.9948, 1105.449
599.4769, 1101.898
599.9590, 1112.385
600.4412, 1121.239
600.9233, 1123.261
601.4054, 1118.128
601.8875, 1110.056
602.3696, 1096.129
602.8517, 1086.612
603.3339, 1093.314
603.8160, 1114.822
604.2981, 1133.018
604.7802, 1146.215
605.2623, 1154.024
605.7444, 1153.310
606.2266, 1146.464
606.7087, 1139.880
607.1908, 1134.843
607.6729, 1131.968
608.1550, 1131.997
608.6371, 1134.604
609.1193, 1138.726
609.6014, 1146.598
610.0835, 1153.587
610.5656, 1157.259
611.0477, 1157.172
611.5298, 1155.790
612.0120, 1149.080
612.4941, 1145.216
612.9762, 1151.997
613.4583, 1175.973
613.9404, 1185.274
614.4225, 1174.240
614.9047, 1155.876
615.3868, 1148.563
615.8689, 1151.573
616.3510, 1155.954
616.8331, 1158.438
617.3152, 1161.772
617.7974, 1174.176
618.2795, 1192.244
618.7616, 1203.463
619.2437, 1190.951
619.7258, 1176.368
620.2079, 1177.326
620.6901, 1194.668
621.1722, 1212.370
621.6543, 1226.992
622.1364, 1238.729
622.6185, 1247.078
623.1006, 1249.526
623.5828, 1254.416
624.0649, 1262.291
624.5470, 1272.109
625.0291, 1283.048
625.5112, 1295.495
625.9933, 1306.548
626.4755, 1314.377
626.9576, 1322.120
627.4397, 1335.637
627.9218, 1354.809
628.4039, 1378.732
628.8860, 1412.387
629.3682, 1447.806
629.8503, 1470.364
630.3324, 1482.236
630.8145, 1499.355
631.2966, 1533.433
631.7787, 1574.148
632.2609, 1615.052
632.7430, 1655.908
633.2251, 1694.659
