##NAMES=Kinoshitalite
##RRUFFID=R070656
##IDEAL CHEMISTRY=BaMg_3_(Si_2_Al_2_)O_10_(OH)_2_
##LOCALITY=Hokkejino, Kyoto Prefecture, Kinki Region, Honshu Island, Japan
##OWNER=RRUFF
##SOURCE=Michael Scott
##DESCRIPTION=Yellowish brown platy crystals in granular matrix of tephroite
##STATUS=The identification of this mineral has been confirmed only by single crystal X-ray diffraction.
##URL=rruff.info/R070656
111.4338, 4789.033
111.9159, 4923.710
112.3980, 5042.759
112.8801, 5134.703
113.3622, 5206.068
113.8444, 5285.173
114.3265, 5383.429
114.8086, 5487.999
115.2907, 5587.731
115.7728, 5675.880
116.2549, 5763.624
116.7370, 5859.115
117.2192, 5963.910
117.7013, 6057.546
118.1834, 6121.107
118.6655, 6170.846
119.1476, 6229.881
119.6297, 6319.699
120.1119, 6414.092
120.5940, 6492.252
121.0761, 6539.637
121.5582, 6595.859
122.0403, 6689.961
122.5224, 6814.634
123.0046, 6945.500
123.4867, 7082.346
123.9688, 7213.407
124.4509, 7322.758
124.9330, 7385.326
125.4151, 7439.753
125.8973, 7532.781
126.3794, 7663.938
126.8615, 7797.206
127.3436, 7896.484
127.8257, 7971.867
128.3078, 8048.491
128.7900, 8143.699
129.2721, 8246.373
129.7542, 8333.512
130.2363, 8398.161
130.7184, 8423.788
131.2005, 8414.434
131.6827, 8398.574
132.1648, 8390.241
132.6469, 8403.676
133.1290, 8434.035
133.6111, 8457.329
134.0932, 8470.416
134.5754, 8474.050
135.0575, 8465.669
135.5396, 8442.838
136.0217, 8422.630
136.5038, 8422.727
136.9859, 8444.023
137.4681, 8464.357
137.9502, 8478.110
138.4323, 8485.702
138.9144, 8494.250
139.3965, 8507.191
139.8786, 8515.853
140.3608, 8496.237
140.8429, 8428.642
141.3250, 8395.680
141.8071, 8451.250
142.2892, 8647.178
142.7713, 8735.705
143.2535, 8676.028
143.7356, 8523.585
144.2177, 8436.262
144.6998, 8441.912
145.1819, 8471.197
145.6640, 8485.494
146.1461, 8478.385
146.6283, 8468.318
147.1104, 8452.750
147.5925, 8432.254
148.0746, 8426.082
148.5567, 8443.438
149.0388, 8468.674
149.5210, 8487.796
150.0031, 8500.862
150.4852, 8508.139
150.9673, 8507.989
151.4494, 8496.755
151.9315, 8490.019
152.4137, 8494.267
152.8958, 8501.475
153.3779, 8499.671
153.8600, 8455.606
154.3421, 8429.292
154.8242, 8445.456
155.3064, 8554.041
155.7885, 8625.742
156.2706, 8625.667
156.7527, 8574.346
157.2348, 8534.390
157.7169, 8529.999
158.1991, 8532.192
158.6812, 8524.640
159.1633, 8486.691
159.6454, 8456.195
160.1275, 8443.902
160.6096, 8448.964
161.0918, 8460.753
161.5739, 8484.170
162.0560, 8509.770
162.5381, 8528.402
163.0202, 8529.693
163.5023, 8529.451
163.9845, 8534.922
164.4666, 8547.024
164.9487, 8560.507
165.4308, 8579.851
165.9129, 8598.218
166.3951, 8604.635
166.8772, 8579.807
167.3593, 8550.133
167.8414, 8534.863
168.3235, 8540.381
168.8056, 8552.405
169.2878, 8566.445
169.7699, 8580.945
170.2520, 8591.258
170.7341, 8591.710
171.2162, 8587.834
171.6983, 8585.216
172.1805, 8584.931
172.6626, 8586.785
173.1447, 8593.417
173.6268, 8603.792
174.1089, 8610.104
174.5910, 8598.102
175.0732, 8579.293
175.5553, 8572.456
176.0374, 8602.919
176.5195, 8640.263
177.0016, 8640.530
177.4837, 8601.099
177.9659, 8565.679
178.4480, 8588.487
178.9301, 8649.308
179.4122, 8692.539
179.8943, 8670.171
180.3764, 8618.364
180.8586, 8605.832
181.3407, 8643.896
181.8228, 8692.814
182.3049, 8700.977
182.7870, 8675.116
183.2691, 8652.582
183.7513, 8661.368
184.2334, 8690.839
184.7155, 8710.775
185.1976, 8712.504
185.6797, 8709.720
186.1618, 8730.864
186.6440, 8775.072
187.1261, 8813.126
187.6082, 8819.211
188.0903, 8798.812
188.5724, 8777.107
189.0545, 8757.068
189.5366, 8741.201
190.0188, 8737.418
190.5009, 8746.372
190.9830, 8760.260
191.4651, 8770.446
191.9472, 8777.395
192.4293, 8789.131
192.9115, 8811.977
193.3936, 8841.997
193.8757, 8860.654
194.3578, 8866.608
194.8399, 8865.393
195.3220, 8859.760
195.8042, 8849.321
196.2863, 8848.206
196.7684, 8866.909
197.2505, 8904.211
197.7326, 8935.654
198.2147, 8959.169
198.6969, 8980.152
199.1790, 9011.838
199.6611, 9056.960
200.1432, 9093.752
200.6253, 9101.177
201.1074, 9075.857
201.5896, 9078.893
202.0717, 9121.014
202.5538, 9188.392
203.0359, 9246.582
203.5180, 9295.555
204.0001, 9334.153
204.4823, 9359.467
204.9644, 9369.770
205.4465, 9377.153
205.9286, 9380.693
206.4107, 9382.804
206.8928, 9395.336
207.3750, 9419.341
207.8571, 9451.983
208.3392, 9494.693
208.8213, 9552.619
209.3034, 9600.715
209.7855, 9633.178
210.2677, 9650.762
210.7498, 9665.820
211.2319, 9677.790
211.7140, 9688.201
212.1961, 9699.938
212.6782, 9715.210
213.1604, 9725.082
213.6425, 9729.762
214.1246, 9730.419
214.6067, 9708.321
215.0888, 9653.849
215.5709, 9586.385
216.0531, 9535.894
216.5352, 9507.551
217.0173, 9485.017
217.4994, 9463.133
217.9815, 9441.544
218.4636, 9423.654
218.9458, 9412.175
219.4279, 9403.073
219.9100, 9387.745
220.3921, 9365.863
220.8742, 9338.333
221.3563, 9303.245
221.8385, 9252.959
222.3206, 9214.655
222.8027, 9187.879
223.2848, 9173.229
223.7669, 9175.794
224.2490, 9209.370
224.7312, 9238.250
225.2133, 9237.401
225.6954, 9184.897
226.1775, 9156.175
226.6596, 9166.864
227.1417, 9208.045
227.6239, 9226.693
228.1060, 9215.784
228.5881, 9191.131
229.0702, 9161.259
229.5523, 9118.366
230.0344, 9088.534
230.5165, 9078.231
230.9987, 9086.476
231.4808, 9094.244
231.9629, 9100.731
232.4450, 9107.849
232.9271, 9120.016
233.4092, 9150.395
233.8914, 9159.402
234.3735, 9131.675
234.8556, 9064.181
235.3377, 9017.137
235.8198, 8991.548
236.3019, 8985.081
236.7841, 8997.677
237.2662, 9043.217
237.7483, 9083.677
238.2304, 9113.057
238.7125, 9132.233
239.1946, 9131.107
239.6768, 9093.983
240.1589, 9047.899
240.6410, 9031.754
241.1231, 9064.273
241.6052, 9096.564
242.0873, 9116.940
242.5695, 9126.578
243.0516, 9117.197
243.5337, 9072.872
244.0158, 9017.705
244.4979, 8996.275
244.9800, 9025.747
245.4622, 9061.974
245.9443, 9089.048
246.4264, 9102.323
246.9085, 9120.422
247.3906, 9148.415
247.8727, 9179.102
248.3549, 9196.489
248.8370, 9197.314
249.3191, 9189.370
249.8012, 9173.347
250.2833, 9138.553
250.7654, 9121.526
251.2476, 9129.338
251.7297, 9153.734
252.2118, 9169.618
252.6939, 9169.065
253.1760, 9172.242
253.6581, 9194.234
254.1403, 9257.551
254.6224, 9283.247
255.1045, 9251.616
255.5866, 9181.196
256.0687, 9142.247
256.5508, 9147.691
257.0330, 9165.367
257.5151, 9176.928
257.9972, 9178.271
258.4793, 9182.584
258.9614, 9184.535
259.4435, 9189.523
259.9257, 9232.007
260.4078, 9339.258
260.8899, 9441.236
261.3720, 9482.647
261.8541, 9435.438
262.3362, 9406.903
262.8184, 9417.050
263.3005, 9457.494
263.7826, 9472.925
264.2647, 9452.310
264.7468, 9424.419
265.2289, 9413.772
265.7111, 9430.329
266.1932, 9432.440
266.6753, 9406.588
267.1574, 9358.634
267.6395, 9335.285
268.1216, 9340.753
268.6038, 9363.727
269.0859, 9399.320
269.5680, 9454.305
270.0501, 9496.463
270.5322, 9516.621
271.0143, 9517.337
271.4965, 9523.868
271.9786, 9538.506
272.4607, 9554.377
272.9428, 9566.185
273.4249, 9575.009
273.9070, 9574.486
274.3892, 9561.103
274.8713, 9536.102
275.3534, 9508.583
275.8355, 9472.696
276.3176, 9447.937
276.7997, 9463.248
277.2819, 9526.290
277.7640, 9578.665
278.2461, 9601.303
278.7282, 9598.284
279.2103, 9608.758
279.6924, 9639.159
280.1746, 9665.087
280.6567, 9647.280
281.1388, 9579.782
281.6209, 9540.831
282.1030, 9566.627
282.5851, 9644.878
283.0673, 9689.199
283.5494, 9695.315
284.0315, 9683.008
284.5136, 9673.058
284.9957, 9665.564
285.4778, 9654.853
285.9600, 9633.884
286.4421, 9607.240
286.9242, 9599.169
287.4063, 9611.152
287.8884, 9634.879
288.3705, 9670.678
288.8527, 9716.738
289.3348, 9741.386
289.8169, 9717.834
290.2990, 9662.474
290.7811, 9644.968
291.2632, 9669.839
291.7453, 9706.450
292.2274, 9721.590
292.7096, 9717.332
293.1917, 9708.709
293.6738, 9701.555
294.1559, 9694.298
294.6380, 9680.749
295.1201, 9659.884
295.6023, 9640.059
296.0844, 9633.971
296.5665, 9637.995
297.0486, 9636.472
297.5307, 9614.583
298.0128, 9584.385
298.4950, 9577.286
298.9771, 9595.045
299.4592, 9613.580
299.9413, 9598.840
300.4234, 9563.524
300.9055, 9543.871
301.3877, 9566.995
301.8698, 9611.293
302.3519, 9646.380
302.8340, 9672.252
303.3161, 9688.823
303.7982, 9687.653
304.2804, 9676.964
304.7625, 9674.685
305.2446, 9700.362
305.7267, 9732.318
306.2088, 9739.642
306.6909, 9720.980
307.1731, 9704.926
307.6552, 9716.611
308.1373, 9745.812
308.6194, 9775.047
309.1015, 9801.337
309.5836, 9822.371
310.0658, 9836.653
310.5479, 9844.518
311.0300, 9844.648
311.5121, 9824.079
311.9942, 9798.245
312.4763, 9788.387
312.9585, 9813.242
313.4406, 9849.066
313.9227, 9885.690
314.4048, 9922.479
314.8869, 9948.801
315.3690, 9951.539
315.8512, 9943.366
316.3333, 9938.798
316.8154, 9943.842
317.2975, 9952.442
317.7796, 9965.351
318.2617, 9982.313
318.7439, 9990.921
319.2260, 9966.719
319.7081, 9940.060
320.1902, 9939.823
320.6723, 10010.83
321.1544, 10074.11
321.6366, 10101.44
322.1187, 10092.53
322.6008, 10080.06
323.0829, 10057.86
323.5650, 10042.37
324.0471, 10046.67
324.5293, 10110.53
325.0114, 10155.33
325.4935, 10154.15
325.9756, 10108.37
326.4577, 10078.46
326.9398, 10079.40
327.4220, 10092.64
327.9041, 10105.45
328.3862, 10116.53
328.8683, 10127.55
329.3504, 10142.78
329.8326, 10160.90
330.3147, 10165.08
330.7968, 10143.28
331.2789, 10117.28
331.7610, 10101.27
332.2431, 10107.45
332.7253, 10104.79
333.2074, 10085.85
333.6895, 10054.44
334.1716, 10035.49
334.6537, 10037.75
335.1358, 10042.13
335.6180, 10036.34
336.1001, 10015.07
336.5822, 9996.483
337.0643, 9978.810
337.5464, 9965.177
338.0285, 9970.607
338.5107, 10004.70
338.9928, 10036.73
339.4749, 10046.34
339.9570, 10028.07
340.4391, 10014.76
340.9212, 10006.61
341.4034, 10006.46
341.8855, 10026.00
342.3676, 10069.89
342.8497, 10111.65
343.3318, 10135.14
343.8139, 10140.59
344.2961, 10144.33
344.7782, 10148.05
345.2603, 10149.56
345.7424, 10141.47
346.2245, 10123.43
346.7066, 10110.39
347.1888, 10114.58
347.6709, 10131.51
348.1530, 10139.30
348.6351, 10134.68
349.1172, 10126.26
349.5993, 10127.31
350.0815, 10135.99
350.5636, 10141.52
351.0457, 10132.05
351.5278, 10116.86
352.0099, 10119.23
352.4920, 10142.73
352.9742, 10165.55
353.4563, 10156.94
353.9384, 10128.91
354.4205, 10112.70
354.9026, 10139.01
355.3847, 10175.95
355.8669, 10181.79
356.3490, 10154.01
356.8311, 10127.69
357.3132, 10136.00
357.7953, 10161.82
358.2774, 10178.44
358.7596, 10163.05
359.2417, 10144.29
359.7238, 10144.91
360.2059, 10164.50
360.6880, 10179.64
361.1701, 10168.62
361.6523, 10150.46
362.1344, 10144.46
362.6165, 10171.46
363.0986, 10197.31
363.5807, 10208.49
364.0628, 10205.99
364.5450, 10201.00
365.0271, 10193.12
365.5092, 10186.03
365.9913, 10182.29
366.4734, 10189.79
366.9555, 10192.66
367.4377, 10182.06
367.9198, 10162.45
368.4019, 10155.72
368.8840, 10180.68
369.3661, 10206.96
369.8482, 10220.03
370.3304, 10207.84
370.8125, 10199.29
371.2946, 10192.66
371.7767, 10189.95
372.2588, 10198.07
372.7409, 10231.11
373.2230, 10256.79
373.7051, 10259.08
374.1873, 10222.66
374.6694, 10206.47
375.1515, 10221.97
375.6336, 10248.81
376.1157, 10242.78
376.5978, 10185.91
377.0800, 10146.39
377.5621, 10156.49
378.0442, 10220.31
378.5263, 10269.77
379.0084, 10306.37
379.4905, 10326.75
379.9727, 10317.85
380.4548, 10276.90
380.9369, 10249.42
381.4190, 10259.42
381.9011, 10295.94
382.3832, 10305.59
382.8654, 10285.79
383.3475, 10256.91
383.8296, 10232.60
384.3117, 10214.94
384.7938, 10214.56
385.2759, 10243.55
385.7581, 10285.16
386.2402, 10314.13
386.7223, 10330.66
387.2044, 10328.56
387.6865, 10284.18
388.1686, 10221.65
388.6508, 10183.50
389.1329, 10184.50
389.6150, 10205.97
390.0971, 10246.20
390.5792, 10296.70
391.0613, 10325.76
391.5435, 10297.91
392.0256, 10250.33
392.5077, 10214.67
392.9898, 10195.94
393.4719, 10190.91
393.9540, 10202.90
394.4362, 10227.13
394.9183, 10254.41
395.4004, 10288.26
395.8825, 10318.27
396.3646, 10340.34
396.8467, 10354.06
397.3289, 10358.00
397.8110, 10340.43
398.2931, 10316.21
398.7752, 10304.08
399.2573, 10320.76
399.7394, 10335.32
400.2216, 10335.76
400.7037, 10318.75
401.1858, 10321.32
401.6679, 10363.14
402.1500, 10410.66
402.6321, 10435.67
403.1143, 10432.63
403.5964, 10416.16
404.0785, 10376.00
404.5606, 10320.13
405.0427, 10310.43
405.5248, 10366.99
406.0070, 10431.80
406.4891, 10463.76
406.9712, 10458.95
407.4533, 10449.55
407.9354, 10436.18
408.4175, 10422.53
408.8997, 10416.92
409.3818, 10419.60
409.8639, 10428.50
410.3460, 10446.22
410.8281, 10470.72
411.3102, 10487.71
411.7924, 10495.47
412.2745, 10499.43
412.7566, 10509.71
413.2387, 10523.47
413.7208, 10528.63
414.2029, 10505.18
414.6851, 10474.42
415.1672, 10474.51
415.6493, 10506.88
416.1314, 10542.62
416.6135, 10562.48
417.0956, 10569.40
417.5778, 10568.11
418.0599, 10548.11
418.5420, 10531.35
419.0241, 10540.19
419.5062, 10569.92
419.9883, 10590.90
420.4705, 10574.71
420.9526, 10551.57
421.4347, 10545.38
421.9168, 10567.82
422.3989, 10598.06
422.8810, 10641.62
423.3632, 10689.68
423.8453, 10718.42
424.3274, 10702.05
424.8095, 10683.18
425.2916, 10679.59
425.7737, 10702.18
426.2559, 10717.02
426.7380, 10723.27
427.2201, 10721.64
427.7022, 10711.67
428.1843, 10680.72
428.6664, 10661.43
429.1486, 10664.13
429.6307, 10689.52
430.1128, 10716.29
430.5949, 10747.56
431.0770, 10774.75
431.5591, 10785.56
432.0413, 10775.98
432.5234, 10780.47
433.0055, 10813.88
433.4876, 10861.11
433.9697, 10869.88
434.4518, 10837.94
434.9340, 10798.77
435.4161, 10767.79
435.8982, 10747.06
436.3803, 10748.68
436.8624, 10779.19
437.3445, 10818.14
437.8267, 10842.87
438.3088, 10853.56
438.7909, 10850.34
439.2730, 10813.56
439.7551, 10772.12
440.2372, 10765.08
440.7194, 10796.71
441.2015, 10835.56
441.6836, 10871.38
442.1657, 10897.35
442.6478, 10904.83
443.1299, 10866.33
443.6121, 10830.13
444.0942, 10816.30
444.5763, 10824.71
445.0584, 10850.07
445.5405, 10923.72
446.0226, 10992.47
446.5048, 11021.65
446.9869, 10973.95
447.4690, 10929.24
447.9511, 10889.08
448.4332, 10857.07
448.9153, 10843.25
449.3975, 10864.36
449.8796, 10884.69
450.3617, 10890.33
450.8438, 10875.42
451.3259, 10871.72
451.8080, 10882.78
452.2902, 10901.36
452.7723, 10919.11
453.2544, 10936.89
453.7365, 10951.13
454.2186, 10962.24
454.7007, 10968.89
455.1828, 10960.17
455.6649, 10933.87
456.1471, 10906.79
456.6292, 10890.59
457.1113, 10885.16
457.5934, 10893.31
458.0755, 10920.19
458.5576, 10951.58
459.0398, 10968.75
459.5219, 10972.91
460.0040, 10970.13
460.4861, 10959.03
460.9682, 10945.08
461.4503, 10933.35
461.9325, 10923.53
462.4146, 10921.33
462.8967, 10940.00
463.3788, 10966.32
463.8609, 10981.64
464.3430, 10963.08
464.8252, 10946.81
465.3073, 10954.36
465.7894, 10983.69
466.2715, 11002.94
466.7536, 10997.98
467.2357, 10984.41
467.7179, 10971.90
468.2000, 10947.57
468.6821, 10943.19
469.1642, 10981.40
469.6463, 11038.58
470.1284, 11049.04
470.6106, 10977.87
471.0927, 10915.81
471.5748, 10895.66
472.0569, 10921.10
472.5390, 10964.01
473.0211, 11034.50
473.5033, 11103.85
473.9854, 11133.21
474.4675, 11120.90
474.9496, 11101.66
475.4317, 11079.78
475.9138, 11059.48
476.3960, 11055.33
476.8781, 11067.24
477.3602, 11081.54
477.8423, 11091.62
478.3244, 11096.39
478.8065, 11088.13
479.2887, 11058.66
479.7708, 11038.63
480.2529, 11073.91
480.7350, 11142.57
481.2171, 11194.09
481.6992, 11187.94
482.1814, 11167.31
482.6635, 11159.55
483.1456, 11166.61
483.6277, 11179.68
484.1098, 11197.34
484.5919, 11217.90
485.0741, 11239.89
485.5562, 11273.29
486.0383, 11295.64
486.5204, 11295.73
487.0025, 11279.19
487.4846, 11274.40
487.9668, 11291.91
488.4489, 11309.43
488.9310, 11316.73
489.4131, 11308.54
489.8952, 11310.70
490.3773, 11331.04
490.8595, 11352.67
491.3416, 11344.46
491.8237, 11299.46
492.3058, 11273.28
492.7879, 11292.05
493.2701, 11340.01
493.7522, 11346.30
494.2343, 11309.30
494.7164, 11272.20
495.1985, 11279.20
495.6806, 11312.74
496.1628, 11323.05
496.6449, 11293.65
497.1270, 11258.43
497.6091, 11254.26
498.0912, 11272.82
498.5733, 11293.18
499.0555, 11313.80
499.5376, 11326.33
500.0197, 11319.80
500.5018, 11292.35
500.9839, 11271.12
501.4660, 11277.22
501.9482, 11289.73
502.4303, 11290.24
502.9124, 11250.67
503.3945, 11226.98
503.8766, 11233.49
504.3587, 11264.06
504.8409, 11293.77
505.3230, 11328.84
505.8051, 11354.99
506.2872, 11364.61
506.7693, 11353.77
507.2514, 11343.22
507.7336, 11329.26
508.2157, 11320.93
508.6978, 11334.98
509.1799, 11374.06
509.6620, 11401.99
510.1441, 11406.03
510.6263, 11394.60
511.1084, 11389.80
511.5905, 11391.41
512.0726, 11398.29
512.5547, 11410.70
513.0368, 11427.36
513.5189, 11446.99
514.0010, 11470.05
514.4832, 11492.97
514.9653, 11520.55
515.4474, 11545.08
515.9295, 11552.59
516.4116, 11522.58
516.8937, 11487.04
517.3759, 11456.44
517.8580, 11432.07
518.3401, 11429.24
518.8222, 11481.07
519.3043, 11537.08
519.7864, 11565.36
520.2686, 11546.67
520.7507, 11520.98
521.2328, 11476.70
521.7149, 11430.00
522.1970, 11415.04
522.6791, 11444.61
523.1613, 11478.69
523.6434, 11507.51
524.1255, 11530.69
524.6076, 11541.33
525.0897, 11536.27
525.5718, 11530.31
526.0540, 11537.67
526.5361, 11556.76
527.0182, 11578.14
527.5003, 11601.36
527.9824, 11622.98
528.4645, 11637.32
528.9467, 11645.24
529.4288, 11651.06
529.9109, 11657.60
530.3930, 11662.58
530.8751, 11663.94
531.3572, 11661.42
531.8394, 11655.75
532.3215, 11639.54
532.8036, 11624.12
533.2857, 11619.72
533.7678, 11629.78
534.2499, 11650.35
534.7321, 11697.84
535.2142, 11758.20
535.6963, 11782.20
536.1784, 11738.23
536.6605, 11695.03
537.1426, 11677.23
537.6248, 11689.27
538.1069, 11694.83
538.5890, 11690.45
539.0711, 11686.15
539.5532, 11694.67
540.0353, 11717.01
540.5175, 11733.29
540.9996, 11736.48
541.4817, 11735.48
541.9638, 11753.12
542.4459, 11786.87
542.9280, 11813.82
543.4102, 11815.61
543.8923, 11803.87
544.3744, 11791.88
544.8565, 11779.74
545.3386, 11778.25
545.8207, 11811.00
546.3029, 11852.51
546.7850, 11873.35
547.2671, 11837.25
547.7492, 11807.62
548.2313, 11811.95
548.7134, 11840.73
549.1956, 11861.22
549.6777, 11869.00
550.1598, 11867.07
550.6419, 11855.82
551.1240, 11834.22
551.6061, 11806.30
552.0883, 11762.86
552.5704, 11724.84
553.0525, 11717.04
553.5346, 11744.92
554.0167, 11768.93
554.4988, 11783.62
554.9810, 11789.35
555.4631, 11784.83
555.9452, 11770.38
556.4273, 11753.07
556.9094, 11730.19
557.3915, 11709.06
557.8737, 11705.57
558.3558, 11721.00
558.8379, 11740.07
559.3200, 11750.93
559.8021, 11758.67
560.2842, 11770.04
560.7664, 11797.53
561.2485, 11815.69
561.7306, 11808.05
562.2127, 11783.07
562.6948, 11763.59
563.1769, 11746.77
563.6591, 11743.26
564.1412, 11758.94
564.6233, 11796.40
565.1054, 11834.02
565.5875, 11881.27
566.0696, 11915.88
566.5518, 11915.04
567.0339, 11872.23
567.5160, 11826.68
567.9981, 11775.69
568.4802, 11734.00
568.9623, 11737.54
569.4445, 11782.76
569.9266, 11825.20
570.4087, 11850.48
570.8908, 11857.16
571.3729, 11833.33
571.8550, 11780.98
572.3372, 11734.82
572.8193, 11719.19
573.3014, 11723.35
573.7835, 11740.22
574.2656, 11785.14
574.7477, 11809.51
575.2299, 11771.40
575.7120, 11704.23
576.1941, 11668.06
576.6762, 11697.16
577.1583, 11730.07
577.6404, 11752.08
578.1226, 11763.83
578.6047, 11785.69
579.0868, 11828.62
579.5689, 11861.47
580.0510, 11855.83
580.5331, 11807.99
581.0153, 11781.71
581.4974, 11783.58
581.9795, 11798.23
582.4616, 11809.33
582.9437, 11816.02
583.4258, 11813.21
583.9080, 11790.96
584.3901, 11765.87
584.8722, 11760.18
585.3543, 11770.65
585.8364, 11782.34
586.3185, 11785.45
586.8007, 11787.47
587.2828, 11796.75
587.7649, 11818.41
588.2470, 11828.29
588.7291, 11809.33
589.2112, 11780.79
589.6934, 11762.91
590.1755, 11769.85
590.6576, 11765.96
591.1397, 11736.61
591.6218, 11697.15
592.1039, 11698.49
592.5861, 11751.96
593.0682, 11804.51
593.5503, 11835.76
594.0324, 11846.55
594.5145, 11839.47
594.9966, 11813.31
595.4788, 11781.19
595.9609, 11745.03
596.4430, 11712.96
596.9251, 11703.39
597.4072, 11724.36
597.8893, 11758.25
598.3715, 11806.61
598.8536, 11856.24
599.3357, 11881.54
599.8178, 11833.60
600.2999, 11798.43
600.7820, 11827.68
601.2642, 11918.48
601.7463, 11963.02
602.2284, 11919.04
602.7105, 11861.01
603.1926, 11823.69
603.6747, 11812.93
604.1569, 11803.04
604.6390, 11791.03
605.1211, 11784.43
605.6032, 11798.38
606.0853, 11832.10
606.5674, 11854.11
607.0496, 11849.84
607.5317, 11838.04
608.0138, 11858.16
