##NAMES=Kirschsteinite
##RRUFFID=R070266
##IDEAL CHEMISTRY=CaFe^2+^SiO_4_
##LOCALITY=Dolores mine, Pastrana, Mazarrón, Murcia, Spain
##OWNER=RRUFF
##SOURCE=Michael Scott
##DESCRIPTION=Aggregate of vitreous brown rhombic prismatic crystals with conchoidal fracture
##STATUS=The identification of this mineral has been confirmed by X-ray diffraction and chemical analysis
##URL=rruff.info/R070266
##MEASURED CHEMISTRY=(Ca_0.95_Mn_0.02_Mg_0.02_Na_0.01_)_Σ=1_(Fe^2+^_0.83_Mg_0.16_Fe^3+^_0.01_)_Σ=1_Si_1.00_O_4_; Fe^2+^ and Fe^3+^ by charge balance
139.3398, 1034.833
139.8219, 1007.304
140.3041, 1007.175
140.7862, 1051.385
141.2683, 1099.991
141.7504, 1134.851
142.2325, 1158.093
142.7146, 1181.431
143.1968, 1213.219
143.6789, 1253.945
144.1610, 1301.781
144.6431, 1359.267
145.1252, 1420.544
145.6073, 1482.486
146.0895, 1545.057
146.5716, 1610.174
147.0537, 1680.896
147.5358, 1756.896
148.0179, 1825.065
148.5000, 1884.799
148.9822, 1937.364
149.4643, 1983.461
149.9464, 2023.453
150.4285, 2057.886
150.9106, 2087.894
151.3927, 2112.409
151.8749, 2128.819
152.3570, 2132.323
152.8391, 2130.405
153.3212, 2128.161
153.8033, 2125.822
154.2854, 2126.472
154.7676, 2134.955
155.2497, 2149.169
155.7318, 2159.900
156.2139, 2162.760
156.6960, 2162.898
157.1781, 2165.830
157.6603, 2171.876
158.1424, 2180.150
158.6245, 2190.198
159.1066, 2201.984
159.5887, 2215.936
160.0708, 2240.091
160.5530, 2263.519
161.0351, 2269.607
161.5172, 2256.104
161.9993, 2232.131
162.4814, 2198.320
162.9635, 2158.904
163.4457, 2120.596
163.9278, 2089.213
164.4099, 2059.588
164.8920, 2020.868
165.3741, 1969.323
165.8562, 1919.432
166.3384, 1883.683
166.8205, 1855.398
167.3026, 1822.948
167.7847, 1775.341
168.2668, 1722.443
168.7489, 1687.618
169.2311, 1677.948
169.7132, 1670.318
170.1953, 1654.063
170.6774, 1631.465
171.1595, 1604.938
171.6416, 1572.063
172.1238, 1537.418
172.6059, 1512.634
173.0880, 1499.610
173.5701, 1493.464
174.0522, 1495.767
174.5343, 1501.868
175.0165, 1505.019
175.4986, 1501.510
175.9807, 1493.224
176.4628, 1485.342
176.9449, 1478.688
177.4270, 1470.794
177.9092, 1456.401
178.3913, 1441.341
178.8734, 1434.530
179.3555, 1442.510
179.8376, 1459.444
180.3197, 1467.817
180.8019, 1463.377
181.2840, 1457.370
181.7661, 1450.463
182.2482, 1445.166
182.7303, 1444.628
183.2124, 1450.426
183.6946, 1451.396
184.1767, 1468.076
184.6588, 1479.346
185.1409, 1485.496
185.6230, 1471.194
186.1051, 1483.302
186.5873, 1484.827
187.0694, 1485.916
187.5515, 1501.741
188.0336, 1490.414
188.5157, 1506.005
188.9978, 1510.851
189.4800, 1512.826
189.9621, 1520.452
190.4442, 1530.066
190.9263, 1541.015
191.4084, 1551.094
191.8905, 1553.989
192.3727, 1542.959
192.8548, 1536.824
193.3369, 1539.662
193.8190, 1547.553
194.3011, 1556.823
194.7832, 1566.018
195.2654, 1576.117
195.7475, 1590.430
196.2296, 1616.720
196.7117, 1632.069
197.1938, 1624.769
197.6759, 1612.002
198.1581, 1609.892
198.6402, 1623.667
199.1223, 1644.503
199.6044, 1654.971
200.0865, 1645.891
200.5686, 1644.965
201.0508, 1659.113
201.5329, 1677.965
202.0150, 1695.374
202.4971, 1709.163
202.9792, 1718.028
203.4613, 1718.732
203.9435, 1705.747
204.4256, 1697.004
204.9077, 1697.831
205.3898, 1699.399
205.8719, 1695.957
206.3540, 1686.289
206.8362, 1672.759
207.3183, 1657.091
207.8004, 1635.371
208.2825, 1622.350
208.7646, 1628.931
209.2467, 1634.820
209.7289, 1624.548
210.2110, 1598.575
210.6931, 1571.576
211.1752, 1562.109
211.6573, 1576.812
212.1395, 1584.910
212.6216, 1582.436
213.1037, 1577.267
213.5858, 1572.143
214.0679, 1567.701
214.5500, 1563.768
215.0322, 1559.974
215.5143, 1556.032
215.9964, 1554.313
216.4785, 1555.446
216.9606, 1558.167
217.4427, 1561.873
217.9249, 1566.770
218.4070, 1573.972
218.8891, 1585.479
219.3712, 1601.606
219.8533, 1610.438
220.3354, 1603.577
220.8176, 1597.206
221.2997, 1596.105
221.7818, 1598.856
222.2639, 1601.604
222.7460, 1601.274
223.2281, 1598.500
223.7103, 1600.183
224.1924, 1611.885
224.6745, 1622.254
225.1566, 1629.550
225.6387, 1633.949
226.1208, 1635.126
226.6030, 1632.302
227.0851, 1627.441
227.5672, 1629.055
228.0493, 1643.056
228.5314, 1655.985
229.0135, 1663.167
229.4957, 1668.936
229.9778, 1679.711
230.4599, 1698.646
230.9420, 1720.531
231.4241, 1731.489
231.9062, 1720.951
232.3884, 1717.609
232.8705, 1728.701
233.3526, 1745.431
233.8347, 1760.120
234.3168, 1770.236
234.7989, 1778.995
235.2811, 1792.752
235.7632, 1816.066
236.2453, 1833.420
236.7274, 1836.853
237.2095, 1839.387
237.6916, 1850.401
238.1738, 1871.344
238.6559, 1896.357
239.1380, 1918.809
239.6201, 1938.529
240.1022, 1956.347
240.5843, 1974.764
241.0665, 1989.257
241.5486, 1993.780
242.0307, 1990.477
242.5128, 1989.340
242.9949, 2001.620
243.4770, 2028.838
243.9592, 2051.507
244.4413, 2066.332
244.9234, 2079.529
245.4055, 2093.841
245.8876, 2108.514
246.3697, 2120.901
246.8519, 2127.955
247.3340, 2130.707
247.8161, 2138.578
248.2982, 2158.156
248.7803, 2173.986
249.2624, 2178.233
249.7446, 2176.021
250.2267, 2176.517
250.7088, 2186.564
251.1909, 2200.403
251.6730, 2200.315
252.1551, 2179.610
252.6373, 2158.154
253.1194, 2142.729
253.6015, 2129.859
254.0836, 2116.179
254.5657, 2100.654
255.0478, 2083.252
255.5300, 2063.212
256.0121, 2039.712
256.4942, 2016.891
256.9763, 1995.073
257.4584, 1974.952
257.9405, 1957.115
258.4226, 1941.747
258.9048, 1928.119
259.3869, 1917.411
259.8690, 1909.973
260.3511, 1896.075
260.8332, 1866.362
261.3153, 1836.059
261.7975, 1816.589
262.2796, 1807.959
262.7617, 1801.595
263.2438, 1791.839
263.7259, 1779.169
264.2080, 1766.093
264.6902, 1751.378
265.1723, 1738.748
265.6544, 1732.217
266.1365, 1730.057
266.6186, 1726.646
267.1007, 1716.001
267.5829, 1702.904
268.0650, 1698.420
268.5471, 1704.751
269.0292, 1713.319
269.5113, 1720.688
269.9934, 1726.077
270.4756, 1727.116
270.9577, 1718.132
271.4398, 1708.693
271.9219, 1710.965
272.4040, 1725.284
272.8861, 1740.745
273.3683, 1754.723
273.8504, 1764.830
274.3325, 1766.151
274.8146, 1751.620
275.2967, 1740.751
275.7788, 1749.473
276.2610, 1773.719
276.7431, 1797.281
277.2252, 1815.137
277.7073, 1828.800
278.1894, 1841.266
278.6715, 1853.219
279.1537, 1861.738
279.6358, 1857.882
280.1179, 1851.648
280.6000, 1862.583
281.0821, 1896.561
281.5642, 1938.350
282.0464, 1971.476
282.5285, 1995.413
283.0106, 2015.213
283.4927, 2026.524
283.9748, 2036.982
284.4569, 2053.813
284.9391, 2077.425
285.4212, 2103.973
285.9033, 2131.152
286.3854, 2158.705
286.8675, 2182.791
287.3496, 2199.538
287.8318, 2216.926
288.3139, 2240.990
288.7960, 2269.125
289.2781, 2294.814
289.7602, 2315.104
290.2423, 2329.216
290.7245, 2332.892
291.2066, 2318.468
291.6887, 2303.911
292.1708, 2288.741
292.6529, 2275.990
293.1350, 2272.898
293.6172, 2281.636
294.0993, 2291.385
294.5814, 2282.745
295.0635, 2245.738
295.5456, 2207.385
296.0277, 2163.611
296.5099, 2121.725
296.9920, 2088.835
297.4741, 2064.478
297.9562, 2041.635
298.4383, 2011.733
298.9204, 1972.117
299.4026, 1943.990
299.8847, 1937.781
300.3668, 1932.273
300.8489, 1923.484
301.3310, 1909.561
301.8131, 1887.010
302.2953, 1851.527
302.7774, 1807.691
303.2595, 1779.577
303.7416, 1777.486
304.2237, 1776.988
304.7058, 1772.283
305.1880, 1766.656
305.6701, 1764.244
306.1522, 1766.668
306.6343, 1770.926
307.1164, 1772.974
307.5985, 1773.617
308.0807, 1768.953
308.5628, 1751.521
309.0449, 1733.191
309.5270, 1722.117
310.0091, 1718.557
310.4912, 1715.580
310.9734, 1705.633
311.4555, 1689.692
311.9376, 1679.108
312.4197, 1677.159
312.9018, 1677.311
313.3839, 1676.674
313.8661, 1674.844
314.3482, 1670.498
314.8303, 1658.405
315.3124, 1645.455
315.7945, 1646.880
316.2766, 1665.695
316.7588, 1681.073
317.2409, 1678.516
317.7230, 1666.260
318.2051, 1658.132
318.6872, 1657.671
319.1693, 1658.186
319.6515, 1654.409
320.1336, 1647.260
320.6157, 1640.635
321.0978, 1635.596
321.5799, 1632.114
322.0620, 1630.914
322.5442, 1632.677
323.0263, 1632.406
323.5084, 1623.938
323.9905, 1614.654
324.4726, 1616.707
324.9547, 1632.063
325.4369, 1648.085
325.9190, 1653.271
326.4011, 1646.397
326.8832, 1634.785
327.3653, 1606.714
327.8474, 1584.682
328.3296, 1585.573
328.8117, 1603.819
329.2938, 1621.992
329.7759, 1630.095
330.2580, 1630.013
330.7401, 1630.005
331.2223, 1633.752
331.7044, 1632.959
332.1865, 1622.060
332.6686, 1608.336
333.1507, 1599.233
333.6328, 1597.114
334.1150, 1599.899
334.5971, 1604.997
335.0792, 1613.804
335.5613, 1621.074
336.0434, 1626.307
336.5255, 1630.644
337.0077, 1634.826
337.4898, 1638.646
337.9719, 1641.366
338.4540, 1642.449
338.9361, 1641.901
339.4182, 1639.438
339.9004, 1632.080
340.3825, 1627.377
340.8646, 1629.374
341.3467, 1634.281
341.8288, 1637.266
342.3109, 1636.387
342.7931, 1633.659
343.2752, 1631.240
343.7573, 1628.741
344.2394, 1629.410
344.7215, 1635.444
345.2036, 1644.028
345.6858, 1654.228
346.1679, 1665.809
346.6500, 1674.910
347.1321, 1676.739
347.6142, 1674.259
348.0963, 1676.216
348.5785, 1684.546
349.0606, 1693.934
349.5427, 1699.010
350.0248, 1701.654
350.5069, 1707.675
350.9890, 1721.985
351.4712, 1736.990
351.9533, 1746.575
352.4354, 1751.351
352.9175, 1754.187
353.3996, 1755.523
353.8817, 1756.791
354.3639, 1762.297
354.8460, 1773.739
355.3281, 1784.727
355.8102, 1791.961
356.2923, 1798.837
356.7744, 1809.964
357.2566, 1826.168
357.7387, 1843.726
358.2208, 1858.600
358.7029, 1870.490
359.1850, 1881.225
359.6671, 1887.931
360.1493, 1896.425
360.6314, 1906.442
361.1135, 1920.394
361.5956, 1944.358
362.0777, 1983.132
362.5598, 2030.841
363.0420, 2065.806
363.5241, 2079.167
364.0062, 2093.385
364.4883, 2112.453
364.9704, 2132.585
365.4525, 2149.446
365.9347, 2162.532
366.4168, 2176.816
366.8989, 2198.089
367.3810, 2226.883
367.8631, 2256.417
368.3452, 2283.999
368.8274, 2315.777
369.3095, 2359.947
369.7916, 2410.577
370.2737, 2452.649
370.7558, 2473.240
371.2379, 2486.172
371.7201, 2515.003
372.2022, 2560.846
372.6843, 2611.790
373.1664, 2667.537
373.6485, 2722.454
374.1306, 2765.878
374.6128, 2792.201
375.0949, 2825.980
375.5770, 2888.967
376.0591, 2966.604
376.5412, 3026.344
377.0233, 3059.667
377.5055, 3090.334
377.9876, 3146.202
378.4697, 3230.650
378.9518, 3294.967
379.4339, 3315.696
379.9160, 3336.548
380.3982, 3386.104
380.8803, 3457.554
381.3624, 3529.548
381.8445, 3591.306
382.3266, 3643.049
382.8087, 3686.252
383.2909, 3716.636
383.7730, 3742.642
384.2551, 3759.653
384.7372, 3775.503
385.2193, 3797.615
385.7014, 3826.490
386.1836, 3856.591
386.6657, 3882.414
387.1478, 3903.743
387.6299, 3923.415
388.1120, 3947.916
388.5941, 3962.498
389.0763, 3956.535
389.5584, 3939.303
390.0405, 3926.187
390.5226, 3925.081
391.0047, 3926.559
391.4868, 3916.169
391.9690, 3893.460
392.4511, 3862.604
392.9332, 3815.855
393.4153, 3769.443
393.8974, 3745.353
394.3795, 3743.097
394.8617, 3726.517
395.3438, 3665.702
395.8259, 3583.537
396.3080, 3520.167
396.7901, 3480.205
397.2722, 3439.633
397.7544, 3381.754
398.2365, 3308.968
398.7186, 3236.768
399.2007, 3163.533
399.6828, 3093.407
400.1649, 3027.270
400.6471, 2965.609
401.1292, 2909.980
401.6113, 2860.627
402.0934, 2813.971
402.5755, 2764.363
403.0576, 2711.810
403.5398, 2656.401
404.0219, 2593.348
404.5040, 2531.742
404.9861, 2474.247
405.4682, 2421.901
405.9503, 2376.999
406.4325, 2341.653
406.9146, 2313.192
407.3967, 2282.604
407.8788, 2248.164
408.3609, 2215.241
408.8430, 2186.705
409.3252, 2158.589
409.8073, 2125.665
410.2894, 2087.804
410.7715, 2053.443
411.2536, 2034.454
411.7357, 2026.620
412.2179, 2006.960
412.7000, 1969.135
413.1821, 1931.382
413.6642, 1908.415
414.1463, 1894.414
414.6284, 1879.015
415.1106, 1858.712
415.5927, 1838.308
416.0748, 1819.804
416.5569, 1803.849
417.0390, 1794.178
417.5211, 1793.482
418.0033, 1794.407
418.4854, 1785.640
418.9675, 1764.014
419.4496, 1742.803
419.9317, 1719.831
420.4138, 1699.673
420.8960, 1686.477
421.3781, 1678.979
421.8602, 1673.133
422.3423, 1666.624
422.8244, 1658.954
423.3065, 1647.665
423.7887, 1627.240
424.2708, 1611.928
424.7529, 1607.199
425.2350, 1604.967
425.7171, 1598.130
426.1992, 1585.993
426.6814, 1573.685
427.1635, 1565.875
427.6456, 1562.279
428.1277, 1561.152
428.6098, 1565.771
429.0919, 1566.465
429.5741, 1553.062
430.0562, 1534.018
430.5383, 1522.633
431.0204, 1524.744
431.5025, 1529.202
431.9846, 1527.327
432.4668, 1520.225
432.9489, 1511.289
433.4310, 1500.829
433.9131, 1490.725
434.3952, 1484.165
434.8773, 1481.859
435.3595, 1475.051
435.8416, 1455.643
436.3237, 1438.510
436.8058, 1435.469
437.2879, 1442.259
437.7701, 1446.536
438.2522, 1441.729
438.7343, 1432.284
439.2164, 1430.100
439.6985, 1443.984
440.1806, 1449.233
440.6628, 1439.281
441.1449, 1426.700
441.6270, 1419.156
442.1091, 1416.730
442.5912, 1415.425
443.0733, 1411.856
443.5555, 1407.247
444.0376, 1407.440
444.5197, 1415.331
445.0018, 1419.887
445.4839, 1413.670
445.9660, 1403.622
446.4482, 1396.844
446.9303, 1394.769
447.4124, 1391.606
447.8945, 1378.694
448.3766, 1363.187
448.8587, 1363.179
449.3409, 1382.147
449.8230, 1401.574
450.3051, 1407.951
450.7872, 1401.606
451.2693, 1390.823
451.7514, 1366.491
452.2336, 1348.614
452.7157, 1347.115
453.1978, 1354.847
453.6799, 1364.183
454.1620, 1372.220
454.6441, 1375.459
455.1263, 1367.657
455.6084, 1345.165
456.0905, 1332.377
456.5726, 1336.441
457.0547, 1343.524
457.5368, 1350.881
458.0190, 1358.254
458.5011, 1367.412
458.9832, 1380.370
459.4653, 1389.175
459.9474, 1377.398
460.4295, 1344.620
460.9117, 1323.547
461.3938, 1324.547
461.8759, 1333.556
462.3580, 1339.381
462.8401, 1342.400
463.3222, 1344.275
463.8044, 1345.751
464.2865, 1346.053
464.7686, 1343.831
465.2507, 1339.663
465.7328, 1336.158
466.2149, 1334.748
466.6971, 1333.488
467.1792, 1328.347
467.6613, 1315.467
468.1434, 1306.926
468.6255, 1302.085
469.1076, 1301.990
469.5898, 1310.614
470.0719, 1324.824
470.5540, 1337.340
471.0361, 1344.184
471.5182, 1344.755
472.0003, 1334.607
472.4825, 1306.004
472.9646, 1288.033
473.4467, 1296.612
473.9288, 1311.126
474.4109, 1319.650
474.8930, 1321.461
475.3752, 1320.793
475.8573, 1319.698
476.3394, 1317.815
476.8215, 1314.481
477.3036, 1309.682
477.7857, 1303.911
478.2679, 1297.879
478.7500, 1290.654
479.2321, 1277.875
479.7142, 1251.815
480.1963, 1239.764
480.6784, 1260.454
481.1606, 1288.279
481.6427, 1299.184
482.1248, 1292.757
482.6069, 1282.695
483.0890, 1278.961
483.5711, 1280.473
484.0533, 1280.973
484.5354, 1278.031
485.0175, 1278.235
485.4996, 1288.079
485.9817, 1297.171
486.4638, 1294.130
486.9460, 1279.456
487.4281, 1267.210
487.9102, 1270.075
488.3923, 1283.722
488.8744, 1296.233
489.3565, 1308.044
489.8387, 1315.299
490.3208, 1313.959
490.8029, 1307.679
491.2850, 1304.186
491.7671, 1303.765
492.2492, 1305.173
492.7314, 1311.226
493.2135, 1317.090
493.6956, 1315.230
494.1777, 1306.169
494.6598, 1299.074
495.1419, 1301.724
495.6241, 1311.805
496.1062, 1314.081
496.5883, 1298.892
497.0704, 1289.397
497.5525, 1292.409
498.0346, 1298.583
498.5168, 1299.298
498.9989, 1294.241
499.4810, 1290.331
499.9631, 1295.797
500.4452, 1306.882
500.9273, 1307.157
501.4095, 1293.091
501.8916, 1283.278
502.3737, 1287.969
502.8558, 1300.526
503.3379, 1311.078
503.8200, 1320.123
504.3022, 1324.114
504.7843, 1317.568
505.2664, 1307.616
505.7485, 1301.304
506.2306, 1299.609
506.7127, 1303.237
507.1949, 1313.626
507.6770, 1328.361
508.1591, 1336.682
508.6412, 1332.528
509.1233, 1330.675
509.6054, 1328.544
510.0876, 1331.405
510.5697, 1347.430
511.0518, 1373.582
511.5339, 1395.673
512.0160, 1400.614
512.4981, 1396.015
512.9802, 1405.277
513.4623, 1431.602
513.9445, 1451.406
514.4266, 1451.194
514.9087, 1445.026
515.3908, 1452.521
515.8729, 1474.887
516.3550, 1494.658
516.8372, 1504.069
517.3193, 1510.455
517.8014, 1520.039
518.2835, 1532.888
518.7656, 1548.907
519.2477, 1568.874
519.7299, 1587.931
520.2120, 1593.203
520.6941, 1570.071
521.1762, 1561.313
521.6583, 1575.954
522.1404, 1594.699
522.6226, 1610.195
523.1047, 1621.177
523.5868, 1627.035
524.0689, 1627.047
524.5510, 1622.857
525.0331, 1616.374
525.5153, 1607.612
525.9974, 1599.134
526.4795, 1592.496
526.9616, 1584.738
527.4437, 1570.683
527.9258, 1551.335
528.4080, 1536.714
528.8901, 1534.477
529.3722, 1531.132
529.8543, 1513.996
530.3364, 1490.849
530.8185, 1479.235
531.3007, 1484.754
531.7828, 1494.501
532.2649, 1489.594
532.7470, 1466.462
533.2291, 1450.738
533.7112, 1443.701
534.1934, 1443.199
534.6755, 1453.171
535.1576, 1467.386
535.6397, 1478.394
536.1218, 1484.294
536.6039, 1484.997
537.0861, 1476.751
537.5682, 1463.118
538.0503, 1457.453
538.5324, 1462.569
539.0145, 1465.577
539.4966, 1454.445
539.9788, 1433.898
540.4609, 1427.528
540.9430, 1444.704
541.4251, 1461.404
541.9072, 1477.842
542.3893, 1488.409
542.8715, 1483.856
543.3536, 1466.224
543.8357, 1448.847
544.3178, 1442.267
544.7999, 1444.563
545.2820, 1448.324
545.7642, 1455.677
546.2463, 1458.592
546.7284, 1450.268
547.2105, 1440.228
547.6926, 1437.511
548.1747, 1441.458
548.6569, 1441.259
549.1390, 1426.679
549.6211, 1409.526
550.1032, 1404.477
550.5853, 1409.016
551.0674, 1410.922
551.5496, 1404.958
552.0317, 1396.038
552.5138, 1392.185
552.9959, 1395.175
553.4780, 1397.292
553.9601, 1400.661
554.4423, 1401.058
554.9244, 1393.717
555.4065, 1383.235
555.8886, 1377.008
556.3707, 1377.796
556.8528, 1381.255
557.3350, 1381.484
557.8171, 1379.231
558.2992, 1381.594
558.7813, 1391.059
559.2634, 1399.226
559.7455, 1399.276
560.2277, 1393.889
560.7098, 1392.139
561.1919, 1396.602
561.6740, 1400.301
562.1561, 1402.410
562.6382, 1401.856
563.1204, 1394.378
563.6025, 1381.878
564.0846, 1374.679
564.5667, 1381.493
565.0488, 1397.264
565.5309, 1400.912
566.0131, 1385.740
566.4952, 1375.401
566.9773, 1379.907
567.4594, 1385.669
567.9415, 1382.716
568.4236, 1372.819
568.9058, 1365.895
569.3879, 1368.997
569.8700, 1374.277
570.3521, 1372.570
570.8342, 1366.168
571.3163, 1363.500
571.7985, 1367.438
572.2806, 1372.722
572.7627, 1372.766
573.2448, 1366.781
573.7269, 1363.017
574.2090, 1366.253
574.6912, 1365.845
575.1733, 1354.750
575.6554, 1340.928
576.1375, 1333.063
576.6196, 1333.077
577.1017, 1337.217
577.5839, 1345.529
578.0660, 1355.207
578.5481, 1355.020
579.0302, 1343.590
579.5123, 1333.327
579.9944, 1330.502
580.4766, 1331.593
580.9587, 1330.047
581.4408, 1325.696
581.9229, 1320.210
582.4050, 1311.423
582.8871, 1303.767
583.3693, 1299.206
583.8514, 1298.264
584.3335, 1303.542
584.8156, 1316.327
585.2977, 1328.518
585.7798, 1323.768
586.2620, 1299.635
586.7441, 1288.428
587.2262, 1298.430
587.7083, 1310.249
588.1904, 1314.487
588.6725, 1312.852
589.1547, 1306.314
589.6368, 1291.262
590.1189, 1281.237
590.6010, 1287.741
591.0831, 1300.231
591.5652, 1304.423
592.0474, 1300.163
592.5295, 1297.515
593.0116, 1304.144
593.4937, 1314.123
593.9758, 1306.885
594.4579, 1269.271
594.9401, 1245.850
595.4222, 1251.393
595.9043, 1262.157
596.3864, 1267.380
596.8685, 1268.478
597.3506, 1271.108
597.8328, 1279.308
598.3149, 1285.814
598.7970, 1284.257
599.2791, 1275.870
599.7612, 1260.015
600.2433, 1236.458
600.7255, 1221.166
601.2076, 1230.155
601.6897, 1259.300
602.1718, 1274.788
602.6539, 1262.529
603.1360, 1255.497
603.6182, 1260.294
604.1003, 1267.831
604.5824, 1273.205
605.0645, 1275.107
605.5466, 1271.861
606.0287, 1259.633
606.5109, 1245.649
606.9930, 1241.545
607.4751, 1246.249
607.9572, 1251.581
608.4393, 1255.872
608.9214, 1258.970
609.4036, 1260.289
609.8857, 1259.824
610.3678, 1261.114
610.8499, 1268.082
611.3320, 1271.681
611.8141, 1267.772
612.2963, 1260.782
612.7784, 1252.408
613.2605, 1244.725
613.7426, 1244.188
614.2247, 1259.482
614.7068, 1282.224
615.1890, 1291.732
615.6711, 1287.664
616.1532, 1276.566
616.6353, 1256.345
617.1174, 1236.874
617.5995, 1229.774
618.0817, 1235.349
618.5638, 1242.842
619.0459, 1254.848
619.5280, 1265.234
620.0101, 1271.601
620.4922, 1275.025
620.9744, 1276.750
621.4565, 1277.139
621.9386, 1276.101
622.4207, 1273.126
622.9028, 1268.843
623.3849, 1265.538
623.8671, 1263.104
624.3492, 1262.499
624.8313, 1265.211
625.3134, 1268.518
625.7955, 1267.250
626.2776, 1261.750
626.7598, 1262.876
627.2419, 1282.629
627.7240, 1297.981
628.2061, 1292.596
628.6882, 1277.295
629.1703, 1267.149
629.6525, 1266.077
630.1346, 1270.767
630.6167, 1280.280
631.0988, 1292.415
631.5809, 1292.573
632.0630, 1275.943
632.5452, 1253.420
