##NAMES=Kirschsteinite
##RRUFFID=R070266
##IDEAL CHEMISTRY=CaFe^2+^SiO_4_
##LOCALITY=Dolores mine, Pastrana, Mazarrón, Murcia, Spain
##OWNER=RRUFF
##SOURCE=Michael Scott
##DESCRIPTION=Aggregate of vitreous brown rhombic prismatic crystals with conchoidal fracture
##STATUS=The identification of this mineral has been confirmed by X-ray diffraction and chemical analysis
##URL=rruff.info/R070266
##MEASURED CHEMISTRY=(Ca_0.95_Mn_0.02_Mg_0.02_Na_0.01_)_Σ=1_(Fe^2+^_0.83_Mg_0.16_Fe^3+^_0.01_)_Σ=1_Si_1.00_O_4_; Fe^2+^ and Fe^3+^ by charge balance
128.9308, 461.0382
129.4129, 483.9753
129.8950, 506.3341
130.3772, 530.8110
130.8593, 558.8256
131.3414, 589.6946
131.8235, 620.6885
132.3056, 651.1321
132.7877, 683.3346
133.2699, 721.4898
133.7520, 766.0833
134.2341, 809.3014
134.7162, 844.7195
135.1983, 872.4496
135.6804, 911.9137
136.1626, 964.9001
136.6447, 1026.510
137.1268, 1089.419
137.6089, 1154.759
138.0910, 1215.724
138.5731, 1266.600
139.0553, 1306.199
139.5374, 1344.727
140.0195, 1384.286
140.5016, 1422.864
140.9837, 1450.885
141.4658, 1466.728
141.9480, 1475.000
142.4301, 1479.100
142.9122, 1481.354
143.3943, 1474.333
143.8764, 1455.163
144.3585, 1424.246
144.8407, 1392.326
145.3228, 1359.578
145.8049, 1325.900
146.2870, 1291.048
146.7691, 1250.373
147.2512, 1215.154
147.7334, 1188.150
148.2155, 1170.160
148.6976, 1155.748
149.1797, 1144.257
149.6618, 1136.538
150.1439, 1133.750
150.6261, 1138.683
151.1082, 1146.079
151.5903, 1155.346
152.0724, 1168.691
152.5545, 1178.787
153.0366, 1180.811
153.5188, 1179.335
154.0009, 1183.325
154.4830, 1203.606
154.9651, 1222.559
155.4472, 1232.223
155.9293, 1225.454
156.4115, 1218.405
156.8936, 1213.153
157.3757, 1209.807
157.8578, 1208.608
158.3399, 1216.921
158.8221, 1223.205
159.3042, 1219.997
159.7863, 1196.840
160.2684, 1172.417
160.7505, 1154.286
161.2326, 1141.206
161.7148, 1124.854
162.1969, 1101.414
162.6790, 1072.993
163.1611, 1041.970
163.6432, 1003.173
164.1253, 966.4009
164.6075, 938.9719
165.0896, 921.2229
165.5717, 901.9406
166.0538, 869.5250
166.5359, 832.5552
167.0180, 803.1910
167.5002, 793.9817
167.9823, 789.2990
168.4644, 775.8837
168.9465, 751.4020
169.4286, 727.6900
169.9107, 713.9269
170.3929, 707.4096
170.8750, 702.0911
171.3571, 695.8939
171.8392, 688.9799
172.3213, 681.2122
172.8034, 672.2955
173.2856, 663.7105
173.7677, 656.2041
174.2498, 649.9901
174.7319, 645.9081
175.2140, 645.3835
175.6961, 647.0729
176.1783, 649.1645
176.6604, 651.6935
177.1425, 653.8341
177.6246, 654.4570
178.1067, 653.6772
178.5888, 652.2726
179.0710, 649.8511
179.5531, 647.2296
180.0352, 646.4650
180.5173, 648.8004
180.9994, 652.4573
181.4815, 654.5317
181.9637, 655.0745
182.4458, 655.1213
182.9279, 656.0516
183.4100, 657.3649
183.8921, 656.9650
184.3742, 652.5641
184.8564, 646.8047
185.3385, 647.1602
185.8206, 654.0945
186.3027, 661.5433
186.7848, 661.5508
187.2669, 655.3826
187.7491, 652.7385
188.2312, 658.8678
188.7133, 671.1972
189.1954, 680.2341
189.6775, 685.5110
190.1596, 689.3112
190.6418, 694.9803
191.1239, 702.4055
191.6060, 708.1572
192.0881, 709.1731
192.5702, 706.3471
193.0524, 708.0046
193.5345, 714.8929
194.0166, 724.2833
194.4987, 731.9788
194.9808, 737.8626
195.4629, 743.8433
195.9451, 751.8627
196.4272, 761.9170
196.9093, 767.2574
197.3914, 766.4692
197.8735, 762.8596
198.3556, 763.1693
198.8378, 768.0947
199.3199, 772.4981
199.8020, 772.2880
200.2841, 766.8798
200.7662, 766.1566
201.2483, 772.1299
201.7305, 781.7728
202.2126, 787.5970
202.6947, 788.9885
203.1768, 788.8531
203.6589, 788.1091
204.1410, 786.2952
204.6232, 787.9745
205.1053, 795.9482
205.5874, 806.6328
206.0695, 806.7908
206.5516, 793.3049
207.0337, 777.4775
207.5159, 765.9303
207.9980, 758.6274
208.4801, 757.5941
208.9622, 766.4649
209.4443, 781.7457
209.9264, 784.8198
210.4086, 771.1731
210.8907, 754.3346
211.3728, 745.0861
211.8549, 745.4944
212.3370, 745.9977
212.8191, 744.3287
213.3013, 741.2280
213.7834, 744.0529
214.2655, 756.5355
214.7476, 768.9656
215.2297, 771.6259
215.7118, 759.8359
216.1940, 751.4421
216.6761, 750.4536
217.1582, 756.4747
217.6403, 760.7872
218.1224, 762.2014
218.6045, 763.4290
219.0867, 767.4988
219.5688, 776.1619
220.0509, 783.3746
220.5330, 787.1116
221.0151, 787.3046
221.4972, 789.6902
221.9794, 794.9111
222.4615, 801.6234
222.9436, 808.7703
223.4257, 817.2767
223.9078, 824.3141
224.3899, 828.6268
224.8721, 829.9445
225.3542, 832.6414
225.8363, 836.1345
226.3184, 841.5693
226.8005, 851.2820
227.2827, 869.1950
227.7648, 883.6280
228.2469, 890.2542
228.7290, 887.4338
229.2111, 889.6236
229.6932, 899.1256
230.1754, 911.7401
230.6575, 921.7327
231.1396, 926.1391
231.6217, 933.1457
232.1038, 945.9621
232.5859, 966.2955
233.0681, 982.8477
233.5502, 992.7296
234.0323, 1000.841
234.5144, 1015.103
234.9965, 1040.039
235.4786, 1063.360
235.9608, 1081.630
236.4429, 1094.214
236.9250, 1103.391
237.4071, 1106.747
237.8892, 1108.127
238.3713, 1113.274
238.8535, 1121.685
239.3356, 1134.847
239.8177, 1155.120
240.2998, 1186.581
240.7819, 1209.072
241.2640, 1218.733
241.7462, 1222.034
242.2283, 1230.320
242.7104, 1246.228
243.1925, 1262.759
243.6746, 1277.123
244.1567, 1287.643
244.6389, 1302.714
245.1210, 1326.544
245.6031, 1352.395
246.0852, 1366.995
246.5673, 1362.807
247.0494, 1360.290
247.5316, 1368.380
248.0137, 1393.162
248.4958, 1407.716
248.9779, 1409.229
249.4600, 1401.980
249.9421, 1393.534
250.4243, 1383.502
250.9064, 1372.911
251.3885, 1362.799
251.8706, 1354.855
252.3527, 1340.999
252.8348, 1318.595
253.3170, 1291.978
253.7991, 1269.668
254.2812, 1253.938
254.7633, 1238.630
255.2454, 1221.617
255.7275, 1203.005
256.2097, 1182.625
256.6918, 1159.701
257.1739, 1135.776
257.6560, 1113.615
258.1381, 1094.052
258.6202, 1074.377
259.1024, 1051.721
259.5845, 1023.168
260.0666, 1005.738
260.5487, 1004.604
261.0308, 1010.703
261.5129, 1006.624
261.9951, 988.7211
262.4772, 969.4130
262.9593, 953.7512
263.4414, 942.4955
263.9235, 929.9864
264.4056, 913.8140
264.8878, 898.5135
265.3699, 893.4227
265.8520, 902.8106
266.3341, 910.0702
266.8162, 907.4241
267.2983, 892.6641
267.7805, 882.6848
268.2626, 879.1128
268.7447, 878.6211
269.2268, 874.6578
269.7089, 865.4638
270.1910, 859.1468
270.6732, 859.9932
271.1553, 869.0154
271.6374, 874.8828
272.1195, 876.3833
272.6016, 876.5159
273.0837, 881.3094
273.5659, 892.3460
274.0480, 899.9878
274.5301, 897.3115
275.0122, 883.6040
275.4943, 882.6440
275.9764, 897.6317
276.4586, 919.3491
276.9407, 934.8814
277.4228, 943.7239
277.9049, 949.2157
278.3870, 950.1624
278.8691, 947.0365
279.3513, 951.7395
279.8334, 965.8562
280.3155, 983.7274
280.7976, 997.6994
281.2798, 1007.470
281.7619, 1017.629
282.2440, 1030.094
282.7261, 1044.540
283.2082, 1057.893
283.6903, 1069.543
284.1725, 1082.345
284.6546, 1102.125
285.1367, 1128.328
285.6188, 1150.573
286.1009, 1162.984
286.5830, 1168.231
287.0652, 1178.875
287.5473, 1195.719
288.0294, 1212.586
288.5115, 1221.728
288.9936, 1224.009
289.4757, 1226.432
289.9579, 1233.055
290.4400, 1241.110
290.9221, 1242.848
291.4042, 1238.053
291.8863, 1229.644
292.3684, 1219.647
292.8506, 1208.259
293.3327, 1196.406
293.8148, 1185.642
294.2969, 1173.802
294.7790, 1154.145
295.2611, 1126.572
295.7433, 1100.300
296.2254, 1086.135
296.7075, 1079.628
297.1896, 1068.739
297.6717, 1048.248
298.1538, 1022.816
298.6360, 997.5752
299.1181, 972.6268
299.6002, 951.8846
300.0823, 941.9487
300.5644, 937.7314
301.0465, 929.1313
301.5287, 911.1929
302.0108, 890.7271
302.4929, 874.8311
302.9750, 863.1084
303.4571, 854.1818
303.9392, 849.8924
304.4214, 846.9137
304.9035, 839.7612
305.3856, 823.7648
305.8677, 808.9891
306.3498, 805.8678
306.8319, 812.0153
307.3141, 819.0096
307.7962, 823.5938
308.2783, 825.7652
308.7604, 825.3617
309.2425, 821.8530
309.7246, 816.8434
310.2068, 810.4614
310.6889, 803.2465
311.1710, 796.5292
311.6531, 789.9484
312.1352, 784.7102
312.6173, 781.9804
313.0995, 782.4823
313.5816, 783.9921
314.0637, 787.0098
314.5458, 790.2291
315.0279, 791.2310
315.5100, 788.3641
315.9922, 783.5817
316.4743, 776.9194
316.9564, 767.1995
317.4385, 760.5331
317.9206, 759.9686
318.4027, 763.4297
318.8849, 768.0140
319.3670, 777.1030
319.8491, 783.5269
320.3312, 783.0850
320.8133, 773.8904
321.2954, 767.5949
321.7776, 767.9622
322.2597, 771.7003
322.7418, 775.3003
323.2239, 783.5192
323.7060, 786.3055
324.1881, 777.5760
324.6703, 755.6451
325.1524, 742.2457
325.6345, 746.6305
326.1166, 756.1533
326.5987, 760.6404
327.0808, 752.9615
327.5630, 748.6568
328.0451, 753.3213
328.5272, 766.0933
329.0093, 767.4866
329.4914, 746.7968
329.9735, 724.4396
330.4557, 714.3615
330.9378, 726.5214
331.4199, 733.3032
331.9020, 729.2610
332.3841, 717.6577
332.8662, 715.1446
333.3484, 726.5762
333.8305, 739.7731
334.3126, 748.5034
334.7947, 752.1608
335.2768, 752.6520
335.7589, 748.8057
336.2411, 742.5385
336.7232, 738.8129
337.2053, 738.4897
337.6874, 738.2736
338.1695, 735.8582
338.6516, 730.6348
339.1338, 729.3621
339.6159, 733.5686
340.0980, 739.5219
340.5801, 740.2965
341.0622, 735.3252
341.5443, 730.4143
342.0265, 727.2581
342.5086, 725.9597
342.9907, 727.3741
343.4728, 731.6030
343.9549, 738.1109
344.4370, 747.3989
344.9192, 759.0361
345.4013, 769.4136
345.8834, 777.4829
346.3655, 783.1947
346.8476, 785.3563
347.3297, 783.8785
347.8119, 781.3985
348.2940, 779.2482
348.7761, 777.9301
349.2582, 778.9741
349.7403, 783.1099
350.2225, 789.5081
350.7046, 798.3041
351.1867, 809.1265
351.6688, 818.4931
352.1509, 822.7709
352.6331, 824.3060
353.1152, 826.5692
353.5973, 830.3890
354.0794, 835.0090
354.5615, 839.6733
355.0436, 844.5653
355.5258, 850.2421
356.0079, 859.0837
356.4900, 867.6942
356.9721, 872.2115
357.4542, 870.4050
357.9363, 870.0641
358.4185, 876.3326
358.9006, 886.9409
359.3827, 897.9626
359.8648, 906.3654
360.3469, 915.9781
360.8290, 930.1022
361.3112, 950.0566
361.7933, 967.0759
362.2754, 976.1062
362.7575, 981.7601
363.2396, 989.0814
363.7217, 997.2156
364.2039, 1009.013
364.6860, 1027.097
365.1681, 1051.612
365.6502, 1073.454
366.1323, 1087.852
366.6144, 1101.680
367.0966, 1119.790
367.5787, 1149.241
368.0608, 1174.233
368.5429, 1192.164
369.0250, 1204.406
369.5071, 1217.127
369.9893, 1226.701
370.4714, 1240.840
370.9535, 1264.370
371.4356, 1303.208
371.9177, 1336.977
372.3998, 1362.497
372.8820, 1384.429
373.3641, 1413.750
373.8462, 1453.811
374.3283, 1492.307
374.8104, 1522.510
375.2925, 1543.523
375.7747, 1570.451
376.2568, 1604.914
376.7389, 1642.525
377.2210, 1676.232
377.7031, 1705.564
378.1852, 1737.972
378.6674, 1778.569
379.1495, 1823.972
379.6316, 1861.289
380.1137, 1889.872
380.5958, 1913.403
381.0779, 1929.596
381.5601, 1941.663
382.0422, 1965.091
382.5243, 2007.757
383.0064, 2058.407
383.4885, 2099.791
383.9706, 2132.782
384.4528, 2160.967
384.9349, 2183.892
385.4170, 2204.598
385.8991, 2230.419
386.3812, 2265.339
386.8633, 2296.769
387.3455, 2311.104
387.8276, 2312.919
388.3097, 2312.858
388.7918, 2314.326
389.2739, 2317.263
389.7560, 2323.510
390.2382, 2333.852
390.7203, 2339.563
391.2024, 2333.324
391.6845, 2320.775
392.1666, 2308.304
392.6487, 2303.348
393.1309, 2293.872
393.6130, 2273.369
394.0951, 2242.616
394.5772, 2211.919
395.0593, 2186.054
395.5414, 2159.669
396.0236, 2129.649
396.5057, 2091.018
396.9878, 2053.976
397.4699, 2021.218
397.9520, 1991.092
398.4341, 1958.748
398.9163, 1922.609
399.3984, 1885.938
399.8805, 1850.431
400.3626, 1818.063
400.8447, 1780.497
401.3268, 1733.956
401.8090, 1685.051
402.2911, 1642.900
402.7732, 1610.911
403.2553, 1577.582
403.7374, 1538.011
404.2195, 1492.984
404.7017, 1458.047
405.1838, 1435.424
405.6659, 1416.600
406.1480, 1394.310
406.6301, 1368.434
407.1122, 1341.396
407.5944, 1313.305
408.0765, 1284.518
408.5586, 1255.226
409.0407, 1225.364
409.5228, 1198.579
410.0049, 1178.721
410.4871, 1164.083
410.9692, 1149.662
411.4513, 1134.855
411.9334, 1120.527
412.4155, 1107.642
412.8976, 1095.795
413.3798, 1084.320
413.8619, 1071.012
414.3440, 1058.770
414.8261, 1053.010
415.3082, 1053.697
415.7903, 1050.152
416.2725, 1029.834
416.7546, 1003.480
417.2367, 982.8445
417.7188, 975.5627
418.2009, 970.9476
418.6830, 966.3281
419.1652, 961.0027
419.6473, 952.5718
420.1294, 933.8115
420.6115, 916.4029
421.0937, 907.5967
421.5758, 914.8645
422.0579, 917.0218
422.5400, 906.3863
423.0221, 890.0416
423.5042, 879.4335
423.9864, 880.6602
424.4685, 881.3121
424.9506, 878.3416
425.4327, 871.4462
425.9148, 865.1799
426.3969, 859.0481
426.8791, 854.1068
427.3612, 851.3921
427.8433, 851.2066
428.3254, 852.8352
428.8075, 858.1755
429.2896, 864.4818
429.7718, 860.3058
430.2539, 843.4103
430.7360, 827.8795
431.2181, 823.2840
431.7002, 828.8434
432.1823, 833.3608
432.6645, 836.3206
433.1466, 838.1213
433.6287, 839.1053
434.1108, 839.3293
434.5929, 839.0696
435.0750, 839.0663
435.5572, 838.3714
436.0393, 833.9902
436.5214, 826.1599
437.0035, 819.8875
437.4856, 821.4187
437.9677, 826.3057
438.4499, 828.1490
438.9320, 823.9250
439.4141, 818.6695
439.8962, 815.6162
440.3783, 814.3058
440.8604, 813.4642
441.3426, 812.7717
441.8247, 812.2241
442.3068, 811.7830
442.7889, 811.4007
443.2710, 811.3372
443.7531, 814.1527
444.2353, 816.3480
444.7174, 814.0989
445.1995, 798.1916
445.6816, 787.3419
446.1637, 788.0560
446.6458, 798.7881
447.1280, 802.7514
447.6101, 795.2260
448.0922, 786.1128
448.5743, 781.1436
449.0564, 782.5764
449.5385, 782.1097
450.0207, 779.5873
450.5028, 775.0406
450.9849, 767.5107
451.4670, 756.0793
451.9491, 746.6815
452.4312, 741.9805
452.9134, 741.4933
453.3955, 741.3613
453.8776, 741.5759
454.3597, 742.1906
454.8418, 744.2914
455.3239, 747.1249
455.8061, 747.0855
456.2882, 742.1042
456.7703, 735.8589
457.2524, 733.7237
457.7345, 734.9848
458.2166, 736.7073
458.6988, 737.4511
459.1809, 737.5879
459.6630, 737.8284
460.1451, 738.4514
460.6272, 737.6365
461.1093, 732.8174
461.5915, 726.3333
462.0736, 721.1863
462.5557, 718.8561
463.0378, 717.5433
463.5199, 717.0089
464.0020, 717.1245
464.4842, 717.0451
464.9663, 717.8356
465.4484, 717.4638
465.9305, 714.3671
466.4126, 702.8427
466.8947, 698.8335
467.3769, 708.5641
467.8590, 723.0797
468.3411, 727.2698
468.8232, 716.0921
469.3053, 704.3763
469.7874, 695.4132
470.2696, 689.1744
470.7517, 685.1915
471.2338, 683.5344
471.7159, 683.9153
472.1980, 688.1001
472.6801, 695.8847
473.1623, 697.2884
473.6444, 689.0408
474.1265, 677.5305
474.6086, 673.3393
475.0907, 675.8292
475.5728, 680.8687
476.0550, 689.5491
476.5371, 698.2701
477.0192, 699.7810
477.5013, 693.7726
477.9834, 687.4458
478.4655, 687.2391
478.9477, 689.7714
479.4298, 690.5257
479.9119, 686.3939
480.3940, 682.4154
480.8761, 681.1277
481.3582, 682.0592
481.8404, 683.8987
482.3225, 688.7802
482.8046, 692.3599
483.2867, 692.1675
483.7688, 686.6029
484.2509, 682.1078
484.7331, 678.6904
485.2152, 676.8849
485.6973, 677.4334
486.1794, 682.8257
486.6615, 686.2667
487.1436, 686.3436
487.6258, 683.7399
488.1079, 681.2476
488.5900, 678.2553
489.0721, 677.1348
489.5542, 680.8081
490.0363, 689.3738
490.5185, 692.1794
491.0006, 687.7845
491.4827, 681.4501
491.9648, 680.3944
492.4470, 683.7075
492.9291, 686.3774
493.4112, 685.7430
493.8933, 684.3257
494.3754, 686.8029
494.8575, 692.5491
495.3397, 697.4803
495.8218, 697.7800
496.3039, 696.4635
496.7860, 696.9683
497.2681, 700.2510
497.7502, 703.6115
498.2324, 704.8512
498.7145, 705.5289
499.1966, 707.7897
499.6787, 713.0811
500.1608, 719.2130
500.6429, 726.1787
501.1251, 733.8239
501.6072, 740.1076
502.0893, 746.9016
502.5714, 750.6116
503.0535, 748.5540
503.5356, 735.1282
504.0178, 729.7873
504.4999, 735.6665
504.9820, 746.8547
505.4641, 754.5071
505.9462, 757.9449
506.4283, 761.2480
506.9105, 765.4612
507.3926, 770.4238
507.8747, 774.9544
508.3568, 778.9608
508.8389, 784.7121
509.3210, 797.3859
509.8032, 813.1918
510.2853, 820.8515
510.7674, 817.7532
511.2495, 811.6697
511.7316, 808.8868
512.2137, 809.0919
512.6959, 811.6491
513.1780, 818.4977
513.6601, 825.7684
514.1422, 829.8766
514.6243, 831.5332
515.1064, 835.7034
515.5886, 847.3571
516.0707, 860.0395
516.5528, 869.9756
517.0349, 877.2038
517.5170, 880.7924
517.9991, 875.6220
518.4813, 868.6855
518.9634, 869.7327
519.4455, 887.6632
519.9276, 897.8641
520.4097, 892.0088
520.8918, 873.5231
521.3740, 864.7888
521.8561, 867.5354
522.3382, 874.3075
522.8203, 882.5759
523.3024, 891.8885
523.7845, 894.7994
524.2667, 890.0173
524.7488, 882.1379
525.2309, 876.5561
525.7130, 872.4993
526.1951, 867.3600
526.6772, 859.4684
527.1594, 850.6960
527.6415, 842.8354
528.1236, 835.9572
528.6057, 830.1952
529.0878, 827.3644
529.5699, 824.6071
530.0521, 818.8917
530.5342, 808.4172
531.0163, 801.2319
531.4984, 802.2846
531.9805, 806.8427
532.4626, 809.8654
532.9448, 810.2905
533.4269, 809.5844
533.9090, 807.4800
534.3911, 804.3164
534.8732, 800.9573
535.3553, 795.2414
535.8375, 793.4741
536.3196, 800.7201
536.8017, 817.9083
537.2838, 825.1674
537.7659, 820.5931
538.2480, 812.5744
538.7302, 810.4778
539.2123, 813.3470
539.6944, 814.2645
540.1765, 810.5352
540.6586, 806.4038
541.1407, 808.8615
541.6229, 816.2929
542.1050, 822.9063
542.5871, 824.5858
543.0692, 824.7214
543.5513, 825.9998
544.0334, 828.5654
544.5156, 832.1305
544.9977, 839.2141
545.4798, 845.7166
545.9619, 848.1525
546.4440, 842.3713
546.9261, 837.7192
547.4083, 834.8811
547.8904, 834.1013
548.3725, 836.0377
548.8546, 842.9692
549.3367, 848.8673
549.8188, 851.9803
550.3010, 852.5766
550.7831, 854.2150
551.2652, 857.6127
551.7473, 859.6558
552.2294, 856.8137
552.7115, 849.7784
553.1937, 846.1112
553.6758, 846.9792
554.1579, 848.8541
554.6400, 847.0350
555.1221, 842.6304
555.6042, 838.6539
556.0864, 833.8806
556.5685, 832.2769
557.0506, 840.9492
557.5327, 856.9668
558.0148, 869.2903
558.4969, 870.4390
558.9791, 867.8215
559.4612, 864.8340
559.9433, 861.1089
560.4254, 860.9471
560.9075, 869.6657
561.3896, 879.7280
561.8718, 884.3131
562.3539, 877.4614
562.8360, 875.8867
563.3181, 884.9925
563.8002, 898.1296
564.2823, 896.1704
564.7645, 874.2534
565.2466, 859.5927
565.7287, 867.6924
566.2108, 892.2609
566.6929, 900.0196
567.1750, 890.2423
567.6572, 878.6959
568.1393, 881.2112
568.6214, 891.1008
569.1035, 894.2604
569.5856, 887.2720
570.0677, 878.5460
570.5499, 874.9235
571.0320, 874.1472
571.5141, 872.6118
571.9962, 868.5473
572.4783, 863.9228
572.9604, 857.8057
573.4426, 851.1943
573.9247, 848.9686
574.4068, 857.7020
574.8889, 865.6984
575.3710, 867.9249
575.8531, 862.8184
576.3353, 860.5516
576.8174, 863.4426
577.2995, 865.7663
577.7816, 860.0779
578.2637, 845.0995
578.7458, 837.0919
579.2280, 840.3918
579.7101, 848.0129
580.1922, 846.0983
580.6743, 836.4832
581.1564, 829.5319
581.6385, 834.0699
582.1207, 841.8254
582.6028, 840.9256
583.0849, 832.3869
583.5670, 824.1308
584.0491, 822.8013
584.5313, 822.3649
585.0134, 816.8733
585.4955, 802.2888
585.9776, 793.0617
586.4597, 797.5319
586.9418, 807.3629
587.4240, 813.1618
587.9061, 814.0569
588.3882, 811.6085
588.8703, 803.5557
589.3524, 792.9215
589.8345, 789.2899
590.3167, 794.2817
590.7988, 800.1208
591.2809, 803.7447
591.7630, 805.4358
592.2451, 806.7986
592.7272, 807.9016
593.2094, 807.0002
593.6915, 799.4232
594.1736, 789.4608
594.6557, 785.7432
595.1378, 790.5226
595.6199, 798.1899
596.1021, 808.4487
596.5842, 817.9299
597.0663, 821.8410
597.5485, 813.5253
598.0306, 804.6717
598.5127, 797.5892
598.9948, 792.6694
599.4769, 791.3159
599.9590, 795.2609
600.4412, 800.6517
600.9233, 806.7538
601.4054, 813.7590
601.8875, 819.0636
602.3696, 822.7684
602.8517, 824.4113
603.3339, 822.0287
603.8160, 816.1260
604.2981, 814.5657
604.7802, 819.2523
605.2623, 824.8179
605.7444, 822.7560
606.2266, 815.8635
606.7087, 811.7264
607.1908, 813.9514
607.6729, 819.0542
608.1550, 827.3098
608.6371, 836.6870
609.1193, 840.8708
609.6014, 831.1417
610.0835, 820.8654
610.5656, 817.4525
611.0477, 822.6304
611.5298, 824.3423
612.0120, 818.5703
612.4941, 812.8299
612.9762, 812.5570
613.4583, 819.6968
613.9404, 825.2191
614.4225, 828.5005
614.9047, 830.5164
615.3868, 831.8911
615.8689, 832.8281
616.3510, 836.3560
616.8331, 845.3896
617.3152, 854.7955
617.7974, 855.1473
618.2795, 848.5173
618.7616, 843.0143
619.2437, 842.9001
619.7258, 845.7625
620.2079, 850.3943
620.6901, 856.6771
621.1722, 863.2460
621.6543, 872.3198
622.1364, 879.6584
