##NAMES=Klebelsbergite
##RRUFFID=R060157
##IDEAL CHEMISTRY=Sb^3+^_4_O_4_(S^6+^O_4_)(OH)_2_
##LOCALITY=Pereta mine, near Grosseto, Tuscany, Italy
##OWNER=RRUFF
##SOURCE=Marcus Origlieri
##DESCRIPTION=Yellow-orange tufted aggregates of bladed crystals on stibnite
##STATUS=The identification of this mineral has been confirmed by single-crystal X-ray diffraction.
##URL=rruff.info/R060157
92.02539, 307.6444
92.50751, 314.1936
92.98962, 319.5196
93.47174, 317.3960
93.95386, 312.4566
94.43597, 306.6589
94.91809, 301.2213
95.40021, 296.2160
95.88232, 290.6701
96.36444, 283.9591
96.84656, 277.6183
97.32867, 272.0120
97.81078, 267.1855
98.29290, 263.2277
98.77502, 260.1874
99.25713, 257.8721
99.73925, 254.6390
100.2214, 250.1522
100.7035, 245.3989
101.1856, 240.4787
101.6677, 235.5283
102.1498, 230.9658
102.6320, 227.3153
103.1141, 224.8239
103.5962, 222.7716
104.0783, 221.1967
104.5604, 219.9899
105.0425, 219.1605
105.5247, 218.7734
106.0068, 218.4696
106.4889, 217.4809
106.9710, 215.6929
107.4531, 214.0157
107.9352, 212.8646
108.4173, 212.1706
108.8995, 211.5387
109.3816, 210.5911
109.8637, 209.8560
110.3458, 209.9146
110.8279, 210.9310
111.3100, 212.3452
111.7922, 213.5921
112.2743, 214.7288
112.7564, 215.4631
113.2385, 215.4892
113.7206, 215.2239
114.2027, 215.0547
114.6849, 215.1835
115.1670, 215.4347
115.6491, 215.2124
116.1312, 214.6449
116.6133, 213.3114
117.0954, 210.8990
117.5776, 207.7295
118.0597, 204.1725
118.5418, 200.3996
119.0239, 196.3884
119.5060, 193.3026
119.9881, 191.4956
120.4703, 190.0539
120.9524, 188.5821
121.4345, 187.1078
121.9166, 185.9543
122.3987, 185.5590
122.8808, 186.0854
123.3630, 185.8946
123.8451, 184.4446
124.3272, 182.5518
124.8093, 180.9389
125.2914, 179.6987
125.7735, 178.8084
126.2557, 178.5715
126.7378, 178.8303
127.2199, 178.7377
127.7020, 177.7794
128.1841, 176.1882
128.6662, 174.7449
129.1483, 173.7294
129.6305, 172.6754
130.1126, 171.3251
130.5947, 169.6651
131.0768, 167.6663
131.5589, 165.1187
132.0410, 161.9114
132.5232, 159.0767
133.0053, 156.8997
133.4874, 155.0212
133.9695, 153.3292
134.4516, 151.7841
134.9337, 150.3762
135.4159, 149.0777
135.8980, 147.8666
136.3801, 146.8243
136.8622, 145.9872
137.3443, 145.2673
137.8264, 144.5806
138.3086, 143.8954
138.7907, 143.2582
139.2728, 142.8159
139.7549, 142.9274
140.2370, 142.8222
140.7191, 142.3090
141.2013, 141.5650
141.6834, 140.7999
142.1655, 140.0893
142.6476, 139.5011
143.1297, 139.3476
143.6118, 139.9309
144.0939, 140.5318
144.5761, 140.8059
145.0582, 140.8232
145.5403, 140.9134
146.0224, 141.3095
146.5045, 141.9192
146.9866, 142.4129
147.4688, 142.5351
147.9509, 142.7376
148.4330, 143.4762
148.9151, 144.8003
149.3972, 146.3622
149.8793, 148.3669
150.3615, 150.4172
150.8436, 151.9538
151.3257, 152.5842
151.8078, 152.6669
152.2899, 152.9789
152.7720, 153.5344
153.2542, 154.3387
153.7363, 155.4123
154.2184, 156.6792
154.7005, 158.0486
155.1826, 159.4842
155.6647, 160.9757
156.1469, 162.3853
156.6290, 163.3739
157.1111, 164.6250
157.5932, 166.4766
158.0753, 168.7493
158.5574, 171.0676
159.0396, 173.1582
159.5217, 175.0436
160.0038, 176.4429
160.4859, 177.0232
160.9680, 177.4941
161.4501, 178.1160
161.9323, 178.9060
162.4144, 179.7599
162.8965, 180.5749
163.3786, 181.3605
163.8607, 182.0545
164.3428, 182.6948
164.8250, 183.2289
165.3071, 183.5105
165.7892, 183.5408
166.2713, 183.6254
166.7534, 184.2088
167.2355, 185.3911
167.7177, 186.3175
168.1998, 186.8854
168.6819, 187.1581
169.1640, 187.2605
169.6461, 187.2601
170.1282, 186.9305
170.6104, 185.8811
171.0925, 184.2107
171.5746, 182.3279
172.0567, 180.3558
172.5388, 178.2926
173.0209, 176.1122
173.5031, 173.7314
173.9852, 171.3427
174.4673, 169.0066
174.9494, 166.7414
175.4315, 164.6905
175.9136, 162.9739
176.3958, 161.5833
176.8779, 160.4082
177.3600, 159.5454
177.8421, 158.8248
178.3242, 158.2034
178.8063, 157.6571
179.2885, 157.1104
179.7706, 156.4678
180.2527, 155.6963
180.7348, 154.9681
181.2169, 154.1781
181.6990, 153.5162
182.1812, 153.1267
182.6633, 153.0145
183.1454, 153.0567
183.6275, 153.0858
184.1096, 153.0838
184.5917, 153.1091
185.0738, 153.2391
185.5560, 153.3422
186.0381, 153.2816
186.5202, 153.0399
187.0023, 152.7497
187.4844, 152.6255
187.9665, 152.5945
188.4487, 152.9089
188.9308, 153.8963
189.4129, 155.0487
189.8950, 155.8492
190.3771, 156.1281
190.8592, 156.1708
191.3414, 156.5337
191.8235, 157.3946
192.3056, 158.2398
192.7877, 158.8651
193.2698, 159.4841
193.7519, 160.4362
194.2341, 161.8791
194.7162, 163.5661
195.1983, 164.9939
195.6804, 166.1246
196.1625, 167.2346
196.6446, 168.4477
197.1268, 169.7036
197.6089, 170.8143
198.0910, 171.6023
198.5731, 172.4102
199.0552, 173.8053
199.5373, 175.8643
200.0195, 177.9929
200.5016, 179.9678
200.9837, 181.7840
201.4658, 183.3966
201.9479, 184.8116
202.4300, 185.9716
202.9122, 186.9339
203.3943, 187.7250
203.8764, 188.0993
204.3585, 187.7913
204.8406, 186.8047
205.3227, 185.5798
205.8048, 184.0498
206.2870, 182.4308
206.7691, 180.9117
207.2512, 179.5137
207.7333, 178.0722
208.2154, 176.3670
208.6975, 174.3308
209.1797, 172.4322
209.6618, 170.8574
210.1439, 169.3701
210.6260, 167.7589
211.1081, 166.0207
211.5902, 164.4501
212.0724, 163.5064
212.5545, 163.4540
213.0366, 163.2483
213.5187, 162.5131
214.0008, 161.8256
214.4829, 161.5577
214.9651, 161.7733
215.4472, 162.2573
215.9293, 162.6637
216.4114, 162.7365
216.8935, 163.3093
217.3756, 164.7248
217.8578, 166.3073
218.3399, 167.6415
218.8220, 168.6151
219.3041, 169.3550
219.7862, 170.0368
220.2683, 170.6301
220.7505, 171.2169
221.2326, 171.9477
221.7147, 172.5855
222.1968, 173.0111
222.6789, 173.1760
223.1610, 173.0059
223.6432, 172.3699
224.1253, 170.9982
224.6074, 169.6502
225.0895, 168.3893
225.5716, 167.1150
226.0537, 165.7403
226.5358, 164.2420
227.0180, 162.6589
227.5001, 160.9947
227.9822, 159.1258
228.4643, 157.6414
228.9464, 156.7426
229.4285, 156.1717
229.9107, 155.7582
230.3928, 155.4738
230.8749, 155.1334
231.3570, 154.3345
231.8391, 152.9685
232.3212, 152.2768
232.8034, 153.1385
233.2855, 154.5212
233.7676, 155.0139
234.2497, 154.2716
234.7318, 153.2024
235.2139, 152.9022
235.6961, 153.2633
236.1782, 153.4270
236.6603, 153.0216
237.1424, 152.3375
237.6245, 151.8886
238.1066, 151.8355
238.5888, 151.6716
239.0709, 150.8372
239.5530, 149.4936
240.0351, 148.0219
240.5172, 146.4561
240.9993, 144.8598
241.4815, 143.3074
241.9636, 141.7074
242.4457, 140.3967
242.9278, 140.0195
243.4099, 140.1175
243.8920, 139.6947
244.3742, 138.1275
244.8563, 135.7889
245.3384, 133.4386
245.8205, 130.9435
246.3026, 128.7661
246.7847, 127.3278
247.2668, 126.3298
247.7490, 125.3053
248.2311, 123.9772
248.7132, 122.5230
249.1953, 121.3821
249.6774, 120.7032
250.1595, 120.0533
250.6417, 119.2614
251.1238, 118.3857
251.6059, 117.4919
252.0880, 116.5974
252.5701, 115.7183
253.0522, 114.8599
253.5344, 113.9419
254.0165, 113.2305
254.4986, 112.9058
254.9807, 112.7550
255.4628, 112.5585
255.9449, 112.2266
256.4271, 111.7862
256.9092, 111.2809
257.3913, 110.6548
257.8734, 110.0750
258.3555, 109.5570
258.8376, 109.1000
259.3198, 108.6694
259.8019, 108.2518
260.2840, 107.9308
260.7661, 107.9334
261.2482, 108.5763
261.7303, 108.9286
262.2125, 108.6741
262.6946, 108.2572
263.1767, 108.0603
263.6588, 108.1991
264.1409, 108.4995
264.6230, 108.6906
265.1052, 108.8922
265.5873, 108.7020
266.0694, 107.7436
266.5515, 106.6931
267.0336, 106.0333
267.5157, 105.8774
267.9979, 106.0321
268.4800, 106.2444
268.9621, 106.6074
269.4442, 106.8123
269.9263, 106.7850
270.4084, 106.6885
270.8906, 106.6563
271.3727, 106.6902
271.8548, 106.6628
272.3369, 106.3865
272.8190, 105.7038
273.3011, 105.3177
273.7833, 105.3768
274.2654, 105.5460
274.7475, 105.6958
275.2296, 105.7876
275.7117, 105.7890
276.1938, 105.6425
276.6760, 105.2888
277.1581, 105.1698
277.6402, 105.5182
278.1223, 105.8306
278.6044, 105.8320
279.0865, 105.5736
279.5686, 105.2642
280.0508, 105.0431
280.5329, 104.9046
281.0150, 105.1212
281.4971, 106.0479
281.9792, 106.8941
282.4613, 107.3034
282.9435, 107.3913
283.4256, 107.4916
283.9077, 107.8392
284.3898, 108.3787
284.8719, 108.5860
285.3540, 108.0172
285.8362, 107.6659
286.3183, 108.0055
286.8004, 108.7219
287.2825, 109.2193
287.7646, 109.1733
288.2467, 108.7555
288.7289, 108.5670
289.2110, 108.6114
289.6931, 108.8550
290.1752, 109.4847
290.6573, 110.2640
291.1394, 110.8220
291.6216, 111.0059
292.1037, 111.0135
292.5858, 111.2626
293.0679, 111.9054
293.5500, 112.4948
294.0321, 112.8614
294.5143, 113.2087
294.9964, 113.8346
295.4785, 114.8199
295.9606, 115.8607
296.4427, 116.5031
296.9248, 116.5473
297.4070, 116.7892
297.8891, 117.4678
298.3712, 118.2281
298.8533, 118.7255
299.3354, 118.9168
299.8175, 119.0532
300.2997, 119.4429
300.7818, 120.1627
301.2639, 120.4043
301.7460, 119.8673
302.2281, 119.0988
302.7102, 118.3507
303.1924, 117.6800
303.6745, 117.2116
304.1566, 117.1227
304.6387, 117.3680
305.1208, 117.1698
305.6029, 116.1537
306.0851, 115.1020
306.5672, 114.5366
307.0493, 114.2920
307.5314, 113.7522
308.0135, 112.4794
308.4956, 110.7186
308.9778, 109.5758
309.4599, 109.3613
309.9420, 109.2464
310.4241, 109.0109
310.9062, 108.6889
311.3883, 108.3495
311.8705, 108.0246
312.3526, 107.6899
312.8347, 107.2827
313.3168, 106.7571
313.7989, 106.2759
314.2810, 105.8302
314.7632, 105.4615
315.2453, 105.2296
315.7274, 105.1533
316.2095, 105.1930
316.6916, 105.3310
317.1737, 105.6201
317.6559, 105.7624
318.1380, 105.6633
318.6201, 105.4495
319.1022, 105.1780
319.5843, 104.8700
320.0664, 104.6680
320.5485, 104.7711
321.0306, 105.2085
321.5128, 105.2817
321.9949, 104.6171
322.4770, 103.9146
322.9591, 103.6800
323.4412, 103.8500
323.9233, 103.9936
324.4055, 103.8042
324.8876, 103.3452
325.3697, 103.0940
325.8518, 103.2025
326.3339, 103.3175
326.8160, 103.3383
327.2982, 103.2685
327.7803, 103.0869
328.2624, 102.7545
328.7445, 102.3767
329.2266, 102.2688
329.7087, 102.6862
330.1909, 102.8791
330.6730, 102.5590
331.1551, 101.9906
331.6372, 101.4767
332.1193, 101.1034
332.6014, 100.8812
333.0836, 100.8674
333.5657, 101.2157
334.0478, 101.2879
334.5299, 100.7570
335.0120, 100.1428
335.4941, 99.96442
335.9763, 100.2401
336.4584, 100.4852
336.9405, 100.2021
337.4226, 99.32146
337.9047, 98.80106
338.3868, 98.87607
338.8690, 99.03929
339.3511, 99.08216
339.8332, 98.99735
340.3153, 98.82118
340.7974, 98.57167
341.2795, 98.25481
341.7617, 97.90579
342.2438, 97.29482
342.7259, 96.92394
343.2080, 97.14735
343.6901, 97.62352
344.1722, 97.81320
344.6544, 97.48914
345.1365, 96.88113
345.6186, 96.46022
346.1007, 96.29096
346.5828, 96.24377
347.0649, 96.47922
347.5471, 96.74394
348.0292, 96.77908
348.5113, 96.55279
348.9934, 96.26060
349.4755, 96.14316
349.9576, 96.25844
350.4398, 96.31187
350.9219, 96.28540
351.4040, 96.22396
351.8861, 96.12996
352.3682, 96.01804
352.8503, 95.91792
353.3325, 95.85251
353.8146, 95.82008
354.2967, 95.79707
354.7788, 95.77111
355.2609, 95.76756
355.7430, 95.83089
356.2252, 95.90955
356.7073, 95.94793
357.1894, 95.92036
357.6715, 95.80914
358.1536, 95.55151
358.6357, 94.88592
359.1179, 94.48569
359.5999, 94.51273
360.0821, 94.70368
360.5642, 94.87863
361.0463, 94.98705
361.5284, 95.04440
362.0105, 95.05446
362.4926, 94.97813
362.9748, 95.01210
363.4569, 95.39085
363.9390, 95.65626
364.4211, 95.47910
364.9032, 95.00011
365.3853, 94.61687
365.8675, 94.63787
366.3496, 95.02450
366.8317, 95.42201
367.3138, 96.01917
367.7959, 96.36495
368.2780, 96.17530
368.7602, 95.75716
369.2423, 95.49385
369.7244, 95.55481
370.2065, 95.79091
370.6886, 95.89087
371.1707, 95.74824
371.6529, 95.74196
372.1350, 96.19195
372.6171, 96.59715
373.0992, 96.53450
373.5813, 95.99203
374.0634, 95.39562
374.5456, 95.25291
375.0277, 95.59589
375.5098, 95.67475
375.9919, 95.09267
376.4740, 94.66860
376.9561, 94.91357
377.4383, 95.60047
377.9204, 96.19698
378.4025, 96.40320
378.8846, 96.31060
379.3667, 96.12271
379.8488, 95.73733
380.3310, 95.52683
380.8131, 95.85671
381.2952, 96.33867
381.7773, 96.55689
382.2594, 96.37376
382.7415, 96.06406
383.2237, 95.86526
383.7058, 95.77696
384.1879, 95.90418
384.6700, 96.41950
385.1521, 97.01560
385.6342, 97.44678
386.1164, 97.71070
386.5985, 97.85522
387.0806, 97.75642
387.5627, 97.56918
388.0448, 97.74383
388.5269, 98.43541
389.0091, 99.08458
389.4912, 99.19913
389.9733, 98.96260
390.4554, 98.75536
390.9375, 98.69891
391.4196, 98.65771
391.9018, 98.42737
392.3839, 98.04470
392.8660, 97.87270
393.3481, 98.13181
393.8302, 98.64182
394.3123, 99.05788
394.7945, 99.39375
395.2766, 99.61525
395.7587, 99.65849
396.2408, 99.59007
396.7229, 99.49447
397.2050, 99.38098
397.6872, 99.32111
398.1693, 99.41391
398.6514, 99.67625
399.1335, 99.89822
399.6156, 99.95055
400.0977, 100.0583
400.5798, 100.5061
401.0620, 101.1988
401.5441, 101.7058
402.0262, 101.7412
402.5083, 101.3946
402.9904, 101.1074
403.4725, 100.7302
403.9547, 100.5830
404.4368, 100.9520
404.9189, 101.4994
405.4010, 101.8011
405.8831, 101.7262
406.3652, 101.4183
406.8474, 101.0473
407.3295, 100.4666
407.8116, 100.2948
408.2937, 100.8826
408.7758, 101.5177
409.2579, 101.7972
409.7401, 101.7574
410.2222, 101.6668
410.7043, 101.7375
411.1864, 101.9270
411.6685, 101.8551
412.1506, 101.0970
412.6328, 100.6022
413.1149, 100.7394
413.5970, 101.1036
414.0791, 101.2421
414.5612, 101.0022
415.0433, 100.5727
415.5255, 100.2246
416.0076, 99.95432
416.4897, 99.77563
416.9718, 99.87907
417.4539, 99.91283
417.9360, 99.60886
418.4182, 99.05919
418.9003, 98.60388
419.3824, 98.49027
419.8645, 98.66546
420.3466, 98.91969
420.8287, 99.32470
421.3109, 99.65279
421.7930, 99.59035
422.2751, 99.49503
422.7572, 99.82053
423.2393, 100.1005
423.7214, 101.1329
424.2036, 101.8350
424.6857, 102.2245
425.1678, 101.3650
425.6499, 102.1182
426.1320, 102.2251
426.6141, 102.3056
427.0963, 103.2858
427.5784, 102.6080
428.0605, 103.5739
428.5426, 103.8837
429.0247, 104.4938
429.5068, 104.4536
429.9890, 105.3255
430.4711, 106.0689
430.9532, 106.4819
431.4353, 106.5823
431.9174, 105.4338
432.3995, 105.8980
432.8817, 105.7159
433.3638, 105.5073
433.8459, 106.1985
434.3280, 105.9427
434.8101, 105.5048
435.2922, 106.1526
435.7744, 106.4700
436.2565, 106.4748
436.7386, 105.2307
437.2207, 105.5992
437.7028, 105.3215
438.1849, 105.0173
438.6671, 105.6128
439.1492, 104.5504
439.6313, 105.1317
440.1134, 105.0568
440.5955, 105.2823
441.0776, 104.8574
441.5598, 104.6334
442.0418, 105.0599
442.5240, 105.1262
443.0061, 104.1511
443.4882, 103.8263
443.9703, 103.8143
444.4524, 104.2493
444.9345, 104.3682
445.4167, 103.9208
445.8988, 103.3995
446.3809, 102.8925
446.8630, 102.4504
447.3451, 102.1464
447.8272, 102.0502
448.3094, 102.0583
448.7915, 101.9058
449.2736, 101.5494
449.7557, 101.1537
450.2378, 100.6831
450.7199, 100.2348
451.2021, 99.86199
451.6842, 99.57555
452.1663, 99.39392
452.6484, 99.43240
453.1305, 99.61149
453.6126, 99.52766
454.0948, 99.03043
454.5769, 98.57531
455.0590, 98.57200
455.5411, 98.81278
456.0232, 98.93713
456.5053, 98.79274
456.9875, 98.61246
457.4696, 98.56295
457.9517, 98.63882
458.4338, 98.79691
458.9159, 98.99437
459.3980, 99.32799
459.8802, 100.0522
460.3623, 101.2180
460.8444, 102.1687
461.3265, 102.7168
461.8086, 103.0451
462.2907, 103.1885
462.7729, 103.2175
463.2550, 103.4335
463.7371, 104.0794
464.2192, 105.0614
464.7013, 105.8589
465.1834, 106.1053
465.6656, 106.6448
466.1477, 108.0313
466.6298, 109.5584
467.1119, 110.3198
467.5940, 110.1769
468.0761, 109.8719
468.5583, 110.3659
469.0404, 111.8812
469.5225, 112.7776
470.0046, 112.3009
470.4867, 111.9801
470.9688, 112.2396
471.4510, 112.9759
471.9331, 114.0363
472.4152, 115.3809
472.8973, 116.8036
473.3794, 117.9526
473.8615, 118.8412
474.3437, 119.3810
474.8258, 119.0077
475.3079, 118.7215
475.7900, 119.2527
476.2721, 120.5076
476.7542, 121.8028
477.2364, 122.7966
477.7185, 123.5184
478.2006, 124.0118
478.6827, 124.2514
479.1648, 124.3975
479.6469, 124.4319
480.1291, 124.4730
480.6112, 124.7709
481.0933, 125.4859
481.5754, 126.0374
482.0575, 125.9742
482.5396, 125.5840
483.0217, 125.4401
483.5038, 125.6661
483.9860, 125.9268
484.4681, 125.9269
484.9502, 125.6482
485.4323, 125.2027
485.9144, 124.3802
486.3965, 123.6249
486.8787, 123.2444
487.3608, 123.0379
487.8429, 122.5947
488.3250, 121.7493
488.8071, 120.7494
489.2892, 120.0666
489.7714, 119.9457
490.2535, 119.5212
490.7356, 118.6166
491.2177, 117.6273
491.6998, 116.7205
492.1819, 115.9004
492.6641, 115.1179
493.1462, 114.3420
493.6283, 113.5920
494.1104, 112.9539
494.5925, 112.5193
495.0746, 111.9518
495.5568, 111.0406
496.0389, 110.0645
496.5210, 109.2224
497.0031, 108.5257
497.4852, 107.8384
497.9673, 106.9207
498.4495, 105.9547
498.9316, 105.5710
499.4137, 105.9345
499.8958, 106.2068
500.3779, 105.9421
500.8600, 105.2338
501.3422, 104.2756
501.8243, 102.9082
502.3064, 101.6572
502.7885, 100.8066
503.2706, 100.2365
503.7527, 99.71709
504.2349, 99.20052
504.7170, 98.79150
505.1991, 98.65816
505.6812, 98.82633
506.1633, 98.58340
506.6454, 97.54865
507.1276, 96.57469
507.6097, 95.96894
508.0918, 95.62732
508.5739, 95.40348
509.0560, 95.23701
509.5381, 95.09499
510.0203, 94.93510
510.5024, 94.77565
510.9845, 94.53484
511.4666, 94.05145
511.9487, 93.64742
512.4308, 93.47582
512.9130, 93.47339
513.3951, 93.52141
513.8772, 93.58068
514.3593, 93.59782
514.8414, 93.44252
515.3235, 93.08373
515.8057, 92.79329
516.2878, 92.74402
516.7699, 92.66418
517.2520, 92.22366
517.7341, 91.49249
518.2162, 90.97751
518.6984, 91.04655
519.1805, 91.35674
519.6626, 91.47417
520.1447, 91.40268
520.6268, 91.33920
521.1089, 91.42403
521.5911, 91.51803
522.0732, 91.21988
522.5553, 90.28323
523.0374, 89.72899
523.5195, 90.13074
524.0016, 90.70415
524.4838, 90.70571
524.9659, 90.16031
525.4480, 89.57066
525.9301, 89.29478
526.4122, 89.28228
526.8943, 89.26814
527.3765, 89.16689
527.8586, 89.19600
528.3407, 89.50579
528.8228, 89.85400
529.3049, 90.07493
529.7870, 90.13335
530.2692, 90.04462
530.7513, 89.76231
531.2334, 89.33733
531.7155, 89.10410
532.1976, 89.18758
532.6797, 89.17254
533.1619, 88.66016
533.6440, 88.07095
534.1261, 87.87286
534.6082, 88.17410
535.0903, 88.54928
535.5724, 88.75967
536.0546, 88.83977
536.5367, 88.82320
537.0188, 88.70245
537.5009, 88.64656
537.9830, 88.81031
538.4651, 89.14574
538.9473, 89.37041
539.4294, 89.38546
539.9115, 89.42496
540.3936, 89.42364
540.8757, 89.01453
541.3578, 89.91479
541.8400, 90.48473
542.3221, 90.74200
542.8042, 89.75039
543.2863, 90.37148
543.7684, 90.34624
544.2505, 90.29453
544.7326, 91.14259
545.2147, 90.33263
545.6968, 91.16640
546.1790, 91.34408
546.6611, 91.82200
547.1432, 91.42372
547.6253, 91.44507
548.1074, 91.37288
548.5895, 91.36433
549.0717, 91.42008
549.5538, 91.55131
550.0359, 91.77721
550.5180, 92.08083
551.0001, 92.46499
551.4822, 92.97202
551.9644, 93.45277
552.4465, 93.67519
552.9286, 93.83253
553.4107, 94.41196
553.8928, 95.51689
554.3749, 96.65913
554.8571, 97.42001
555.3392, 97.80497
555.8213, 98.03904
556.3034, 97.90358
556.7855, 97.90523
557.2676, 98.20025
557.7498, 98.69089
558.2319, 99.31944
558.7140, 100.0425
559.1961, 100.7046
559.6782, 101.0673
560.1603, 101.1195
560.6425, 101.6511
561.1246, 103.0696
561.6067, 104.3721
562.0888, 105.1211
562.5709, 105.6681
563.0530, 106.4160
563.5352, 107.4614
564.0173, 108.6235
564.4994, 109.7834
564.9815, 110.9380
565.4636, 112.0637
565.9457, 113.1526
566.4279, 114.2710
566.9100, 115.4839
567.3921, 116.7601
567.8742, 117.9927
568.3563, 119.2247
568.8384, 120.3426
569.3206, 121.1602
569.8027, 121.9159
570.2848, 122.9647
570.7669, 124.3185
571.2490, 125.6671
571.7311, 126.6978
572.2133, 127.4662
572.6954, 128.5476
573.1775, 130.3196
573.6596, 131.8948
574.1417, 133.2151
574.6238, 134.2729
575.1060, 134.8876
575.5881, 135.1477
576.0702, 135.5858
576.5523, 136.7950
577.0344, 138.5251
577.5165, 139.8710
577.9987, 140.8174
578.4808, 141.4381
578.9629, 141.6696
579.4450, 141.6270
579.9271, 141.4399
580.4092, 141.0742
580.8914, 140.8238
581.3735, 141.2297
581.8556, 141.5377
582.3377, 140.7830
582.8198, 139.0404
583.3019, 137.0742
583.7841, 135.3024
584.2662, 133.6502
584.7483, 131.8924
585.2304, 129.6750
585.7125, 127.9480
586.1946, 127.2262
586.6768, 126.5011
587.1589, 125.1203
587.6410, 123.1946
588.1231, 121.1156
588.6052, 119.0484
589.0873, 117.1537
