##NAMES=Klyuchevskite
##RRUFFID=R070659
##IDEAL CHEMISTRY=K_3_Cu^2+^_3_Fe^3+^O_2_(S^6+^O_4_)_4_
##LOCALITY=Yadevitaya fumarole, Tolbachik volcano, Kamchatka Oblast', Far-Eastern Region, Russia
##OWNER=RRUFF
##SOURCE=Michael Scott
##DESCRIPTION=Clusters of dark green radiating prismatic crystals associated with langbeinite, co-type sample
##STATUS=The identification of this mineral has been confirmed by single-crystal X-ray diffraction.
##URL=rruff.info/R070659
90.38641, 1334.088
90.86853, 1321.501
91.35065, 1303.603
91.83276, 1293.555
92.31488, 1312.975
92.79700, 1376.868
93.27911, 1473.657
93.76123, 1544.441
94.24335, 1589.154
94.72546, 1610.330
95.20758, 1590.690
95.68970, 1533.608
96.17181, 1482.533
96.65393, 1456.508
97.13605, 1450.486
97.61816, 1449.439
98.10028, 1462.013
98.58240, 1475.383
99.06451, 1463.690
99.54663, 1411.265
100.0287, 1363.130
100.5109, 1355.994
100.9930, 1380.947
101.4751, 1407.095
101.9572, 1411.015
102.4393, 1392.143
102.9215, 1378.658
103.4036, 1380.909
103.8857, 1384.825
104.3678, 1384.341
104.8499, 1378.111
105.3320, 1368.029
105.8142, 1355.739
106.2963, 1335.233
106.7784, 1324.140
107.2605, 1329.366
107.7426, 1340.957
108.2247, 1350.025
108.7069, 1352.054
109.1890, 1347.826
109.6711, 1341.737
110.1532, 1328.342
110.6353, 1318.619
111.1174, 1315.276
111.5996, 1317.632
112.0817, 1324.899
112.5638, 1338.391
113.0459, 1359.352
113.5280, 1363.114
114.0101, 1332.980
114.4923, 1298.630
114.9744, 1285.569
115.4565, 1297.991
115.9386, 1313.546
116.4207, 1296.625
116.9028, 1244.806
117.3850, 1217.599
117.8671, 1253.398
118.3492, 1323.569
118.8313, 1363.524
119.3134, 1346.964
119.7955, 1306.416
120.2777, 1283.974
120.7598, 1281.478
121.2419, 1283.336
121.7240, 1277.687
122.2061, 1264.067
122.6882, 1251.465
123.1704, 1241.751
123.6525, 1235.110
124.1346, 1233.423
124.6167, 1238.438
125.0988, 1245.203
125.5809, 1243.624
126.0631, 1228.093
126.5452, 1214.121
127.0273, 1204.196
127.5094, 1198.301
127.9915, 1196.371
128.4736, 1198.301
128.9558, 1204.146
129.4379, 1214.854
129.9200, 1248.105
130.4021, 1269.516
130.8842, 1263.028
131.3663, 1235.838
131.8485, 1207.435
132.3306, 1196.771
132.8127, 1209.778
133.2948, 1214.942
133.7769, 1210.142
134.2590, 1200.962
134.7412, 1184.739
135.2233, 1163.043
135.7054, 1148.364
136.1875, 1161.118
136.6696, 1223.040
137.1517, 1264.879
137.6339, 1269.273
138.1160, 1255.453
138.5981, 1249.569
139.0802, 1262.302
139.5623, 1281.860
140.0444, 1280.188
140.5266, 1248.391
141.0087, 1221.325
141.4908, 1216.825
141.9729, 1230.530
142.4550, 1243.766
142.9371, 1247.316
143.4193, 1245.678
143.9014, 1248.539
144.3835, 1260.245
144.8656, 1271.662
145.3477, 1273.297
145.8298, 1264.033
146.3120, 1251.536
146.7941, 1226.663
147.2762, 1203.903
147.7583, 1204.745
148.2404, 1252.502
148.7225, 1322.916
149.2047, 1351.730
149.6868, 1313.310
150.1689, 1272.355
150.6510, 1254.366
151.1331, 1253.770
151.6152, 1260.712
152.0974, 1273.027
152.5795, 1290.541
153.0616, 1292.489
153.5437, 1252.351
154.0258, 1218.117
154.5080, 1208.794
154.9901, 1221.320
155.4722, 1240.086
155.9543, 1249.280
156.4364, 1246.861
156.9185, 1240.712
157.4007, 1219.958
157.8828, 1203.891
158.3649, 1209.831
158.8470, 1238.532
159.3291, 1271.625
159.8112, 1278.669
160.2934, 1223.691
160.7755, 1199.156
161.2576, 1231.749
161.7397, 1280.911
162.2218, 1305.372
162.7039, 1288.981
163.1861, 1248.050
163.6682, 1223.945
164.1503, 1225.441
164.6324, 1230.562
165.1145, 1240.665
165.5966, 1251.890
166.0788, 1255.696
166.5609, 1246.041
167.0430, 1227.860
167.5251, 1220.626
168.0072, 1229.182
168.4893, 1241.579
168.9715, 1256.049
169.4536, 1271.262
169.9357, 1279.959
170.4178, 1275.686
170.8999, 1260.821
171.3820, 1246.860
171.8642, 1230.669
172.3463, 1217.742
172.8284, 1219.352
173.3105, 1238.646
173.7926, 1248.523
174.2747, 1210.892
174.7569, 1150.381
175.2390, 1112.547
175.7211, 1122.265
176.2032, 1161.709
176.6853, 1198.326
177.1674, 1234.177
177.6496, 1261.785
178.1317, 1275.610
178.6138, 1278.813
179.0959, 1278.121
179.5780, 1276.935
180.0602, 1274.968
180.5423, 1269.503
181.0244, 1252.993
181.5065, 1242.028
181.9886, 1250.647
182.4707, 1273.657
182.9529, 1292.700
183.4350, 1284.588
183.9171, 1243.926
184.3992, 1228.040
184.8813, 1272.692
185.3634, 1317.736
185.8456, 1337.026
186.3277, 1329.676
186.8098, 1312.030
187.2919, 1303.457
187.7740, 1308.522
188.2561, 1309.726
188.7383, 1302.005
189.2204, 1294.025
189.7025, 1291.487
190.1846, 1295.471
190.6667, 1302.672
191.1488, 1308.033
191.6310, 1311.836
192.1131, 1312.757
192.5952, 1310.089
193.0773, 1305.305
193.5594, 1297.528
194.0415, 1286.798
194.5237, 1277.080
195.0058, 1277.383
195.4879, 1307.164
195.9700, 1324.476
196.4521, 1319.505
196.9342, 1304.477
197.4164, 1294.941
197.8985, 1298.315
198.3806, 1309.095
198.8627, 1308.152
199.3448, 1273.501
199.8270, 1253.213
200.3091, 1270.858
200.7912, 1307.766
201.2733, 1328.601
201.7554, 1311.963
202.2375, 1267.896
202.7197, 1245.921
203.2018, 1248.534
203.6839, 1264.896
204.1660, 1304.020
204.6481, 1356.910
205.1302, 1395.524
205.6124, 1402.070
206.0945, 1379.833
206.5766, 1356.715
207.0587, 1321.089
207.5408, 1294.472
208.0229, 1295.310
208.5051, 1320.719
208.9872, 1345.965
209.4693, 1352.968
209.9514, 1346.196
210.4335, 1348.295
210.9156, 1370.687
211.3978, 1395.279
211.8799, 1408.049
212.3620, 1408.678
212.8441, 1398.550
213.3262, 1367.130
213.8083, 1325.241
214.2905, 1303.469
214.7726, 1322.903
215.2547, 1358.279
215.7368, 1378.204
216.2189, 1380.469
216.7010, 1375.274
217.1832, 1365.531
217.6653, 1353.558
218.1474, 1343.969
218.6295, 1337.041
219.1116, 1333.707
219.5937, 1338.463
220.0759, 1356.772
220.5580, 1370.011
221.0401, 1355.957
221.5222, 1327.734
222.0043, 1313.194
222.4864, 1335.082
222.9686, 1381.382
223.4507, 1415.318
223.9328, 1434.892
224.4149, 1443.731
224.8970, 1440.194
225.3791, 1428.768
225.8613, 1419.910
226.3434, 1424.716
226.8255, 1439.360
227.3076, 1439.558
227.7897, 1410.276
228.2718, 1385.783
228.7540, 1387.220
229.2361, 1407.270
229.7182, 1426.407
230.2003, 1429.677
230.6824, 1418.050
231.1645, 1408.881
231.6467, 1407.285
232.1288, 1402.561
232.6109, 1383.969
233.0930, 1357.055
233.5751, 1337.808
234.0572, 1342.594
234.5394, 1372.363
235.0215, 1395.483
235.5036, 1402.008
235.9857, 1410.636
236.4678, 1433.288
236.9500, 1465.816
237.4321, 1493.675
237.9142, 1502.371
238.3963, 1489.592
238.8784, 1479.642
239.3605, 1475.627
239.8427, 1471.975
240.3248, 1464.816
240.8069, 1455.525
241.2890, 1449.348
241.7711, 1452.587
242.2532, 1467.630
242.7354, 1477.751
243.2175, 1488.625
243.6996, 1489.774
244.1817, 1469.247
244.6638, 1431.736
245.1459, 1394.433
245.6281, 1373.651
246.1102, 1370.220
246.5923, 1380.363
247.0744, 1421.708
247.5565, 1460.572
248.0386, 1482.286
248.5208, 1486.442
249.0029, 1480.860
249.4850, 1474.052
249.9671, 1468.340
250.4492, 1450.544
250.9313, 1403.505
251.4135, 1360.618
251.8956, 1338.657
252.3777, 1337.600
252.8598, 1346.210
253.3419, 1352.754
253.8240, 1355.447
254.3062, 1363.857
254.7883, 1384.718
255.2704, 1404.623
255.7525, 1414.480
256.2346, 1415.468
256.7167, 1417.107
257.1989, 1430.898
257.6810, 1463.556
258.1631, 1479.752
258.6452, 1464.029
259.1273, 1448.444
259.6094, 1453.888
260.0916, 1478.285
260.5737, 1502.539
261.0558, 1505.502
261.5379, 1479.322
262.0200, 1466.585
262.5021, 1477.250
262.9843, 1489.761
263.4664, 1492.590
263.9485, 1485.726
264.4306, 1475.769
264.9127, 1468.917
265.3948, 1465.152
265.8770, 1465.186
266.3591, 1473.137
266.8412, 1480.576
267.3233, 1484.051
267.8054, 1483.019
268.2875, 1476.813
268.7697, 1462.468
269.2518, 1435.160
269.7339, 1432.152
270.2160, 1476.773
270.6981, 1519.798
271.1802, 1537.189
271.6624, 1529.568
272.1445, 1509.470
272.6266, 1485.404
273.1087, 1454.501
273.5908, 1445.812
274.0729, 1472.129
274.5551, 1503.467
275.0372, 1529.691
275.5193, 1548.933
276.0014, 1560.744
276.4835, 1563.405
276.9656, 1555.719
277.4478, 1556.356
277.9299, 1571.137
278.4120, 1586.643
278.8941, 1601.840
279.3762, 1613.765
279.8583, 1613.918
280.3405, 1592.816
280.8226, 1549.561
281.3047, 1534.878
281.7868, 1579.066
282.2689, 1615.715
282.7510, 1611.008
283.2332, 1577.277
283.7153, 1549.558
284.1974, 1553.790
284.6795, 1587.729
285.1616, 1603.239
285.6437, 1581.998
286.1259, 1564.325
286.6080, 1565.495
287.0901, 1579.678
287.5722, 1593.526
288.0543, 1598.831
288.5364, 1596.461
289.0186, 1593.682
289.5007, 1585.252
289.9828, 1582.165
290.4649, 1592.363
290.9470, 1609.234
291.4291, 1621.108
291.9113, 1621.269
292.3934, 1612.164
292.8755, 1605.576
293.3576, 1601.982
293.8397, 1600.365
294.3218, 1606.269
294.8040, 1612.796
295.2861, 1606.937
295.7682, 1581.481
296.2503, 1546.248
296.7325, 1533.121
297.2146, 1570.826
297.6967, 1597.995
298.1788, 1608.826
298.6609, 1607.339
299.1430, 1595.463
299.6252, 1573.944
300.1073, 1548.709
300.5894, 1533.463
301.0715, 1541.578
301.5536, 1543.039
302.0357, 1530.171
302.5179, 1514.031
303.0000, 1506.562
303.4821, 1511.238
303.9642, 1521.255
304.4463, 1524.164
304.9284, 1514.753
305.4106, 1506.074
305.8927, 1490.275
306.3748, 1479.873
306.8569, 1489.536
307.3390, 1520.555
307.8211, 1557.210
308.3033, 1577.712
308.7854, 1579.495
309.2675, 1569.132
309.7496, 1528.126
310.2317, 1490.834
310.7138, 1479.701
311.1960, 1496.585
311.6781, 1528.621
312.1602, 1563.569
312.6423, 1604.251
313.1244, 1635.213
313.6065, 1664.947
314.0887, 1679.180
314.5708, 1658.967
315.0529, 1613.033
315.5350, 1571.152
316.0171, 1563.440
316.4992, 1594.248
316.9814, 1609.504
317.4635, 1588.831
317.9456, 1572.421
318.4277, 1577.082
318.9098, 1597.086
319.3919, 1617.329
319.8741, 1626.889
320.3562, 1626.382
320.8383, 1624.679
321.3204, 1621.862
321.8025, 1617.564
322.2846, 1610.121
322.7668, 1601.406
323.2489, 1594.053
323.7310, 1589.472
324.2131, 1587.644
324.6952, 1589.166
325.1773, 1599.163
325.6595, 1604.632
326.1416, 1595.136
326.6237, 1582.880
327.1058, 1585.263
327.5879, 1611.592
328.0700, 1645.823
328.5522, 1648.118
329.0343, 1591.833
329.5164, 1562.758
329.9985, 1604.356
330.4806, 1661.951
330.9627, 1688.189
331.4449, 1668.956
331.9270, 1630.257
332.4091, 1605.950
332.8912, 1597.004
333.3733, 1598.403
333.8554, 1629.370
334.3376, 1657.040
334.8197, 1652.497
335.3018, 1614.488
335.7839, 1579.455
336.2660, 1593.033
336.7481, 1657.429
337.2303, 1698.704
337.7124, 1691.611
338.1945, 1674.677
338.6766, 1674.007
339.1587, 1687.221
339.6408, 1694.824
340.1230, 1677.354
340.6051, 1640.486
341.0872, 1615.156
341.5693, 1605.970
342.0514, 1604.000
342.5335, 1603.966
343.0157, 1605.839
343.4978, 1609.735
343.9799, 1617.951
344.4620, 1627.802
344.9441, 1633.180
345.4262, 1633.025
345.9084, 1631.758
346.3905, 1631.373
346.8726, 1631.813
347.3547, 1633.159
347.8368, 1634.839
348.3189, 1637.961
348.8011, 1649.015
349.2832, 1668.503
349.7653, 1673.137
350.2474, 1639.522
350.7295, 1588.705
351.2116, 1561.387
351.6938, 1566.921
352.1759, 1583.438
352.6580, 1605.830
353.1401, 1629.988
353.6222, 1634.188
354.1043, 1601.840
354.5865, 1556.961
355.0686, 1545.075
355.5507, 1574.222
356.0328, 1601.812
356.5149, 1615.108
356.9970, 1616.448
357.4792, 1606.497
357.9613, 1583.509
358.4434, 1559.263
358.9255, 1551.381
359.4076, 1564.030
359.8897, 1569.287
360.3719, 1549.481
360.8540, 1529.521
361.3361, 1541.031
361.8182, 1585.339
362.3003, 1627.645
362.7824, 1634.009
363.2646, 1599.395
363.7467, 1577.037
364.2288, 1571.241
364.7109, 1572.482
365.1930, 1581.938
365.6751, 1595.215
366.1573, 1600.179
366.6394, 1587.142
367.1215, 1559.016
367.6036, 1542.472
368.0857, 1544.129
368.5678, 1548.779
369.0500, 1557.583
369.5321, 1566.359
370.0142, 1567.553
370.4963, 1557.512
370.9784, 1542.657
371.4605, 1539.866
371.9427, 1560.045
372.4248, 1576.780
372.9069, 1595.346
373.3890, 1606.491
373.8711, 1595.341
374.3532, 1561.301
374.8354, 1525.597
375.3175, 1520.991
375.7996, 1564.022
376.2817, 1586.871
376.7638, 1571.122
377.2459, 1551.557
377.7281, 1547.111
378.2102, 1555.428
378.6923, 1560.753
379.1744, 1546.350
379.6566, 1513.673
380.1387, 1495.552
380.6208, 1500.253
381.1029, 1510.004
381.5850, 1522.006
382.0671, 1533.336
382.5493, 1539.281
383.0314, 1536.982
383.5135, 1528.478
383.9956, 1515.252
384.4777, 1492.386
384.9598, 1480.032
385.4420, 1499.396
385.9241, 1527.606
386.4062, 1542.373
386.8883, 1537.328
387.3704, 1523.576
387.8525, 1506.981
388.3347, 1488.317
388.8168, 1482.750
389.2989, 1507.202
389.7810, 1532.181
390.2631, 1519.268
390.7452, 1465.837
391.2274, 1417.802
391.7095, 1395.043
392.1916, 1392.714
392.6737, 1406.545
393.1558, 1439.753
393.6379, 1471.184
394.1201, 1478.338
394.6022, 1462.764
395.0843, 1446.042
395.5664, 1432.474
396.0485, 1417.493
396.5306, 1389.942
397.0128, 1353.341
397.4949, 1332.017
397.9770, 1344.917
398.4591, 1386.568
398.9412, 1417.768
399.4233, 1438.838
399.9055, 1451.216
400.3876, 1450.827
400.8697, 1442.819
401.3518, 1435.655
401.8339, 1432.828
402.3160, 1432.009
402.7982, 1427.936
403.2803, 1409.330
403.7624, 1405.670
404.2445, 1436.903
404.7266, 1469.325
405.2087, 1470.985
405.6909, 1440.686
406.1730, 1405.448
406.6551, 1397.273
407.1372, 1422.496
407.6193, 1434.439
408.1014, 1424.276
408.5836, 1409.349
409.0657, 1391.647
409.5478, 1373.817
410.0299, 1359.977
410.5120, 1353.041
410.9941, 1351.667
411.4763, 1350.578
411.9584, 1347.861
412.4405, 1349.320
412.9226, 1361.044
413.4047, 1375.137
413.8868, 1383.980
414.3690, 1385.355
414.8511, 1380.732
415.3332, 1367.385
415.8153, 1344.579
416.2974, 1333.730
416.7795, 1346.247
417.2617, 1366.347
417.7438, 1382.204
418.2259, 1393.482
418.7080, 1398.349
419.1901, 1394.674
419.6722, 1384.037
420.1544, 1364.127
420.6365, 1330.133
421.1186, 1309.800
421.6007, 1342.204
422.0828, 1410.961
422.5649, 1442.713
423.0471, 1399.950
423.5292, 1342.320
424.0113, 1308.864
424.4934, 1296.718
424.9755, 1289.008
425.4576, 1276.474
425.9398, 1264.085
426.4219, 1268.374
426.9040, 1306.541
427.3861, 1332.118
427.8682, 1326.742
428.3503, 1309.545
428.8325, 1299.191
429.3146, 1301.095
429.7967, 1316.225
430.2788, 1349.744
430.7609, 1416.283
431.2430, 1446.510
431.7252, 1421.870
432.2073, 1386.030
432.6894, 1347.206
433.1715, 1314.272
433.6536, 1303.556
434.1357, 1330.631
434.6179, 1385.665
435.1000, 1415.940
435.5821, 1405.773
436.0642, 1393.373
436.5463, 1386.649
437.0284, 1382.435
437.5106, 1376.934
437.9927, 1368.872
438.4748, 1361.272
438.9569, 1359.920
439.4390, 1365.591
439.9211, 1364.829
440.4033, 1347.161
440.8854, 1331.042
441.3675, 1331.693
441.8496, 1347.336
442.3317, 1363.352
442.8138, 1375.641
443.2960, 1382.497
443.7781, 1378.381
444.2602, 1361.503
444.7423, 1344.301
445.2244, 1333.402
445.7065, 1328.922
446.1887, 1330.165
446.6708, 1346.815
447.1529, 1358.588
447.6350, 1344.722
448.1171, 1317.149
448.5992, 1309.931
449.0814, 1339.461
449.5635, 1380.656
450.0456, 1387.206
450.5277, 1339.206
451.0098, 1297.839
451.4919, 1260.686
451.9741, 1234.097
452.4562, 1229.170
452.9383, 1242.704
453.4204, 1256.226
453.9025, 1252.454
454.3846, 1231.301
454.8668, 1221.054
455.3489, 1238.441
455.8310, 1248.915
456.3131, 1242.673
456.7952, 1226.154
457.2773, 1206.976
457.7595, 1187.937
458.2416, 1171.540
458.7237, 1162.070
459.2058, 1160.096
459.6879, 1162.866
460.1700, 1174.418
460.6522, 1187.302
461.1343, 1196.811
461.6164, 1202.967
462.0985, 1209.130
462.5807, 1218.268
463.0628, 1229.029
463.5449, 1240.172
464.0270, 1254.526
464.5091, 1258.041
464.9912, 1233.306
465.4734, 1191.429
465.9555, 1159.804
466.4376, 1140.432
466.9197, 1133.136
467.4018, 1146.794
467.8839, 1173.186
468.3661, 1187.578
468.8482, 1179.684
469.3303, 1162.390
469.8124, 1158.289
470.2945, 1177.207
470.7766, 1183.563
471.2588, 1166.006
471.7409, 1142.866
472.2230, 1124.660
472.7051, 1113.562
473.1872, 1111.141
473.6693, 1120.457
474.1515, 1139.623
474.6336, 1145.845
475.1157, 1120.534
475.5978, 1104.664
476.0799, 1109.427
476.5620, 1124.922
477.0442, 1142.593
477.5263, 1159.419
478.0084, 1171.442
478.4905, 1173.117
478.9726, 1163.969
479.4547, 1148.633
479.9369, 1120.923
480.4190, 1094.285
480.9011, 1072.391
481.3832, 1057.571
481.8653, 1057.570
482.3474, 1091.980
482.8296, 1136.417
483.3117, 1148.445
483.7938, 1127.040
484.2759, 1108.422
484.7580, 1115.171
485.2401, 1134.236
485.7223, 1132.398
486.2044, 1098.462
486.6865, 1067.825
487.1686, 1044.300
487.6507, 1034.202
488.1328, 1056.991
488.6150, 1114.628
489.0971, 1170.023
489.5792, 1180.732
490.0613, 1138.829
490.5434, 1107.560
491.0255, 1091.014
491.5077, 1079.023
491.9898, 1066.493
492.4719, 1056.171
492.9540, 1054.319
493.4361, 1064.542
493.9182, 1081.000
494.4004, 1091.235
494.8825, 1094.241
495.3646, 1093.940
495.8467, 1088.264
496.3288, 1081.387
496.8109, 1075.244
497.2931, 1070.131
497.7752, 1066.032
498.2573, 1064.824
498.7394, 1064.505
499.2215, 1059.236
499.7036, 1048.307
500.1858, 1034.814
500.6679, 1014.901
501.1500, 995.3827
501.6321, 991.9797
502.1142, 1015.095
502.5963, 1037.964
503.0785, 1048.034
503.5606, 1048.625
504.0427, 1043.962
504.5248, 1034.928
505.0069, 1027.210
505.4890, 1028.063
505.9712, 1039.750
506.4533, 1049.615
506.9354, 1064.588
507.4175, 1071.167
507.8996, 1054.844
508.3817, 1026.359
508.8639, 1008.264
509.3460, 1013.150
509.8281, 1030.521
510.3102, 1033.660
510.7923, 1014.962
511.2744, 1001.756
511.7566, 1001.872
512.2387, 1005.430
512.7208, 1009.198
513.2029, 1011.670
513.6851, 1008.454
514.1672, 989.9391
514.6493, 964.2002
515.1314, 953.0375
515.6135, 958.2614
516.0956, 970.8091
516.5778, 991.3576
517.0599, 1014.077
517.5420, 1025.993
518.0241, 1023.945
518.5062, 1016.461
518.9883, 1006.479
519.4705, 993.6649
519.9526, 972.8334
520.4347, 943.4088
520.9168, 921.8054
521.3989, 927.7883
521.8810, 966.2062
522.3632, 993.3454
522.8453, 1009.955
523.3274, 1016.590
523.8095, 1006.149
524.2916, 987.7571
524.7737, 975.6129
525.2559, 976.0137
525.7380, 981.7072
526.2201, 979.7939
526.7022, 968.4924
527.1843, 957.6954
527.6664, 940.9993
528.1486, 932.9338
528.6307, 948.3232
529.1128, 980.9397
529.5949, 1007.383
530.0770, 1019.171
530.5591, 1016.727
531.0413, 993.0653
531.5234, 949.3232
532.0055, 914.9114
532.4876, 901.6277
532.9697, 906.0112
533.4518, 926.5301
533.9340, 975.9630
534.4161, 1001.929
534.8982, 973.7742
535.3803, 931.5225
535.8624, 913.5185
536.3445, 920.9584
536.8267, 930.8774
537.3088, 924.0666
537.7909, 904.3137
538.2730, 904.9238
538.7551, 958.0609
539.2372, 986.3970
539.7194, 959.5611
540.2015, 915.5765
540.6836, 888.0187
541.1657, 884.4479
541.6478, 893.9871
542.1299, 915.0027
542.6121, 943.6046
543.0942, 947.1290
543.5763, 913.0091
544.0584, 880.3555
544.5405, 876.6304
545.0226, 891.6537
545.5048, 906.4761
545.9869, 919.2057
546.4690, 930.3055
546.9511, 943.5529
547.4332, 954.9303
547.9153, 952.1483
548.3975, 931.5428
548.8796, 910.5110
549.3617, 910.6433
549.8438, 936.8853
550.3259, 953.9865
550.8080, 962.2769
551.2902, 962.7718
551.7723, 952.5421
552.2544, 935.6920
552.7365, 916.0856
553.2186, 895.2351
553.7007, 878.4161
554.1829, 879.0153
554.6650, 901.6525
555.1471, 906.5753
555.6292, 873.0004
556.1113, 839.4815
556.5934, 831.8018
557.0756, 844.6036
557.5577, 859.5496
558.0398, 871.0213
558.5219, 880.9227
559.0040, 897.4836
559.4861, 916.5608
559.9683, 912.5030
560.4504, 870.3609
560.9325, 817.0099
561.4146, 797.0428
561.8967, 824.2561
562.3788, 849.1689
562.8610, 876.8187
563.3431, 897.1737
563.8252, 896.0001
564.3073, 882.3799
564.7894, 880.1817
565.2715, 904.5256
565.7537, 941.9940
566.2358, 961.1931
566.7179, 961.5977
567.2000, 944.6927
567.6821, 880.7118
568.1642, 823.6450
568.6464, 813.9755
569.1285, 845.5646
569.6106, 875.7073
570.0927, 880.8345
570.5748, 872.6354
571.0569, 865.0275
571.5391, 858.3033
572.0212, 857.3816
572.5033, 867.8402
572.9854, 880.3047
573.4675, 873.5900
573.9496, 835.9001
574.4318, 811.4247
574.9139, 816.7672
575.3960, 826.7391
575.8781, 820.0530
576.3602, 800.3589
576.8423, 785.7379
577.3245, 788.5126
577.8066, 803.1042
578.2887, 812.4614
578.7708, 817.4883
579.2529, 815.0325
579.7350, 792.4666
580.2172, 771.2959
580.6993, 767.0206
581.1814, 778.9276
581.6635, 793.6796
582.1456, 805.0797
582.6277, 814.2637
583.1099, 825.1577
583.5920, 837.3018
584.0741, 840.2017
584.5562, 826.8800
585.0383, 804.2645
585.5204, 786.9258
