##NAMES=Koenenite
##RRUFFID=R060989
##IDEAL CHEMISTRY=Na_4_Mg_9_Al_4_Cl_12_(OH)_22_
##LOCALITY=Grauer Salzton, Bergmannssegen Quarry, Lehrte, near Hannover, Germany
##OWNER=RRUFF
##SOURCE=Michael Scott
##DESCRIPTION=Aggregate of orange tabular crystals showing a micaceous cleavage.
##STATUS=The identification of this mineral has been confirmed only by single crystal X-ray diffraction.
##URL=rruff.info/R060989
140.8127, 1044.236
141.2948, 1047.674
141.7769, 1071.355
142.2591, 1106.773
142.7412, 1150.011
143.2233, 1199.225
143.7054, 1252.669
144.1875, 1307.211
144.6696, 1363.155
145.1518, 1419.754
145.6339, 1473.277
146.1160, 1529.165
146.5981, 1593.659
147.0802, 1668.245
147.5623, 1747.214
148.0445, 1820.668
148.5266, 1885.533
149.0087, 1947.284
149.4908, 2014.678
149.9729, 2075.482
150.4550, 2116.077
150.9371, 2132.094
151.4193, 2129.805
151.9014, 2122.081
152.3835, 2101.443
152.8656, 2085.747
153.3477, 2083.738
153.8298, 2084.729
154.3120, 2074.317
154.7941, 2046.617
155.2762, 2008.619
155.7583, 1977.259
156.2404, 1956.639
156.7225, 1935.400
157.2047, 1907.999
157.6868, 1879.696
158.1689, 1859.263
158.6510, 1850.855
159.1331, 1849.793
159.6152, 1843.823
160.0974, 1825.903
160.5795, 1815.574
161.0616, 1826.592
161.5437, 1847.659
162.0258, 1856.074
162.5079, 1840.208
162.9901, 1811.221
163.4722, 1797.121
163.9543, 1802.661
164.4364, 1809.788
164.9185, 1810.950
165.4007, 1809.247
165.8828, 1813.109
166.3649, 1828.166
166.8470, 1847.288
167.3291, 1854.390
167.8112, 1846.411
168.2934, 1835.621
168.7755, 1826.840
169.2576, 1819.246
169.7397, 1810.801
170.2218, 1801.391
170.7039, 1789.692
171.1861, 1772.418
171.6682, 1746.160
172.1503, 1722.982
172.6324, 1711.641
173.1145, 1709.047
173.5966, 1703.623
174.0788, 1691.028
174.5609, 1673.131
175.0430, 1653.126
175.5251, 1629.177
176.0072, 1607.950
176.4893, 1594.788
176.9714, 1588.106
177.4536, 1580.492
177.9357, 1569.051
178.4178, 1555.575
178.8999, 1542.636
179.3820, 1529.653
179.8641, 1518.944
180.3463, 1513.099
180.8284, 1511.337
181.3105, 1508.888
181.7926, 1503.101
182.2747, 1497.019
182.7568, 1494.964
183.2390, 1497.778
183.7211, 1501.064
184.2032, 1500.196
184.6853, 1496.299
185.1674, 1497.619
185.6495, 1510.502
186.1317, 1526.007
186.6138, 1532.501
187.0959, 1528.380
187.5780, 1523.773
188.0601, 1523.989
188.5422, 1529.065
189.0244, 1540.235
189.5065, 1561.879
189.9886, 1585.899
190.4707, 1600.123
190.9528, 1602.804
191.4349, 1612.469
191.9171, 1642.637
192.3992, 1691.617
192.8813, 1749.140
193.3634, 1818.266
193.8455, 1889.507
194.3276, 1954.326
194.8098, 2012.368
195.2919, 2067.270
195.7740, 2128.875
196.2561, 2193.302
196.7382, 2232.576
197.2203, 2233.684
197.7025, 2214.087
198.1846, 2191.944
198.6667, 2167.214
199.1488, 2136.089
199.6309, 2092.514
200.1130, 2038.506
200.5951, 1987.823
201.0773, 1941.532
201.5594, 1900.668
202.0415, 1866.248
202.5236, 1837.636
203.0057, 1809.340
203.4878, 1775.878
203.9700, 1739.073
204.4521, 1706.653
204.9342, 1676.357
205.4163, 1656.273
205.8984, 1658.813
206.3805, 1678.937
206.8627, 1690.458
207.3448, 1669.805
207.8269, 1626.711
208.3090, 1600.089
208.7911, 1602.601
209.2732, 1606.954
209.7554, 1595.169
210.2375, 1569.737
210.7196, 1537.818
211.2017, 1499.106
211.6838, 1456.578
212.1659, 1419.938
212.6481, 1392.100
213.1302, 1365.772
213.6123, 1335.247
214.0944, 1302.440
214.5765, 1272.420
215.0586, 1248.084
215.5408, 1228.028
216.0229, 1209.167
216.5050, 1192.388
216.9871, 1174.841
217.4692, 1152.391
217.9513, 1128.196
218.4335, 1108.042
218.9156, 1094.438
219.3977, 1086.187
219.8798, 1082.573
220.3619, 1085.386
220.8440, 1086.867
221.3262, 1081.545
221.8083, 1072.244
222.2904, 1062.379
222.7725, 1051.691
223.2546, 1041.994
223.7367, 1036.650
224.2189, 1036.408
224.7010, 1036.132
225.1831, 1032.851
225.6652, 1028.067
226.1473, 1023.912
226.6294, 1021.876
227.1115, 1018.978
227.5937, 1010.443
228.0758, 995.8001
228.5579, 983.5148
229.0400, 979.4483
229.5221, 978.7170
230.0042, 974.8914
230.4864, 966.3007
230.9685, 956.7455
231.4506, 947.1178
231.9327, 937.7987
232.4148, 936.4989
232.8969, 952.4419
233.3791, 972.8378
233.8612, 979.6861
234.3433, 969.0724
234.8254, 958.8500
235.3075, 964.2991
235.7896, 982.0707
236.2718, 993.4675
236.7539, 991.3583
237.2360, 983.2342
237.7181, 979.1915
238.2002, 979.8334
238.6823, 978.3557
239.1645, 970.1182
239.6466, 957.0284
240.1287, 943.8818
240.6108, 930.5791
241.0929, 919.5916
241.5750, 913.2013
242.0572, 910.9946
242.5393, 913.3635
243.0214, 926.4822
243.5035, 942.8939
243.9856, 947.2094
244.4677, 934.6865
244.9499, 920.4529
245.4320, 920.5281
245.9141, 932.7090
246.3962, 945.4760
246.8783, 959.1148
247.3604, 970.7813
247.8426, 976.0933
248.3247, 974.5129
248.8068, 971.2000
249.2889, 969.9832
249.7710, 970.5706
250.2531, 970.6024
250.7352, 971.9144
251.2174, 971.1137
251.6995, 964.9533
252.1816, 953.6972
252.6637, 939.7546
253.1458, 922.5818
253.6279, 904.3560
254.1101, 894.7209
254.5922, 900.8355
255.0743, 908.1047
255.5564, 910.4017
256.0385, 908.1063
256.5207, 901.7286
257.0028, 890.3278
257.4849, 876.3024
257.9670, 867.9962
258.4491, 871.4322
258.9312, 870.8446
259.4134, 854.3500
259.8955, 831.9277
260.3776, 823.1437
260.8597, 836.4614
261.3418, 860.1754
261.8239, 871.1940
262.3060, 864.7695
262.7881, 855.5541
263.2703, 839.8953
263.7524, 824.6078
264.2345, 817.7846
264.7166, 821.3265
265.1987, 830.1896
265.6808, 838.1754
266.1630, 846.2321
266.6451, 849.9935
267.1272, 842.8885
267.6093, 836.4161
268.0914, 841.8784
268.5735, 858.4868
269.0557, 873.7399
269.5378, 874.3956
270.0199, 856.7571
270.5020, 851.2338
270.9841, 868.6331
271.4662, 885.1349
271.9484, 890.1111
272.4305, 885.3057
272.9126, 877.2804
273.3947, 870.3403
273.8768, 864.5204
274.3589, 859.9988
274.8411, 861.5872
275.3232, 859.1589
275.8053, 847.0341
276.2874, 830.4760
276.7695, 816.4663
277.2516, 808.3666
277.7338, 805.8854
278.2159, 808.6476
278.6980, 822.1868
279.1801, 832.6210
279.6622, 835.1652
280.1443, 836.0298
280.6265, 840.8540
281.1086, 851.3621
281.5907, 865.1996
282.0728, 879.9179
282.5549, 898.4594
283.0370, 909.1842
283.5192, 903.4863
284.0013, 896.1431
284.4834, 899.2366
284.9655, 911.7143
285.4476, 919.8724
285.9297, 905.4764
286.4119, 866.0541
286.8940, 840.0212
287.3761, 835.3853
287.8582, 837.1869
288.3403, 839.7480
288.8224, 843.0909
289.3046, 848.2355
289.7867, 855.1060
290.2688, 864.3330
290.7509, 878.8401
291.2330, 900.8430
291.7151, 924.0114
292.1973, 946.2747
292.6794, 967.6149
293.1615, 987.6345
293.6436, 1005.496
294.1257, 1023.152
294.6078, 1044.560
295.0900, 1070.438
295.5721, 1094.027
296.0542, 1108.524
296.5363, 1121.605
297.0184, 1143.673
297.5005, 1178.841
297.9827, 1212.599
298.4648, 1232.988
298.9469, 1242.145
299.4290, 1251.890
299.9111, 1267.336
300.3932, 1281.370
300.8754, 1285.485
301.3575, 1280.123
301.8396, 1268.587
302.3217, 1247.455
302.8038, 1222.312
303.2859, 1203.365
303.7681, 1192.894
304.2502, 1181.869
304.7323, 1159.649
305.2144, 1126.424
305.6965, 1100.299
306.1786, 1086.969
306.6608, 1077.611
307.1429, 1068.638
307.6250, 1058.737
308.1071, 1041.918
308.5892, 1011.961
309.0714, 972.1627
309.5535, 946.6967
310.0356, 946.4387
310.5177, 945.1776
310.9998, 932.4319
311.4819, 913.9223
311.9640, 899.4344
312.4461, 893.0086
312.9283, 892.0412
313.4104, 890.6093
313.8925, 884.3054
314.3746, 884.3917
314.8567, 897.4419
315.3388, 912.6587
315.8210, 919.2075
316.3031, 916.1478
316.7852, 912.5355
317.2673, 919.8676
317.7494, 941.9625
318.2315, 958.3391
318.7137, 965.2338
319.1958, 970.3533
319.6779, 973.6364
320.1600, 977.5327
320.6421, 987.4468
321.1242, 1008.802
321.6064, 1038.847
322.0885, 1059.464
322.5706, 1065.587
323.0527, 1069.173
323.5348, 1075.501
324.0169, 1080.575
324.4991, 1079.813
324.9812, 1071.489
325.4633, 1056.590
325.9454, 1034.744
326.4275, 1004.161
326.9096, 975.7817
327.3918, 949.3201
327.8739, 928.4388
328.3560, 917.3409
328.8381, 916.2767
329.3202, 918.1709
329.8023, 919.8705
330.2845, 920.6502
330.7666, 915.7861
331.2487, 900.7691
331.7308, 887.7356
332.2129, 889.8421
332.6950, 902.7570
333.1772, 912.1530
333.6593, 911.1909
334.1414, 905.9760
334.6235, 904.6241
335.1056, 907.2576
335.5877, 907.1082
336.0699, 898.8262
336.5520, 885.1096
337.0341, 875.9131
337.5162, 874.8995
337.9983, 873.5252
338.4804, 867.0378
338.9626, 857.5994
339.4447, 849.7095
339.9268, 845.0143
340.4089, 842.1722
340.8910, 838.7125
341.3731, 832.9949
341.8553, 830.6144
342.3374, 834.3806
342.8195, 839.8386
343.3016, 843.9307
343.7837, 846.0854
344.2658, 846.7206
344.7480, 846.3562
345.2301, 845.1129
345.7122, 840.7635
346.1943, 830.1331
346.6764, 819.9557
347.1585, 812.3206
347.6407, 806.5477
348.1228, 801.3615
348.6049, 796.1013
349.0870, 790.8375
349.5691, 785.1989
350.0512, 776.7530
350.5334, 773.1494
351.0155, 778.7491
351.4976, 786.8232
351.9797, 792.8322
352.4618, 795.7647
352.9439, 796.7105
353.4261, 796.2286
353.9082, 794.3344
354.3903, 792.4883
354.8724, 787.7255
355.3545, 787.4036
355.8366, 798.0742
356.3188, 816.3892
356.8009, 832.8372
357.2830, 843.1244
357.7651, 848.9962
358.2472, 850.7703
358.7293, 847.4492
359.2115, 850.7144
359.6936, 871.1997
360.1757, 900.4008
360.6578, 919.4230
361.1399, 921.4832
361.6220, 925.4916
362.1041, 941.5330
362.5862, 966.8123
363.0684, 996.7045
363.5505, 1030.602
364.0326, 1064.853
364.5147, 1094.837
364.9968, 1120.316
365.4789, 1141.446
365.9611, 1160.258
366.4432, 1172.946
366.9253, 1175.905
367.4074, 1169.671
367.8895, 1157.663
368.3716, 1142.317
368.8538, 1123.448
369.3359, 1099.454
369.8180, 1059.022
370.3001, 1026.737
370.7822, 1015.125
371.2643, 1010.433
371.7465, 994.5875
372.2286, 961.3890
372.7107, 921.6324
373.1928, 892.7001
373.6749, 876.9049
374.1570, 864.2745
374.6392, 854.5051
375.1213, 847.6627
375.6034, 845.6761
376.0855, 847.2495
376.5676, 847.7830
377.0497, 842.6440
377.5319, 833.9769
378.0140, 829.1149
378.4961, 827.4484
378.9782, 831.2078
379.4603, 844.5500
379.9424, 863.1558
380.4246, 882.5372
380.9067, 902.7473
381.3888, 921.5451
381.8709, 935.3945
382.3530, 945.7863
382.8351, 959.5688
383.3173, 979.0902
383.7994, 1001.990
384.2815, 1025.564
384.7636, 1049.923
385.2457, 1073.854
385.7278, 1093.499
386.2100, 1115.097
386.6921, 1145.160
387.1742, 1183.331
387.6563, 1224.095
388.1384, 1263.652
388.6205, 1302.087
389.1027, 1342.535
389.5848, 1388.682
390.0669, 1432.181
390.5490, 1478.492
391.0311, 1518.569
391.5132, 1541.847
391.9954, 1544.870
392.4775, 1531.766
392.9596, 1508.603
393.4417, 1475.479
393.9238, 1431.391
394.4059, 1362.952
394.8881, 1295.108
395.3702, 1240.498
395.8523, 1196.055
396.3344, 1150.833
396.8165, 1096.581
397.2986, 1037.750
397.7808, 986.0862
398.2629, 941.0448
398.7450, 905.2345
399.2271, 885.6678
399.7092, 873.3225
400.1913, 859.5032
400.6735, 843.4808
401.1556, 824.7182
401.6377, 798.4323
402.1198, 769.3165
402.6019, 750.6082
403.0840, 746.4973
403.5662, 746.3376
404.0483, 739.0686
404.5304, 724.4799
405.0125, 714.2806
405.4946, 713.5174
405.9767, 713.3040
406.4589, 707.9053
406.9410, 698.5639
407.4231, 688.7635
407.9052, 679.9842
408.3873, 672.9438
408.8694, 669.6315
409.3516, 673.1972
409.8336, 676.1248
410.3158, 678.3633
410.7979, 679.9033
411.2800, 681.5513
411.7621, 682.8434
412.2442, 681.6631
412.7263, 675.7422
413.2085, 665.2421
413.6906, 653.0327
414.1727, 632.0228
414.6548, 620.7153
415.1369, 633.4583
415.6190, 655.7396
416.1012, 667.6082
416.5833, 661.3593
417.0654, 648.6966
417.5475, 642.3893
418.0296, 641.6374
418.5117, 638.1589
418.9939, 628.7233
419.4760, 618.2171
419.9581, 611.5033
420.4402, 608.2368
420.9223, 608.2841
421.4044, 613.9183
421.8866, 621.2212
422.3687, 628.9594
422.8508, 635.8646
423.3329, 636.0201
423.8150, 624.6143
424.2971, 605.7761
424.7793, 594.0956
425.2614, 595.1237
425.7435, 596.0671
426.2256, 598.2028
426.7077, 598.6488
427.1898, 591.7026
427.6720, 578.3648
428.1541, 568.5026
428.6362, 573.9827
429.1183, 595.2714
429.6004, 608.3419
430.0826, 607.7802
430.5647, 605.6195
431.0468, 606.1404
431.5289, 607.3550
432.0110, 605.4950
432.4931, 598.3564
432.9753, 591.8947
433.4574, 593.6303
433.9395, 603.2732
434.4216, 615.4810
434.9037, 631.7264
435.3858, 646.3331
435.8680, 652.5323
436.3501, 651.3849
436.8322, 649.7137
437.3143, 647.5043
437.7964, 646.7682
438.2785, 650.8174
438.7607, 658.5270
439.2428, 664.3322
439.7249, 664.9498
440.2070, 662.4439
440.6891, 662.5470
441.1712, 664.9528
441.6534, 670.6760
442.1355, 682.8079
442.6176, 696.1413
443.0997, 705.7053
443.5818, 711.7515
444.0639, 718.9256
444.5461, 732.4863
445.0282, 751.1974
445.5103, 761.4922
445.9924, 760.7899
446.4745, 755.3017
446.9566, 742.4846
447.4388, 728.5491
447.9209, 722.1771
448.4030, 726.1942
448.8851, 728.9078
449.3672, 716.2981
449.8493, 692.1517
450.3315, 674.7185
450.8136, 667.3787
451.2957, 664.9100
451.7778, 665.1115
452.2599, 667.1252
452.7420, 665.9769
453.2242, 658.8965
453.7063, 650.7736
454.1884, 644.2344
454.6705, 638.7512
455.1526, 632.6906
455.6347, 625.3697
456.1169, 618.2708
456.5990, 614.0491
457.0811, 614.4313
457.5632, 613.1564
458.0453, 606.4850
458.5274, 601.8978
459.0095, 605.4331
459.4916, 614.0550
459.9738, 619.7921
460.4559, 617.0926
460.9380, 610.7423
461.4201, 613.0900
461.9022, 626.5967
462.3843, 638.4649
462.8665, 645.4694
463.3486, 649.6306
463.8307, 651.9799
464.3128, 652.6948
464.7949, 653.6698
465.2770, 653.8894
465.7592, 655.8170
466.2413, 665.3840
466.7234, 682.3424
467.2055, 696.1374
467.6876, 700.0853
468.1697, 696.9730
468.6519, 696.3902
469.1340, 698.4455
469.6161, 702.4099
470.0982, 711.8642
470.5803, 720.9035
471.0624, 722.9854
471.5446, 718.0779
472.0267, 711.6456
472.5088, 708.3200
472.9909, 707.9619
473.4730, 708.7103
473.9551, 710.9894
474.4373, 713.7793
474.9194, 720.0786
475.4015, 725.0084
475.8836, 722.0280
476.3657, 709.5439
476.8478, 696.3788
477.3300, 690.7590
477.8121, 690.7692
478.2942, 690.0136
478.7763, 688.2206
479.2584, 683.8801
479.7405, 674.0144
480.2227, 660.3990
480.7048, 651.6137
481.1869, 649.5771
481.6690, 650.4789
482.1511, 656.2845
482.6332, 662.9583
483.1154, 662.9387
483.5975, 654.6954
484.0796, 645.3545
484.5617, 643.5939
485.0438, 650.4184
485.5259, 656.5005
486.0081, 660.2347
486.4902, 664.9263
486.9723, 673.3464
487.4544, 682.5360
487.9365, 688.4140
488.4186, 689.4198
488.9008, 687.7161
489.3829, 684.5853
489.8650, 680.3329
490.3471, 679.9824
490.8292, 686.9349
491.3113, 692.5347
491.7935, 687.6671
492.2756, 675.1553
492.7577, 664.4199
493.2398, 656.9380
493.7219, 651.4170
494.2040, 648.9579
494.6862, 647.6548
495.1683, 643.6935
495.6504, 635.8395
496.1325, 625.0027
496.6146, 611.2855
497.0967, 591.8602
497.5789, 582.6517
498.0610, 592.0891
498.5431, 602.0833
499.0252, 610.4170
499.5073, 614.0082
499.9894, 606.7877
500.4716, 585.2853
500.9537, 560.7838
501.4358, 549.3024
501.9179, 550.7929
502.4000, 553.6299
502.8821, 557.2687
503.3643, 560.0591
503.8464, 560.3469
504.3285, 558.6501
504.8106, 556.4609
505.2927, 554.6988
505.7748, 551.9306
506.2570, 546.4758
506.7391, 539.4055
507.2212, 532.3546
507.7033, 525.7834
508.1854, 521.7769
508.6675, 523.6581
509.1496, 533.1359
509.6317, 540.5089
510.1139, 550.6456
510.5960, 553.5353
511.0781, 536.8405
511.5602, 513.2108
512.0424, 503.7141
512.5245, 517.4306
513.0066, 537.9502
513.4887, 543.0481
513.9708, 533.5911
514.4529, 527.1005
514.9351, 526.6706
515.4172, 528.0620
515.8993, 527.3997
516.3814, 525.7202
516.8635, 526.7243
517.3456, 533.1125
517.8278, 539.9800
518.3099, 544.3445
518.7920, 547.5540
519.2741, 552.7286
519.7562, 560.6026
520.2383, 567.6387
520.7205, 569.2253
521.2026, 564.5817
521.6847, 562.2804
522.1668, 562.6436
522.6489, 565.2579
523.1310, 571.3950
523.6132, 579.1611
524.0953, 586.6278
524.5774, 593.2202
525.0595, 598.6301
525.5416, 600.4055
526.0237, 600.2367
526.5059, 606.9980
526.9880, 623.2624
527.4701, 639.7525
527.9522, 649.8743
528.4343, 655.0400
528.9164, 662.1315
529.3986, 675.3530
529.8807, 684.7148
530.3628, 684.6451
530.8449, 680.3282
531.3270, 675.1976
531.8091, 671.2365
532.2913, 674.1337
532.7734, 691.2845
533.2554, 720.2189
533.7375, 733.4176
534.2197, 716.2264
534.7018, 709.1705
535.1839, 725.2985
535.6660, 752.8378
536.1481, 783.3063
536.6302, 815.1062
537.1124, 847.7581
537.5945, 882.2624
538.0766, 916.7834
538.5587, 945.9547
539.0408, 969.9180
539.5229, 996.8633
540.0051, 1029.346
540.4872, 1069.413
540.9693, 1122.711
541.4514, 1198.325
541.9335, 1269.732
542.4156, 1324.151
542.8978, 1383.145
543.3799, 1461.042
543.8620, 1556.685
544.3441, 1661.941
544.8262, 1770.422
545.3083, 1889.066
545.7905, 2035.689
546.2726, 2213.539
546.7547, 2398.551
547.2368, 2587.187
547.7189, 2782.252
548.2010, 2989.771
548.6832, 3206.436
549.1653, 3419.226
549.6474, 3616.089
550.1295, 3816.914
550.6116, 4050.621
551.0938, 4299.080
551.5759, 4527.014
552.0580, 4721.446
552.5401, 4882.914
553.0222, 5010.347
553.5043, 5105.657
553.9865, 5157.033
554.4686, 5158.546
554.9507, 5118.830
555.4328, 5034.957
555.9149, 4912.199
556.3970, 4752.076
556.8792, 4554.773
557.3613, 4339.988
557.8434, 4118.969
558.3255, 3896.219
558.8076, 3682.705
559.2897, 3479.389
559.7719, 3285.460
560.2540, 3098.044
560.7361, 2919.914
561.2182, 2757.527
561.7003, 2610.620
562.1824, 2477.192
562.6646, 2356.878
563.1467, 2248.802
563.6288, 2155.747
564.1109, 2074.343
564.5930, 1992.729
565.0751, 1901.013
565.5573, 1806.178
566.0394, 1729.948
566.5215, 1675.534
567.0036, 1625.328
567.4857, 1579.810
567.9678, 1532.947
568.4500, 1473.342
568.9321, 1404.829
569.4142, 1354.146
569.8963, 1343.576
570.3784, 1339.724
570.8605, 1319.579
571.3427, 1287.073
571.8248, 1250.013
572.3069, 1211.086
572.7890, 1173.836
573.2711, 1142.885
573.7532, 1118.816
574.2354, 1096.747
574.7175, 1078.150
575.1996, 1059.920
575.6817, 1043.471
576.1638, 1026.024
576.6459, 1002.584
577.1281, 971.9816
577.6102, 943.5277
578.0923, 927.2834
578.5744, 917.4517
579.0565, 901.2371
579.5386, 877.9005
580.0208, 854.5565
580.5029, 834.1335
580.9850, 817.5042
581.4671, 807.0918
581.9492, 808.7556
582.4313, 806.9884
582.9135, 799.2036
583.3956, 790.2845
583.8777, 785.5678
584.3598, 782.1161
584.8419, 771.0958
585.3240, 746.1240
585.8062, 718.9393
586.2883, 710.3781
586.7704, 719.5859
587.2525, 723.3721
587.7346, 716.0154
588.2167, 707.6791
588.6989, 708.1257
589.1810, 715.4803
589.6631, 717.5801
590.1452, 710.4338
590.6273, 702.5332
591.1094, 694.1063
591.5916, 687.7407
592.0737, 687.6165
592.5558, 693.4336
593.0379, 700.4862
593.5200, 705.8684
594.0021, 708.5994
594.4843, 701.5660
594.9664, 678.6178
595.4485, 667.8905
595.9306, 687.8189
596.4127, 713.2562
596.8948, 717.5402
597.3770, 702.2625
597.8591, 692.6085
598.3412, 699.8055
598.8233, 711.3802
599.3054, 718.5882
599.7875, 723.0655
600.2697, 729.4497
600.7518, 739.1411
601.2339, 749.0350
601.7160, 754.6533
602.1981, 755.5667
602.6802, 760.2856
603.1624, 773.7986
603.6445, 783.4921
604.1266, 780.7547
604.6087, 775.0953
605.0908, 776.6144
605.5729, 786.9113
606.0551, 800.3043
606.5372, 816.5181
607.0193, 832.4022
607.5014, 842.0184
607.9835, 846.7654
608.4656, 855.8610
608.9478, 874.3070
609.4299, 895.9054
609.9120, 908.7220
610.3941, 909.2076
610.8762, 912.0287
611.3583, 914.5408
611.8405, 922.3160
612.3226, 942.9387
612.8047, 968.2230
613.2868, 983.9614
613.7689, 984.3958
614.2510, 987.1218
614.7332, 1012.377
615.2153, 1048.792
615.6974, 1070.883
616.1795, 1076.783
616.6616, 1080.630
617.1437, 1090.759
617.6259, 1105.041
618.1080, 1117.605
618.5901, 1127.321
619.0722, 1137.259
619.5543, 1141.383
620.0364, 1151.421
620.5186, 1180.536
621.0007, 1219.488
621.4828, 1248.319
621.9649, 1257.988
622.4470, 1258.505
622.9291, 1256.371
623.4113, 1253.858
623.8934, 1260.373
624.3755, 1277.740
624.8576, 1297.481
625.3397, 1314.481
625.8218, 1328.607
626.3040, 1339.372
626.7861, 1345.520
627.2682, 1349.782
627.7503, 1348.780
628.2324, 1348.884
628.7145, 1353.755
629.1967, 1363.510
629.6788, 1378.736
630.1609, 1402.638
630.6430, 1424.014
631.1251, 1423.027
631.6072, 1404.257
632.0893, 1394.457
632.5714, 1399.818
633.0535, 1405.997
633.5356, 1400.470
634.0178, 1385.446
634.4999, 1377.622
634.9820, 1387.725
635.4641, 1389.928
635.9462, 1375.165
636.4283, 1356.615
636.9105, 1344.860
