##NAMES=Kolbeckite
##RRUFFID=R060981
##IDEAL CHEMISTRY=Sc^3+^P^5+^O_4_&#183;2H_2_O
##LOCALITY=Hot Springs County, Arkansas, USA
##OWNER=RRUFF
##SOURCE=Bob Jenkins
##DESCRIPTION=Greenish-yellow prismatic single crystal. Used in the Yang et al (2007) study
##STATUS=The identification of this mineral is confirmed by single-crystal X-ray diffraction and chemical analysis.
##URL=rruff.info/R060981
##MEASURED CHEMISTRY=(Sc_0.94_V^3+^_0.03_Fe^3+^_0.02_Al_0.01_)_Σ=1_P_1.00_O_4_·2H_2_O
136.4677, 12552.57
136.9499, 12680.25
137.4320, 12832.18
137.9141, 13013.99
138.3962, 13205.70
138.8783, 13386.38
139.3604, 13551.55
139.8426, 13717.77
140.3247, 13889.03
140.8068, 14063.06
141.2889, 14253.72
141.7710, 14474.14
142.2531, 14699.53
142.7353, 14884.77
143.2174, 15016.78
143.6995, 15127.37
144.1816, 15226.87
144.6637, 15312.69
145.1458, 15392.92
145.6280, 15470.69
146.1101, 15542.81
146.5922, 15598.64
147.0743, 15637.42
147.5564, 15659.89
148.0385, 15665.44
148.5207, 15640.76
149.0028, 15616.99
149.4849, 15599.77
149.9670, 15589.87
150.4491, 15572.76
150.9312, 15550.60
151.4134, 15521.86
151.8955, 15485.60
152.3776, 15426.35
152.8597, 15376.78
153.3418, 15334.92
153.8239, 15291.28
154.3061, 15301.34
154.7882, 15440.41
155.2703, 15621.49
155.7524, 15725.19
156.2345, 15651.94
156.7166, 15561.54
157.1988, 15510.58
157.6809, 15510.04
158.1630, 15538.53
158.6451, 15608.18
159.1272, 15702.96
159.6093, 15787.74
160.0915, 15845.86
160.5736, 15891.67
161.0557, 15932.97
161.5378, 15964.82
162.0199, 15999.22
162.5020, 16049.73
162.9841, 16110.31
163.4663, 16153.15
163.9484, 16148.41
164.4305, 16128.21
164.9126, 16121.50
165.3947, 16152.76
165.8768, 16189.04
166.3590, 16216.27
166.8411, 16234.53
167.3232, 16242.95
167.8053, 16234.69
168.2874, 16218.12
168.7695, 16204.67
169.2517, 16198.78
169.7338, 16198.64
170.2159, 16202.79
170.6980, 16211.05
171.1801, 16224.32
171.6622, 16247.31
172.1444, 16276.00
172.6265, 16301.57
173.1086, 16311.13
173.5907, 16318.12
174.0728, 16342.20
174.5549, 16392.10
175.0371, 16441.15
175.5192, 16449.95
176.0013, 16430.56
176.4834, 16427.99
176.9655, 16486.33
177.4476, 16577.86
177.9298, 16655.31
178.4119, 16706.08
178.8940, 16743.43
179.3761, 16785.64
179.8582, 16831.74
180.3403, 16876.21
180.8225, 16914.47
181.3046, 16947.41
181.7867, 16978.06
182.2688, 17003.52
182.7509, 17028.87
183.2330, 17061.80
183.7152, 17101.54
184.1973, 17151.60
184.6794, 17234.27
185.1615, 17337.68
185.6436, 17402.63
186.1257, 17380.86
186.6079, 17306.60
187.0900, 17291.26
187.5721, 17342.07
188.0542, 17411.23
188.5363, 17440.96
189.0184, 17434.34
189.5006, 17428.53
189.9827, 17444.37
190.4648, 17477.01
190.9469, 17493.57
191.4290, 17486.21
191.9111, 17481.33
192.3932, 17534.00
192.8754, 17646.00
193.3575, 17742.62
193.8396, 17778.37
194.3217, 17757.26
194.8038, 17733.38
195.2859, 17706.92
195.7681, 17684.95
196.2502, 17685.15
196.7323, 17710.46
197.2144, 17738.37
197.6965, 17750.79
198.1786, 17747.12
198.6608, 17757.26
199.1429, 17788.33
199.6250, 17833.40
200.1071, 17869.32
200.5892, 17892.23
201.0714, 17920.03
201.5535, 17969.93
202.0356, 18044.56
202.5177, 18114.05
202.9998, 18172.10
203.4819, 18220.39
203.9641, 18264.53
204.4462, 18301.87
204.9283, 18340.60
205.4104, 18395.63
205.8925, 18476.01
206.3746, 18526.55
206.8568, 18520.33
207.3389, 18463.10
207.8210, 18466.46
208.3031, 18551.16
208.7852, 18660.59
209.2673, 18729.46
209.7495, 18748.52
210.2316, 18762.15
210.7137, 18783.69
211.1958, 18814.51
211.6779, 18835.99
212.1600, 18845.64
212.6422, 18850.10
213.1243, 18858.76
213.6064, 18873.37
214.0885, 18886.67
214.5706, 18898.20
215.0527, 18909.87
215.5349, 18902.91
216.0170, 18868.26
216.4991, 18821.01
216.9812, 18791.65
217.4633, 18792.19
217.9454, 18783.85
218.4276, 18748.01
218.9097, 18673.18
219.3918, 18610.58
219.8739, 18568.79
220.3560, 18536.24
220.8381, 18482.63
221.3203, 18395.87
221.8024, 18312.03
222.2845, 18250.32
222.7666, 18221.17
223.2487, 18186.50
223.7308, 18140.02
224.2129, 18089.28
224.6951, 18059.40
225.1772, 18062.88
225.6593, 18067.65
226.1414, 18054.68
226.6235, 18012.00
227.1056, 17977.46
227.5878, 17949.85
228.0699, 17931.20
228.5520, 17932.87
229.0341, 17970.47
229.5162, 18006.65
229.9983, 18016.03
230.4805, 17979.75
230.9626, 17957.00
231.4447, 17959.38
231.9268, 17982.17
232.4089, 17988.18
232.8910, 17957.73
233.3732, 17934.93
233.8553, 17955.84
234.3374, 18057.07
234.8195, 18130.37
235.3016, 18153.83
235.7837, 18131.71
236.2659, 18126.07
236.7480, 18145.85
237.2301, 18172.64
237.7122, 18190.57
238.1943, 18189.06
238.6764, 18199.54
239.1586, 18229.87
239.6407, 18280.22
240.1228, 18328.21
240.6049, 18372.89
241.0870, 18416.57
241.5691, 18459.62
242.0513, 18494.06
242.5334, 18542.66
243.0155, 18616.26
243.4976, 18716.19
243.9797, 18791.89
244.4618, 18828.36
244.9440, 18852.47
245.4261, 18891.46
245.9082, 18951.67
246.3903, 19013.16
246.8724, 19069.49
247.3545, 19119.13
247.8367, 19183.33
248.3188, 19274.11
248.8009, 19368.23
249.2830, 19439.16
249.7651, 19480.34
250.2472, 19511.28
250.7294, 19531.87
251.2115, 19539.47
251.6936, 19568.06
252.1757, 19622.52
252.6578, 19695.30
253.1399, 19783.81
253.6220, 19907.05
254.1042, 20009.98
254.5863, 20071.16
255.0684, 20082.87
255.5505, 20113.77
256.0326, 20171.95
256.5147, 20241.63
256.9969, 20302.88
257.4790, 20349.91
257.9611, 20399.45
258.4432, 20461.71
258.9253, 20543.07
259.4074, 20591.31
259.8896, 20597.57
260.3717, 20578.31
260.8538, 20554.32
261.3359, 20521.60
261.8180, 20492.05
262.3001, 20469.03
262.7823, 20453.13
263.2644, 20440.02
263.7465, 20431.34
264.2286, 20423.75
264.7107, 20413.54
265.1928, 20402.31
265.6750, 20384.15
266.1571, 20350.47
266.6392, 20295.99
267.1213, 20275.86
267.6034, 20302.49
268.0855, 20350.51
268.5677, 20381.33
269.0498, 20391.53
269.5319, 20396.89
270.0140, 20401.76
270.4961, 20406.02
270.9782, 20415.17
271.4604, 20432.84
271.9425, 20451.25
272.4246, 20451.84
272.9067, 20425.18
273.3888, 20419.11
273.8709, 20462.96
274.3531, 20560.95
274.8352, 20620.34
275.3173, 20629.54
275.7994, 20616.62
276.2815, 20628.32
276.7636, 20669.90
277.2458, 20702.27
277.7279, 20708.95
278.2100, 20689.48
278.6921, 20657.13
279.1742, 20604.61
279.6563, 20552.83
280.1385, 20540.12
280.6206, 20570.54
281.1027, 20595.97
281.5848, 20591.67
282.0669, 20559.63
282.5490, 20544.70
283.0312, 20552.09
283.5133, 20563.97
283.9954, 20548.81
284.4775, 20505.36
284.9596, 20474.08
285.4417, 20479.24
285.9239, 20515.10
286.4060, 20533.15
286.8881, 20530.30
287.3702, 20520.64
287.8523, 20515.70
288.3344, 20516.17
288.8166, 20536.19
289.2987, 20598.71
289.7808, 20689.07
290.2629, 20737.19
290.7450, 20736.94
291.2271, 20721.72
291.7093, 20728.10
292.1914, 20754.48
292.6735, 20790.08
293.1556, 20835.33
293.6377, 20886.31
294.1198, 20930.81
294.6020, 20969.12
295.0841, 21004.20
295.5662, 21032.85
296.0483, 21059.93
296.5304, 21103.10
297.0125, 21175.79
297.4947, 21268.68
297.9768, 21364.83
298.4589, 21465.24
298.9410, 21561.77
299.4231, 21635.18
299.9052, 21695.92
300.3873, 21770.71
300.8694, 21867.00
301.3516, 21982.84
301.8337, 22124.27
302.3158, 22291.40
302.7979, 22457.29
303.2800, 22608.67
303.7621, 22741.86
304.2443, 22854.11
304.7264, 22920.30
305.2085, 22976.89
305.6906, 23070.35
306.1727, 23197.80
306.6548, 23319.36
307.1370, 23396.19
307.6191, 23450.88
308.1012, 23514.44
308.5833, 23598.52
309.0654, 23695.01
309.5475, 23807.13
310.0297, 23931.29
310.5118, 24039.91
310.9939, 24101.12
311.4760, 24141.85
311.9581, 24192.34
312.4402, 24273.61
312.9224, 24354.96
313.4045, 24421.32
313.8866, 24474.03
314.3687, 24516.55
314.8508, 24537.33
315.3329, 24555.60
315.8151, 24587.79
316.2972, 24648.17
316.7793, 24712.31
317.2614, 24776.06
317.7435, 24837.80
318.2256, 24890.20
318.7078, 24916.98
319.1899, 24942.45
319.6720, 24984.21
320.1541, 25071.67
320.6362, 25137.85
321.1183, 25146.92
321.6005, 25116.81
322.0826, 25101.39
322.5647, 25135.89
323.0468, 25170.61
323.5289, 25180.18
324.0110, 25148.28
324.4932, 25112.35
324.9753, 25080.72
325.4574, 25048.53
325.9395, 25005.39
326.4216, 24942.55
326.9037, 24874.91
327.3859, 24808.29
327.8680, 24748.36
328.3501, 24678.33
328.8322, 24585.15
329.3143, 24485.79
329.7964, 24409.30
330.2786, 24387.14
330.7607, 24352.41
331.2428, 24280.76
331.7249, 24158.04
332.2070, 24052.82
332.6891, 23974.48
333.1713, 23908.50
333.6534, 23833.89
334.1355, 23745.69
334.6176, 23656.92
335.0997, 23564.01
335.5818, 23463.73
336.0640, 23407.17
336.5461, 23420.78
337.0282, 23444.54
337.5103, 23400.68
337.9924, 23262.64
338.4745, 23148.52
338.9567, 23098.61
339.4388, 23105.87
339.9209, 23067.34
340.4030, 22971.24
340.8851, 22860.21
341.3672, 22778.83
341.8494, 22728.34
342.3315, 22682.84
342.8136, 22641.30
343.2957, 22600.13
343.7778, 22540.75
344.2599, 22462.47
344.7421, 22379.09
345.2242, 22297.70
345.7063, 22219.14
346.1884, 22161.22
346.6705, 22132.30
347.1526, 22118.01
347.6348, 22087.73
348.1169, 22042.05
348.5990, 21999.54
349.0811, 21969.25
349.5632, 21951.68
350.0453, 21954.80
350.5275, 21987.60
351.0096, 22020.41
351.4917, 22007.41
351.9738, 21958.07
352.4559, 21913.39
352.9380, 21913.36
353.4202, 21927.76
353.9023, 21908.67
354.3844, 21845.12
354.8665, 21781.33
355.3486, 21765.14
355.8307, 21778.11
356.3129, 21781.57
356.7950, 21735.43
357.2771, 21686.37
357.7592, 21683.37
358.2413, 21733.64
358.7234, 21770.99
359.2056, 21740.05
359.6877, 21677.45
360.1698, 21630.25
360.6519, 21605.08
361.1340, 21607.80
361.6161, 21660.84
362.0982, 21761.39
362.5804, 21831.02
363.0625, 21819.71
363.5446, 21776.53
364.0267, 21742.24
364.5088, 21719.94
364.9909, 21714.24
365.4731, 21740.58
365.9552, 21791.94
366.4373, 21820.90
366.9194, 21792.21
367.4015, 21759.69
367.8836, 21751.77
368.3658, 21783.26
368.8479, 21823.97
369.3300, 21889.30
369.8121, 21964.44
370.2942, 22003.18
370.7763, 21969.87
371.2585, 21940.44
371.7406, 21946.62
372.2227, 22006.88
372.7048, 22051.14
373.1869, 22074.13
373.6690, 22082.94
374.1512, 22087.58
374.6333, 22082.76
375.1154, 22085.30
375.5975, 22102.47
376.0796, 22135.46
376.5617, 22164.34
377.0439, 22185.47
377.5260, 22210.50
378.0081, 22261.01
378.4902, 22342.59
378.9723, 22401.67
379.4544, 22415.19
379.9366, 22397.63
380.4187, 22411.35
380.9008, 22459.33
381.3829, 22520.83
381.8650, 22579.32
382.3471, 22636.25
382.8293, 22695.41
383.3114, 22756.65
383.7935, 22821.85
384.2756, 22900.63
384.7577, 22990.69
385.2398, 23073.96
385.7220, 23129.57
386.2041, 23172.25
386.6862, 23230.06
387.1683, 23308.34
387.6504, 23397.08
388.1325, 23491.82
388.6147, 23590.42
389.0968, 23683.76
389.5789, 23774.34
390.0610, 23855.29
390.5431, 23916.95
391.0252, 23957.76
391.5074, 23994.39
391.9895, 24044.53
392.4716, 24095.87
392.9537, 24131.41
393.4358, 24105.54
393.9179, 24100.19
394.4001, 24176.60
394.8822, 24330.88
395.3643, 24438.50
395.8464, 24423.67
396.3285, 24369.23
396.8106, 24336.21
397.2928, 24342.63
397.7749, 24360.12
398.2570, 24396.23
398.7391, 24443.56
399.2212, 24470.05
399.7033, 24480.01
400.1855, 24464.24
400.6676, 24413.74
401.1497, 24296.25
401.6318, 24214.68
402.1139, 24182.93
402.5960, 24181.03
403.0782, 24171.03
403.5603, 24143.10
404.0424, 24128.98
404.5245, 24150.97
405.0066, 24214.32
405.4887, 24218.56
405.9709, 24144.86
406.4530, 24048.36
406.9351, 23991.05
407.4172, 23976.35
407.8993, 23959.87
408.3814, 23926.48
408.8636, 23884.77
409.3457, 23868.68
409.8278, 23879.65
410.3099, 23892.67
410.7920, 23879.83
411.2741, 23850.57
411.7563, 23845.06
412.2384, 23878.59
412.7205, 23920.63
413.2026, 23917.33
413.6847, 23880.79
414.1668, 23864.70
414.6490, 23929.83
415.1311, 24019.71
415.6132, 24051.71
416.0953, 24008.74
416.5774, 23972.26
417.0595, 24018.92
417.5417, 24108.92
418.0238, 24181.44
418.5059, 24196.48
418.9880, 24199.35
419.4701, 24209.83
419.9522, 24229.37
420.4344, 24263.73
420.9165, 24321.96
421.3986, 24392.73
421.8807, 24468.41
422.3628, 24561.39
422.8449, 24643.22
423.3270, 24700.81
423.8091, 24741.58
424.2913, 24791.93
424.7734, 24852.48
425.2555, 24923.99
425.7376, 25010.28
426.2197, 25127.59
426.7018, 25214.65
427.1840, 25250.52
427.6661, 25268.92
428.1482, 25318.08
428.6303, 25403.84
429.1124, 25510.04
429.5945, 25644.96
430.0767, 25804.63
430.5588, 25912.84
431.0409, 25951.58
431.5230, 25984.39
432.0051, 26079.69
432.4872, 26239.68
432.9694, 26372.38
433.4515, 26459.71
433.9336, 26517.92
434.4157, 26579.77
434.8978, 26645.50
435.3799, 26714.42
435.8621, 26790.62
436.3442, 26869.80
436.8263, 26938.81
437.3084, 26995.63
437.7905, 27048.68
438.2726, 27108.46
438.7548, 27170.68
439.2369, 27226.08
439.7190, 27266.57
440.2011, 27300.70
440.6832, 27335.69
441.1653, 27371.25
441.6475, 27402.06
442.1296, 27439.28
442.6117, 27463.35
443.0938, 27456.32
443.5759, 27404.08
444.0580, 27332.51
444.5402, 27242.40
445.0223, 27139.29
445.5044, 27040.27
445.9865, 26957.14
446.4686, 26871.97
446.9507, 26774.58
447.4329, 26649.42
447.9150, 26553.38
448.3971, 26515.45
448.8792, 26491.01
449.3613, 26420.99
449.8434, 26270.33
450.3256, 26140.19
450.8077, 26057.65
451.2898, 26017.18
451.7719, 25967.96
452.2540, 25910.51
452.7361, 25842.99
453.2183, 25756.47
453.7004, 25650.35
454.1825, 25561.57
454.6646, 25497.96
455.1467, 25448.50
455.6288, 25397.14
456.1110, 25343.83
456.5931, 25287.68
457.0752, 25225.31
457.5573, 25161.19
458.0394, 25109.50
458.5215, 25070.98
459.0037, 25033.74
459.4858, 24991.20
459.9679, 24941.50
460.4500, 24882.14
460.9321, 24798.21
461.4142, 24718.41
461.8964, 24666.83
462.3785, 24638.29
462.8606, 24610.24
463.3427, 24576.04
463.8248, 24535.49
464.3069, 24487.82
464.7891, 24428.66
465.2712, 24371.06
465.7533, 24316.51
466.2354, 24265.34
466.7175, 24218.98
467.1996, 24171.14
467.6818, 24134.99
468.1639, 24124.44
468.6460, 24140.16
469.1281, 24113.14
469.6102, 24013.59
470.0923, 23906.35
470.5745, 23841.06
471.0566, 23837.98
471.5387, 23808.45
472.0208, 23737.09
472.5029, 23642.51
472.9850, 23561.47
473.4672, 23493.90
473.9493, 23443.28
474.4314, 23423.37
474.9135, 23426.19
475.3956, 23401.08
475.8777, 23345.30
476.3599, 23288.87
476.8420, 23260.84
477.3241, 23257.42
477.8062, 23272.00
478.2883, 23322.61
478.7704, 23365.68
479.2526, 23344.90
479.7347, 23271.68
480.2168, 23193.31
480.6989, 23114.75
481.1810, 23053.48
481.6631, 23026.13
482.1453, 23039.18
482.6274, 23064.15
483.1095, 23107.58
483.5916, 23149.00
484.0737, 23162.51
484.5558, 23107.70
485.0379, 23059.98
485.5201, 23043.38
486.0022, 23056.34
486.4843, 23057.00
486.9664, 23043.77
487.4485, 23021.28
487.9306, 22990.13
488.4128, 22943.77
488.8949, 22910.51
489.3770, 22896.34
489.8591, 22891.02
490.3412, 22874.44
490.8233, 22843.95
491.3055, 22820.55
491.7876, 22810.43
492.2697, 22813.31
492.7518, 22833.49
493.2339, 22871.80
493.7160, 22908.00
494.1982, 22922.61
494.6803, 22920.57
495.1624, 22915.13
495.6445, 22907.62
496.1266, 22899.23
496.6087, 22888.22
497.0909, 22877.13
497.5730, 22872.07
498.0551, 22887.38
498.5372, 22902.45
499.0193, 22890.89
499.5014, 22850.58
499.9836, 22839.57
500.4657, 22921.70
500.9478, 23021.60
501.4299, 23079.28
501.9120, 23034.06
502.3941, 23002.30
502.8763, 23003.37
503.3584, 23028.36
503.8405, 23052.01
504.3226, 23072.06
504.8047, 23092.48
505.2868, 23115.30
505.7690, 23141.01
506.2511, 23159.23
506.7332, 23165.22
507.2153, 23172.07
507.6974, 23197.55
508.1795, 23243.07
508.6617, 23277.30
509.1438, 23291.72
509.6259, 23295.71
510.1080, 23309.11
510.5901, 23331.33
511.0722, 23353.31
511.5544, 23374.68
512.0365, 23391.02
512.5186, 23381.99
513.0007, 23343.79
513.4828, 23330.31
513.9650, 23407.86
514.4471, 23528.86
514.9292, 23630.14
515.4113, 23688.15
515.8934, 23724.85
516.3755, 23736.74
516.8576, 23733.13
517.3397, 23744.71
517.8218, 23791.62
518.3040, 23845.06
518.7861, 23895.21
519.2682, 23943.57
519.7503, 23980.65
520.2324, 24002.88
520.7145, 24017.11
521.1967, 24029.09
521.6788, 24037.79
522.1609, 24047.71
522.6430, 24058.39
523.1251, 24071.60
523.6072, 24092.24
524.0894, 24120.31
524.5715, 24154.89
525.0536, 24195.96
525.5357, 24242.84
526.0178, 24299.17
526.4999, 24367.07
526.9821, 24426.91
527.4642, 24448.35
527.9463, 24447.96
528.4284, 24462.24
528.9105, 24511.68
529.3926, 24565.33
529.8748, 24587.19
530.3569, 24590.01
530.8390, 24609.78
531.3211, 24692.11
531.8032, 24773.30
532.2853, 24809.90
532.7675, 24788.35
533.2496, 24789.34
533.7317, 24863.75
534.2138, 24949.30
534.6959, 24990.57
535.1780, 24927.88
535.6602, 24912.09
536.1423, 24971.60
536.6244, 25079.32
537.1065, 25162.46
537.5886, 25213.39
538.0707, 25259.82
538.5529, 25309.54
539.0350, 25362.83
539.5171, 25436.28
539.9992, 25533.68
540.4813, 25624.21
540.9634, 25663.18
541.4456, 25668.30
541.9277, 25702.40
542.4098, 25785.82
542.8919, 25884.58
543.3740, 25954.98
543.8561, 26007.71
544.3383, 26068.93
544.8204, 26168.71
545.3025, 26267.92
545.7846, 26332.44
546.2667, 26361.98
546.7488, 26402.67
547.2310, 26495.76
547.7131, 26589.40
548.1952, 26648.74
548.6773, 26638.91
549.1594, 26639.10
549.6415, 26643.79
550.1237, 26662.80
550.6058, 26720.43
551.0879, 26846.04
551.5700, 26938.98
552.0521, 26960.94
552.5342, 26925.47
553.0164, 26930.05
553.4985, 26980.62
553.9806, 27034.77
554.4627, 27059.85
554.9448, 27061.90
555.4269, 27068.92
555.9091, 27085.34
556.3912, 27099.58
556.8733, 27090.11
557.3554, 27069.73
557.8375, 27064.39
558.3196, 27090.65
558.8018, 27129.73
559.2839, 27181.66
559.7660, 27238.92
560.2481, 27273.11
560.7302, 27242.42
561.2123, 27210.04
561.6945, 27213.13
562.1766, 27270.11
562.6587, 27307.23
563.1408, 27304.32
563.6229, 27289.75
564.1050, 27289.34
564.5872, 27312.84
565.0693, 27326.89
565.5514, 27327.99
566.0335, 27317.14
566.5156, 27288.64
566.9977, 27239.16
567.4799, 27209.49
567.9620, 27229.79
568.4441, 27285.26
568.9262, 27330.47
569.4083, 27365.97
569.8904, 27378.58
570.3726, 27339.72
570.8547, 27276.63
571.3368, 27229.17
571.8189, 27207.91
572.3010, 27197.80
572.7831, 27198.68
573.2653, 27202.61
573.7474, 27196.90
574.2295, 27166.10
574.7116, 27137.09
575.1937, 27120.13
575.6758, 27114.63
576.1580, 27108.16
576.6401, 27107.81
577.1222, 27098.94
577.6043, 27071.15
578.0864, 27014.86
578.5685, 26983.71
579.0507, 26986.78
579.5328, 26996.73
580.0149, 26973.38
580.4970, 26918.11
580.9791, 26887.96
581.4612, 26904.16
581.9434, 26937.84
582.4255, 26940.78
582.9076, 26916.80
583.3897, 26882.87
583.8718, 26841.78
584.3539, 26798.78
584.8361, 26755.28
585.3182, 26711.75
585.8003, 26677.91
586.2824, 26673.13
586.7645, 26671.37
587.2466, 26651.33
587.7288, 26589.63
588.2109, 26545.42
588.6930, 26538.64
589.1751, 26548.20
589.6572, 26548.41
590.1393, 26545.31
590.6215, 26518.09
591.1036, 26448.36
591.5857, 26353.25
592.0678, 26316.66
592.5499, 26346.18
593.0320, 26381.74
593.5142, 26388.62
593.9963, 26372.23
594.4784, 26353.28
594.9605, 26332.59
595.4426, 26306.92
595.9247, 26267.86
596.4069, 26223.25
596.8890, 26183.21
597.3711, 26142.83
597.8532, 26121.89
598.3353, 26145.43
598.8174, 26193.79
599.2996, 26230.34
599.7817, 26229.24
600.2638, 26229.93
600.7459, 26247.21
601.2280, 26279.86
601.7101, 26304.64
602.1923, 26322.90
602.6744, 26331.21
603.1565, 26321.98
603.6386, 26288.92
604.1207, 26281.13
604.6028, 26302.49
605.0850, 26336.83
605.5671, 26373.46
606.0492, 26408.99
606.5313, 26422.41
607.0134, 26400.96
607.4955, 26370.56
607.9777, 26362.08
608.4598, 26370.35
608.9419, 26381.27
609.4240, 26386.93
609.9061, 26393.56
610.3882, 26411.36
610.8704, 26438.84
611.3525, 26449.49
611.8346, 26409.20
612.3167, 26371.51
612.7988, 26371.42
613.2809, 26434.30
613.7631, 26467.29
614.2452, 26456.30
614.7273, 26432.57
615.2094, 26434.90
615.6915, 26468.76
616.1736, 26488.48
616.6558, 26480.27
617.1379, 26461.92
617.6200, 26472.07
618.1021, 26506.56
618.5842, 26538.87
619.0663, 26546.36
619.5485, 26548.83
620.0306, 26574.55
620.5127, 26620.86
620.9948, 26665.76
621.4769, 26702.14
621.9590, 26727.61
622.4412, 26739.82
622.9233, 26737.38
623.4054, 26725.03
623.8875, 26692.18
624.3696, 26655.91
624.8517, 26632.88
625.3339, 26629.15
625.8160, 26627.94
626.2981, 26631.32
626.7802, 26633.85
627.2623, 26618.38
627.7444, 26583.09
628.2266, 26557.01
628.7087, 26555.93
629.1908, 26570.54
629.6729, 26583.97
630.1550, 26594.97
630.6371, 26588.17
631.1193, 26537.71
