##NAMES=Kolbeckite
##RRUFFID=R061040
##IDEAL CHEMISTRY=Sc^3+^P^5+^O_4_&#183;2H_2_O
##LOCALITY=Christy Pit, Magnet Cove, Arkansas, USA
##OWNER=RRUFF
##SOURCE=Mark Mauthner
##DESCRIPTION=Green platy crystal, severely twinned, associated with quartz.
##STATUS=The identification of this mineral has been confirmed only by single crystal X-ray diffraction.
##URL=rruff.info/R061040
137.4376, 1303.870
137.9197, 1348.450
138.4018, 1396.176
138.8840, 1442.111
139.3661, 1491.562
139.8482, 1553.741
140.3303, 1631.713
140.8124, 1716.095
141.2945, 1795.161
141.7766, 1869.639
142.2588, 1947.372
142.7409, 2036.140
143.2230, 2129.159
143.7051, 2212.858
144.1872, 2283.569
144.6693, 2345.529
145.1515, 2403.982
145.6336, 2459.104
146.1157, 2509.216
146.5978, 2556.285
147.0799, 2598.324
147.5620, 2627.350
148.0442, 2638.319
148.5263, 2639.904
149.0084, 2642.054
149.4905, 2644.686
149.9726, 2643.372
150.4547, 2635.116
150.9369, 2620.282
151.4190, 2601.231
151.9011, 2575.369
152.3832, 2548.268
152.8653, 2523.635
153.3474, 2501.750
153.8296, 2481.919
154.3117, 2465.309
154.7938, 2451.824
155.2759, 2434.640
155.7580, 2405.546
156.2401, 2378.292
156.7223, 2362.946
157.2044, 2360.079
157.6865, 2361.649
158.1686, 2359.230
158.6507, 2351.969
159.1328, 2350.363
159.6150, 2361.417
160.0971, 2375.274
160.5792, 2387.665
161.0613, 2397.800
161.5434, 2404.503
162.0255, 2403.831
162.5077, 2392.982
162.9898, 2390.167
163.4719, 2409.512
163.9540, 2430.144
164.4361, 2439.056
164.9182, 2434.414
165.4004, 2426.088
165.8825, 2427.706
166.3646, 2443.696
166.8467, 2452.485
167.3288, 2444.218
167.8109, 2433.240
168.2931, 2427.097
168.7752, 2427.558
169.2573, 2432.534
169.7394, 2441.994
170.2215, 2461.659
170.7036, 2468.010
171.1858, 2450.233
171.6679, 2425.773
172.1500, 2403.404
172.6321, 2385.635
173.1142, 2371.721
173.5963, 2360.500
174.0785, 2351.859
174.5606, 2346.589
175.0427, 2344.981
175.5248, 2346.046
176.0069, 2349.651
176.4890, 2355.613
176.9711, 2363.104
177.4533, 2371.355
177.9354, 2381.687
178.4175, 2389.528
178.8996, 2392.030
179.3817, 2394.070
179.8638, 2398.817
180.3460, 2407.039
180.8281, 2417.471
181.3102, 2428.935
181.7923, 2444.320
182.2744, 2454.017
182.7565, 2455.219
183.2387, 2453.528
183.7208, 2451.254
184.2029, 2449.509
184.6850, 2449.928
185.1671, 2455.466
185.6492, 2469.507
186.1314, 2481.893
186.6135, 2490.039
187.0956, 2498.488
187.5777, 2511.986
188.0598, 2530.830
188.5419, 2549.701
189.0241, 2561.470
189.5062, 2565.373
189.9883, 2562.447
190.4704, 2539.630
190.9525, 2520.222
191.4346, 2523.519
191.9168, 2551.386
192.3989, 2588.419
192.8810, 2614.346
193.3631, 2626.406
193.8452, 2632.158
194.3273, 2626.602
194.8095, 2619.608
195.2916, 2616.131
195.7737, 2617.632
196.2558, 2624.102
196.7379, 2635.657
197.2200, 2652.469
197.7022, 2674.586
198.1843, 2709.935
198.6664, 2743.573
199.1485, 2763.233
199.6306, 2769.302
200.1127, 2773.599
200.5949, 2790.366
201.0770, 2823.760
201.5591, 2857.470
202.0412, 2897.056
202.5233, 2932.828
203.0054, 2954.433
203.4876, 2964.200
203.9697, 2975.730
204.4518, 3004.029
204.9339, 3052.807
205.4160, 3104.614
205.8981, 3163.050
206.3803, 3220.706
206.8624, 3271.387
207.3445, 3316.760
207.8266, 3364.151
208.3087, 3421.694
208.7908, 3492.257
209.2730, 3556.646
209.7551, 3610.695
210.2372, 3663.615
210.7193, 3721.477
211.2014, 3782.157
211.6835, 3839.396
212.1656, 3888.406
212.6478, 3929.317
213.1299, 3957.111
213.6120, 3967.984
214.0941, 3970.748
214.5762, 3968.794
215.0583, 3961.353
215.5405, 3946.809
216.0226, 3925.105
216.5047, 3896.483
216.9868, 3844.163
217.4689, 3751.463
217.9510, 3653.128
218.4332, 3559.996
218.9153, 3468.299
219.3974, 3366.294
219.8795, 3243.645
220.3616, 3103.716
220.8438, 2986.977
221.3259, 2919.941
221.8080, 2848.301
222.2901, 2748.144
222.7722, 2638.339
223.2543, 2551.079
223.7365, 2507.212
224.2186, 2497.731
224.7007, 2477.601
225.1828, 2438.441
225.6649, 2397.043
226.1470, 2352.175
226.6292, 2307.506
227.1113, 2266.820
227.5934, 2232.043
228.0755, 2203.299
228.5576, 2181.187
229.0397, 2172.104
229.5219, 2161.169
230.0040, 2145.224
230.4861, 2127.416
230.9682, 2109.935
231.4503, 2093.736
231.9324, 2080.371
232.4146, 2073.359
232.8967, 2073.508
233.3788, 2079.598
233.8609, 2098.247
234.3430, 2118.007
234.8251, 2128.448
235.3073, 2126.890
235.7894, 2119.449
236.2715, 2115.510
236.7536, 2115.439
237.2357, 2118.280
237.7178, 2123.479
238.2000, 2131.433
238.6821, 2143.426
239.1642, 2159.189
239.6463, 2176.346
240.1284, 2190.641
240.6105, 2199.054
241.0927, 2215.886
241.5748, 2250.681
242.0569, 2286.467
242.5390, 2313.600
243.0211, 2332.856
243.5032, 2352.907
243.9854, 2383.113
244.4675, 2424.701
244.9496, 2464.156
245.4317, 2504.875
245.9138, 2539.794
246.3959, 2558.228
246.8781, 2567.107
247.3602, 2585.199
247.8423, 2629.220
248.3244, 2697.107
248.8065, 2759.631
249.2886, 2806.387
249.7707, 2862.022
250.2529, 2942.392
250.7350, 3037.051
251.2171, 3126.816
251.6992, 3198.969
252.1813, 3258.597
252.6634, 3322.717
253.1456, 3391.632
253.6277, 3464.250
254.1098, 3547.678
254.5919, 3631.727
255.0740, 3702.791
255.5561, 3754.252
256.0383, 3792.157
256.5204, 3830.180
257.0025, 3873.670
257.4846, 3897.923
257.9667, 3883.505
258.4489, 3849.869
258.9310, 3813.757
259.4131, 3780.829
259.8952, 3740.077
260.3773, 3676.454
260.8594, 3588.543
261.3416, 3497.735
261.8237, 3403.896
262.3058, 3313.668
262.7879, 3232.425
263.2700, 3161.224
263.7521, 3095.697
264.2343, 3032.602
264.7163, 2972.041
265.1985, 2914.114
265.6806, 2853.291
266.1627, 2803.512
266.6448, 2782.899
267.1269, 2789.980
267.6090, 2793.968
268.0912, 2774.194
268.5733, 2740.851
269.0554, 2718.852
269.5375, 2713.660
270.0196, 2713.572
270.5017, 2708.429
270.9839, 2699.188
271.4660, 2688.732
271.9481, 2671.527
272.4302, 2656.429
272.9123, 2658.796
273.3944, 2680.615
273.8766, 2700.286
274.3587, 2701.983
274.8408, 2687.145
275.3229, 2669.240
275.8050, 2641.647
276.2871, 2617.020
276.7693, 2606.386
277.2514, 2607.815
277.7335, 2610.860
278.2156, 2610.862
278.6977, 2607.372
279.1798, 2599.168
279.6620, 2579.197
280.1441, 2563.531
280.6262, 2562.412
281.1083, 2569.508
281.5904, 2572.329
282.0725, 2565.846
282.5547, 2552.454
283.0368, 2535.649
283.5189, 2501.946
284.0010, 2489.417
284.4831, 2523.049
284.9652, 2570.557
285.4474, 2594.158
285.9295, 2585.022
286.4116, 2565.066
286.8937, 2564.373
287.3758, 2593.145
287.8579, 2613.832
288.3401, 2620.395
288.8222, 2624.460
289.3043, 2627.351
289.7864, 2632.990
290.2685, 2653.370
290.7506, 2702.353
291.2328, 2783.983
291.7149, 2847.119
292.1970, 2868.286
292.6791, 2896.598
293.1612, 2950.127
293.6433, 3023.401
294.1255, 3103.320
294.6076, 3182.866
295.0897, 3261.301
295.5718, 3334.365
296.0539, 3390.786
296.5360, 3456.833
297.0182, 3536.351
297.5003, 3626.780
297.9824, 3724.855
298.4645, 3829.794
298.9466, 3941.194
299.4287, 4060.555
299.9109, 4191.665
300.3930, 4321.037
300.8751, 4437.355
301.3572, 4557.510
301.8393, 4697.706
302.3214, 4858.393
302.8036, 5022.780
303.2857, 5171.405
303.7678, 5303.630
304.2499, 5445.508
304.7320, 5610.880
305.2141, 5774.456
305.6963, 5918.846
306.1784, 6048.271
306.6605, 6177.207
307.1426, 6326.393
307.6247, 6481.536
308.1068, 6601.247
308.5890, 6677.554
309.0711, 6737.743
309.5532, 6795.593
310.0353, 6849.033
310.5174, 6893.143
310.9995, 6927.560
311.4817, 6951.580
311.9638, 6964.219
312.4459, 6965.647
312.9280, 6956.673
313.4101, 6933.887
313.8922, 6902.977
314.3744, 6877.343
314.8565, 6862.332
315.3386, 6839.894
315.8207, 6792.245
316.3028, 6731.228
316.7849, 6682.859
317.2671, 6654.584
317.7492, 6641.001
318.2313, 6640.245
318.7134, 6658.245
319.1955, 6657.810
319.6776, 6625.925
320.1598, 6578.371
320.6419, 6527.052
321.1240, 6474.318
321.6061, 6421.197
322.0882, 6370.449
322.5703, 6322.604
323.0525, 6259.527
323.5346, 6179.139
324.0167, 6088.433
324.4988, 5989.957
324.9809, 5883.602
325.4630, 5768.231
325.9452, 5642.302
326.4273, 5507.682
326.9094, 5370.429
327.3915, 5221.524
327.8736, 5082.472
328.3557, 4951.453
328.8379, 4832.029
329.3200, 4730.075
329.8021, 4646.267
330.2842, 4572.066
330.7663, 4495.014
331.2484, 4413.538
331.7306, 4332.949
332.2127, 4244.429
332.6948, 4164.030
333.1769, 4101.724
333.6590, 4055.588
334.1411, 4017.931
334.6233, 3985.505
335.1053, 3956.982
335.5875, 3922.680
336.0696, 3879.001
336.5517, 3835.725
337.0338, 3794.463
337.5159, 3756.862
337.9980, 3726.979
338.4802, 3710.893
338.9623, 3695.983
339.4444, 3664.418
339.9265, 3615.487
340.4086, 3559.911
340.8907, 3498.218
341.3729, 3433.839
341.8550, 3370.132
342.3371, 3306.966
342.8192, 3245.964
343.3013, 3190.244
343.7834, 3137.272
344.2656, 3080.895
344.7477, 3018.277
345.2298, 2956.117
345.7119, 2902.037
346.1940, 2856.316
346.6761, 2810.083
347.1583, 2758.089
347.6404, 2708.307
348.1225, 2667.625
348.6046, 2635.499
349.0867, 2607.864
349.5688, 2582.610
350.0510, 2559.246
350.5331, 2533.412
351.0152, 2503.841
351.4973, 2473.775
351.9794, 2436.619
352.4615, 2401.642
352.9437, 2386.160
353.4258, 2396.092
353.9079, 2413.282
354.3900, 2403.370
354.8721, 2343.938
355.3542, 2303.022
355.8364, 2288.997
356.3185, 2283.209
356.8006, 2276.490
357.2827, 2267.358
357.7648, 2257.183
358.2469, 2245.590
358.7291, 2233.162
359.2112, 2230.106
359.6933, 2244.691
360.1754, 2257.246
360.6575, 2262.252
361.1396, 2260.924
361.6218, 2253.958
362.1039, 2239.939
362.5860, 2224.797
363.0681, 2217.719
363.5502, 2219.424
364.0323, 2222.038
364.5145, 2223.315
364.9966, 2224.601
365.4787, 2226.935
365.9608, 2230.298
366.4429, 2235.337
366.9250, 2241.181
367.4072, 2249.122
367.8893, 2264.658
368.3714, 2290.385
368.8535, 2312.529
369.3356, 2314.688
369.8177, 2298.959
370.2999, 2295.926
370.7820, 2315.849
371.2641, 2341.157
371.7462, 2361.780
372.2283, 2378.728
372.7104, 2396.977
373.1926, 2419.381
373.6747, 2443.735
374.1568, 2463.366
374.6389, 2474.757
375.1210, 2485.902
375.6031, 2491.730
376.0853, 2500.607
376.5674, 2523.172
377.0495, 2559.567
377.5316, 2598.217
378.0137, 2626.055
378.4958, 2641.517
378.9780, 2657.233
379.4601, 2664.520
379.9422, 2681.058
380.4243, 2717.498
380.9064, 2766.493
381.3885, 2816.459
381.8707, 2863.124
382.3528, 2903.389
382.8349, 2924.732
383.3170, 2916.912
383.7991, 2927.866
384.2813, 2999.098
384.7634, 3078.242
385.2455, 3116.269
385.7276, 3106.237
386.2097, 3100.459
386.6918, 3143.590
387.1740, 3219.917
387.6561, 3280.951
388.1382, 3317.968
388.6203, 3347.919
389.1024, 3384.148
389.5845, 3425.733
390.0667, 3467.420
390.5488, 3511.063
391.0309, 3552.615
391.5130, 3588.550
391.9951, 3619.927
392.4772, 3650.393
392.9594, 3681.831
393.4415, 3712.939
393.9236, 3740.190
394.4057, 3765.990
394.8878, 3783.877
395.3699, 3791.201
395.8521, 3791.872
396.3342, 3786.219
396.8163, 3776.063
397.2984, 3767.520
397.7805, 3767.430
398.2626, 3776.214
398.7448, 3780.225
399.2269, 3783.270
399.7090, 3776.268
400.1911, 3752.250
400.6732, 3718.296
401.1553, 3684.635
401.6375, 3655.894
402.1196, 3626.823
402.6017, 3587.249
403.0838, 3535.930
403.5659, 3486.089
404.0480, 3439.392
404.5302, 3396.764
405.0123, 3358.183
405.4944, 3323.910
405.9765, 3294.607
406.4586, 3274.949
406.9407, 3259.080
407.4228, 3235.158
407.9049, 3201.890
408.3871, 3173.380
408.8692, 3162.472
409.3513, 3163.064
409.8334, 3148.453
410.3155, 3100.253
410.7976, 3060.017
411.2798, 3044.768
411.7619, 3045.820
412.2440, 3052.573
412.7261, 3061.563
413.2082, 3069.127
413.6903, 3069.108
414.1725, 3056.524
414.6546, 3054.117
415.1367, 3062.567
415.6188, 3078.560
416.1009, 3107.367
416.5830, 3142.143
417.0652, 3168.926
417.5473, 3178.167
418.0294, 3176.655
418.5115, 3182.309
418.9936, 3194.144
419.4757, 3215.949
419.9579, 3257.941
420.4400, 3304.079
420.9221, 3340.248
421.4042, 3365.288
421.8863, 3396.039
422.3684, 3449.010
422.8506, 3516.905
423.3327, 3577.288
423.8148, 3626.814
424.2969, 3676.989
424.7790, 3737.929
425.2611, 3806.480
425.7433, 3870.548
426.2254, 3931.001
426.7075, 3985.100
427.1896, 4018.683
427.6717, 4046.544
428.1538, 4103.327
428.6360, 4201.930
429.1181, 4317.960
429.6002, 4414.330
430.0823, 4480.225
430.5644, 4558.843
431.0465, 4664.222
431.5287, 4768.332
432.0108, 4855.148
432.4929, 4928.230
432.9750, 4999.955
433.4571, 5078.320
433.9392, 5159.781
434.4214, 5230.576
434.9035, 5286.566
435.3856, 5342.252
435.8677, 5395.971
436.3498, 5453.848
436.8319, 5526.547
437.3141, 5613.765
437.7962, 5691.913
438.2783, 5740.158
438.7604, 5766.847
439.2425, 5797.097
439.7246, 5834.502
440.2068, 5866.579
440.6889, 5889.854
441.1710, 5899.911
441.6531, 5886.124
442.1352, 5827.910
442.6173, 5771.389
443.0995, 5745.842
443.5816, 5733.694
444.0637, 5704.882
444.5458, 5650.647
445.0279, 5581.860
445.5100, 5510.945
445.9922, 5435.814
446.4743, 5367.836
446.9564, 5316.699
447.4385, 5260.935
447.9206, 5192.744
448.4027, 5113.684
448.8849, 5025.545
449.3670, 4928.757
449.8491, 4829.986
450.3312, 4744.473
450.8133, 4673.898
451.2954, 4609.898
451.7776, 4553.466
452.2597, 4502.013
452.7418, 4458.802
453.2239, 4421.419
453.7060, 4374.454
454.1881, 4301.537
454.6703, 4218.365
455.1524, 4147.153
455.6345, 4088.426
456.1166, 4041.777
456.5987, 4011.462
457.0808, 3989.856
457.5630, 3955.083
458.0451, 3903.123
458.5272, 3849.080
459.0093, 3790.986
459.4914, 3735.236
459.9735, 3690.939
460.4557, 3657.350
460.9378, 3621.128
461.4199, 3569.355
461.9020, 3503.222
462.3841, 3449.276
462.8662, 3418.631
463.3484, 3385.423
463.8305, 3346.294
464.3126, 3301.648
464.7947, 3247.766
465.2768, 3184.344
465.7589, 3125.285
466.2411, 3089.649
466.7232, 3073.814
467.2053, 3049.573
467.6874, 3014.183
468.1695, 2970.312
468.6516, 2915.423
469.1338, 2853.436
469.6159, 2794.389
470.0980, 2736.438
470.5801, 2685.104
471.0622, 2646.811
471.5443, 2616.898
472.0265, 2586.087
472.5086, 2551.468
472.9907, 2514.190
473.4728, 2475.803
473.9549, 2435.795
474.4370, 2396.191
474.9192, 2355.082
475.4013, 2316.297
475.8834, 2281.708
476.3655, 2250.828
476.8476, 2222.966
477.3297, 2197.939
477.8118, 2174.654
478.2939, 2151.189
478.7761, 2127.602
479.2582, 2103.489
479.7403, 2074.683
480.2224, 2050.178
480.7045, 2040.566
481.1866, 2041.786
481.6688, 2035.309
482.1509, 2007.570
482.6330, 1973.435
483.1151, 1944.874
483.5972, 1922.696
484.0793, 1913.276
484.5615, 1922.455
485.0436, 1937.692
485.5257, 1935.639
486.0078, 1907.001
486.4899, 1881.645
486.9720, 1853.929
487.4542, 1834.835
487.9363, 1840.039
488.4184, 1860.503
488.9005, 1870.556
489.3826, 1853.010
489.8647, 1819.153
490.3469, 1801.296
490.8290, 1804.919
491.3111, 1808.542
491.7932, 1808.024
492.2753, 1806.272
492.7574, 1806.282
493.2396, 1807.468
493.7217, 1804.994
494.2038, 1790.803
494.6859, 1774.164
495.1680, 1771.033
495.6501, 1780.854
496.1323, 1789.599
496.6144, 1790.507
497.0965, 1786.667
497.5786, 1785.362
498.0607, 1789.477
498.5428, 1789.338
499.0250, 1781.721
499.5071, 1771.298
499.9892, 1756.815
500.4713, 1742.082
500.9534, 1738.573
501.4355, 1755.887
501.9177, 1786.471
502.3998, 1802.149
502.8819, 1795.807
503.3640, 1791.649
503.8461, 1800.171
504.3282, 1808.273
504.8104, 1803.619
505.2925, 1787.346
505.7746, 1776.011
506.2567, 1781.276
506.7388, 1796.143
507.2209, 1810.249
507.7031, 1823.424
508.1852, 1837.680
508.6673, 1855.979
509.1494, 1873.451
509.6315, 1877.228
510.1136, 1858.045
510.5958, 1847.028
511.0779, 1847.720
511.5600, 1856.894
512.0421, 1878.787
512.5242, 1907.879
513.0063, 1927.856
513.4885, 1926.349
513.9706, 1912.335
514.4527, 1914.864
514.9348, 1940.537
515.4169, 1963.967
515.8990, 1977.287
516.3812, 1988.880
516.8633, 2005.091
517.3454, 2025.514
517.8275, 2044.494
518.3096, 2058.719
518.7917, 2070.455
519.2739, 2082.928
519.7560, 2095.944
520.2381, 2106.038
520.7202, 2110.473
521.2023, 2114.073
521.6844, 2126.322
522.1666, 2153.019
522.6487, 2175.991
523.1308, 2193.775
523.6129, 2209.132
524.0950, 2222.112
524.5771, 2234.124
525.0593, 2247.763
525.5414, 2264.502
526.0235, 2283.163
526.5056, 2301.711
526.9877, 2320.410
527.4698, 2337.576
527.9520, 2353.562
528.4341, 2367.114
528.9162, 2374.655
529.3983, 2378.393
529.8804, 2388.295
530.3625, 2412.117
530.8447, 2439.202
531.3268, 2459.125
531.8089, 2475.068
532.2910, 2497.629
532.7731, 2531.151
533.2552, 2566.058
533.7374, 2587.555
534.2195, 2589.487
534.7016, 2605.334
535.1837, 2646.089
535.6658, 2687.595
536.1479, 2725.226
536.6301, 2756.891
537.1122, 2777.786
537.5943, 2785.605
538.0764, 2794.039
538.5585, 2822.354
539.0406, 2868.245
539.5228, 2910.011
540.0049, 2944.744
540.4870, 2976.550
540.9691, 3005.146
541.4512, 3033.017
541.9333, 3069.088
542.4155, 3124.825
542.8976, 3174.249
543.3797, 3203.886
543.8618, 3223.445
544.3439, 3244.001
544.8260, 3268.219
545.3082, 3295.917
545.7903, 3327.701
546.2724, 3362.889
546.7545, 3392.614
547.2366, 3415.938
547.7188, 3435.080
548.2009, 3445.449
548.6830, 3455.428
549.1651, 3472.483
549.6472, 3497.540
550.1293, 3526.694
550.6115, 3560.837
551.0936, 3596.066
551.5757, 3625.320
552.0578, 3648.552
552.5399, 3672.456
553.0220, 3701.868
553.5042, 3731.573
553.9863, 3749.079
554.4684, 3744.410
554.9505, 3746.298
555.4326, 3762.825
555.9147, 3778.828
556.3969, 3780.830
556.8790, 3774.654
557.3611, 3776.988
557.8432, 3798.066
558.3253, 3826.198
558.8074, 3839.045
559.2896, 3835.589
559.7717, 3835.207
560.2538, 3844.735
560.7359, 3852.443
561.2180, 3847.303
561.7001, 3831.764
562.1823, 3813.634
562.6644, 3790.535
563.1465, 3768.854
563.6286, 3751.685
564.1107, 3738.229
564.5928, 3728.575
565.0750, 3722.183
565.5571, 3714.411
566.0392, 3698.752
566.5213, 3675.271
567.0034, 3663.122
567.4855, 3668.526
567.9677, 3676.018
568.4498, 3680.220
568.9319, 3685.150
569.4140, 3698.875
569.8961, 3722.320
570.3782, 3735.922
570.8604, 3717.893
571.3425, 3686.500
571.8246, 3674.850
572.3067, 3682.540
572.7888, 3681.793
573.2709, 3654.532
573.7531, 3591.203
574.2352, 3608.691
574.7173, 3613.193
575.1994, 3605.404
575.6815, 3548.515
576.1636, 3555.030
576.6458, 3536.132
577.1279, 3516.195
577.6100, 3531.634
578.0921, 3522.393
578.5742, 3527.961
579.0563, 3519.417
579.5385, 3498.140
580.0206, 3483.528
580.5027, 3482.886
580.9848, 3476.614
581.4669, 3444.477
581.9490, 3391.069
582.4311, 3350.553
582.9132, 3337.805
583.3953, 3319.514
583.8774, 3275.870
584.3596, 3227.280
584.8417, 3199.999
585.3238, 3194.773
585.8059, 3191.290
586.2880, 3173.375
586.7701, 3142.620
587.2523, 3103.646
587.7344, 3051.786
588.2165, 3008.026
588.6986, 2983.536
589.1807, 2964.900
589.6628, 2939.098
590.1450, 2906.419
590.6271, 2874.832
591.1092, 2849.677
591.5913, 2823.749
592.0734, 2787.168
592.5555, 2745.529
593.0377, 2713.356
593.5198, 2695.533
594.0019, 2684.807
594.4840, 2672.213
594.9661, 2657.898
595.4482, 2640.963
595.9304, 2624.927
596.4125, 2601.050
596.8946, 2560.413
597.3767, 2514.479
597.8588, 2475.254
598.3409, 2445.068
598.8231, 2422.865
599.3052, 2417.758
599.7873, 2415.698
600.2694, 2389.447
600.7515, 2341.137
601.2336, 2300.558
601.7158, 2284.214
602.1979, 2282.053
602.6800, 2271.416
603.1621, 2249.285
603.6442, 2225.153
604.1263, 2194.226
604.6085, 2166.296
605.0906, 2147.938
605.5727, 2135.368
606.0548, 2121.183
606.5369, 2102.441
607.0190, 2081.974
607.5012, 2061.356
607.9833, 2041.213
608.4654, 2022.782
608.9475, 2006.006
609.4296, 1994.311
609.9117, 1992.392
610.3939, 1996.588
610.8760, 1990.600
611.3581, 1969.511
611.8402, 1944.716
612.3223, 1908.672
612.8044, 1875.720
613.2866, 1858.304
613.7687, 1853.210
614.2508, 1849.502
614.7329, 1842.887
615.2150, 1830.552
615.6971, 1801.878
616.1793, 1759.803
616.6614, 1735.113
617.1435, 1737.322
617.6256, 1745.927
618.1077, 1743.262
618.5898, 1730.375
619.0720, 1721.310
619.5541, 1722.077
620.0362, 1718.667
620.5183, 1703.061
621.0004, 1685.397
621.4825, 1676.858
621.9647, 1676.788
622.4468, 1674.855
622.9289, 1662.886
623.4110, 1645.129
623.8931, 1631.565
624.3752, 1622.349
624.8574, 1610.690
625.3395, 1591.439
625.8216, 1576.187
626.3037, 1580.478
626.7858, 1604.409
627.2679, 1617.589
627.7501, 1613.497
628.2322, 1605.775
628.7143, 1598.742
629.1964, 1590.776
629.6785, 1577.842
630.1606, 1560.613
630.6428, 1546.004
631.1249, 1540.425
631.6070, 1541.767
632.0891, 1545.082
632.5712, 1551.255
633.0533, 1550.758
633.5355, 1537.365
634.0176, 1520.890
634.4997, 1512.684
