##NAMES=Kolbeckite
##RRUFFID=R060981
##IDEAL CHEMISTRY=Sc^3+^P^5+^O_4_&#183;2H_2_O
##LOCALITY=Hot Springs County, Arkansas, USA
##OWNER=RRUFF
##SOURCE=Bob Jenkins
##DESCRIPTION=Greenish-yellow prismatic single crystal. Used in the Yang et al (2007) study
##STATUS=The identification of this mineral is confirmed by single-crystal X-ray diffraction and chemical analysis.
##URL=rruff.info/R060981
##MEASURED CHEMISTRY=(Sc_0.94_V^3+^_0.03_Fe^3+^_0.02_Al_0.01_)_Σ=1_P_1.00_O_4_·2H_2_O
163.9543, 14386.24
164.4364, 14506.98
164.9185, 14649.67
165.4007, 14812.85
165.8828, 14970.32
166.3649, 15088.68
166.8470, 15146.99
167.3291, 15219.64
167.8112, 15329.81
168.2933, 15436.22
168.7755, 15506.41
169.2576, 15537.71
169.7397, 15554.41
170.2218, 15588.08
170.7039, 15652.21
171.1860, 15697.73
171.6682, 15722.14
172.1503, 15732.36
172.6324, 15731.84
173.1145, 15721.85
173.5966, 15703.71
174.0787, 15677.90
174.5609, 15638.72
175.0430, 15607.88
175.5251, 15592.49
176.0072, 15580.44
176.4893, 15554.93
176.9714, 15515.43
177.4536, 15485.45
177.9357, 15497.80
178.4178, 15579.54
178.8999, 15627.72
179.3820, 15621.41
179.8641, 15594.97
180.3463, 15567.89
180.8284, 15545.75
181.3105, 15538.35
181.7926, 15560.32
182.2747, 15626.54
182.7568, 15676.51
183.2390, 15697.68
183.7211, 15710.04
184.2032, 15728.24
184.6853, 15755.18
185.1674, 15790.26
185.6495, 15835.73
186.1317, 15898.22
186.6138, 15941.99
187.0959, 15952.92
187.5780, 15953.09
188.0601, 15960.66
188.5422, 15978.45
189.0244, 16000.90
189.5065, 16023.20
189.9886, 16046.30
190.4707, 16062.74
190.9528, 16066.73
191.4349, 16067.76
191.9170, 16070.78
192.3992, 16077.11
192.8813, 16092.96
193.3634, 16127.43
193.8455, 16184.52
194.3276, 16232.87
194.8097, 16262.45
195.2919, 16289.07
195.7740, 16329.83
196.2561, 16385.71
196.7382, 16438.95
197.2203, 16473.09
197.7024, 16485.54
198.1846, 16495.15
198.6667, 16497.98
199.1488, 16500.84
199.6309, 16509.19
200.1130, 16523.39
200.5951, 16540.06
201.0773, 16555.29
201.5594, 16569.44
202.0415, 16592.66
202.5236, 16636.07
203.0057, 16680.26
203.4878, 16711.32
203.9700, 16728.69
204.4521, 16738.58
204.9342, 16742.84
205.4163, 16742.29
205.8984, 16750.38
206.3805, 16773.69
206.8627, 16799.97
207.3448, 16823.59
207.8269, 16843.59
208.3090, 16855.65
208.7911, 16850.86
209.2732, 16834.44
209.7554, 16844.18
210.2375, 16912.95
210.7196, 16977.82
211.2017, 16996.17
211.6838, 16974.63
212.1659, 16947.06
212.6480, 16929.96
213.1302, 16925.42
213.6123, 16937.94
214.0944, 16986.08
214.5765, 17031.90
215.0586, 17054.33
215.5407, 17058.52
216.0229, 17063.71
216.5050, 17082.16
216.9871, 17107.83
217.4692, 17117.36
217.9513, 17100.13
218.4334, 17082.19
218.9156, 17081.49
219.3977, 17088.94
219.8798, 17076.42
220.3619, 17024.19
220.8440, 16953.20
221.3261, 16927.77
221.8083, 16974.98
222.2904, 17014.81
222.7725, 17015.22
223.2546, 16991.38
223.7367, 16972.71
224.2188, 16970.66
224.7010, 16978.41
225.1831, 16980.38
225.6652, 16973.45
226.1473, 16967.95
226.6294, 16978.49
227.1115, 16988.56
227.5937, 16964.50
228.0758, 16891.87
228.5579, 16806.32
229.0400, 16773.61
229.5221, 16814.13
230.0042, 16848.83
230.4864, 16869.12
230.9685, 16877.66
231.4506, 16871.87
231.9327, 16851.11
232.4148, 16830.82
232.8969, 16831.66
233.3791, 16858.35
233.8612, 16896.14
234.3433, 16968.36
234.8254, 17037.60
235.3075, 17062.99
235.7896, 17040.29
236.2717, 17006.24
236.7539, 17000.02
237.2360, 17029.50
237.7181, 17054.48
238.2002, 17063.10
238.6823, 17076.22
239.1644, 17118.19
239.6466, 17184.63
240.1287, 17239.91
240.6108, 17248.90
241.0929, 17205.84
241.5750, 17195.64
242.0571, 17247.05
242.5393, 17300.01
243.0214, 17324.19
243.5035, 17323.75
243.9856, 17317.96
244.4677, 17319.67
244.9498, 17328.79
245.4320, 17342.22
245.9141, 17349.72
246.3962, 17371.71
246.8783, 17430.48
247.3604, 17507.65
247.8425, 17564.09
248.3247, 17575.57
248.8068, 17555.58
249.2889, 17569.88
249.7710, 17671.02
250.2531, 17744.56
250.7352, 17746.95
251.2174, 17721.07
251.6995, 17723.90
252.1816, 17780.11
252.6637, 17872.27
253.1458, 17957.34
253.6279, 18040.06
254.1101, 18107.23
254.5922, 18149.09
255.0743, 18180.72
255.5564, 18216.76
256.0385, 18260.98
256.5206, 18305.79
257.0027, 18337.90
257.4849, 18348.62
257.9670, 18364.05
258.4491, 18394.93
258.9312, 18422.21
259.4133, 18436.78
259.8954, 18435.91
260.3776, 18418.50
260.8597, 18380.69
261.3418, 18317.64
261.8239, 18257.70
262.3060, 18190.76
262.7881, 18136.40
263.2703, 18108.53
263.7524, 18102.43
264.2345, 18103.21
264.7166, 18101.04
265.1987, 18095.85
265.6808, 18077.84
266.1630, 18031.57
266.6451, 17988.41
267.1272, 17953.53
267.6093, 17928.36
268.0914, 17914.03
268.5735, 17911.53
269.0557, 17920.13
269.5378, 17938.38
270.0199, 17975.06
270.5020, 18006.88
270.9841, 18031.78
271.4662, 18047.71
271.9484, 18049.43
272.4305, 18032.56
272.9126, 18009.82
273.3947, 18006.10
273.8768, 18028.48
274.3589, 18046.18
274.8411, 18050.41
275.3232, 18046.91
275.8053, 18033.74
276.2874, 18009.88
276.7695, 17993.94
277.2516, 18010.39
277.7338, 18060.59
278.2159, 18107.63
278.6980, 18153.84
279.1801, 18184.76
279.6622, 18180.62
280.1443, 18144.21
280.6265, 18116.14
281.1086, 18135.95
281.5907, 18189.71
282.0728, 18215.19
282.5549, 18194.23
283.0370, 18166.15
283.5192, 18157.76
284.0013, 18166.64
284.4834, 18187.61
284.9655, 18236.24
285.4476, 18289.51
285.9297, 18304.71
286.4119, 18274.71
286.8940, 18243.45
287.3761, 18245.02
287.8582, 18267.12
288.3403, 18277.14
288.8224, 18256.78
289.3046, 18235.76
289.7867, 18242.07
290.2688, 18272.41
290.7509, 18300.47
291.2330, 18310.06
291.7151, 18312.49
292.1972, 18336.44
292.6794, 18389.55
293.1615, 18447.97
293.6436, 18512.42
294.1257, 18574.49
294.6078, 18610.10
295.0899, 18605.62
295.5721, 18593.88
296.0542, 18634.76
296.5363, 18747.44
297.0184, 18851.77
297.5005, 18935.01
297.9826, 19006.92
298.4648, 19074.43
298.9469, 19139.22
299.4290, 19206.35
299.9111, 19281.04
300.3932, 19363.74
300.8753, 19451.88
301.3575, 19548.56
301.8396, 19646.99
302.3217, 19740.35
302.8038, 19831.07
303.2859, 19927.60
303.7680, 20036.57
304.2502, 20156.63
304.7323, 20274.69
305.2144, 20396.90
305.6965, 20510.04
306.1786, 20610.67
306.6607, 20701.35
307.1429, 20784.80
307.6250, 20861.45
308.1071, 20934.70
308.5892, 21013.63
309.0713, 21115.12
309.5534, 21190.49
310.0356, 21225.68
310.5177, 21244.56
310.9998, 21261.53
311.4819, 21281.05
311.9640, 21304.67
312.4461, 21339.74
312.9283, 21392.11
313.4104, 21422.76
313.8925, 21414.37
314.3746, 21397.58
314.8567, 21376.80
315.3388, 21357.56
315.8210, 21352.47
316.3031, 21379.49
316.7852, 21428.38
317.2673, 21449.52
317.7494, 21426.00
318.2315, 21407.85
318.7137, 21422.18
319.1958, 21454.96
319.6779, 21487.90
320.1600, 21516.52
320.6421, 21539.96
321.1242, 21559.49
321.6064, 21575.48
322.0885, 21575.68
322.5706, 21546.58
323.0527, 21503.94
323.5348, 21470.34
324.0169, 21448.23
324.4991, 21426.14
324.9812, 21388.27
325.4633, 21344.95
325.9454, 21331.74
326.4275, 21367.26
326.9096, 21403.70
327.3918, 21378.23
327.8739, 21292.68
328.3560, 21203.69
328.8381, 21119.13
329.3202, 21037.18
329.8023, 20953.84
330.2845, 20870.12
330.7666, 20794.80
331.2487, 20737.86
331.7308, 20697.43
332.2129, 20637.09
332.6950, 20535.65
333.1772, 20440.76
333.6593, 20376.88
334.1414, 20330.90
334.6235, 20274.35
335.1056, 20193.11
335.5877, 20100.64
336.0698, 20029.85
336.5519, 20001.35
337.0341, 19967.70
337.5162, 19936.34
337.9983, 19895.32
338.4804, 19827.20
338.9625, 19732.87
339.4446, 19636.64
339.9268, 19565.87
340.4089, 19523.07
340.8910, 19491.10
341.3731, 19485.59
341.8552, 19476.02
342.3373, 19451.69
342.8195, 19414.60
343.3016, 19370.57
343.7837, 19320.97
344.2658, 19268.58
344.7479, 19223.55
345.2300, 19188.07
345.7122, 19155.38
346.1943, 19123.37
346.6764, 19092.67
347.1585, 19067.34
347.6406, 19050.20
348.1227, 19027.05
348.6049, 18974.12
349.0870, 18893.54
349.5691, 18831.84
350.0512, 18805.03
350.5333, 18794.65
351.0154, 18784.59
351.4976, 18774.74
351.9797, 18761.80
352.4618, 18739.79
352.9439, 18715.52
353.4260, 18705.28
353.9081, 18712.04
354.3903, 18708.41
354.8724, 18667.17
355.3545, 18595.30
355.8366, 18546.42
356.3187, 18543.41
356.8008, 18541.63
357.2830, 18514.77
357.7651, 18471.36
358.2472, 18433.45
358.7293, 18411.61
359.2114, 18397.48
359.6935, 18372.03
360.1757, 18319.35
360.6578, 18281.47
361.1399, 18272.06
361.6220, 18270.25
362.1041, 18254.18
362.5862, 18223.63
363.0684, 18198.92
363.5505, 18203.59
364.0326, 18241.82
364.5147, 18265.44
364.9968, 18263.38
365.4789, 18257.79
365.9611, 18252.77
366.4432, 18248.78
366.9253, 18243.86
367.4074, 18235.71
367.8895, 18230.31
368.3716, 18246.42
368.8538, 18297.28
369.3359, 18333.16
369.8180, 18316.34
370.3001, 18297.40
370.7822, 18322.45
371.2643, 18396.46
371.7465, 18467.25
372.2286, 18480.22
372.7107, 18448.36
373.1928, 18442.93
373.6749, 18480.61
374.1570, 18526.31
374.6392, 18553.60
375.1213, 18567.11
375.6034, 18578.30
376.0855, 18588.19
376.5676, 18598.33
377.0497, 18614.39
377.5319, 18634.35
378.0140, 18641.71
378.4961, 18623.83
378.9782, 18592.77
379.4603, 18581.20
379.9424, 18588.80
380.4246, 18611.02
380.9066, 18667.79
381.3888, 18728.95
381.8709, 18754.02
382.3530, 18736.73
382.8351, 18708.92
383.3172, 18705.38
383.7993, 18730.62
384.2815, 18754.68
384.7636, 18777.63
385.2457, 18799.94
385.7278, 18815.00
386.2099, 18830.55
386.6920, 18862.46
387.1742, 18920.92
387.6563, 18994.59
388.1384, 19051.47
388.6205, 19082.13
389.1026, 19116.12
389.5847, 19156.47
390.0669, 19202.56
390.5490, 19253.03
391.0311, 19308.12
391.5132, 19371.75
391.9953, 19464.54
392.4774, 19575.67
392.9596, 19628.30
393.4417, 19587.78
393.9238, 19550.68
394.4059, 19598.67
394.8880, 19696.89
395.3701, 19774.43
395.8523, 19811.36
396.3344, 19823.62
396.8165, 19813.87
397.2986, 19787.47
397.7807, 19774.94
398.2628, 19793.30
398.7450, 19822.56
399.2271, 19824.96
399.7092, 19798.97
400.1913, 19756.66
400.6734, 19673.18
401.1555, 19591.10
401.6377, 19554.70
402.1198, 19564.55
402.6019, 19589.94
403.0840, 19608.39
403.5661, 19619.63
404.0482, 19603.29
404.5304, 19522.91
405.0125, 19457.04
405.4946, 19440.61
405.9767, 19440.31
406.4588, 19408.27
406.9409, 19327.68
407.4231, 19234.70
407.9052, 19187.39
408.3873, 19196.45
408.8694, 19198.85
409.3515, 19179.71
409.8336, 19161.55
410.3158, 19161.06
410.7979, 19173.14
411.2800, 19178.12
411.7621, 19154.19
412.2442, 19120.78
412.7263, 19115.28
413.2085, 19139.52
413.6906, 19174.39
414.1727, 19217.03
414.6548, 19261.21
415.1369, 19293.20
415.6190, 19304.29
416.1012, 19324.28
416.5833, 19380.68
417.0654, 19448.89
417.5475, 19486.85
418.0296, 19486.44
418.5117, 19473.95
418.9939, 19473.55
419.4760, 19485.24
419.9581, 19514.83
420.4402, 19584.50
420.9223, 19646.32
421.4044, 19674.70
421.8866, 19684.08
422.3687, 19700.23
422.8508, 19734.97
423.3329, 19780.68
423.8150, 19823.29
424.2971, 19866.48
424.7793, 19895.92
425.2614, 19893.22
425.7435, 19890.98
426.2256, 19906.11
426.7077, 19938.35
427.1898, 19979.11
427.6719, 20025.58
428.1541, 20075.53
428.6362, 20124.05
429.1183, 20172.05
429.6004, 20213.28
430.0825, 20237.35
430.5646, 20256.35
431.0468, 20290.06
431.5289, 20342.42
432.0110, 20401.73
432.4931, 20463.92
432.9752, 20528.68
433.4573, 20599.27
433.9395, 20677.05
434.4216, 20746.28
434.9037, 20788.26
435.3858, 20799.57
435.8679, 20832.15
436.3500, 20911.66
436.8322, 20982.23
437.3143, 21015.88
437.7964, 21027.91
438.2785, 21047.18
438.7606, 21085.76
439.2427, 21128.52
439.7249, 21145.70
440.2070, 21127.11
440.6891, 21112.69
441.1712, 21116.88
441.6533, 21114.25
442.1354, 21079.77
442.6176, 21025.43
443.0997, 20991.53
443.5818, 21018.70
444.0639, 21068.58
444.5460, 21059.42
445.0281, 20985.87
445.5103, 20898.61
445.9924, 20815.69
446.4745, 20730.57
446.9566, 20626.70
447.4387, 20493.03
447.9208, 20388.39
448.4030, 20358.76
448.8851, 20358.36
449.3672, 20328.50
449.8493, 20263.04
450.3314, 20188.73
450.8135, 20125.23
451.2957, 20072.26
451.7778, 20025.30
452.2599, 20001.87
452.7420, 19963.54
453.2241, 19898.78
453.7062, 19818.13
454.1884, 19723.88
454.6705, 19620.40
455.1526, 19529.34
455.6347, 19485.00
456.1168, 19493.23
456.5989, 19480.64
457.0811, 19428.05
457.5632, 19378.63
458.0453, 19359.19
458.5274, 19354.31
459.0095, 19335.19
459.4916, 19285.44
459.9738, 19231.20
460.4559, 19204.97
460.9380, 19200.90
461.4201, 19185.65
461.9022, 19148.36
462.3843, 19101.61
462.8665, 19059.17
463.3486, 19021.25
463.8307, 18987.22
464.3128, 18965.53
464.7949, 18940.57
465.2770, 18897.88
465.7592, 18843.74
466.2413, 18796.17
466.7234, 18764.84
467.2055, 18742.55
467.6876, 18710.62
468.1697, 18658.67
468.6519, 18618.07
469.1340, 18597.07
469.6161, 18579.96
470.0982, 18560.88
470.5803, 18537.64
471.0624, 18506.24
471.5445, 18458.04
472.0266, 18403.82
472.5088, 18375.76
472.9909, 18380.42
473.4730, 18369.79
473.9551, 18311.55
474.4372, 18238.81
474.9193, 18200.80
475.4015, 18204.25
475.8836, 18202.74
476.3657, 18175.36
476.8478, 18135.52
477.3299, 18102.01
477.8120, 18074.68
478.2942, 18034.80
478.7763, 17964.62
479.2584, 17874.27
479.7405, 17819.89
480.2226, 17836.44
480.7047, 17846.23
481.1869, 17838.04
481.6690, 17824.32
482.1511, 17816.83
482.6332, 17816.74
483.1153, 17816.37
483.5974, 17805.70
484.0796, 17787.31
484.5617, 17785.47
485.0438, 17811.34
485.5259, 17828.63
486.0080, 17808.39
486.4901, 17775.58
486.9723, 17757.55
487.4544, 17758.58
487.9365, 17772.36
488.4186, 17807.75
488.9007, 17849.80
489.3828, 17864.49
489.8650, 17846.53
490.3471, 17832.05
490.8292, 17858.76
491.3113, 17920.99
491.7934, 17921.58
492.2755, 17786.32
492.7577, 17690.06
493.2398, 17701.49
493.7219, 17755.12
494.2040, 17774.40
494.6861, 17743.29
495.1682, 17701.85
495.6504, 17698.80
496.1325, 17734.15
496.6146, 17740.65
497.0967, 17701.54
497.5788, 17661.15
498.0609, 17639.08
498.5431, 17626.56
499.0252, 17612.25
499.5073, 17592.37
499.9894, 17575.36
500.4715, 17561.25
500.9536, 17555.30
501.4358, 17579.53
501.9179, 17640.39
502.4000, 17691.46
502.8821, 17689.19
503.3642, 17636.04
503.8463, 17596.70
504.3285, 17576.09
504.8106, 17561.61
505.2927, 17545.61
505.7748, 17536.16
506.2569, 17547.52
506.7390, 17581.12
507.2212, 17619.40
507.7033, 17644.10
508.1854, 17655.11
508.6675, 17657.02
509.1496, 17639.96
509.6317, 17630.46
510.1139, 17648.82
510.5960, 17677.30
511.0781, 17690.22
511.5602, 17677.36
512.0423, 17668.17
512.5244, 17694.42
513.0065, 17736.86
513.4886, 17748.42
513.9708, 17720.91
514.4529, 17695.13
514.9350, 17708.37
515.4171, 17755.93
515.8992, 17775.89
516.3813, 17736.82
516.8635, 17712.95
517.3456, 17722.91
517.8277, 17752.43
518.3098, 17794.28
518.7919, 17842.79
519.2740, 17881.73
519.7562, 17891.63
520.2383, 17875.82
520.7204, 17869.17
521.2025, 17876.49
521.6846, 17881.78
522.1667, 17872.76
522.6489, 17860.39
523.1310, 17858.85
523.6131, 17872.19
524.0952, 17882.69
524.5773, 17873.36
525.0594, 17858.92
525.5416, 17861.71
526.0237, 17883.45
526.5058, 17915.37
526.9879, 17955.25
527.4700, 17997.85
527.9521, 18018.88
528.4343, 17997.40
528.9164, 17981.74
529.3985, 17970.79
529.8806, 17969.04
530.3627, 17985.50
530.8448, 18016.55
531.3270, 18045.06
531.8091, 18056.33
532.2912, 18057.34
532.7733, 18063.22
533.2554, 18070.98
533.7375, 18103.82
534.2197, 18182.67
534.7018, 18279.13
535.1839, 18360.39
535.6660, 18427.71
536.1481, 18468.68
536.6302, 18467.99
537.1124, 18448.27
537.5945, 18409.68
538.0766, 18366.57
538.5587, 18365.05
539.0408, 18430.89
539.5229, 18529.48
540.0051, 18580.49
540.4872, 18556.58
540.9693, 18550.92
541.4514, 18574.85
541.9335, 18608.02
542.4156, 18644.19
542.8978, 18682.46
543.3799, 18723.55
543.8620, 18769.71
544.3441, 18814.79
544.8262, 18855.20
545.3083, 18889.26
545.7905, 18901.27
546.2726, 18881.34
546.7547, 18861.91
547.2368, 18880.04
547.7189, 18938.18
548.2010, 18975.40
548.6832, 18974.89
549.1653, 18972.91
549.6474, 18975.30
550.1295, 18986.73
550.6116, 19015.74
551.0938, 19063.02
551.5759, 19116.30
552.0580, 19162.49
552.5401, 19201.95
553.0222, 19237.15
553.5043, 19267.61
553.9865, 19295.06
554.4686, 19330.97
554.9507, 19359.64
555.4328, 19356.53
555.9149, 19312.39
556.3970, 19268.52
556.8792, 19237.51
557.3613, 19222.46
557.8434, 19232.50
558.3255, 19265.56
558.8076, 19307.17
559.2897, 19350.70
559.7719, 19390.74
560.2540, 19409.49
560.7361, 19404.91
561.2182, 19380.25
561.7003, 19308.82
562.1824, 19242.99
562.6646, 19219.45
563.1467, 19230.22
563.6288, 19241.95
564.1109, 19237.28
564.5930, 19223.31
565.0751, 19207.59
565.5573, 19190.66
566.0394, 19183.26
566.5215, 19194.94
567.0036, 19198.04
567.4857, 19155.09
567.9678, 19059.89
568.4500, 18994.37
568.9321, 18980.98
569.4142, 18972.27
569.8963, 18946.15
570.3784, 18915.12
570.8605, 18902.27
571.3427, 18911.93
571.8248, 18920.45
572.3069, 18894.08
572.7890, 18836.44
573.2711, 18812.51
573.7532, 18838.86
574.2354, 18858.50
574.7175, 18840.70
575.1996, 18804.18
575.6817, 18772.02
576.1638, 18744.44
576.6459, 18726.76
577.1281, 18736.64
577.6102, 18747.09
578.0923, 18717.83
578.5744, 18658.43
579.0565, 18619.30
579.5386, 18630.25
580.0208, 18670.61
580.5029, 18692.73
580.9850, 18697.00
581.4671, 18681.41
581.9492, 18617.52
582.4313, 18559.72
582.9134, 18540.05
583.3955, 18544.15
583.8776, 18535.93
584.3597, 18496.14
584.8419, 18453.41
585.3240, 18437.40
585.8061, 18438.95
586.2882, 18434.09
586.7703, 18418.22
587.2524, 18390.64
587.7346, 18347.57
588.2167, 18290.83
588.6988, 18250.32
589.1809, 18238.66
589.6630, 18227.57
590.1451, 18215.27
590.6273, 18201.59
591.1094, 18188.57
591.5915, 18175.01
592.0736, 18155.07
592.5557, 18123.75
593.0378, 18084.18
593.5200, 18039.06
594.0021, 17988.55
594.4842, 17941.78
594.9663, 17896.40
595.4484, 17867.37
595.9305, 17885.13
596.4127, 17962.39
596.8948, 17989.76
597.3769, 17914.76
597.8590, 17844.99
598.3411, 17830.68
598.8232, 17848.73
599.3054, 17870.07
599.7875, 17883.86
600.2696, 17882.20
600.7517, 17844.23
601.2338, 17776.97
601.7159, 17750.65
602.1981, 17778.86
602.6802, 17800.47
603.1623, 17785.15
603.6444, 17749.00
604.1265, 17717.60
604.6086, 17688.86
605.0908, 17673.65
605.5729, 17685.37
606.0550, 17702.32
606.5371, 17705.36
607.0192, 17699.35
607.5013, 17704.99
607.9835, 17732.18
608.4656, 17756.27
608.9477, 17724.00
609.4298, 17623.34
609.9119, 17572.61
610.3940, 17604.67
610.8762, 17640.29
611.3583, 17630.93
611.8404, 17597.92
612.3225, 17577.00
612.8046, 17581.51
613.2867, 17573.79
613.7689, 17514.32
614.2510, 17447.14
614.7331, 17431.43
615.2152, 17463.09
615.6973, 17497.61
616.1794, 17508.70
616.6616, 17501.03
617.1437, 17485.21
617.6258, 17458.79
618.1079, 17432.83
618.5900, 17404.66
619.0721, 17381.28
619.5543, 17368.56
620.0364, 17363.06
620.5185, 17356.78
621.0006, 17346.92
621.4827, 17337.00
621.9648, 17330.63
622.4470, 17325.00
622.9291, 17314.55
623.4112, 17299.03
623.8933, 17283.06
624.3754, 17269.56
624.8575, 17259.60
625.3397, 17259.12
625.8218, 17276.28
626.3039, 17285.24
626.7860, 17281.40
627.2681, 17269.89
627.7502, 17251.75
628.2324, 17228.24
628.7145, 17201.17
629.1966, 17165.68
629.6787, 17135.60
630.1608, 17126.57
630.6429, 17130.66
631.1251, 17132.10
631.6072, 17127.68
632.0893, 17119.68
632.5714, 17108.71
633.0535, 17096.46
633.5356, 17096.91
634.0178, 17128.94
634.4999, 17138.83
634.9820, 17092.49
635.4641, 17044.96
635.9462, 17041.48
636.4283, 17072.28
636.9105, 17087.02
637.3926, 17055.31
637.8747, 17010.47
638.3568, 16971.63
638.8389, 16944.54
639.3210, 16953.21
639.8032, 17001.43
640.2853, 17043.11
640.7674, 17031.44
641.2495, 16973.59
641.7316, 16947.21
642.2137, 16975.99
642.6959, 16995.68
643.1780, 16992.39
643.6601, 16980.72
644.1422, 16972.04
644.6243, 16965.22
645.1064, 16950.41
645.5886, 16917.91
646.0707, 16882.08
646.5528, 16855.45
647.0349, 16836.37
647.5170, 16818.20
647.9991, 16799.87
648.4813, 16793.98
648.9634, 16816.71
649.4455, 16862.96
649.9276, 16876.38
650.4097, 16833.11
650.8918, 16800.26
651.3740, 16800.77
651.8561, 16805.42
652.3382, 16788.96
652.8203, 16755.58
653.3024, 16732.55
653.7845, 16729.07
654.2667, 16741.02
654.7488, 16785.51
655.2309, 16838.44
655.7130, 16837.03
656.1951, 16771.67
656.6772, 16704.96
657.1594, 16696.30
657.6415, 16736.50
658.1236, 16761.22
658.6057, 16766.58
