##NAMES=Kolbeckite
##RRUFFID=R061040
##IDEAL CHEMISTRY=Sc^3+^P^5+^O_4_&#183;2H_2_O
##LOCALITY=Christy Pit, Magnet Cove, Arkansas, USA
##OWNER=RRUFF
##SOURCE=Mark Mauthner
##DESCRIPTION=Green platy crystal, severely twinned, associated with quartz.
##STATUS=The identification of this mineral has been confirmed only by single crystal X-ray diffraction.
##URL=rruff.info/R061040
121.0400, 1450.892
121.5221, 1517.313
122.0043, 1596.313
122.4864, 1676.261
122.9685, 1744.338
123.4506, 1795.130
123.9327, 1835.586
124.4148, 1869.149
124.8969, 1896.464
125.3791, 1923.758
125.8612, 1957.723
126.3433, 1995.176
126.8254, 2029.081
127.3075, 2057.698
127.7896, 2080.906
128.2718, 2096.726
128.7539, 2104.340
129.2360, 2110.002
129.7181, 2121.890
130.2002, 2138.881
130.6823, 2154.803
131.1645, 2163.354
131.6466, 2167.198
132.1287, 2178.222
132.6108, 2197.461
133.0929, 2223.521
133.5750, 2255.071
134.0572, 2292.732
134.5393, 2331.803
135.0214, 2368.833
135.5035, 2403.761
135.9856, 2443.197
136.4677, 2488.193
136.9499, 2538.261
137.4320, 2591.913
137.9141, 2650.500
138.3962, 2708.239
138.8783, 2761.953
139.3604, 2812.617
139.8426, 2853.035
140.3247, 2878.782
140.8068, 2888.704
141.2889, 2903.506
141.7710, 2925.465
142.2531, 2949.908
142.7353, 2971.129
143.2174, 2991.010
143.6995, 3003.463
144.1816, 3003.738
144.6637, 2982.090
145.1458, 2973.356
145.6280, 2984.704
146.1101, 3008.247
146.5922, 3021.187
147.0743, 3021.588
147.5564, 3013.250
148.0385, 2997.405
148.5207, 2963.599
149.0028, 2936.781
149.4849, 2921.918
149.9670, 2917.863
150.4491, 2909.549
150.9312, 2891.532
151.4134, 2872.670
151.8955, 2858.988
152.3776, 2854.473
152.8597, 2851.537
153.3418, 2849.439
153.8239, 2848.262
154.3061, 2847.906
154.7882, 2853.115
155.2703, 2857.668
155.7524, 2854.702
156.2345, 2831.656
156.7166, 2810.557
157.1988, 2799.587
157.6809, 2802.629
158.1630, 2805.793
158.6451, 2805.675
159.1272, 2803.253
159.6093, 2800.322
160.0915, 2798.697
160.5736, 2795.543
161.0557, 2789.205
161.5378, 2778.518
162.0199, 2765.774
162.5020, 2749.989
162.9841, 2732.401
163.4663, 2716.716
163.9484, 2708.254
164.4305, 2700.645
164.9126, 2688.696
165.3947, 2667.595
165.8768, 2645.304
166.3590, 2623.708
166.8411, 2603.591
167.3232, 2589.493
167.8053, 2587.199
168.2874, 2591.628
168.7695, 2596.650
169.2517, 2604.647
169.7338, 2609.452
170.2159, 2604.177
170.6980, 2588.335
171.1801, 2571.811
171.6622, 2558.411
172.1444, 2549.404
172.6265, 2547.161
173.1086, 2557.932
173.5907, 2573.764
174.0728, 2585.469
174.5549, 2591.468
175.0371, 2596.948
175.5192, 2608.829
176.0013, 2624.771
176.4834, 2637.578
176.9655, 2637.368
177.4476, 2632.436
177.9298, 2636.850
178.4119, 2655.000
178.8940, 2678.568
179.3761, 2699.732
179.8582, 2718.271
180.3403, 2734.065
180.8225, 2745.833
181.3046, 2754.613
181.7867, 2762.940
182.2688, 2770.056
182.7509, 2778.151
183.2330, 2792.816
183.7152, 2813.678
184.1973, 2834.044
184.6794, 2846.479
185.1615, 2852.791
185.6436, 2860.101
186.1257, 2870.975
186.6079, 2884.155
187.0900, 2897.267
187.5721, 2910.523
188.0542, 2921.826
188.5363, 2924.663
189.0184, 2920.695
189.5006, 2925.666
189.9827, 2952.174
190.4648, 2994.131
190.9469, 3022.548
191.4290, 3035.442
191.9111, 3040.132
192.3932, 3043.252
192.8754, 3044.793
193.3575, 3051.021
193.8396, 3066.687
194.3217, 3091.194
194.8038, 3114.171
195.2859, 3135.501
195.7681, 3155.038
196.2502, 3171.432
196.7323, 3183.904
197.2144, 3199.983
197.6965, 3226.981
198.1786, 3265.058
198.6608, 3294.252
199.1429, 3308.276
199.6250, 3316.765
200.1071, 3346.558
200.5892, 3401.422
201.0714, 3460.344
201.5535, 3507.123
202.0356, 3539.522
202.5177, 3581.116
202.9998, 3636.273
203.4819, 3702.612
203.9641, 3765.483
204.4462, 3822.399
204.9283, 3883.444
205.4104, 3959.687
205.8925, 4055.570
206.3746, 4144.951
206.8568, 4223.258
207.3389, 4291.890
207.8210, 4358.612
208.3031, 4423.757
208.7852, 4487.578
209.2673, 4548.441
209.7495, 4603.514
210.2316, 4667.749
210.7137, 4751.180
211.1958, 4853.023
211.6779, 4929.531
212.1600, 4975.727
212.6422, 5005.233
213.1243, 5034.489
213.6064, 5066.329
214.0885, 5089.234
214.5706, 5102.069
215.0527, 5105.782
215.5349, 5087.728
216.0170, 5046.484
216.4991, 4984.836
216.9812, 4906.021
217.4633, 4809.695
217.9454, 4698.343
218.4276, 4569.866
218.9097, 4421.861
219.3918, 4272.482
219.8739, 4119.483
220.3560, 3968.640
220.8381, 3827.322
221.3203, 3696.243
221.8024, 3576.042
222.2845, 3469.685
222.7666, 3380.368
223.2487, 3292.739
223.7308, 3205.642
224.2129, 3121.314
224.6951, 3045.148
225.1772, 2976.776
225.6593, 2915.988
226.1414, 2862.771
226.6235, 2820.637
227.1056, 2777.798
227.5878, 2728.909
228.0699, 2680.052
228.5520, 2648.452
229.0341, 2643.207
229.5162, 2642.352
229.9983, 2634.396
230.4805, 2615.097
230.9626, 2597.993
231.4447, 2583.301
231.9268, 2571.312
232.4089, 2563.753
232.8910, 2561.817
233.3732, 2562.569
233.8553, 2563.960
234.3374, 2563.862
234.8195, 2569.385
235.3016, 2584.729
235.7837, 2607.320
236.2659, 2619.284
236.7480, 2610.852
237.2301, 2603.648
237.7122, 2613.476
238.1943, 2651.035
238.6764, 2684.194
239.1586, 2708.460
239.6407, 2724.743
240.1228, 2743.003
240.6049, 2760.962
241.0870, 2783.624
241.5691, 2816.073
242.0513, 2865.871
242.5334, 2910.141
243.0155, 2940.620
243.4976, 2958.392
243.9797, 2995.550
244.4618, 3059.193
244.9440, 3133.718
245.4261, 3206.456
245.9082, 3276.998
246.3903, 3345.972
246.8724, 3411.963
247.3545, 3474.888
247.8367, 3544.155
248.3188, 3623.858
248.8009, 3704.664
249.2830, 3776.255
249.7651, 3828.772
250.2472, 3890.912
250.7294, 3970.301
251.2115, 4067.750
251.6936, 4163.589
252.1757, 4262.155
252.6578, 4355.133
253.1399, 4434.831
253.6220, 4493.037
254.1042, 4556.055
254.5863, 4632.126
255.0684, 4722.984
255.5505, 4801.125
256.0326, 4867.094
256.5147, 4919.606
256.9969, 4959.027
257.4790, 4985.582
257.9611, 4998.527
258.4432, 5001.259
258.9253, 4995.104
259.4074, 4953.078
259.8896, 4862.949
260.3717, 4749.664
260.8538, 4638.694
261.3359, 4530.834
261.8180, 4422.473
262.3001, 4310.618
262.7823, 4195.730
263.2644, 4083.048
263.7465, 3969.867
264.2286, 3863.050
264.7107, 3775.297
265.1928, 3708.887
265.6750, 3651.670
266.1571, 3600.673
266.6392, 3556.524
267.1213, 3515.752
267.6034, 3477.784
268.0855, 3444.589
268.5677, 3418.576
269.0498, 3399.960
269.5319, 3388.260
270.0140, 3385.315
270.4961, 3391.571
270.9782, 3393.921
271.4604, 3391.711
271.9425, 3386.771
272.4246, 3380.510
272.9067, 3372.025
273.3888, 3366.351
273.8709, 3367.056
274.3531, 3374.069
274.8352, 3373.128
275.3173, 3362.588
275.7994, 3346.977
276.2815, 3332.589
276.7636, 3320.354
277.2458, 3303.811
277.7279, 3276.516
278.2100, 3239.556
278.6921, 3221.500
279.1742, 3227.084
279.6563, 3239.924
280.1385, 3237.387
280.6206, 3218.096
281.1027, 3201.902
281.5848, 3197.539
282.0669, 3203.388
282.5490, 3203.357
283.0312, 3196.298
283.5133, 3187.147
283.9954, 3179.547
284.4775, 3173.400
284.9596, 3175.520
285.4417, 3191.454
285.9239, 3218.447
286.4060, 3239.366
286.8881, 3252.514
287.3702, 3266.652
287.8523, 3292.978
288.3344, 3330.940
288.8166, 3369.772
289.2987, 3403.833
289.7808, 3436.148
290.2629, 3478.914
290.7450, 3532.483
291.2271, 3590.846
291.7093, 3646.380
292.1914, 3700.181
292.6735, 3759.439
293.1556, 3822.855
293.6377, 3893.531
294.1198, 3982.232
294.6020, 4090.587
295.0841, 4201.203
295.5662, 4293.763
296.0483, 4374.602
296.5304, 4465.243
297.0125, 4574.211
297.4947, 4697.560
297.9768, 4824.011
298.4589, 4954.127
298.9410, 5095.434
299.4231, 5258.672
299.9052, 5438.412
300.3873, 5616.854
300.8694, 5785.157
301.3516, 5950.299
301.8337, 6124.783
302.3158, 6308.754
302.7979, 6491.970
303.2800, 6664.530
303.7621, 6831.680
304.2443, 7008.492
304.7264, 7204.066
305.2085, 7401.752
305.6906, 7591.828
306.1727, 7771.642
306.6548, 7934.281
307.1370, 8061.741
307.6191, 8171.552
308.1012, 8287.206
308.5833, 8432.054
309.0654, 8565.149
309.5475, 8646.266
310.0297, 8682.304
310.5118, 8708.939
310.9939, 8754.559
311.4760, 8797.402
311.9581, 8816.179
312.4402, 8800.939
312.9224, 8765.773
313.4045, 8717.241
313.8866, 8654.953
314.3687, 8578.982
314.8508, 8478.398
315.3329, 8370.303
315.8151, 8267.649
316.2972, 8170.937
316.7793, 8081.681
317.2614, 8000.979
317.7435, 7927.709
318.2256, 7858.577
318.7078, 7789.695
319.1899, 7726.529
319.6720, 7673.765
320.1541, 7640.797
320.6362, 7601.890
321.1183, 7548.693
321.6005, 7484.840
322.0826, 7419.037
322.5647, 7370.627
323.0468, 7306.714
323.5289, 7210.571
324.0110, 7066.694
324.4932, 6919.282
324.9753, 6775.329
325.4574, 6633.000
325.9395, 6491.277
326.4216, 6340.995
326.9037, 6199.414
327.3859, 6074.295
327.8680, 5975.590
328.3501, 5867.486
328.8322, 5739.468
329.3143, 5606.740
329.7964, 5488.402
330.2786, 5385.611
330.7607, 5296.235
331.2428, 5224.015
331.7249, 5175.122
332.2070, 5112.312
332.6891, 5020.004
333.1713, 4925.066
333.6534, 4860.519
334.1355, 4845.192
334.6176, 4823.289
335.0997, 4778.751
335.5818, 4711.202
336.0640, 4657.041
336.5461, 4622.255
337.0282, 4592.218
337.5103, 4549.572
337.9924, 4488.715
338.4745, 4437.098
338.9567, 4403.306
339.4388, 4384.225
339.9209, 4357.996
340.4030, 4327.072
340.8851, 4282.445
341.3672, 4212.674
341.8494, 4115.029
342.3315, 4021.881
342.8136, 3937.381
343.2957, 3861.232
343.7778, 3791.934
344.2599, 3730.947
344.7421, 3669.177
345.2242, 3597.905
345.7063, 3518.561
346.1884, 3449.652
346.6705, 3395.046
347.1526, 3349.397
347.6348, 3306.548
348.1169, 3266.288
348.5990, 3224.637
349.0811, 3176.201
349.5632, 3125.220
350.0453, 3081.688
350.5275, 3046.745
351.0096, 3020.099
351.4917, 3006.774
351.9738, 3002.869
352.4559, 2994.201
352.9380, 2966.881
353.4202, 2933.114
353.9023, 2911.913
354.3844, 2906.137
354.8665, 2900.669
355.3486, 2879.192
355.8307, 2849.509
356.3129, 2825.193
356.7950, 2815.214
357.2771, 2811.585
357.7592, 2810.806
358.2413, 2812.717
358.7234, 2810.206
359.2056, 2792.031
359.6877, 2769.572
360.1698, 2755.729
360.6519, 2760.089
361.1340, 2769.191
361.6161, 2781.635
362.0982, 2796.012
362.5804, 2801.084
363.0625, 2779.061
363.5446, 2754.011
364.0267, 2743.392
364.5088, 2760.419
364.9909, 2781.584
365.4731, 2808.241
365.9552, 2837.114
366.4373, 2855.049
366.9194, 2851.205
367.4015, 2842.813
367.8836, 2837.602
368.3658, 2835.845
368.8479, 2837.589
369.3300, 2841.272
369.8121, 2848.609
370.2942, 2863.354
370.7763, 2890.853
371.2585, 2919.439
371.7406, 2945.965
372.2227, 2970.582
372.7048, 2991.171
373.1869, 3005.678
373.6690, 3017.405
374.1512, 3030.355
374.6333, 3043.256
375.1154, 3060.657
375.5975, 3085.152
376.0796, 3116.821
376.5617, 3146.506
377.0439, 3174.382
377.5260, 3199.877
378.0081, 3219.288
378.4902, 3231.619
378.9723, 3252.236
379.4544, 3286.996
379.9366, 3331.550
380.4187, 3372.976
380.9008, 3411.087
381.3829, 3446.813
381.8650, 3476.588
382.3471, 3503.220
382.8293, 3541.412
383.3114, 3597.438
383.7935, 3659.438
384.2756, 3708.642
384.7577, 3746.438
385.2398, 3783.253
385.7220, 3824.242
386.2041, 3869.281
386.6862, 3920.294
387.1683, 3979.500
387.6504, 4036.673
388.1325, 4080.412
388.6147, 4115.068
389.0968, 4148.825
389.5789, 4187.317
390.0610, 4226.006
390.5431, 4258.233
391.0252, 4283.490
391.5074, 4313.721
391.9895, 4367.321
392.4716, 4426.510
392.9537, 4470.074
393.4358, 4483.365
393.9179, 4487.954
394.4001, 4488.485
394.8822, 4486.024
395.3643, 4487.986
395.8464, 4502.463
396.3285, 4518.365
396.8106, 4528.543
397.2928, 4535.028
397.7749, 4531.700
398.2570, 4507.044
398.7391, 4470.472
399.2212, 4451.093
399.7033, 4476.438
400.1855, 4493.685
400.6676, 4481.552
401.1497, 4424.593
401.6318, 4381.814
402.1139, 4360.724
402.5960, 4349.243
403.0782, 4329.275
403.5603, 4297.234
404.0424, 4264.581
404.5245, 4234.730
405.0066, 4207.918
405.4887, 4177.244
405.9709, 4140.271
406.4530, 4104.558
406.9351, 4078.783
407.4172, 4063.879
407.8993, 4045.937
408.3814, 4020.534
408.8636, 3991.253
409.3457, 3967.729
409.8278, 3949.902
410.3099, 3936.374
410.7920, 3927.966
411.2741, 3923.422
411.7563, 3916.489
412.2384, 3903.670
412.7205, 3895.632
413.2026, 3910.270
413.6847, 3942.663
414.1668, 3974.128
414.6490, 3988.814
415.1311, 4000.074
415.6132, 4027.472
416.0953, 4073.585
416.5774, 4119.286
417.0595, 4148.943
417.5417, 4170.642
418.0238, 4196.132
418.5059, 4228.234
418.9880, 4266.387
419.4701, 4310.910
419.9522, 4361.801
420.4344, 4415.873
420.9165, 4477.855
421.3986, 4538.849
421.8807, 4592.614
422.3628, 4623.363
422.8449, 4667.340
423.3270, 4736.162
423.8091, 4822.538
424.2913, 4910.030
424.7734, 4996.111
425.2555, 5082.456
425.7376, 5167.935
426.2197, 5250.463
426.7018, 5339.151
427.1840, 5439.426
427.6661, 5542.718
428.1482, 5637.013
428.6303, 5715.828
429.1124, 5803.561
429.5945, 5909.253
430.0767, 6029.727
430.5588, 6142.743
431.0409, 6246.712
431.5230, 6345.867
432.0051, 6441.216
432.4872, 6533.116
432.9694, 6630.537
433.4515, 6738.344
433.9336, 6849.612
434.4157, 6950.281
434.8978, 7041.156
435.3799, 7132.635
435.8621, 7235.487
436.3442, 7343.144
436.8263, 7440.881
437.3084, 7529.084
437.7905, 7602.191
438.2726, 7648.221
438.7548, 7675.483
439.2369, 7700.484
439.7190, 7738.273
440.2011, 7770.319
440.6832, 7778.289
441.1653, 7764.447
441.6475, 7745.550
442.1296, 7739.292
442.6117, 7726.891
443.0938, 7691.273
443.5759, 7613.338
444.0580, 7536.334
444.5402, 7489.039
445.0223, 7453.126
445.5044, 7389.521
445.9865, 7254.889
446.4686, 7123.323
446.9507, 7024.898
447.4329, 6971.435
447.9150, 6909.462
448.3971, 6838.133
448.8792, 6759.014
449.3613, 6670.130
449.8434, 6562.373
450.3256, 6462.671
450.8077, 6378.933
451.2898, 6307.681
451.7719, 6229.401
452.2540, 6141.588
452.7361, 6055.004
453.2183, 5975.482
453.7004, 5903.762
454.1825, 5836.071
454.6646, 5773.902
455.1467, 5713.219
455.6288, 5650.077
456.1110, 5584.152
456.5931, 5513.601
457.0752, 5431.216
457.5573, 5345.733
458.0394, 5284.573
458.5215, 5247.526
459.0037, 5207.080
459.4858, 5129.659
459.9679, 5034.777
460.4500, 4957.723
460.9321, 4916.387
461.4142, 4882.042
461.8964, 4835.796
462.3785, 4779.383
462.8606, 4718.024
463.3427, 4643.064
463.8248, 4570.800
464.3069, 4515.462
464.7891, 4484.890
465.2712, 4444.751
465.7533, 4376.261
466.2354, 4297.125
466.7175, 4229.171
467.1996, 4186.617
467.6818, 4142.775
468.1639, 4093.353
468.6460, 4038.976
469.1281, 3979.950
469.6102, 3912.602
470.0923, 3845.486
470.5745, 3782.839
471.0566, 3725.427
471.5387, 3671.112
472.0208, 3619.885
472.5029, 3571.622
472.9850, 3526.712
473.4672, 3485.837
473.9493, 3441.352
474.4314, 3387.448
474.9135, 3327.316
475.3956, 3274.989
475.8777, 3230.430
476.3599, 3189.424
476.8420, 3149.090
477.3241, 3109.425
477.8062, 3070.370
478.2883, 3031.619
478.7704, 2994.801
479.2526, 2961.780
479.7347, 2932.096
480.2168, 2904.994
480.6989, 2879.325
481.1810, 2856.061
481.6631, 2836.862
482.1453, 2822.512
482.6274, 2807.008
483.1095, 2784.161
483.5916, 2760.275
484.0737, 2742.402
484.5558, 2741.505
485.0379, 2736.005
485.5201, 2718.909
486.0022, 2691.997
486.4843, 2668.958
486.9664, 2648.103
487.4485, 2633.207
487.9306, 2628.246
488.4128, 2641.403
488.8949, 2638.901
489.3770, 2615.073
489.8591, 2582.467
490.3412, 2559.287
490.8233, 2546.083
491.3055, 2537.965
491.7876, 2534.580
492.2697, 2534.996
492.7518, 2536.706
493.2339, 2539.757
493.7160, 2541.600
494.1982, 2540.441
494.6803, 2536.442
495.1624, 2529.435
495.6445, 2518.344
496.1266, 2507.307
496.6087, 2498.789
497.0909, 2493.401
497.5730, 2492.281
498.0551, 2496.293
498.5372, 2504.633
499.0193, 2521.337
499.5014, 2545.619
499.9836, 2560.459
500.4657, 2547.649
500.9478, 2529.654
501.4299, 2522.692
501.9120, 2539.748
502.3941, 2553.840
502.8763, 2556.679
503.3584, 2554.706
503.8405, 2562.277
504.3226, 2590.068
504.8047, 2612.383
505.2868, 2620.931
505.7690, 2615.182
506.2511, 2608.694
506.7332, 2599.021
507.2153, 2593.589
507.6974, 2601.091
508.1795, 2622.016
508.6617, 2641.041
509.1438, 2654.800
509.6259, 2667.352
510.1080, 2690.020
510.5901, 2721.009
511.0722, 2744.865
511.5544, 2745.553
512.0365, 2736.526
512.5186, 2740.358
513.0007, 2757.749
513.4828, 2778.638
513.9650, 2799.077
514.4471, 2817.137
514.9292, 2829.446
515.4113, 2826.791
515.8934, 2830.480
516.3755, 2855.940
516.8576, 2895.359
517.3397, 2930.328
517.8218, 2956.892
518.3040, 2977.248
518.7861, 2988.826
519.2682, 2987.870
519.7503, 2998.785
520.2324, 3028.818
520.7145, 3064.819
521.1967, 3096.140
521.6788, 3121.802
522.1609, 3145.931
522.6430, 3168.583
523.1251, 3190.353
523.6072, 3211.138
524.0894, 3230.241
524.5715, 3253.588
525.0536, 3286.838
525.5357, 3326.975
526.0178, 3362.736
526.4999, 3394.277
526.9821, 3420.511
527.4642, 3437.075
527.9463, 3448.192
528.4284, 3460.978
528.9105, 3474.657
529.3926, 3495.555
529.8748, 3535.708
530.3569, 3587.596
530.8390, 3632.306
531.3211, 3658.011
531.8032, 3677.380
532.2853, 3692.608
532.7675, 3702.926
533.2496, 3726.525
533.7317, 3778.776
534.2138, 3838.571
534.6959, 3891.010
535.1780, 3926.794
535.6602, 3969.281
536.1423, 4024.798
536.6244, 4085.335
537.1065, 4135.114
537.5886, 4172.271
538.0707, 4202.611
538.5529, 4222.333
539.0350, 4235.089
539.5171, 4276.651
539.9992, 4350.253
540.4813, 4425.747
540.9634, 4477.256
541.4456, 4509.775
541.9277, 4534.287
542.4098, 4547.864
542.8919, 4568.162
543.3740, 4623.678
543.8561, 4700.299
544.3383, 4766.742
544.8204, 4804.055
545.3025, 4830.582
545.7846, 4848.913
546.2667, 4861.683
546.7488, 4893.074
547.2310, 4972.064
547.7131, 5057.195
548.1952, 5125.111
548.6773, 5169.344
549.1594, 5201.432
549.6415, 5210.690
550.1237, 5214.014
550.6058, 5236.722
551.0879, 5290.028
551.5700, 5334.329
552.0521, 5357.408
552.5342, 5365.044
553.0164, 5385.520
553.4985, 5420.436
553.9806, 5456.751
554.4627, 5486.842
554.9448, 5511.481
555.4269, 5534.784
555.9091, 5557.989
556.3912, 5574.005
556.8733, 5569.634
557.3554, 5553.507
557.8375, 5541.912
558.3196, 5542.964
558.8018, 5547.156
559.2839, 5550.219
559.7660, 5551.400
560.2481, 5548.566
560.7302, 5542.321
561.2123, 5530.583
561.6945, 5508.469
562.1766, 5471.479
562.6587, 5447.615
563.1408, 5443.284
563.6229, 5448.741
564.1050, 5459.548
564.5872, 5485.979
565.0693, 5490.650
565.5514, 5464.249
566.0335, 5419.976
566.5156, 5385.396
566.9977, 5360.912
567.4799, 5342.603
567.9620, 5330.715
568.4441, 5323.580
568.9262, 5318.380
569.4083, 5314.920
569.8904, 5308.147
570.3726, 5287.839
570.8547, 5264.025
571.3368, 5252.801
571.8189, 5260.938
572.3010, 5266.695
572.7831, 5253.232
573.2653, 5229.489
573.7474, 5208.267
574.2295, 5197.991
574.7116, 5185.743
575.1937, 5167.142
575.6758, 5142.917
576.1580, 5118.785
576.6401, 5092.252
577.1222, 5068.977
577.6043, 5052.710
578.0864, 5045.394
578.5685, 5032.091
579.0507, 5012.767
579.5328, 4987.632
580.0149, 4950.753
580.4970, 4903.246
580.9791, 4874.543
581.4612, 4877.444
581.9434, 4885.816
582.4255, 4853.204
582.9076, 4788.860
583.3897, 4726.848
583.8718, 4679.799
584.3539, 4646.015
584.8361, 4631.325
585.3182, 4633.406
585.8003, 4625.886
586.2824, 4588.823
586.7645, 4542.320
587.2466, 4499.854
587.7288, 4464.682
588.2109, 4430.757
588.6930, 4396.896
589.1751, 4364.212
589.6572, 4334.695
590.1393, 4312.398
590.6215, 4283.919
591.1036, 4243.347
591.5857, 4196.461
592.0678, 4166.030
592.5499, 4154.670
593.0320, 4138.391
593.5142, 4098.648
593.9963, 4043.120
594.4784, 4002.308
594.9605, 3976.366
595.4426, 3954.964
595.9247, 3931.203
596.4069, 3905.499
596.8890, 3877.944
597.3711, 3846.998
597.8532, 3817.727
598.3353, 3793.804
598.8174, 3772.678
599.2996, 3750.297
599.7817, 3729.939
600.2638, 3703.833
600.7459, 3667.483
601.2280, 3622.167
601.7101, 3578.016
602.1923, 3531.397
602.6744, 3491.711
603.1565, 3465.272
603.6386, 3453.128
604.1207, 3441.281
604.6028, 3431.662
605.0850, 3415.341
605.5671, 3372.875
606.0492, 3312.258
606.5313, 3277.105
607.0134, 3283.648
607.4955, 3297.650
607.9777, 3276.141
608.4598, 3230.534
608.9419, 3186.861
609.4240, 3156.634
609.9061, 3132.752
610.3882, 3114.147
610.8704, 3099.483
611.3525, 3081.285
611.8346, 3051.926
612.3167, 3023.005
612.7988, 3000.342
613.2809, 2984.766
613.7631, 2972.084
614.2452, 2964.298
614.7273, 2956.885
615.2094, 2944.774
615.6915, 2927.102
616.1736, 2913.229
616.6558, 2907.132
617.1379, 2900.831
617.6200, 2874.236
618.1021, 2831.720
