##NAMES=Kombatite
##RRUFFID=R070720
##IDEAL CHEMISTRY=Pb^2+^_14_O_9_(V^5+^O_4_)_2_Cl_4_
##LOCALITY=Kombat mine, Kombat, Grootfontein District, Otjozondjupa Region, Namibia
##OWNER=RRUFF
##SOURCE=William W. Pinch
##DESCRIPTION=Yellow irregular crystals with perfect cleavage, associated with black jacobsite, R070719 and colorless barysilite, R070651
##STATUS=The identification of this mineral has been confirmed by single-crystal X-ray diffraction.
##URL=rruff.info/R070720
121.9340, 34307.86
122.4161, 34386.75
122.8982, 34325.70
123.3804, 34347.01
123.8625, 34560.73
124.3446, 34961.48
124.8267, 35524.07
125.3088, 36220.38
125.7909, 37045.73
126.2731, 38067.94
126.7552, 39355.84
127.2373, 40825.69
127.7194, 42450.50
128.2015, 44231.48
128.6837, 46165.36
129.1658, 48277.09
129.6479, 50644.83
130.1300, 53059.80
130.6121, 55447.32
131.0942, 57876.40
131.5764, 60433.52
132.0585, 63142.11
132.5406, 65971.73
133.0227, 68772.83
133.5048, 71800.58
133.9869, 74512.09
134.4691, 76868.16
134.9512, 78866.46
135.4333, 80440.83
135.9154, 81504.11
136.3975, 82091.22
136.8796, 82899.60
137.3618, 83755.55
137.8439, 84922.52
138.3260, 86450.26
138.8081, 88371.93
139.2902, 90802.30
139.7723, 93905.34
140.2545, 97736.16
140.7366, 101868.2
141.2187, 106386.6
141.7008, 111146.7
142.1829, 116190.2
142.6650, 121628.4
143.1472, 126818.4
143.6293, 131377.8
144.1114, 135338.3
144.5935, 138246.8
145.0756, 140045.9
145.5577, 140673.7
146.0399, 139876.4
146.5220, 137329.2
147.0041, 133439.7
147.4862, 128598.6
147.9683, 122847.0
148.4504, 116651.1
148.9326, 110288.3
149.4147, 103679.2
149.8968, 97319.81
150.3789, 91158.10
150.8610, 85383.60
151.3431, 80130.63
151.8252, 75430.33
152.3074, 71230.62
152.7895, 67496.40
153.2716, 64259.75
153.7537, 61466.75
154.2358, 59120.45
154.7179, 57079.25
155.2001, 55227.85
155.6822, 53508.06
156.1643, 51936.59
156.6464, 50561.06
157.1285, 49548.90
157.6106, 48548.71
158.0928, 47533.81
158.5749, 46507.70
159.0570, 45488.17
159.5391, 44492.07
160.0212, 43506.99
160.5033, 42434.73
160.9855, 41253.18
161.4676, 40021.87
161.9497, 38740.21
162.4318, 37419.73
162.9139, 36080.81
163.3960, 34730.77
163.8782, 33368.97
164.3603, 32067.81
164.8424, 30850.00
165.3245, 29660.90
165.8066, 28464.19
166.2887, 27255.00
166.7709, 26087.80
167.2530, 25014.47
167.7351, 24035.40
168.2172, 23117.60
168.6993, 22265.63
169.1814, 21470.30
169.6636, 20719.06
170.1457, 20010.35
170.6278, 19347.73
171.1099, 18742.78
171.5920, 18185.12
172.0741, 17654.04
172.5563, 17139.06
173.0384, 16643.08
173.5205, 16183.37
174.0026, 15772.54
174.4847, 15381.14
174.9668, 14970.03
175.4490, 14541.61
175.9311, 14138.85
176.4132, 13803.36
176.8953, 13531.13
177.3774, 13246.84
177.8595, 12903.64
178.3417, 12571.50
178.8238, 12300.18
179.3059, 12092.83
179.7880, 11913.21
180.2701, 11723.27
180.7522, 11517.19
181.2344, 11321.88
181.7165, 11147.27
182.1986, 10980.48
182.6807, 10812.62
183.1628, 10641.94
183.6449, 10474.91
184.1271, 10323.14
184.6092, 10193.34
185.0913, 10067.27
185.5734, 9951.816
186.0555, 9834.572
186.5376, 9698.250
187.0198, 9535.865
187.5019, 9365.936
187.9840, 9234.913
188.4661, 9186.096
188.9482, 9125.428
189.4303, 9029.404
189.9125, 8922.210
190.3946, 8836.958
190.8767, 8790.876
191.3588, 8772.459
191.8409, 8725.472
192.3230, 8620.220
192.8052, 8519.571
193.2873, 8431.488
193.7694, 8355.976
194.2515, 8293.225
194.7336, 8244.273
195.2157, 8207.592
195.6979, 8166.176
196.1800, 8123.122
196.6621, 8073.779
197.1442, 8011.048
197.6263, 7939.308
198.1084, 7870.765
198.5906, 7812.216
199.0727, 7764.863
199.5548, 7728.563
200.0369, 7721.818
200.5190, 7709.801
201.0011, 7661.372
201.4833, 7580.580
201.9654, 7511.050
202.4475, 7492.600
202.9296, 7519.102
203.4117, 7518.401
203.8938, 7466.056
204.3760, 7399.643
204.8581, 7352.016
205.3402, 7325.364
205.8223, 7306.148
206.3044, 7289.347
206.7865, 7272.287
207.2687, 7244.549
207.7508, 7195.545
208.2329, 7138.119
208.7150, 7088.286
209.1971, 7046.943
209.6792, 7013.160
210.1614, 6993.910
210.6435, 6982.703
211.1256, 6963.638
211.6077, 6923.867
212.0898, 6873.021
212.5719, 6832.963
213.0541, 6808.481
213.5362, 6787.179
214.0183, 6758.091
214.5004, 6724.891
214.9825, 6697.098
215.4646, 6686.022
215.9468, 6686.146
216.4289, 6672.729
216.9110, 6633.478
217.3931, 6597.025
217.8752, 6579.425
218.3573, 6577.154
218.8395, 6579.935
219.3216, 6582.018
219.8037, 6583.494
220.2858, 6585.148
220.7679, 6585.958
221.2500, 6588.327
221.7322, 6593.920
222.2143, 6602.095
222.6964, 6610.733
223.1785, 6616.168
223.6606, 6617.884
224.1427, 6628.210
224.6249, 6658.952
225.1070, 6688.340
225.5891, 6704.230
226.0712, 6709.810
226.5533, 6717.844
227.0354, 6741.254
227.5176, 6782.220
227.9997, 6822.503
228.4818, 6853.502
228.9639, 6890.946
229.4460, 6947.026
229.9281, 7017.726
230.4103, 7086.960
230.8924, 7133.843
231.3745, 7148.300
231.8566, 7187.460
232.3387, 7280.341
232.8208, 7371.909
233.3030, 7435.456
233.7851, 7471.230
234.2672, 7495.629
234.7493, 7525.072
235.2314, 7558.140
235.7135, 7602.719
236.1957, 7671.059
236.6778, 7739.219
237.1599, 7791.980
237.6420, 7829.683
238.1241, 7864.057
238.6062, 7909.426
239.0884, 7973.134
239.5705, 8023.234
240.0526, 8048.692
240.5347, 8071.505
241.0168, 8102.362
241.4989, 8143.507
241.9811, 8192.757
242.4632, 8248.524
242.9453, 8313.667
243.4274, 8377.207
243.9095, 8435.375
244.3916, 8494.584
244.8738, 8562.813
245.3559, 8639.177
245.8380, 8713.456
246.3201, 8772.601
246.8022, 8808.353
247.2843, 8855.406
247.7665, 8927.550
248.2486, 9000.560
248.7307, 9057.747
249.2128, 9096.971
249.6949, 9125.466
250.1770, 9151.918
250.6592, 9178.877
251.1413, 9190.402
251.6234, 9183.001
252.1055, 9163.652
252.5876, 9135.492
253.0697, 9099.813
253.5519, 9058.871
254.0340, 9015.834
254.5161, 8971.334
254.9982, 8919.486
255.4803, 8849.160
255.9624, 8779.210
256.4445, 8725.168
256.9267, 8688.886
257.4088, 8660.858
257.8909, 8632.280
258.3730, 8603.230
258.8551, 8572.480
259.3372, 8537.792
259.8194, 8502.956
260.3015, 8468.748
260.7836, 8435.799
261.2657, 8409.187
261.7478, 8394.517
262.2299, 8393.964
262.7121, 8395.927
263.1942, 8398.031
263.6763, 8404.092
264.1584, 8415.125
264.6405, 8431.659
265.1227, 8458.315
265.6048, 8499.265
266.0869, 8556.557
266.5690, 8623.660
267.0511, 8704.206
267.5332, 8792.369
268.0154, 8883.042
268.4975, 8975.910
268.9796, 9073.686
269.4617, 9178.238
269.9438, 9291.193
270.4259, 9408.834
270.9081, 9540.509
271.3902, 9670.215
271.8723, 9779.282
272.3544, 9868.957
272.8365, 9964.013
273.3186, 10086.92
273.8008, 10235.54
274.2829, 10372.51
274.7650, 10504.56
275.2471, 10619.56
275.7292, 10709.99
276.2113, 10775.26
276.6935, 10815.70
277.1756, 10827.19
277.6577, 10810.34
278.1398, 10788.45
278.6219, 10778.85
279.1040, 10750.33
279.5862, 10676.01
280.0683, 10559.23
280.5504, 10426.90
281.0325, 10289.62
281.5146, 10150.90
281.9967, 10022.83
282.4789, 9911.527
282.9610, 9804.240
283.4431, 9690.114
283.9252, 9571.367
284.4073, 9463.476
284.8894, 9377.687
285.3716, 9307.080
285.8537, 9225.999
286.3358, 9114.599
286.8179, 9017.911
287.3000, 8963.967
287.7821, 8946.948
288.2643, 8945.337
288.7464, 8951.185
289.2285, 8965.662
289.7106, 8990.106
290.1927, 9027.697
290.6748, 9068.198
291.1570, 9100.611
291.6391, 9131.106
292.1212, 9179.552
292.6033, 9256.634
293.0854, 9352.367
293.5675, 9443.726
294.0497, 9523.610
294.5318, 9618.950
295.0139, 9748.052
295.4960, 9900.560
295.9781, 10053.42
296.4602, 10199.26
296.9424, 10342.49
297.4245, 10489.40
297.9066, 10641.74
298.3887, 10790.57
298.8708, 10923.18
299.3529, 11052.24
299.8351, 11202.72
300.3172, 11384.34
300.7993, 11577.89
301.2814, 11758.10
301.7635, 11923.32
302.2456, 12089.27
302.7278, 12252.77
303.2099, 12420.29
303.6920, 12602.80
304.1741, 12803.72
304.6562, 13007.08
305.1383, 13195.66
305.6205, 13367.87
306.1026, 13543.97
306.5847, 13732.98
307.0668, 13923.72
307.5489, 14099.13
308.0310, 14257.94
308.5132, 14423.09
308.9953, 14621.63
309.4774, 14855.14
309.9595, 15067.31
310.4416, 15240.81
310.9237, 15403.05
311.4059, 15575.17
311.8880, 15757.28
312.3701, 15939.75
312.8522, 16115.62
313.3343, 16284.48
313.8164, 16459.69
314.2986, 16655.13
314.7807, 16843.28
315.2628, 17006.09
315.7449, 17146.11
316.2270, 17281.01
316.7091, 17424.15
317.1913, 17569.01
317.6734, 17680.36
318.1555, 17734.45
318.6376, 17786.57
319.1197, 17887.04
319.6018, 18002.72
320.0840, 18054.33
320.5661, 17999.79
321.0482, 17862.08
321.5303, 17712.45
322.0124, 17541.92
322.4945, 17373.70
322.9767, 17204.70
323.4588, 17042.81
323.9409, 16903.02
324.4230, 16791.80
324.9051, 16696.87
325.3872, 16592.72
325.8694, 16475.31
326.3515, 16356.32
326.8336, 16231.37
327.3157, 16108.60
327.7978, 16001.33
328.2799, 15912.16
328.7621, 15822.38
329.2442, 15702.33
329.7263, 15530.12
330.2084, 15384.67
330.6905, 15294.95
331.1726, 15210.34
331.6548, 15086.45
332.1369, 14922.98
332.6190, 14757.10
333.1011, 14627.39
333.5832, 14540.76
334.0653, 14454.30
334.5475, 14378.12
335.0296, 14293.18
335.5117, 14181.28
335.9938, 14050.85
336.4759, 13925.70
336.9580, 13824.25
337.4402, 13746.23
337.9223, 13675.62
338.4044, 13647.20
338.8865, 13588.92
339.3686, 13460.60
339.8507, 13291.58
340.3329, 13135.21
340.8150, 13022.50
341.2971, 12940.50
341.7792, 12832.21
342.2613, 12679.55
342.7434, 12520.81
343.2256, 12360.06
343.7077, 12196.22
344.1898, 12026.62
344.6719, 11850.33
345.1540, 11671.16
345.6361, 11496.40
346.1183, 11333.80
346.6004, 11160.70
347.0825, 10971.00
347.5646, 10776.56
348.0467, 10580.73
348.5288, 10387.26
349.0110, 10201.57
349.4931, 10032.27
349.9752, 9880.188
350.4573, 9739.105
350.9394, 9620.195
351.4215, 9501.317
351.9037, 9372.443
352.3858, 9233.680
352.8679, 9090.012
353.3500, 8937.955
353.8321, 8778.971
354.3142, 8656.909
354.7964, 8595.549
355.2785, 8545.958
355.7606, 8491.652
356.2427, 8433.459
356.7248, 8373.357
357.2069, 8309.789
357.6891, 8247.056
358.1712, 8198.034
358.6533, 8164.380
359.1354, 8140.863
359.6175, 8118.979
360.0996, 8107.416
360.5818, 8120.814
361.0639, 8169.577
361.5460, 8230.362
362.0281, 8261.788
362.5102, 8257.016
362.9923, 8287.125
363.4745, 8401.366
363.9566, 8545.169
364.4387, 8665.518
364.9208, 8755.813
365.4029, 8834.385
365.8850, 8916.732
366.3672, 9000.052
366.8493, 9071.770
367.3314, 9131.493
367.8135, 9173.907
368.2956, 9197.832
368.7777, 9204.182
369.2599, 9185.544
369.7420, 9129.028
370.2241, 9048.400
370.7062, 8967.637
371.1883, 8890.329
371.6704, 8806.250
372.1526, 8702.033
372.6347, 8580.824
373.1168, 8462.144
373.5989, 8356.316
374.0810, 8247.568
374.5631, 8118.085
375.0453, 7969.793
375.5274, 7824.310
376.0095, 7695.999
376.4916, 7579.032
376.9737, 7447.094
377.4558, 7279.053
377.9380, 7121.116
378.4201, 6999.890
378.9022, 6899.191
379.3843, 6789.069
379.8664, 6657.618
380.3485, 6511.726
380.8307, 6366.275
381.3128, 6207.638
381.7949, 6074.577
382.2770, 5979.293
382.7591, 5905.074
383.2412, 5843.985
383.7234, 5791.657
384.2055, 5736.041
384.6876, 5661.457
385.1697, 5559.180
385.6518, 5475.423
386.1339, 5411.886
386.6161, 5361.468
387.0982, 5324.033
387.5803, 5296.906
388.0624, 5274.827
388.5445, 5253.250
389.0266, 5233.161
389.5088, 5225.817
389.9909, 5253.833
390.4730, 5268.722
390.9551, 5248.107
391.4372, 5214.555
391.9193, 5197.258
392.4015, 5209.104
392.8836, 5238.273
393.3657, 5260.424
393.8478, 5269.813
394.3299, 5286.006
394.8120, 5314.195
395.2942, 5347.748
395.7763, 5383.721
396.2584, 5421.243
396.7405, 5458.624
397.2226, 5492.586
397.7047, 5522.925
398.1869, 5560.208
398.6690, 5606.438
399.1511, 5658.980
399.6332, 5718.615
400.1153, 5782.818
400.5974, 5844.813
401.0796, 5896.040
401.5617, 5944.123
402.0438, 6006.035
402.5259, 6082.743
403.0080, 6169.612
403.4901, 6266.307
403.9723, 6371.660
404.4544, 6485.061
404.9365, 6612.245
405.4186, 6738.162
405.9007, 6841.153
406.3828, 6927.502
406.8650, 7033.802
407.3471, 7177.097
407.8292, 7340.461
408.3113, 7496.504
408.7934, 7640.646
409.2755, 7795.240
409.7577, 7983.284
410.2398, 8178.469
410.7219, 8344.572
411.2040, 8474.860
411.6861, 8580.029
412.1682, 8665.168
412.6504, 8726.133
413.1325, 8803.538
413.6146, 8915.047
414.0967, 9026.378
414.5788, 9131.553
415.0609, 9222.203
415.5431, 9278.155
416.0252, 9284.574
416.5073, 9250.779
416.9894, 9220.356
417.4715, 9213.416
417.9536, 9185.001
418.4358, 9114.248
418.9179, 9027.660
419.4000, 8956.057
419.8821, 8907.909
420.3642, 8864.283
420.8463, 8794.573
421.3285, 8687.659
421.8106, 8585.746
422.2927, 8490.736
422.7748, 8399.078
423.2569, 8316.562
423.7390, 8237.504
424.2212, 8143.979
424.7033, 8013.645
425.1854, 7856.743
425.6675, 7737.166
426.1496, 7679.811
426.6317, 7619.377
427.1139, 7533.918
427.5960, 7430.741
428.0781, 7315.190
428.5602, 7186.309
429.0423, 7056.138
429.5244, 6939.650
430.0066, 6837.011
430.4887, 6741.241
430.9708, 6653.349
431.4529, 6569.074
431.9350, 6484.486
432.4171, 6399.484
432.8993, 6313.172
433.3814, 6224.834
433.8635, 6135.125
434.3456, 6042.968
434.8277, 5947.859
435.3098, 5855.498
435.7920, 5770.885
436.2741, 5693.656
436.7562, 5617.329
437.2383, 5536.083
437.7204, 5460.944
438.2025, 5403.357
438.6847, 5357.637
439.1668, 5306.131
439.6489, 5239.369
440.1310, 5163.727
440.6131, 5096.743
441.0952, 5050.428
441.5774, 4995.220
442.0595, 4920.009
442.5416, 4840.740
443.0237, 4775.883
443.5058, 4726.478
443.9879, 4675.927
444.4701, 4603.721
444.9522, 4505.454
445.4343, 4418.940
445.9164, 4360.379
446.3985, 4297.541
446.8806, 4215.809
447.3628, 4123.340
447.8449, 4035.927
448.3270, 3961.857
448.8091, 3897.612
449.2912, 3834.671
449.7733, 3774.892
450.2555, 3711.632
450.7376, 3638.326
451.2197, 3563.966
451.7018, 3493.782
452.1839, 3429.141
452.6660, 3370.182
453.1482, 3316.831
453.6303, 3269.196
454.1124, 3229.457
454.5945, 3199.961
455.0766, 3173.020
455.5587, 3141.857
456.0409, 3107.952
456.5230, 3076.274
457.0051, 3048.947
457.4872, 3023.192
457.9693, 2999.320
458.4514, 2975.871
458.9336, 2944.427
459.4157, 2898.894
459.8978, 2845.488
460.3799, 2801.285
460.8620, 2769.518
461.3441, 2739.070
461.8262, 2708.571
462.3083, 2678.129
462.7905, 2649.933
463.2726, 2623.486
463.7547, 2592.718
464.2368, 2549.209
464.7189, 2489.855
465.2010, 2445.693
465.6832, 2432.457
466.1653, 2416.982
466.6474, 2388.527
467.1295, 2350.785
467.6116, 2308.958
468.0938, 2265.399
468.5759, 2223.343
469.0580, 2191.083
469.5401, 2171.164
470.0222, 2153.613
470.5043, 2142.155
470.9865, 2128.663
471.4686, 2106.162
471.9507, 2074.984
472.4328, 2043.030
472.9149, 2014.121
473.3970, 1989.054
473.8792, 1971.981
474.3613, 1965.316
474.8434, 1959.969
475.3255, 1949.905
475.8076, 1936.966
476.2897, 1924.624
476.7719, 1912.438
477.2540, 1902.202
477.7361, 1898.023
478.2182, 1897.132
478.7003, 1889.536
479.1824, 1870.415
479.6646, 1848.584
480.1467, 1838.943
480.6288, 1847.313
481.1109, 1849.199
481.5930, 1836.483
482.0751, 1822.338
482.5573, 1817.879
483.0394, 1821.531
483.5215, 1823.320
484.0036, 1815.525
484.4857, 1800.132
484.9678, 1790.540
485.4500, 1793.735
485.9321, 1793.548
486.4142, 1785.771
486.8963, 1774.954
487.3784, 1765.140
487.8605, 1757.489
488.3427, 1751.080
488.8248, 1744.389
489.3069, 1737.299
489.7890, 1734.643
490.2711, 1748.217
490.7532, 1749.963
491.2354, 1715.698
491.7175, 1659.516
492.1996, 1614.298
492.6817, 1598.108
493.1638, 1592.994
493.6459, 1575.839
494.1281, 1547.879
494.6102, 1528.057
495.0923, 1527.250
495.5744, 1533.762
496.0565, 1526.405
496.5386, 1503.257
497.0208, 1479.050
497.5029, 1453.847
497.9850, 1431.193
498.4671, 1416.472
498.9492, 1409.138
499.4313, 1402.452
499.9135, 1391.357
500.3956, 1376.047
500.8777, 1358.363
501.3598, 1329.490
501.8419, 1309.002
502.3240, 1304.897
502.8062, 1308.703
503.2883, 1313.089
503.7704, 1315.207
504.2525, 1312.475
504.7346, 1298.866
505.2167, 1271.931
505.6989, 1252.380
506.1810, 1243.725
506.6631, 1239.620
507.1452, 1237.752
507.6273, 1237.793
508.1094, 1239.325
508.5916, 1242.677
509.0737, 1246.798
509.5558, 1252.653
510.0379, 1259.911
510.5200, 1257.972
511.0021, 1238.251
511.4843, 1213.418
511.9664, 1203.702
512.4485, 1210.506
512.9306, 1217.338
513.4127, 1223.853
513.8948, 1226.040
514.3770, 1217.332
514.8591, 1198.885
515.3412, 1180.001
515.8233, 1166.999
516.3054, 1159.203
516.7875, 1152.646
517.2697, 1149.078
517.7518, 1144.566
518.2339, 1138.469
518.7160, 1131.392
519.1981, 1123.736
519.6802, 1115.650
520.1624, 1107.481
520.6445, 1100.275
521.1266, 1094.140
521.6087, 1083.512
522.0908, 1061.148
522.5729, 1045.435
523.0551, 1050.898
523.5372, 1065.800
524.0193, 1070.979
524.5014, 1058.030
524.9835, 1040.075
525.4656, 1028.956
525.9478, 1023.955
526.4299, 1021.556
526.9120, 1021.564
527.3941, 1022.286
527.8762, 1022.325
528.3583, 1021.782
528.8405, 1018.458
529.3226, 1010.674
529.8047, 1001.340
530.2868, 990.9285
530.7689, 980.4705
531.2510, 972.7798
531.7332, 969.5396
532.2153, 968.2723
532.6974, 962.1744
533.1795, 943.0309
533.6616, 934.4403
534.1437, 946.2800
534.6259, 959.4585
535.1080, 960.6674
535.5901, 951.7087
536.0722, 943.4159
536.5543, 943.7939
537.0364, 950.3593
537.5186, 956.2469
538.0007, 962.2786
538.4828, 964.5464
538.9649, 959.7398
539.4470, 951.3430
539.9291, 942.2047
540.4113, 931.8469
540.8934, 925.4383
541.3755, 930.0594
541.8576, 938.5178
542.3397, 938.2132
542.8218, 927.9790
543.3040, 917.6458
543.7861, 914.7756
544.2682, 918.2898
544.7503, 919.0096
545.2324, 917.3333
545.7145, 912.7949
546.1967, 901.2344
546.6788, 888.8837
547.1609, 882.8417
547.6430, 884.4156
548.1251, 889.3635
548.6072, 893.5973
549.0894, 897.1533
549.5715, 899.3621
550.0536, 901.9376
550.5357, 900.4354
551.0178, 888.1207
551.4999, 873.1096
551.9821, 867.4006
552.4642, 876.0182
552.9463, 888.0067
553.4284, 893.7077
553.9105, 894.3424
554.3926, 894.2736
554.8748, 893.9543
555.3569, 894.4794
555.8390, 897.5737
556.3211, 903.1212
556.8032, 906.1274
557.2853, 905.2767
557.7675, 903.1547
558.2496, 899.9980
558.7317, 896.6166
559.2138, 894.7054
559.6959, 894.8199
560.1780, 895.1883
560.6602, 892.5118
561.1423, 884.8773
561.6244, 881.8805
562.1065, 892.0384
562.5886, 898.4745
563.0707, 891.4291
563.5529, 877.1611
564.0350, 868.2474
564.5171, 871.8448
564.9992, 877.5963
565.4813, 869.6570
565.9634, 849.0446
566.4456, 831.6904
566.9277, 819.6736
567.4098, 814.3268
567.8919, 820.9944
568.3740, 838.1086
568.8561, 850.4228
569.3383, 853.7236
569.8204, 853.4443
570.3025, 853.2476
570.7846, 852.3137
571.2667, 847.1470
571.7488, 836.1676
572.2310, 824.0674
572.7131, 820.4881
573.1952, 832.4164
573.6773, 833.7753
574.1594, 814.2632
574.6415, 795.0242
575.1237, 785.1956
575.6058, 782.6556
576.0879, 781.3943
576.5700, 778.3467
577.0521, 775.6389
577.5342, 778.6207
578.0164, 787.3523
578.4985, 789.5281
578.9806, 780.0451
579.4627, 766.5213
579.9448, 756.0688
580.4269, 748.4036
580.9091, 742.2915
581.3912, 737.9039
581.8733, 734.5971
582.3554, 732.9825
582.8375, 732.0484
583.3196, 728.7378
583.8018, 721.6850
584.2839, 713.7415
584.7660, 710.0079
585.2481, 711.9990
585.7302, 713.9876
586.2123, 717.9421
586.6945, 719.9420
587.1766, 715.6246
587.6587, 708.4976
588.1408, 706.1144
588.6229, 713.0766
589.1050, 722.4844
589.5872, 723.6247
590.0693, 716.8400
590.5514, 711.9985
591.0335, 712.6397
591.5156, 712.9562
591.9977, 704.5953
592.4799, 689.1962
592.9620, 680.0814
593.4441, 684.1497
593.9262, 689.9411
594.4083, 690.9317
594.8904, 688.7498
595.3726, 686.9271
595.8547, 686.7202
596.3368, 686.9944
596.8189, 685.6318
597.3010, 681.3876
597.7831, 681.4690
598.2653, 691.6132
598.7474, 700.1660
599.2295, 703.0459
599.7116, 702.0722
600.1937, 700.1370
600.6758, 698.2072
601.1580, 695.8181
601.6401, 691.7806
602.1222, 686.6565
602.6043, 684.2125
603.0864, 686.2922
603.5685, 686.1114
604.0507, 675.9969
604.5328, 657.4401
605.0149, 645.8304
605.4970, 644.4527
605.9791, 646.0536
606.4612, 650.4521
606.9434, 655.3771
607.4255, 658.1446
607.9076, 658.1094
608.3897, 655.9907
608.8718, 651.6912
609.3539, 645.3511
609.8361, 644.2018
610.3182, 652.0673
610.8003, 658.7954
611.2824, 659.3871
611.7645, 658.1266
612.2466, 660.3890
612.7288, 667.4293
613.2109, 672.9503
613.6930, 670.7909
614.1751, 664.9706
614.6572, 663.7198
615.1393, 667.5972
615.6215, 669.7848
616.1036, 664.8666
616.5857, 655.9775
