##NAMES=Koritnigite
##RRUFFID=R060654
##IDEAL CHEMISTRY=Zn^2+^(As^5+^O_3_OH)&#183;H_2_O
##LOCALITY=Jachymov, Czech Republic
##OWNER=RRUFF
##SOURCE=Michael Scott
##DESCRIPTION=Reddish-pink spherical aggregates
##STATUS=The identification of this mineral is confirmed by single-crystal X-ray diffraction and chemical analysis.
##URL=rruff.info/R060654
##MEASURED CHEMISTRY=(Zn_0.83_Co_0.13_Ni_0.03_Fe_0.01_)_Σ=1_(As_1.00_O_3_OH)·H_2_O ; OH estimated by stoichiometry and charge balance
129.237, 4557.399
129.719, 4602.353
130.201, 4638.710
130.683, 4686.233
131.165, 4745.675
131.648, 4813.232
132.130, 4886.773
132.612, 4966.075
133.094, 5045.413
133.576, 5124.082
134.058, 5200.841
134.540, 5267.985
135.022, 5320.406
135.504, 5367.045
135.987, 5431.259
136.469, 5516.244
136.951, 5606.556
137.433, 5691.206
137.915, 5770.874
138.397, 5845.181
138.879, 5919.046
139.361, 5990.270
139.844, 6025.180
140.326, 6017.765
140.808, 5984.298
141.290, 5939.787
141.772, 5878.204
142.254, 5820.290
142.736, 5773.006
143.218, 5737.919
143.700, 5702.364
144.182, 5661.283
144.665, 5621.660
145.147, 5596.068
145.629, 5588.657
146.111, 5589.655
146.593, 5595.442
147.075, 5606.277
147.557, 5621.000
148.040, 5639.140
148.522, 5660.822
149.004, 5686.764
149.486, 5711.990
149.968, 5745.304
150.450, 5791.356
150.932, 5849.562
151.414, 5922.232
151.896, 6014.744
152.378, 6128.269
152.861, 6236.876
153.343, 6339.922
153.825, 6438.241
154.307, 6531.359
154.789, 6612.135
155.271, 6694.912
155.753, 6782.238
156.235, 6871.555
156.718, 6974.340
157.200, 7092.714
157.682, 7226.183
158.164, 7372.181
158.646, 7545.240
159.128, 7719.043
159.610, 7878.013
160.092, 8002.749
160.574, 8146.392
161.057, 8339.761
161.539, 8566.182
162.021, 8780.563
162.503, 8970.368
162.985, 9138.569
163.467, 9285.784
163.949, 9398.603
164.431, 9506.571
164.913, 9627.366
165.396, 9757.918
165.878, 9882.017
166.360, 9992.215
166.842, 10091.790
167.324, 10184.200
167.806, 10279.890
168.288, 10363.090
168.770, 10425.370
169.253, 10467.400
169.735, 10487.880
170.217, 10486.080
170.699, 10462.570
171.181, 10418.020
171.663, 10359.980
172.145, 10277.620
172.627, 10151.890
173.109, 9976.973
173.592, 9788.549
174.074, 9615.557
174.556, 9453.666
175.038, 9287.276
175.520, 9105.218
176.002, 8912.881
176.484, 8720.578
176.966, 8523.501
177.449, 8334.346
177.931, 8166.468
178.413, 8019.220
178.895, 7893.254
179.377, 7801.654
179.859, 7731.691
180.341, 7658.868
180.823, 7578.452
181.305, 7492.593
181.788, 7398.994
182.270, 7298.365
182.752, 7210.472
183.234, 7162.393
183.716, 7143.465
184.198, 7117.586
184.680, 7067.992
185.162, 7007.831
185.645, 6966.118
186.127, 6944.311
186.609, 6927.143
187.091, 6896.119
187.573, 6854.104
188.055, 6819.311
188.537, 6806.368
189.019, 6807.289
189.501, 6789.977
189.984, 6752.955
190.466, 6704.530
190.948, 6651.433
191.430, 6593.540
191.912, 6542.734
192.394, 6506.820
192.876, 6484.596
193.358, 6461.718
193.840, 6437.403
194.323, 6413.724
194.805, 6394.516
195.287, 6380.270
195.769, 6366.669
196.251, 6352.948
196.733, 6339.122
197.215, 6316.251
197.697, 6275.972
198.180, 6234.409
198.662, 6237.278
199.144, 6291.939
199.626, 6353.010
200.108, 6389.746
200.590, 6399.841
201.072, 6408.672
201.554, 6417.536
202.036, 6428.112
202.519, 6448.006
203.001, 6478.676
203.483, 6513.635
203.965, 6548.343
204.447, 6582.846
204.929, 6615.741
205.411, 6646.970
205.893, 6676.121
206.376, 6699.080
206.858, 6714.197
207.340, 6726.127
207.822, 6740.371
208.304, 6758.630
208.786, 6772.856
209.268, 6780.616
209.750, 6782.096
210.232, 6781.660
210.715, 6777.410
211.197, 6774.669
211.679, 6782.488
212.161, 6806.888
212.643, 6825.454
213.125, 6827.481
213.607, 6809.021
214.089, 6809.937
214.572, 6839.602
215.054, 6879.644
215.536, 6898.978
216.018, 6887.154
216.500, 6876.616
216.982, 6856.347
217.464, 6861.048
217.946, 6898.826
218.428, 6928.571
218.911, 6950.720
219.393, 6942.519
219.875, 6973.509
220.357, 6988.792
220.839, 7003.436
221.321, 7039.941
221.803, 7050.731
222.285, 7054.747
222.768, 7067.420
223.250, 7089.624
223.732, 7124.067
224.214, 7164.538
224.696, 7209.964
225.178, 7265.292
225.660, 7313.508
226.142, 7352.455
226.624, 7383.845
227.107, 7411.978
227.589, 7430.365
228.071, 7454.228
228.553, 7493.518
229.035, 7556.561
229.517, 7618.858
229.999, 7682.795
230.481, 7746.159
230.964, 7788.208
231.446, 7796.681
231.928, 7798.857
232.410, 7814.736
232.892, 7853.531
233.374, 7887.931
233.856, 7916.021
234.338, 7937.671
234.820, 7946.907
235.303, 7940.300
235.785, 7925.235
236.267, 7907.085
236.749, 7883.457
237.231, 7861.956
237.713, 7847.203
238.195, 7839.272
238.677, 7816.820
239.160, 7775.424
239.642, 7724.002
240.124, 7669.280
240.606, 7604.748
241.088, 7549.353
241.570, 7510.228
242.052, 7489.080
242.534, 7457.842
243.016, 7410.052
243.499, 7357.602
243.981, 7313.982
244.463, 7284.248
244.945, 7254.073
245.427, 7221.959
245.909, 7189.162
246.391, 7143.232
246.873, 7077.331
247.355, 7003.102
247.838, 6934.548
248.320, 6867.948
248.802, 6812.774
249.284, 6772.558
249.766, 6749.288
250.248, 6731.838
250.730, 6725.772
251.212, 6721.617
251.695, 6705.450
252.177, 6671.561
252.659, 6637.225
253.141, 6607.946
253.623, 6585.667
254.105, 6560.079
254.587, 6527.115
255.069, 6494.037
255.551, 6472.702
256.034, 6466.052
256.516, 6465.267
256.998, 6470.215
257.480, 6484.584
257.962, 6485.395
258.444, 6465.155
258.926, 6436.655
259.408, 6415.413
259.891, 6386.598
260.373, 6396.927
260.855, 6394.210
261.337, 6404.666
261.819, 6411.923
262.301, 6416.156
262.783, 6408.302
263.265, 6416.055
263.747, 6417.554
264.229, 6418.795
264.712, 6425.302
265.194, 6434.393
265.676, 6434.014
266.158, 6420.442
266.640, 6400.710
267.122, 6388.268
267.604, 6384.323
268.086, 6384.670
268.569, 6387.524
269.051, 6392.602
269.533, 6404.378
270.015, 6427.894
270.497, 6453.123
270.979, 6459.170
271.461, 6442.843
271.943, 6418.860
272.426, 6389.117
272.908, 6350.385
273.390, 6330.584
273.872, 6334.340
274.354, 6352.636
274.836, 6370.469
275.318, 6388.446
275.800, 6402.853
276.282, 6412.151
276.765, 6416.326
277.247, 6411.801
277.729, 6393.046
278.211, 6372.926
278.693, 6381.765
279.175, 6425.081
279.657, 6461.807
280.139, 6464.146
280.621, 6431.356
281.104, 6423.202
281.586, 6449.483
282.068, 6487.046
282.550, 6491.412
283.032, 6459.894
283.514, 6430.596
283.996, 6428.178
284.478, 6450.021
284.961, 6456.220
285.443, 6443.146
285.925, 6418.802
286.407, 6391.876
286.889, 6362.302
287.371, 6341.722
287.853, 6341.472
288.335, 6357.812
288.818, 6366.133
289.300, 6364.074
289.782, 6357.447
290.264, 6354.029
290.746, 6353.607
291.228, 6354.553
291.710, 6355.368
292.192, 6356.699
292.674, 6360.062
293.156, 6364.717
293.639, 6374.424
294.121, 6397.491
294.603, 6431.728
295.085, 6465.096
295.567, 6489.033
296.049, 6507.941
296.531, 6534.083
297.013, 6569.423
297.496, 6606.916
297.978, 6639.734
298.460, 6668.227
298.942, 6693.774
299.424, 6708.587
299.906, 6723.007
300.388, 6759.774
300.870, 6822.250
301.353, 6886.907
301.835, 6926.218
302.317, 6947.555
302.799, 6972.932
303.281, 7011.329
303.763, 7059.463
304.245, 7115.769
304.727, 7181.396
305.209, 7244.197
305.692, 7293.852
306.174, 7333.152
306.656, 7367.499
307.138, 7396.972
307.620, 7424.353
308.102, 7439.427
308.584, 7442.771
309.066, 7462.675
309.548, 7478.561
310.031, 7490.642
310.513, 7487.525
310.995, 7504.032
311.477, 7512.675
311.959, 7520.996
312.441, 7540.267
312.923, 7539.361
313.405, 7558.456
313.888, 7569.568
314.370, 7578.828
314.852, 7587.445
315.334, 7598.375
315.816, 7632.005
316.298, 7688.124
316.780, 7750.458
317.262, 7814.366
317.744, 7880.937
318.227, 7949.627
318.709, 8027.209
319.191, 8101.251
319.673, 8161.210
320.155, 8209.438
320.637, 8271.529
321.119, 8366.103
321.601, 8470.840
322.083, 8569.991
322.566, 8647.674
323.048, 8731.513
323.530, 8830.538
324.012, 8942.191
324.494, 9048.845
324.976, 9130.092
325.458, 9217.240
325.940, 9328.520
326.422, 9543.283
326.905, 9689.784
327.387, 9732.943
327.869, 9689.823
328.351, 9647.020
328.833, 9609.197
329.315, 9567.863
329.797, 9518.562
330.280, 9451.187
330.762, 9392.469
331.244, 9348.479
331.726, 9312.790
332.208, 9267.343
332.690, 9214.680
333.172, 9149.035
333.654, 9064.085
334.136, 8943.493
334.618, 8844.067
335.101, 8771.901
335.583, 8715.976
336.065, 8652.692
336.547, 8574.819
337.029, 8504.726
337.511, 8453.691
337.993, 8424.563
338.475, 8393.063
338.958, 8357.911
339.440, 8321.647
339.922, 8289.710
340.404, 8262.715
340.886, 8234.729
341.368, 8199.435
341.850, 8158.095
342.332, 8137.313
342.815, 8143.079
343.297, 8153.138
343.779, 8137.614
344.261, 8096.686
344.743, 8057.826
345.225, 8027.087
345.707, 8005.781
346.189, 7999.064
346.671, 8007.954
347.154, 8024.932
347.636, 8046.253
348.118, 8070.480
348.600, 8091.303
349.082, 8106.271
349.564, 8116.940
350.046, 8124.785
350.528, 8129.782
351.010, 8136.249
351.493, 8137.757
351.975, 8143.710
352.457, 8176.803
352.939, 8254.960
353.421, 8343.988
353.903, 8407.727
354.385, 8448.898
354.867, 8479.868
355.349, 8494.354
355.832, 8508.921
356.314, 8546.851
356.796, 8624.216
357.278, 8699.568
357.760, 8741.756
358.242, 8759.005
358.724, 8773.521
359.207, 8779.907
359.689, 8797.742
360.171, 8845.139
360.653, 8932.525
361.135, 9020.888
361.617, 9094.319
362.099, 9157.526
362.581, 9217.044
363.063, 9271.810
363.546, 9326.380
364.028, 9385.317
364.510, 9451.233
364.992, 9506.342
365.474, 9534.305
365.956, 9554.354
366.438, 9587.108
366.920, 9652.757
367.402, 9713.954
367.885, 9761.675
368.367, 9795.071
368.849, 9829.776
369.331, 9880.237
369.813, 9922.607
370.295, 9938.658
370.777, 9905.971
371.259, 9880.786
371.741, 9874.868
372.224, 9883.100
372.706, 9869.543
373.188, 9821.782
373.670, 9769.516
374.152, 9733.192
374.634, 9724.483
375.116, 9694.270
375.598, 9631.861
376.081, 9550.666
376.563, 9482.235
377.045, 9427.404
377.527, 9381.941
378.009, 9348.500
378.491, 9328.657
378.973, 9290.783
379.455, 9228.639
379.938, 9162.159
380.420, 9128.257
380.902, 9126.269
381.384, 9119.763
381.866, 9087.878
382.348, 9039.220
382.830, 9003.288
383.312, 8980.072
383.794, 8971.028
384.276, 8987.815
384.759, 9022.256
385.241, 9045.902
385.723, 9037.609
386.205, 9021.711
386.687, 9035.300
387.169, 9075.887
387.651, 9122.465
388.134, 9164.889
388.616, 9201.284
389.098, 9228.684
389.580, 9241.347
390.062, 9251.750
390.544, 9271.076
391.026, 9296.503
391.508, 9318.500
391.990, 9332.141
392.473, 9341.080
392.955, 9349.521
393.437, 9361.473
393.919, 9364.217
394.401, 9348.134
394.883, 9320.646
395.365, 9293.724
395.847, 9255.649
396.329, 9229.020
396.812, 9199.605
397.294, 9167.570
397.776, 9125.034
398.258, 9096.057
398.740, 9061.646
399.222, 9027.011
399.704, 8999.937
400.186, 8958.927
400.668, 8931.000
401.151, 8864.311
401.633, 8802.571
402.115, 8741.784
402.597, 8690.600
403.079, 8643.697
403.561, 8566.800
404.043, 8543.600
404.525, 8539.712
405.008, 8531.136
405.490, 8518.122
405.972, 8487.389
406.454, 8479.539
406.936, 8462.519
407.418, 8450.039
407.900, 8417.717
408.382, 8409.760
408.865, 8416.454
409.347, 8426.196
409.829, 8438.728
410.311, 8451.372
410.793, 8461.108
411.275, 8470.435
411.757, 8485.479
412.239, 8506.309
412.721, 8532.938
413.203, 8572.542
413.686, 8617.852
414.168, 8649.881
414.650, 8653.104
415.132, 8652.192
415.614, 8673.690
416.096, 8714.630
416.578, 8761.941
417.060, 8811.727
417.543, 8861.617
418.025, 8908.770
418.507, 8955.217
418.989, 8994.322
419.471, 9021.888
419.953, 9040.022
420.435, 9053.389
420.917, 9051.629
421.400, 9055.608
421.882, 9080.534
422.364, 9133.752
422.846, 9171.574
423.328, 9181.798
423.810, 9175.459
424.292, 9163.630
424.774, 9139.889
425.256, 9119.031
425.739, 9103.996
426.221, 9094.284
426.703, 9082.848
427.185, 9064.117
427.667, 9050.109
428.149, 9051.269
428.631, 9019.767
429.113, 9016.736
429.595, 9006.797
430.078, 8990.316
430.560, 8947.711
431.042, 8938.841
431.524, 8916.452
432.006, 8893.508
432.488, 8889.383
432.970, 8863.124
433.452, 8833.283
433.935, 8823.841
434.417, 8797.982
434.899, 8759.210
435.381, 8726.653
435.863, 8705.752
436.345, 8695.908
436.827, 8701.952
437.309, 8722.370
437.791, 8738.722
438.274, 8735.662
438.756, 8720.123
439.238, 8699.161
439.720, 8667.767
440.202, 8645.850
440.684, 8650.605
441.166, 8676.598
441.648, 8711.503
442.130, 8759.805
442.613, 8806.923
443.095, 8844.675
443.577, 8871.725
444.059, 8893.017
444.541, 8903.842
445.023, 8912.328
445.505, 8927.012
445.987, 8954.256
446.470, 8982.479
446.952, 9011.102
447.434, 9039.989
447.916, 9065.061
448.398, 9078.961
448.880, 9096.736
449.362, 9129.701
449.844, 9197.504
450.327, 9233.704
450.809, 9227.122
451.291, 9195.984
451.773, 9171.464
452.255, 9149.867
452.737, 9148.558
453.219, 9180.298
453.701, 9242.711
454.183, 9297.955
454.665, 9348.537
455.148, 9383.447
455.630, 9384.886
456.112, 9357.790
456.594, 9332.626
457.076, 9316.770
457.558, 9306.476
458.040, 9298.590
458.522, 9292.123
459.005, 9280.792
459.487, 9253.138
459.969, 9221.646
460.451, 9203.804
460.933, 9204.935
461.415, 9206.337
461.897, 9194.994
462.379, 9175.409
462.862, 9154.151
463.344, 9116.093
463.826, 9092.823
464.308, 9029.988
464.790, 9033.208
465.272, 9020.397
465.754, 8992.413
466.236, 8903.819
466.718, 8892.431
467.201, 8855.967
467.683, 8826.641
468.165, 8808.540
468.647, 8795.711
469.129, 8771.724
469.611, 8721.695
470.093, 8684.277
470.575, 8680.926
471.057, 8718.362
471.540, 8712.720
472.022, 8648.404
472.504, 8571.943
472.986, 8541.001
473.468, 8558.537
473.950, 8565.729
474.432, 8546.355
474.914, 8512.166
475.397, 8492.435
475.879, 8486.700
476.361, 8481.808
476.843, 8475.043
477.325, 8462.240
477.807, 8432.247
478.289, 8381.952
478.771, 8326.116
479.254, 8275.829
479.736, 8230.100
480.218, 8186.974
480.700, 8137.889
481.182, 8096.898
481.664, 8081.713
482.146, 8088.700
482.628, 8085.558
483.110, 8042.539
483.592, 7994.891
484.075, 7967.778
484.557, 7987.183
485.039, 7992.903
485.521, 7968.385
486.003, 7925.367
486.485, 7889.142
486.967, 7869.748
487.449, 7843.479
487.932, 7800.521
488.414, 7739.768
488.896, 7692.282
489.378, 7663.123
489.860, 7639.343
490.342, 7607.774
490.824, 7566.932
491.306, 7532.710
491.789, 7507.916
492.271, 7490.202
492.753, 7477.542
493.235, 7469.431
493.717, 7454.775
494.199, 7416.294
494.681, 7368.534
495.163, 7347.871
495.645, 7357.339
496.128, 7368.902
496.610, 7356.154
497.092, 7328.880
497.574, 7303.330
498.056, 7284.371
498.538, 7268.341
499.020, 7246.813
499.502, 7224.830
499.984, 7220.249
500.467, 7275.084
500.949, 7322.384
501.431, 7318.866
501.913, 7238.716
502.395, 7177.990
502.877, 7164.492
503.359, 7169.334
503.841, 7160.979
504.323, 7124.693
504.806, 7098.360
505.288, 7091.941
505.770, 7100.793
506.252, 7096.741
506.734, 7072.911
507.216, 7054.046
507.698, 7060.296
508.181, 7092.542
508.663, 7109.234
509.145, 7108.408
509.627, 7093.778
510.109, 7059.529
510.591, 7011.381
511.073, 6980.393
511.555, 6986.920
512.037, 7009.550
512.519, 7014.248
513.002, 7004.080
513.484, 6998.840
513.966, 7022.383
514.448, 7051.400
514.930, 7060.095
515.412, 7037.635
515.894, 7017.083
516.377, 7015.235
516.859, 7024.243
517.341, 7033.141
517.823, 7041.818
518.305, 7047.231
518.787, 7049.631
519.269, 7048.624
519.751, 7039.779
520.233, 7011.402
520.716, 6987.662
521.198, 6982.248
521.680, 7002.007
522.162, 7020.658
522.644, 7039.591
523.126, 7055.374
523.608, 7064.425
524.090, 7067.290
524.572, 7055.615
525.055, 7017.487
525.537, 6967.648
526.019, 6950.654
526.501, 6965.542
526.983, 6985.578
527.465, 6994.323
527.947, 6994.229
528.429, 6988.282
528.911, 6975.610
529.394, 6962.947
529.876, 6952.709
530.358, 6946.445
530.840, 6946.398
531.322, 6955.728
531.804, 6969.285
532.286, 6990.003
532.768, 7015.474
533.250, 7030.810
533.733, 7028.089
534.215, 7018.283
534.697, 7006.994
535.179, 6996.343
535.661, 6978.340
536.143, 6943.111
536.625, 6908.693
537.107, 6901.714
537.589, 6929.308
538.072, 6958.815
538.554, 6986.920
539.036, 7010.267
539.518, 7009.398
540.000, 6982.787
540.482, 6961.212
540.964, 6972.002
541.446, 7003.425
541.929, 7023.298
542.411, 7027.839
542.893, 7029.637
543.375, 7038.123
543.857, 7052.368
544.339, 7071.554
544.821, 7111.148
545.303, 7138.056
545.786, 7121.100
546.268, 7073.095
546.750, 7037.656
547.232, 7038.982
547.714, 7048.381
548.196, 7054.457
548.678, 7057.258
549.160, 7052.535
549.643, 7030.651
550.125, 7008.994
550.607, 7004.929
551.089, 7029.388
551.571, 7041.684
552.053, 7030.298
552.535, 7008.484
553.017, 7013.765
553.499, 7048.813
553.982, 7083.633
554.464, 7106.231
554.946, 7117.536
555.428, 7120.064
555.910, 7113.730
556.392, 7100.907
556.874, 7073.524
557.356, 7043.592
557.838, 7032.474
558.321, 7052.403
558.803, 7075.877
559.285, 7086.312
559.767, 7087.176
560.249, 7084.865
560.731, 7072.523
561.213, 7066.064
561.695, 7075.981
562.177, 7102.623
562.660, 7118.585
563.142, 7108.775
563.624, 7100.198
564.106, 7109.305
564.588, 7148.181
565.070, 7169.654
565.552, 7168.938
566.034, 7156.849
566.516, 7148.288
566.999, 7143.479
567.481, 7136.979
567.963, 7123.940
568.445, 7111.111
568.927, 7117.918
569.409, 7141.847
569.891, 7162.057
570.373, 7153.293
570.856, 7138.057
571.338, 7151.875
571.820, 7201.186
572.302, 7242.861
572.784, 7245.001
573.266, 7228.940
573.748, 7216.974
574.230, 7225.900
574.713, 7227.036
575.195, 7205.300
575.677, 7170.804
576.159, 7152.089
576.641, 7158.772
577.123, 7169.385
577.605, 7179.992
578.087, 7190.666
578.570, 7194.619
579.052, 7190.501
579.534, 7183.667
580.016, 7175.844
580.498, 7167.654
580.980, 7168.408
581.462, 7180.016
581.944, 7197.704
582.426, 7200.460
582.909, 7202.181
583.391, 7177.894
583.873, 7213.727
584.355, 7234.968
584.837, 7242.397
585.319, 7194.657
585.801, 7218.158
586.283, 7213.108
586.765, 7206.888
587.248, 7240.417
587.730, 7200.700
588.212, 7233.598
588.694, 7237.509
589.176, 7254.688
589.658, 7243.138
590.140, 7240.462
590.622, 7266.522
591.104, 7244.709
591.587, 7244.165
592.069, 7248.755
592.551, 7258.625
593.033, 7272.784
593.515, 7293.754
593.997, 7317.857
594.479, 7337.365
594.961, 7351.998
595.443, 7354.681
595.926, 7328.359
596.408, 7291.934
596.890, 7270.643
597.372, 7269.526
597.854, 7276.562
598.336, 7289.991
598.818, 7306.039
599.300, 7319.783
599.783, 7332.436
600.265, 7340.288
600.747, 7338.452
601.229, 7330.814
601.711, 7329.299
602.193, 7336.313
602.675, 7345.240
603.157, 7353.366
603.640, 7360.669
604.122, 7374.384
604.604, 7396.648
605.086, 7416.037
605.568, 7419.403
606.050, 7410.892
606.532, 7410.338
607.014, 7421.898
607.497, 7434.604
607.979, 7436.964
608.461, 7431.875
608.943, 7424.946
609.425, 7406.783
609.907, 7398.494
610.389, 7423.111
610.871, 7469.593
611.353, 7498.354
611.836, 7489.860
612.318, 7469.743
612.800, 7442.641
613.282, 7405.994
613.764, 7388.756
614.246, 7399.884
614.728, 7418.621
615.210, 7426.979
615.692, 7422.317
616.175, 7435.361
616.657, 7475.049
617.139, 7517.304
617.621, 7519.333
618.103, 7489.960
618.585, 7472.141
619.067, 7491.114
619.549, 7517.800
620.031, 7511.254
620.514, 7481.417
620.996, 7463.151
621.478, 7487.041
621.960, 7518.164
622.442, 7534.333
622.924, 7532.005
623.406, 7532.085
623.888, 7539.126
624.370, 7549.185
624.853, 7559.552
625.335, 7568.298
625.817, 7582.786
626.299, 7607.445
626.781, 7632.591
627.263, 7643.725
627.745, 7640.521
628.227, 7633.688
628.710, 7625.526
629.192, 7616.017
629.674, 7603.248
630.156, 7588.323
630.638, 7576.903
631.120, 7582.763
631.602, 7586.687
632.084, 7560.239
632.567, 7504.075
633.049, 7467.674
633.531, 7488.490
634.013, 7526.021
634.495, 7553.161
634.977, 7565.196
635.459, 7569.489
635.941, 7560.379
636.424, 7548.213
636.906, 7545.280
637.388, 7554.186
637.870, 7563.295
638.352, 7572.684
638.834, 7578.853
639.316, 7568.807
639.798, 7544.168
640.280, 7529.296
640.763, 7544.138
641.245, 7571.630
641.727, 7582.849
642.209, 7580.063
642.691, 7579.825
643.173, 7596.213
643.655, 7616.664
644.137, 7631.643
644.619, 7639.607
645.102, 7644.980
645.584, 7645.664
646.066, 7646.166
646.548, 7650.181
647.030, 7657.669
647.512, 7668.905
647.994, 7685.942
648.476, 7704.082
648.958, 7714.192
649.441, 7715.431
649.923, 7717.196
650.405, 7722.233
650.887, 7729.297
