##NAMES=Kornerupine
##RRUFFID=R050214
##IDEAL CHEMISTRY=(Mg,Fe^2+^,Al,[box])_10_(Si,Al,B)_5_O_21_(OH,F)_2_
##LOCALITY=Sri Lanka
##OWNER=RRUFF
##SOURCE=Jibamitra Ganguly
##DESCRIPTION=Water-worn single crystal fragment
##STATUS=The identification of this mineral has been confirmed by X-ray diffraction and chemical analysis
##URL=rruff.info/R050214
##MEASURED CHEMISTRY=(Mg_3.63_[box]_0.21_Fe^2+^_0.14_Na_0.02_)_4_Al_6.00_(Si_2.44_Al_1.97_B_0.59_)_5_O_21_(OH) ;   B and Li not measured; B estimated by charge balance
93.74609, 18.82433
94.22821, 18.51434
94.71033, 18.90120
95.19244, 19.75929
95.67456, 20.17631
96.15668, 19.16933
96.63879, 17.29404
97.12091, 16.65656
97.60303, 17.46580
98.08514, 19.02023
98.56726, 20.23310
99.04938, 21.09035
99.53149, 22.06888
100.0136, 23.53181
100.4957, 25.48850
100.9778, 27.13698
101.4600, 28.20944
101.9421, 29.07775
102.4242, 30.82054
102.9063, 33.62786
103.3884, 36.85527
103.8705, 40.13245
104.3527, 43.63129
104.8348, 46.72601
105.3169, 49.10708
105.7990, 50.89108
106.2811, 53.79922
106.7632, 58.87074
107.2454, 64.03033
107.7275, 67.36964
108.2096, 67.30709
108.6917, 67.65976
109.1738, 69.12580
109.6559, 71.91011
110.1381, 74.55386
110.6202, 76.44934
111.1023, 78.45238
111.5844, 81.45963
112.0665, 86.21918
112.5486, 91.34166
113.0308, 96.41611
113.5129, 101.2341
113.9950, 106.7926
114.4771, 113.9943
114.9592, 121.8691
115.4413, 129.0466
115.9235, 134.2947
116.4056, 139.4036
116.8877, 145.2372
117.3698, 152.5593
117.8519, 159.4760
118.3340, 165.1970
118.8162, 170.0119
119.2983, 174.6111
119.7804, 179.3349
120.2625, 183.9984
120.7446, 188.4137
121.2267, 192.5137
121.7089, 196.4542
122.1910, 200.5867
122.6731, 204.7525
123.1552, 208.2435
123.6373, 210.6269
124.1194, 212.0828
124.6016, 212.7782
125.0837, 211.8679
125.5658, 210.9351
126.0479, 211.6019
126.5300, 213.8264
127.0121, 216.9001
127.4943, 220.5177
127.9764, 224.5456
128.4585, 228.7836
128.9406, 233.1576
129.4227, 237.6532
129.9048, 242.1610
130.3869, 246.6633
130.8691, 251.3533
131.3512, 256.8604
131.8333, 262.9642
132.3154, 268.3737
132.7975, 271.7783
133.2796, 273.8087
133.7618, 277.2476
134.2439, 281.7534
134.7260, 285.6273
135.2081, 288.4844
135.6902, 291.0353
136.1723, 292.7821
136.6545, 293.3178
137.1366, 292.6649
137.6187, 291.7896
138.1008, 290.5468
138.5829, 289.3363
139.0650, 289.4112
139.5472, 291.3316
140.0293, 292.3568
140.5114, 290.6362
140.9935, 285.4768
141.4756, 280.9850
141.9577, 277.3498
142.4399, 274.4796
142.9220, 272.1650
143.4041, 270.4090
143.8862, 269.1265
144.3683, 268.3466
144.8504, 268.4315
145.3326, 268.1117
145.8147, 266.9246
146.2968, 265.0634
146.7789, 264.4218
147.2610, 265.8153
147.7431, 267.5820
148.2253, 268.5432
148.7074, 268.0824
149.1895, 267.7038
149.6716, 267.6660
150.1537, 267.9796
150.6358, 268.0439
151.1180, 267.1704
151.6001, 266.4215
152.0822, 266.6928
152.5643, 269.5555
153.0464, 271.7759
153.5285, 272.7578
154.0107, 272.3670
154.4928, 271.7733
154.9749, 270.8099
155.4570, 269.7692
155.9391, 268.9403
156.4212, 268.4738
156.9034, 268.1013
157.3855, 267.7054
157.8676, 267.2337
158.3497, 266.9979
158.8318, 267.1053
159.3139, 267.4605
159.7961, 267.9415
160.2782, 268.5992
160.7603, 269.3043
161.2424, 270.1063
161.7245, 271.1409
162.2066, 271.7455
162.6888, 271.4109
163.1709, 270.5331
163.6530, 269.7563
164.1351, 269.6541
164.6172, 269.4860
165.0993, 268.6405
165.5815, 266.6585
166.0636, 265.1153
166.5457, 265.2743
167.0278, 266.4329
167.5099, 267.1296
167.9921, 265.9930
168.4742, 264.5110
168.9563, 263.9266
169.4384, 264.7211
169.9205, 265.8290
170.4026, 266.7238
170.8848, 267.4005
171.3669, 267.8218
171.8490, 267.3752
172.3311, 266.9085
172.8132, 267.4609
173.2953, 269.7266
173.7775, 272.1766
174.2596, 273.3182
174.7417, 273.4306
175.2238, 273.5426
175.7059, 274.3132
176.1880, 275.4820
176.6702, 276.7120
177.1523, 278.0153
177.6344, 279.2191
178.1165, 279.9130
178.5986, 280.2125
179.0807, 280.7879
179.5629, 282.3393
180.0450, 284.5017
180.5271, 286.5544
181.0092, 288.4573
181.4913, 290.0576
181.9734, 291.0233
182.4556, 291.3848
182.9377, 291.5009
183.4198, 291.4200
183.9019, 291.2904
184.3840, 291.5592
184.8661, 292.4379
185.3483, 293.7008
185.8304, 294.9692
186.3125, 296.2382
186.7946, 297.5623
187.2767, 299.3110
187.7588, 301.2831
188.2409, 302.4060
188.7231, 302.0508
189.2052, 300.8435
189.6873, 300.4607
190.1694, 300.9497
190.6515, 301.5958
191.1336, 301.4792
191.6158, 300.7340
192.0979, 300.6254
192.5800, 301.7597
193.0621, 303.7338
193.5442, 305.1853
194.0263, 306.1156
194.5085, 306.6137
194.9906, 306.4134
195.4727, 305.5589
195.9548, 305.4473
196.4369, 306.7687
196.9190, 309.1747
197.4012, 310.8239
197.8833, 311.5714
198.3654, 312.1507
198.8475, 313.3407
199.3296, 315.1672
199.8117, 317.1711
200.2939, 319.3626
200.7760, 321.6595
201.2581, 323.4137
201.7402, 324.4783
202.2223, 325.3672
202.7044, 326.5040
203.1866, 327.8156
203.6687, 329.8684
204.1508, 333.0569
204.6329, 337.2832
205.1150, 341.0430
205.5971, 344.2730
206.0793, 347.1766
206.5614, 349.7674
207.0435, 351.8083
207.5256, 354.6174
208.0077, 358.8134
208.4898, 364.3553
208.9720, 369.2742
209.4541, 373.5180
209.9362, 377.2240
210.4183, 380.4399
210.9004, 382.9735
211.3825, 385.6147
211.8647, 388.5112
212.3468, 391.6584
212.8289, 395.4001
213.3110, 399.9901
213.7931, 404.8303
214.2752, 409.2402
214.7574, 413.3549
215.2395, 416.7563
215.7216, 419.2607
216.2037, 420.8235
216.6858, 422.2817
217.1679, 423.5319
217.6501, 424.8195
218.1322, 426.4717
218.6143, 428.6960
219.0964, 430.8062
219.5785, 432.6754
220.0606, 434.3385
220.5428, 435.2993
221.0249, 435.1112
221.5070, 434.7140
221.9891, 435.3876
222.4712, 437.9819
222.9533, 439.7117
223.4355, 439.7405
223.9176, 437.9741
224.3997, 436.2013
224.8818, 434.3786
225.3639, 432.5848
225.8460, 430.9157
226.3282, 429.5580
226.8103, 427.9777
227.2924, 426.1572
227.7745, 424.0905
228.2566, 421.4603
228.7387, 418.1373
229.2209, 414.3904
229.7030, 410.3862
230.1851, 405.3768
230.6672, 401.5502
231.1493, 399.7248
231.6314, 399.9986
232.1136, 399.3716
232.5957, 397.3420
233.0778, 394.9370
233.5599, 393.1751
234.0420, 392.2325
234.5241, 391.5951
235.0063, 391.2296
235.4884, 391.1397
235.9705, 391.0521
236.4526, 390.7798
236.9347, 390.7034
237.4168, 391.2476
237.8990, 392.8647
238.3811, 394.1989
238.8632, 394.8876
239.3453, 394.9408
239.8274, 395.2940
240.3095, 395.7964
240.7917, 396.7583
241.2738, 398.6006
241.7559, 402.1468
242.2380, 404.8817
242.7201, 406.0833
243.2022, 405.8820
243.6844, 406.5206
244.1665, 408.5485
244.6486, 410.7875
245.1307, 412.2552
245.6128, 412.3638
246.0949, 412.9481
246.5771, 414.4879
247.0592, 416.8350
247.5413, 418.4569
248.0234, 418.7992
248.5055, 419.0999
248.9876, 420.3065
249.4697, 423.0624
249.9519, 425.2793
250.4340, 426.5494
250.9161, 427.0486
251.3982, 427.8680
251.8803, 429.0742
252.3624, 430.4821
252.8446, 431.9303
253.3267, 433.2926
253.8088, 435.0488
254.2909, 437.5221
254.7730, 440.4271
255.2551, 442.3927
255.7373, 442.7719
256.2194, 443.2687
256.7015, 445.0100
257.1836, 448.8648
257.6657, 451.6201
258.1479, 452.7777
258.6300, 452.8235
259.1121, 453.4788
259.5942, 455.6300
260.0763, 456.8096
260.5584, 455.5428
261.0406, 450.7998
261.5227, 446.9397
262.0048, 444.4750
262.4869, 442.7259
262.9690, 439.7882
263.4511, 434.9125
263.9333, 430.5050
264.4154, 427.8751
264.8975, 427.6982
265.3796, 426.4523
265.8617, 423.7438
266.3438, 420.2989
266.8260, 417.3958
267.3081, 415.1825
267.7902, 413.1834
268.2723, 411.4987
268.7544, 410.3106
269.2365, 407.8648
269.7187, 403.8871
270.2008, 399.0146
270.6829, 394.0775
271.1650, 388.8923
271.6471, 384.3596
272.1292, 381.1083
272.6114, 379.1779
273.0935, 376.6680
273.5756, 373.5199
274.0577, 369.9362
274.5398, 365.8840
275.0219, 361.1595
275.5041, 357.1053
275.9862, 354.3111
276.4683, 352.6573
276.9504, 350.4899
277.4325, 347.6309
277.9146, 344.7203
278.3968, 342.4273
278.8788, 340.7929
279.3610, 339.4128
279.8431, 338.1159
280.3252, 337.0089
280.8073, 336.6996
281.2894, 337.3105
281.7715, 338.2163
282.2537, 338.7433
282.7358, 338.8728
283.2179, 339.5436
283.7000, 341.0413
284.1821, 343.1430
284.6642, 345.0029
285.1464, 346.5546
285.6285, 348.5018
286.1106, 351.4577
286.5927, 355.3710
287.0748, 359.5399
287.5569, 363.8639
288.0391, 368.4134
288.5212, 373.3727
289.0033, 378.7680
289.4854, 384.1391
289.9675, 389.1075
290.4496, 393.7793
290.9318, 398.7664
291.4139, 404.3677
291.8960, 409.8250
292.3781, 413.6786
292.8602, 416.0665
293.3423, 418.0900
293.8245, 420.6211
294.3066, 423.2994
294.7887, 424.9174
295.2708, 425.3290
295.7529, 424.9808
296.2350, 424.7319
296.7172, 424.3307
297.1993, 422.6191
297.6814, 418.0713
298.1635, 411.9903
298.6456, 407.3729
299.1277, 404.3121
299.6099, 401.5448
300.0920, 397.8287
300.5741, 393.4176
301.0562, 389.1395
301.5383, 385.5343
302.0204, 382.0506
302.5026, 377.5710
302.9847, 372.1214
303.4668, 367.2260
303.9489, 364.2315
304.4310, 362.6015
304.9131, 361.2183
305.3953, 359.4500
305.8774, 358.1527
306.3595, 358.8128
306.8416, 361.0509
307.3237, 362.9035
307.8058, 362.2025
308.2880, 360.6693
308.7701, 360.4840
309.2522, 362.5282
309.7343, 365.2444
310.2164, 367.5128
310.6985, 369.4906
311.1807, 371.5543
311.6628, 374.0344
312.1449, 376.6416
312.6270, 379.0092
313.1091, 380.9964
313.5912, 383.0969
314.0734, 385.6945
314.5555, 388.6051
315.0376, 391.5157
315.5197, 394.1741
316.0018, 396.8809
316.4839, 399.8676
316.9661, 403.2306
317.4482, 406.3163
317.9303, 408.7966
318.4124, 410.8478
318.8945, 412.7077
319.3766, 414.3549
319.8588, 415.9007
320.3409, 417.0087
320.8230, 417.7162
321.3051, 419.4663
321.7872, 424.0113
322.2693, 429.0749
322.7515, 432.8659
323.2336, 434.5317
323.7157, 435.4343
324.1978, 435.2208
324.6799, 434.2028
325.1620, 434.1490
325.6442, 436.2578
326.1263, 438.7192
326.6084, 440.6387
327.0905, 442.2948
327.5726, 442.9064
328.0547, 441.7767
328.5369, 439.5259
329.0190, 437.7791
329.5011, 438.1445
329.9832, 437.5293
330.4653, 434.6680
330.9474, 428.3180
331.4296, 422.9597
331.9117, 419.1635
332.3938, 416.1114
332.8759, 412.6338
333.3580, 408.5233
333.8401, 404.2705
334.3223, 400.1530
334.8044, 396.2311
335.2865, 391.4384
335.7686, 385.2810
336.2507, 378.8483
336.7328, 373.3548
337.2150, 369.1289
337.6971, 364.8326
338.1792, 360.2015
338.6613, 355.3058
339.1434, 350.1925
339.6255, 344.5704
340.1077, 339.3820
340.5898, 335.2502
341.0719, 332.3328
341.5540, 329.8984
342.0361, 328.1065
342.5182, 326.5604
343.0004, 324.2650
343.4825, 321.1564
343.9646, 317.8984
344.4467, 314.6245
344.9288, 311.4251
345.4109, 309.1648
345.8931, 308.0822
346.3752, 307.3564
346.8573, 305.6780
347.3394, 303.1328
347.8215, 300.9717
348.3036, 299.8354
348.7858, 299.4390
349.2679, 298.9526
349.7500, 298.3696
350.2321, 297.9103
350.7142, 297.8045
351.1964, 297.9998
351.6785, 298.3300
352.1606, 298.6649
352.6427, 299.2037
353.1248, 300.4681
353.6069, 302.3395
354.0891, 303.9917
354.5712, 304.5199
355.0533, 304.5790
355.5354, 305.0287
356.0175, 305.9375
356.4996, 307.5265
356.9818, 310.7404
357.4639, 314.8510
357.9460, 318.1159
358.4281, 318.6353
358.9102, 318.6037
359.3923, 319.6603
359.8745, 321.9724
360.3566, 325.2182
360.8387, 330.1213
361.3208, 335.5554
361.8029, 340.1010
362.2850, 342.1432
362.7672, 344.2016
363.2493, 347.5490
363.7314, 352.0940
364.2135, 356.4787
364.6956, 360.2064
365.1777, 363.5880
365.6599, 366.8268
366.1420, 370.0222
366.6241, 373.0148
367.1062, 375.7415
367.5883, 378.2333
368.0704, 380.5385
368.5526, 382.4520
369.0347, 384.3655
369.5168, 386.5316
369.9989, 389.3875
370.4810, 391.4888
370.9631, 392.1257
371.4453, 392.3232
371.9274, 393.4849
372.4095, 396.0752
372.8916, 398.9367
373.3737, 401.8907
373.8558, 404.9528
374.3380, 408.0787
374.8201, 411.6680
375.3022, 414.8302
375.7843, 416.5533
376.2664, 416.2142
376.7485, 416.5619
377.2307, 417.9364
377.7128, 420.2300
378.1949, 423.3173
378.6770, 427.3987
379.1591, 431.3493
379.6412, 434.4042
380.1234, 436.5796
380.6055, 438.7520
381.0876, 440.9429
381.5697, 443.1511
382.0518, 445.0857
382.5339, 446.7965
383.0161, 449.5249
383.4982, 454.6971
383.9803, 461.1106
384.4624, 464.4989
384.9445, 464.7660
385.4266, 464.9967
385.9088, 468.2953
386.3909, 473.7348
386.8730, 478.9005
387.3551, 483.0480
387.8372, 486.9809
388.3193, 491.7740
388.8015, 497.2710
389.2836, 502.8155
389.7657, 507.9512
390.2478, 512.9691
390.7299, 518.0467
391.2120, 523.1349
391.6942, 528.5519
392.1763, 535.1845
392.6584, 542.1028
393.1405, 547.9479
393.6226, 551.1276
394.1047, 553.9733
394.5869, 557.7389
395.0690, 562.4333
395.5511, 567.0007
396.0332, 571.7815
396.5153, 575.8774
396.9974, 578.5950
397.4796, 578.5939
397.9617, 578.6066
398.4438, 579.6331
398.9259, 581.1154
399.4080, 581.3029
399.8901, 579.9739
400.3723, 577.3424
400.8544, 573.4192
401.3365, 567.8849
401.8186, 561.9542
402.3007, 555.5554
402.7828, 548.7990
403.2649, 541.8746
403.7470, 535.0974
404.2292, 527.4714
404.7113, 518.5765
405.1934, 508.5329
405.6755, 499.1346
406.1576, 490.6077
406.6397, 482.4399
407.1219, 474.3405
407.6040, 466.3208
408.0861, 458.3347
408.5682, 450.3734
409.0503, 442.4352
409.5324, 433.9166
410.0146, 424.7894
410.4967, 416.2874
410.9788, 409.1747
411.4609, 403.2471
411.9430, 397.2492
412.4251, 391.0634
412.9073, 385.4056
413.3894, 381.0546
413.8715, 377.6812
414.3536, 374.3941
414.8357, 370.7674
415.3178, 367.2217
415.8000, 364.5740
416.2821, 362.6058
416.7642, 360.4163
417.2463, 357.0727
417.7284, 353.3860
418.2105, 350.0778
418.6927, 347.0622
419.1748, 345.1140
419.6569, 344.0614
420.1390, 345.5358
420.6211, 346.1396
421.1032, 345.9195
421.5854, 342.4080
422.0675, 343.1467
422.5496, 342.1822
423.0317, 341.1477
423.5138, 342.4846
423.9959, 339.4519
424.4781, 340.7511
424.9602, 340.3211
425.4423, 340.6826
425.9244, 339.3303
426.4065, 338.5073
426.8886, 339.3987
427.3708, 339.3407
427.8529, 337.7911
428.3350, 338.2029
428.8171, 335.1103
429.2992, 335.0929
429.7813, 336.4021
430.2635, 334.9386
430.7456, 329.4228
431.2277, 328.2162
431.7098, 326.6866
432.1919, 324.0126
432.6740, 320.6256
433.1562, 318.0000
433.6383, 316.2302
434.1204, 314.3813
434.6025, 311.7526
435.0846, 308.4918
435.5667, 305.5150
436.0489, 302.8526
436.5310, 300.3761
437.0131, 297.7922
437.4952, 295.2369
437.9773, 293.2628
438.4594, 292.6305
438.9416, 292.2553
439.4237, 290.4300
439.9058, 287.3506
440.3879, 284.4341
440.8700, 282.6564
441.3521, 281.4811
441.8343, 280.3464
442.3164, 279.1242
442.7985, 278.0213
443.2806, 276.9979
443.7627, 276.2029
444.2448, 275.8537
444.7270, 276.9172
445.2091, 277.6198
445.6912, 276.8759
446.1733, 274.6564
446.6554, 273.1628
447.1375, 273.5106
447.6197, 274.2755
448.1018, 274.5671
448.5839, 273.6039
449.0660, 273.1415
449.5481, 273.4490
450.0302, 274.1979
450.5124, 274.6729
450.9945, 274.6896
451.4766, 274.7489
451.9587, 274.9352
452.4408, 275.2408
452.9229, 276.1342
453.4051, 277.8846
453.8872, 279.6237
454.3693, 280.3868
454.8514, 280.1119
455.3335, 280.2377
455.8156, 280.9790
456.2978, 282.2536
456.7799, 284.1989
457.2620, 286.7556
457.7441, 288.9059
458.2262, 289.7144
458.7083, 289.8123
459.1905, 290.7039
459.6726, 292.4613
460.1547, 294.3063
460.6368, 295.6766
461.1189, 296.6609
461.6010, 297.3224
462.0832, 297.3485
462.5653, 297.5319
463.0474, 298.6857
463.5295, 300.4985
464.0116, 302.0681
464.4937, 303.2138
464.9759, 303.8122
465.4580, 303.5563
465.9401, 302.2168
466.4222, 301.2436
466.9043, 301.1412
467.3864, 301.5057
467.8686, 301.9562
468.3507, 303.1890
468.8328, 303.6149
469.3149, 302.8529
469.7970, 301.1533
470.2791, 299.3899
470.7613, 297.4334
471.2434, 295.6315
471.7255, 294.1553
472.2076, 293.0489
472.6897, 292.0330
473.1718, 291.2300
473.6540, 290.2432
474.1361, 288.5538
474.6182, 286.1374
475.1003, 283.4348
475.5824, 280.2480
476.0645, 277.1265
476.5467, 275.9201
477.0288, 276.4430
477.5109, 276.4003
477.9930, 273.6978
478.4751, 269.5938
478.9572, 266.6501
479.4394, 265.1158
479.9215, 263.7468
480.4036, 261.3217
480.8857, 258.4042
481.3678, 255.8871
481.8499, 254.7365
482.3321, 253.2963
482.8142, 249.9324
483.2963, 245.3582
483.7784, 241.8285
484.2605, 241.2220
484.7426, 241.0863
485.2248, 240.2879
485.7069, 238.6751
486.1890, 236.6194
486.6711, 233.6501
487.1532, 230.5326
487.6353, 227.9206
488.1175, 225.6865
488.5996, 224.2938
489.0817, 224.2476
489.5638, 225.0193
490.0459, 224.7469
490.5280, 223.0020
491.0102, 221.2605
491.4923, 220.1822
491.9744, 219.7695
492.4565, 219.2671
492.9386, 218.6403
493.4207, 218.0202
493.9029, 217.5417
494.3850, 217.1917
494.8671, 216.8970
495.3492, 216.5658
495.8313, 216.4086
496.3134, 217.0120
496.7956, 218.1443
497.2777, 218.9391
497.7598, 218.3073
498.2419, 217.4463
498.7240, 217.7252
499.2061, 219.2105
499.6883, 220.8692
500.1704, 222.1788
500.6525, 223.3352
501.1346, 224.5052
501.6167, 225.6632
502.0988, 226.9606
502.5810, 228.1515
503.0631, 229.5309
503.5452, 231.7001
504.0273, 235.9262
504.5094, 239.6730
504.9915, 241.9480
505.4737, 242.6528
505.9558, 244.4580
506.4379, 247.8672
506.9200, 251.6708
507.4021, 255.0281
507.8842, 257.8902
508.3664, 260.6917
508.8485, 263.4299
509.3306, 266.2126
509.8127, 269.2863
510.2948, 272.6353
510.7769, 275.9302
511.2591, 279.0645
511.7412, 282.0458
512.2233, 284.9461
512.7054, 287.7513
513.1875, 290.0984
513.6696, 291.0565
514.1517, 291.6440
514.6339, 293.7401
515.1160, 298.1011
515.5981, 301.5244
516.0802, 301.0218
516.5623, 298.5081
517.0444, 296.5451
517.5266, 297.3293
518.0087, 297.4295
518.4908, 295.1979
518.9729, 291.1093
519.4550, 287.3642
519.9371, 285.1086
520.4193, 282.5856
520.9014, 279.1075
521.3835, 274.4417
521.8656, 269.7267
522.3477, 264.8159
522.8298, 260.0213
523.3120, 255.6379
523.7941, 251.8094
524.2762, 248.0782
524.7583, 244.3194
525.2404, 240.6905
525.7225, 237.6987
526.2047, 235.3272
526.6868, 233.0607
527.1689, 230.5391
527.6510, 227.9619
528.1331, 225.7835
528.6152, 223.9865
529.0974, 222.5823
529.5795, 222.0500
530.0616, 221.7309
530.5437, 220.5007
531.0258, 217.6514
531.5079, 215.2717
531.9901, 215.1810
532.4722, 216.2414
532.9543, 216.6892
533.4364, 214.8883
533.9185, 213.4767
534.4006, 213.5883
534.8828, 215.0572
535.3649, 216.1299
535.8470, 215.9682
536.3291, 216.0325
536.8112, 216.9875
537.2933, 219.1097
537.7755, 221.0301
538.2576, 222.7300
538.7397, 224.2265
539.2218, 225.4792
539.7039, 226.4505
540.1860, 227.4253
540.6682, 228.5055
541.1503, 229.5301
541.6324, 230.0136
542.1145, 230.0264
542.5966, 230.2766
543.0787, 231.6284
543.5609, 233.2605
544.0430, 233.7930
544.5251, 233.2470
545.0072, 232.2392
545.4893, 230.9822
545.9714, 229.6036
546.4536, 228.2587
546.9357, 227.0544
547.4178, 225.6876
547.8999, 223.8383
548.3820, 221.8088
548.8641, 220.0161
549.3463, 218.7579
549.8284, 217.4967
550.3105, 215.9933
550.7926, 214.3481
551.2747, 213.1748
551.7568, 212.6992
552.2390, 212.2901
552.7211, 211.6552
553.2032, 210.7663
553.6853, 209.9439
554.1674, 209.1473
554.6495, 208.5426
555.1317, 208.4662
555.6138, 208.8223
556.0959, 208.8485
556.5780, 208.3438
557.0601, 207.6452
557.5422, 207.0269
558.0244, 206.5699
558.5065, 206.5074
558.9886, 207.3958
559.4707, 208.3992
559.9528, 208.6464
560.4349, 208.2773
560.9171, 208.1687
561.3992, 208.9159
561.8813, 209.9032
562.3634, 210.7659
562.8455, 211.4659
563.3276, 212.0319
563.8098, 212.3814
564.2919, 212.6407
564.7740, 212.9164
565.2561, 213.1849
565.7382, 213.5085
566.2203, 213.9014
566.7025, 214.3518
567.1846, 214.9425
567.6667, 215.7696
568.1488, 216.0775
568.6309, 215.1525
569.1130, 213.5498
569.5952, 213.5397
570.0773, 215.1050
570.5594, 216.7190
571.0415, 217.1430
571.5236, 216.9247
572.0057, 216.9932
572.4879, 217.5221
572.9700, 217.9691
573.4521, 217.8932
573.9342, 217.5292
574.4163, 217.1563
574.8984, 216.6030
575.3806, 216.3420
575.8627, 216.6332
576.3448, 217.3174
576.8269, 217.9589
577.3090, 218.6785
577.7911, 219.1628
578.2733, 219.2098
578.7554, 218.8335
579.2375, 218.9081
579.7196, 219.6374
580.2017, 220.3264
580.6838, 220.2952
581.1660, 219.5621
581.6481, 219.6696
582.1302, 220.8441
582.6123, 222.2115
583.0944, 222.6093
583.5765, 222.3433
584.0587, 222.2797
584.5408, 222.6838
585.0229, 223.3430
585.5050, 224.3600
585.9871, 225.4836
586.4692, 226.0880
586.9514, 225.1879
587.4335, 224.3509
