##NAMES=Kornerupine
##RRUFFID=R100155
##IDEAL CHEMISTRY=(Mg,Fe^2+^,Al,[box])_10_(Si,Al,B)_5_O_21_(OH,F)_2_
##LOCALITY=Sri Lanka
##OWNER=RRUFF
##SOURCE=William W. Pinch
##DESCRIPTION=Colorless to pale yellow cut gemstone
##STATUS=The identification of this mineral has been confirmed by single-crystal X-ray diffraction.
##URL=rruff.info/R100155
147.4952, 139.1277
147.9773, 139.0251
148.4594, 138.8046
148.9415, 138.4874
149.4237, 138.1514
149.9058, 137.6451
150.3879, 137.1254
150.8700, 137.0907
151.3521, 137.8652
151.8342, 138.8304
152.3164, 139.5271
152.7985, 139.9609
153.2806, 140.1916
153.7627, 140.1268
154.2448, 139.7550
154.7269, 139.6476
155.2091, 140.1635
155.6912, 140.7647
156.1733, 141.2135
156.6554, 141.4804
157.1375, 141.6323
157.6196, 141.6227
158.1018, 141.1587
158.5839, 141.4424
159.0660, 143.1689
159.5481, 145.1286
160.0302, 146.6299
160.5123, 147.4805
160.9945, 147.8825
161.4766, 148.1826
161.9587, 148.4300
162.4408, 148.4686
162.9229, 148.3161
163.4050, 147.9684
163.8871, 147.4190
164.3693, 146.6649
164.8514, 145.7165
165.3335, 144.5742
165.8156, 142.9274
166.2977, 141.5292
166.7798, 140.6321
167.2620, 139.9965
167.7441, 139.2434
168.2262, 138.1854
168.7083, 136.9678
169.1904, 135.9811
169.6725, 135.0700
170.1547, 134.5529
170.6368, 134.9780
171.1189, 136.0153
171.6010, 136.4662
172.0831, 135.5385
172.5652, 133.8751
173.0474, 132.8366
173.5295, 132.5686
174.0116, 132.6412
174.4937, 132.8178
174.9758, 133.0984
175.4579, 133.3721
175.9401, 133.6879
176.4222, 133.9150
176.9043, 133.8477
177.3864, 133.3461
177.8685, 132.7891
178.3506, 132.7118
178.8328, 133.2612
179.3149, 133.7698
179.7970, 134.1572
180.2791, 134.3401
180.7612, 134.1049
181.2433, 133.3001
181.7255, 132.3253
182.2076, 132.0968
182.6897, 133.1060
183.1718, 133.9903
183.6539, 134.5810
184.1360, 134.8833
184.6181, 134.8619
185.1003, 134.4896
185.5824, 133.8447
186.0645, 133.1979
186.5466, 132.3578
187.0287, 131.7716
187.5108, 131.6461
187.9930, 131.7641
188.4751, 131.8335
188.9572, 131.6826
189.4393, 131.3860
189.9214, 131.3708
190.4035, 132.3399
190.8857, 132.8123
191.3678, 132.0857
191.8499, 130.7039
192.3320, 129.6662
192.8141, 129.6322
193.2962, 130.4064
193.7784, 130.4413
194.2605, 128.9946
194.7426, 127.7815
195.2247, 127.5411
195.7068, 128.0361
196.1889, 128.5717
196.6711, 128.7689
197.1532, 128.6370
197.6353, 128.3497
198.1174, 127.6681
198.5995, 127.0608
199.0816, 126.6365
199.5638, 126.4357
200.0459, 126.8043
200.5280, 128.3612
201.0101, 130.5128
201.4922, 131.5405
201.9743, 130.7121
202.4565, 129.4295
202.9386, 128.8511
203.4207, 128.9910
203.9028, 129.2633
204.3849, 129.3180
204.8670, 129.3365
205.3492, 129.6149
205.8313, 130.3617
206.3134, 131.1855
206.7955, 131.5058
207.2776, 131.1833
207.7597, 131.0070
208.2419, 131.4514
208.7240, 132.1854
209.2061, 132.9490
209.6882, 133.6966
210.1703, 134.3627
210.6524, 134.8238
211.1346, 135.0323
211.6167, 135.1385
212.0988, 134.9602
212.5809, 134.8073
213.0630, 135.0516
213.5451, 135.8838
214.0273, 137.0054
214.5094, 137.6966
214.9915, 137.5827
215.4736, 137.7178
215.9557, 138.6122
216.4378, 139.6852
216.9200, 140.2587
217.4021, 140.0084
217.8842, 139.3540
218.3663, 139.4960
218.8484, 141.0974
219.3305, 142.5994
219.8127, 143.8627
220.2948, 144.9295
220.7769, 145.8256
221.2590, 146.5628
221.7411, 147.1925
222.2232, 147.8714
222.7054, 148.8752
223.1875, 149.5748
223.6696, 149.5847
224.1517, 149.3961
224.6338, 149.5791
225.1159, 150.3884
225.5980, 151.6556
226.0802, 152.9021
226.5623, 154.1676
227.0444, 155.3577
227.5265, 156.4878
228.0086, 157.5318
228.4907, 158.4168
228.9729, 159.1068
229.4550, 159.6742
229.9371, 160.2849
230.4192, 160.7945
230.9013, 161.5596
231.3834, 162.8058
231.8656, 164.3026
232.3477, 165.8075
232.8298, 167.2777
233.3119, 168.5151
233.7940, 168.9248
234.2761, 168.1144
234.7583, 167.6297
235.2404, 168.1258
235.7225, 169.1568
236.2046, 169.9012
236.6867, 170.0270
237.1688, 169.9375
237.6510, 170.4371
238.1331, 171.6291
238.6152, 172.6228
239.0973, 172.8757
239.5794, 172.7341
240.0615, 173.0391
240.5437, 174.2081
241.0258, 175.4790
241.5079, 175.6533
241.9900, 174.7428
242.4721, 174.0986
242.9542, 174.2870
243.4364, 175.1653
243.9185, 176.4658
244.4006, 178.3397
244.8827, 180.2534
245.3648, 181.6491
245.8469, 182.5874
246.3290, 183.4162
246.8112, 184.0029
247.2933, 184.5764
247.7754, 185.8889
248.2575, 188.1681
248.7396, 191.0263
249.2217, 194.3039
249.7039, 197.8847
250.1860, 201.3553
250.6681, 204.3574
251.1502, 207.0403
251.6323, 209.9406
252.1144, 212.8228
252.5966, 216.3898
253.0787, 221.3027
253.5608, 227.1053
254.0429, 232.8479
254.5250, 237.9380
255.0071, 242.5201
255.4893, 247.2573
255.9714, 252.4206
256.4535, 257.2463
256.9356, 261.5172
257.4177, 265.2730
257.8998, 268.7471
258.3820, 272.4994
258.8641, 275.8396
259.3462, 276.1567
259.8283, 272.1440
260.3104, 266.9967
260.7925, 261.5406
261.2747, 255.8447
261.7568, 250.0729
262.2389, 244.3386
262.7210, 238.4536
263.2031, 231.6189
263.6852, 222.7393
264.1674, 214.8198
264.6495, 208.6893
265.1316, 203.6658
265.6137, 199.1026
266.0958, 194.7275
266.5779, 190.6342
267.0601, 187.0634
267.5422, 184.0962
268.0243, 181.6104
268.5064, 179.7953
268.9885, 178.2476
269.4706, 176.6883
269.9528, 175.0081
270.4349, 173.1693
270.9170, 171.0014
271.3991, 167.9897
271.8812, 165.7377
272.3633, 164.4828
272.8455, 163.7991
273.3276, 163.5956
273.8097, 163.7564
274.2918, 163.8926
274.7739, 163.3365
275.2560, 161.5229
275.7382, 160.2218
276.2202, 159.8073
276.7024, 159.5108
277.1845, 158.7124
277.6666, 157.4043
278.1487, 156.1522
278.6308, 155.7068
279.1129, 156.4444
279.5951, 156.6840
280.0772, 155.9978
280.5593, 155.2745
281.0414, 154.9586
281.5235, 155.0624
282.0056, 155.3354
282.4878, 155.4933
282.9699, 155.4340
283.4520, 156.0697
283.9341, 157.9329
284.4162, 159.8688
284.8983, 161.5433
285.3805, 162.9087
285.8626, 163.9554
286.3447, 164.6281
286.8268, 164.9364
287.3089, 165.6175
287.7910, 166.6394
288.2732, 168.0244
288.7553, 169.9646
289.2374, 172.2655
289.7195, 174.5832
290.2016, 176.7191
290.6837, 178.6842
291.1659, 180.5915
291.6480, 182.8476
292.1301, 184.5575
292.6122, 185.1905
293.0943, 185.2809
293.5764, 185.5395
294.0586, 186.2916
294.5407, 187.4231
295.0228, 188.6311
295.5049, 190.8888
295.9870, 191.9814
296.4691, 191.1815
296.9513, 189.4574
297.4334, 187.7215
297.9155, 186.2928
298.3976, 185.1029
298.8797, 184.0689
299.3618, 183.4626
299.8440, 182.4650
300.3261, 180.8905
300.8082, 179.0601
301.2903, 177.0312
301.7724, 174.8959
302.2545, 173.0377
302.7367, 171.9823
303.2188, 172.1000
303.7009, 171.5660
304.1830, 169.6761
304.6651, 167.7642
305.1472, 166.7951
305.6294, 166.6953
306.1115, 166.6429
306.5936, 165.8866
307.0757, 164.3607
307.5578, 163.4312
308.0399, 163.4030
308.5221, 163.5471
309.0042, 163.7756
309.4863, 163.9408
309.9684, 163.6453
310.4505, 162.5365
310.9326, 160.8274
311.4148, 160.0775
311.8969, 161.0568
312.3790, 161.9412
312.8611, 162.0142
313.3432, 161.7612
313.8253, 162.0747
314.3075, 163.3946
314.7896, 165.2747
315.2717, 166.5814
315.7538, 167.1409
316.2359, 167.3714
316.7180, 166.6440
317.2001, 165.8908
317.6823, 166.3676
318.1644, 168.4031
318.6465, 170.9513
319.1286, 172.4258
319.6107, 172.1448
320.0928, 172.3407
320.5750, 173.2405
321.0571, 174.4418
321.5392, 175.7149
322.0213, 176.9942
322.5034, 178.2442
322.9855, 179.3979
323.4677, 180.4295
323.9498, 181.6455
324.4319, 183.5732
324.9140, 185.1767
325.3961, 185.6531
325.8782, 185.3011
326.3604, 185.1284
326.8425, 185.8906
327.3246, 187.4682
327.8067, 188.4965
328.2888, 188.8261
328.7709, 188.8734
329.2531, 188.5222
329.7352, 187.9953
330.2173, 187.7064
330.6994, 187.8721
331.1815, 188.2255
331.6636, 188.0367
332.1458, 186.6521
332.6279, 185.5128
333.1100, 184.9023
333.5921, 184.4427
334.0742, 183.8333
334.5563, 182.9735
335.0385, 181.8021
335.5206, 180.2080
336.0027, 177.9485
336.4848, 175.8542
336.9669, 173.8985
337.4490, 172.0869
337.9312, 170.5359
338.4133, 169.1708
338.8954, 167.6969
339.3775, 165.7919
339.8596, 163.3793
340.3417, 161.4542
340.8239, 160.3039
341.3060, 159.2712
341.7881, 158.1784
342.2702, 157.0215
342.7523, 155.8610
343.2344, 154.7456
343.7166, 153.6413
344.1987, 152.3937
344.6808, 150.6883
345.1629, 149.1976
345.6450, 147.9507
346.1271, 146.9724
346.6093, 146.2813
347.0914, 145.8883
347.5735, 145.7951
348.0556, 146.0884
348.5377, 147.4158
349.0198, 147.9158
349.5020, 146.8569
349.9841, 145.6345
350.4662, 145.2248
350.9483, 145.7069
351.4304, 146.4965
351.9125, 146.8903
352.3947, 146.7042
352.8768, 147.3627
353.3589, 149.9393
353.8410, 152.2842
354.3231, 153.3247
354.8052, 153.5422
355.2874, 154.0281
355.7695, 155.5164
356.2516, 157.8760
356.7337, 160.4099
357.2158, 163.1634
357.6979, 166.0532
358.1800, 169.3710
358.6621, 172.6825
359.1443, 175.3576
359.6264, 177.1746
360.1085, 178.7140
360.5906, 181.1819
361.0727, 185.2089
361.5548, 188.5069
362.0370, 190.4459
362.5191, 191.9399
363.0012, 193.6020
363.4833, 195.4564
363.9654, 197.0140
364.4475, 197.7829
364.9297, 197.7380
365.4118, 197.2977
365.8939, 196.0185
366.3760, 194.8150
366.8581, 194.3150
367.3402, 194.1541
367.8224, 193.5059
368.3045, 191.6684
368.7866, 189.1985
369.2687, 187.8694
369.7508, 188.2870
370.2329, 188.5212
370.7151, 187.6105
371.1972, 186.3578
371.6793, 185.6356
372.1614, 185.7603
372.6435, 185.9815
373.1256, 185.0901
373.6078, 182.9494
374.0899, 181.7550
374.5720, 183.0205
375.0541, 184.4422
375.5362, 184.0958
376.0183, 182.1054
376.5005, 180.1821
376.9826, 179.6376
377.4647, 180.0857
377.9468, 180.0035
378.4289, 179.0040
378.9110, 178.1367
379.3932, 178.2691
379.8753, 179.0137
380.3574, 179.6825
380.8395, 180.1160
381.3216, 180.3297
381.8037, 180.3039
382.2859, 180.0359
382.7680, 179.6603
383.2501, 179.1230
383.7322, 178.5906
384.2143, 178.3079
384.6964, 178.3195
385.1786, 178.4480
385.6607, 178.5388
386.1428, 178.6693
386.6249, 179.0815
387.1070, 179.8799
387.5891, 180.8344
388.0713, 181.8109
388.5534, 182.8015
389.0355, 183.4169
389.5176, 183.3730
389.9997, 183.0455
390.4818, 182.7364
390.9640, 182.4751
391.4461, 182.3176
391.9282, 182.3025
392.4103, 182.4300
392.8924, 182.6544
393.3745, 183.4088
393.8567, 183.7812
394.3388, 183.2391
394.8209, 182.0797
395.3030, 180.8084
395.7851, 179.5716
396.2672, 178.4807
396.7494, 177.7524
397.2315, 177.6068
397.7136, 177.3074
398.1957, 176.9285
398.6778, 176.3092
399.1599, 175.2852
399.6420, 173.8608
400.1241, 172.1402
400.6063, 170.1443
401.0884, 167.8414
401.5705, 166.1425
402.0526, 165.5809
402.5347, 164.9425
403.0168, 163.9569
403.4990, 162.6290
403.9811, 160.9823
404.4632, 159.0328
404.9453, 156.8559
405.4274, 154.5882
405.9095, 151.8068
406.3917, 149.7245
406.8738, 148.9367
407.3559, 148.3828
407.8380, 147.1977
408.3201, 145.3571
408.8022, 143.5251
409.2844, 142.3923
409.7665, 142.0172
410.2486, 141.4769
410.7307, 140.5060
411.2128, 139.6565
411.6949, 139.2328
412.1771, 139.0075
412.6592, 138.5834
413.1413, 137.7356
413.6234, 136.6828
414.1055, 135.9337
414.5876, 135.6263
415.0698, 135.1896
415.5519, 134.2105
416.0340, 133.2454
416.5161, 132.7509
416.9982, 132.7546
417.4803, 132.8227
417.9625, 132.6322
418.4446, 132.1982
418.9267, 131.5607
419.4088, 130.5443
419.8909, 129.6572
420.3730, 129.2492
420.8552, 129.1956
421.3373, 129.2967
421.8194, 129.6289
422.3015, 129.9378
422.7836, 129.8636
423.2657, 129.4109
423.7479, 128.9444
424.2300, 128.5416
424.7121, 128.2688
425.1942, 128.2867
425.6763, 128.7000
426.1584, 128.8718
426.6406, 128.4141
427.1227, 127.5702
427.6048, 126.6351
428.0869, 125.6241
428.5690, 124.8839
429.0511, 124.7654
429.5333, 125.3028
430.0154, 125.9397
430.4975, 126.9255
430.9796, 127.7746
431.4617, 128.2684
431.9438, 128.4070
432.4260, 128.1640
432.9081, 127.4939
433.3902, 126.5648
433.8723, 125.7575
434.3544, 124.8913
434.8365, 124.4839
435.3187, 124.9774
435.8008, 125.6530
436.2829, 125.9602
436.7650, 125.8198
437.2471, 125.3847
437.7292, 124.7323
438.2114, 123.8429
438.6935, 123.4448
439.1756, 124.0352
439.6577, 124.5726
440.1398, 124.9276
440.6219, 125.0578
441.1040, 124.8484
441.5862, 124.2555
442.0683, 123.5339
442.5504, 123.1830
443.0325, 123.3522
443.5146, 123.4326
443.9967, 123.2514
444.4789, 123.0720
444.9610, 122.9167
445.4431, 122.8628
445.9252, 123.1427
446.4073, 124.2176
446.8894, 125.7160
447.3716, 126.0216
447.8537, 124.5543
448.3358, 123.3420
448.8179, 123.4715
449.3000, 124.2380
449.7821, 125.0141
450.2643, 125.7259
450.7464, 126.1800
451.2285, 126.0098
451.7106, 125.3681
452.1927, 125.0660
452.6748, 125.3681
453.1570, 125.8283
453.6391, 125.9789
454.1212, 125.8879
454.6033, 125.8502
455.0854, 125.9348
455.5675, 126.0998
456.0497, 126.3899
456.5318, 126.7622
457.0139, 126.9575
457.4960, 126.7866
457.9781, 126.4241
458.4602, 126.3255
458.9424, 126.3793
459.4245, 126.8512
459.9066, 128.2226
460.3887, 129.7918
460.8708, 130.8895
461.3529, 131.4004
461.8351, 131.4785
462.3172, 131.1907
462.7993, 130.5132
463.2814, 130.2749
463.7635, 130.5369
464.2456, 131.1305
464.7278, 132.6709
465.2099, 134.3051
465.6920, 134.7458
466.1741, 133.5226
466.6562, 131.5063
467.1383, 130.1089
467.6205, 129.4140
468.1026, 129.0544
468.5847, 129.5550
469.0668, 129.9076
469.5489, 129.4807
470.0310, 128.5035
470.5132, 127.6824
470.9953, 127.5406
471.4774, 127.7579
471.9595, 127.3937
472.4416, 126.1974
472.9237, 125.3582
473.4059, 125.5503
473.8880, 126.1563
474.3701, 126.8170
474.8522, 127.5138
475.3343, 127.6995
475.8164, 126.5088
476.2986, 124.5888
476.7807, 123.6858
477.2628, 124.1643
477.7449, 124.7418
478.2270, 124.3918
478.7091, 123.3271
479.1913, 122.5247
479.6734, 122.1610
480.1555, 121.9263
480.6376, 121.7904
481.1197, 121.6549
481.6018, 121.2224
482.0839, 120.3717
482.5660, 119.5036
483.0482, 119.2141
483.5303, 119.7489
484.0124, 119.9870
484.4945, 119.5837
484.9766, 119.2254
485.4587, 119.4480
485.9409, 120.0161
486.4230, 120.2751
486.9051, 119.8347
487.3872, 118.9905
487.8693, 118.6333
488.3514, 119.1828
488.8336, 119.4268
489.3157, 119.1851
489.7978, 118.7355
490.2799, 118.2223
490.7620, 117.6749
491.2441, 117.0763
491.7263, 116.3349
492.2084, 115.5374
492.6905, 115.1727
493.1726, 115.4750
493.6547, 115.6490
494.1368, 114.9949
494.6190, 114.2302
495.1011, 114.2847
495.5832, 115.4490
496.0653, 116.3919
496.5474, 115.7750
497.0295, 114.1234
497.5117, 113.0543
497.9938, 112.8681
498.4759, 112.9953
498.9580, 113.0386
499.4401, 113.0119
499.9222, 112.9994
500.4044, 113.1581
500.8865, 113.1753
501.3686, 112.5926
501.8507, 111.7887
502.3328, 111.6768
502.8149, 112.5928
503.2971, 113.7761
503.7792, 114.1063
504.2613, 113.2197
504.7434, 112.7855
505.2255, 113.1394
505.7076, 113.5632
506.1898, 113.7630
506.6719, 113.7646
507.1540, 113.6533
507.6361, 113.4670
508.1182, 113.2696
508.6003, 113.1952
509.0825, 113.2200
509.5646, 113.4345
510.0467, 114.2194
510.5288, 114.8769
511.0109, 114.9338
511.4930, 114.4949
511.9752, 114.0089
512.4573, 113.6180
512.9394, 113.4538
513.4215, 114.0204
513.9036, 115.5025
514.3857, 116.5452
514.8679, 116.4406
515.3500, 115.7542
515.8321, 115.1581
516.3142, 114.6450
516.7963, 114.4112
517.2784, 114.7713
517.7606, 115.3525
518.2427, 115.5904
518.7248, 115.4511
519.2069, 115.3413
519.6890, 115.5921
520.1711, 116.0701
520.6533, 116.0861
521.1354, 114.8092
521.6175, 114.2422
522.0996, 115.5830
522.5817, 117.2880
523.0638, 117.6397
523.5460, 116.4751
524.0281, 114.9377
524.5102, 114.0945
524.9923, 113.9310
525.4744, 113.9174
525.9565, 114.0776
526.4387, 114.3737
526.9208, 115.0320
527.4029, 115.6945
527.8850, 115.9089
528.3671, 115.5829
528.8492, 115.1701
529.3314, 115.1568
529.8135, 115.5032
530.2956, 115.8453
530.7777, 116.2239
531.2598, 116.4698
531.7419, 116.2207
532.2241, 115.8238
532.7062, 115.9063
533.1883, 116.8099
533.6704, 117.7434
534.1525, 118.2122
534.6346, 118.3053
535.1168, 118.1684
535.5989, 117.8120
536.0810, 117.4516
536.5631, 117.2721
537.0452, 117.2819
537.5273, 117.5559
538.0095, 118.1010
538.4916, 118.8752
538.9737, 120.0181
539.4558, 121.3317
539.9379, 122.7742
540.4200, 124.2606
540.9022, 125.1557
541.3843, 124.3275
541.8664, 121.2784
542.3485, 119.3234
542.8306, 119.1124
543.3127, 119.3778
543.7948, 120.0431
544.2769, 120.8410
544.7590, 121.4118
545.2411, 121.6197
545.7233, 121.6167
546.2054, 121.4519
546.6875, 121.1569
547.1696, 121.3275
547.6517, 122.3959
548.1339, 123.2915
548.6160, 122.7538
549.0981, 121.2812
549.5802, 120.2552
550.0623, 120.0935
550.5444, 120.2752
551.0266, 120.6446
551.5087, 121.0902
551.9908, 121.3246
552.4729, 121.2543
552.9550, 121.1012
553.4371, 121.1917
553.9193, 121.6530
554.4014, 121.5468
554.8835, 120.0456
555.3656, 118.9752
555.8477, 119.4456
556.3298, 120.6172
556.8120, 121.1371
557.2941, 120.5337
557.7762, 119.5779
558.2583, 119.4136
558.7404, 120.1575
559.2225, 120.7245
559.7047, 121.0856
560.1868, 121.2467
560.6689, 121.0400
561.1510, 120.7007
561.6331, 120.6349
562.1152, 121.0020
562.5974, 121.5638
563.0795, 122.1874
563.5616, 122.8345
564.0437, 123.3566
564.5258, 123.7158
565.0079, 123.9909
565.4901, 124.2158
565.9722, 124.4028
566.4543, 124.7144
566.9364, 125.2237
567.4185, 125.7734
567.9006, 126.2937
568.3828, 126.8220
568.8649, 127.4949
569.3470, 128.3123
569.8291, 129.0221
570.3112, 129.3154
570.7933, 129.1758
571.2755, 128.9281
571.7576, 128.4413
572.2397, 128.0081
572.7218, 127.6576
573.2039, 127.4127
573.6860, 127.3424
574.1682, 127.4564
574.6503, 127.5609
575.1324, 127.5843
575.6145, 127.4641
576.0966, 126.7414
576.5787, 125.1445
577.0609, 123.9328
577.5430, 124.2052
578.0251, 125.3114
578.5072, 125.6375
578.9893, 124.8288
579.4714, 123.9701
579.9536, 123.3470
580.4357, 122.9673
580.9178, 122.9390
581.3999, 123.2192
581.8820, 123.4943
582.3641, 123.5252
582.8463, 123.3483
583.3284, 123.1839
583.8105, 123.2692
584.2926, 123.0035
584.7747, 121.7549
585.2568, 120.5996
585.7390, 120.5347
586.2211, 121.4447
586.7032, 122.3835
587.1853, 122.7176
587.6674, 122.5699
588.1495, 122.2203
588.6317, 121.6415
589.1138, 120.9852
589.5959, 120.0036
590.0780, 119.2608
590.5601, 119.5896
591.0422, 120.9675
591.5244, 122.0145
592.0065, 122.1393
592.4886, 121.8871
592.9707, 121.6012
593.4528, 121.3472
593.9349, 121.2961
594.4171, 121.5425
594.8992, 121.8789
595.3813, 121.9136
595.8634, 121.4324
596.3455, 121.2914
596.8276, 121.7246
597.3098, 122.2007
597.7919, 122.6325
598.2740, 122.9195
598.7561, 122.7830
599.2382, 122.0791
599.7203, 121.4951
600.2025, 122.3491
600.6846, 124.5760
601.1667, 125.4793
601.6488, 124.2728
602.1309, 122.7614
602.6130, 122.0983
603.0952, 122.0231
603.5773, 122.0942
604.0594, 122.3210
604.5415, 122.5638
605.0236, 122.6553
605.5057, 122.7560
605.9879, 123.2024
606.4700, 124.0092
606.9521, 124.7924
607.4342, 125.2524
607.9163, 125.3975
608.3984, 125.2834
608.8806, 124.5593
609.3627, 124.0560
609.8448, 123.9651
610.3269, 124.0198
610.8090, 123.9669
611.2911, 123.8344
611.7733, 123.9019
612.2554, 124.5427
612.7375, 125.3522
613.2196, 125.2682
613.7017, 124.1956
614.1838, 123.2257
614.6660, 122.7024
615.1481, 122.3897
615.6302, 122.0110
616.1123, 121.5729
616.5944, 121.2112
617.0765, 121.1129
617.5587, 120.9501
618.0408, 120.2944
618.5229, 119.4312
619.0050, 119.0880
619.4871, 119.5066
619.9692, 120.0860
620.4514, 119.9495
620.9335, 118.9300
621.4156, 118.4746
621.8977, 119.4293
622.3798, 119.9442
622.8619, 119.1084
623.3441, 117.8081
623.8262, 117.1142
624.3083, 117.2728
624.7904, 117.6052
625.2725, 117.5476
625.7546, 117.2230
626.2367, 116.9285
626.7188, 116.6686
627.2009, 116.5650
627.6830, 116.7160
628.1652, 117.0350
628.6473, 117.4024
629.1294, 118.0000
629.6115, 118.0913
630.0936, 117.1170
630.5757, 115.9879
631.0579, 115.2307
631.5400, 114.8876
632.0221, 114.9489
632.5042, 115.4210
632.9863, 116.0609
633.4684, 116.4215
633.9506, 116.4697
634.4327, 116.3849
634.9148, 115.9376
635.3969, 115.6675
635.8790, 116.1408
636.3611, 116.8766
636.8433, 116.9510
637.3254, 115.9223
637.8075, 114.8920
638.2896, 114.7032
638.7717, 115.0584
639.2538, 115.4347
639.7360, 115.7530
640.2181, 116.0265
640.7002, 116.2574
641.1823, 116.4565
641.6644, 116.6708
642.1465, 117.1967
642.6287, 117.3068
643.1108, 116.6778
643.5929, 115.9052
644.0750, 115.1758
644.5571, 114.6516
645.0392, 114.6470
645.5214, 115.4097
