##NAMES=Kornerupine
##RRUFFID=R050214
##IDEAL CHEMISTRY=(Mg,Fe^2+^,Al,[box])_10_(Si,Al,B)_5_O_21_(OH,F)_2_
##LOCALITY=Sri Lanka
##OWNER=RRUFF
##SOURCE=Jibamitra Ganguly
##DESCRIPTION=Water-worn single crystal fragment
##STATUS=The identification of this mineral has been confirmed by X-ray diffraction and chemical analysis
##URL=rruff.info/R050214
##MEASURED CHEMISTRY=(Mg_3.63_[box]_0.21_Fe^2+^_0.14_Na_0.02_)_4_Al_6.00_(Si_2.44_Al_1.97_B_0.59_)_5_O_21_(OH) ;   B and Li not measured; B estimated by charge balance
92.35352, 503.3407
92.83563, 499.4575
93.31775, 498.5741
93.79987, 506.5124
94.28198, 512.5858
94.76410, 515.6784
95.24622, 516.8077
95.72833, 517.0043
96.21045, 517.1243
96.69257, 517.5618
97.17468, 516.4252
97.65680, 512.6635
98.13892, 508.2158
98.62103, 504.5701
99.10315, 501.7710
99.58527, 499.1033
100.0674, 496.2725
100.5495, 492.8651
101.0316, 489.9973
101.5137, 487.6252
101.9958, 485.7666
102.4780, 484.5666
102.9601, 484.2177
103.4422, 484.7851
103.9243, 484.4120
104.4064, 482.1900
104.8885, 480.0363
105.3707, 479.0236
105.8528, 479.0893
106.3349, 479.1821
106.8170, 477.9926
107.2991, 475.2472
107.7813, 473.3388
108.2634, 472.9836
108.7455, 473.3048
109.2276, 473.1019
109.7097, 471.9612
110.1918, 470.7442
110.6740, 470.4907
111.1561, 471.0789
111.6382, 471.8004
112.1203, 472.1786
112.6024, 472.2846
113.0845, 472.7662
113.5666, 474.3533
114.0488, 475.8498
114.5309, 476.3297
115.0130, 475.7113
115.4951, 474.7540
115.9772, 474.3223
116.4593, 474.4962
116.9415, 475.0123
117.4236, 475.9373
117.9057, 477.0652
118.3878, 478.4045
118.8699, 479.9335
119.3520, 481.4153
119.8342, 482.1846
120.3163, 481.2744
120.7984, 480.7191
121.2805, 480.8542
121.7626, 481.3848
122.2447, 481.9078
122.7269, 482.1842
123.2090, 482.2578
123.6911, 482.5122
124.1732, 483.3301
124.6553, 483.9057
125.1374, 483.6115
125.6196, 482.6720
126.1017, 482.0635
126.5838, 482.6081
127.0659, 484.1994
127.5480, 485.4388
128.0302, 486.5526
128.5123, 487.1565
128.9944, 486.5009
129.4765, 484.2790
129.9586, 482.2583
130.4407, 482.0538
130.9229, 483.0572
131.4050, 484.3018
131.8871, 485.6455
132.3692, 486.9713
132.8513, 487.8090
133.3334, 487.7386
133.8155, 487.7408
134.2977, 488.5252
134.7798, 489.8310
135.2619, 490.9621
135.7440, 491.2865
136.2261, 490.7125
136.7082, 490.2593
137.1904, 489.5893
137.6725, 489.3303
138.1546, 490.0403
138.6367, 491.5733
139.1188, 493.2069
139.6009, 493.9650
140.0831, 493.1904
140.5652, 493.1680
141.0473, 494.6596
141.5294, 496.2660
142.0115, 496.9655
142.4936, 496.5145
142.9758, 495.4120
143.4579, 494.4970
143.9400, 493.8531
144.4221, 493.2750
144.9042, 492.5509
145.3863, 491.9496
145.8685, 491.8390
146.3506, 492.3769
146.8327, 493.3958
147.3148, 494.6470
147.7969, 496.3233
148.2790, 497.7117
148.7612, 498.3063
149.2433, 498.3221
149.7254, 498.5099
150.2075, 499.2177
150.6896, 500.2447
151.1717, 501.1872
151.6539, 501.9926
152.1360, 502.8318
152.6181, 504.0456
153.1002, 505.7234
153.5823, 506.8662
154.0644, 506.2701
154.5466, 505.2843
155.0287, 505.0552
155.5108, 506.0052
155.9929, 507.4894
156.4750, 508.3946
156.9571, 508.4972
157.4393, 508.4742
157.9214, 508.2087
158.4035, 508.0396
158.8856, 508.4242
159.3677, 509.6420
159.8498, 511.3677
160.3320, 512.3775
160.8141, 511.8979
161.2962, 511.5699
161.7783, 511.6927
162.2604, 512.1195
162.7425, 512.6443
163.2247, 513.1504
163.7068, 513.6324
164.1889, 513.9893
164.6710, 514.6909
165.1531, 514.8042
165.6352, 513.4344
166.1174, 511.1747
166.5995, 509.4868
167.0816, 509.5282
167.5637, 511.2927
168.0458, 512.4730
168.5279, 512.4727
169.0101, 512.4921
169.4922, 513.3624
169.9743, 515.0155
170.4564, 516.5798
170.9385, 517.2443
171.4206, 517.0953
171.9028, 517.3972
172.3849, 518.7925
172.8670, 520.3388
173.3491, 520.9010
173.8312, 520.2717
174.3133, 519.7299
174.7955, 520.5602
175.2776, 522.3132
175.7597, 524.0878
176.2418, 525.6441
176.7239, 527.0336
177.2060, 528.3818
177.6882, 529.7756
178.1703, 530.9213
178.6524, 531.3843
179.1345, 531.4719
179.6166, 531.8176
180.0987, 532.6930
180.5809, 534.0967
181.0630, 536.1365
181.5451, 539.8426
182.0272, 542.8887
182.5093, 544.0051
182.9914, 543.7126
183.4736, 543.2174
183.9557, 543.4926
184.4378, 544.5741
184.9199, 545.3087
185.4020, 545.2131
185.8841, 545.1778
186.3663, 545.4512
186.8484, 546.0331
187.3305, 546.8210
187.8126, 547.7572
188.2947, 548.8939
188.7768, 549.8818
189.2590, 550.9037
189.7411, 551.6550
190.2232, 551.7840
190.7053, 551.4177
191.1874, 551.0853
191.6695, 551.3732
192.1517, 552.5114
192.6338, 553.3634
193.1159, 553.7661
193.5980, 554.0511
194.0801, 554.2849
194.5622, 554.5292
195.0444, 555.0251
195.5265, 556.0693
196.0086, 557.8398
196.4907, 559.5775
196.9728, 561.4807
197.4549, 563.2449
197.9371, 564.4217
198.4192, 564.9245
198.9013, 565.4328
199.3834, 566.8651
199.8655, 569.2413
200.3476, 571.3136
200.8298, 572.6193
201.3119, 573.6064
201.7940, 574.7600
202.2761, 576.0826
202.7582, 577.8596
203.2403, 580.9631
203.7225, 585.0467
204.2046, 588.2964
204.6867, 589.3207
205.1688, 589.1161
205.6509, 590.0250
206.1330, 592.5568
206.6152, 595.8278
207.0973, 599.4530
207.5794, 603.2842
208.0615, 606.6606
208.5436, 608.7331
209.0257, 609.8917
209.5079, 612.1544
209.9900, 616.5840
210.4721, 620.8703
210.9542, 623.4468
211.4363, 624.7564
211.9184, 626.1174
212.4006, 628.6117
212.8827, 632.1693
213.3648, 635.2927
213.8469, 637.6252
214.3290, 639.8311
214.8111, 642.2638
215.2933, 644.8191
215.7754, 647.1729
216.2575, 648.9244
216.7396, 650.0123
217.2217, 651.7132
217.7038, 655.3173
218.1859, 658.4001
218.6681, 659.6179
219.1502, 659.5679
219.6323, 660.0002
220.1144, 662.6802
220.5965, 667.9733
221.0786, 671.4581
221.5608, 671.3740
222.0429, 671.2887
222.5250, 672.7775
223.0071, 675.4925
223.4892, 678.0369
223.9713, 679.1492
224.4535, 678.6282
224.9356, 678.6080
225.4177, 679.4061
225.8998, 680.2989
226.3819, 681.2714
226.8640, 682.1306
227.3462, 682.3526
227.8283, 681.3475
228.3104, 678.9472
228.7925, 677.6808
229.2746, 678.0439
229.7567, 678.8528
230.2389, 679.8270
230.7210, 680.8091
231.2031, 681.3959
231.6852, 681.1790
232.1673, 680.1572
232.6494, 679.5334
233.1316, 679.1661
233.6137, 679.2711
234.0958, 680.0980
234.5779, 681.5828
235.0600, 683.3724
235.5421, 685.3810
236.0243, 687.4974
236.5064, 689.0430
236.9885, 689.4807
237.4706, 689.7892
237.9527, 690.6607
238.4348, 692.0646
238.9170, 693.4720
239.3991, 694.4589
239.8812, 695.2175
240.3633, 696.4011
240.8454, 698.5431
241.3275, 700.6729
241.8097, 701.6534
242.2918, 701.5460
242.7739, 702.1375
243.2560, 705.0029
243.7381, 709.0091
244.2202, 711.8935
244.7024, 713.0203
245.1845, 713.5739
245.6666, 714.4370
246.1487, 715.6042
246.6308, 717.2439
247.1129, 720.1071
247.5951, 723.1346
248.0772, 724.7991
248.5593, 724.3876
249.0414, 723.9047
249.5235, 725.6785
250.0056, 729.8981
250.4878, 733.8264
250.9699, 736.4661
251.4520, 738.3769
251.9341, 739.8487
252.4162, 740.8762
252.8983, 741.8698
253.3805, 743.1321
253.8626, 744.6285
254.3447, 746.7213
254.8268, 750.0034
255.3089, 753.6150
255.7910, 757.2505
256.2732, 760.8234
256.7553, 763.7956
257.2374, 765.5484
257.7195, 765.9918
258.2016, 765.7913
258.6837, 764.4908
259.1659, 762.9202
259.6480, 761.7468
260.1301, 760.9140
260.6122, 759.5320
261.0943, 756.1420
261.5764, 750.2318
262.0586, 745.8902
262.5407, 745.2432
263.0228, 744.7782
263.5049, 742.8481
263.9870, 739.5566
264.4691, 736.1237
264.9513, 733.6705
265.4334, 732.2811
265.9155, 731.1308
266.3976, 730.6877
266.8797, 730.0812
267.3618, 728.6959
267.8440, 726.8139
268.3261, 725.3219
268.8082, 725.2715
269.2903, 726.7819
269.7724, 726.5088
270.2545, 722.2260
270.7367, 718.1794
271.2188, 715.5773
271.7009, 714.1400
272.1830, 713.0568
272.6651, 711.7595
273.1472, 710.2646
273.6294, 708.8125
274.1115, 707.3631
274.5936, 706.0057
275.0757, 704.5813
275.5578, 703.2904
276.0399, 702.5013
276.5221, 702.4765
277.0042, 703.0692
277.4863, 703.4011
277.9684, 703.4267
278.4505, 703.1974
278.9326, 702.1008
279.4148, 700.9136
279.8969, 700.8305
280.3790, 702.4802
280.8611, 705.1864
281.3432, 706.7384
281.8253, 704.8511
282.3075, 704.5830
282.7896, 707.2452
283.2717, 711.2169
283.7538, 714.9716
284.2359, 717.8943
284.7180, 720.0401
285.2002, 721.4329
285.6823, 720.3674
286.1644, 720.9965
286.6465, 724.3820
287.1286, 728.7948
287.6107, 732.6002
288.0929, 735.4097
288.5750, 738.1309
289.0571, 742.2319
289.5392, 748.7020
290.0213, 754.3192
290.5034, 758.7650
290.9856, 762.6193
291.4677, 766.3269
291.9498, 769.9102
292.4319, 773.0583
292.9140, 775.3218
293.3961, 776.4499
293.8783, 777.6814
294.3604, 779.5167
294.8425, 781.0322
295.3246, 781.6680
295.8067, 781.4340
296.2888, 780.6169
296.7710, 779.3770
297.2531, 777.6877
297.7352, 776.3432
298.2173, 775.5655
298.6994, 774.8450
299.1815, 773.9186
299.6637, 772.8608
300.1458, 771.9625
300.6279, 771.4785
301.1100, 771.2922
301.5921, 770.3307
302.0742, 767.8743
302.5564, 765.6096
303.0385, 763.8056
303.5206, 762.5359
304.0027, 761.9631
304.4848, 762.2188
304.9669, 763.0535
305.4491, 763.7242
305.9312, 763.9260
306.4133, 764.3942
306.8954, 765.1957
307.3775, 766.3331
307.8596, 768.0933
308.3418, 770.5884
308.8239, 773.0078
309.3060, 773.7538
309.7881, 771.3130
310.2702, 770.4173
310.7523, 772.2161
311.2345, 775.0984
311.7166, 777.6357
312.1987, 779.5189
312.6808, 781.1974
313.1629, 783.1590
313.6451, 785.4247
314.1272, 787.9416
314.6093, 790.9282
315.0914, 793.9532
315.5735, 796.7419
316.0556, 799.2784
316.5378, 801.6954
317.0199, 804.1113
317.5020, 806.5151
317.9841, 808.9764
318.4662, 812.1526
318.9483, 814.7425
319.4305, 815.7145
319.9126, 815.5735
320.3947, 815.6962
320.8768, 816.9022
321.3589, 819.0322
321.8410, 821.2797
322.3232, 823.9388
322.8053, 826.3817
323.2874, 828.2527
323.7695, 829.8531
324.2516, 831.7183
324.7337, 834.0760
325.2159, 836.6224
325.6980, 838.6620
326.1801, 840.1895
326.6622, 841.1713
327.1443, 841.2054
327.6264, 840.8881
328.1086, 840.9073
328.5907, 841.4103
329.0728, 841.9283
329.5549, 841.8651
330.0370, 841.0588
330.5191, 840.0510
331.0013, 838.7175
331.4834, 837.2911
331.9655, 836.0096
332.4476, 834.8367
332.9297, 833.4393
333.4118, 831.4158
333.8940, 828.7039
334.3761, 826.9265
334.8582, 827.3156
335.3403, 827.1960
335.8224, 824.9898
336.3045, 821.4106
336.7867, 818.1755
337.2688, 816.3340
337.7509, 815.5985
338.2330, 814.6304
338.7151, 813.2869
339.1972, 811.9001
339.6793, 810.1057
340.1614, 808.4326
340.6436, 807.7159
341.1257, 808.2552
341.6078, 809.3759
342.0899, 809.7640
342.5720, 808.7063
343.0541, 808.1212
343.5363, 808.6619
344.0184, 809.2254
344.5005, 808.5955
344.9826, 806.7731
345.4647, 805.0748
345.9468, 805.0714
346.4290, 807.2908
346.9111, 808.6828
347.3932, 808.0158
347.8753, 807.8307
348.3574, 809.7473
348.8395, 813.2140
349.3217, 816.5961
349.8038, 818.7042
350.2859, 819.6332
350.7680, 820.3564
351.2501, 820.3713
351.7322, 820.7470
352.2144, 821.7606
352.6965, 823.2165
353.1786, 824.8442
353.6607, 826.5230
354.1428, 828.3078
354.6249, 830.3763
355.1071, 833.1221
355.5892, 835.4993
356.0713, 837.2533
356.5534, 838.8093
357.0355, 840.4293
357.5176, 842.1992
357.9998, 844.1339
358.4819, 846.2713
358.9640, 848.6689
359.4461, 851.0663
359.9282, 853.5338
360.4103, 855.9721
360.8925, 858.3611
361.3746, 860.6893
361.8567, 862.8747
362.3388, 864.8039
362.8209, 866.5479
363.3030, 868.7744
363.7852, 871.5379
364.2673, 874.7682
364.7494, 878.2310
365.2315, 882.1762
365.7136, 887.6431
366.1957, 895.2187
366.6779, 902.5178
367.1600, 903.7956
367.6421, 895.5974
368.1242, 890.0624
368.6063, 890.0591
369.0884, 892.3052
369.5706, 895.1458
370.0527, 898.1390
370.5348, 901.0721
371.0169, 903.8909
371.4990, 906.6230
371.9811, 908.5557
372.4633, 908.7219
372.9454, 909.0886
373.4275, 910.6306
373.9096, 913.0696
374.3917, 915.7048
374.8738, 918.2126
375.3560, 920.5677
375.8381, 922.4875
376.3202, 923.5193
376.8023, 925.2177
377.2844, 929.2761
377.7665, 933.8344
378.2487, 936.6463
378.7308, 936.8353
379.2129, 936.3245
379.6950, 937.6149
380.1771, 940.8058
380.6592, 943.3210
381.1414, 943.8865
381.6235, 944.1543
382.1056, 945.7122
382.5877, 948.5276
383.0698, 951.1687
383.5519, 952.6366
384.0341, 953.2643
384.5162, 953.9135
384.9983, 954.4058
385.4804, 955.5839
385.9625, 958.9991
386.4446, 963.5878
386.9268, 966.9720
387.4089, 967.3908
387.8910, 967.2252
388.3731, 969.2553
388.8552, 973.4011
389.3373, 977.5522
389.8195, 980.7697
390.3016, 983.3668
390.7837, 986.0289
391.2658, 988.7385
391.7479, 991.5427
392.2300, 994.9601
392.7122, 998.4309
393.1943, 1000.426
393.6764, 1000.302
394.1585, 999.8226
394.6406, 1001.381
395.1227, 1005.039
395.6049, 1007.818
396.0870, 1008.917
396.5691, 1009.264
397.0512, 1009.138
397.5333, 1008.765
398.0154, 1009.416
398.4976, 1012.389
398.9797, 1017.016
399.4618, 1019.189
399.9439, 1017.471
400.4260, 1015.429
400.9081, 1014.208
401.3903, 1013.329
401.8724, 1011.928
402.3545, 1009.685
402.8366, 1007.170
403.3187, 1005.413
403.8008, 1005.166
404.2830, 1003.979
404.7651, 1001.092
405.2472, 997.8959
405.7293, 995.2631
406.2114, 993.2844
406.6935, 991.6801
407.1757, 990.2550
407.6578, 989.0109
408.1399, 987.6653
408.6220, 985.8458
409.1041, 984.3491
409.5862, 983.3815
410.0684, 982.8194
410.5505, 982.4665
411.0326, 982.2431
411.5147, 982.2220
411.9968, 982.6350
412.4789, 983.9059
412.9611, 984.6418
413.4432, 984.7887
413.9253, 984.4493
414.4074, 983.3217
414.8895, 981.6356
415.3716, 980.2343
415.8538, 979.9494
416.3359, 980.7081
416.8180, 981.2568
417.3001, 981.3538
417.7822, 981.5941
418.2643, 982.1586
418.7465, 982.9817
419.2286, 983.9116
419.7107, 984.8372
420.1928, 986.0621
420.6749, 988.4028
421.1570, 992.1449
421.6392, 994.9146
422.1213, 995.4473
422.6034, 995.3246
423.0855, 995.5814
423.5676, 996.2888
424.0497, 997.4210
424.5319, 999.2616
425.0140, 1001.504
425.4961, 1003.355
425.9782, 1004.792
426.4603, 1005.735
426.9424, 1005.885
427.4246, 1005.493
427.9067, 1004.925
428.3888, 1003.384
428.8709, 1002.754
429.3530, 1005.285
429.8351, 1010.294
430.3173, 1014.645
430.7994, 1017.189
431.2815, 1018.560
431.7636, 1019.833
432.2457, 1021.200
432.7278, 1021.561
433.2100, 1019.507
433.6921, 1016.991
434.1742, 1016.274
434.6563, 1017.493
435.1384, 1019.120
435.6205, 1019.907
436.1027, 1019.943
436.5848, 1020.690
437.0669, 1023.277
437.5490, 1025.191
438.0311, 1024.817
438.5132, 1023.491
438.9954, 1023.355
439.4775, 1025.200
439.9596, 1028.119
440.4417, 1030.549
440.9238, 1032.278
441.4059, 1033.971
441.8881, 1034.907
442.3702, 1036.421
442.8523, 1039.935
443.3344, 1044.812
443.8165, 1049.138
444.2986, 1051.470
444.7808, 1052.032
445.2629, 1052.073
445.7450, 1050.447
446.2271, 1050.092
446.7092, 1052.433
447.1913, 1055.670
447.6735, 1058.205
448.1556, 1059.581
448.6377, 1060.187
449.1198, 1060.021
449.6019, 1058.967
450.0840, 1059.442
450.5662, 1063.059
451.0483, 1066.543
451.5304, 1067.849
452.0125, 1067.655
452.4946, 1067.645
452.9767, 1068.544
453.4589, 1070.059
453.9410, 1071.844
454.4231, 1073.922
454.9052, 1075.876
455.3873, 1077.163
455.8694, 1078.576
456.3516, 1081.449
456.8337, 1086.115
457.3158, 1090.088
457.7979, 1091.748
458.2800, 1092.063
458.7621, 1092.339
459.2443, 1092.701
459.7264, 1094.013
460.2085, 1097.302
460.6906, 1102.377
461.1727, 1106.733
461.6548, 1110.828
462.1370, 1113.692
462.6191, 1113.941
463.1012, 1112.760
463.5833, 1112.494
464.0654, 1114.029
464.5475, 1116.512
465.0297, 1118.536
465.5118, 1119.865
465.9939, 1121.271
466.4760, 1122.977
466.9581, 1124.560
467.4402, 1125.514
467.9224, 1126.092
468.4045, 1127.099
468.8866, 1129.184
469.3687, 1131.982
469.8508, 1133.748
470.3329, 1133.466
470.8151, 1133.811
471.2972, 1136.196
471.7793, 1138.616
472.2614, 1139.069
472.7435, 1137.389
473.2256, 1135.430
473.7078, 1135.099
474.1899, 1136.358
474.6720, 1137.591
475.1541, 1138.702
475.6362, 1139.931
476.1183, 1141.839
476.6005, 1143.818
477.0826, 1144.760
477.5647, 1143.964
478.0468, 1142.845
478.5289, 1143.052
479.0110, 1144.439
479.4932, 1145.674
479.9753, 1146.461
480.4574, 1146.878
480.9395, 1146.552
481.4216, 1145.594
481.9037, 1145.823
482.3859, 1148.990
482.8680, 1152.672
483.3501, 1154.633
483.8322, 1154.909
484.3143, 1154.313
484.7964, 1152.992
485.2786, 1151.496
485.7607, 1151.606
486.2428, 1154.606
486.7249, 1156.831
487.2070, 1156.920
487.6891, 1156.615
488.1713, 1157.692
488.6534, 1160.257
489.1355, 1163.184
489.6176, 1165.502
490.0997, 1167.221
490.5818, 1168.384
491.0640, 1167.822
491.5461, 1168.026
492.0282, 1170.122
492.5103, 1172.845
492.9924, 1174.568
493.4745, 1174.860
493.9567, 1174.963
494.4388, 1176.735
494.9209, 1180.403
495.4030, 1183.102
495.8851, 1184.261
496.3672, 1184.954
496.8494, 1185.302
497.3315, 1185.670
497.8136, 1186.825
498.2957, 1189.346
498.7778, 1192.289
499.2599, 1194.463
499.7421, 1195.910
500.2242, 1197.246
500.7063, 1198.473
501.1884, 1199.921
501.6705, 1202.195
502.1526, 1205.250
502.6348, 1207.916
503.1169, 1209.395
503.5990, 1210.713
504.0811, 1212.814
504.5632, 1215.685
505.0453, 1219.036
505.5274, 1222.855
506.0096, 1226.830
506.4917, 1229.998
506.9738, 1231.846
507.4559, 1233.717
507.9380, 1236.059
508.4201, 1238.220
508.9023, 1239.207
509.3844, 1239.291
509.8665, 1240.006
510.3486, 1242.719
510.8307, 1247.163
511.3128, 1250.875
511.7950, 1253.228
512.2771, 1255.775
512.7592, 1259.460
513.2413, 1263.071
513.7234, 1265.322
514.2056, 1266.036
514.6877, 1266.218
515.1698, 1266.393
515.6519, 1266.700
516.1340, 1268.732
516.6161, 1273.709
517.0983, 1277.958
517.5804, 1278.267
518.0625, 1276.851
518.5446, 1277.035
519.0267, 1280.087
519.5089, 1283.282
519.9910, 1284.735
520.4731, 1284.779
520.9552, 1283.969
521.4373, 1282.209
521.9194, 1280.889
522.4016, 1281.491
522.8837, 1284.135
523.3658, 1286.751
523.8479, 1289.961
524.3300, 1292.486
524.8121, 1292.934
525.2943, 1292.474
525.7764, 1293.258
526.2585, 1296.041
526.7406, 1299.794
527.2227, 1303.001
527.7048, 1305.772
528.1870, 1307.546
528.6691, 1307.140
529.1512, 1306.998
529.6333, 1308.059
530.1154, 1310.055
530.5975, 1312.496
531.0797, 1315.208
531.5618, 1317.895
532.0439, 1319.994
532.5260, 1321.418
533.0081, 1322.886
533.4902, 1324.182
533.9724, 1325.967
534.4545, 1328.814
534.9366, 1332.530
535.4187, 1336.384
535.9008, 1340.824
536.3829, 1344.719
536.8651, 1346.120
537.3472, 1345.480
537.8293, 1345.825
538.3114, 1348.473
538.7935, 1352.182
539.2756, 1354.955
539.7578, 1356.584
540.2399, 1358.522
540.7220, 1360.743
541.2041, 1363.448
541.6862, 1367.307
542.1683, 1371.798
542.6505, 1375.530
543.1326, 1377.748
543.6147, 1378.870
544.0968, 1379.836
544.5789, 1380.339
545.0610, 1381.342
545.5432, 1383.262
546.0253, 1385.284
546.5074, 1387.021
546.9895, 1388.469
547.4716, 1389.745
547.9537, 1390.893
548.4359, 1391.933
548.9180, 1392.717
549.4001, 1393.110
549.8822, 1394.246
550.3643, 1396.983
550.8464, 1400.048
551.3286, 1401.988
551.8107, 1402.904
552.2928, 1404.222
552.7749, 1406.771
553.2570, 1409.766
553.7391, 1412.250
554.2213, 1414.326
554.7034, 1416.848
555.1855, 1420.352
555.6676, 1424.201
556.1497, 1427.155
556.6318, 1428.982
557.1140, 1430.298
557.5961, 1430.403
558.0782, 1430.620
558.5603, 1431.416
559.0424, 1433.063
559.5245, 1436.246
560.0067, 1441.500
560.4888, 1447.651
560.9709, 1451.664
561.4530, 1452.791
561.9351, 1453.867
562.4172, 1455.238
562.8994, 1456.600
563.3815, 1457.539
563.8636, 1458.304
564.3457, 1459.670
564.8278, 1462.296
565.3099, 1465.433
565.7921, 1467.751
566.2742, 1469.309
566.7563, 1471.605
567.2384, 1475.404
567.7205, 1479.638
568.2026, 1482.762
568.6848, 1484.802
569.1669, 1487.253
569.6490, 1490.921
570.1311, 1494.530
570.6132, 1497.306
571.0953, 1499.337
571.5775, 1500.885
572.0596, 1502.037
572.5417, 1503.107
573.0238, 1504.682
573.5059, 1507.064
573.9880, 1509.027
574.4702, 1509.668
574.9523, 1510.842
575.4344, 1513.693
575.9165, 1517.519
576.3986, 1521.081
576.8807, 1523.869
577.3629, 1526.106
577.8450, 1527.970
578.3271, 1529.468
578.8092, 1531.055
579.2913, 1532.610
579.7734, 1534.588
580.2556, 1537.702
580.7377, 1541.505
581.2198, 1544.961
581.7019, 1547.818
582.1840, 1550.347
582.6661, 1552.557
583.1483, 1554.597
583.6304, 1556.871
584.1125, 1559.475
584.5946, 1561.887
585.0767, 1563.388
585.5588, 1563.890
586.0409, 1565.961
