##NAMES=Kosnarite
##RRUFFID=R060250
##IDEAL CHEMISTRY=KZr^4+^_2_(P^5+^O_4_)_3_
##LOCALITY=Jenipapo District, Itinga, Minas Gerais, Brazil
##OWNER=RRUFF
##SOURCE=William W. Pinch
##DESCRIPTION=Tan to colorless fragment
##STATUS=The identification of this mineral has been confirmed by single-crystal X-ray diffraction.
##URL=rruff.info/R060250
91.53320, 194.0477
92.01532, 193.2529
92.49744, 192.5944
92.97955, 195.6579
93.46167, 198.6577
93.94379, 197.3975
94.42590, 191.4068
94.90802, 184.9497
95.39014, 182.7571
95.87225, 185.9153
96.35437, 188.5401
96.83649, 187.3649
97.31860, 184.9593
97.80072, 184.2197
98.28284, 187.0002
98.76495, 192.0216
99.24707, 193.7352
99.72919, 189.6044
100.2113, 185.0782
100.6934, 180.7449
101.1755, 176.9943
101.6577, 174.2940
102.1398, 172.9601
102.6219, 172.8640
103.1040, 174.8108
103.5861, 181.7286
104.0682, 187.8239
104.5504, 189.1005
105.0325, 185.3048
105.5146, 179.9400
105.9967, 177.9786
106.4788, 181.3629
106.9609, 183.1375
107.4431, 182.6534
107.9252, 180.4229
108.4073, 176.3979
108.8894, 169.7632
109.3715, 163.2321
109.8536, 162.1028
110.3358, 167.2712
110.8179, 172.3917
111.3000, 173.4279
111.7821, 170.8434
112.2642, 169.2301
112.7463, 171.3680
113.2285, 174.7076
113.7106, 176.7633
114.1927, 177.0293
114.6748, 176.1980
115.1569, 174.8203
115.6390, 172.1331
116.1212, 170.9443
116.6033, 173.2570
117.0854, 176.8000
117.5675, 179.1901
118.0496, 179.0865
118.5317, 177.2147
119.0139, 177.0186
119.4960, 178.5821
119.9781, 182.0963
120.4602, 190.2444
120.9423, 200.3164
121.4244, 207.7159
121.9066, 208.7071
122.3887, 202.7764
122.8708, 197.3000
123.3529, 192.4836
123.8350, 187.7911
124.3171, 182.8444
124.7993, 177.6912
125.2814, 172.7950
125.7635, 168.5104
126.2456, 164.9102
126.7277, 162.3426
127.2098, 160.5653
127.6920, 159.9367
128.1741, 161.5791
128.6562, 166.1717
129.1383, 170.7877
129.6204, 171.2421
130.1025, 168.0710
130.5847, 164.4486
131.0668, 161.0052
131.5489, 157.9749
132.0310, 156.2272
132.5131, 156.2727
132.9952, 157.4583
133.4774, 159.6078
133.9595, 162.6701
134.4416, 165.0493
134.9237, 164.8481
135.4058, 161.5919
135.8879, 159.0622
136.3701, 159.1758
136.8522, 159.4749
137.3343, 157.8365
137.8164, 153.8510
138.2985, 149.8772
138.7806, 150.6013
139.2628, 161.0809
139.7449, 166.8651
140.2270, 163.4200
140.7091, 156.9773
141.1912, 153.2935
141.6733, 154.9713
142.1555, 160.2440
142.6376, 163.0434
143.1197, 160.5951
143.6018, 158.5773
144.0839, 157.2618
144.5660, 156.7871
145.0482, 157.5254
145.5303, 159.8908
146.0124, 163.4936
146.4945, 165.4146
146.9766, 164.2029
147.4587, 163.1278
147.9409, 163.8734
148.4230, 166.1101
148.9051, 168.1783
149.3872, 168.8723
149.8693, 168.3619
150.3514, 168.2124
150.8336, 169.0360
151.3157, 169.8682
151.7978, 169.4229
152.2799, 167.4208
152.7620, 165.9873
153.2441, 167.9792
153.7263, 171.6332
154.2084, 173.9328
154.6905, 172.6126
155.1726, 169.4296
155.6547, 168.3691
156.1368, 170.2576
156.6190, 172.9311
157.1011, 176.3688
157.5832, 179.6672
158.0653, 180.9432
158.5474, 177.9937
159.0295, 171.2613
159.5117, 166.7154
159.9938, 166.5379
160.4759, 166.5572
160.9580, 165.0622
161.4401, 162.4422
161.9222, 159.9819
162.4044, 158.9030
162.8865, 159.4624
163.3686, 159.9018
163.8507, 161.2722
164.3328, 161.6715
164.8149, 159.3312
165.2971, 154.7041
165.7792, 150.0959
166.2613, 148.1536
166.7434, 149.6169
167.2255, 152.1412
167.7076, 157.9354
168.1898, 163.1895
168.6719, 164.8203
169.1540, 162.3486
169.6361, 157.9557
170.1182, 154.5829
170.6003, 152.5812
171.0825, 150.8945
171.5646, 148.2391
172.0467, 146.3648
172.5288, 147.8946
173.0109, 153.8722
173.4930, 161.5703
173.9752, 167.0205
174.4573, 170.7042
174.9394, 171.7359
175.4215, 167.9368
175.9036, 161.3090
176.3857, 156.4202
176.8679, 154.8430
177.3500, 155.0391
177.8321, 154.9596
178.3142, 154.6083
178.7963, 154.0865
179.2784, 153.9444
179.7606, 153.9748
180.2427, 152.1886
180.7248, 145.4934
181.2069, 139.1171
181.6890, 138.3428
182.1711, 143.7429
182.6533, 150.0748
183.1354, 151.8461
183.6175, 148.3532
184.0996, 145.8838
184.5817, 146.5413
185.0638, 148.2940
185.5460, 151.0428
186.0281, 154.6192
186.5102, 156.8630
186.9923, 153.4929
187.4744, 140.5154
187.9565, 132.7682
188.4387, 135.3911
188.9208, 141.1364
189.4029, 145.2651
189.8850, 146.2647
190.3671, 145.3046
190.8492, 144.5851
191.3314, 144.4781
191.8135, 143.9923
192.2956, 142.3600
192.7777, 140.7152
193.2598, 140.2394
193.7419, 141.3701
194.2241, 143.4104
194.7062, 144.6814
195.1883, 144.8999
195.6704, 144.5388
196.1525, 143.6880
196.6346, 142.2364
197.1168, 139.5518
197.5989, 135.2665
198.0810, 130.5312
198.5631, 128.8756
199.0452, 134.3276
199.5273, 137.3645
200.0095, 134.3010
200.4916, 128.1416
200.9737, 123.4842
201.4558, 122.1715
201.9379, 124.0124
202.4200, 129.1644
202.9022, 140.7473
203.3843, 149.6780
203.8664, 151.6169
204.3485, 148.2749
204.8306, 144.0053
205.3127, 139.9951
205.7949, 136.9404
206.2770, 136.3192
206.7591, 139.2037
207.2412, 141.9641
207.7233, 142.2216
208.2054, 140.3476
208.6876, 138.6720
209.1697, 138.4206
209.6518, 138.6115
210.1339, 137.7250
210.6160, 135.4111
211.0981, 132.8810
211.5803, 130.7735
212.0624, 129.0867
212.5445, 128.5769
213.0266, 130.4369
213.5087, 133.1033
213.9908, 135.3502
214.4730, 137.0730
214.9551, 137.9314
215.4372, 137.0707
215.9193, 134.0982
216.4014, 131.8386
216.8836, 132.0965
217.3657, 132.8108
217.8478, 132.4480
218.3299, 130.6235
218.8120, 128.4688
219.2941, 127.4772
219.7763, 127.7993
220.2584, 128.8465
220.7405, 131.6758
221.2226, 134.4409
221.7047, 135.7453
222.1868, 135.2356
222.6690, 133.7449
223.1511, 132.5664
223.6332, 131.8944
224.1153, 131.0797
224.5974, 129.1194
225.0795, 127.5827
225.5617, 127.9236
226.0438, 130.4492
226.5259, 133.9790
227.0080, 136.5337
227.4901, 137.9223
227.9722, 138.5010
228.4544, 138.0127
228.9365, 137.0305
229.4186, 135.8488
229.9007, 134.6029
230.3828, 133.4371
230.8649, 132.6442
231.3471, 132.7154
231.8292, 132.3531
232.3113, 130.6104
232.7934, 129.0103
233.2755, 129.0601
233.7576, 131.0942
234.2398, 133.9878
234.7219, 135.8041
235.2040, 135.1526
235.6861, 135.9866
236.1682, 140.8610
236.6503, 145.8287
237.1325, 146.6438
237.6146, 142.3227
238.0967, 136.0323
238.5788, 132.5198
239.0609, 133.4648
239.5430, 133.5171
240.0252, 131.1978
240.5073, 128.5677
240.9894, 127.9417
241.4715, 129.8603
241.9536, 132.7398
242.4357, 134.5768
242.9179, 135.2112
243.4000, 135.3822
243.8821, 134.2561
244.3642, 133.1079
244.8463, 133.4377
245.3284, 135.5793
245.8106, 138.6362
246.2927, 142.3314
246.7748, 146.8341
247.2569, 148.4445
247.7390, 144.2398
248.2211, 137.8741
248.7033, 133.3940
249.1854, 131.3745
249.6675, 131.4064
250.1496, 134.5111
250.6317, 140.0811
251.1138, 143.4395
251.5960, 141.2651
252.0781, 137.3583
252.5602, 137.2481
253.0423, 142.0242
253.5244, 147.1300
254.0065, 148.0948
254.4887, 146.1669
254.9708, 144.5510
255.4529, 144.1271
255.9350, 144.4210
256.4171, 144.7605
256.8992, 145.0686
257.3813, 145.6859
257.8635, 147.5829
258.3456, 149.9160
258.8277, 151.1294
259.3098, 150.0544
259.7919, 148.0445
260.2740, 146.8304
260.7562, 146.3646
261.2383, 146.8983
261.7204, 150.1632
262.2025, 154.1409
262.6846, 156.2560
263.1667, 155.4825
263.6489, 152.8857
264.1310, 149.3144
264.6131, 144.2100
265.0952, 140.5737
265.5773, 140.9386
266.0594, 143.0253
266.5416, 145.1705
267.0237, 147.2971
267.5058, 148.3674
267.9879, 146.1377
268.4700, 139.5489
268.9521, 134.6111
269.4343, 134.2070
269.9164, 135.8979
270.3985, 138.3435
270.8806, 141.2918
271.3627, 144.3061
271.8448, 147.2141
272.3270, 150.3375
272.8091, 151.7220
273.2912, 149.2587
273.7733, 145.8721
274.2554, 142.8719
274.7375, 140.5453
275.2197, 139.3349
275.7018, 139.9324
276.1839, 142.5572
276.6660, 145.5403
277.1481, 151.1242
277.6302, 155.1182
278.1124, 153.7896
278.5945, 147.6383
279.0766, 141.6079
279.5587, 141.0845
280.0408, 146.7612
280.5229, 151.6300
281.0051, 155.8503
281.4872, 158.7095
281.9693, 158.7844
282.4514, 156.8911
282.9335, 155.6289
283.4156, 157.9060
283.8978, 163.8541
284.3799, 167.0306
284.8620, 163.8132
285.3441, 161.3482
285.8262, 163.0231
286.3083, 167.4023
286.7905, 171.1570
287.2726, 171.8620
287.7547, 169.7953
288.2368, 167.5582
288.7189, 164.9983
289.2010, 162.4310
289.6832, 159.3576
290.1653, 156.4488
290.6474, 155.0221
291.1295, 156.1978
291.6116, 158.8311
292.0938, 157.8695
292.5759, 148.6115
293.0580, 142.5900
293.5401, 144.4691
294.0222, 149.5347
294.5043, 152.5545
294.9865, 151.1786
295.4686, 146.8399
295.9507, 142.8108
296.4328, 138.5977
296.9149, 135.7298
297.3970, 134.2640
297.8792, 134.0460
298.3613, 135.6729
298.8434, 139.1322
299.3255, 142.6354
299.8076, 142.8835
300.2897, 137.8008
300.7719, 134.1182
301.2540, 132.7220
301.7361, 132.1663
302.2182, 131.7257
302.7003, 131.1909
303.1824, 130.5471
303.6646, 129.6947
304.1467, 128.4515
304.6288, 127.6910
305.1109, 127.3270
305.5930, 127.4752
306.0751, 129.1901
306.5573, 131.7550
307.0394, 132.8134
307.5215, 129.5101
308.0036, 121.2363
308.4857, 117.4124
308.9678, 124.0283
309.4500, 129.3628
309.9321, 128.6873
310.4142, 124.1401
310.8963, 120.5241
311.3784, 121.1726
311.8605, 125.5332
312.3427, 129.2577
312.8248, 133.1283
313.3069, 135.2876
313.7890, 133.7240
314.2711, 130.7974
314.7532, 129.8460
315.2354, 132.6209
315.7175, 137.4760
316.1996, 139.5767
316.6817, 137.0643
317.1638, 134.5566
317.6459, 131.9277
318.1281, 129.8711
318.6102, 129.5993
319.0923, 131.3270
319.5744, 133.2996
320.0565, 132.2339
320.5386, 125.9014
321.0208, 121.7129
321.5029, 120.6589
321.9850, 120.9404
322.4671, 121.9603
322.9492, 123.3657
323.4313, 124.5155
323.9135, 124.4749
324.3956, 122.7590
324.8777, 122.3499
325.3598, 127.0550
325.8419, 129.5405
326.3240, 123.8402
326.8062, 113.0047
327.2883, 105.5420
327.7704, 108.9162
328.2525, 122.3246
328.7346, 131.4532
329.2167, 134.4335
329.6989, 134.7518
330.1810, 131.3749
330.6631, 126.3685
331.1452, 122.6710
331.6273, 121.9447
332.1094, 123.2505
332.5916, 123.6937
333.0737, 122.8975
333.5558, 121.8110
334.0379, 119.8386
334.5200, 118.0828
335.0021, 118.1365
335.4843, 120.4285
335.9664, 122.9884
336.4485, 121.8509
336.9306, 114.4790
337.4127, 111.0686
337.8948, 117.1733
338.3770, 123.8501
338.8591, 125.1897
339.3412, 121.1074
339.8233, 116.1546
340.3055, 115.4546
340.7876, 119.6533
341.2697, 121.5578
341.7518, 118.9702
342.2339, 116.0780
342.7160, 114.3522
343.1982, 113.6237
343.6803, 113.1298
344.1624, 112.1322
344.6445, 110.9899
345.1266, 111.8062
345.6087, 116.5600
346.0909, 120.0053
346.5730, 119.7766
347.0551, 117.6972
347.5372, 116.0060
348.0193, 115.6075
348.5014, 115.9652
348.9836, 116.0231
349.4657, 115.5332
349.9478, 115.5842
350.4299, 117.0715
350.9120, 118.8358
351.3941, 119.9213
351.8763, 120.1647
352.3584, 120.3761
352.8405, 121.7531
353.3226, 124.3658
353.8047, 125.7559
354.2868, 125.2141
354.7690, 123.6585
355.2511, 121.2102
355.7332, 118.1612
356.2153, 115.5993
356.6974, 114.5245
357.1795, 114.5509
357.6617, 113.9853
358.1438, 112.1907
358.6259, 111.1369
359.1080, 113.2481
359.5901, 116.5651
360.0722, 117.6007
360.5544, 113.5780
361.0365, 108.5238
361.5186, 109.0125
362.0007, 115.8922
362.4828, 121.6192
362.9649, 122.5703
363.4471, 121.0142
363.9292, 119.3897
364.4113, 117.8826
364.8934, 116.5371
365.3755, 114.9332
365.8576, 113.3366
366.3398, 113.4940
366.8219, 116.7397
367.3040, 120.4772
367.7861, 122.0295
368.2682, 121.5814
368.7503, 120.4328
369.2325, 118.0010
369.7146, 115.5140
370.1967, 115.8629
370.6788, 119.8642
371.1609, 123.0732
371.6430, 120.9147
372.1252, 115.0825
372.6073, 111.3370
373.0894, 111.6154
373.5715, 113.2811
374.0536, 114.3480
374.5357, 114.9565
375.0179, 116.2458
375.5000, 119.4387
375.9821, 122.9706
376.4642, 122.8362
376.9463, 117.0540
377.4284, 112.6676
377.9106, 113.9328
378.3927, 117.9370
378.8748, 119.0729
379.3569, 115.5632
379.8390, 111.3162
380.3211, 111.9544
380.8033, 118.8052
381.2854, 122.6158
381.7675, 120.7414
382.2496, 117.0186
382.7317, 113.9739
383.2138, 111.9171
383.6960, 110.5983
384.1781, 109.8557
384.6602, 109.6894
385.1423, 110.0121
385.6244, 111.0914
386.1065, 112.2570
386.5887, 113.3673
387.0708, 114.3976
387.5529, 115.3049
388.0350, 116.0661
388.5171, 116.7572
388.9992, 117.5738
389.4814, 119.1737
389.9635, 119.8076
390.4456, 119.3501
390.9277, 118.0341
391.4098, 115.5319
391.8919, 112.1003
392.3741, 108.8774
392.8562, 106.9876
393.3383, 106.4332
393.8204, 107.2506
394.3025, 111.5423
394.7846, 114.9381
395.2668, 115.3460
395.7489, 113.8319
396.2310, 112.5222
396.7131, 112.6741
397.1952, 113.8288
397.6773, 114.3526
398.1595, 113.6376
398.6416, 113.2952
399.1237, 113.5075
399.6058, 114.1391
400.0879, 115.2049
400.5700, 116.6570
401.0522, 118.1721
401.5343, 119.3798
402.0164, 120.2411
402.4985, 120.9962
402.9806, 121.9649
403.4627, 122.4918
403.9449, 122.0908
404.4270, 121.0013
404.9091, 119.8504
405.3912, 119.0452
405.8733, 118.4472
406.3554, 117.5208
406.8376, 115.9263
407.3197, 114.8457
407.8018, 115.4893
408.2839, 116.5377
408.7660, 116.4350
409.2481, 114.6132
409.7303, 112.7170
410.2124, 112.4824
410.6945, 113.8190
411.1766, 115.4663
411.6587, 117.9920
412.1408, 119.6133
412.6230, 117.9798
413.1051, 113.6022
413.5872, 110.3071
414.0693, 109.6625
414.5514, 111.0965
415.0335, 114.6044
415.5157, 120.4874
415.9978, 124.9942
416.4799, 124.5970
416.9620, 121.1046
417.4441, 120.4822
417.9262, 126.1667
418.4084, 130.4554
418.8905, 126.3007
419.3726, 117.2629
419.8547, 113.5937
420.3368, 119.8152
420.8189, 129.2300
421.3011, 130.0018
421.7832, 118.9725
422.2653, 113.2553
422.7474, 120.2300
423.2295, 129.4975
423.7116, 131.0338
424.1938, 124.9214
424.6759, 118.8605
425.1580, 118.9772
425.6401, 124.8818
426.1222, 129.3416
426.6043, 133.0083
427.0865, 134.7360
427.5686, 132.3018
428.0507, 128.3607
428.5328, 126.8242
429.0149, 129.1491
429.4970, 133.3140
429.9792, 135.6018
430.4613, 134.0316
430.9434, 135.0248
431.4255, 141.2077
431.9076, 147.2009
432.3897, 149.5945
432.8719, 148.9083
433.3540, 147.8479
433.8361, 148.4652
434.3182, 150.5651
434.8003, 153.0788
435.2824, 158.5415
435.7646, 160.2190
436.2467, 153.7521
436.7288, 144.4551
437.2109, 137.8283
437.6930, 135.5918
438.1751, 135.8442
438.6573, 137.0713
439.1394, 139.4857
439.6215, 139.7070
440.1036, 136.2755
440.5857, 131.5312
441.0678, 126.0333
441.5500, 120.3655
442.0321, 116.5324
442.5142, 116.8677
442.9963, 119.1370
443.4784, 118.7096
443.9605, 115.0930
444.4427, 112.7271
444.9248, 115.1108
445.4069, 119.4841
445.8890, 120.8761
446.3711, 118.1861
446.8532, 115.0488
447.3354, 113.5470
447.8175, 113.0357
448.2996, 111.9036
448.7817, 109.6619
449.2638, 107.6649
449.7459, 107.7309
450.2281, 110.0221
450.7102, 110.9568
451.1923, 109.1768
451.6744, 107.0964
452.1565, 105.8733
452.6386, 105.5921
453.1208, 106.3870
453.6029, 108.4447
454.0850, 111.2371
454.5671, 113.3135
455.0492, 115.4934
455.5313, 115.6590
456.0135, 112.3327
456.4956, 107.9689
456.9777, 103.8260
457.4598, 100.4909
457.9419, 98.83961
458.4240, 99.99373
458.9062, 104.0063
459.3883, 106.9480
459.8704, 108.0354
460.3525, 108.8660
460.8346, 110.6957
461.3167, 112.1325
461.7989, 110.6321
462.2810, 105.1492
462.7631, 99.10707
463.2452, 98.58114
463.7273, 104.8510
464.2094, 108.9864
464.6916, 108.2213
465.1737, 106.5319
465.6558, 106.1499
466.1379, 106.8606
466.6200, 107.4728
467.1021, 106.9273
467.5843, 106.0482
468.0664, 107.2522
468.5485, 111.1174
469.0306, 112.6473
469.5127, 107.0943
469.9948, 99.37748
470.4770, 97.65133
470.9591, 103.7555
471.4412, 109.9074
471.9233, 112.0460
472.4054, 111.6522
472.8875, 111.4472
473.3697, 111.9479
473.8518, 112.0068
474.3339, 110.3186
474.8160, 106.9143
475.2981, 104.6329
475.7802, 104.3314
476.2624, 104.2234
476.7445, 103.0854
477.2266, 101.6321
477.7087, 101.4822
478.1908, 103.2974
478.6729, 105.9137
479.1551, 107.2414
479.6372, 106.8327
480.1193, 106.0824
480.6014, 104.4846
481.0835, 103.0392
481.5656, 102.4906
482.0478, 102.5968
482.5299, 102.4623
483.0120, 101.3528
483.4941, 99.83946
483.9762, 100.4221
484.4583, 104.9331
484.9405, 107.7574
485.4226, 106.4710
485.9047, 104.1323
486.3868, 102.9102
486.8689, 103.1385
487.3510, 104.1057
487.8332, 105.5081
488.3153, 107.2103
488.7974, 108.4834
489.2795, 109.0329
489.7616, 109.8189
490.2437, 113.0149
490.7259, 116.4523
491.2080, 116.1734
491.6901, 109.5903
492.1722, 102.9305
492.6543, 101.2482
493.1364, 103.1055
493.6186, 104.0707
494.1007, 102.7379
494.5828, 101.5993
495.0649, 104.3289
495.5470, 111.5159
496.0291, 114.7671
496.5113, 110.3459
496.9934, 105.1620
497.4755, 103.2049
497.9576, 103.7409
498.4397, 104.7332
498.9218, 105.2678
499.4040, 105.1004
499.8861, 103.4789
500.3682, 98.13105
500.8503, 95.64932
501.3324, 97.71989
501.8145, 100.8515
502.2967, 103.7361
502.7788, 105.8196
503.2609, 106.2604
503.7430, 104.0480
504.2251, 100.2494
504.7072, 99.24877
505.1894, 102.3477
505.6715, 105.2748
506.1536, 107.9018
506.6357, 109.3118
507.1178, 107.8158
507.5999, 103.4576
508.0821, 99.80093
508.5642, 99.86813
509.0463, 102.6529
509.5284, 105.6781
510.0105, 109.2028
510.4926, 111.1188
510.9748, 109.2137
511.4569, 104.9418
511.9390, 101.7031
512.4211, 99.43581
512.9032, 98.69486
513.3853, 101.6720
513.8674, 105.8542
514.3495, 105.9770
514.8317, 100.8847
515.3138, 95.55505
515.7959, 95.32381
516.2780, 100.6704
516.7601, 103.9906
517.2422, 103.7607
517.7244, 103.5741
518.2065, 104.7485
518.6886, 106.6853
519.1707, 108.7981
519.6528, 110.7922
520.1349, 111.9492
520.6171, 111.1158
521.0992, 108.0412
521.5813, 103.9727
522.0634, 95.36398
522.5455, 89.40102
523.0276, 90.39589
523.5098, 95.68581
523.9919, 100.4007
524.4740, 102.6085
524.9561, 102.7865
525.4382, 100.3320
525.9203, 95.15810
526.4025, 93.83157
526.8846, 100.6719
527.3667, 108.0934
527.8488, 107.2674
528.3309, 99.67564
528.8130, 94.98759
529.2952, 99.15520
529.7773, 105.0258
530.2594, 105.7599
530.7415, 102.1552
531.2236, 98.25040
531.7057, 95.57104
532.1879, 94.30170
532.6700, 95.02961
533.1521, 99.42821
533.6342, 101.9816
534.1163, 101.5699
534.5984, 100.1514
535.0806, 98.25258
535.5627, 96.42751
536.0448, 95.62958
536.5269, 96.45604
537.0090, 98.68352
537.4911, 102.0795
537.9733, 108.8003
538.4554, 111.8886
538.9375, 107.6559
539.4196, 102.1144
539.9017, 98.09579
540.3839, 96.03575
540.8660, 95.97702
541.3481, 99.07764
541.8302, 103.5668
542.3123, 105.3066
542.7944, 104.0412
543.2766, 102.1580
543.7587, 99.74816
544.2408, 97.92399
544.7229, 98.89317
545.2050, 103.2015
545.6871, 105.4377
546.1693, 101.5680
546.6514, 96.05188
547.1335, 93.60992
547.6156, 94.38689
548.0977, 96.78099
548.5798, 100.2454
549.0620, 103.9501
549.5441, 105.0767
550.0262, 99.29320
550.5083, 96.72748
550.9904, 100.2452
551.4725, 104.8536
551.9547, 107.4655
552.4368, 107.6071
552.9189, 105.4882
553.4010, 100.7089
553.8831, 94.42457
554.3652, 91.51160
554.8474, 92.98100
555.3295, 95.30708
555.8116, 99.32109
556.2937, 102.6805
556.7758, 103.1796
557.2579, 100.8868
557.7401, 98.39165
558.2222, 96.40075
558.7043, 95.49477
559.1864, 97.90764
559.6685, 103.6955
560.1506, 106.8515
560.6328, 103.3080
561.1149, 96.43647
561.5970, 93.98927
562.0791, 97.54704
562.5612, 99.54758
563.0433, 97.04746
563.5255, 93.61801
564.0076, 92.62752
564.4897, 93.70481
564.9718, 93.89339
565.4539, 91.10250
565.9360, 86.70821
566.4182, 85.60684
566.9003, 90.64259
567.3824, 93.59251
567.8645, 92.22258
568.3466, 90.26854
568.8287, 90.01814
569.3109, 91.35506
569.7930, 93.00018
570.2751, 94.26637
570.7572, 95.23891
571.2393, 96.08453
571.7214, 96.80427
572.2036, 97.37487
572.6857, 97.84886
573.1678, 98.08421
573.6499, 97.77817
574.1320, 96.94872
574.6141, 96.39967
575.0963, 96.20842
575.5784, 96.50031
576.0605, 97.72750
576.5426, 99.57953
577.0247, 101.0465
577.5068, 101.6476
577.9890, 101.7583
578.4711, 102.1752
578.9532, 103.6396
579.4353, 103.4290
579.9174, 99.58369
580.3995, 96.23170
580.8817, 95.58324
581.3638, 96.87366
581.8459, 98.70335
582.3280, 100.5347
582.8101, 101.6366
583.2922, 100.2709
583.7744, 96.18480
584.2565, 93.45837
584.7386, 93.20796
585.2207, 93.56755
585.7029, 92.90459
586.1850, 91.78489
586.6671, 91.73945
587.1492, 93.64362
587.6313, 96.03645
588.1135, 98.14162
588.5956, 99.90083
589.0777, 100.7565
589.5598, 100.5171
