##NAMES=Kosnarite
##RRUFFID=R060250
##IDEAL CHEMISTRY=KZr^4+^_2_(P^5+^O_4_)_3_
##LOCALITY=Jenipapo District, Itinga, Minas Gerais, Brazil
##OWNER=RRUFF
##SOURCE=William W. Pinch
##DESCRIPTION=Tan to colorless fragment
##STATUS=The identification of this mineral has been confirmed by single-crystal X-ray diffraction.
##URL=rruff.info/R060250
90.49219, 27.71116
90.97430, 27.40628
91.45642, 27.29879
91.93854, 27.88786
92.42065, 28.52559
92.90277, 27.98916
93.38489, 25.96342
93.86700, 23.83256
94.34912, 23.49222
94.83124, 24.68791
95.31335, 25.97699
95.79547, 26.05635
96.27759, 25.37385
96.75970, 26.05708
97.24182, 28.97037
97.72394, 32.66953
98.20605, 33.85173
98.68817, 32.30372
99.17029, 29.95489
99.65240, 28.05220
100.1345, 26.58239
100.6166, 25.67650
101.0988, 25.24893
101.5809, 25.36928
102.0630, 26.95045
102.5451, 30.80977
103.0272, 34.70251
103.5093, 35.82757
103.9915, 32.92247
104.4736, 30.52009
104.9557, 30.16982
105.4378, 32.50181
105.9199, 33.27595
106.4020, 31.74833
106.8842, 29.03411
107.3663, 26.96092
107.8484, 25.20481
108.3305, 24.48739
108.8126, 24.98620
109.2947, 26.10920
109.7769, 29.45732
110.2590, 38.03569
110.7411, 49.39002
111.2232, 55.66408
111.7053, 53.26418
112.1874, 48.20639
112.6696, 43.19212
113.1517, 37.89852
113.6338, 33.28074
114.1159, 28.98992
114.5980, 25.23261
115.0801, 23.36837
115.5623, 25.70928
116.0444, 29.13884
116.5265, 31.23940
117.0086, 30.03691
117.4907, 28.60147
117.9728, 27.20272
118.4550, 25.80857
118.9371, 27.15161
119.4192, 36.09801
119.9013, 47.69713
120.3834, 55.49267
120.8655, 54.57296
121.3477, 50.36698
121.8298, 46.31868
122.3119, 42.64208
122.7940, 39.48259
123.2761, 36.77378
123.7582, 34.64429
124.2404, 33.38044
124.7225, 33.51257
125.2046, 34.46795
125.6867, 35.36877
126.1688, 35.78826
126.6509, 36.87179
127.1331, 40.61285
127.6152, 46.49682
128.0973, 51.96575
128.5794, 54.76804
129.0615, 55.84053
129.5436, 57.30505
130.0258, 59.39022
130.5079, 62.33249
130.9900, 66.70539
131.4721, 72.47066
131.9542, 79.18108
132.4363, 86.69772
132.9185, 94.93688
133.4006, 103.2309
133.8827, 110.9709
134.3648, 118.6428
134.8469, 128.5320
135.3290, 140.7192
135.8112, 154.8359
136.2933, 169.8329
136.7754, 185.6276
137.2575, 204.5723
137.7396, 229.0919
138.2217, 258.5471
138.7039, 284.1808
139.1860, 304.6728
139.6681, 323.4811
140.1502, 346.9947
140.6323, 376.5887
141.1144, 405.5356
141.5966, 431.2825
142.0787, 453.1682
142.5608, 473.8712
143.0429, 492.3985
143.5250, 510.2492
144.0071, 530.8455
144.4893, 554.8580
144.9714, 580.2465
145.4535, 605.8297
145.9356, 631.8168
146.4177, 658.0709
146.8998, 684.3915
147.3820, 711.0111
147.8641, 740.1853
148.3462, 773.1530
148.8283, 807.1382
149.3104, 841.0065
149.7925, 873.0519
150.2747, 906.9951
150.7568, 943.4346
151.2389, 982.1024
151.7210, 1019.800
152.2031, 1055.347
152.6852, 1090.257
153.1674, 1125.869
153.6495, 1162.743
154.1316, 1199.466
154.6137, 1236.835
155.0958, 1274.908
155.5779, 1309.589
156.0601, 1340.014
156.5422, 1367.109
157.0243, 1391.290
157.5064, 1409.756
157.9885, 1428.004
158.4706, 1447.830
158.9528, 1469.576
159.4349, 1490.657
159.9170, 1509.385
160.3991, 1527.401
160.8812, 1546.602
161.3633, 1568.495
161.8455, 1590.915
162.3276, 1612.829
162.8097, 1633.577
163.2918, 1655.184
163.7739, 1678.697
164.2560, 1701.535
164.7382, 1711.909
165.2203, 1717.661
165.7024, 1723.868
166.1845, 1731.810
166.6666, 1742.535
167.1487, 1752.172
167.6309, 1757.797
168.1130, 1760.906
168.5951, 1764.544
169.0772, 1769.893
169.5593, 1776.530
170.0414, 1784.045
170.5236, 1792.252
171.0057, 1801.554
171.4878, 1813.463
171.9699, 1827.089
172.4520, 1839.474
172.9341, 1849.544
173.4163, 1857.408
173.8984, 1862.830
174.3805, 1864.651
174.8626, 1865.876
175.3447, 1869.862
175.8268, 1876.029
176.3090, 1881.764
176.7911, 1885.816
177.2732, 1888.147
177.7553, 1888.469
178.2374, 1885.886
178.7195, 1882.170
179.2017, 1879.356
179.6838, 1877.372
180.1659, 1875.943
180.6480, 1874.353
181.1301, 1873.112
181.6122, 1873.651
182.0944, 1877.995
182.5765, 1883.140
183.0586, 1882.951
183.5407, 1877.503
184.0228, 1872.068
184.5049, 1872.900
184.9871, 1878.119
185.4692, 1880.736
185.9513, 1876.585
186.4334, 1869.160
186.9155, 1867.146
187.3976, 1870.876
187.8798, 1876.175
188.3619, 1878.691
188.8440, 1878.878
189.3261, 1879.518
189.8082, 1882.221
190.2903, 1886.096
190.7725, 1887.426
191.2546, 1885.789
191.7367, 1883.921
192.2188, 1885.847
192.7009, 1891.315
193.1830, 1895.209
193.6652, 1894.735
194.1473, 1890.746
194.6294, 1888.918
195.1115, 1889.690
195.5936, 1891.143
196.0757, 1890.017
196.5579, 1886.161
197.0400, 1884.067
197.5221, 1886.676
198.0042, 1893.530
198.4863, 1897.359
198.9684, 1897.557
199.4506, 1896.062
199.9327, 1895.189
200.4148, 1894.806
200.8969, 1896.059
201.3790, 1900.153
201.8611, 1907.207
202.3433, 1913.041
202.8254, 1917.938
203.3075, 1921.137
203.7896, 1920.129
204.2717, 1913.722
204.7538, 1908.976
205.2360, 1910.058
205.7181, 1917.954
206.2002, 1922.094
206.6823, 1921.516
207.1644, 1918.340
207.6465, 1916.480
208.1287, 1916.333
208.6108, 1916.219
209.0929, 1915.491
209.5750, 1914.143
210.0571, 1912.057
210.5392, 1908.417
211.0214, 1904.835
211.5035, 1905.266
211.9856, 1911.257
212.4677, 1917.073
212.9498, 1920.070
213.4319, 1919.649
213.9141, 1918.657
214.3962, 1916.285
214.8783, 1913.880
215.3604, 1915.300
215.8425, 1922.730
216.3246, 1929.009
216.8067, 1929.925
217.2889, 1922.633
217.7710, 1919.896
218.2531, 1923.524
218.7352, 1930.906
219.2173, 1935.995
219.6994, 1938.328
220.1816, 1939.203
220.6637, 1938.886
221.1458, 1936.507
221.6279, 1935.662
222.1100, 1937.418
222.5921, 1940.381
223.0743, 1940.521
223.5564, 1935.992
224.0385, 1931.996
224.5206, 1931.227
225.0027, 1935.078
225.4848, 1938.508
225.9670, 1941.481
226.4491, 1943.986
226.9312, 1945.925
227.4133, 1946.941
227.8954, 1947.946
228.3775, 1949.419
228.8597, 1951.862
229.3418, 1953.445
229.8239, 1953.847
230.3060, 1953.374
230.7881, 1952.580
231.2702, 1949.814
231.7524, 1949.096
232.2345, 1952.820
232.7166, 1964.388
233.1987, 1972.367
233.6808, 1975.440
234.1629, 1975.218
234.6451, 1976.228
235.1272, 1980.138
235.6093, 1982.875
236.0914, 1982.333
236.5735, 1976.384
237.0556, 1972.156
237.5378, 1969.735
238.0199, 1969.087
238.5020, 1970.346
238.9841, 1975.022
239.4662, 1979.475
239.9483, 1982.129
240.4305, 1982.279
240.9126, 1982.098
241.3947, 1980.896
241.8768, 1979.532
242.3589, 1980.249
242.8410, 1983.844
243.3232, 1988.190
243.8053, 1992.316
244.2874, 1995.763
244.7695, 2000.237
245.2516, 2006.868
245.7337, 2014.108
246.2159, 2018.250
246.6980, 2017.485
247.1801, 2016.504
247.6622, 2017.151
248.1443, 2020.010
248.6264, 2022.883
249.1086, 2025.387
249.5907, 2028.133
250.0728, 2032.570
250.5549, 2039.884
251.0370, 2046.887
251.5191, 2052.314
252.0013, 2055.633
252.4834, 2058.797
252.9655, 2061.317
253.4476, 2063.889
253.9297, 2067.958
254.4118, 2074.212
254.8940, 2080.543
255.3761, 2086.438
255.8582, 2092.227
256.3403, 2096.062
256.8224, 2096.844
257.3046, 2096.542
257.7867, 2098.362
258.2688, 2102.698
258.7509, 2108.458
259.2330, 2115.623
259.7151, 2124.663
260.1973, 2132.964
260.6794, 2140.829
261.1615, 2147.567
261.6436, 2151.824
262.1257, 2153.096
262.6078, 2153.157
263.0900, 2151.928
263.5721, 2149.021
264.0542, 2149.027
264.5363, 2154.092
265.0184, 2159.439
265.5005, 2158.548
265.9827, 2149.542
266.4648, 2139.598
266.9469, 2130.196
267.4290, 2121.318
267.9111, 2114.685
268.3932, 2111.105
268.8754, 2108.571
269.3575, 2104.495
269.8396, 2098.031
270.3217, 2093.140
270.8038, 2091.503
271.2859, 2092.852
271.7681, 2091.442
272.2502, 2086.127
272.7323, 2080.461
273.2144, 2078.039
273.6965, 2079.061
274.1786, 2082.232
274.6608, 2088.029
275.1429, 2095.930
275.6250, 2102.540
276.1071, 2108.017
276.5892, 2111.782
277.0714, 2111.975
277.5535, 2107.885
278.0356, 2107.028
278.5177, 2111.618
278.9998, 2120.302
279.4819, 2127.663
279.9641, 2133.711
280.4462, 2138.790
280.9283, 2142.564
281.4104, 2144.924
281.8925, 2148.961
282.3746, 2155.505
282.8568, 2163.759
283.3389, 2171.071
283.8210, 2177.158
284.3031, 2184.392
284.7852, 2195.758
285.2673, 2210.776
285.7495, 2222.589
286.2316, 2229.554
286.7137, 2233.963
287.1958, 2241.093
287.6779, 2251.030
288.1600, 2259.998
288.6422, 2265.599
289.1243, 2268.094
289.6064, 2269.414
290.0885, 2269.987
290.5706, 2268.901
291.0527, 2263.714
291.5349, 2254.717
292.0170, 2245.865
292.4991, 2240.369
292.9812, 2236.983
293.4633, 2231.147
293.9454, 2222.348
294.4276, 2212.247
294.9097, 2202.677
295.3918, 2193.627
295.8739, 2185.221
296.3560, 2177.882
296.8381, 2171.199
297.3203, 2164.290
297.8024, 2157.091
298.2845, 2150.163
298.7666, 2144.173
299.2487, 2138.993
299.7308, 2134.071
300.2130, 2128.992
300.6951, 2124.107
301.1772, 2119.910
301.6593, 2116.426
302.1414, 2113.623
302.6235, 2111.936
303.1057, 2110.944
303.5878, 2109.774
304.0699, 2107.417
304.5520, 2105.335
305.0341, 2106.125
305.5162, 2109.383
305.9984, 2111.640
306.4805, 2107.824
306.9626, 2102.097
307.4447, 2100.708
307.9268, 2107.925
308.4089, 2116.454
308.8911, 2119.446
309.3732, 2118.008
309.8553, 2116.763
310.3374, 2118.554
310.8195, 2121.796
311.3016, 2124.930
311.7838, 2127.554
312.2659, 2130.184
312.7480, 2132.598
313.2301, 2135.220
313.7122, 2139.110
314.1943, 2147.775
314.6765, 2156.042
315.1586, 2159.597
315.6407, 2156.456
316.1228, 2153.548
316.6049, 2154.414
317.0870, 2157.655
317.5692, 2160.935
318.0513, 2165.566
318.5334, 2168.280
319.0155, 2166.458
319.4976, 2159.086
319.9797, 2152.863
320.4619, 2150.679
320.9440, 2150.488
321.4261, 2150.020
321.9082, 2148.902
322.3903, 2147.213
322.8724, 2144.744
323.3546, 2141.486
323.8367, 2138.471
324.3188, 2137.507
324.8009, 2136.026
325.2830, 2132.099
325.7651, 2119.124
326.2473, 2110.823
326.7294, 2111.907
327.2115, 2120.979
327.6936, 2126.698
328.1757, 2125.907
328.6578, 2123.447
329.1400, 2121.697
329.6221, 2121.680
330.1042, 2120.978
330.5863, 2118.821
331.0684, 2115.910
331.5505, 2114.377
332.0327, 2114.731
332.5148, 2115.769
332.9969, 2117.098
333.4790, 2118.797
333.9611, 2120.457
334.4432, 2122.455
334.9254, 2124.171
335.4075, 2124.102
335.8896, 2120.379
336.3717, 2118.765
336.8538, 2122.156
337.3359, 2131.454
337.8180, 2136.009
338.3001, 2134.219
338.7823, 2130.193
339.2644, 2128.802
339.7465, 2130.799
340.2286, 2132.093
340.7107, 2131.449
341.1928, 2129.208
341.6750, 2127.691
342.1571, 2126.777
342.6392, 2126.859
343.1213, 2128.841
343.6034, 2132.730
344.0855, 2135.570
344.5677, 2136.775
345.0498, 2136.685
345.5319, 2135.524
346.0140, 2133.224
346.4961, 2131.775
346.9782, 2133.443
347.4604, 2137.404
347.9425, 2139.170
348.4246, 2137.871
348.9067, 2135.831
349.3888, 2137.236
349.8709, 2141.359
350.3531, 2144.041
350.8352, 2141.363
351.3173, 2136.256
351.7994, 2134.677
352.2815, 2137.037
352.7636, 2140.538
353.2458, 2143.074
353.7279, 2144.729
354.2100, 2145.666
354.6921, 2145.114
355.1742, 2144.402
355.6563, 2145.272
356.1385, 2147.548
356.6206, 2149.533
357.1027, 2149.010
357.5848, 2147.912
358.0669, 2148.817
358.5490, 2154.429
359.0312, 2159.135
359.5133, 2157.326
359.9954, 2151.287
360.4775, 2148.109
360.9596, 2154.270
361.4417, 2162.428
361.9239, 2167.649
362.4060, 2168.623
362.8881, 2168.206
363.3702, 2166.236
363.8523, 2163.772
364.3344, 2162.444
364.8166, 2163.673
365.2987, 2165.275
365.7808, 2166.576
366.2629, 2167.584
366.7450, 2168.094
367.2271, 2168.187
367.7093, 2167.759
368.1914, 2166.722
368.6735, 2162.994
369.1556, 2161.020
369.6377, 2163.206
370.1198, 2168.750
370.6020, 2170.117
371.0841, 2162.770
371.5662, 2155.456
372.0483, 2153.217
372.5304, 2160.359
373.0125, 2164.282
373.4947, 2163.219
373.9768, 2159.293
374.4589, 2157.620
374.9410, 2159.320
375.4231, 2160.919
375.9052, 2160.436
376.3874, 2157.156
376.8695, 2158.171
377.3516, 2165.223
377.8337, 2173.677
378.3158, 2177.515
378.7979, 2176.133
379.2801, 2174.842
379.7622, 2175.504
380.2443, 2177.351
380.7264, 2176.022
381.2085, 2170.939
381.6906, 2166.772
382.1728, 2169.093
382.6549, 2176.613
383.1370, 2180.589
383.6191, 2178.491
384.1012, 2174.133
384.5833, 2173.863
385.0655, 2177.312
385.5476, 2181.553
386.0297, 2186.128
386.5118, 2190.100
386.9939, 2191.458
387.4760, 2189.783
387.9582, 2187.257
388.4403, 2184.897
388.9224, 2183.224
389.4045, 2183.295
389.8866, 2188.333
390.3687, 2193.368
390.8509, 2192.809
391.3330, 2187.206
391.8151, 2182.957
392.2972, 2185.530
392.7793, 2190.528
393.2614, 2193.731
393.7436, 2193.341
394.2257, 2191.944
394.7078, 2189.031
395.1899, 2185.782
395.6720, 2185.292
396.1541, 2191.956
396.6363, 2198.911
397.1184, 2202.592
397.6005, 2201.351
398.0826, 2200.934
398.5647, 2202.865
399.0468, 2205.866
399.5290, 2208.381
400.0111, 2210.943
400.4932, 2212.288
400.9753, 2210.952
401.4574, 2206.956
401.9395, 2207.025
402.4217, 2214.400
402.9038, 2222.386
403.3859, 2226.146
403.8680, 2222.948
404.3501, 2222.178
404.8322, 2225.583
405.3144, 2231.253
405.7965, 2233.664
406.2786, 2231.784
406.7607, 2230.123
407.2428, 2231.016
407.7249, 2234.573
408.2071, 2237.179
408.6892, 2238.788
409.1713, 2239.616
409.6534, 2239.128
410.1355, 2237.482
410.6176, 2237.904
411.0998, 2242.469
411.5819, 2248.992
412.0640, 2251.743
412.5461, 2250.834
413.0282, 2249.683
413.5103, 2250.938
413.9925, 2253.824
414.4746, 2256.928
414.9567, 2260.207
415.4388, 2263.105
415.9209, 2264.428
416.4030, 2264.885
416.8852, 2266.281
417.3673, 2269.750
417.8494, 2274.364
418.3315, 2279.728
418.8136, 2285.776
419.2957, 2291.589
419.7779, 2296.664
420.2600, 2301.198
420.7421, 2305.305
421.2242, 2308.751
421.7063, 2312.139
422.1884, 2316.849
422.6706, 2322.000
423.1527, 2324.415
423.6348, 2320.860
424.1169, 2316.419
424.5990, 2313.385
425.0811, 2312.582
425.5633, 2311.796
426.0454, 2310.830
426.5275, 2309.903
427.0096, 2309.144
427.4917, 2307.258
427.9738, 2307.583
428.4560, 2311.235
428.9381, 2318.099
429.4202, 2324.767
429.9023, 2330.687
430.3844, 2337.223
430.8665, 2345.311
431.3487, 2355.066
431.8308, 2365.865
432.3129, 2378.261
432.7950, 2390.813
433.2771, 2399.748
433.7592, 2404.824
434.2414, 2410.029
434.7235, 2418.384
435.2056, 2428.490
435.6877, 2434.455
436.1698, 2436.091
436.6519, 2435.614
437.1341, 2435.148
437.6162, 2434.271
438.0983, 2432.052
438.5804, 2428.898
439.0625, 2423.376
439.5446, 2412.594
440.0268, 2397.686
440.5089, 2382.742
440.9910, 2369.507
441.4731, 2357.732
441.9552, 2347.418
442.4373, 2339.004
442.9195, 2330.201
443.4016, 2318.208
443.8837, 2305.729
444.3658, 2296.051
444.8479, 2292.276
445.3300, 2289.308
445.8122, 2285.636
446.2943, 2281.336
446.7764, 2277.159
447.2585, 2272.824
447.7406, 2268.925
448.2227, 2265.754
448.7049, 2263.460
449.1870, 2261.652
449.6691, 2260.607
450.1512, 2259.916
450.6333, 2258.852
451.1154, 2256.884
451.5976, 2255.699
452.0797, 2256.086
452.5618, 2257.871
453.0439, 2258.577
453.5260, 2258.135
454.0081, 2256.794
454.4903, 2254.233
454.9724, 2250.503
455.4545, 2247.895
455.9366, 2246.849
456.4187, 2246.747
456.9008, 2246.521
457.3830, 2246.249
457.8651, 2246.530
458.3472, 2247.885
458.8293, 2249.909
459.3114, 2252.059
459.7935, 2254.311
460.2757, 2256.374
460.7578, 2258.377
461.2399, 2259.914
461.7220, 2260.200
462.2041, 2258.006
462.6862, 2256.264
463.1684, 2257.792
463.6505, 2261.240
464.1326, 2263.460
464.6147, 2260.906
465.0968, 2258.664
465.5789, 2260.272
466.0611, 2266.752
466.5432, 2270.660
467.0253, 2267.439
467.5074, 2262.621
467.9895, 2260.863
468.4716, 2267.564
468.9538, 2270.595
469.4359, 2266.834
469.9180, 2258.952
470.4001, 2255.712
470.8822, 2259.346
471.3643, 2263.823
471.8465, 2267.052
472.3286, 2269.073
472.8107, 2269.737
473.2928, 2269.009
473.7749, 2267.135
474.2570, 2263.564
474.7392, 2258.337
475.2213, 2255.220
475.7034, 2255.540
476.1855, 2257.815
476.6676, 2258.940
477.1497, 2259.058
477.6319, 2259.539
478.1140, 2261.613
478.5961, 2264.426
479.0782, 2266.588
479.5603, 2267.975
480.0424, 2268.918
480.5246, 2269.661
481.0067, 2270.120
481.4888, 2270.163
481.9709, 2269.209
482.4530, 2268.436
482.9352, 2268.015
483.4173, 2268.177
483.8994, 2269.663
484.3815, 2275.441
484.8636, 2280.368
485.3457, 2281.416
485.8279, 2276.993
486.3100, 2274.003
486.7921, 2273.488
487.2742, 2274.415
487.7563, 2276.076
488.2384, 2279.820
488.7206, 2281.876
489.2027, 2280.935
489.6848, 2278.164
490.1669, 2278.164
490.6490, 2282.062
491.1311, 2285.367
491.6133, 2285.574
492.0954, 2282.760
492.5775, 2280.668
493.0596, 2279.449
493.5417, 2278.427
494.0238, 2276.688
494.5060, 2274.442
494.9881, 2272.642
495.4702, 2271.457
495.9523, 2270.955
496.4344, 2271.522
496.9165, 2272.949
497.3987, 2274.455
497.8808, 2275.456
498.3629, 2276.412
498.8450, 2278.054
499.3271, 2280.491
499.8092, 2282.159
500.2914, 2281.251
500.7735, 2279.627
501.2556, 2279.034
501.7377, 2280.501
502.2198, 2282.284
502.7019, 2284.432
503.1841, 2286.640
503.6662, 2288.128
504.1483, 2288.728
504.6304, 2288.726
505.1125, 2287.968
505.5946, 2286.349
506.0768, 2285.581
506.5589, 2286.144
507.0410, 2286.909
507.5231, 2286.824
508.0052, 2285.692
508.4873, 2285.201
508.9695, 2285.703
509.4516, 2286.707
509.9337, 2287.277
510.4158, 2287.433
510.8979, 2287.648
511.3800, 2288.396
511.8622, 2289.234
512.3443, 2288.714
512.8264, 2286.926
513.3085, 2285.764
513.7906, 2287.568
514.2728, 2290.510
514.7549, 2292.164
515.2370, 2291.843
515.7191, 2290.893
516.2012, 2289.504
516.6833, 2288.189
517.1655, 2287.710
517.6476, 2289.926
518.1297, 2291.453
518.6118, 2289.984
519.0939, 2285.984
519.5760, 2284.723
520.0582, 2290.357
520.5403, 2295.849
521.0224, 2298.020
521.5045, 2295.502
521.9866, 2293.626
522.4688, 2292.384
522.9509, 2291.755
523.4330, 2291.676
523.9151, 2292.113
524.3972, 2293.375
524.8793, 2295.994
525.3615, 2299.056
525.8436, 2299.662
526.3257, 2297.855
526.8078, 2296.553
527.2899, 2298.572
527.7720, 2302.146
528.2542, 2302.401
528.7363, 2299.015
529.2184, 2296.497
529.7005, 2300.291
530.1826, 2306.801
530.6647, 2310.999
531.1469, 2310.177
531.6290, 2308.906
532.1111, 2310.513
532.5932, 2313.419
533.0753, 2314.400
533.5574, 2310.102
534.0396, 2306.036
534.5217, 2304.474
535.0038, 2305.681
535.4859, 2305.748
535.9680, 2303.633
536.4501, 2301.248
536.9323, 2299.531
537.4144, 2298.173
537.8965, 2298.616
538.3786, 2301.835
538.8607, 2305.599
539.3428, 2306.054
539.8250, 2302.933
540.3071, 2300.427
540.7892, 2299.948
541.2713, 2300.732
541.7534, 2301.011
542.2355, 2300.836
542.7177, 2300.639
543.1998, 2300.890
543.6819, 2301.230
544.1640, 2300.947
544.6461, 2299.955
545.1282, 2299.119
545.6104, 2298.903
546.0925, 2299.230
546.5746, 2300.086
547.0567, 2302.390
547.5388, 2303.898
548.0209, 2302.742
548.5031, 2300.282
548.9852, 2299.499
549.4673, 2303.024
549.9494, 2305.942
550.4315, 2306.694
550.9136, 2305.296
551.3958, 2304.960
551.8779, 2306.191
552.3600, 2307.655
552.8421, 2308.858
553.3242, 2309.962
553.8063, 2308.694
554.2885, 2304.132
554.7706, 2299.473
555.2527, 2300.061
555.7348, 2304.948
556.2169, 2307.960
556.6990, 2306.093
557.1812, 2302.909
557.6633, 2303.894
558.1454, 2308.096
558.6275, 2311.958
559.1096, 2313.034
559.5917, 2313.196
560.0739, 2313.965
560.5560, 2315.471
561.0381, 2316.776
561.5202, 2317.661
562.0023, 2318.094
562.4844, 2318.032
562.9666, 2317.264
563.4487, 2316.260
563.9308, 2314.644
564.4129, 2312.965
564.8950, 2312.078
565.3771, 2312.100
565.8593, 2312.677
566.3414, 2314.052
566.8235, 2315.854
567.3056, 2316.254
567.7877, 2315.026
568.2698, 2313.897
568.7520, 2313.796
569.2341, 2314.619
569.7162, 2316.422
570.1983, 2319.298
570.6804, 2321.567
571.1625, 2321.034
571.6447, 2318.999
572.1268, 2317.683
572.6089, 2318.173
573.0910, 2318.317
573.5731, 2315.814
574.0552, 2312.189
574.5374, 2310.040
575.0195, 2311.207
575.5016, 2313.048
575.9837, 2314.928
576.4658, 2316.815
576.9479, 2318.698
577.4301, 2321.887
577.9122, 2323.516
578.3943, 2321.638
578.8764, 2315.076
579.3585, 2311.895
579.8406, 2312.733
580.3228, 2315.511
580.8049, 2318.515
581.2870, 2321.680
581.7691, 2324.231
582.2512, 2325.779
582.7333, 2327.133
583.2155, 2330.278
583.6976, 2334.330
584.1797, 2336.709
584.6617, 2333.991
585.1439, 2330.593
585.6260, 2330.663
586.1081, 2333.695
586.5902, 2337.155
587.0723, 2341.562
587.5544, 2344.707
588.0366, 2344.792
588.5187, 2340.603
