##NAMES=Kotoite
##RRUFFID=R060940
##IDEAL CHEMISTRY=Mg_3_(BO_3_)_2_
##LOCALITY=Hol Kol mine, Samdung, near Pyongyang, Suan County, North Korea
##OWNER=RRUFF
##SOURCE=Michael Scott
##DESCRIPTION=Aggregate of pale green micro grains
##STATUS=The identification of this mineral is confirmed by single-crystal X-ray diffraction and chemical analysis.
##URL=rruff.info/R060940
##MEASURED CHEMISTRY=(Mg_2.98_Fe_0.02_)_Î£=3_(BO_3_)_2_ ; trace amounts of Mn; B_2_O_3_ estimated by difference
154.3069, 148.5589
154.7890, 148.7687
155.2712, 147.8838
155.7533, 145.6696
156.2354, 142.3902
156.7175, 140.2745
157.1996, 141.4713
157.6817, 143.1364
158.1639, 143.0488
158.6460, 136.9831
159.1281, 132.5018
159.6102, 133.0418
160.0923, 138.9146
160.5744, 143.8152
161.0566, 144.8136
161.5387, 143.9171
162.0208, 143.4003
162.5029, 146.1386
162.9850, 147.8179
163.4671, 144.9701
163.9493, 136.2314
164.4314, 129.6772
164.9135, 131.7529
165.3956, 138.3410
165.8777, 142.6537
166.3598, 138.6850
166.8420, 133.1731
167.3241, 131.6820
167.8062, 136.5184
168.2883, 140.8635
168.7704, 139.1434
169.2525, 133.3196
169.7346, 128.3588
170.2168, 126.5516
170.6989, 127.1835
171.1810, 130.1500
171.6631, 137.2413
172.1452, 143.5287
172.6273, 143.5194
173.1095, 138.4368
173.5916, 133.7695
174.0737, 133.6505
174.5558, 136.1228
175.0379, 138.3723
175.5201, 140.2747
176.0022, 141.0386
176.4843, 138.6791
176.9664, 133.5224
177.4485, 128.9865
177.9306, 128.8969
178.4128, 131.4790
178.8949, 132.6907
179.3770, 128.7596
179.8591, 123.9260
180.3412, 127.2234
180.8233, 138.9426
181.3055, 149.6574
181.7876, 147.8011
182.2697, 136.7615
182.7518, 128.2579
183.2339, 129.3931
183.7160, 136.2683
184.1982, 139.3132
184.6803, 138.2064
185.1624, 135.2275
185.6445, 132.2219
186.1266, 129.3425
186.6087, 127.4052
187.0908, 127.1146
187.5730, 128.1574
188.0551, 129.4319
188.5372, 131.0108
189.0193, 132.5525
189.5014, 133.6948
189.9835, 134.4431
190.4657, 134.6724
190.9478, 134.1189
191.4299, 132.8844
191.9120, 131.6975
192.3941, 130.5226
192.8762, 129.5665
193.3584, 128.8607
193.8405, 128.3385
194.3226, 129.1756
194.8047, 133.1488
195.2868, 140.0862
195.7689, 144.8864
196.2511, 146.9348
196.7332, 146.7571
197.2153, 145.8768
197.6974, 144.4590
198.1795, 141.3625
198.6616, 133.0576
199.1438, 118.7196
199.6259, 113.9446
200.1080, 124.1798
200.5901, 144.0908
201.0722, 154.0299
201.5543, 152.7023
202.0364, 146.4422
202.5186, 138.0343
203.0007, 126.4123
203.4828, 121.0860
203.9649, 125.4202
204.4470, 137.5275
204.9291, 147.3247
205.4113, 155.6688
205.8934, 159.7197
206.3755, 154.3949
206.8576, 136.4682
207.3397, 124.6816
207.8218, 125.1588
208.3040, 136.5342
208.7861, 141.0983
209.2682, 137.1130
209.7503, 129.4190
210.2324, 122.2151
210.7145, 115.0281
211.1967, 110.1838
211.6788, 108.2006
212.1609, 109.0791
212.6430, 113.2346
213.1251, 122.7638
213.6072, 132.6360
214.0894, 136.9261
214.5715, 134.2293
215.0536, 129.6035
215.5357, 123.7215
216.0178, 116.2612
216.4999, 110.9024
216.9820, 107.7990
217.4642, 106.6977
217.9463, 108.0107
218.4284, 113.8449
218.9105, 117.1475
219.3926, 114.5994
219.8747, 104.5416
220.3569, 99.12334
220.8390, 99.81223
221.3211, 103.9829
221.8032, 108.2398
222.2853, 113.8130
222.7674, 116.8746
223.2496, 114.9287
223.7317, 105.4518
224.2138, 102.2544
224.6959, 109.4106
225.1780, 120.2497
225.6601, 122.2862
226.1423, 109.6862
226.6244, 98.62992
227.1065, 96.06254
227.5886, 106.2254
228.0707, 110.8185
228.5528, 107.6318
229.0350, 99.89709
229.5171, 93.89388
229.9992, 88.87267
230.4813, 86.63315
230.9634, 88.53697
231.4455, 97.30106
231.9276, 102.9342
232.4098, 104.3414
232.8919, 102.9987
233.3740, 102.4966
233.8561, 104.2403
234.3382, 104.6637
234.8203, 101.7468
235.3025, 92.62399
235.7846, 87.13061
236.2667, 86.94677
236.7488, 89.96624
237.2309, 90.47799
237.7130, 86.31878
238.1952, 82.80943
238.6773, 82.24897
239.1594, 85.34556
239.6415, 90.22913
240.1236, 99.63943
240.6057, 110.4063
241.0879, 112.3666
241.5700, 98.05233
242.0521, 85.58451
242.5342, 84.33795
243.0163, 102.6791
243.4984, 113.9645
243.9806, 115.5746
244.4627, 110.1172
244.9448, 105.2288
245.4269, 100.2164
245.9090, 96.74155
246.3911, 95.64624
246.8732, 97.55700
247.3554, 100.7276
247.8375, 106.6827
248.3196, 113.6867
248.8017, 115.8636
249.2838, 111.0531
249.7659, 104.5601
250.2481, 98.25680
250.7302, 90.02960
251.2123, 87.31335
251.6944, 93.09731
252.1765, 104.1858
252.6586, 110.0713
253.1408, 108.2860
253.6229, 105.1072
254.1050, 104.1959
254.5871, 108.1174
255.0692, 107.4336
255.5513, 99.01581
256.0334, 86.25125
256.5156, 80.26657
256.9977, 84.03610
257.4798, 89.74503
257.9619, 93.20497
258.4440, 93.14966
258.9261, 94.59942
259.4083, 98.84776
259.8904, 104.5154
260.3725, 106.5872
260.8546, 103.0181
261.3367, 99.60654
261.8188, 99.87120
262.3010, 105.5818
262.7831, 109.5425
263.2652, 111.6240
263.7473, 111.7131
264.2294, 109.3047
264.7115, 103.8532
265.1937, 97.08626
265.6758, 88.58260
266.1579, 76.22163
266.6400, 71.60282
267.1221, 78.30190
267.6042, 91.52404
268.0864, 97.64920
268.5685, 94.44637
269.0506, 89.90869
269.5327, 88.29907
270.0148, 90.28076
270.4969, 91.97060
270.9791, 93.27784
271.4612, 94.15835
271.9433, 94.54346
272.4254, 94.53251
272.9075, 93.72189
273.3896, 90.98495
273.8718, 85.62524
274.3539, 84.31612
274.8360, 88.92011
275.3181, 96.07093
275.8002, 97.94398
276.2823, 93.48662
276.7645, 88.42907
277.2466, 85.21386
277.7287, 83.87740
278.2108, 84.72016
278.6929, 88.63451
279.1750, 93.46083
279.6572, 94.34302
280.1393, 90.63677
280.6214, 87.60901
281.1035, 88.88928
281.5856, 94.42590
282.0677, 96.96058
282.5499, 95.89026
283.0320, 92.55126
283.5141, 88.33301
283.9962, 83.09820
284.4783, 79.32278
284.9604, 78.80956
285.4425, 81.27166
285.9247, 83.31315
286.4068, 84.97847
286.8889, 85.87466
287.3710, 83.87032
287.8531, 79.15017
288.3352, 77.58971
288.8174, 85.02962
289.2995, 98.96339
289.7816, 105.3145
290.2637, 102.8463
290.7458, 96.99224
291.2279, 93.87290
291.7101, 93.30028
292.1922, 93.78201
292.6743, 95.28543
293.1564, 97.37492
293.6385, 98.61161
294.1206, 98.91221
294.6028, 98.84733
295.0849, 100.6040
295.5670, 103.0957
296.0491, 101.6097
296.5312, 88.78162
297.0133, 71.98940
297.4955, 69.18150
297.9776, 81.06879
298.4597, 94.59812
298.9418, 95.52892
299.4239, 87.92013
299.9060, 82.53501
300.3882, 85.61252
300.8703, 92.14524
301.3524, 93.99381
301.8345, 91.25915
302.3166, 88.66763
302.7987, 90.38913
303.2809, 94.96992
303.7630, 99.94556
304.2451, 106.9379
304.7272, 111.9099
305.2093, 107.9864
305.6914, 96.04053
306.1736, 85.39601
306.6557, 84.10458
307.1378, 87.55142
307.6199, 89.24876
308.1020, 85.84727
308.5841, 81.78119
309.0663, 80.98882
309.5484, 82.93288
310.0305, 84.90496
310.5126, 84.75707
310.9947, 84.09158
311.4768, 84.56855
311.9590, 87.08257
312.4411, 90.05888
312.9232, 92.98945
313.4053, 95.70137
313.8874, 97.56658
314.3695, 98.59723
314.8517, 98.54036
315.3337, 96.93987
315.8159, 92.67076
316.2980, 88.97967
316.7801, 87.22105
317.2622, 87.04987
317.7443, 87.63222
318.2264, 90.39764
318.7086, 92.56448
319.1907, 92.13370
319.6728, 87.31583
320.1549, 83.93999
320.6370, 85.35921
321.1191, 89.05702
321.6013, 90.77401
322.0834, 85.23643
322.5655, 81.15292
323.0476, 83.22614
323.5297, 94.72102
324.0118, 101.5611
324.4940, 97.22910
324.9761, 88.45441
325.4582, 83.74036
325.9403, 87.72274
326.4224, 92.25780
326.9045, 95.89906
327.3867, 98.81792
327.8688, 99.59463
328.3509, 96.25249
328.8330, 91.71120
329.3151, 88.63245
329.7972, 88.08487
330.2794, 87.69775
330.7615, 87.38445
331.2436, 87.15795
331.7257, 85.75977
332.2078, 81.58293
332.6899, 77.72253
333.1721, 76.57639
333.6542, 78.94591
334.1363, 82.67329
334.6184, 88.66180
335.1005, 96.09020
335.5826, 100.0756
336.0648, 100.0310
336.5469, 97.50506
337.0290, 92.62318
337.5111, 83.78059
337.9932, 78.38853
338.4753, 77.89776
338.9575, 80.76984
339.4396, 82.57367
339.9217, 82.83466
340.4038, 83.66679
340.8859, 86.66544
341.3680, 92.01131
341.8502, 96.72233
342.3323, 101.0224
342.8144, 103.8838
343.2965, 102.5007
343.7786, 96.61944
344.2607, 90.89935
344.7429, 87.20197
345.2250, 85.46256
345.7071, 85.30835
346.1892, 86.97856
346.6713, 89.28011
347.1534, 90.90645
347.6355, 91.90405
348.1176, 92.64790
348.5998, 93.15387
349.0819, 93.53938
349.5640, 94.24441
350.0461, 95.30331
350.5282, 96.07817
351.0103, 95.60701
351.4925, 94.38557
351.9746, 93.56201
352.4567, 93.15120
352.9388, 93.64275
353.4209, 96.48669
353.9030, 101.3360
354.3852, 105.4747
354.8673, 107.8345
355.3494, 108.0832
355.8315, 105.2496
356.3136, 96.90125
356.7957, 89.03197
357.2779, 86.36565
357.7600, 88.13676
358.2421, 91.87238
358.7242, 100.5555
359.2063, 108.1665
359.6884, 108.8066
360.1706, 98.63418
360.6527, 89.64948
361.1348, 90.15516
361.6169, 95.47866
362.0990, 97.12096
362.5811, 87.16817
363.0633, 77.02312
363.5454, 72.01746
364.0275, 73.26443
364.5096, 76.10516
364.9917, 81.16669
365.4738, 86.60151
365.9560, 90.36411
366.4381, 89.53332
366.9202, 89.55909
367.4023, 93.51792
367.8844, 101.8636
368.3665, 104.4248
368.8487, 94.47559
369.3308, 82.40863
369.8129, 75.49469
370.2950, 77.55214
370.7771, 79.28647
371.2592, 79.88526
371.7414, 79.52893
372.2235, 79.10496
372.7056, 78.17865
373.1877, 77.76723
373.6698, 78.87589
374.1519, 82.99887
374.6341, 83.77296
375.1162, 78.96066
375.5983, 72.14459
376.0804, 71.95200
376.5625, 80.32159
377.0446, 88.71046
377.5267, 92.69122
378.0089, 92.03056
378.4910, 95.71600
378.9731, 105.8178
379.4552, 114.8650
379.9373, 109.9608
380.4194, 91.15549
380.9016, 76.84586
381.3837, 74.51638
381.8658, 80.82453
382.3479, 84.73139
382.8300, 86.13765
383.3121, 86.94284
383.7943, 88.73196
384.2764, 91.28632
384.7585, 94.14067
385.2406, 97.71319
385.7227, 100.7813
386.2048, 101.2654
386.6870, 99.46241
387.1691, 96.82891
387.6512, 93.52579
388.1333, 90.26723
388.6154, 88.39037
389.0975, 88.81200
389.5797, 88.40991
390.0618, 82.12730
390.5439, 73.22980
391.0260, 68.43114
391.5081, 75.59123
391.9902, 84.40199
392.4724, 87.86600
392.9545, 84.99540
393.4366, 81.28212
393.9187, 77.94141
394.4008, 75.49991
394.8829, 74.43179
395.3651, 74.33407
395.8472, 76.19609
396.3293, 82.30760
396.8114, 92.03777
397.2935, 97.83671
397.7756, 96.86480
398.2578, 92.62243
398.7399, 87.14355
399.2220, 75.73093
399.7041, 69.15530
400.1862, 69.55872
400.6683, 74.80199
401.1505, 79.52232
401.6326, 85.76067
402.1147, 88.70597
402.5968, 85.16562
403.0789, 71.87943
403.5610, 66.37116
404.0432, 72.14870
404.5253, 81.95218
405.0074, 85.29311
405.4895, 79.97707
405.9716, 76.42666
406.4537, 78.60480
406.9359, 85.27196
407.4180, 86.19327
407.9001, 79.98080
408.3822, 73.89113
408.8643, 75.41797
409.3464, 83.89810
409.8285, 90.70969
410.3106, 94.27195
410.7928, 95.31745
411.2749, 94.63453
411.7570, 92.34405
412.2391, 89.76042
412.7212, 87.58600
413.2033, 85.67836
413.6855, 83.81318
414.1676, 81.99584
414.6497, 80.10223
415.1318, 76.55288
415.6139, 72.86359
416.0960, 72.25590
416.5782, 80.02266
417.0603, 88.77464
417.5424, 91.71946
418.0245, 88.97823
418.5066, 85.87462
418.9887, 85.46770
419.4709, 85.94904
419.9530, 85.62083
420.4351, 83.43957
420.9172, 81.11628
421.3993, 77.15636
421.8814, 73.12546
422.3636, 74.07492
422.8457, 89.66596
423.3278, 103.5794
423.8099, 107.5979
424.2920, 95.51919
424.7741, 87.07774
425.2563, 84.69823
425.7384, 85.78757
426.2205, 87.03387
426.7026, 88.51681
427.1847, 90.10423
427.6668, 92.29621
428.1490, 95.06748
428.6311, 94.82592
429.1132, 89.86597
429.5953, 84.64576
430.0774, 83.45100
430.5595, 87.33283
431.0417, 88.51858
431.5238, 84.74226
432.0059, 78.96464
432.4880, 79.24347
432.9701, 86.00182
433.4522, 92.84942
433.9344, 97.02578
434.4165, 98.50008
434.8986, 97.09863
435.3807, 92.59515
435.8628, 86.46576
436.3449, 77.76483
436.8271, 68.37354
437.3092, 64.36578
437.7913, 72.74525
438.2734, 84.33781
438.7555, 86.78925
439.2376, 81.17206
439.7197, 75.96008
440.2018, 76.92799
440.6840, 81.14548
441.1661, 86.11932
441.6482, 92.87825
442.1303, 96.89252
442.6124, 92.33166
443.0945, 83.43862
443.5767, 78.99181
444.0588, 87.52364
444.5409, 96.21061
445.0230, 99.17892
445.5051, 95.06934
445.9872, 91.03179
446.4694, 87.75992
446.9515, 85.23644
447.4336, 83.43605
447.9157, 81.21697
448.3978, 81.33905
448.8799, 85.88470
449.3621, 93.42532
449.8442, 96.09057
450.3263, 90.95493
450.8084, 85.94130
451.2905, 85.86298
451.7726, 92.50663
452.2548, 95.45487
452.7369, 94.21933
453.2190, 89.89478
453.7011, 81.75556
454.1832, 69.34139
454.6653, 63.14841
455.1475, 69.98298
455.6296, 84.87063
456.1117, 90.94052
456.5938, 87.99416
457.0759, 83.24100
457.5580, 81.82273
458.0402, 83.22667
458.5223, 86.67467
459.0044, 92.86362
459.4865, 99.09362
459.9686, 104.0149
460.4507, 106.9249
460.9329, 106.0887
461.4150, 95.38601
461.8971, 84.21814
462.3792, 80.80748
462.8613, 86.24227
463.3434, 90.83459
463.8256, 88.67791
464.3077, 84.18279
464.7898, 81.48477
465.2719, 82.23234
465.7540, 84.23231
466.2361, 88.13015
466.7183, 93.26276
467.2004, 96.56825
467.6825, 98.75652
468.1646, 98.19436
468.6467, 93.43770
469.1288, 81.89124
469.6110, 74.05859
470.0930, 70.28376
470.5752, 69.80667
471.0573, 72.53302
471.5394, 79.94859
472.0215, 85.29504
472.5036, 86.62574
472.9857, 84.68392
473.4679, 81.68158
473.9500, 77.08857
474.4321, 75.60006
474.9142, 83.46583
475.3963, 98.26001
475.8784, 107.9229
476.3606, 110.7756
476.8427, 109.6181
477.3248, 107.6629
477.8069, 104.5846
478.2890, 99.41943
478.7711, 86.32284
479.2533, 74.22208
479.7354, 75.59073
480.2175, 89.30607
480.6996, 100.5083
481.1817, 97.91744
481.6638, 89.71098
482.1460, 83.13668
482.6281, 80.51654
483.1102, 78.64578
483.5923, 75.05016
484.0744, 71.57856
484.5565, 71.92166
485.0387, 82.58981
485.5208, 91.63110
486.0029, 94.51317
486.4850, 90.38108
486.9671, 88.18896
487.4492, 89.46708
487.9314, 91.22731
488.4135, 90.79095
488.8956, 86.54804
489.3777, 84.77534
489.8598, 86.62354
490.3419, 90.89753
490.8241, 95.19361
491.3062, 99.74599
491.7883, 102.8144
492.2704, 102.9334
492.7525, 100.6670
493.2346, 99.57835
493.7168, 99.84539
494.1989, 99.76601
494.6810, 97.24901
495.1631, 93.07397
495.6452, 89.01433
496.1273, 85.10856
496.6095, 82.22801
497.0916, 81.47070
497.5737, 82.57471
498.0558, 84.82042
498.5379, 90.37489
499.0201, 95.13470
499.5022, 95.07805
499.9843, 89.05109
500.4664, 84.83717
500.9485, 88.14485
501.4306, 93.23909
501.9127, 94.75436
502.3948, 85.84285
502.8770, 80.24408
503.3591, 81.43159
503.8412, 87.48520
504.3233, 92.00328
504.8054, 94.53659
505.2875, 96.10991
505.7697, 97.21072
506.2518, 97.97306
506.7339, 96.97845
507.2160, 93.41911
507.6981, 89.73789
508.1802, 89.08443
508.6624, 91.49576
509.1445, 93.71678
509.6266, 95.91551
510.1087, 96.46101
510.5908, 88.98432
511.0729, 74.84039
511.5551, 64.99025
512.0372, 68.49559
512.5193, 79.59229
513.0014, 91.65176
513.4835, 104.6870
513.9656, 112.0942
514.4478, 104.3708
514.9299, 89.78963
515.4120, 78.40317
515.8941, 71.63483
516.3762, 70.61902
516.8583, 81.13472
517.3405, 98.60987
517.8226, 108.8494
518.3047, 99.93864
518.7868, 90.99342
519.2689, 91.67863
519.7510, 106.8415
520.2332, 110.2900
520.7153, 93.61168
521.1974, 73.22495
521.6795, 64.62797
522.1616, 71.19759
522.6437, 79.20549
523.1259, 87.97434
523.6080, 96.09752
524.0901, 99.13219
524.5722, 96.73550
525.0543, 93.35985
525.5364, 90.29568
526.0186, 87.96414
526.5007, 88.14478
526.9828, 90.91866
527.4649, 94.82810
527.9470, 102.4958
528.4291, 109.5715
528.9113, 107.3591
529.3934, 88.10709
529.8755, 69.28779
530.3576, 65.14793
530.8397, 71.17004
531.3218, 77.03690
531.8040, 78.61768
532.2861, 79.04446
532.7682, 78.68039
533.2503, 77.31313
533.7324, 79.39328
534.2145, 92.16895
534.6967, 104.0086
535.1788, 107.0451
535.6609, 94.35355
536.1430, 85.65318
536.6251, 83.13209
537.1072, 83.94400
537.5894, 81.90814
538.0715, 75.54211
538.5536, 73.11441
539.0357, 79.11606
539.5178, 91.29633
539.9999, 99.08313
540.4821, 102.2022
540.9642, 103.8554
541.4463, 106.9659
541.9284, 110.4739
542.4105, 112.0205
542.8926, 111.4071
543.3748, 108.2687
543.8569, 97.79738
544.3390, 85.16872
544.8211, 79.41486
545.3032, 92.48484
545.7853, 105.7635
546.2675, 108.3343
546.7495, 101.8022
547.2316, 96.11235
547.7137, 95.31609
548.1959, 95.04868
548.6780, 92.93461
549.1601, 87.59750
549.6422, 83.94513
550.1243, 83.44476
550.6064, 83.45426
551.0886, 80.62639
551.5707, 73.33150
552.0528, 68.21965
552.5349, 66.09352
553.0170, 67.09272
553.4991, 74.04208
553.9813, 76.40893
554.4634, 89.91776
554.9455, 97.48042
555.4276, 99.41644
555.9097, 78.87341
556.3918, 87.35742
556.8740, 84.20869
557.3561, 80.58298
557.8382, 93.15240
558.3203, 75.87891
558.8024, 88.19150
559.2845, 88.69387
559.7667, 94.60146
560.2488, 88.80453
560.7309, 86.62276
561.2130, 96.14928
561.6951, 99.19283
562.1772, 92.04852
562.6594, 98.29970
563.1415, 80.61735
563.6236, 83.93701
564.1057, 96.31812
564.5878, 89.76229
565.0699, 96.22750
565.5521, 91.74654
566.0342, 96.17178
566.5163, 98.50232
566.9984, 97.50284
567.4805, 93.20950
567.9626, 88.29353
568.4448, 82.14394
568.9269, 77.23853
569.4090, 80.09026
569.8911, 89.26413
570.3732, 97.03674
570.8553, 96.83069
571.3375, 93.76691
571.8196, 93.96783
572.3017, 98.00456
572.7838, 100.9205
573.2659, 97.20512
573.7480, 92.71944
574.2302, 92.89574
574.7123, 106.1725
575.1944, 114.0686
575.6765, 109.2322
576.1586, 98.00037
576.6407, 92.43110
577.1229, 96.71291
577.6050, 99.59695
578.0871, 97.77174
578.5692, 91.88426
579.0513, 88.32224
579.5334, 87.60160
580.0156, 87.10024
580.4977, 83.76488
580.9798, 78.57204
581.4619, 79.29827
581.9440, 87.40203
582.4261, 94.72857
582.9083, 87.42362
583.3904, 73.12991
583.8725, 68.59947
584.3546, 87.18229
584.8367, 105.6334
585.3188, 102.1795
585.8010, 85.09578
586.2831, 75.61341
586.7652, 92.54021
587.2473, 108.9939
587.7294, 112.5796
588.2115, 101.5172
588.6937, 91.41937
589.1758, 80.07428
589.6579, 72.72829
590.1400, 73.45068
590.6221, 85.97540
591.1042, 95.29345
591.5864, 101.0288
592.0685, 103.4092
592.5506, 101.7079
593.0327, 95.99004
593.5148, 90.50890
593.9969, 86.44978
594.4791, 83.27202
594.9612, 78.34924
595.4433, 72.72318
595.9254, 71.46523
596.4075, 84.56165
596.8896, 99.15752
597.3718, 100.2352
597.8539, 86.82574
598.3360, 75.65572
598.8181, 77.64301
599.3002, 83.23859
599.7823, 84.64012
600.2645, 74.82203
600.7466, 70.59436
601.2287, 79.55929
601.7108, 91.75914
602.1929, 91.69466
602.6750, 71.48595
603.1572, 58.46234
603.6393, 60.52125
604.1214, 72.88715
604.6035, 76.79378
605.0856, 71.36560
605.5677, 69.48319
606.0499, 84.31061
606.5320, 107.7442
607.0141, 116.0562
607.4962, 108.6118
607.9783, 98.66084
608.4604, 96.62077
608.9425, 98.44273
609.4246, 98.99327
609.9067, 96.02080
610.3889, 94.36126
610.8710, 100.1454
611.3531, 107.5101
611.8352, 107.9937
612.3173, 91.22172
612.7994, 77.70532
613.2816, 70.75565
613.7637, 69.69212
614.2458, 71.68989
614.7279, 77.88705
615.2100, 84.58548
615.6921, 91.43160
616.1743, 98.15609
616.6564, 97.53826
617.1385, 88.76782
617.6206, 79.20573
618.1027, 74.06763
618.5848, 73.21257
619.0670, 77.29939
619.5491, 87.80930
620.0312, 97.45718
620.5133, 100.3523
620.9954, 98.20258
621.4775, 93.72591
621.9597, 83.49696
622.4418, 75.72394
622.9239, 74.84093
623.4060, 78.94470
623.8881, 81.49056
624.3702, 79.70072
624.8524, 78.65536
625.3345, 80.33708
625.8166, 84.82030
626.2987, 86.82447
626.7808, 85.34658
627.2629, 84.20950
627.7451, 86.67188
628.2272, 92.37399
628.7093, 97.84518
629.1914, 103.1331
629.6735, 106.6522
630.1556, 106.0606
630.6378, 102.3964
631.1199, 97.62569
631.6020, 91.94831
632.0841, 85.96081
632.5662, 77.12481
633.0483, 68.40379
633.5305, 66.21796
634.0126, 82.60378
634.4947, 95.94918
634.9768, 97.23235
635.4589, 87.11399
635.9410, 79.93344
636.4232, 75.97814
636.9053, 74.43828
637.3874, 75.29263
637.8695, 78.72401
638.3516, 83.11118
638.8337, 89.15845
639.3159, 93.47742
639.7980, 91.22461
640.2801, 84.13409
640.7622, 78.79546
641.2443, 76.32863
641.7264, 75.92924
642.2086, 78.96920
642.6907, 83.15060
643.1728, 84.32715
643.6549, 76.28769
644.1370, 69.60654
644.6191, 68.87611
645.1013, 73.20020
645.5834, 78.98164
646.0655, 90.59900
646.5476, 98.24377
647.0297, 97.62594
647.5118, 88.63345
647.9940, 83.20081
648.4761, 81.99973
648.9582, 82.47374
