##NAMES=Kottigite
##RRUFFID=R110035
##IDEAL CHEMISTRY=Zn^2+^_3_(As^5+^O_4_)_2_&#183;8H_2_O
##LOCALITY=Ojuela mine, Mapimi, Durango, Mexico
##OWNER=Marcus J. Origlieri
##SOURCE=The University of Arizona Mineral Museum
##DESCRIPTION=Spray of dark blue bladed crystals
##STATUS=The identification of this mineral has been confirmed only by single crystal X-ray diffraction.
##URL=rruff.info/R110035
177.7553, 264.6389
178.2374, 268.6049
178.7195, 271.3695
179.2017, 272.3810
179.6838, 272.4678
180.1659, 272.6337
180.6480, 272.8624
181.1301, 273.5762
181.6122, 275.7315
182.0944, 278.8678
182.5765, 281.3964
183.0586, 282.5477
183.5407, 282.6639
184.0228, 281.9749
184.5049, 280.2250
184.9871, 279.2451
185.4692, 282.1191
185.9513, 288.1597
186.4334, 293.5463
186.9155, 296.2879
187.3976, 296.9789
187.8798, 297.5829
188.3619, 298.1855
188.8440, 298.6502
189.3261, 298.1598
189.8082, 296.8599
190.2903, 296.8839
190.7725, 300.4617
191.2546, 306.7871
191.7367, 310.6735
192.2188, 311.5610
192.7009, 310.9386
193.1830, 311.1230
193.6652, 312.1137
194.1473, 313.1123
194.6294, 312.9461
195.1115, 311.8597
195.5936, 313.5406
196.0757, 318.8348
196.5579, 325.8342
197.0400, 331.1552
197.5221, 334.7675
198.0042, 337.1836
198.4863, 337.8478
198.9684, 336.7119
199.4506, 338.1250
199.9327, 343.1649
200.4148, 349.8587
200.8969, 353.6885
201.3790, 354.2950
201.8611, 354.2328
202.3433, 354.8387
202.8254, 356.1365
203.3075, 357.8976
203.7896, 360.3227
204.2717, 362.9906
204.7538, 364.5132
205.2360, 364.4696
205.7181, 364.8093
206.2002, 366.7192
206.6823, 370.3427
207.1644, 374.6763
207.6465, 380.1009
208.1287, 385.9174
208.6108, 390.0710
209.0929, 392.1978
209.5750, 393.6802
210.0571, 394.9913
210.5392, 395.7829
211.0214, 398.2298
211.5035, 403.2745
211.9856, 409.8499
212.4677, 413.9497
212.9498, 414.3023
213.4319, 415.0706
213.9140, 419.8254
214.3962, 430.9711
214.8783, 437.1521
215.3604, 435.4785
215.8425, 428.3952
216.3246, 426.1318
216.8067, 430.6080
217.2889, 436.1306
217.7710, 439.1868
218.2531, 438.9252
218.7352, 438.7250
219.2173, 438.9479
219.6994, 439.4390
220.1816, 439.3134
220.6637, 437.9054
221.1458, 436.9918
221.6279, 437.8369
222.1100, 441.1777
222.5921, 444.3459
223.0743, 447.2136
223.5564, 449.7558
224.0385, 452.1355
224.5206, 454.8827
225.0027, 456.5953
225.4848, 456.0574
225.9670, 451.8144
226.4491, 448.9064
226.9312, 447.9991
227.4133, 448.7435
227.8954, 449.5455
228.3775, 450.7451
228.8597, 451.4960
229.3418, 451.1113
229.8239, 448.8039
230.3060, 447.2542
230.7881, 447.1785
231.2702, 448.0651
231.7524, 447.2917
232.2345, 443.5730
232.7166, 440.0075
233.1987, 438.6420
233.6808, 440.9381
234.1629, 442.1998
234.6451, 442.1696
235.1272, 440.8857
235.6093, 438.3551
236.0914, 433.6294
236.5735, 428.9624
237.0556, 425.7811
237.5378, 425.2796
238.0199, 423.5858
238.5020, 419.8042
238.9841, 414.6601
239.4662, 411.4218
239.9483, 411.6410
240.4305, 411.6657
240.9126, 409.2689
241.3947, 402.4735
241.8768, 397.7316
242.3589, 396.2182
242.8410, 396.9087
243.3232, 396.0638
243.8053, 392.8325
244.2874, 389.2276
244.7695, 386.2497
245.2516, 383.9923
245.7337, 382.1129
246.2159, 380.8185
246.6980, 379.8479
247.1801, 378.4401
247.6622, 376.6166
248.1443, 374.2904
248.6264, 371.2796
249.1086, 366.8629
249.5907, 363.4987
250.0728, 361.6646
250.5549, 360.7851
251.0370, 359.3206
251.5191, 357.0355
252.0013, 354.5485
252.4834, 351.9549
252.9655, 348.8083
253.4476, 346.9562
253.9297, 347.3140
254.4118, 348.5673
254.8940, 347.6084
255.3761, 343.3852
255.8582, 338.7897
256.3403, 334.8883
256.8224, 331.5921
257.3046, 329.4240
257.7867, 329.0552
258.2688, 329.3956
258.7509, 328.1358
259.2330, 324.3578
259.7151, 320.8773
260.1973, 318.9480
260.6794, 319.1225
261.1615, 318.4816
261.6436, 316.7712
262.1257, 314.4818
262.6078, 312.3338
263.0900, 310.1877
263.5721, 308.6013
264.0542, 308.1000
264.5363, 309.0391
265.0184, 308.5426
265.5005, 306.0885
265.9827, 302.8254
266.4648, 300.3017
266.9469, 298.6313
267.4290, 297.4557
267.9111, 296.9204
268.3932, 297.1229
268.8754, 296.0298
269.3575, 292.8604
269.8396, 289.5846
270.3217, 289.2068
270.8038, 292.6856
271.2859, 295.3077
271.7681, 295.6343
272.2502, 293.7373
272.7323, 291.4738
273.2144, 288.5438
273.6965, 285.9330
274.1786, 284.9806
274.6608, 286.0408
275.1429, 286.8430
275.6250, 287.0169
276.1071, 286.5182
276.5892, 284.4382
277.0714, 280.1266
277.5535, 276.1900
278.0356, 275.8481
278.5177, 279.6048
278.9998, 281.5663
279.4819, 279.9102
279.9641, 275.6662
280.4462, 273.5153
280.9283, 273.7967
281.4104, 274.6881
281.8925, 274.7974
282.3746, 274.1194
282.8568, 273.1945
283.3389, 272.0254
283.8210, 270.7443
284.3031, 269.6496
284.7852, 268.7285
285.2673, 268.1329
285.7495, 268.2895
286.2316, 269.0990
286.7137, 269.1440
287.1958, 268.1461
287.6779, 266.4578
288.1600, 264.7913
288.6422, 263.1497
289.1243, 261.2341
289.6064, 258.3286
290.0885, 254.7949
290.5706, 252.8391
291.0527, 252.8888
291.5349, 253.9911
292.0170, 255.0910
292.4991, 256.1109
292.9812, 256.3213
293.4633, 254.8672
293.9454, 252.2460
294.4276, 249.9366
294.9097, 247.9984
295.3918, 246.5608
295.8739, 246.0299
296.3560, 246.2561
296.8381, 246.5035
297.3203, 246.6624
297.8024, 246.5647
298.2845, 245.5794
298.7666, 243.5901
299.2487, 241.7518
299.7308, 241.8584
300.2130, 243.1411
300.6951, 243.3806
301.1772, 240.9438
301.6593, 237.3326
302.1414, 234.3592
302.6235, 232.0532
303.1057, 230.6473
303.5878, 231.5018
304.0699, 233.3054
304.5520, 233.5300
305.0341, 230.1965
305.5162, 226.0146
305.9984, 223.7783
306.4805, 223.3186
306.9626, 223.3360
307.4447, 223.6799
307.9268, 223.7559
308.4089, 222.5927
308.8911, 219.0138
309.3732, 215.5702
309.8553, 214.6659
310.3374, 215.7090
310.8195, 216.6893
311.3016, 216.5615
311.7838, 215.8072
312.2659, 214.6712
312.7480, 212.8069
313.2301, 211.5317
313.7122, 212.3087
314.1943, 214.2408
314.6765, 215.4234
315.1586, 214.0821
315.6407, 212.3700
316.1228, 211.8545
316.6049, 213.1268
317.0870, 213.9088
317.5692, 212.3790
318.0513, 209.9285
318.5334, 208.5119
319.0155, 209.9294
319.4976, 211.5099
319.9797, 212.1044
320.4619, 211.5774
320.9440, 210.7700
321.4261, 209.2713
321.9082, 207.8944
322.3903, 207.4173
322.8724, 210.0400
323.3546, 211.5242
323.8367, 209.9021
324.3188, 205.3172
324.8009, 202.1928
325.2830, 202.4402
325.7651, 203.6536
326.2473, 204.2812
326.7294, 203.0212
327.2115, 202.5155
327.6936, 203.3636
328.1757, 205.2945
328.6578, 206.9754
329.1400, 208.8625
329.6221, 210.1136
330.1042, 210.3304
330.5863, 208.6609
331.0684, 207.3486
331.5505, 206.3239
332.0327, 205.6700
332.5148, 205.6765
332.9969, 207.1907
333.4790, 208.1895
333.9611, 207.5954
334.4432, 204.4449
334.9254, 203.7898
335.4075, 207.1749
335.8896, 211.7454
336.3717, 213.3504
336.8538, 210.7549
337.3359, 208.0986
337.8180, 206.3402
338.3001, 205.4793
338.7823, 205.4517
339.2644, 206.4380
339.7465, 207.9052
340.2286, 209.8938
340.7107, 212.8543
341.1928, 213.3433
341.6750, 209.7852
342.1571, 203.5505
342.6392, 200.2352
343.1213, 200.1095
343.6034, 201.3015
344.0855, 203.0232
344.5677, 205.2033
345.0498, 206.1100
345.5319, 205.0716
346.0140, 203.4254
346.4961, 204.3056
346.9782, 207.5853
347.4604, 210.1246
347.9425, 209.2205
348.4246, 205.9790
348.9067, 204.6535
349.3888, 205.7003
349.8709, 207.4986
350.3531, 208.1387
350.8352, 207.8701
351.3173, 207.6195
351.7994, 207.4102
352.2815, 207.5919
352.7636, 209.4149
353.2458, 212.8718
353.7279, 215.4490
354.2100, 213.7464
354.6921, 209.8968
355.1742, 207.6879
355.6563, 209.3379
356.1385, 211.9500
356.6206, 212.6927
357.1027, 211.8986
357.5848, 211.2144
358.0669, 211.4429
358.5490, 212.3357
359.0312, 213.7155
359.5133, 215.7124
359.9954, 217.8464
360.4775, 220.2213
360.9596, 222.5459
361.4417, 224.1667
361.9239, 224.6505
362.4060, 224.5206
362.8881, 223.7689
363.3702, 222.1445
363.8523, 221.2833
364.3344, 222.2625
364.8166, 224.0947
365.2987, 225.6667
365.7808, 226.0014
366.2629, 226.7277
366.7450, 229.0047
367.2271, 232.8087
367.7093, 234.6412
368.1914, 231.4330
368.6735, 227.7990
369.1556, 226.7526
369.6377, 231.8774
370.1198, 235.2487
370.6020, 235.7762
371.0841, 234.2232
371.5662, 233.3266
372.0483, 233.2055
372.5304, 233.6052
373.0125, 234.6125
373.4947, 236.8206
373.9768, 237.7966
374.4589, 236.9001
374.9410, 235.2950
375.4231, 234.9471
375.9052, 236.3167
376.3874, 237.6690
376.8695, 238.5727
377.3516, 239.0384
377.8337, 238.8823
378.3158, 237.9092
378.7979, 236.8685
379.2801, 236.5337
379.7622, 236.9304
380.2443, 237.4749
380.7264, 238.1079
381.2085, 238.7791
381.6906, 239.4997
382.1728, 240.2762
382.6549, 240.6308
383.1370, 239.9852
383.6191, 238.5824
384.1012, 237.4633
384.5833, 236.7876
385.0655, 236.1597
385.5476, 234.5405
386.0297, 232.3613
386.5118, 231.2936
386.9939, 233.0745
387.4760, 236.0610
387.9582, 237.9843
388.4403, 238.8083
388.9224, 238.9458
389.4045, 239.0350
389.8866, 238.5893
390.3687, 236.7921
390.8509, 231.9152
391.3330, 227.2221
391.8151, 225.5090
392.2972, 226.1148
392.7793, 226.2994
393.2614, 223.5212
393.7436, 220.5690
394.2257, 219.4859
394.7078, 221.2013
395.1899, 223.4261
395.6720, 226.1172
396.1541, 228.6705
396.6363, 230.1165
397.1184, 229.7683
397.6005, 228.6933
398.0826, 226.9576
398.5647, 224.4323
399.0468, 222.4657
399.5290, 221.0226
400.0111, 220.2853
400.4932, 220.4262
400.9753, 222.7374
401.4574, 224.1615
401.9395, 223.8826
402.4217, 222.3933
402.9038, 222.1031
403.3859, 223.7753
403.8680, 225.5279
404.3501, 226.3224
404.8322, 225.6414
405.3144, 225.9145
405.7965, 227.5759
406.2786, 229.6697
406.7607, 230.5349
407.2428, 229.9375
407.7249, 229.3557
408.2071, 229.1058
408.6892, 229.2498
409.1713, 230.4584
409.6534, 232.9057
410.1355, 235.4309
410.6176, 237.0296
411.0998, 237.7887
411.5819, 237.9531
412.0640, 237.1245
412.5461, 236.4771
413.0282, 238.5771
413.5103, 242.9434
413.9925, 246.7770
414.4746, 248.0071
414.9567, 247.8431
415.4388, 247.9743
415.9209, 248.5061
416.4030, 249.6001
416.8852, 251.9804
417.3673, 254.9263
417.8494, 257.2711
418.3315, 257.7790
418.8136, 258.2154
419.2957, 259.6460
419.7779, 262.0044
420.2600, 264.8875
420.7421, 268.5387
421.2242, 272.3875
421.7063, 276.0414
422.1884, 280.0176
422.6706, 282.8243
423.1527, 282.8107
423.6348, 281.5504
424.1169, 281.9973
424.5990, 286.2822
425.0811, 290.7086
425.5633, 294.1592
426.0454, 296.4811
426.5275, 298.7853
427.0096, 300.6536
427.4917, 302.8523
427.9738, 306.2249
428.4560, 312.0218
428.9381, 316.2476
429.4202, 317.8054
429.9023, 317.5767
430.3844, 318.5495
430.8665, 320.7173
431.3487, 324.1080
431.8308, 329.6171
432.3129, 337.4672
432.7950, 342.1144
433.2771, 342.8078
433.7592, 342.1117
434.2414, 343.3683
434.7235, 346.4272
435.2056, 349.4529
435.6877, 351.8359
436.1698, 353.8405
436.6519, 355.9144
437.1341, 358.0793
437.6162, 360.6066
438.0983, 364.3612
438.5804, 368.4886
439.0625, 371.2985
439.5446, 372.1749
440.0268, 372.8678
440.5089, 375.3241
440.9910, 378.7458
441.4731, 381.4621
441.9552, 382.1103
442.4373, 382.3176
442.9195, 383.2538
443.4016, 384.9269
443.8837, 386.2332
444.3658, 386.1122
444.8479, 385.7716
445.3300, 386.1870
445.8122, 388.7036
446.2943, 390.4680
446.7764, 390.1519
447.2585, 388.7108
447.7406, 388.5982
448.2227, 391.5282
448.7049, 394.2780
449.1870, 396.1379
449.6691, 397.1743
450.1512, 396.7647
450.6333, 394.2630
451.1154, 391.0410
451.5976, 388.1314
452.0797, 385.1904
452.5618, 384.0575
453.0439, 385.9399
453.5260, 389.3440
454.0081, 389.3014
454.4903, 385.3220
454.9724, 381.0758
455.4545, 378.5775
455.9366, 377.6291
456.4187, 376.7766
456.9008, 376.0209
457.3830, 375.1269
457.8651, 373.6496
458.3472, 371.7789
458.8293, 370.2292
459.3114, 369.3763
459.7935, 368.7776
460.2757, 367.6114
460.7578, 366.0709
461.2399, 365.1159
461.7220, 365.9275
462.2041, 367.2812
462.6862, 367.9031
463.1684, 367.4135
463.6505, 367.0962
464.1326, 367.5568
464.6147, 368.5974
465.0968, 369.9780
465.5789, 371.5963
466.0611, 373.5533
466.5432, 376.0001
467.0253, 378.8960
467.5074, 381.8425
467.9895, 384.9753
468.4716, 388.0104
468.9538, 390.6857
469.4359, 392.2480
469.9180, 395.1398
470.4001, 400.4055
470.8822, 406.3027
471.3643, 409.9978
471.8465, 410.5459
472.3286, 411.6909
472.8107, 414.8098
473.2928, 419.3304
473.7749, 422.1087
474.2570, 422.9681
474.7392, 422.8943
475.2213, 422.4452
475.7034, 421.6452
476.1855, 420.8143
476.6676, 420.1533
477.1497, 418.8947
477.6319, 416.0183
478.1140, 411.7005
478.5961, 406.5181
479.0782, 400.2092
479.5603, 393.4857
480.0424, 386.9591
480.5246, 380.6411
481.0067, 374.8607
481.4888, 370.0780
481.9709, 365.7710
482.4530, 361.5203
482.9352, 357.2574
483.4173, 353.0053
483.8994, 349.0385
484.3815, 345.0075
484.8636, 340.4245
485.3457, 333.1233
485.8279, 327.3772
486.3100, 325.2638
486.7921, 326.7946
487.2742, 326.4001
487.7563, 322.6072
488.2384, 318.3872
488.7206, 315.5023
489.2027, 314.7446
489.6848, 313.1631
490.1669, 310.3950
490.6490, 307.1543
491.1311, 304.3990
491.6133, 302.1294
492.0954, 300.5184
492.5775, 299.7156
493.0596, 299.5901
493.5417, 299.9561
494.0238, 300.8272
494.5060, 301.1439
494.9881, 299.5542
495.4702, 296.8302
495.9523, 294.8365
496.4344, 293.8461
496.9165, 293.4913
497.3987, 294.0546
497.8808, 294.9323
498.3629, 294.9749
498.8450, 292.4742
499.3271, 290.0268
499.8092, 289.9372
500.2914, 291.6904
500.7735, 292.4295
501.2556, 289.5283
501.7377, 286.4130
502.2198, 285.2872
502.7019, 287.4024
503.1841, 288.8686
503.6662, 288.6631
504.1483, 287.7919
504.6304, 287.3462
505.1125, 286.8237
505.5946, 287.6431
506.0768, 290.8889
506.5589, 295.7365
507.0410, 297.8900
507.5231, 296.6378
508.0052, 294.6900
508.4873, 293.0634
508.9695, 291.7719
509.4516, 292.0039
509.9337, 294.0278
510.4158, 296.4672
510.8979, 297.6699
511.3800, 297.8910
511.8622, 298.2420
512.3443, 299.0938
512.8264, 300.1017
513.3085, 301.0085
513.7906, 301.7371
514.2728, 302.0079
514.7549, 301.2094
515.2370, 300.1855
515.7191, 299.4900
516.2012, 299.1519
516.6833, 299.5639
517.1655, 301.7635
517.6476, 304.3395
518.1297, 306.0810
518.6118, 306.0428
519.0939, 306.0265
519.5760, 306.5833
520.0582, 307.3267
520.5403, 307.3341
521.0224, 305.9579
521.5045, 304.7255
521.9866, 303.8740
522.4688, 303.4044
522.9509, 304.2002
523.4330, 306.8295
523.9151, 309.4049
524.3972, 309.8829
524.8793, 308.1793
525.3615, 308.7745
525.8436, 312.5448
526.3257, 317.3864
526.8078, 320.3482
527.2899, 321.6447
527.7720, 322.1759
528.2542, 321.8058
528.7363, 321.2337
529.2184, 321.5877
529.7005, 322.6870
530.1826, 323.5645
530.6647, 323.3845
531.1469, 322.8727
531.6290, 322.5591
532.1111, 322.4669
532.5932, 322.8645
533.0753, 324.4735
533.5574, 326.3673
534.0396, 327.5580
534.5217, 325.9916
535.0038, 325.9601
535.4859, 329.3898
535.9680, 334.8677
536.4501, 337.8376
536.9323, 336.9642
537.4144, 335.8637
537.8965, 336.0346
538.3786, 337.5327
538.8607, 337.4920
539.3428, 335.4037
539.8250, 333.3334
540.3071, 333.4720
540.7892, 335.5759
541.2713, 337.4987
541.7534, 339.0240
542.2355, 339.9471
542.7177, 339.5970
543.1998, 338.3329
543.6819, 337.3058
544.1640, 337.1354
544.6461, 337.3909
545.1282, 337.8970
545.6104, 338.5712
546.0925, 338.9258
546.5746, 338.9103
547.0567, 338.3528
547.5388, 336.9667
548.0209, 334.3729
548.5031, 332.1263
548.9852, 330.3140
549.4673, 329.1010
549.9494, 328.7318
550.4315, 330.6141
550.9136, 331.0673
551.3958, 329.0909
551.8779, 325.5851
552.3600, 323.2794
552.8421, 322.3729
553.3242, 321.9221
553.8063, 321.7090
554.2885, 321.6661
554.7706, 321.2359
555.2527, 320.4030
555.7348, 319.3575
556.2169, 318.6990
556.6990, 317.9493
557.1812, 315.4932
557.6633, 310.6424
558.1454, 305.7783
558.6275, 303.2447
559.1096, 302.3110
559.5917, 301.6335
560.0739, 301.1484
560.5560, 300.3586
561.0381, 298.8985
561.5202, 296.8908
562.0023, 294.8292
562.4844, 293.0128
562.9666, 291.0067
563.4487, 288.4250
563.9308, 284.9685
564.4129, 282.4774
564.8950, 281.3864
565.3771, 280.7807
565.8593, 280.0460
566.3414, 279.3341
566.8235, 277.7298
567.3056, 274.9273
567.7877, 271.4969
568.2698, 268.1668
568.7520, 264.9533
569.2341, 262.6414
569.7162, 261.9207
570.1983, 261.9993
570.6804, 261.5823
571.1625, 260.6769
571.6447, 259.3165
572.1268, 256.5838
572.6089, 253.9501
573.0910, 253.4220
573.5731, 255.6067
574.0552, 256.7387
574.5374, 254.1574
575.0195, 250.1858
575.5016, 246.9889
575.9837, 245.7056
576.4658, 244.3086
576.9479, 242.2154
577.4301, 239.9602
577.9122, 238.6761
578.3943, 238.9568
578.8764, 238.9782
579.3585, 238.1799
579.8406, 236.6802
580.3228, 235.2560
580.8049, 233.8837
581.2870, 232.7406
581.7691, 232.3871
582.2512, 232.4313
582.7333, 230.7646
583.2155, 227.0422
583.6975, 223.8476
584.1796, 224.4193
584.6617, 226.9356
585.1439, 228.3782
585.6260, 227.7406
586.1081, 226.1855
586.5902, 223.4719
587.0723, 220.4348
587.5544, 218.7230
588.0366, 220.1933
588.5187, 221.6032
589.0008, 221.6745
589.4829, 220.4795
589.9650, 220.0522
590.4471, 221.0918
590.9293, 221.9781
591.4114, 221.8622
591.8935, 220.5733
592.3756, 219.5377
592.8577, 218.8587
593.3398, 218.1442
593.8220, 216.6586
594.3041, 214.5889
594.7862, 213.5109
595.2683, 213.9202
595.7504, 214.8583
596.2325, 215.3117
596.7147, 215.3132
597.1968, 214.9424
597.6789, 213.7511
598.1610, 212.6103
598.6431, 212.3145
599.1252, 212.6813
599.6074, 212.8378
600.0895, 212.6355
600.5716, 212.0128
601.0537, 210.5992
601.5358, 207.9360
602.0179, 206.8066
602.5001, 208.3145
602.9822, 210.2919
603.4643, 211.1731
603.9464, 210.7830
604.4285, 209.8631
604.9106, 208.1448
605.3928, 206.4660
605.8749, 206.3877
606.3570, 207.7699
606.8391, 208.7290
607.3212, 208.4496
607.8033, 207.7564
608.2855, 208.0898
608.7676, 209.1533
609.2497, 209.8706
609.7318, 208.8704
610.2139, 207.8481
610.6960, 208.6773
611.1782, 211.3303
611.6603, 212.7975
612.1424, 211.2417
612.6245, 208.7509
613.1066, 206.4461
613.5887, 203.8158
614.0709, 202.8877
614.5530, 205.0076
615.0351, 207.6173
615.5172, 207.8139
615.9993, 204.9221
616.4814, 202.6727
616.9636, 201.6078
617.4457, 201.4178
617.9278, 201.3812
618.4099, 201.5742
618.8920, 202.7626
619.3741, 206.2351
619.8563, 210.1840
620.3384, 212.1394
620.8205, 212.1962
621.3026, 210.8343
621.7847, 206.2444
622.2668, 201.8314
622.7490, 200.6090
623.2311, 203.1085
623.7132, 205.3812
624.1953, 206.9827
624.6774, 207.5842
625.1595, 206.7967
625.6417, 202.7974
626.1238, 201.2393
626.6059, 203.4913
627.0880, 206.7093
627.5701, 206.6152
628.0522, 202.7328
628.5344, 200.2711
629.0165, 200.6445
629.4986, 202.5343
629.9807, 203.6867
630.4628, 204.1416
630.9449, 204.1046
631.4271, 203.1470
631.9092, 202.0930
632.3913, 201.7237
632.8734, 202.0341
633.3555, 202.9512
633.8376, 205.6022
634.3198, 207.9362
634.8019, 208.3472
635.2840, 206.0967
635.7661, 205.0642
636.2482, 206.7922
636.7303, 208.8989
637.2125, 209.6294
637.6946, 208.1365
638.1767, 207.9091
638.6588, 209.5476
639.1409, 211.6637
639.6230, 212.2969
640.1052, 211.5161
640.5873, 210.0637
641.0694, 207.7182
641.5515, 205.5255
642.0336, 205.7417
642.5157, 207.5360
642.9979, 208.4797
643.4800, 205.9013
643.9621, 203.2639
644.4442, 203.8291
644.9263, 206.9119
645.4084, 208.3224
645.8906, 204.2458
646.3727, 200.3423
646.8548, 199.8155
647.3369, 203.3568
647.8190, 204.8646
648.3011, 203.3400
648.7833, 201.2608
649.2654, 200.4270
649.7475, 200.9106
650.2296, 201.9160
650.7117, 203.6186
651.1938, 204.9950
651.6760, 204.1671
652.1581, 201.8934
652.6402, 200.6529
653.1223, 201.4962
653.6044, 202.7039
654.0865, 202.6250
654.5687, 201.8091
655.0508, 201.3178
655.5329, 201.6473
656.0150, 202.2627
656.4971, 203.3923
656.9792, 204.7776
657.4614, 205.0981
657.9435, 203.5704
658.4256, 202.0143
658.9077, 200.9306
659.3898, 200.3178
659.8719, 200.2681
660.3541, 200.9001
660.8362, 201.5353
661.3183, 201.6785
661.8004, 201.4266
662.2825, 201.0751
662.7646, 200.6223
663.2468, 200.3954
663.7289, 201.3664
664.2110, 202.4716
664.6931, 202.0426
665.1752, 198.8418
665.6573, 196.4231
666.1395, 197.1930
666.6216, 199.2729
667.1037, 200.3509
667.5858, 198.6916
668.0679, 197.8351
668.5500, 198.3448
669.0322, 199.6809
669.5143, 200.7909
669.9964, 201.7673
670.4785, 201.9760
670.9606, 200.6795
671.4427, 198.8620
671.9249, 200.0868
672.4070, 203.8908
672.8891, 206.4963
673.3712, 203.9474
673.8533, 200.0009
674.3354, 199.6546
