##NAMES=Kottigite
##RRUFFID=R110035
##IDEAL CHEMISTRY=Zn^2+^_3_(As^5+^O_4_)_2_&#183;8H_2_O
##LOCALITY=Ojuela mine, Mapimi, Durango, Mexico
##OWNER=Marcus J. Origlieri
##SOURCE=The University of Arizona Mineral Museum
##DESCRIPTION=Spray of dark blue bladed crystals
##STATUS=The identification of this mineral has been confirmed only by single crystal X-ray diffraction.
##URL=rruff.info/R110035
162.4747, 193.3528
162.9568, 193.9047
163.4389, 194.8959
163.9210, 196.2870
164.4031, 197.1070
164.8853, 196.5664
165.3674, 195.5400
165.8495, 195.3628
166.3316, 196.3676
166.8137, 197.8438
167.2958, 199.3247
167.7780, 200.7729
168.2601, 201.9276
168.7422, 202.6541
169.2243, 202.9839
169.7064, 202.8961
170.1885, 201.7004
170.6707, 201.0293
171.1528, 202.4118
171.6349, 205.3745
172.1170, 207.9460
172.5991, 208.1700
173.0812, 205.8963
173.5634, 204.5045
174.0455, 204.8967
174.5276, 205.6846
175.0097, 206.5060
175.4918, 207.2513
175.9739, 207.8231
176.4561, 208.0557
176.9382, 207.7993
177.4203, 207.7155
177.9024, 207.6014
178.3845, 207.7844
178.8666, 208.7677
179.3488, 210.4355
179.8309, 212.0287
180.3130, 212.3996
180.7951, 210.5686
181.2772, 209.7355
181.7593, 210.0632
182.2415, 211.1240
182.7236, 212.9208
183.2057, 215.3541
183.6878, 217.8391
184.1699, 219.4935
184.6520, 219.9826
185.1342, 220.1311
185.6163, 219.2028
186.0984, 218.2519
186.5805, 218.5907
187.0626, 220.6583
187.5447, 223.4902
188.0269, 225.5448
188.5090, 226.8114
188.9911, 227.6379
189.4732, 227.5772
189.9553, 227.1962
190.4374, 227.4656
190.9196, 228.6883
191.4017, 230.6274
191.8838, 233.1952
192.3659, 236.4616
192.8480, 239.3293
193.3301, 241.0799
193.8123, 241.9653
194.2944, 242.9205
194.7765, 244.1622
195.2586, 245.5718
195.7407, 246.9244
196.2228, 248.2116
196.7050, 249.7303
197.1871, 251.7908
197.6692, 254.3694
198.1513, 256.9492
198.6334, 259.7113
199.1155, 262.1734
199.5977, 263.7736
200.0798, 264.5509
200.5619, 265.3988
201.0440, 267.3534
201.5261, 270.6470
202.0082, 273.5826
202.4904, 276.3167
202.9725, 278.3613
203.4546, 278.9458
203.9367, 278.1975
204.4188, 277.3880
204.9009, 278.2885
205.3831, 281.7036
205.8652, 284.3529
206.3473, 285.5378
206.8294, 286.4342
207.3115, 287.6362
207.7936, 289.2659
208.2758, 291.1398
208.7579, 293.0045
209.2400, 294.8529
209.7221, 296.6996
210.2042, 299.0920
210.6863, 301.1135
211.1685, 301.7155
211.6506, 300.8857
212.1327, 299.9199
212.6148, 300.8289
213.0969, 305.3508
213.5790, 308.0280
214.0612, 307.7340
214.5433, 306.4455
215.0254, 305.9261
215.5075, 306.5292
215.9896, 307.0300
216.4717, 305.5490
216.9539, 300.6399
217.4360, 297.1874
217.9181, 296.2942
218.4002, 296.3742
218.8823, 295.9689
219.3644, 294.7291
219.8466, 292.9882
220.3287, 291.1426
220.8108, 289.1879
221.2929, 287.1055
221.7750, 284.5067
222.2571, 281.9252
222.7393, 280.0361
223.2214, 279.0031
223.7035, 278.5323
224.1856, 278.5101
224.6677, 278.8996
225.1498, 279.1074
225.6320, 279.5980
226.1141, 279.6657
226.5962, 277.7462
227.0783, 273.0248
227.5604, 267.9551
228.0425, 265.2536
228.5247, 264.3993
229.0068, 263.3756
229.4889, 261.2553
229.9710, 258.4563
230.4531, 255.8379
230.9352, 253.4319
231.4174, 251.3592
231.8995, 250.0836
232.3816, 249.2646
232.8637, 247.9222
233.3458, 245.0509
233.8279, 241.2377
234.3101, 238.3485
234.7922, 236.6323
235.2743, 235.6223
235.7564, 235.5135
236.2385, 235.8178
236.7206, 235.4941
237.2028, 233.5793
237.6849, 230.5455
238.1670, 228.4473
238.6491, 227.8902
239.1312, 227.4195
239.6133, 226.3524
240.0955, 224.9527
240.5776, 223.6635
241.0597, 222.7796
241.5418, 222.2085
242.0239, 221.5672
242.5060, 221.1531
242.9882, 220.1907
243.4703, 218.2399
243.9524, 215.7019
244.4345, 213.0974
244.9166, 210.6838
245.3987, 208.4798
245.8809, 206.6257
246.3630, 205.1990
246.8451, 204.0830
247.3272, 203.5822
247.8093, 203.2653
248.2914, 202.6316
248.7736, 201.4166
249.2557, 199.6580
249.7378, 197.5009
250.2199, 194.2664
250.7020, 191.4697
251.1841, 189.3854
251.6663, 187.8171
252.1484, 186.6323
252.6305, 185.7678
253.1126, 185.0807
253.5947, 184.0834
254.0768, 182.0701
254.5590, 180.6290
255.0411, 180.2803
255.5232, 180.3793
256.0053, 180.2531
256.4874, 179.6169
256.9695, 178.5815
257.4517, 177.4143
257.9338, 175.4377
258.4159, 174.1831
258.8980, 174.1926
259.3801, 174.6948
259.8622, 174.8863
260.3444, 174.4896
260.8265, 173.7697
261.3086, 173.2236
261.7907, 173.0028
262.2728, 172.7215
262.7549, 172.3238
263.2371, 171.8857
263.7192, 171.4979
264.2013, 171.1815
264.6834, 170.8730
265.1655, 170.4912
265.6476, 170.0725
266.1298, 169.4471
266.6119, 168.4750
267.0940, 167.3681
267.5761, 166.1453
268.0582, 164.8381
268.5403, 163.9069
269.0225, 164.0134
269.5046, 165.5091
269.9867, 166.4759
270.4688, 166.2290
270.9509, 165.8369
271.4330, 166.4498
271.9152, 168.1438
272.3973, 169.7704
272.8794, 170.1821
273.3615, 169.2529
273.8436, 168.4790
274.3257, 167.7953
274.8079, 167.3320
275.2900, 167.2907
275.7721, 167.6526
276.2542, 168.1158
276.7363, 168.6212
277.2184, 169.0306
277.7006, 168.7234
278.1827, 166.3818
278.6648, 164.3721
279.1469, 164.8557
279.6290, 167.5386
280.1111, 169.9744
280.5933, 170.7219
281.0754, 170.0488
281.5575, 169.3188
282.0396, 168.3654
282.5217, 167.5568
283.0038, 167.1927
283.4860, 167.2048
283.9681, 167.2096
284.4502, 166.9710
284.9323, 166.6866
285.4144, 166.7440
285.8965, 167.2109
286.3787, 167.8253
286.8608, 168.6516
287.3429, 169.5564
287.8250, 170.0301
288.3071, 169.7960
288.7892, 169.1917
289.2714, 168.8426
289.7535, 168.8505
290.2356, 168.3929
290.7177, 166.4915
291.1998, 163.8107
291.6819, 162.1848
292.1641, 162.2565
292.6462, 163.0177
293.1283, 163.6176
293.6104, 164.0531
294.0925, 163.9008
294.5746, 162.5379
295.0568, 160.5480
295.5389, 159.1296
296.0210, 158.5296
296.5031, 158.1796
296.9852, 157.5700
297.4673, 156.8084
297.9495, 156.2049
298.4316, 156.2098
298.9137, 156.2982
299.3958, 155.5149
299.8779, 153.6478
300.3600, 151.8469
300.8422, 151.0596
301.3243, 150.8387
301.8064, 150.4616
302.2885, 149.7186
302.7706, 148.8008
303.2527, 147.8137
303.7349, 146.7287
304.2170, 145.9606
304.6991, 146.1568
305.1812, 146.5594
305.6633, 146.0137
306.1454, 144.0164
306.6276, 141.9702
307.1097, 141.2605
307.5918, 141.8076
308.0739, 142.2284
308.5560, 142.2063
309.0381, 141.7085
309.5203, 140.5393
310.0024, 138.5889
310.4845, 137.0195
310.9666, 137.0060
311.4487, 138.1850
311.9308, 138.6946
312.4130, 137.8480
312.8951, 136.7075
313.3772, 136.1300
313.8593, 136.0820
314.3414, 136.4722
314.8235, 137.6316
315.3057, 139.1808
315.7878, 140.1277
316.2699, 140.2789
316.7520, 140.0776
317.2341, 139.7675
317.7162, 139.3661
318.1984, 138.8830
318.6805, 138.0942
319.1626, 137.3324
319.6447, 137.1828
320.1268, 137.7335
320.6089, 138.4651
321.0911, 139.5935
321.5732, 140.5723
322.0553, 140.4211
322.5374, 138.3406
323.0195, 136.0719
323.5016, 135.8533
323.9838, 137.7062
324.4659, 138.6620
324.9480, 136.7607
325.4301, 133.9661
325.9122, 132.7343
326.3943, 133.3774
326.8765, 134.5551
327.3586, 135.3645
327.8407, 135.8896
328.3228, 136.6242
328.8049, 137.8541
329.2870, 139.0765
329.7692, 139.8943
330.2513, 140.3175
330.7334, 140.2653
331.2155, 139.3891
331.6976, 138.0347
332.1797, 136.9784
332.6619, 136.2967
333.1440, 135.9267
333.6261, 135.9988
334.1082, 136.3552
334.5903, 136.6388
335.0724, 136.4763
335.5546, 136.3152
336.0367, 137.0058
336.5188, 138.6706
337.0009, 139.8657
337.4830, 139.5431
337.9651, 138.2319
338.4473, 136.8832
338.9294, 135.3155
339.4115, 134.1727
339.8936, 134.1863
340.3757, 135.2194
340.8578, 136.3530
341.3400, 137.6546
341.8221, 138.4269
342.3042, 137.4666
342.7863, 134.4108
343.2684, 131.7260
343.7505, 130.7189
344.2327, 130.9676
344.7148, 131.6347
345.1969, 132.7491
345.6790, 133.6963
346.1611, 133.3037
346.6432, 131.8219
347.1254, 131.1455
347.6075, 132.8508
348.0896, 135.0981
348.5717, 135.2785
349.0538, 133.1049
349.5359, 130.8440
350.0181, 130.1693
350.5002, 130.8374
350.9823, 131.4355
351.4644, 132.0835
351.9465, 132.4741
352.4286, 132.1130
352.9108, 131.1995
353.3929, 130.7720
353.8750, 131.5545
354.3571, 132.9101
354.8392, 133.1548
355.3214, 131.6944
355.8035, 130.6218
356.2856, 131.1725
356.7677, 132.5266
357.2498, 133.1092
357.7319, 132.3939
358.2141, 131.2586
358.6962, 130.8553
359.1783, 131.2366
359.6604, 131.9892
360.1425, 133.4769
360.6246, 135.0692
361.1068, 136.2052
361.5889, 136.8346
362.0710, 137.1302
362.5531, 137.2104
363.0352, 137.0649
363.5173, 136.7949
363.9995, 135.8588
364.4816, 135.3363
364.9637, 136.0807
365.4458, 137.6746
365.9279, 139.0400
366.4100, 139.6071
366.8922, 139.5906
367.3743, 139.6720
367.8564, 140.2461
368.3385, 140.3594
368.8206, 139.2121
369.3027, 137.8275
369.7849, 137.6043
370.2670, 138.8839
370.7491, 140.6051
371.2312, 141.3017
371.7133, 140.6085
372.1954, 139.8680
372.6776, 138.8048
373.1597, 137.9262
373.6418, 137.6750
374.1239, 137.9461
374.6060, 138.2225
375.0881, 138.0660
375.5703, 137.4994
376.0524, 137.2952
376.5345, 137.8438
377.0166, 138.2992
377.4987, 138.5708
377.9808, 138.6067
378.4630, 138.2769
378.9451, 137.5184
379.4272, 136.5595
379.9093, 135.9344
380.3914, 135.7099
380.8735, 135.7508
381.3557, 136.2352
381.8378, 136.8190
382.3199, 137.4205
382.8020, 137.9336
383.2841, 138.0521
383.7662, 137.3209
384.2484, 135.5585
384.7305, 134.1991
385.2126, 133.5931
385.6947, 133.0655
386.1768, 132.1742
386.6589, 131.2166
387.1411, 130.8779
387.6232, 131.6962
388.1053, 133.2332
388.5874, 133.8377
389.0695, 132.8830
389.5516, 132.1641
390.0338, 132.5996
390.5159, 133.1527
390.9980, 132.6408
391.4801, 130.7551
391.9622, 128.6961
392.4443, 128.2542
392.9265, 129.7030
393.4086, 130.0778
393.8907, 127.7284
394.3728, 125.4310
394.8549, 124.9052
395.3370, 125.8817
395.8192, 127.0772
396.3013, 127.6604
396.7834, 127.8389
397.2655, 128.4354
397.7476, 129.8069
398.2297, 130.6590
398.7119, 129.7062
399.1940, 128.0121
399.6761, 126.9529
400.1582, 127.0153
400.6403, 127.4792
401.1224, 127.5969
401.6046, 127.3987
402.0867, 127.3901
402.5688, 127.7401
403.0509, 128.3372
403.5330, 129.1969
404.0151, 130.3415
404.4973, 131.0307
404.9794, 130.2093
405.4615, 128.9273
405.9436, 129.3439
406.4257, 131.9035
406.9078, 134.5191
407.3900, 135.3878
407.8721, 134.7917
408.3542, 134.4389
408.8363, 134.3569
409.3184, 134.6253
409.8005, 135.4731
410.2827, 136.7562
410.7648, 137.9966
411.2469, 139.0096
411.7290, 139.8095
412.2111, 140.3435
412.6932, 140.3711
413.1754, 140.7574
413.6575, 142.0141
414.1396, 143.5044
414.6217, 144.4543
415.1038, 144.7737
415.5859, 145.0987
416.0681, 146.0930
416.5502, 147.8409
417.0323, 149.3461
417.5144, 150.6313
417.9965, 151.6965
418.4786, 152.2943
418.9608, 152.6971
419.4429, 153.3555
419.9250, 154.4909
420.4071, 156.1137
420.8892, 158.3096
421.3713, 161.9509
421.8535, 164.8065
422.3356, 166.6536
422.8177, 167.8830
423.2998, 168.5313
423.7819, 168.7619
424.2640, 169.0753
424.7462, 170.0730
425.2283, 171.8355
425.7104, 173.1158
426.1925, 172.8103
426.6746, 173.2422
427.1567, 175.5568
427.6389, 178.9259
428.1210, 182.1568
428.6031, 184.7525
429.0852, 186.6491
429.5673, 187.4836
430.0494, 186.8547
430.5316, 186.6212
431.0137, 187.1291
431.4958, 188.2641
431.9779, 190.5204
432.4600, 193.7287
432.9421, 196.2790
433.4243, 196.4333
433.9064, 194.8022
434.3885, 194.0742
434.8706, 194.5774
435.3527, 195.5097
435.8348, 196.8560
436.3170, 198.2058
436.7991, 198.7258
437.2812, 197.6663
437.7633, 196.4799
438.2454, 196.6060
438.7275, 197.8888
439.2097, 199.3266
439.6918, 200.7446
440.1739, 201.9097
440.6560, 202.3308
441.1381, 201.9658
441.6202, 201.7199
442.1024, 201.8309
442.5845, 202.1968
443.0666, 202.8530
443.5487, 203.7591
444.0308, 204.4278
444.5129, 204.3713
444.9951, 203.7237
445.4772, 203.7634
445.9593, 205.0530
446.4414, 206.2657
446.9235, 207.0922
447.4056, 207.5642
447.8878, 207.6502
448.3699, 207.3508
448.8520, 206.9379
449.3341, 206.8453
449.8162, 207.2596
450.2983, 207.4661
450.7805, 207.9614
451.2626, 207.8374
451.7447, 206.0527
452.2268, 203.2084
452.7089, 200.9209
453.1910, 200.3740
453.6732, 201.0310
454.1553, 200.6105
454.6374, 198.4987
455.1195, 196.2979
455.6016, 194.2850
456.0837, 192.3014
456.5659, 190.1447
457.0480, 187.7950
457.5301, 185.5829
458.0122, 184.1331
458.4943, 183.4078
458.9764, 181.6030
459.4586, 177.8379
459.9407, 174.2278
460.4228, 171.9053
460.9049, 170.4702
461.3870, 169.2936
461.8691, 168.3610
462.3513, 167.2624
462.8334, 165.2262
463.3155, 162.3075
463.7976, 159.9554
464.2797, 158.7122
464.7618, 158.1377
465.2440, 157.8351
465.7261, 157.8252
466.2082, 157.4224
466.6903, 155.6085
467.1724, 153.6968
467.6545, 153.7361
468.1367, 155.7429
468.6188, 157.3700
469.1009, 156.8415
469.5830, 154.7092
470.0651, 153.7812
470.5472, 155.7030
471.0294, 156.5932
471.5115, 154.2125
471.9936, 150.7824
472.4757, 149.3044
472.9578, 150.4768
473.4399, 152.5939
473.9221, 153.6736
474.4042, 153.5959
474.8863, 153.1214
475.3684, 151.6947
475.8505, 150.5007
476.3326, 149.9790
476.8148, 149.9920
477.2969, 150.5123
477.7790, 151.5667
478.2611, 152.4481
478.7432, 151.3255
479.2253, 147.0789
479.7075, 144.0319
480.1896, 143.7506
480.6717, 143.8983
481.1538, 143.2721
481.6359, 141.9000
482.1180, 140.4310
482.6002, 139.3338
483.0823, 138.4524
483.5644, 137.3158
484.0465, 135.8860
484.5286, 134.3390
485.0107, 132.2750
485.4929, 130.4022
485.9750, 129.8318
486.4571, 130.9985
486.9392, 131.8117
487.4213, 130.3657
487.9034, 127.7430
488.3856, 126.5911
488.8677, 127.4793
489.3498, 128.5381
489.8319, 128.0664
490.3140, 126.1794
490.7961, 124.9333
491.2783, 124.8082
491.7604, 124.7978
492.2425, 124.2919
492.7246, 123.6040
493.2067, 123.5121
493.6888, 124.2911
494.1710, 125.1339
494.6531, 124.7038
495.1352, 122.3467
495.6173, 120.7775
496.0994, 120.3284
496.5815, 120.2205
497.0637, 120.3094
497.5458, 120.4285
498.0279, 120.2882
498.5100, 119.6970
498.9921, 118.8954
499.4742, 118.5908
499.9564, 119.2299
500.4385, 119.2170
500.9206, 117.6781
501.4027, 115.9357
501.8848, 114.6256
502.3669, 113.8416
502.8491, 113.5890
503.3312, 114.1646
503.8133, 115.2057
504.2954, 115.5664
504.7775, 115.0191
505.2596, 114.8972
505.7418, 116.3136
506.2239, 118.2353
506.7060, 119.1948
507.1881, 118.9924
507.6702, 118.3486
508.1523, 117.0840
508.6345, 115.7849
509.1166, 115.6697
509.5987, 116.9214
510.0808, 118.2240
510.5629, 118.4322
511.0450, 117.6717
511.5272, 117.4918
512.0093, 118.4609
512.4914, 119.2519
512.9735, 119.5057
513.4556, 119.3507
513.9377, 118.8726
514.4199, 118.1327
514.9020, 117.3119
515.3841, 116.5719
515.8662, 115.8180
516.3483, 115.7991
516.8304, 117.5706
517.3126, 118.9660
517.7947, 119.1104
518.2768, 118.5757
518.7589, 118.3009
519.2410, 118.6779
519.7231, 119.1039
520.2053, 118.4948
520.6874, 116.7371
521.1695, 115.6502
521.6516, 115.7235
522.1337, 116.2217
522.6158, 116.8954
523.0980, 117.5776
523.5801, 117.7356
524.0622, 116.5473
524.5443, 115.3816
525.0264, 115.9187
525.5085, 117.8941
525.9907, 119.7894
526.4728, 121.1810
526.9549, 122.0591
527.4370, 122.3075
527.9191, 121.8454
528.4012, 121.3457
528.8834, 120.7576
529.3655, 120.2518
529.8476, 119.8511
530.3297, 119.6264
530.8118, 119.8132
531.2939, 120.5667
531.7761, 121.6172
532.2582, 122.2576
532.7403, 122.1234
533.2224, 122.2432
533.7045, 122.5525
534.1866, 123.1485
534.6688, 124.3766
535.1509, 125.9734
535.6330, 127.2025
536.1151, 127.5133
536.5972, 127.2254
537.0793, 127.3369
537.5615, 128.1167
538.0436, 128.1584
538.5257, 126.1943
539.0078, 123.9961
539.4899, 123.1530
539.9720, 123.6668
540.4542, 124.4542
540.9363, 125.1786
541.4184, 125.7751
541.9005, 126.1667
542.3826, 126.3489
542.8647, 126.2311
543.3469, 125.5946
543.8290, 124.8018
544.3111, 124.8675
544.7932, 126.1618
545.2753, 127.2945
545.7574, 128.5173
546.2396, 129.1881
546.7217, 128.4680
547.2038, 126.5649
547.6859, 124.4710
548.1680, 122.8315
548.6501, 121.6413
549.1323, 120.8977
549.6144, 120.7886
550.0965, 120.8313
550.5786, 121.3373
551.0607, 121.6777
551.5428, 121.0112
552.0250, 119.5647
552.5071, 118.7104
552.9892, 119.9133
553.4713, 122.2899
553.9534, 123.1302
554.4355, 122.1350
554.9177, 121.1079
555.3998, 120.9191
555.8819, 120.9385
556.3640, 120.2648
556.8461, 118.7998
557.3282, 117.3567
557.8104, 115.9944
558.2925, 114.9616
558.7746, 114.7849
559.2567, 115.3647
559.7388, 115.8066
560.2209, 115.5361
560.7031, 114.8066
561.1852, 114.4320
561.6673, 115.2793
562.1494, 115.2248
562.6315, 113.1088
563.1136, 110.9685
563.5958, 110.5352
564.0779, 111.5486
564.5600, 112.5604
565.0421, 112.5706
565.5242, 111.7868
566.0063, 110.8150
566.4885, 109.5071
566.9706, 108.4572
567.4527, 107.8439
567.9348, 107.5279
568.4169, 107.6526
568.8990, 108.1052
569.3812, 108.2033
569.8633, 107.2668
570.3454, 105.9387
570.8275, 105.0513
571.3096, 104.6139
571.7917, 104.7337
572.2739, 105.7543
572.7560, 106.8770
573.2381, 106.4893
573.7202, 104.0847
574.2023, 102.2726
574.6844, 101.5147
575.1666, 101.2229
575.6487, 101.1179
576.1308, 101.1350
576.6129, 101.2574
577.0950, 101.4838
577.5771, 101.7261
578.0593, 101.8184
578.5414, 101.8253
579.0235, 101.5006
579.5056, 100.1509
579.9877, 99.10357
580.4698, 99.39468
580.9520, 100.4395
581.4341, 100.7407
581.9162, 99.27859
582.3983, 97.52688
582.8804, 97.80615
583.3625, 99.88259
583.8447, 101.2326
584.3268, 101.2087
584.8089, 100.4493
585.2910, 99.30839
585.7731, 97.86268
586.2552, 96.94875
586.7374, 97.06850
587.2195, 97.28791
587.7016, 96.89397
588.1837, 96.33176
588.6658, 96.55701
589.1479, 97.81184
589.6301, 99.22254
590.1122, 99.67252
590.5943, 99.03329
591.0764, 98.65645
591.5585, 99.06011
592.0406, 99.11010
592.5228, 98.16964
593.0049, 96.90820
593.4870, 96.07713
593.9691, 95.87040
594.4512, 96.06593
594.9333, 96.73122
595.4155, 97.66994
595.8976, 97.95031
596.3797, 97.41335
596.8618, 96.68967
597.3439, 96.00899
597.8260, 95.44961
598.3082, 95.20866
598.7903, 95.48940
599.2724, 95.57571
599.7545, 94.74316
600.2366, 93.90776
600.7188, 94.29998
601.2009, 95.81065
601.6830, 97.28213
602.1651, 97.96952
602.6472, 97.94841
603.1293, 97.42747
603.6115, 95.82661
604.0936, 94.80563
604.5757, 94.62088
605.0578, 94.85049
605.5399, 95.36062
606.0220, 96.06803
606.5042, 96.88232
606.9863, 97.89861
607.4684, 98.76697
607.9505, 98.67886
608.4326, 97.66902
608.9147, 97.24970
609.3969, 98.13878
609.8790, 99.14012
610.3611, 98.79801
610.8432, 97.23508
611.3253, 95.92072
611.8074, 94.69157
612.2896, 94.07575
612.7717, 95.00617
613.2538, 96.55334
613.7359, 97.00073
614.2180, 95.89529
614.7001, 94.36126
615.1823, 93.73046
615.6644, 94.05218
616.1465, 94.20861
616.6286, 93.49964
617.1107, 93.63431
617.5928, 96.00942
618.0750, 98.82729
618.5571, 100.2288
619.0392, 99.86973
619.5213, 98.75096
620.0034, 97.02512
620.4855, 95.22677
620.9677, 94.76328
621.4498, 95.73382
621.9319, 96.79353
622.4140, 97.43830
622.8961, 97.60494
623.3782, 96.93907
623.8604, 94.90386
624.3425, 93.82921
624.8246, 95.10775
625.3067, 96.42894
625.7888, 95.79583
626.2709, 93.93434
626.7531, 92.95583
627.2352, 93.92078
627.7173, 95.69946
628.1994, 96.11085
628.6815, 94.80739
629.1636, 94.09036
629.6458, 94.52003
630.1279, 94.98806
630.6100, 94.70347
631.0921, 94.13219
631.5742, 94.18495
632.0563, 95.30383
632.5385, 96.41470
633.0206, 96.64819
633.5027, 96.34988
633.9848, 96.22422
634.4669, 96.36987
634.9490, 96.40800
635.4312, 95.94751
635.9133, 95.22587
636.3954, 95.37732
636.8775, 97.78233
637.3596, 99.20166
637.8417, 99.05246
638.3239, 98.27672
638.8060, 97.02775
639.2881, 95.72637
639.7702, 95.39620
640.2523, 96.88400
640.7344, 99.06767
641.2166, 99.59686
641.6987, 98.38592
642.1808, 97.59165
642.6629, 97.94091
643.1450, 98.30193
643.6271, 97.31470
644.1093, 95.41396
644.5914, 94.24133
645.0735, 94.58260
645.5556, 95.05526
646.0377, 94.86600
646.5198, 94.47737
647.0020, 94.69864
647.4841, 95.59763
647.9662, 96.44061
648.4483, 96.58179
648.9304, 96.08521
649.4125, 95.32211
649.8947, 93.81570
650.3768, 92.96732
650.8589, 93.59708
651.3410, 94.47277
651.8231, 94.75957
652.3052, 94.47544
652.7874, 94.07912
653.2695, 93.52620
653.7516, 93.23527
654.2337, 94.18349
654.7158, 95.98177
655.1979, 96.69303
655.6801, 95.65826
656.1622, 94.01970
656.6443, 92.94444
657.1264, 92.45005
657.6085, 92.26901
658.0906, 92.67294
658.5728, 93.00448
659.0549, 93.18470
