##NAMES=Kottigite
##RRUFFID=R110032
##IDEAL CHEMISTRY=Zn^2+^_3_(As^5+^O_4_)_2_&#183;8H_2_O
##LOCALITY=44 level, Tsumeb mine, Tsumeb, Namibia
##OWNER=RRUFF
##SOURCE=William W Pinch
##DESCRIPTION=Bundles of gray acicular crystals associated with ludlockite
##STATUS=The identification of this mineral has been confirmed only by single crystal X-ray diffraction.
##URL=rruff.info/R110032
179.8309, 277.9771
180.3130, 276.3197
180.7951, 270.3177
181.2772, 266.7905
181.7593, 267.4563
182.2415, 269.1426
182.7236, 269.4593
183.2057, 267.8703
183.6878, 265.5564
184.1699, 264.2856
184.6520, 264.5747
185.1342, 265.0722
185.6163, 266.1490
186.0984, 267.2655
186.5805, 267.7828
187.0626, 267.4937
187.5447, 266.8063
188.0269, 266.5309
188.5090, 267.0126
188.9911, 266.5656
189.4732, 263.1653
189.9553, 258.8367
190.4374, 257.7728
190.9196, 262.1912
191.4017, 267.9610
191.8838, 268.4319
192.3659, 263.2893
192.8480, 258.9764
193.3301, 259.8231
193.8123, 264.2304
194.2944, 265.9522
194.7765, 261.7562
195.2586, 256.3705
195.7407, 255.4303
196.2228, 259.0232
196.7050, 262.1012
197.1871, 259.7344
197.6692, 252.2717
198.1513, 247.7126
198.6334, 249.7236
199.1155, 253.5244
199.5977, 256.5037
200.0798, 258.3619
200.5619, 258.9116
201.0440, 257.7568
201.5261, 254.6922
202.0082, 251.2247
202.4904, 246.2934
202.9725, 241.8886
203.4546, 238.8042
203.9367, 237.2318
204.4188, 237.1635
204.9009, 239.1395
205.3831, 244.4355
205.8652, 247.7819
206.3473, 247.4305
206.8294, 246.4431
207.3115, 246.2567
207.7936, 247.2408
208.2758, 249.1862
208.7579, 252.0022
209.2400, 256.7123
209.7221, 259.9431
210.2042, 261.1910
210.6863, 261.5975
211.1685, 262.0141
211.6506, 262.5744
212.1327, 262.7225
212.6148, 261.5296
213.0969, 257.7280
213.5790, 255.3173
214.0612, 255.4868
214.5433, 256.2068
215.0254, 255.5615
215.5075, 253.1969
215.9896, 250.6278
216.4717, 250.2347
216.9539, 253.9646
217.4360, 254.9788
217.9181, 250.2937
218.4002, 244.2738
218.8823, 241.8254
219.3644, 244.1674
219.8466, 247.5515
220.3287, 246.3286
220.8108, 239.2911
221.2929, 234.6652
221.7750, 235.5197
222.2571, 238.6109
222.7393, 239.6880
223.2214, 237.6639
223.7035, 234.8821
224.1856, 235.0318
224.6677, 237.8945
225.1498, 238.5910
225.6320, 233.4309
226.1141, 225.9231
226.5962, 222.1764
227.0783, 223.8850
227.5604, 227.2849
228.0425, 229.1437
228.5247, 229.6806
229.0068, 229.2434
229.4889, 227.4294
229.9710, 224.7747
230.4531, 222.1924
230.9352, 219.2669
231.4174, 217.5882
231.8995, 218.9979
232.3816, 222.5953
232.8637, 226.0261
233.3458, 228.2871
233.8279, 229.5216
234.3101, 230.2196
234.7922, 230.3954
235.2743, 229.9357
235.7564, 228.6992
236.2385, 226.8902
236.7206, 224.8549
237.2028, 222.4671
237.6849, 219.9961
238.1670, 218.5908
238.6491, 218.6099
239.1312, 219.2872
239.6133, 221.1179
240.0955, 223.1984
240.5776, 223.8914
241.0597, 221.7309
241.5418, 217.5403
242.0239, 215.5094
242.5060, 217.7496
242.9882, 219.3081
243.4703, 217.8177
243.9524, 214.9662
244.4345, 213.3835
244.9166, 214.8042
245.3987, 218.3906
245.8809, 220.1274
246.3630, 218.5978
246.8451, 216.8758
247.3272, 215.3214
247.8093, 214.0339
248.2914, 213.2004
248.7736, 212.9616
249.2557, 213.0852
249.7378, 212.6198
250.2199, 210.9688
250.7020, 209.4227
251.1841, 208.0226
251.6663, 206.8630
252.1484, 206.0201
252.6305, 205.5231
253.1126, 205.4065
253.5947, 205.8042
254.0768, 208.1590
254.5590, 209.2217
255.0411, 207.5291
255.5232, 204.9521
256.0053, 203.5950
256.4874, 204.3489
256.9695, 206.4850
257.4517, 208.2416
257.9338, 209.3622
258.4159, 210.3667
258.8980, 211.9088
259.3801, 213.0598
259.8622, 212.5162
260.3444, 209.8671
260.8265, 206.2861
261.3086, 203.9387
261.7907, 202.7901
262.2728, 203.2358
262.7549, 207.4806
263.2371, 212.2554
263.7192, 214.0084
264.2013, 211.8480
264.6834, 207.8682
265.1655, 205.1270
265.6476, 204.3338
266.1298, 203.1739
266.6119, 200.7560
267.0940, 198.4139
267.5761, 197.3717
268.0582, 197.8657
268.5403, 199.4962
269.0225, 202.2410
269.5046, 206.7547
269.9867, 208.6600
270.4688, 205.6153
270.9509, 201.3123
271.4330, 198.9606
271.9152, 198.9151
272.3973, 199.4512
272.8794, 198.8951
273.3615, 197.1519
273.8436, 196.1658
274.3257, 195.5904
274.8079, 196.0392
275.2900, 199.0145
275.7721, 204.3027
276.2542, 208.4374
276.7363, 208.3391
277.2184, 204.4352
277.7006, 202.1454
278.1827, 203.4766
278.6648, 204.8480
279.1469, 202.9986
279.6290, 198.3734
280.1111, 194.7794
280.5933, 194.8882
281.0754, 197.7130
281.5575, 199.2983
282.0396, 199.0519
282.5217, 198.3118
283.0038, 197.7029
283.4860, 197.2367
283.9681, 196.9525
284.4502, 196.8323
284.9323, 196.9648
285.4144, 197.6245
285.8965, 199.3114
286.3787, 200.3317
286.8608, 199.3097
287.3429, 196.7502
287.8250, 194.5223
288.3071, 193.4093
288.7892, 192.6381
289.2714, 190.8445
289.7535, 187.8292
290.2356, 185.4539
290.7177, 184.7541
291.1998, 185.3537
291.6819, 186.4185
292.1641, 188.0791
292.6462, 189.5462
293.1283, 189.8902
293.6104, 189.2400
294.0925, 188.2801
294.5746, 186.1419
295.0568, 184.0654
295.5389, 185.3450
296.0210, 191.5941
296.5031, 197.5009
296.9852, 197.5415
297.4673, 193.4740
297.9495, 189.6616
298.4316, 187.5862
298.9137, 186.5483
299.3958, 185.2809
299.8779, 183.4980
300.3600, 182.7803
300.8422, 185.5671
301.3243, 189.9638
301.8064, 192.6044
302.2885, 191.9544
302.7706, 190.0598
303.2527, 189.1409
303.7349, 189.2394
304.2170, 189.7015
304.6991, 190.6757
305.1812, 191.6095
305.6633, 191.5854
306.1454, 190.0614
306.6276, 188.6436
307.1097, 189.1385
307.5918, 191.4061
308.0739, 192.9783
308.5560, 192.7856
309.0381, 191.7179
309.5203, 190.9648
310.0024, 190.6188
310.4845, 189.8730
310.9666, 187.2458
311.4487, 183.4182
311.9308, 182.1232
312.4130, 185.4011
312.8951, 189.5188
313.3772, 191.4375
313.8593, 191.3005
314.3414, 189.6008
314.8235, 185.2780
315.3057, 179.6223
315.7878, 175.8599
316.2699, 174.3554
316.7520, 174.5962
317.2341, 177.8308
317.7162, 182.5289
318.1984, 185.1640
318.6805, 182.9035
319.1626, 178.5688
319.6447, 176.8222
320.1268, 178.1560
320.6089, 179.5980
321.0911, 178.8786
321.5732, 177.4053
322.0553, 177.2912
322.5374, 179.6189
323.0195, 182.3298
323.5016, 183.1057
323.9838, 181.9365
324.4659, 180.8928
324.9480, 181.0799
325.4301, 181.5412
325.9122, 180.9598
326.3943, 179.0429
326.8765, 177.2475
327.3586, 176.3651
327.8407, 176.4119
328.3228, 177.8872
328.8049, 182.2785
329.2870, 186.1499
329.7692, 185.4431
330.2513, 180.5799
330.7334, 176.0370
331.2155, 174.2674
331.6976, 174.3416
332.1797, 174.0431
332.6619, 172.9542
333.1440, 172.0295
333.6261, 172.3080
334.1082, 173.3706
334.5903, 174.2823
335.0724, 174.9184
335.5546, 175.1740
336.0367, 175.2039
336.5188, 175.1143
337.0009, 173.5171
337.4830, 167.5992
337.9651, 160.2932
338.4473, 157.1943
338.9294, 160.3048
339.4115, 165.5038
339.8936, 170.3156
340.3757, 174.6722
340.8578, 177.8872
341.3400, 179.6407
341.8221, 180.1103
342.3042, 179.5533
342.7863, 177.7674
343.2684, 176.1402
343.7505, 175.5877
344.2327, 175.6860
344.7148, 175.2207
345.1969, 173.6476
345.6790, 172.2463
346.1611, 172.9208
346.6432, 175.3210
347.1254, 177.4334
347.6075, 179.1059
348.0896, 180.0320
348.5717, 179.2042
349.0538, 176.4492
349.5359, 174.3811
350.0181, 175.6799
350.5002, 179.3666
350.9823, 180.8826
351.4644, 177.1530
351.9465, 173.6080
352.4286, 175.0528
352.9108, 180.3537
353.3929, 183.8868
353.8750, 182.3856
354.3571, 177.9556
354.8392, 175.9375
355.3214, 177.1008
355.8035, 178.4898
356.2856, 179.0249
356.7677, 179.0841
357.2498, 179.3506
357.7319, 180.0325
358.2141, 180.8872
358.6962, 181.6453
359.1783, 182.3368
359.6604, 182.7513
360.1425, 183.3759
360.6246, 183.4001
361.1068, 181.2042
361.5889, 176.9149
362.0710, 173.6556
362.5531, 174.3924
363.0352, 179.0795
363.5173, 181.9713
363.9995, 181.2318
364.4816, 180.7065
364.9637, 182.8865
365.4458, 186.7888
365.9279, 189.8431
366.4100, 190.7302
366.8922, 189.8336
367.3743, 188.2805
367.8564, 185.1603
368.3385, 182.7083
368.8206, 181.1911
369.3027, 180.4937
369.7849, 180.7679
370.2670, 181.9966
370.7491, 183.4702
371.2312, 184.2051
371.7133, 183.9449
372.1954, 183.6212
372.6776, 184.2724
373.1597, 184.0257
373.6418, 180.3659
374.1239, 174.3033
374.6060, 169.9511
375.0881, 170.9426
375.5703, 177.0422
376.0524, 179.9595
376.5345, 176.2039
377.0166, 173.3583
377.4987, 173.8372
377.9808, 176.0963
378.4630, 177.9974
378.9451, 178.5621
379.4272, 177.8774
379.9093, 175.9713
380.3914, 171.0496
380.8735, 167.9655
381.3557, 168.7018
381.8378, 169.8604
382.3199, 168.1036
382.8020, 163.4587
383.2841, 159.3273
383.7662, 160.0333
384.2484, 166.6236
384.7305, 170.7125
385.2126, 169.6163
385.6947, 168.5100
386.1768, 169.3319
386.6589, 171.3657
387.1411, 172.9257
387.6232, 172.9434
388.1053, 171.8463
388.5874, 171.2159
389.0695, 171.5165
389.5516, 171.3937
390.0338, 170.2702
390.5159, 168.7921
390.9980, 167.4561
391.4801, 166.4057
391.9622, 165.6910
392.4443, 165.7060
392.9265, 166.6435
393.4086, 166.3813
393.8907, 162.9347
394.3728, 159.8769
394.8549, 159.7289
395.3370, 161.9138
395.8192, 163.9605
396.3013, 164.0116
396.7834, 162.7262
397.2655, 162.2318
397.7476, 162.5948
398.2297, 163.5853
398.7119, 165.5110
399.1940, 167.8599
399.6761, 170.1439
400.1582, 172.5563
400.6403, 174.1681
401.1224, 173.5474
401.6046, 170.8354
402.0867, 168.5140
402.5688, 167.2732
403.0509, 166.8264
403.5330, 167.0339
404.0151, 167.9275
404.4973, 168.2770
404.9794, 166.4088
405.4615, 163.9657
405.9436, 164.2677
406.4257, 167.9765
406.9078, 172.0713
407.3900, 173.8575
407.8721, 173.8434
408.3542, 174.8741
408.8363, 179.4232
409.3184, 183.0137
409.8005, 182.2872
410.2827, 178.0565
410.7648, 172.5904
411.2469, 166.1799
411.7290, 160.4992
412.2111, 160.0818
412.6932, 167.0053
413.1754, 173.0435
413.6575, 177.0806
414.1396, 179.4087
414.6217, 179.7208
415.1038, 178.1780
415.5859, 176.5003
416.0681, 176.4766
416.5502, 178.3269
417.0323, 179.4297
417.5144, 179.3506
417.9965, 179.1103
418.4786, 179.1934
418.9608, 179.4109
419.4429, 179.2654
419.9250, 178.4770
420.4071, 177.3774
420.8892, 176.8574
421.3713, 176.7756
421.8535, 177.6114
422.3356, 180.3394
422.8177, 183.2542
423.2998, 184.8631
423.7819, 185.1022
424.2640, 185.1053
424.7462, 186.1419
425.2283, 188.3337
425.7104, 189.7861
426.1925, 189.4861
426.6746, 189.5242
427.1567, 191.0229
427.6389, 193.1285
428.1210, 194.6817
428.6031, 195.2432
429.0852, 194.5236
429.5673, 190.9032
430.0494, 182.4839
430.5316, 177.9712
431.0137, 183.8046
431.4958, 191.3349
431.9779, 195.3017
432.4600, 195.3384
432.9421, 194.0122
433.4243, 192.4191
433.9064, 190.8973
434.3885, 191.3665
434.8706, 195.0941
435.3527, 198.0550
435.8348, 196.5737
436.3170, 192.7637
436.7991, 190.0527
437.2812, 189.4715
437.7633, 189.9747
438.2454, 191.1102
438.7275, 192.7063
439.2097, 193.4260
439.6918, 192.5084
440.1739, 190.9582
440.6560, 190.1779
441.1381, 190.1158
441.6202, 190.6136
442.1024, 191.9877
442.5845, 193.7032
443.0666, 195.4067
443.5487, 196.9960
444.0308, 197.7323
444.5129, 196.6278
444.9951, 194.0910
445.4772, 193.9097
445.9593, 199.8441
446.4414, 203.4320
446.9235, 200.2593
447.4056, 193.6637
447.8878, 188.2580
448.3699, 185.6569
448.8520, 185.4716
449.3341, 187.5214
449.8162, 193.8152
450.2983, 196.4197
450.7805, 192.2376
451.2626, 187.8046
451.7447, 186.5493
452.2268, 187.9708
452.7089, 189.9067
453.1910, 190.9550
453.6732, 191.3062
454.1553, 191.8013
454.6374, 192.9700
455.1195, 193.3237
455.6016, 192.6103
456.0837, 191.1311
456.5659, 188.4567
457.0480, 184.7697
457.5301, 182.0076
458.0122, 182.9610
458.4943, 187.5295
458.9764, 190.2458
459.4586, 190.6740
459.9407, 189.5063
460.4228, 186.1892
460.9049, 181.8807
461.3870, 178.6770
461.8691, 177.5002
462.3513, 177.4027
462.8334, 177.5886
463.3155, 178.0283
463.7976, 177.9528
464.2797, 177.1348
464.7618, 175.6563
465.2440, 173.1314
465.7261, 169.4800
466.2082, 167.2600
466.6903, 168.3738
467.1724, 170.8083
467.6545, 172.1763
468.1367, 172.3107
468.6188, 172.0535
469.1009, 171.7901
469.5830, 171.6351
470.0651, 172.1663
470.5472, 174.8030
471.0294, 176.2488
471.5115, 174.3318
471.9936, 171.3195
472.4757, 170.4107
472.9578, 172.3104
473.4399, 174.8010
473.9221, 175.0372
474.4042, 172.2879
474.8863, 171.5727
475.3684, 176.0205
475.8505, 178.9498
476.3326, 176.7393
476.8148, 171.5453
477.2969, 167.1137
477.7790, 165.2870
478.2611, 165.0494
478.7432, 164.0721
479.2253, 161.4331
479.7075, 160.7173
480.1896, 165.0236
480.6717, 169.1171
481.1538, 169.3154
481.6359, 166.3468
482.1180, 164.1736
482.6002, 166.4684
483.0823, 171.1837
483.5644, 172.0241
484.0465, 167.8435
484.5286, 163.9531
485.0107, 162.5815
485.4929, 162.8577
485.9750, 164.0799
486.4571, 166.4318
486.9392, 168.4178
487.4213, 169.3233
487.9034, 169.1814
488.3856, 167.7499
488.8677, 164.8262
489.3498, 161.8571
489.8319, 160.1997
490.3140, 159.7453
490.7961, 158.7261
491.2783, 156.0589
491.7604, 153.9667
492.2425, 153.8465
492.7246, 154.9351
493.2067, 155.7301
493.6888, 155.7000
494.1710, 155.5538
494.6531, 156.5520
495.1352, 159.6922
495.6173, 160.7068
496.0994, 157.7663
496.5815, 154.7982
497.0637, 153.3744
497.5458, 153.4510
498.0279, 154.9128
498.5100, 157.8971
498.9921, 161.1705
499.4742, 161.2854
499.9564, 156.5844
500.4385, 152.9178
500.9206, 151.5965
501.4027, 151.1423
501.8848, 150.8746
502.3669, 150.6978
502.8491, 150.6681
503.3312, 150.6740
503.8133, 150.8866
504.2954, 152.0730
504.7775, 154.5747
505.2596, 156.3943
505.7418, 156.2470
506.2239, 155.0420
506.7060, 154.0257
507.1881, 153.2260
507.6702, 152.7695
508.1523, 153.0922
508.6345, 153.6792
509.1166, 153.5990
509.5987, 152.7115
510.0808, 151.5672
510.5629, 150.4270
511.0450, 149.3856
511.5272, 149.3363
512.0093, 151.5171
512.4914, 153.0831
512.9735, 152.8684
513.4556, 151.7059
513.9377, 150.4257
514.4199, 149.3566
514.9020, 148.9551
515.3841, 150.2230
515.8662, 153.8837
516.3483, 154.2317
516.8304, 146.2814
517.3126, 140.2785
517.7947, 140.5309
518.2768, 144.1151
518.7589, 146.7624
519.2410, 146.7884
519.7231, 145.3264
520.2053, 143.8152
520.6874, 142.2561
521.1695, 140.6106
521.6516, 138.4557
522.1337, 136.7818
522.6158, 135.9762
523.0980, 136.0897
523.5801, 137.3902
524.0622, 141.2119
524.5443, 145.0341
525.0264, 145.7332
525.5085, 143.8188
525.9907, 142.1844
526.4728, 141.7400
526.9549, 142.2318
527.4370, 143.8509
527.9191, 147.1822
528.4012, 147.9843
528.8834, 143.6140
529.3655, 138.4912
529.8476, 135.1208
530.3297, 133.5933
530.8118, 133.7346
531.2939, 135.5629
531.7761, 138.2569
532.2582, 139.7515
532.7403, 139.7734
533.2224, 138.9931
533.7045, 135.8002
534.1866, 133.3243
534.6688, 134.5637
535.1509, 138.3118
535.6330, 140.4797
536.1151, 137.7981
536.5972, 132.5279
537.0793, 131.0627
537.5615, 134.4047
538.0436, 137.4755
538.5257, 139.0331
539.0078, 139.5137
539.4899, 139.0936
539.9720, 137.8363
540.4542, 136.4573
540.9363, 134.8939
541.4184, 133.6207
541.9005, 133.7384
542.3826, 135.1736
542.8647, 135.9662
543.3469, 134.9063
543.8290, 132.7466
544.3111, 131.5153
544.7932, 131.9406
545.2753, 131.4698
545.7574, 128.3656
546.2396, 125.2012
546.7217, 124.5309
547.2038, 126.1028
547.6859, 127.8886
548.1680, 128.5082
548.6501, 128.1212
549.1323, 127.3293
549.6144, 125.2768
550.0965, 124.3629
550.5786, 126.4013
551.0607, 128.3307
551.5428, 127.5191
552.0250, 124.1599
552.5071, 120.6402
552.9892, 118.1094
553.4713, 116.8887
553.9534, 118.6654
554.4355, 124.3105
554.9177, 128.4914
555.3998, 128.5029
555.8819, 126.3123
556.3640, 124.2020
556.8461, 121.9895
557.3282, 121.6362
557.8104, 126.3012
558.2925, 131.8259
558.7746, 132.4163
559.2567, 128.3548
559.7388, 124.9852
560.2209, 125.8463
560.7031, 129.1437
561.1852, 129.1299
561.6673, 120.6554
562.1494, 116.1498
562.6315, 118.4725
563.1136, 122.7005
563.5958, 126.1563
564.0779, 128.2330
564.5600, 128.4870
565.0421, 126.2107
565.5242, 122.5947
566.0063, 122.1622
566.4885, 126.6814
566.9706, 129.2194
567.4527, 126.3589
567.9348, 122.2506
568.4169, 119.3016
568.8990, 117.6851
569.3812, 116.9958
569.8633, 117.6026
570.3454, 118.7281
570.8275, 119.2991
571.3096, 119.3246
571.7917, 119.0915
572.2739, 118.6839
572.7560, 118.1226
573.2381, 117.1472
573.7202, 115.1094
574.2023, 115.1652
574.6844, 120.4239
575.1666, 125.4247
575.6487, 125.9998
576.1308, 123.1505
576.6129, 120.0040
577.0950, 118.1540
577.5771, 117.2074
578.0593, 116.2403
578.5414, 114.9641
579.0235, 114.4612
579.5056, 116.3590
579.9877, 117.5618
580.4698, 115.7896
580.9520, 112.2616
581.4341, 109.7812
581.9162, 109.5425
582.3983, 111.0188
582.8804, 114.6631
583.3625, 120.0827
583.8447, 122.7479
584.3268, 121.1722
584.8089, 117.5530
585.2910, 113.1132
585.7731, 108.1243
586.2552, 105.5994
586.7374, 107.7314
587.2195, 110.3670
587.7016, 111.3756
588.1837, 111.4183
588.6658, 111.7052
589.1479, 112.6040
589.6301, 113.7747
590.1122, 114.9774
590.5943, 116.3759
591.0764, 116.1428
591.5585, 111.9090
592.0406, 108.8025
592.5228, 108.7053
593.0049, 110.0549
593.4870, 111.1044
593.9691, 111.3917
594.4512, 111.3235
594.9333, 111.0249
595.4155, 110.6521
595.8976, 111.0126
596.3797, 112.3143
596.8618, 113.6345
597.3439, 114.6273
597.8260, 115.1702
598.3082, 114.9502
598.7903, 113.4172
599.2724, 112.5141
599.7545, 113.8250
600.2366, 115.4817
600.7188, 115.0477
601.2009, 112.7045
601.6830, 110.7106
602.1651, 110.6026
602.6472, 111.9562
603.1293, 113.3646
603.6115, 116.0030
604.0936, 116.4274
604.5757, 111.5679
605.0578, 107.1553
605.5399, 107.6438
606.0220, 111.8261
606.5042, 114.9807
606.9863, 113.9302
607.4684, 111.2810
607.9505, 111.4262
608.4326, 114.2968
608.9147, 117.2325
609.3969, 120.0803
609.8790, 121.7748
610.3611, 120.3503
610.8432, 116.1291
611.3253, 113.2477
611.8074, 112.3787
612.2896, 112.6956
612.7717, 114.9863
613.2538, 117.8235
613.7359, 118.6206
614.2180, 116.6959
614.7001, 113.7165
615.1823, 111.4947
615.6644, 110.0234
616.1465, 109.4946
616.6286, 110.7021
617.1107, 111.7833
617.5928, 112.5318
618.0750, 112.7802
618.5571, 111.8730
619.0392, 109.7979
619.5213, 108.5394
620.0034, 110.7291
620.4855, 114.5315
620.9677, 115.6609
621.4498, 113.8776
621.9319, 111.2968
622.4140, 108.6673
622.8961, 106.1767
623.3782, 104.0391
623.8604, 101.7015
624.3425, 101.3468
624.8246, 105.4471
625.3067, 109.6366
625.7888, 110.5585
626.2709, 109.1423
626.7531, 108.3646
627.2352, 109.7152
627.7173, 111.6360
628.1994, 110.8168
628.6815, 106.3868
629.1636, 104.0796
629.6458, 105.2657
630.1279, 107.3048
630.6100, 109.6518
631.0921, 111.6796
631.5742, 112.0109
632.0563, 109.7231
632.5385, 107.4751
633.0206, 107.9914
633.5027, 109.7019
633.9848, 108.8136
634.4669, 104.8677
634.9490, 101.8070
635.4312, 102.8189
635.9133, 106.8373
636.3954, 108.8115
636.8775, 105.5436
637.3596, 104.5183
637.8417, 108.3850
638.3239, 112.5932
638.8060, 113.6600
639.2881, 112.0476
639.7702, 110.2376
640.2523, 109.5993
640.7344, 109.8911
641.2166, 111.1266
641.6987, 113.4091
642.1808, 114.1260
642.6629, 111.8756
643.1450, 109.3893
643.6271, 109.4375
644.1093, 111.3588
644.5914, 112.8400
645.0735, 113.9989
645.5556, 114.1595
646.0377, 111.8673
646.5198, 108.8536
647.0020, 108.2222
647.4841, 110.2116
647.9662, 111.6870
648.4483, 109.5940
648.9304, 104.6529
649.4125, 101.9115
649.8947, 102.0079
650.3768, 103.2115
650.8589, 106.4950
651.3410, 109.7089
651.8231, 111.3550
652.3052, 111.4811
652.7874, 110.9859
653.2695, 109.8921
653.7516, 108.8065
654.2337, 108.7385
654.7158, 109.4186
655.1979, 109.6565
655.6801, 109.1412
656.1622, 107.8123
656.6443, 105.0135
657.1264, 100.4835
657.6085, 99.88063
658.0906, 108.1112
658.5728, 113.5706
659.0549, 111.1857
659.5370, 106.1121
660.0191, 103.8224
660.5012, 104.9986
660.9833, 106.6108
661.4655, 105.9173
661.9476, 103.9171
662.4297, 104.0796
662.9118, 106.7667
663.3939, 108.7221
663.8760, 108.7071
664.3582, 107.8277
664.8403, 107.3110
665.3224, 107.1240
665.8045, 106.8753
666.2866, 106.3851
666.7687, 105.9412
667.2509, 105.9981
667.7330, 106.1130
668.2151, 105.3319
668.6972, 103.5123
669.1793, 101.7592
669.6614, 101.3182
670.1436, 102.0606
670.6257, 102.0684
671.1078, 100.8902
671.5899, 99.91152
672.0720, 98.82015
672.5541, 98.57494
673.0363, 101.2471
673.5184, 106.3395
674.0005, 108.6867
674.4826, 103.2990
674.9647, 96.41653
675.4468, 94.38953
675.9290, 96.06869
676.4111, 98.01768
676.8932, 99.18069
