##NAMES=Kottigite
##RRUFFID=R110032
##IDEAL CHEMISTRY=Zn^2+^_3_(As^5+^O_4_)_2_&#183;8H_2_O
##LOCALITY=44 level, Tsumeb mine, Tsumeb, Namibia
##OWNER=RRUFF
##SOURCE=William W Pinch
##DESCRIPTION=Bundles of gray acicular crystals associated with ludlockite
##STATUS=The identification of this mineral has been confirmed only by single crystal X-ray diffraction.
##URL=rruff.info/R110032
178.7195, 223.5186
179.2017, 221.3627
179.6838, 217.6372
180.1659, 217.7588
180.6480, 221.9815
181.1301, 226.5561
181.6122, 227.6719
182.0944, 226.1042
182.5765, 224.3436
183.0586, 222.7653
183.5407, 221.8344
184.0228, 222.8557
184.5049, 226.0410
184.9871, 229.8638
185.4692, 232.6724
185.9513, 234.5757
186.4334, 235.9687
186.9155, 237.0673
187.3976, 237.8210
187.8798, 237.6202
188.3619, 236.0665
188.8440, 234.9672
189.3261, 238.1308
189.8082, 245.1649
190.2903, 250.4861
190.7725, 249.6079
191.2546, 243.9045
191.7367, 241.8761
192.2188, 244.6102
192.7009, 249.1719
193.1830, 250.4081
193.6652, 248.3091
194.1473, 246.3175
194.6294, 246.8882
195.1115, 249.7236
195.5936, 250.7449
196.0757, 249.2661
196.5579, 246.6870
197.0400, 245.7493
197.5221, 246.5722
198.0042, 247.6872
198.4863, 248.6762
198.9684, 249.5527
199.4506, 248.9999
199.9327, 246.7547
200.4148, 243.3031
200.8969, 239.2068
201.3790, 234.1021
201.8611, 230.0671
202.3433, 228.5466
202.8254, 229.7179
203.3075, 231.2649
203.7896, 233.1810
204.2717, 235.2164
204.7538, 236.6843
205.2360, 237.5032
205.7181, 238.0528
206.2002, 238.3350
206.6823, 238.1761
207.1644, 238.9265
207.6465, 240.9889
208.1287, 243.8538
208.6108, 245.9999
209.0929, 247.1975
209.5750, 248.3130
210.0571, 250.0349
210.5392, 252.6729
211.0214, 254.4502
211.5035, 254.9648
211.9856, 254.6033
212.4677, 254.6872
212.9498, 255.2689
213.4319, 256.1914
213.9140, 257.4557
214.3962, 259.2185
214.8783, 260.8694
215.3604, 262.6483
215.8425, 264.2423
216.3246, 264.0170
216.8067, 261.0067
217.2889, 258.0318
217.7710, 257.1040
218.2531, 259.3465
218.7352, 260.1832
219.2173, 258.6716
219.6994, 255.4387
220.1816, 253.6928
220.6637, 254.2373
221.1458, 254.8140
221.6279, 253.8316
222.1100, 250.3915
222.5921, 247.8481
223.0743, 247.0652
223.5564, 247.4182
224.0385, 245.6162
224.5206, 240.3547
225.0027, 235.0786
225.4848, 232.0323
225.9670, 232.2472
226.4491, 232.2939
226.9312, 232.0170
227.4133, 231.3922
227.8954, 230.1949
228.3775, 228.1737
228.8597, 225.9873
229.3418, 223.9657
229.8239, 221.8662
230.3060, 220.5129
230.7881, 220.1479
231.2702, 220.5948
231.7524, 221.0731
232.2345, 221.6078
232.7166, 222.1180
233.1987, 222.6506
233.6808, 223.6416
234.1629, 223.6637
234.6451, 222.4397
235.1272, 220.1620
235.6093, 217.5296
236.0914, 213.9316
236.5735, 210.8157
237.0556, 209.0680
237.5378, 209.3135
238.0199, 209.6386
238.5020, 210.3481
238.9841, 211.0877
239.4662, 210.2347
239.9483, 206.7489
240.4305, 203.1061
240.9126, 200.6457
241.3947, 200.0303
241.8768, 199.1120
242.3589, 197.5246
242.8410, 195.5902
243.3232, 194.4728
243.8053, 194.5773
244.2874, 194.9500
244.7695, 195.1852
245.2516, 195.4973
245.7337, 195.1606
246.2159, 193.9201
246.6980, 192.0342
247.1801, 190.3520
247.6622, 188.8940
248.1443, 187.5753
248.6264, 186.3401
249.1086, 185.0515
249.5907, 184.1752
250.0728, 183.8846
250.5549, 183.9651
251.0370, 183.8350
251.5191, 183.3771
252.0013, 182.9013
252.4834, 182.5821
252.9655, 182.6138
253.4476, 182.2649
253.9297, 181.2402
254.4118, 179.9706
254.8940, 179.4520
255.3761, 180.0286
255.8582, 180.7469
256.3403, 181.2088
256.8224, 181.3185
257.3046, 181.5486
257.7867, 182.2232
258.2688, 182.8069
258.7509, 182.0058
259.2330, 178.8999
259.7151, 176.2991
260.1973, 175.3740
260.6794, 176.5031
261.1615, 177.7758
261.6436, 179.5105
262.1257, 181.1050
262.6078, 181.4359
263.0900, 180.1186
263.5721, 178.4546
264.0542, 176.8025
264.5363, 175.0947
265.0184, 173.7189
265.5005, 172.5811
265.9827, 171.8551
266.4648, 171.8060
266.9469, 172.5312
267.4290, 173.6964
267.9111, 175.5647
268.3932, 178.2574
268.8754, 179.2252
269.3575, 177.8575
269.8396, 175.7001
270.3217, 174.8532
270.8038, 175.7257
271.2859, 176.2736
271.7681, 175.6608
272.2502, 173.9588
272.7323, 173.4302
273.2144, 174.2806
273.6965, 175.9063
274.1786, 177.9955
274.6608, 180.8352
275.1429, 182.6424
275.6250, 182.7574
276.1071, 181.4100
276.5892, 180.2756
277.0714, 179.4052
277.5535, 178.6551
278.0356, 177.7312
278.5177, 176.5473
278.9998, 176.1398
279.4819, 176.9965
279.9641, 178.7346
280.4462, 179.6502
280.9283, 179.6536
281.4104, 179.2233
281.8925, 178.5646
282.3746, 177.6697
282.8568, 177.1852
283.3389, 177.3385
283.8210, 177.8791
284.3031, 178.2981
284.7852, 178.6600
285.2673, 178.3975
285.7495, 176.5419
286.2316, 173.2897
286.7137, 171.4093
287.1958, 171.6726
287.6779, 172.8466
288.1600, 172.1315
288.6422, 169.4939
289.1243, 166.9843
289.6064, 166.0946
290.0885, 166.5268
290.5706, 166.8440
291.0527, 166.9158
291.5349, 166.8219
292.0170, 166.7617
292.4991, 166.7071
292.9812, 166.3617
293.4633, 164.9674
293.9454, 163.0997
294.4276, 162.9781
294.9097, 165.0352
295.3918, 167.4368
295.8739, 167.6588
296.3560, 166.0873
296.8381, 164.5535
297.3203, 164.2594
297.8024, 164.5499
298.2845, 163.7702
298.7666, 161.7588
299.2487, 159.9903
299.7308, 160.4979
300.2130, 162.5251
300.6951, 163.8809
301.1772, 163.1000
301.6593, 161.4388
302.1414, 160.6723
302.6235, 160.7930
303.1057, 161.2217
303.5878, 161.8610
304.0699, 162.4351
304.5520, 162.3729
305.0341, 160.9418
305.5162, 159.3066
305.9984, 158.8298
306.4805, 159.3684
306.9626, 159.9098
307.4447, 159.5820
307.9268, 158.9009
308.4089, 158.6143
308.8911, 159.3105
309.3732, 159.8382
309.8553, 158.6372
310.3374, 156.3240
310.8195, 154.9683
311.3016, 156.7747
311.7838, 159.5459
312.2659, 161.4398
312.7480, 162.1599
313.2301, 161.7825
313.7122, 159.3862
314.1943, 155.9152
314.6765, 153.4121
315.1586, 153.0982
315.6407, 153.8200
316.1228, 155.2602
316.6049, 157.7769
317.0870, 159.2469
317.5692, 157.5647
318.0513, 154.5190
318.5334, 152.6198
319.0155, 154.0579
319.4976, 155.6275
319.9797, 155.5999
320.4619, 153.6706
320.9440, 152.5756
321.4261, 154.0738
321.9082, 156.3804
322.3903, 157.8006
322.8724, 157.3029
323.3546, 156.5569
323.8367, 155.9108
324.3188, 155.3750
324.8009, 154.8881
325.2830, 154.3200
325.7651, 153.8791
326.2473, 153.7033
326.7294, 153.5798
327.2115, 153.9870
327.6936, 155.7993
328.1757, 158.4804
328.6578, 159.4183
329.1400, 156.4641
329.6221, 153.5482
330.1042, 152.3923
330.5863, 154.7288
331.0684, 155.9405
331.5505, 155.3286
332.0327, 153.7136
332.5148, 152.9357
332.9969, 153.5228
333.4790, 154.2395
333.9611, 154.7499
334.4432, 155.1199
334.9254, 155.0227
335.4075, 154.5849
335.8896, 153.5688
336.3717, 151.2545
336.8538, 146.4763
337.3359, 143.2998
337.8180, 143.1760
338.3001, 146.0471
338.7823, 148.8176
339.2644, 151.6255
339.7465, 154.0139
340.2286, 155.5397
340.7107, 156.1622
341.1928, 156.0410
341.6750, 154.9386
342.1571, 153.1979
342.6392, 152.2540
343.1213, 152.1949
343.6034, 152.4249
344.0855, 152.4995
344.5677, 152.4323
345.0498, 152.5695
345.5319, 152.9384
346.0140, 153.5525
346.4961, 154.7946
346.9782, 156.6134
347.4604, 157.7545
347.9425, 156.6329
348.4246, 154.1138
348.9067, 153.8330
349.3888, 156.3661
349.8709, 159.2194
350.3531, 158.4959
350.8352, 155.2617
351.3173, 153.4797
351.7994, 156.2557
352.2815, 161.0728
352.7636, 163.6547
353.2458, 163.9980
353.7279, 163.7561
354.2100, 164.0906
354.6921, 164.8246
355.1742, 165.6599
355.6563, 166.5777
356.1385, 167.4898
356.6206, 168.1964
357.1027, 168.7757
357.5848, 169.5950
358.0669, 171.2580
358.5490, 173.0821
359.0312, 174.4399
359.5133, 175.2276
359.9954, 175.5259
360.4775, 174.8535
360.9596, 173.7289
361.4417, 173.2578
361.9239, 174.1321
362.4060, 175.5862
362.8881, 177.2956
363.3702, 179.2768
363.8523, 181.2327
364.3344, 183.4585
364.8166, 185.4734
365.2987, 186.7381
365.7808, 186.2063
366.2629, 185.7991
366.7450, 186.2148
367.2271, 187.4561
367.7093, 188.2513
368.1914, 187.9526
368.6735, 187.4747
369.1556, 187.4109
369.6377, 187.9801
370.1198, 188.7283
370.6020, 189.9572
371.0841, 191.3966
371.5662, 192.0896
372.0483, 192.0587
372.5304, 191.2359
373.0125, 189.2531
373.4947, 184.9997
373.9768, 182.9955
374.4589, 184.3137
374.9410, 186.9985
375.4231, 187.7205
375.9052, 185.6479
376.3874, 183.9978
376.8695, 183.9753
377.3516, 185.5271
377.8337, 186.2127
378.3158, 185.9800
378.7979, 185.0873
379.2801, 183.4671
379.7622, 181.0414
380.2443, 179.4639
380.7264, 179.4308
381.2085, 180.1171
381.6906, 178.8875
382.1728, 175.6994
382.6549, 172.9136
383.1370, 172.5887
383.6191, 174.1050
384.1012, 175.0310
384.5833, 175.0579
385.0655, 174.6837
385.5476, 174.5778
386.0297, 174.6408
386.5118, 174.5215
386.9939, 173.9717
387.4760, 173.1693
387.9582, 172.3822
388.4403, 171.6121
388.9224, 170.7417
389.4045, 169.3391
389.8866, 167.8735
390.3687, 167.0314
390.8509, 167.4936
391.3330, 168.1752
391.8151, 168.6351
392.2972, 168.7657
392.7793, 168.1472
393.2614, 165.3463
393.7436, 162.5027
394.2257, 161.2922
394.7078, 162.7944
395.1899, 164.0272
395.6720, 163.3451
396.1541, 161.8256
396.6363, 161.2020
397.1184, 162.7416
397.6005, 164.4521
398.0826, 165.6640
398.5647, 166.2819
399.0468, 166.9138
399.5290, 168.1714
400.0111, 169.1516
400.4932, 169.0972
400.9753, 166.3691
401.4574, 164.8327
401.9395, 165.3486
402.4217, 167.4298
402.9038, 168.7931
403.3859, 169.2688
403.8680, 169.2761
404.3501, 168.7607
404.8322, 167.1691
405.3144, 167.1542
405.7965, 169.2307
406.2786, 172.2668
406.7607, 174.3774
407.2428, 175.3594
407.7249, 176.5719
408.2071, 178.7606
408.6892, 181.6243
409.1713, 183.1247
409.6534, 183.1698
410.1355, 182.3782
410.6176, 180.3933
411.0998, 177.6830
411.5819, 177.3590
412.0640, 180.7216
412.5461, 185.5591
413.0282, 188.4675
413.5103, 189.6413
413.9925, 190.3240
414.4746, 190.8354
414.9567, 191.4616
415.4388, 192.7106
415.9209, 194.6763
416.4030, 196.8589
416.8852, 199.0471
417.3673, 201.1593
417.8494, 203.0710
418.3315, 204.6644
418.8136, 206.1220
419.2957, 207.4960
419.7779, 208.8083
420.2600, 210.2699
420.7421, 211.5692
421.2242, 213.3044
421.7063, 216.0651
422.1884, 221.1596
422.6706, 225.0836
423.1527, 226.0490
423.6348, 225.4042
424.1169, 225.6959
424.5990, 228.3492
425.0811, 230.9844
425.5633, 232.8192
426.0454, 233.7055
426.5275, 234.7829
427.0096, 236.1560
427.4917, 237.6420
427.9738, 239.2036
428.4560, 241.3748
428.9381, 242.3588
429.4202, 241.1900
429.9023, 238.8438
430.3844, 239.0047
430.8665, 242.6114
431.3487, 246.0560
431.8308, 247.3511
432.3129, 246.3818
432.7950, 245.5112
433.2771, 244.6176
433.7592, 244.2315
434.2414, 245.6503
434.7235, 248.6543
435.2056, 250.5000
435.6877, 249.9056
436.1698, 247.9096
436.6519, 246.5871
437.1341, 245.9199
437.6162, 245.4978
438.0983, 245.0024
438.5804, 244.5436
439.0625, 244.3014
439.5446, 244.3008
440.0268, 244.5374
440.5089, 245.3273
440.9910, 246.3443
441.4731, 246.9110
441.9552, 246.0760
442.4373, 245.2070
442.9195, 245.4708
443.4016, 246.8517
443.8837, 247.6681
444.3658, 246.2494
444.8479, 244.5245
445.3300, 244.0833
445.8122, 247.5495
446.2943, 249.2736
446.7764, 247.1959
447.2585, 242.6622
447.7406, 239.1147
448.2227, 236.4909
448.7049, 235.2119
449.1870, 236.1031
449.6691, 239.9829
450.1512, 240.9045
450.6333, 237.3471
451.1154, 232.4919
451.5976, 229.3853
452.0797, 228.5943
452.5618, 227.7663
453.0439, 226.5181
453.5260, 225.0266
454.0081, 223.9023
454.4903, 223.2547
454.9724, 222.2305
455.4545, 220.0910
455.9366, 217.0381
456.4187, 214.3102
456.9008, 211.9469
457.3830, 210.0023
457.8651, 208.7630
458.3472, 208.0573
458.8293, 207.4578
459.3114, 207.1808
459.7935, 206.5583
460.2757, 204.4149
460.7578, 201.0127
461.2399, 197.6529
461.7220, 195.0095
462.2041, 192.8551
462.6862, 191.0985
463.1684, 189.8205
463.6505, 188.5337
464.1326, 187.2115
464.6147, 185.6920
465.0968, 183.7341
465.5789, 179.9265
466.0611, 177.0915
466.5432, 176.5901
467.0253, 178.2028
467.5074, 179.2238
467.9895, 178.7360
468.4716, 178.0830
468.9538, 177.9473
469.4359, 178.8279
469.9180, 179.1069
470.4001, 178.4932
470.8822, 177.4768
471.3643, 176.8312
471.8465, 176.7441
472.3286, 176.4525
472.8107, 175.6346
473.2928, 174.4424
473.7749, 173.6422
474.2570, 173.2184
474.7392, 173.2984
475.2213, 174.6984
475.7034, 177.0141
476.1855, 177.1007
476.6676, 174.1896
477.1497, 170.5185
477.6319, 169.2527
478.1140, 169.7924
478.5961, 170.2022
479.0782, 168.7413
479.5603, 167.2672
480.0424, 168.7501
480.5246, 172.7608
481.0067, 175.7604
481.4888, 174.5047
481.9709, 171.8222
482.4530, 170.3341
482.9352, 171.1613
483.4173, 171.6525
483.8994, 170.3286
484.3815, 168.0998
484.8636, 166.3676
485.3457, 165.3162
485.8279, 164.9281
486.3100, 165.6314
486.7921, 167.4185
487.2742, 168.2844
487.7563, 167.9683
488.2384, 167.0097
488.7206, 165.5806
489.2027, 163.2575
489.6848, 161.6949
490.1669, 161.2109
490.6490, 161.1727
491.1311, 160.4140
491.6133, 158.7708
492.0954, 157.6226
492.5775, 157.6100
493.0596, 158.3587
493.5417, 158.2709
494.0238, 157.3268
494.5060, 156.6621
494.9881, 157.5716
495.4702, 159.3800
495.9523, 160.2988
496.4344, 159.9351
496.9165, 159.3848
497.3987, 159.8445
497.8808, 160.8919
498.3629, 161.7228
498.8450, 162.0240
499.3271, 161.9866
499.8092, 161.7896
500.2914, 161.3862
500.7735, 160.5367
501.2556, 158.2864
501.7377, 156.1875
502.2198, 155.2762
502.7019, 156.2444
503.1841, 156.8745
503.6662, 156.3556
504.1483, 155.5872
504.6304, 155.6672
505.1125, 157.4702
505.5946, 158.6898
506.0768, 158.8362
506.5589, 158.1117
507.0410, 157.4737
507.5231, 156.8410
508.0052, 156.5166
508.4873, 156.8166
508.9695, 157.7443
509.4516, 158.2727
509.9337, 158.3369
510.4158, 158.2398
510.8979, 158.2176
511.3800, 158.3022
511.8622, 158.7287
512.3443, 159.8665
512.8264, 160.9194
513.3085, 160.5269
513.7906, 159.0602
514.2728, 157.8491
514.7549, 157.6754
515.2370, 158.0608
515.7191, 158.9902
516.2012, 160.5288
516.6833, 161.0831
517.1655, 158.4444
517.6476, 155.2906
518.1297, 153.9305
518.6118, 156.7799
519.0939, 159.0339
519.5760, 159.8244
520.0582, 159.5166
520.5403, 159.0385
521.0224, 158.2617
521.5045, 157.4872
521.9866, 156.6786
522.4688, 155.8350
522.9509, 155.5943
523.4330, 155.9581
523.9151, 156.9039
524.3972, 158.8522
524.8793, 161.8363
525.3615, 163.4667
525.8436, 163.3553
526.3257, 162.3562
526.8078, 161.2490
527.2899, 160.2047
527.7720, 160.1610
528.2542, 162.5763
528.7363, 165.3351
529.2184, 165.2891
529.7005, 162.8429
530.1826, 160.2033
530.6647, 157.9499
531.1469, 156.5710
531.6290, 156.7962
532.1111, 159.1190
532.5932, 161.1008
533.0753, 161.6490
533.5574, 161.4371
534.0396, 161.1546
534.5217, 160.2910
535.0038, 160.1177
535.4859, 161.6290
535.9680, 164.0093
536.4501, 164.5068
536.9323, 161.7346
537.4144, 159.4366
537.8965, 159.0950
538.3786, 160.7510
538.8607, 162.4981
539.3428, 164.5062
539.8250, 166.0310
540.3071, 166.1024
540.7892, 164.8751
541.2713, 163.7436
541.7534, 162.8324
542.2355, 162.3247
542.7177, 162.8726
543.1998, 164.1145
543.6819, 164.8830
544.1640, 164.1640
544.6461, 163.0577
545.1282, 162.8889
545.6104, 163.4256
546.0925, 163.2215
546.5746, 160.0061
547.0567, 156.8674
547.5388, 156.2104
548.0209, 159.3493
548.5031, 161.6470
548.9852, 161.6046
549.4673, 160.5241
549.9494, 159.7816
550.4315, 159.6896
550.9136, 159.5086
551.3958, 159.2661
551.8779, 158.8557
552.3600, 157.8483
552.8421, 156.0007
553.3242, 154.3645
553.8063, 153.1627
554.2885, 152.4824
554.7706, 153.5071
555.2527, 156.4241
555.7348, 159.0730
556.2169, 159.1115
556.6990, 157.4357
557.1812, 156.3331
557.6633, 156.1916
558.1454, 156.5685
558.6275, 157.7251
559.1096, 159.0012
559.5917, 159.2547
560.0739, 156.7113
560.5560, 154.2737
561.0381, 153.8197
561.5202, 154.8500
562.0023, 155.1056
562.4844, 152.7212
562.9666, 150.5473
563.4487, 150.0188
563.9308, 151.5237
564.4129, 152.7916
564.8950, 154.0314
565.3771, 154.8020
565.8593, 154.5335
566.3414, 152.8124
566.8235, 151.9544
567.3056, 152.5302
567.7877, 153.5180
568.2698, 152.7810
568.7520, 150.4302
569.2341, 148.4331
569.7162, 147.5244
570.1983, 147.4267
570.6804, 147.9430
571.1625, 148.9562
571.6447, 149.6582
572.1268, 149.3210
572.6089, 148.5371
573.0910, 147.8689
573.5731, 147.3913
574.0552, 146.9063
574.5374, 145.6718
575.0195, 144.7051
575.5016, 144.9484
575.9837, 148.7500
576.4658, 151.0659
576.9479, 150.7331
577.4301, 148.8072
577.9122, 147.2864
578.3943, 146.1689
578.8764, 145.4213
579.3585, 145.0172
579.8406, 144.9678
580.3228, 145.6338
580.8049, 147.2009
581.2870, 148.2783
581.7691, 147.4474
582.2512, 145.2733
582.7333, 143.9524
583.2155, 143.6105
583.6975, 144.1247
584.1796, 146.3126
584.6617, 149.0645
585.1439, 150.5377
585.6260, 150.0161
586.1081, 148.4987
586.5902, 145.5508
587.0723, 142.1385
587.5544, 140.1670
588.0366, 141.5289
588.5187, 142.9910
589.0008, 143.3938
589.4829, 142.7827
589.9650, 142.6308
590.4471, 142.9406
590.9293, 143.7165
591.4114, 145.2664
591.8935, 147.9250
592.3756, 148.8195
592.8577, 147.5571
593.3398, 145.5852
593.8220, 144.2301
594.3041, 143.4639
594.7862, 143.1153
595.2683, 143.2308
595.7504, 143.5522
596.2325, 143.8097
596.7147, 144.0110
597.1968, 144.1693
597.6789, 144.0618
598.1610, 144.1091
598.6431, 144.8510
599.1252, 146.0963
599.6074, 146.9652
600.0895, 146.8691
600.5716, 146.5655
601.0537, 146.5146
601.5358, 146.9252
602.0179, 146.6404
602.5001, 144.9308
602.9822, 143.2361
603.4643, 142.6955
603.9464, 143.6333
604.4285, 144.5227
604.9106, 145.4393
605.3928, 145.9941
605.8749, 144.9744
606.3570, 142.5913
606.8391, 141.8395
607.3212, 144.5879
607.8033, 148.2076
608.2855, 148.1150
608.7676, 145.2485
609.2497, 143.0654
609.7318, 144.0963
610.2139, 146.1260
610.6960, 147.8338
611.1782, 149.1066
611.6603, 149.3261
612.1424, 146.9723
612.6245, 144.4485
613.1066, 143.2896
613.5887, 144.2166
614.0709, 145.1303
614.5530, 146.2330
615.0351, 147.1534
615.5172, 147.5308
615.9993, 147.3439
616.4814, 146.5809
616.9636, 144.9041
617.4457, 143.1574
617.9278, 143.1724
618.4099, 144.8053
618.8920, 146.5404
619.3741, 147.9763
619.8563, 149.0029
620.3384, 149.3249
620.8205, 149.0213
621.3026, 148.4925
621.7847, 147.5561
622.2668, 146.7768
622.7490, 146.9277
623.2311, 148.2282
623.7132, 148.5526
624.1953, 146.2149
624.6774, 143.4761
625.1595, 141.9071
625.6417, 141.9472
626.1238, 142.4153
626.6059, 143.6377
627.0880, 144.9315
627.5701, 145.2097
628.0522, 144.3273
628.5344, 143.9218
629.0165, 144.5424
629.4986, 145.5143
629.9807, 145.2900
630.4628, 144.1128
630.9449, 143.3047
631.4271, 143.5810
631.9092, 144.5077
632.3913, 146.0948
632.8734, 148.1296
633.3555, 149.3035
633.8376, 148.0556
634.3198, 146.4684
634.8019, 145.9579
635.2840, 146.9900
635.7661, 147.3201
636.2482, 145.8543
636.7303, 144.3352
637.2125, 144.0358
637.6946, 145.5315
638.1767, 146.5117
638.6588, 146.6627
639.1409, 146.6773
639.6230, 147.9331
640.1052, 150.2939
640.5873, 151.4686
641.0694, 150.5848
641.5515, 148.7363
642.0336, 147.1250
642.5157, 145.8681
642.9979, 145.2902
643.4800, 146.2796
643.9621, 147.4104
644.4442, 147.5203
644.9263, 146.7894
645.4084, 146.3610
645.8906, 146.9113
646.3727, 147.5785
646.8548, 148.0628
647.3369, 148.4146
647.8190, 148.0989
648.3011, 146.5630
648.7833, 145.1934
649.2654, 145.4508
649.7475, 147.5956
650.2296, 147.7357
650.7117, 145.2289
651.1938, 142.3705
651.6760, 142.3164
652.1581, 144.2977
652.6402, 145.9589
653.1223, 146.6529
653.6044, 146.9070
654.0865, 147.0670
654.5687, 147.1576
655.0508, 147.2293
655.5329, 147.4834
656.0150, 147.5346
656.4971, 147.1245
656.9792, 146.3482
657.4614, 145.7176
657.9435, 145.4124
658.4256, 144.9855
658.9077, 143.8586
659.3898, 142.1456
659.8719, 143.4051
660.3541, 148.4303
660.8362, 152.7008
661.3183, 152.1374
661.8004, 148.0681
662.2825, 145.8768
662.7646, 145.9321
663.2468, 146.5293
663.7289, 146.0441
664.2110, 145.2432
664.6931, 145.2303
665.1752, 146.6107
665.6573, 147.8271
666.1395, 148.3148
666.6216, 148.2251
667.1037, 147.7435
667.5858, 146.1564
668.0679, 145.1395
668.5500, 144.9839
669.0322, 145.4030
669.5143, 145.8846
669.9964, 146.5246
670.4785, 146.7292
670.9606, 146.1192
671.4427, 145.0865
671.9249, 144.8160
672.4070, 145.2180
672.8891, 145.5916
673.3712, 145.4493
673.8533, 145.0970
674.3354, 144.6891
674.8176, 144.2888
675.2997, 144.4393
675.7818, 146.8200
