##NAMES=Kovdorskite
##RRUFFID=R050505
##IDEAL CHEMISTRY=Mg_2_PO_4_(OH)&#183;3H_2_O
##LOCALITY=Kovdor Massif, Kola Peninsula, Russia
##OWNER=RRUFF
##SOURCE=Bob Downs
##DESCRIPTION=Colorless prismatic crystals, slightly pink in color when viewed in bulk. This sample was used in the structural study by Morrison et al (2012)
##STATUS=The identification of this mineral has been confirmed by X-ray diffraction and chemical analysis
##URL=rruff.info/R050505
##MEASURED CHEMISTRY=Mg_2.00_P_1.00_O_4_(OH)Â·2.67H_2_O ; trace amounts of Mn; H_2_O estimated by difference
92.37695, 659.4570
92.85907, 663.7101
93.34119, 664.4018
93.82330, 656.1577
94.30542, 641.7870
94.78754, 622.4689
95.26965, 600.1006
95.75177, 579.2592
96.23389, 562.2231
96.71600, 547.2425
97.19812, 533.0968
97.68024, 519.7148
98.16235, 507.0988
98.64447, 495.1961
99.12659, 483.8939
99.60870, 472.3932
100.0908, 461.4222
100.5729, 451.4544
101.0551, 442.9177
101.5372, 435.9587
102.0193, 430.2640
102.5014, 424.7273
102.9835, 417.8042
103.4656, 412.4902
103.9478, 409.9911
104.4299, 409.4257
104.9120, 409.2783
105.3941, 408.4341
105.8762, 406.8579
106.3583, 404.2653
106.8405, 399.6644
107.3226, 394.9364
107.8047, 390.9183
108.2868, 387.7543
108.7689, 385.4316
109.2510, 384.2631
109.7332, 384.3456
110.2153, 383.9583
110.6974, 381.7417
111.1795, 379.1944
111.6616, 378.9228
112.1437, 382.1849
112.6259, 386.3112
113.1080, 388.3891
113.5901, 388.5826
114.0722, 388.3633
114.5543, 388.5448
115.0364, 389.1068
115.5185, 389.6209
116.0007, 389.5676
116.4828, 389.7940
116.9649, 390.7841
117.4470, 392.6146
117.9291, 395.1205
118.4112, 398.4273
118.8934, 403.4563
119.3755, 406.8891
119.8576, 407.8126
120.3397, 407.5936
120.8218, 407.4962
121.3039, 408.0105
121.7861, 408.4243
122.2682, 406.6526
122.7503, 399.2160
123.2324, 393.2013
123.7145, 389.5866
124.1966, 387.6107
124.6788, 386.1256
125.1609, 384.4175
125.6430, 382.6353
126.1251, 382.1080
126.6072, 382.1571
127.0893, 383.6923
127.5715, 387.2421
128.0536, 392.7017
128.5357, 399.4007
129.0178, 406.8069
129.4999, 415.2727
129.9821, 425.5449
130.4642, 437.3239
130.9463, 451.1832
131.4284, 468.6918
131.9105, 490.6885
132.3926, 512.6570
132.8748, 536.0130
133.3569, 557.3796
133.8390, 567.8025
134.3211, 561.1321
134.8032, 540.2653
135.2853, 513.9559
135.7674, 477.1945
136.2496, 441.8635
136.7317, 412.3422
137.2138, 388.5620
137.6959, 370.1880
138.1780, 357.5720
138.6601, 351.0957
139.1423, 346.4052
139.6244, 344.4496
140.1065, 343.5763
140.5886, 342.1797
141.0707, 345.1296
141.5528, 347.3958
142.0350, 349.0152
142.5171, 348.0497
142.9992, 350.4218
143.4813, 351.4563
143.9634, 352.4360
144.4455, 353.4577
144.9277, 355.0122
145.4098, 357.4236
145.8919, 360.2870
146.3740, 363.5555
146.8561, 367.4909
147.3382, 372.0801
147.8204, 377.3629
148.3025, 383.5374
148.7846, 390.7738
149.2667, 398.5974
149.7488, 405.8120
150.2309, 411.6485
150.7131, 419.1833
151.1952, 429.9019
151.6773, 443.3065
152.1594, 457.5038
152.6415, 471.2991
153.1236, 486.3950
153.6058, 504.7672
154.0879, 526.7292
154.5700, 550.7393
155.0521, 576.3302
155.5342, 603.5213
156.0163, 629.8270
156.4985, 656.2477
156.9806, 679.9101
157.4627, 698.9231
157.9448, 713.2171
158.4269, 721.0455
158.9090, 719.7860
159.3912, 708.8099
159.8733, 689.1485
160.3554, 658.2159
160.8375, 621.5505
161.3196, 582.4391
161.8017, 542.1269
162.2839, 502.0606
162.7660, 466.9209
163.2481, 438.6120
163.7302, 413.3544
164.2123, 390.7162
164.6944, 370.4594
165.1766, 352.5332
165.6587, 336.8106
166.1408, 323.2954
166.6229, 311.7323
167.1050, 303.2257
167.5871, 295.4324
168.0693, 287.8475
168.5514, 280.6176
169.0335, 274.0714
169.5156, 268.4508
169.9977, 263.7161
170.4798, 259.6306
170.9620, 255.8349
171.4441, 252.8475
171.9262, 251.3863
172.4083, 251.1507
172.8904, 250.8335
173.3725, 249.5025
173.8547, 247.1739
174.3368, 244.8069
174.8189, 242.0397
175.3010, 239.4653
175.7831, 237.6541
176.2652, 236.6366
176.7474, 235.8650
177.2295, 234.9255
177.7116, 233.9341
178.1937, 233.2168
178.6758, 232.8401
179.1579, 232.7737
179.6401, 233.1172
180.1222, 234.0841
180.6043, 234.8173
181.0864, 234.2425
181.5685, 233.1180
182.0506, 232.7760
182.5328, 234.4930
183.0149, 237.3625
183.4970, 238.4026
183.9791, 236.4515
184.4612, 234.3555
184.9433, 233.1468
185.4255, 232.6902
185.9076, 232.7725
186.3897, 233.4120
186.8718, 234.5355
187.3539, 235.3041
187.8360, 235.2104
188.3182, 235.2868
188.8003, 235.6770
189.2824, 236.4597
189.7645, 237.7650
190.2466, 239.7656
190.7287, 242.5083
191.2109, 244.9938
191.6930, 247.0319
192.1751, 249.0159
192.6572, 250.6685
193.1393, 252.2977
193.6214, 254.6593
194.1036, 258.5183
194.5857, 264.1805
195.0678, 268.9677
195.5499, 271.8806
196.0320, 275.0255
196.5141, 279.5756
196.9963, 285.3858
197.4784, 291.5750
197.9605, 297.4526
198.4426, 303.0430
198.9247, 307.2674
199.4068, 310.1266
199.8890, 311.7885
200.3711, 312.3565
200.8532, 311.8370
201.3353, 310.1508
201.8174, 307.0201
202.2995, 302.3019
202.7817, 297.4688
203.2638, 292.4095
203.7459, 287.3415
204.2280, 282.0463
204.7101, 276.4146
205.1922, 271.8703
205.6744, 270.3432
206.1565, 271.2505
206.6386, 271.9315
207.1207, 271.3092
207.6028, 270.3948
208.0849, 270.7128
208.5671, 272.6115
209.0492, 274.8389
209.5313, 276.1637
210.0134, 277.0348
210.4955, 278.4778
210.9776, 280.9594
211.4598, 284.2627
211.9419, 287.8921
212.4240, 291.7124
212.9061, 296.1505
213.3882, 301.8202
213.8703, 308.1977
214.3525, 314.3720
214.8346, 320.0331
215.3167, 325.1255
215.7988, 329.2060
216.2809, 331.5125
216.7630, 333.9770
217.2451, 337.5897
217.7273, 341.8893
218.2094, 346.1464
218.6915, 350.0923
219.1736, 353.6331
219.6557, 356.1112
220.1378, 356.9596
220.6200, 357.2903
221.1021, 357.3412
221.5842, 357.1641
222.0663, 356.6541
222.5484, 355.5276
223.0305, 354.0114
223.5127, 354.3106
223.9948, 357.5502
224.4769, 361.6543
224.9590, 366.6675
225.4411, 372.2169
225.9232, 377.8484
226.4054, 383.3567
226.8875, 388.6616
227.3696, 393.1604
227.8517, 399.3531
228.3338, 401.9872
228.8159, 399.6935
229.2981, 392.9865
229.7802, 382.5228
230.2623, 368.4245
230.7444, 351.0499
231.2265, 334.8135
231.7086, 319.8771
232.1908, 305.7837
232.6729, 291.5697
233.1550, 278.1117
233.6371, 267.1752
234.1192, 260.0002
234.6013, 256.1161
235.0835, 252.1675
235.5656, 247.2075
236.0477, 243.1659
236.5298, 241.0390
237.0119, 240.2809
237.4940, 239.8288
237.9762, 239.2622
238.4583, 238.3710
238.9404, 236.1276
239.4225, 231.2281
239.9046, 226.7078
240.3867, 223.6020
240.8689, 221.6623
241.3510, 220.4362
241.8331, 219.9126
242.3152, 219.7256
242.7973, 218.6703
243.2794, 215.7138
243.7616, 213.6321
244.2437, 214.1591
244.7258, 216.6118
245.2079, 219.0439
245.6900, 220.8501
246.1721, 221.9113
246.6543, 221.9079
247.1364, 220.2931
247.6185, 219.1742
248.1006, 219.7507
248.5827, 221.7252
249.0648, 224.1394
249.5470, 226.9701
250.0291, 229.7619
250.5112, 231.6245
250.9933, 232.3154
251.4754, 233.5879
251.9576, 236.9932
252.4397, 241.9869
252.9218, 246.2862
253.4039, 249.2721
253.8860, 251.3024
254.3681, 252.9771
254.8503, 254.3129
255.3324, 254.9742
255.8145, 255.0766
256.2966, 254.4461
256.7787, 252.0101
257.2608, 246.7308
257.7430, 240.6132
258.2251, 235.2780
258.7072, 230.6668
259.1893, 226.3805
259.6714, 221.8400
260.1535, 217.2848
260.6357, 214.0864
261.1178, 212.8993
261.5999, 212.5205
262.0820, 212.3791
262.5641, 212.3515
263.0462, 212.0773
263.5284, 210.9456
264.0105, 209.2202
264.4926, 208.4965
264.9747, 209.1976
265.4568, 210.3929
265.9389, 212.0095
266.4211, 213.7117
266.9032, 214.7751
267.3853, 214.4454
267.8674, 213.1553
268.3495, 212.8869
268.8316, 214.4177
269.3138, 215.8257
269.7959, 216.1976
270.2780, 216.0420
270.7601, 216.1922
271.2422, 217.2332
271.7243, 218.7353
272.2065, 219.1143
272.6886, 217.3408
273.1707, 216.1887
273.6528, 216.5818
274.1349, 217.8359
274.6170, 219.2616
275.0992, 220.5931
275.5813, 221.7572
276.0634, 222.5844
276.5455, 223.1471
277.0276, 223.1774
277.5097, 221.9601
277.9919, 220.6257
278.4740, 220.4108
278.9561, 221.7465
279.4382, 223.7302
279.9203, 224.6390
280.4024, 223.9316
280.8846, 223.2418
281.3667, 222.0392
281.8488, 221.3428
282.3309, 222.3723
282.8130, 225.2537
283.2951, 228.5399
283.7773, 229.8878
284.2594, 228.0661
284.7415, 227.3709
285.2236, 228.6875
285.7057, 230.3947
286.1878, 231.6486
286.6700, 232.2930
287.1521, 232.5686
287.6342, 232.5833
288.1163, 231.9840
288.5984, 232.5789
289.0805, 235.5508
289.5627, 238.5539
290.0448, 240.4415
290.5269, 241.3241
291.0090, 242.0500
291.4911, 243.4771
291.9732, 245.7258
292.4554, 247.0884
292.9375, 246.3109
293.4196, 245.9109
293.9017, 246.4270
294.3838, 247.9725
294.8659, 250.6740
295.3481, 254.7261
295.8302, 260.0202
296.3123, 264.8637
296.7944, 268.8906
297.2765, 272.8459
297.7586, 276.2698
298.2408, 279.8212
298.7229, 284.7027
299.2050, 291.6523
299.6871, 299.8526
300.1692, 306.0963
300.6513, 308.6646
301.1335, 311.1256
301.6156, 314.3690
302.0977, 317.3940
302.5798, 319.2544
303.0619, 319.5494
303.5440, 318.3126
304.0262, 315.5408
304.5083, 310.5881
304.9904, 304.8701
305.4725, 297.6360
305.9546, 290.1989
306.4367, 283.5079
306.9189, 277.8315
307.4010, 272.8723
307.8831, 268.2125
308.3652, 263.7580
308.8473, 259.9473
309.3294, 256.5573
309.8116, 253.8297
310.2937, 252.0097
310.7758, 251.0422
311.2579, 250.6572
311.7400, 250.6135
312.2221, 250.9284
312.7043, 251.4934
313.1864, 252.3999
313.6685, 253.4268
314.1506, 254.4912
314.6327, 255.6070
315.1148, 256.7993
315.5970, 258.0541
316.0791, 259.4010
316.5612, 261.2545
317.0433, 264.8427
317.5254, 267.5863
318.0075, 268.4439
318.4897, 268.2069
318.9718, 268.0704
319.4539, 268.6514
319.9360, 269.7168
320.4181, 270.5329
320.9002, 271.0953
321.3824, 271.3527
321.8645, 270.9525
322.3466, 270.4198
322.8287, 270.3553
323.3108, 270.9324
323.7929, 271.7379
324.2751, 272.0011
324.7572, 271.0391
325.2393, 270.8867
325.7214, 271.4470
326.2035, 272.7480
326.6856, 275.1841
327.1678, 278.5807
327.6499, 282.0281
328.1320, 284.4474
328.6141, 285.4536
329.0962, 287.3889
329.5783, 291.3032
330.0605, 295.0222
330.5426, 297.1536
331.0247, 298.2490
331.5068, 299.8869
331.9889, 303.3382
332.4710, 308.4681
332.9532, 313.0831
333.4353, 317.3983
333.9174, 320.9477
334.3995, 322.8917
334.8816, 324.1768
335.3637, 325.8636
335.8459, 328.4370
336.3280, 332.1637
336.8101, 337.8794
337.2922, 347.5628
337.7743, 356.4013
338.2564, 363.7036
338.7386, 370.2971
339.2206, 376.3716
339.7028, 382.1981
340.1849, 388.7420
340.6670, 397.8423
341.1491, 411.2396
341.6312, 422.7655
342.1133, 431.9078
342.5955, 439.8327
343.0776, 447.4480
343.5597, 454.5700
344.0418, 460.2373
344.5239, 463.6576
345.0060, 464.8454
345.4882, 463.5414
345.9703, 458.8109
346.4524, 452.2119
346.9345, 443.7599
347.4166, 433.7196
347.8987, 422.2467
348.3809, 409.3117
348.8630, 395.3275
349.3451, 382.3048
349.8272, 370.8952
350.3093, 359.2662
350.7914, 346.1293
351.2736, 333.0451
351.7557, 321.4881
352.2378, 311.9390
352.7199, 304.2985
353.2020, 298.7959
353.6841, 296.2433
354.1663, 293.3681
354.6484, 289.6329
355.1305, 285.6158
355.6126, 281.4536
356.0947, 277.2638
356.5768, 273.3600
357.0590, 270.0054
357.5411, 267.2201
358.0232, 264.9586
358.5053, 263.7064
358.9874, 262.4782
359.4695, 261.0058
359.9517, 259.2505
360.4338, 257.0742
360.9159, 254.0468
361.3980, 250.7773
361.8801, 249.2278
362.3622, 250.0169
362.8444, 251.2276
363.3265, 252.1715
363.8086, 253.1496
364.2907, 254.5400
364.7728, 256.5058
365.2549, 258.6591
365.7371, 260.5291
366.2192, 262.1067
366.7013, 263.5170
367.1834, 264.2585
367.6655, 265.3000
368.1476, 267.4083
368.6298, 270.5920
369.1119, 274.2047
369.5940, 277.9484
370.0761, 281.7708
370.5582, 285.4346
371.0403, 289.0696
371.5225, 292.2464
372.0046, 294.4305
372.4867, 295.9675
372.9688, 297.6781
373.4509, 300.1158
373.9330, 302.7367
374.4152, 304.9248
374.8973, 306.7334
375.3794, 307.5913
375.8615, 307.1873
376.3436, 305.5607
376.8257, 302.7792
377.3079, 298.6268
377.7900, 293.8350
378.2721, 288.6814
378.7542, 283.2601
379.2363, 278.0085
379.7184, 273.0695
380.2006, 268.2612
380.6827, 263.2484
381.1648, 258.0463
381.6469, 253.1189
382.1290, 248.1889
382.6111, 243.7688
383.0933, 241.0970
383.5754, 240.4032
384.0575, 239.3646
384.5396, 235.7003
385.0217, 229.8273
385.5038, 225.2974
385.9860, 223.0613
386.4681, 221.4473
386.9502, 219.3663
387.4323, 217.0403
387.9144, 215.3666
388.3965, 214.9453
388.8787, 215.1758
389.3608, 214.4130
389.8429, 212.2201
390.3250, 210.1584
390.8071, 208.2641
391.2892, 206.7892
391.7714, 206.2275
392.2535, 206.6548
392.7356, 207.3725
393.2177, 207.5548
393.6998, 207.0470
394.1819, 206.7227
394.6641, 206.6248
395.1462, 206.6511
395.6283, 206.9177
396.1104, 207.2847
396.5925, 207.3154
397.0746, 206.6577
397.5568, 205.5271
398.0389, 205.1265
398.5210, 206.3575
399.0031, 207.2510
399.4852, 207.1396
399.9673, 206.7913
400.4495, 207.0290
400.9316, 208.1157
401.4137, 209.7852
401.8958, 211.7227
402.3779, 214.2364
402.8600, 216.1491
403.3422, 216.9254
403.8243, 217.6746
404.3064, 218.8036
404.7885, 220.3923
405.2706, 222.5276
405.7527, 225.4331
406.2349, 228.9155
406.7170, 231.2399
407.1991, 231.5306
407.6812, 231.8395
408.1633, 232.7199
408.6454, 233.8444
409.1276, 234.9545
409.6097, 235.9655
410.0918, 236.6294
410.5739, 236.4978
411.0560, 235.4462
411.5381, 234.2633
412.0203, 232.6923
412.5024, 231.3471
412.9845, 230.8865
413.4666, 231.1089
413.9487, 231.0026
414.4308, 229.4122
414.9130, 226.8779
415.3951, 225.6774
415.8772, 226.4825
416.3593, 226.9689
416.8414, 225.1102
417.3235, 222.3615
417.8057, 220.7442
418.2878, 221.0285
418.7699, 221.9948
419.2520, 222.5076
419.7341, 222.6218
420.2162, 222.8819
420.6984, 223.4959
421.1805, 224.2637
421.6626, 224.7707
422.1447, 224.9953
422.6268, 225.7609
423.1089, 228.0440
423.5911, 230.7386
424.0732, 232.0405
424.5553, 231.7385
425.0374, 231.5772
425.5195, 232.7877
426.0016, 235.3454
426.4838, 238.3810
426.9659, 242.5982
427.4480, 246.5359
427.9301, 249.5565
428.4122, 251.8083
428.8943, 253.2760
429.3765, 253.8405
429.8586, 254.4989
430.3407, 257.0614
430.8228, 262.6608
431.3049, 267.8609
431.7870, 272.5233
432.2692, 276.8462
432.7513, 280.8607
433.2334, 284.6282
433.7155, 288.3506
434.1976, 292.1526
434.6797, 296.0327
435.1619, 300.0904
435.6440, 304.3138
436.1261, 308.7550
436.6082, 313.5607
437.0903, 318.5237
437.5724, 323.4469
438.0546, 328.2428
438.5367, 332.9657
439.0188, 337.7349
439.5009, 342.6436
439.9830, 347.2751
440.4651, 351.3062
440.9473, 355.3725
441.4294, 360.0219
441.9115, 364.9781
442.3936, 369.4020
442.8757, 372.5334
443.3578, 374.8368
443.8400, 377.7844
444.3221, 381.5483
444.8042, 385.5740
445.2863, 389.5397
445.7684, 393.7515
446.2505, 398.7275
446.7327, 404.6423
447.2148, 410.2678
447.6969, 414.4027
448.1790, 417.2361
448.6611, 419.8077
449.1432, 422.1557
449.6254, 424.4712
450.1075, 426.8992
450.5896, 429.4192
451.0717, 432.0208
451.5538, 435.5480
452.0359, 438.5363
452.5181, 439.4608
453.0002, 438.4717
453.4823, 436.5081
453.9644, 433.7475
454.4465, 430.5533
454.9286, 427.8291
455.4108, 425.9125
455.8929, 423.4394
456.3750, 420.6380
456.8571, 416.8416
457.3392, 410.6209
457.8214, 402.0630
458.3035, 393.5961
458.7856, 387.4936
459.2677, 383.7851
459.7498, 378.7703
460.2319, 372.2484
460.7141, 364.8884
461.1962, 355.8882
461.6783, 346.4651
462.1604, 338.3302
462.6425, 332.1254
463.1246, 327.2495
463.6068, 322.7882
464.0889, 319.0237
464.5710, 314.9943
465.0531, 310.8632
465.5352, 306.3505
466.0173, 300.5008
466.4995, 294.0926
466.9816, 289.1065
467.4637, 287.1243
467.9458, 287.1333
468.4279, 285.8270
468.9100, 282.6859
469.3922, 279.5586
469.8743, 276.9698
470.3564, 274.6086
470.8385, 272.2459
471.3206, 269.8465
471.8027, 267.5333
472.2849, 265.5081
472.7670, 263.6579
473.2491, 261.5260
473.7312, 258.9508
474.2133, 256.4388
474.6954, 254.3799
475.1776, 252.6540
475.6597, 251.0780
476.1418, 250.1011
476.6239, 248.6890
477.1060, 245.2373
477.5881, 240.6935
478.0703, 238.1304
478.5524, 238.8919
479.0345, 240.8406
479.5166, 240.8363
479.9987, 238.3361
480.4808, 236.3649
480.9630, 235.6627
481.4451, 235.0531
481.9272, 233.6311
482.4093, 231.5693
482.8914, 229.5697
483.3735, 228.0273
483.8557, 226.9041
484.3378, 226.0791
484.8199, 226.2719
485.3020, 225.7011
485.7841, 223.7941
486.2662, 221.4879
486.7484, 219.4465
487.2305, 217.7667
487.7126, 216.2112
488.1947, 214.4638
488.6768, 212.5759
489.1589, 211.4200
489.6411, 211.6032
490.1232, 211.5569
490.6053, 210.5939
491.0874, 209.2587
491.5695, 208.2197
492.0516, 207.6859
492.5338, 207.1748
493.0159, 206.0510
493.4980, 204.4109
493.9801, 203.2166
494.4622, 202.8132
494.9443, 202.4862
495.4265, 201.5292
495.9086, 200.1674
496.3907, 199.0369
496.8728, 198.2283
497.3549, 197.7602
497.8370, 198.0582
498.3192, 198.8066
498.8013, 198.7756
499.2834, 197.4382
499.7655, 195.2574
500.2476, 192.7248
500.7297, 189.3414
501.2119, 187.4822
501.6940, 188.1377
502.1761, 189.6710
502.6582, 191.5438
503.1403, 193.3308
503.6224, 194.0631
504.1045, 193.0155
504.5866, 189.0174
505.0688, 191.9024
505.5509, 193.6934
506.0330, 194.4493
506.5151, 191.0695
506.9972, 193.0301
507.4793, 192.8505
507.9615, 192.5831
508.4436, 195.2953
508.9257, 192.5171
509.4078, 195.1820
509.8899, 195.6741
510.3720, 197.1606
510.8542, 196.4939
511.3363, 195.5754
511.8184, 196.1503
512.3005, 196.6808
512.7827, 196.9811
513.2648, 197.5346
513.7469, 198.7127
514.2290, 200.4274
514.7111, 202.5747
515.1932, 205.2640
515.6754, 207.8381
516.1575, 209.9483
516.6396, 211.5036
517.1217, 212.2945
517.6038, 211.2284
518.0859, 210.6491
518.5681, 211.4776
519.0502, 213.5282
519.5323, 216.9412
520.0144, 221.7296
520.4965, 226.4097
520.9786, 229.0105
521.4608, 228.9753
521.9429, 230.2907
522.4250, 233.5864
522.9071, 237.3333
523.3892, 241.2427
523.8713, 245.1674
524.3535, 248.8429
524.8356, 252.1460
525.3177, 255.5378
525.7998, 259.9837
526.2819, 265.9069
526.7640, 270.6899
527.2462, 272.9188
527.7283, 275.2569
528.2104, 279.0328
528.6925, 283.8905
529.1746, 289.0028
529.6567, 294.2191
530.1389, 299.2037
530.6210, 303.3545
531.1031, 306.7144
531.5852, 310.1732
532.0673, 314.3963
532.5494, 318.1674
533.0316, 319.2038
533.5137, 317.7050
533.9958, 317.8216
534.4779, 321.8938
534.9600, 326.6333
535.4421, 330.1705
535.9243, 332.2274
536.4064, 332.1469
536.8885, 329.4226
537.3706, 325.3468
537.8527, 322.6947
538.3348, 322.3831
538.8170, 321.6784
539.2991, 321.1147
539.7812, 319.7254
540.2633, 316.2330
540.7454, 311.4053
541.2275, 307.3424
541.7097, 305.4767
542.1918, 304.6882
542.6739, 301.8820
543.1560, 296.3296
543.6381, 291.0309
544.1202, 286.1294
544.6024, 282.0675
545.0845, 279.7425
545.5666, 278.7599
546.0487, 277.2128
546.5308, 273.8315
547.0129, 269.3991
547.4951, 264.8706
547.9772, 260.2552
548.4593, 256.3566
548.9414, 253.7468
549.4235, 251.7726
549.9056, 249.1514
550.3878, 245.6653
550.8699, 242.8914
551.3520, 241.6404
551.8341, 240.8400
552.3162, 239.5674
552.7983, 237.9112
553.2805, 236.6133
553.7626, 236.1843
554.2447, 236.0515
554.7268, 234.4433
555.2089, 229.8530
555.6910, 226.4770
556.1732, 225.1227
556.6553, 224.2407
557.1374, 222.7947
557.6195, 220.9334
558.1016, 219.4761
558.5837, 219.0308
559.0659, 219.1683
559.5480, 218.9625
560.0301, 218.4323
560.5122, 217.4302
560.9943, 215.7269
561.4764, 213.6931
561.9586, 211.6964
562.4407, 209.7369
562.9228, 207.7189
563.4049, 205.0978
563.8870, 202.7517
564.3691, 201.8189
564.8513, 202.1199
565.3334, 202.6880
565.8155, 203.1879
566.2976, 203.4201
566.7797, 202.9292
567.2618, 201.0988
567.7440, 200.0019
568.2261, 200.5810
568.7082, 201.0298
569.1903, 199.7102
569.6724, 197.4347
570.1545, 196.3544
570.6367, 197.6934
571.1188, 200.1855
571.6009, 201.0458
572.0830, 199.7924
572.5651, 198.7668
573.0472, 198.3804
573.5294, 198.1184
574.0115, 197.6781
574.4936, 197.1308
574.9757, 196.7366
575.4578, 196.8167
575.9399, 196.8017
576.4221, 196.4115
576.9042, 195.4862
577.3863, 192.6441
577.8684, 186.9002
578.3505, 180.9111
578.8326, 178.0002
579.3148, 178.4482
579.7969, 178.1945
580.2790, 176.9351
580.7611, 175.1757
581.2432, 172.9435
581.7253, 170.4406
582.2075, 167.8258
582.6896, 165.1997
583.1717, 162.7854
583.6538, 160.9509
584.1359, 159.7800
584.6180, 158.5812
585.1002, 157.0196
