##NAMES=Kovdorskite
##RRUFFID=R060579
##IDEAL CHEMISTRY=Mg_2_PO_4_(OH)&#183;3H_2_O
##LOCALITY=Kovdor Massif, Kola Peninsula, Murmanskaja Oblast', Northern Region, Russia
##OWNER=RRUFF
##SOURCE=Michael Scott
##DESCRIPTION=Pale blue prismatic crystals
##STATUS=The identification of this mineral has been confirmed by X-ray diffraction and chemical analysis
##URL=rruff.info/R060579
##MEASURED CHEMISTRY=(Mg_1.98_Fe_0.02_)_Σ=2_P_1.00_O_4_(OH)·3H_2_O; H_2_O by difference; (OH) by charge balance
90.49219, 42.50889
90.97430, 44.46559
91.45642, 45.16284
91.93854, 43.11550
92.42065, 40.24385
92.90277, 39.64463
93.38489, 41.82058
93.86700, 44.81779
94.34912, 46.36397
94.83124, 46.63390
95.31335, 46.57602
95.79547, 47.10205
96.27759, 47.87491
96.75970, 47.28271
97.24182, 44.60682
97.72394, 41.08196
98.20605, 39.53796
98.68817, 40.15764
99.17029, 41.25859
99.65240, 41.51279
100.1345, 40.85785
100.6166, 40.31273
101.0988, 40.23361
101.5809, 40.48937
102.0630, 39.82086
102.5451, 37.83777
103.0272, 35.61434
103.5093, 34.27723
103.9915, 33.95335
104.4736, 34.24249
104.9557, 35.24672
105.4378, 37.20559
105.9199, 38.52103
106.4020, 39.03188
106.8842, 38.98657
107.3663, 38.82679
107.8484, 38.68239
108.3305, 38.27106
108.8126, 37.41743
109.2947, 35.31664
109.7769, 34.11356
110.2590, 34.23833
110.7411, 35.33697
111.2232, 36.30524
111.7053, 37.11255
112.1874, 37.79604
112.6696, 38.36492
113.1517, 39.70870
113.6338, 39.98198
114.1159, 38.37756
114.5980, 35.17812
115.0801, 32.34448
115.5623, 29.98866
116.0444, 28.35808
116.5265, 27.64647
117.0086, 28.93674
117.4907, 30.24274
117.9728, 30.69423
118.4550, 30.23918
118.9371, 29.87227
119.4192, 30.27813
119.9013, 30.97451
120.3834, 31.33985
120.8655, 30.46026
121.3477, 29.57796
121.8298, 29.82182
122.3119, 31.50550
122.7940, 33.04150
123.2761, 33.24869
123.7582, 32.45951
124.2404, 31.41445
124.7225, 30.25953
125.2046, 29.14985
125.6867, 28.17368
126.1688, 27.16126
126.6509, 26.70997
127.1331, 27.61533
127.6152, 29.73455
128.0973, 32.35743
128.5794, 35.57359
129.0615, 38.94945
129.5436, 41.35858
130.0258, 42.24278
130.5079, 42.39248
130.9900, 42.92255
131.4721, 43.82865
131.9542, 45.55946
132.4363, 48.76130
132.9185, 53.27912
133.4006, 58.02269
133.8827, 62.60852
134.3648, 67.18235
134.8469, 72.43422
135.3290, 78.28347
135.8112, 85.19970
136.2933, 93.35241
136.7754, 102.7149
137.2575, 114.2447
137.7396, 129.4871
138.2217, 148.0213
138.7039, 163.4327
139.1860, 174.7934
139.6681, 184.5237
140.1502, 196.3692
140.6323, 210.3581
141.1144, 225.9843
141.5966, 243.7872
142.0787, 264.6764
142.5608, 283.2020
143.0429, 298.9608
143.5250, 312.5613
144.0071, 324.9550
144.4893, 334.9845
144.9714, 345.5150
145.4535, 357.5150
145.9356, 370.6299
146.4177, 386.1709
146.8998, 404.1374
147.3820, 424.5495
147.8641, 448.3900
148.3462, 476.0003
148.8283, 506.4071
149.3104, 539.4451
149.7925, 574.6910
150.2747, 612.9279
150.7568, 653.3487
151.2389, 696.0389
151.7210, 742.6379
152.2031, 794.9606
152.6852, 849.5665
153.1674, 904.9206
153.6495, 956.5598
154.1316, 1013.085
154.6137, 1077.942
155.0958, 1151.322
155.5779, 1222.325
156.0601, 1289.895
156.5422, 1354.635
157.0243, 1416.251
157.5064, 1480.232
157.9885, 1535.995
158.4706, 1582.720
158.9528, 1621.123
159.4349, 1642.856
159.9170, 1647.111
160.3991, 1633.170
160.8812, 1600.200
161.3633, 1541.834
161.8455, 1469.288
162.3276, 1383.228
162.8097, 1281.796
163.2918, 1182.628
163.7739, 1089.908
164.2560, 1004.035
164.7382, 921.9450
165.2203, 853.9150
165.7024, 795.2215
166.1845, 741.3997
166.6666, 691.0884
167.1487, 646.8311
167.6309, 610.6284
168.1130, 580.7385
168.5951, 554.2087
169.0772, 529.5176
169.5593, 507.1284
170.0414, 487.3588
170.5236, 470.0231
171.0057, 455.5240
171.4878, 445.2259
171.9699, 438.0383
172.4520, 430.9102
172.9341, 420.8931
173.4163, 410.3117
173.8984, 402.0567
174.3805, 397.3940
174.8626, 394.0429
175.3447, 389.4894
175.8268, 384.0819
176.3090, 379.4671
176.7911, 376.9202
177.2732, 375.8778
177.7553, 375.4959
178.2374, 375.6168
178.7195, 376.2222
179.2017, 376.7584
179.6838, 377.3734
180.1659, 379.5748
180.6480, 385.5685
181.1301, 394.0323
181.6122, 402.0921
182.0944, 409.2305
182.5765, 415.2971
183.0586, 420.0492
183.5407, 423.4226
184.0228, 426.0190
184.5049, 428.1598
184.9871, 429.8960
185.4692, 431.2701
185.9513, 431.8881
186.4334, 432.3133
186.9155, 433.7967
187.3976, 436.3301
187.8798, 439.9043
188.3619, 444.5216
188.8440, 450.1997
189.3261, 456.7716
189.8082, 464.1561
190.2903, 472.4246
190.7725, 482.1666
191.2546, 493.6841
191.7367, 505.7462
192.2188, 516.8650
192.7009, 527.2161
193.1830, 538.2739
193.6652, 550.2301
194.1473, 563.3066
194.6294, 578.5275
195.1115, 596.1782
195.5936, 614.9957
196.0757, 632.9754
196.5579, 650.0371
197.0400, 668.5428
197.5221, 690.1995
198.0042, 714.6300
198.4863, 737.8223
198.9684, 759.8458
199.4506, 780.2678
199.9327, 798.8788
200.4148, 816.0969
200.8969, 828.9177
201.3790, 837.4142
201.8611, 841.7109
202.3433, 835.7813
202.8254, 818.1310
203.3075, 792.5897
203.7896, 764.7675
204.2717, 733.9418
204.7538, 703.7216
205.2360, 675.0009
205.7181, 647.5107
206.2002, 623.7609
206.6823, 603.6445
207.1644, 587.3475
207.6465, 575.4316
208.1287, 568.3474
208.6108, 564.3689
209.0929, 562.8710
209.5750, 563.8876
210.0571, 567.2814
210.5392, 573.1840
211.0214, 581.3434
211.5035, 591.6775
211.9856, 604.7753
212.4677, 618.1535
212.9498, 630.1574
213.4319, 639.5531
213.9140, 652.4982
214.3962, 669.9286
214.8783, 690.4377
215.3604, 710.2938
215.8425, 728.9407
216.3246, 748.5410
216.8067, 770.8277
217.2889, 796.9055
217.7710, 821.0605
218.2531, 843.0360
218.7352, 863.0624
219.2173, 882.6608
219.6994, 903.4313
220.1816, 920.8013
220.6637, 933.2412
221.1458, 940.9001
221.6279, 943.1088
222.1100, 939.1054
222.5921, 930.0347
223.0743, 917.9836
223.5564, 900.9489
224.0385, 884.6363
224.5206, 871.7331
225.0027, 861.8938
225.4848, 855.9781
225.9670, 854.7767
226.4491, 857.2875
226.9312, 861.1058
227.4133, 866.5451
227.8954, 872.7537
228.3775, 880.3598
228.8597, 893.9197
229.3418, 898.0187
229.8239, 892.0111
230.3060, 876.5586
230.7881, 853.4471
231.2702, 820.6923
231.7524, 782.6452
232.2345, 740.9402
232.7166, 691.7938
233.1987, 646.0524
233.6808, 603.2436
234.1629, 564.1660
234.6451, 530.2315
235.1272, 501.8175
235.6093, 478.4008
236.0914, 460.1930
236.5735, 449.1867
237.0556, 438.8687
237.5378, 429.1054
238.0199, 420.0771
238.5020, 412.3069
238.9841, 406.0436
239.4662, 400.5478
239.9483, 395.4384
240.4305, 390.5068
240.9126, 386.5226
241.3947, 383.3498
241.8768, 381.1511
242.3589, 380.4253
242.8410, 381.6689
243.3232, 383.5940
243.8053, 385.6038
244.2874, 387.3365
244.7695, 389.9913
245.2516, 393.3908
245.7337, 397.7828
246.2159, 403.8916
246.6980, 412.6958
247.1801, 421.6931
247.6622, 429.6662
248.1443, 435.3712
248.6264, 443.7025
249.1086, 455.2900
249.5907, 469.2374
250.0728, 483.4983
250.5549, 496.8651
251.0370, 512.5814
251.5191, 532.2487
252.0013, 556.7067
252.4834, 581.8000
252.9655, 607.5061
253.4476, 633.6090
253.9297, 659.8416
254.4118, 686.7289
254.8940, 712.3272
255.3761, 737.3975
255.8582, 764.7776
256.3403, 780.2451
256.8224, 782.3110
257.3046, 773.7031
257.7867, 758.5007
258.2688, 735.6288
258.7509, 708.1086
259.2330, 675.5933
259.7151, 636.1067
260.1973, 602.2291
260.6794, 575.4529
261.1615, 553.5084
261.6436, 533.7471
262.1257, 515.5039
262.6078, 500.6876
263.0900, 490.4654
263.5721, 485.1296
264.0542, 480.5533
264.5363, 476.3494
265.0184, 473.2985
265.5005, 472.4132
265.9827, 474.0775
266.4648, 476.7783
266.9469, 480.0014
267.4290, 483.6997
267.9111, 489.1406
268.3932, 497.0063
268.8754, 505.4930
269.3575, 512.3699
269.8396, 517.1813
270.3217, 522.3248
270.8038, 528.5201
271.2859, 535.7443
271.7681, 542.3234
272.2502, 547.9540
272.7323, 553.5734
273.2144, 560.2642
273.6965, 568.4222
274.1786, 575.6174
274.6608, 581.0820
275.1429, 585.1022
275.6250, 590.0718
276.1071, 596.2802
276.5892, 602.5966
277.0714, 608.3406
277.5535, 613.7447
278.0356, 616.6355
278.5177, 615.8968
278.9998, 612.5263
279.4819, 610.7451
279.9641, 610.8477
280.4462, 611.2656
280.9283, 610.6155
281.4104, 608.8607
281.8925, 607.4638
282.3746, 606.5512
282.8568, 606.2123
283.3389, 606.3260
283.8210, 606.7161
284.3031, 608.8852
284.7852, 614.4372
285.2673, 623.1551
285.7495, 632.0746
286.2316, 640.6843
286.7137, 649.5087
287.1958, 660.2526
287.6779, 672.9926
288.1600, 684.9792
288.6422, 694.3839
289.1243, 701.4929
289.6064, 707.8882
290.0885, 713.8859
290.5706, 719.0071
291.0527, 722.0487
291.5349, 723.1403
292.0170, 724.1125
292.4991, 725.2828
292.9812, 727.0491
293.4633, 731.0093
293.9454, 737.4787
294.4276, 745.2665
294.9097, 751.9966
295.3918, 758.2363
295.8739, 766.9223
296.3560, 779.3289
296.8381, 795.1961
297.3203, 814.0557
297.8024, 835.9332
298.2845, 859.5042
298.7666, 882.9263
299.2487, 906.6306
299.7308, 932.6939
300.2130, 964.8120
300.6951, 998.7487
301.1772, 1028.276
301.6593, 1053.306
302.1414, 1074.746
302.6235, 1094.894
303.1057, 1111.807
303.5878, 1121.157
304.0699, 1122.116
304.5520, 1114.496
305.0341, 1096.784
305.5162, 1069.585
305.9984, 1036.830
306.4805, 998.3030
306.9626, 956.9137
307.4447, 917.3798
307.9268, 880.3134
308.4089, 845.6017
308.8911, 811.9766
309.3732, 780.1038
309.8553, 752.7570
310.3374, 732.9629
310.8195, 717.7857
311.3016, 704.5795
311.7838, 692.5769
312.2659, 682.9213
312.7480, 676.9992
313.2301, 674.1971
313.7122, 672.8265
314.1943, 671.6971
314.6765, 671.9808
315.1586, 674.7513
315.6407, 680.6041
316.1228, 687.3321
316.6049, 694.4620
317.0870, 701.6982
317.5692, 708.4455
318.0513, 714.7070
318.5334, 720.3187
319.0155, 725.2338
319.4976, 729.5154
319.9797, 732.8640
320.4619, 735.5569
320.9440, 737.1263
321.4261, 737.0313
321.9082, 734.0458
322.3903, 730.4434
322.8724, 726.6137
323.3546, 722.5767
323.8367, 719.0908
324.3188, 716.0573
324.8009, 713.7673
325.2830, 712.4746
325.7651, 711.7584
326.2473, 712.5373
326.7294, 715.3666
327.2115, 720.0558
327.6936, 725.0623
328.1757, 728.2802
328.6578, 733.2411
329.1400, 741.7499
329.6221, 756.1742
330.1042, 770.7799
330.5863, 785.1095
331.0684, 799.6453
331.5505, 815.4834
332.0327, 832.9185
332.5148, 851.4170
332.9969, 870.9031
333.4790, 890.8536
333.9611, 912.0786
334.4432, 934.4834
334.9254, 958.3055
335.4075, 983.7715
335.8896, 1011.799
336.3717, 1039.982
336.8538, 1066.660
337.3359, 1091.585
337.8180, 1120.577
338.3001, 1154.315
338.7823, 1191.010
339.2644, 1227.813
339.7465, 1264.377
340.2286, 1303.682
340.7107, 1346.641
341.1928, 1393.239
341.6750, 1439.166
342.1571, 1485.255
342.6392, 1529.922
343.1213, 1573.555
343.6034, 1615.844
344.0855, 1653.309
344.5677, 1685.888
345.0498, 1712.317
345.5319, 1729.785
346.0140, 1738.395
346.4961, 1735.484
346.9782, 1718.551
347.4604, 1688.332
347.9425, 1648.475
348.4246, 1598.205
348.9067, 1540.592
349.3888, 1477.774
349.8709, 1410.442
350.3531, 1342.375
350.8352, 1273.052
351.3173, 1205.085
351.7994, 1142.335
352.2815, 1085.271
352.7636, 1033.132
353.2458, 985.3466
353.7279, 941.9219
354.2100, 902.9218
354.6921, 869.5742
355.1742, 839.9413
355.6563, 811.5814
356.1385, 784.7128
356.6206, 760.2870
357.1027, 739.3123
357.5848, 721.0743
358.0669, 704.5089
358.5490, 689.7265
359.0312, 676.0583
359.5133, 662.5003
359.9954, 649.5341
360.4775, 638.4519
360.9596, 630.6622
361.4417, 624.4678
361.9239, 618.4535
362.4060, 611.9023
362.8881, 607.0118
363.3702, 605.3160
363.8523, 605.6622
364.3344, 606.2850
364.8166, 605.9756
365.2987, 606.5072
365.7808, 608.5964
366.2629, 612.3708
366.7450, 616.9537
367.2271, 622.9709
367.7093, 629.3741
368.1914, 635.2427
368.6735, 638.8231
369.1556, 643.7872
369.6377, 650.9285
370.1198, 660.0637
370.6020, 669.2481
371.0841, 678.3419
371.5662, 687.6559
372.0483, 697.4089
372.5304, 708.9346
373.0125, 718.4898
373.4947, 725.3727
373.9768, 730.3770
374.4589, 735.6954
374.9410, 742.4352
375.4231, 747.2275
375.9052, 748.7794
376.3874, 746.8973
376.8695, 743.2484
377.3516, 737.8174
377.8337, 730.5846
378.3158, 721.1918
378.7979, 709.4718
379.2801, 696.4879
379.7622, 682.1718
380.2443, 666.8277
380.7264, 651.1910
381.2085, 635.3620
381.6906, 619.0135
382.1728, 601.2216
382.6549, 582.2569
383.1370, 564.9967
383.6191, 549.9060
384.1012, 536.4427
384.5833, 523.4949
385.0655, 511.0892
385.5476, 499.5143
386.0297, 488.5142
386.5118, 478.3849
386.9939, 469.5463
387.4760, 462.1627
387.9582, 455.5737
388.4403, 449.2281
388.9224, 443.1418
389.4045, 437.3900
389.8866, 431.8691
390.3687, 426.7121
390.8509, 422.0942
391.3330, 418.0257
391.8151, 414.3950
392.2972, 411.4034
392.7793, 408.7383
393.2614, 405.9947
393.7436, 402.2158
394.2257, 399.6126
394.7078, 400.0135
395.1899, 402.4146
395.6720, 404.1805
396.1541, 403.6341
396.6363, 402.9403
397.1184, 403.1688
397.6005, 404.7089
398.0826, 406.3022
398.5647, 407.6747
399.0468, 409.0327
399.5290, 410.6259
400.0111, 412.0471
400.4932, 414.1764
400.9753, 417.3167
401.4574, 421.4809
401.9395, 425.6761
402.4217, 429.6656
402.9038, 433.9621
403.3859, 438.9460
403.8680, 444.8702
404.3501, 450.9039
404.8322, 456.9519
405.3144, 463.0649
405.7965, 469.0518
406.2786, 474.7044
406.7607, 481.0303
407.2428, 489.0089
407.7249, 498.7716
408.2071, 506.4671
408.6892, 511.7108
409.1713, 516.1524
409.6534, 522.1414
410.1355, 529.5436
410.6176, 536.2670
411.0998, 542.3159
411.5819, 546.9581
412.0640, 547.9748
412.5461, 545.4429
413.0282, 541.4891
413.5103, 537.3507
413.9925, 533.0486
414.4746, 528.5543
414.9567, 523.8228
415.4388, 518.9899
415.9209, 513.9592
416.4030, 508.8939
416.8852, 504.0548
417.3673, 499.2479
417.8494, 495.0103
418.3315, 491.7353
418.8136, 489.4759
419.2957, 488.0121
419.7779, 487.0571
420.2600, 486.9273
420.7421, 487.9558
421.2242, 491.6110
421.7063, 495.0084
422.1884, 496.2704
422.6706, 496.2932
423.1527, 498.5114
423.6348, 505.5771
424.1169, 513.4919
424.5990, 520.3736
425.0811, 524.9943
425.5633, 531.0094
426.0454, 539.1338
426.5275, 548.4278
427.0096, 557.8636
427.4917, 567.4055
427.9738, 577.0261
428.4560, 586.4529
428.9381, 595.8217
429.4202, 606.4037
429.9023, 618.1046
430.3844, 630.9224
430.8665, 644.8107
431.3487, 659.8645
431.8308, 675.4256
432.3129, 691.4352
432.7950, 707.8908
433.2771, 724.4064
433.7592, 740.8159
434.2414, 757.7726
434.7235, 775.3361
435.2056, 793.6299
435.6877, 813.2740
436.1698, 834.2101
436.6519, 856.1088
437.1341, 879.1541
437.6162, 902.6138
438.0983, 925.0101
438.5804, 945.1832
439.0625, 965.1759
439.5446, 987.6819
440.0268, 1012.134
440.5089, 1036.451
440.9910, 1059.633
441.4731, 1081.991
441.9552, 1104.420
442.4373, 1127.064
442.9195, 1148.311
443.4016, 1167.681
443.8837, 1185.051
444.3658, 1200.275
444.8479, 1210.554
445.3300, 1221.459
445.8122, 1235.290
446.2943, 1251.643
446.7764, 1267.669
447.2585, 1284.291
447.7406, 1299.442
448.2227, 1311.990
448.7049, 1320.316
449.1870, 1328.959
449.6691, 1337.939
450.1512, 1347.191
450.6333, 1356.575
451.1154, 1366.730
451.5976, 1375.847
452.0797, 1383.623
452.5618, 1390.031
453.0439, 1393.720
453.5260, 1394.072
454.0081, 1393.420
454.4903, 1394.443
454.9724, 1397.064
455.4545, 1395.958
455.9366, 1390.311
456.4187, 1381.073
456.9008, 1369.905
457.3830, 1356.590
457.8651, 1340.884
458.3472, 1321.076
458.8293, 1299.100
459.3114, 1278.466
459.7935, 1259.344
460.2757, 1238.896
460.7578, 1214.471
461.2399, 1187.647
461.7220, 1160.527
462.2041, 1132.679
462.6862, 1105.778
463.1684, 1080.706
463.6505, 1057.227
464.1326, 1035.400
464.6147, 1016.204
465.0968, 997.7264
465.5789, 979.1560
466.0611, 960.2103
466.5432, 942.5636
467.0253, 926.4120
467.5074, 911.9120
467.9895, 899.2792
468.4716, 890.1904
468.9538, 880.5486
469.4359, 869.6534
469.9180, 858.1313
470.4001, 847.9844
470.8822, 839.8834
471.3643, 832.1254
471.8465, 824.0755
472.3286, 815.7168
472.8107, 807.4770
473.2928, 799.7241
473.7749, 791.4922
474.2570, 781.4684
474.7392, 769.6741
475.2213, 758.3429
475.7034, 747.8191
476.1855, 738.1988
476.6676, 729.9211
477.1497, 722.8605
477.6319, 716.2208
478.1140, 709.2826
478.5961, 702.4413
479.0782, 696.2694
479.5603, 690.7857
480.0424, 686.1508
480.5246, 682.3986
481.0067, 679.6017
481.4888, 677.8969
481.9709, 678.3893
482.4530, 678.7252
482.9352, 677.4786
483.4173, 675.0552
483.8994, 672.7386
484.3815, 670.9738
484.8636, 669.3963
485.3457, 667.8087
485.8279, 666.1133
486.3100, 664.6804
486.7921, 664.2502
487.2742, 663.7084
487.7563, 661.9752
488.2384, 657.9215
488.7206, 654.6375
489.2027, 652.7452
489.6848, 651.8275
490.1669, 650.3380
490.6490, 648.0319
491.1311, 645.9601
491.6133, 645.0323
492.0954, 645.2112
492.5775, 643.6105
493.0596, 639.8617
493.5417, 635.9436
494.0238, 634.6871
494.5060, 635.3710
494.9881, 634.5192
495.4702, 630.8021
495.9523, 625.9079
496.4344, 622.3845
496.9165, 619.8460
497.3987, 616.8610
497.8808, 611.9295
498.3629, 606.5472
498.8450, 602.2843
499.3271, 599.2633
499.8092, 596.2069
500.2914, 592.2075
500.7735, 587.9266
501.2556, 583.8965
501.7377, 581.2054
502.2198, 577.6783
502.7019, 572.1937
503.1841, 565.4728
503.6662, 559.4498
504.1483, 553.7705
504.6304, 549.2757
505.1125, 546.7439
505.5946, 546.4489
506.0768, 544.4636
506.5589, 539.9315
507.0410, 535.0136
507.5231, 531.4277
508.0052, 529.3052
508.4873, 527.8438
508.9695, 527.2356
509.4516, 526.8724
509.9337, 525.3322
510.4158, 522.6993
510.8979, 520.5871
511.3800, 519.7719
511.8622, 519.9175
512.3443, 520.3951
512.8264, 521.1849
513.3085, 522.0615
513.7906, 522.4127
514.2728, 522.9093
514.7549, 524.5140
515.2370, 527.6175
515.7191, 531.2026
516.2012, 534.7401
516.6833, 538.3162
517.1655, 542.1199
517.6476, 546.0444
518.1297, 550.3760
518.6118, 555.1717
519.0939, 560.4453
519.5760, 566.3073
520.0582, 572.6342
520.5403, 579.6539
521.0224, 587.4634
521.5045, 596.4036
521.9866, 605.2339
522.4688, 613.8453
522.9509, 622.4621
523.4330, 631.5309
523.9151, 641.1289
524.3972, 650.7084
524.8793, 659.9078
525.3615, 669.0914
525.8436, 679.2363
526.3257, 690.3909
526.8078, 702.5639
527.2899, 717.0912
527.7720, 732.5811
528.2542, 745.1208
528.7363, 754.4132
529.2184, 763.7399
529.7005, 776.2320
530.1826, 790.2081
530.6647, 803.3489
531.1469, 814.5363
531.6290, 825.3535
532.1111, 836.2865
532.5932, 847.4063
533.0753, 858.8112
533.5574, 872.4991
534.0396, 884.6803
534.5217, 893.9761
535.0038, 900.1201
535.4859, 905.3383
535.9680, 909.3522
536.4501, 912.7363
536.9323, 915.9064
537.4144, 919.3311
537.8965, 921.3128
538.3786, 921.8129
538.8607, 920.8951
539.3428, 918.3264
539.8250, 913.9742
540.3071, 909.6259
540.7892, 906.1506
541.2713, 902.7820
541.7534, 897.5670
542.2355, 890.6324
542.7177, 883.2911
543.1998, 876.4035
543.6819, 869.5328
544.1640, 861.7450
544.6461, 852.8968
545.1282, 844.5645
545.6104, 838.4000
546.0925, 833.2269
546.5746, 827.7033
547.0567, 820.9572
547.5388, 814.5133
548.0209, 808.9030
548.5031, 804.0136
548.9852, 799.4709
549.4673, 795.2465
549.9494, 791.3469
550.4315, 787.7512
550.9136, 784.4603
551.3958, 781.6045
551.8779, 779.2588
552.3600, 777.2214
552.8421, 775.3654
553.3242, 773.6964
553.8063, 772.1191
554.2885, 770.5680
554.7706, 769.2807
555.2527, 768.6913
555.7348, 768.7096
556.2169, 768.7205
556.6990, 768.3165
557.1812, 768.1046
557.6633, 769.2087
558.1454, 771.3353
558.6275, 773.3861
559.1096, 774.8630
559.5917, 775.9050
560.0739, 776.5170
560.5560, 776.7037
561.0381, 776.8026
561.5202, 777.0022
562.0023, 777.1381
562.4844, 777.1218
562.9666, 777.5373
563.4487, 776.8358
563.9308, 774.2270
564.4129, 770.7886
564.8950, 768.2252
565.3771, 767.0883
565.8593, 765.6373
566.3414, 763.5193
566.8235, 760.7864
567.3056, 757.4769
567.7877, 753.5413
568.2698, 749.4788
568.7520, 745.4495
569.2341, 741.5186
569.7162, 737.9592
570.1983, 734.8552
570.6804, 731.4366
571.1625, 726.8683
571.6447, 721.5852
572.1268, 716.3450
572.6089, 711.4559
573.0910, 706.2865
573.5731, 700.6070
574.0552, 694.3248
574.5374, 687.1443
575.0195, 679.3245
575.5016, 670.3155
575.9837, 659.1047
576.4658, 646.0370
576.9479, 634.6233
577.4301, 626.7968
577.9122, 618.5872
578.3943, 607.9749
578.8764, 594.4377
579.3585, 581.8239
579.8406, 570.5247
580.3228, 559.2631
580.8049, 546.2958
581.2870, 531.8141
581.7691, 518.3409
582.2512, 506.4487
582.7333, 495.6107
583.2155, 485.2701
583.6975, 475.4488
584.1796, 465.7092
584.6617, 455.7837
