##NAMES=Kovdorskite
##RRUFFID=R060579
##IDEAL CHEMISTRY=Mg_2_PO_4_(OH)&#183;3H_2_O
##LOCALITY=Kovdor Massif, Kola Peninsula, Murmanskaja Oblast', Northern Region, Russia
##OWNER=RRUFF
##SOURCE=Michael Scott
##DESCRIPTION=Pale blue prismatic crystals
##STATUS=The identification of this mineral has been confirmed by X-ray diffraction and chemical analysis
##URL=rruff.info/R060579
##MEASURED CHEMISTRY=(Mg_1.98_Fe_0.02_)_Σ=2_P_1.00_O_4_(OH)·3H_2_O; H_2_O by difference; (OH) by charge balance
91.53320, 298.4056
92.01532, 305.5250
92.49744, 307.3500
92.97955, 305.6428
93.46167, 299.6291
93.94379, 292.4843
94.42590, 286.6945
94.90802, 281.5092
95.39014, 275.2876
95.87225, 267.7815
96.35437, 260.4638
96.83649, 254.1853
97.31860, 248.5029
97.80072, 242.8643
98.28284, 236.5156
98.76495, 229.5986
99.24707, 224.2112
99.72919, 221.7300
100.2113, 219.2944
100.6934, 216.1368
101.1755, 212.4017
101.6577, 208.5471
102.1398, 204.8638
102.6219, 201.2529
103.1040, 198.3431
103.5861, 195.9119
104.0682, 194.0576
104.5504, 192.9349
105.0325, 192.5161
105.5146, 192.5301
105.9967, 192.6695
106.4788, 193.1658
106.9609, 193.0695
107.4431, 191.3909
107.9252, 189.3190
108.4073, 188.6619
108.8894, 190.2652
109.3715, 192.8898
109.8536, 194.1672
110.3358, 193.7416
110.8179, 193.7404
111.3000, 195.4739
111.7821, 198.7987
112.2642, 202.3304
112.7463, 205.4855
113.2285, 208.6796
113.7106, 212.3372
114.1927, 216.5616
114.6748, 221.1315
115.1569, 225.5008
115.6390, 229.1984
116.1212, 234.1110
116.6033, 241.2351
117.0854, 249.5025
117.5675, 258.0905
118.0496, 266.7393
118.5317, 275.2610
119.0139, 282.7165
119.4960, 290.4175
119.9781, 295.2542
120.4602, 296.5338
120.9423, 294.5957
121.4244, 289.8954
121.9066, 282.5746
122.3887, 272.3965
122.8708, 262.5920
123.3529, 252.1005
123.8350, 242.7072
124.3171, 235.2275
124.7993, 229.7034
125.2814, 225.7965
125.7635, 223.1852
126.2456, 222.1069
126.7277, 222.2667
127.2098, 223.4100
127.6920, 225.9025
128.1741, 229.9655
128.6562, 235.5272
129.1383, 243.1323
129.6204, 253.8328
130.1025, 267.1961
130.5847, 282.5638
131.0668, 300.4445
131.5489, 320.2932
132.0310, 340.7595
132.5131, 364.6999
132.9952, 385.4593
133.4774, 399.9936
133.9595, 408.1223
134.4416, 407.6242
134.9237, 394.2557
135.4058, 366.1771
135.8879, 337.5410
136.3701, 307.5192
136.8522, 280.0182
137.3343, 257.6681
137.8164, 240.9758
138.2985, 228.8110
138.7806, 219.2011
139.2628, 212.6457
139.7449, 208.1982
140.2270, 205.9286
140.7091, 205.1840
141.1912, 205.6715
141.6733, 207.2504
142.1555, 209.5581
142.6376, 211.3293
143.1197, 212.0692
143.6018, 212.7748
144.0839, 213.4726
144.5660, 214.2066
145.0482, 214.8926
145.5303, 215.3752
146.0124, 215.8586
146.4945, 217.9301
146.9766, 222.0634
147.4587, 226.8853
147.9409, 232.1826
148.4230, 237.8123
148.9051, 243.2108
149.3872, 247.8817
149.8693, 251.9736
150.3514, 256.5879
150.8336, 261.1497
151.3157, 266.5988
151.7978, 273.7600
152.2799, 282.7355
152.7620, 293.1694
153.2441, 305.7042
153.7263, 319.5153
154.2084, 333.6111
154.6905, 347.4611
155.1726, 361.2935
155.6547, 376.1967
156.1368, 393.6834
156.6190, 409.1822
157.1011, 421.6129
157.5832, 430.7353
158.0653, 436.0333
158.5474, 437.2610
159.0295, 434.3964
159.5117, 427.0673
159.9938, 412.6016
160.4759, 395.6026
160.9580, 376.9058
161.4401, 357.0157
161.9222, 336.7255
162.4044, 316.6162
162.8865, 296.4167
163.3686, 277.3996
163.8507, 258.8250
164.3328, 241.7932
164.8149, 226.9624
165.2971, 214.2278
165.7792, 203.3726
166.2613, 194.0988
166.7434, 186.8911
167.2255, 180.2595
167.7076, 174.0722
168.1898, 168.4139
168.6719, 163.2896
169.1540, 158.7016
169.6361, 154.8441
170.1182, 152.0619
170.6003, 150.8327
171.0825, 149.6014
171.5646, 148.2375
172.0467, 146.8717
172.5288, 145.6606
173.0109, 144.6540
173.4930, 143.7737
173.9752, 142.7615
174.4573, 141.4493
174.9394, 140.7997
175.4215, 141.4964
175.9036, 143.0538
176.3857, 144.3515
176.8679, 144.9772
177.3500, 145.4032
177.8321, 146.2473
178.3142, 147.5204
178.7963, 148.9497
179.2784, 150.4553
179.7606, 152.0274
180.2427, 153.4559
180.7248, 154.4446
181.2069, 155.4948
181.6890, 157.0831
182.1711, 159.2678
182.6533, 161.5904
183.1354, 163.9244
183.6175, 166.4165
184.0996, 167.7567
184.5817, 166.0335
185.0638, 164.0144
185.5460, 163.3352
186.0281, 164.3401
186.5102, 166.2108
186.9923, 167.7931
187.4744, 168.8178
187.9565, 170.2963
188.4387, 172.1222
188.9208, 174.5093
189.4029, 177.7306
189.8850, 181.8580
190.3671, 186.5447
190.8492, 191.1740
191.3314, 195.2354
191.8135, 200.1044
192.2956, 206.1128
192.7777, 212.7021
193.2598, 219.2466
193.7419, 225.5049
194.2241, 231.9236
194.7062, 239.5622
195.1883, 249.1884
195.6704, 259.3937
196.1525, 270.4815
196.6346, 281.9958
197.1168, 293.5920
197.5989, 305.1508
198.0810, 316.4156
198.5631, 326.5912
199.0452, 336.8098
199.5273, 344.6383
200.0095, 350.1413
200.4916, 352.9215
200.9737, 352.1819
201.4558, 347.3454
201.9379, 339.1144
202.4200, 329.0782
202.9022, 316.8170
203.3843, 304.1100
203.8664, 290.4940
204.3485, 276.7319
204.8306, 265.0377
205.3127, 256.4603
205.7949, 250.5817
206.2770, 246.0525
206.7591, 242.7855
207.2412, 240.7510
207.7233, 240.1479
208.2054, 240.8669
208.6876, 242.2550
209.1697, 244.0671
209.6518, 246.5100
210.1339, 249.7411
210.6160, 253.8795
211.0981, 258.4442
211.5803, 263.0478
212.0624, 267.6798
212.5445, 272.6040
213.0266, 277.8616
213.5087, 283.4801
213.9908, 289.4606
214.4730, 295.7640
214.9551, 302.4756
215.4372, 309.4983
215.9193, 316.7896
216.4014, 324.8372
216.8836, 334.3187
217.3657, 344.3828
217.8478, 355.1064
218.3299, 366.4971
218.8120, 377.1548
219.2941, 384.9798
219.7763, 389.4393
220.2584, 392.6889
220.7405, 394.5067
221.2226, 395.7314
221.7047, 396.4142
222.1868, 396.6611
222.6690, 397.5267
223.1511, 400.4728
223.6332, 405.1618
224.1153, 413.1542
224.5974, 425.7482
225.0795, 440.2928
225.5617, 455.6088
226.0438, 471.1451
226.5259, 486.0496
227.0080, 499.3241
227.4901, 513.4009
227.9722, 520.4065
228.4544, 520.5055
228.9365, 514.5056
229.4186, 502.4985
229.9007, 484.7317
230.3828, 461.9671
230.8649, 435.3447
231.3471, 400.1701
231.8292, 368.4394
232.3113, 340.3694
232.7934, 315.2928
233.2755, 292.6366
233.7576, 272.3255
234.2398, 254.2299
234.7219, 238.4510
235.2040, 225.5857
235.6861, 214.4400
236.1682, 205.3799
236.6503, 197.7729
237.1325, 191.3819
237.6146, 186.1138
238.0967, 181.4362
238.5788, 176.5877
239.0609, 171.4712
239.5430, 166.4551
240.0252, 161.1579
240.5073, 156.1843
240.9894, 152.3182
241.4715, 149.7233
241.9536, 147.7258
242.4357, 145.3625
242.9179, 142.4226
243.4000, 140.1525
243.8821, 138.9356
244.3642, 138.3323
244.8463, 137.8695
245.3284, 137.4470
245.8106, 137.2581
246.2927, 137.6328
246.7748, 138.5919
247.2569, 139.4927
247.7390, 139.8981
248.2211, 140.3483
248.7033, 141.4854
249.1854, 143.4231
249.6675, 145.9249
250.1496, 148.9178
250.6317, 152.3639
251.1138, 155.9627
251.5960, 159.5448
252.0781, 163.3017
252.5602, 167.7269
253.0423, 172.9804
253.5244, 178.1040
254.0065, 182.6771
254.4887, 186.5028
254.9708, 188.6178
255.4529, 188.7000
255.9350, 186.9528
256.4171, 183.4044
256.8992, 177.8611
257.3813, 171.4258
257.8635, 163.7507
258.3456, 155.7711
258.8277, 149.1946
259.3098, 145.2429
259.7919, 142.5746
260.2740, 139.0812
260.7562, 134.4008
261.2383, 130.4653
261.7204, 129.1823
262.2025, 129.1143
262.6846, 128.4822
263.1667, 126.3899
263.6489, 123.9936
264.1310, 122.9944
264.6131, 123.6353
265.0952, 124.6204
265.5773, 125.4858
266.0594, 126.3632
266.5416, 127.4022
267.0237, 128.6678
267.5058, 130.0443
267.9879, 131.3277
268.4700, 132.4375
268.9521, 133.8229
269.4343, 136.2889
269.9164, 138.7573
270.3985, 140.1447
270.8806, 140.1039
271.3627, 139.8521
271.8448, 141.0749
272.3270, 144.1237
272.8091, 146.8373
273.2912, 148.3232
273.7733, 149.5466
274.2554, 151.1133
274.7375, 153.1308
275.2197, 155.2367
275.7018, 157.0871
276.1839, 158.6703
276.6660, 160.0244
277.1481, 160.9677
277.6302, 161.7950
278.1124, 162.8255
278.5945, 163.9893
279.0766, 164.7283
279.5587, 164.2274
280.0408, 162.2831
280.5229, 160.9428
281.0051, 160.7396
281.4872, 160.8225
281.9693, 160.7398
282.4514, 160.5986
282.9335, 160.8616
283.4156, 162.1505
283.8978, 164.5027
284.3799, 166.1068
284.8620, 166.1538
285.3441, 166.2165
285.8262, 166.6563
286.3083, 167.5279
286.7905, 168.8659
287.2726, 170.7510
287.7547, 173.1335
288.2368, 175.5386
288.7189, 178.3565
289.2010, 180.6877
289.6832, 181.7310
290.1653, 182.2486
290.6474, 183.4094
291.1295, 185.9245
291.6116, 189.4886
292.0938, 192.8249
292.5759, 195.3966
293.0580, 198.5391
293.5401, 202.2155
294.0222, 206.6434
294.5043, 212.1739
294.9865, 218.9919
295.4686, 226.6526
295.9507, 233.9483
296.4328, 239.8259
296.9149, 247.3394
297.3970, 257.3192
297.8792, 268.5368
298.3613, 280.1489
298.8434, 291.8617
299.3255, 303.4160
299.8076, 314.4468
300.2897, 325.1454
300.7719, 334.7998
301.2540, 344.6077
301.7361, 352.7155
302.2182, 358.1613
302.7003, 360.6739
303.1824, 360.4924
303.6646, 357.8491
304.1467, 352.6779
304.6288, 345.1094
305.1109, 333.6134
305.5930, 321.1710
306.0751, 308.5112
306.5573, 296.0521
307.0394, 284.3466
307.5215, 273.9337
308.0036, 264.7987
308.4857, 256.3693
308.9678, 248.2837
309.4500, 241.2930
309.9321, 235.8660
310.4142, 231.7013
310.8963, 228.2030
311.3784, 224.9540
311.8605, 221.9923
312.3427, 219.6608
312.8248, 217.9591
313.3069, 216.9800
313.7890, 217.0365
314.2711, 217.7128
314.7532, 218.4398
315.2354, 218.9197
315.7175, 219.4066
316.1996, 220.6864
316.6817, 223.5732
317.1638, 225.9874
317.6459, 227.4100
318.1281, 228.4747
318.6102, 229.8069
319.0923, 231.5857
319.5744, 233.4237
320.0565, 234.5772
320.5386, 234.4718
321.0208, 235.0233
321.5029, 236.8462
321.9850, 238.8306
322.4671, 239.9396
322.9492, 240.2689
323.4313, 241.0287
323.9135, 243.7997
324.3956, 249.1497
324.8777, 253.6146
325.3598, 256.2360
325.8419, 258.8681
326.3240, 262.0389
326.8062, 265.8326
327.2883, 270.2492
327.7704, 275.3856
328.2525, 281.1956
328.7346, 286.9997
329.2167, 292.4984
329.6989, 298.4044
330.1810, 304.9012
330.6631, 311.9102
331.1452, 319.1694
331.6273, 326.4914
332.1094, 334.1555
332.5916, 343.0683
333.0737, 353.6645
333.5558, 364.8932
334.0379, 376.3661
334.5200, 388.3942
335.0021, 400.9015
335.4843, 413.9406
335.9664, 428.1185
336.4485, 444.6238
336.9306, 464.4411
337.4127, 483.7818
337.8948, 500.4790
338.3770, 518.0141
338.8591, 538.5023
339.3412, 562.1603
339.8233, 587.6226
340.3055, 614.0106
340.7876, 641.3049
341.2697, 668.7185
341.7518, 697.5029
342.2339, 724.9092
342.7160, 751.4842
343.1982, 775.9780
343.6803, 796.0645
344.1624, 810.3954
344.6445, 819.0251
345.1266, 822.2506
345.6087, 820.3685
346.0909, 811.7727
346.5730, 796.5262
347.0551, 775.4146
347.5372, 748.8201
348.0193, 715.9986
348.5014, 679.9647
348.9836, 645.4534
349.4657, 612.6955
349.9478, 581.2352
350.4299, 550.6192
350.9120, 521.4011
351.3941, 493.9905
351.8763, 468.5246
352.3584, 445.3375
352.8405, 425.3143
353.3226, 408.4327
353.8047, 392.6559
354.2868, 377.6354
354.7690, 363.9286
355.2511, 351.8993
355.7332, 341.3872
356.2153, 331.9211
356.6974, 323.1283
357.1795, 315.1137
357.6617, 308.3156
358.1438, 302.9077
358.6259, 298.5046
359.1080, 295.3425
359.5901, 292.9084
360.0722, 290.3235
360.5544, 286.9591
361.0365, 283.6832
361.5186, 281.6417
362.0007, 280.8940
362.4828, 281.0405
362.9649, 282.2516
363.4471, 284.1552
363.9292, 286.3004
364.4113, 288.6157
364.8934, 291.3285
365.3755, 294.5294
365.8576, 298.2481
366.3398, 302.5648
366.8219, 307.2833
367.3040, 313.0408
367.7861, 320.8448
368.2682, 330.4869
368.7503, 340.0274
369.2325, 348.4385
369.7146, 356.3846
370.1967, 365.1604
370.6788, 375.0578
371.1609, 384.8064
371.6430, 393.1463
372.1252, 400.5132
372.6073, 408.1942
373.0894, 417.2523
373.5715, 425.9369
374.0536, 433.5116
374.5357, 439.7430
375.0179, 443.2828
375.5000, 443.2649
375.9821, 440.1381
376.4642, 435.1439
376.9463, 428.2553
377.4284, 420.0161
377.9106, 410.4601
378.3927, 399.7401
378.8748, 388.0021
379.3569, 375.2425
379.8390, 361.8085
380.3211, 347.8536
380.8033, 333.2035
381.2854, 319.2285
381.7675, 306.6299
382.2496, 294.3977
382.7317, 281.2334
383.2138, 267.3263
383.6960, 254.4389
384.1781, 243.8992
384.6602, 235.6213
385.1423, 227.5318
385.6244, 219.3442
386.1065, 211.6016
386.5887, 204.4978
387.0708, 197.9903
387.5529, 191.9541
388.0350, 186.3291
388.5171, 181.1774
388.9992, 176.6134
389.4814, 172.8559
389.9635, 169.4555
390.4456, 166.5955
390.9277, 163.9634
391.4098, 161.2267
391.8919, 158.3943
392.3741, 155.7681
392.8562, 153.6810
393.3383, 152.1723
393.8204, 150.8686
394.3025, 149.9414
394.7846, 149.0256
395.2668, 147.8373
395.7489, 146.5837
396.2310, 145.6469
396.7131, 145.2533
397.1952, 145.3183
397.6773, 145.6010
398.1595, 146.5551
398.6416, 146.9417
399.1237, 145.8465
399.6058, 144.6441
400.0879, 144.5794
400.5700, 145.9056
401.0522, 147.8592
401.5343, 149.6123
402.0164, 151.1438
402.4985, 152.5351
402.9806, 153.3328
403.4627, 154.4394
403.9449, 156.3495
404.4270, 158.8923
404.9091, 161.5899
405.3912, 164.1568
405.8733, 166.6638
406.3554, 169.3118
406.8376, 172.1599
407.3197, 175.0538
407.8018, 178.1150
408.2839, 181.1049
408.7660, 183.8737
409.2481, 186.5010
409.7303, 188.4267
410.2124, 188.8003
410.6945, 187.7240
411.1766, 186.9061
411.6587, 187.1945
412.1408, 187.1730
412.6230, 185.4477
413.1051, 182.2050
413.5872, 178.7049
414.0693, 175.1474
414.5514, 171.7755
415.0335, 169.1450
415.5157, 167.3477
415.9978, 165.5714
416.4799, 163.0133
416.9620, 160.1501
417.4441, 158.4014
417.9262, 158.5871
418.4084, 158.8691
418.8905, 157.9162
419.3726, 156.2438
419.8547, 155.2068
420.3368, 155.2990
420.8189, 156.1010
421.3011, 157.0512
421.7832, 158.2373
422.2653, 159.1930
422.7474, 159.4126
423.2295, 159.6896
423.7116, 160.7103
424.1938, 162.5076
424.6759, 164.7678
425.1580, 167.3271
425.6401, 170.1545
426.1222, 172.7564
426.6043, 174.8370
427.0865, 177.0687
427.5686, 179.5645
428.0507, 182.3356
428.5328, 185.3918
429.0149, 188.7425
429.4970, 192.3625
429.9792, 196.2240
430.4613, 200.3116
430.9434, 204.7603
431.4255, 210.1018
431.9076, 215.2888
432.3897, 219.3181
432.8719, 222.5799
433.3540, 226.4854
433.8361, 232.2832
434.3182, 239.6320
434.8003, 246.1147
435.2824, 251.0916
435.7646, 256.1128
436.2467, 261.2589
436.7288, 266.7642
437.2109, 272.8953
437.6930, 279.7421
438.1751, 286.9969
438.6573, 294.5954
439.1394, 302.6215
439.6215, 309.6889
440.1036, 315.0070
440.5857, 319.9753
441.0678, 325.4824
441.5500, 331.4525
442.0321, 337.5142
442.5142, 344.0184
442.9963, 350.3058
443.4784, 354.8618
443.9605, 357.4249
444.4427, 360.2995
444.9248, 364.7048
445.4069, 370.1164
445.8890, 375.5030
446.3711, 380.8056
446.8532, 386.1840
447.3354, 391.9990
447.8175, 397.9078
448.2996, 403.0696
448.7817, 407.2275
449.2638, 411.0328
449.7459, 415.1542
450.2281, 419.6195
450.7102, 423.8611
451.1923, 428.1543
451.6744, 431.9562
452.1565, 434.6996
452.6386, 436.6237
453.1208, 438.5790
453.6029, 441.1124
454.0850, 443.6541
454.5671, 444.6159
455.0492, 443.1713
455.5313, 441.1225
456.0135, 438.7122
456.4956, 435.5650
456.9777, 431.1879
457.4598, 425.6370
457.9419, 419.4777
458.4240, 413.2287
458.9062, 406.9102
459.3883, 399.9391
459.8704, 391.8074
460.3525, 383.4984
460.8346, 375.2114
461.3167, 366.8744
461.7989, 358.2557
462.2810, 349.2159
462.7631, 340.2948
463.2452, 332.2379
463.7273, 325.0558
464.2094, 318.6933
464.6916, 313.7473
465.1737, 309.0889
465.6558, 303.9238
466.1379, 298.4484
466.6200, 293.3813
467.1021, 289.2108
467.5843, 285.6563
468.0664, 282.2790
468.5485, 279.1016
469.0306, 275.8324
469.5127, 272.2723
469.9948, 268.5751
470.4770, 265.0855
470.9591, 261.9075
471.4412, 258.5914
471.9233, 254.9499
472.4054, 251.0065
472.8875, 246.7587
473.3697, 242.1883
473.8518, 237.5752
474.3339, 233.1545
474.8160, 228.9456
475.2981, 224.8035
475.7802, 220.8909
476.2624, 216.8898
476.7445, 212.6121
477.2266, 208.1268
477.7087, 203.5115
478.1908, 198.7525
478.6729, 194.1187
479.1551, 190.1437
479.6372, 187.2010
480.1193, 184.0258
480.6014, 179.6817
481.0835, 175.9519
481.5656, 174.4616
482.0478, 174.5047
482.5299, 174.0404
483.0120, 171.6681
483.4941, 167.9011
483.9762, 164.7395
484.4583, 162.4226
484.9405, 160.2458
485.4226, 158.0926
485.9047, 155.9913
486.3868, 153.9420
486.8689, 151.9574
487.3510, 150.1599
487.8332, 148.6554
488.3153, 147.4326
488.7974, 146.4763
489.2795, 145.9717
489.7616, 145.2761
490.2437, 143.5128
490.7259, 141.4135
491.2080, 140.2132
491.6901, 140.6071
492.1722, 141.0011
492.6543, 140.0950
493.1364, 138.2673
493.6186, 136.5575
494.1007, 135.1817
494.5828, 134.1362
495.0649, 133.4829
495.5470, 133.2675
496.0291, 132.9809
496.5113, 132.5422
496.9934, 132.0871
497.4755, 131.6355
497.9576, 131.2322
498.4397, 130.9860
498.9218, 130.9563
499.4040, 131.0573
499.8861, 131.0983
500.3682, 131.0182
500.8503, 130.9905
501.3324, 131.1901
501.8145, 131.2876
502.2967, 130.9167
502.7788, 130.2352
503.2609, 129.7359
503.7430, 129.7438
504.2251, 130.2151
504.7072, 131.0516
505.1894, 132.5165
505.6715, 133.7483
506.1536, 134.2805
506.6357, 134.6638
507.1178, 135.3199
507.5999, 136.2994
508.0821, 137.3724
508.5642, 138.3707
509.0463, 139.3306
509.5284, 140.3084
510.0105, 141.2464
510.4926, 142.4751
510.9748, 144.2905
511.4569, 146.5271
511.9390, 148.8036
512.4211, 151.2355
512.9032, 153.4291
513.3853, 154.5605
513.8674, 155.4860
514.3495, 157.9916
514.8317, 162.4905
515.3138, 167.2131
515.7959, 170.2650
516.2780, 171.4875
516.7601, 173.5871
517.2422, 176.9826
517.7244, 180.6428
518.2065, 184.3183
518.6886, 188.0113
519.1707, 191.6879
519.6528, 195.3458
520.1349, 199.1973
520.6171, 203.5931
521.0992, 208.6893
521.5813, 213.6976
522.0634, 218.4702
522.5455, 223.3047
523.0276, 228.0893
523.5098, 233.0558
523.9919, 238.6706
524.4740, 245.3284
524.9561, 252.2514
525.4382, 258.1722
525.9203, 263.0279
526.4025, 268.6317
526.8846, 275.6576
527.3667, 283.1726
527.8488, 290.5283
528.3309, 297.6802
528.8130, 304.4540
529.2952, 310.5715
529.7773, 316.4492
530.2594, 322.7256
530.7415, 329.1981
531.2236, 334.9362
531.7057, 339.4636
532.1879, 343.2294
532.6700, 347.0720
533.1521, 351.1191
533.6342, 354.9962
534.1163, 359.5011
534.5984, 363.1327
535.0806, 364.7108
535.5627, 364.5277
536.0448, 363.5930
536.5269, 362.5191
537.0090, 361.1772
537.4911, 359.1865
537.9733, 356.3984
538.4554, 353.2188
538.9375, 349.4525
539.4196, 345.5321
539.9017, 341.8812
540.3839, 338.3582
540.8660, 334.3444
541.3481, 329.3956
541.8302, 323.7129
542.3123, 317.6013
542.7944, 311.0114
543.2766, 304.5190
543.7587, 298.3077
544.2408, 292.3863
544.7229, 286.8201
545.2050, 281.6523
545.6871, 276.4326
546.1693, 271.0766
546.6514, 265.5771
547.1335, 259.6753
547.6156, 253.4999
548.0977, 247.7010
548.5798, 242.6990
549.0620, 238.3232
549.5441, 234.0387
550.0262, 229.6452
550.5083, 225.6385
550.9904, 222.1991
551.4725, 219.0052
551.9547, 215.8222
552.4368, 212.6481
552.9189, 209.5869
553.4010, 206.7432
553.8831, 204.0714
554.3652, 201.4140
554.8474, 198.7157
555.3295, 196.2068
555.8116, 194.1320
556.2937, 192.1426
556.7758, 189.8327
557.2579, 187.2560
557.7401, 185.1191
558.2222, 184.0686
558.7043, 183.6386
559.1864, 182.9347
559.6685, 181.9359
560.1506, 181.3010
560.6328, 181.5303
561.1149, 182.1503
561.5970, 182.0863
562.0791, 181.1938
562.5612, 180.2500
563.0433, 179.2734
563.5255, 178.3938
564.0076, 177.6748
564.4897, 177.1449
564.9718, 176.8390
565.4539, 176.7794
565.9360, 176.9610
566.4182, 177.3906
566.9003, 178.3020
567.3824, 179.0278
567.8645, 178.9431
568.3466, 179.1694
568.8287, 181.0512
569.3109, 184.0186
569.7930, 185.8659
570.2751, 184.6699
570.7572, 182.0934
571.2393, 181.8516
571.7214, 184.1412
572.2036, 186.4188
572.6857, 188.2707
573.1678, 189.3127
573.6499, 188.9469
574.1320, 187.2219
574.6141, 185.3605
575.0963, 183.4314
575.5784, 181.7134
576.0605, 180.9545
576.5426, 180.6935
577.0247, 179.3475
577.5068, 176.1589
577.9890, 171.7977
578.4711, 167.4757
578.9532, 163.1806
579.4353, 158.9679
579.9174, 154.5687
580.3995, 150.5000
580.8817, 147.3765
581.3638, 144.7192
581.8459, 141.5212
582.3280, 137.2420
582.8101, 132.7223
583.2922, 129.4674
583.7744, 127.6001
584.2565, 125.2501
584.7386, 121.7605
585.2207, 118.2996
585.7029, 115.8215
