##NAMES=Krasnovite
##RRUFFID=R080115
##IDEAL CHEMISTRY=Ba(Al,Mg)(PO_4_,CO_3_)(OH)_2_&#183;H_2_O
##LOCALITY=Cerro Sapo Carbonatite dyke, Cochabamba, Bolivia
##OWNER=RRUFF
##SOURCE=William W. Pinch
##DESCRIPTION=Pastel blue, vitreous massive, associated with blue sodalite and white ankerite
##STATUS=The identification of this mineral has been confirmed by single-crystal X-ray diffraction.
##URL=rruff.info/R080115
92.52344, 304.5734
93.00555, 298.7264
93.48767, 299.4361
93.96979, 315.4004
94.45190, 331.9519
94.93402, 347.4088
95.41614, 357.4817
95.89825, 364.1090
96.38037, 370.2858
96.86249, 375.8193
97.34460, 380.3095
97.82672, 384.0907
98.30884, 387.4980
98.79095, 390.6634
99.27307, 393.0766
99.75519, 394.5334
100.2373, 396.2162
100.7194, 398.2935
101.2015, 400.0743
101.6837, 401.1117
102.1658, 402.0551
102.6479, 403.5099
103.1300, 405.5301
103.6121, 407.3913
104.0942, 408.1364
104.5764, 408.3132
105.0585, 408.7960
105.5406, 410.2380
106.0227, 412.2249
106.5048, 413.4273
106.9869, 413.2257
107.4691, 412.8143
107.9512, 412.8364
108.4333, 413.1498
108.9154, 413.3815
109.3975, 413.1255
109.8796, 412.2413
110.3618, 411.6918
110.8439, 411.7343
111.3260, 411.8626
111.8081, 411.9089
112.2902, 411.8253
112.7723, 411.6202
113.2544, 411.2800
113.7366, 410.5557
114.2187, 410.1956
114.7008, 410.4428
115.1829, 410.8907
115.6650, 411.2066
116.1471, 411.2728
116.6293, 411.1327
117.1114, 410.8649
117.5935, 410.4859
118.0756, 409.9767
118.5577, 409.0687
119.0398, 407.9961
119.5220, 407.3653
120.0041, 407.6015
120.4862, 408.3360
120.9683, 408.7261
121.4504, 408.7611
121.9325, 408.4853
122.4147, 407.8209
122.8968, 406.7328
123.3789, 405.6530
123.8610, 404.8212
124.3431, 404.0997
124.8252, 403.3586
125.3074, 402.5256
125.7895, 401.6879
126.2716, 401.0434
126.7537, 400.7003
127.2358, 400.3755
127.7179, 399.9552
128.2001, 399.4981
128.6822, 399.0411
129.1643, 398.5646
129.6464, 398.1020
130.1285, 398.1026
130.6107, 399.3291
131.0928, 400.3220
131.5749, 400.5979
132.0570, 400.3332
132.5391, 400.0078
133.0212, 400.0688
133.5034, 400.6292
133.9855, 400.7777
134.4676, 400.1574
134.9497, 399.5060
135.4318, 399.1685
135.9139, 399.2022
136.3960, 399.5501
136.8782, 400.2027
137.3603, 401.2347
137.8424, 402.2296
138.3245, 403.2842
138.8066, 404.2418
139.2887, 404.7858
139.7709, 404.7427
140.2530, 404.6786
140.7351, 405.5401
141.2172, 407.2305
141.6993, 408.5877
142.1814, 408.7108
142.6636, 407.9926
143.1457, 407.9266
143.6278, 409.0961
144.1099, 410.7594
144.5920, 412.2558
145.0741, 413.5704
145.5563, 414.9135
146.0384, 416.5111
146.5205, 418.3994
147.0026, 420.2134
147.4847, 421.7916
147.9668, 423.3457
148.4490, 425.1091
148.9311, 427.0909
149.4132, 428.9719
149.8953, 430.1290
150.3774, 429.8346
150.8595, 430.3531
151.3417, 432.2400
151.8238, 434.6221
152.3059, 436.8204
152.7880, 438.5642
153.2701, 440.0644
153.7522, 441.8302
154.2344, 444.3932
154.7165, 446.6020
155.1986, 448.0837
155.6807, 449.2803
156.1628, 450.8132
156.6449, 453.0194
157.1271, 455.6622
157.6092, 457.7479
158.0913, 458.7271
158.5734, 459.8929
159.0555, 461.8413
159.5376, 464.2908
160.0198, 466.4839
160.5019, 467.9532
160.9840, 468.8582
161.4661, 469.9002
161.9482, 471.1588
162.4303, 472.4635
162.9125, 473.7380
163.3946, 474.9797
163.8767, 476.1186
164.3588, 477.0909
164.8409, 477.9206
165.3230, 478.6684
165.8052, 479.3712
166.2873, 479.9655
166.7694, 480.2820
167.2515, 480.2081
167.7336, 480.2518
168.2157, 480.7534
168.6979, 481.4851
169.1800, 482.2436
169.6621, 483.0508
170.1442, 483.7527
170.6263, 483.8910
171.1084, 483.2169
171.5906, 482.3177
172.0727, 481.1372
172.5548, 479.9330
173.0369, 479.1068
173.5190, 478.9911
174.0011, 479.4558
174.4833, 479.4032
174.9654, 478.1373
175.4475, 477.0025
175.9296, 476.3848
176.4117, 476.1057
176.8938, 475.7954
177.3760, 475.1720
177.8581, 474.2255
178.3402, 473.3486
178.8223, 472.5206
179.3044, 471.7744
179.7865, 471.2548
180.2687, 470.8618
180.7508, 470.3510
181.2329, 469.5419
181.7150, 468.4138
182.1971, 466.8758
182.6792, 464.2456
183.1614, 461.8275
183.6435, 460.5485
184.1256, 460.3742
184.6077, 460.4204
185.0898, 459.9188
185.5719, 458.8149
186.0541, 457.7817
186.5362, 457.1321
187.0183, 456.3810
187.5004, 454.8801
187.9825, 452.5111
188.4646, 450.2140
188.9468, 448.9728
189.4289, 448.5697
189.9110, 448.1629
190.3931, 447.6867
190.8752, 447.0642
191.3573, 446.0721
191.8395, 444.5383
192.3216, 443.0806
192.8037, 442.2858
193.2858, 441.9367
193.7679, 441.5638
194.2500, 441.0090
194.7322, 440.2791
195.2143, 439.3173
195.6964, 437.8499
196.1785, 436.6053
196.6606, 436.0504
197.1427, 435.9779
197.6249, 435.9424
198.1070, 435.6458
198.5891, 435.1171
199.0712, 434.6772
199.5533, 434.5948
200.0354, 434.2775
200.5176, 433.2999
200.9997, 431.9042
201.4818, 430.6258
201.9639, 429.8996
202.4460, 429.7353
202.9281, 429.6496
203.4103, 429.7281
203.8924, 429.8142
204.3745, 429.9449
204.8566, 430.0574
205.3387, 429.9938
205.8208, 429.5588
206.3030, 428.6606
206.7851, 428.2744
207.2672, 428.8539
207.7493, 429.4633
208.2314, 429.8284
208.7135, 429.9065
209.1957, 429.6842
209.6778, 429.0668
210.1599, 427.9141
210.6420, 427.5766
211.1241, 428.7269
211.6062, 429.9330
212.0884, 430.3727
212.5705, 430.0974
213.0526, 429.7451
213.5347, 429.9073
214.0168, 430.6667
214.4989, 431.1368
214.9811, 431.1371
215.4632, 431.0179
215.9453, 430.8734
216.4274, 430.7537
216.9095, 430.9441
217.3916, 431.8746
217.8737, 433.5324
218.3559, 434.4278
218.8380, 433.8264
219.3201, 432.9235
219.8022, 432.7935
220.2843, 433.5176
220.7664, 434.4166
221.2486, 434.9877
221.7307, 435.2868
222.2128, 435.5443
222.6949, 435.7381
223.1770, 435.9323
223.6591, 436.2761
224.1413, 436.8179
224.6234, 437.1854
225.1055, 436.7181
225.5876, 435.9027
226.0697, 435.6942
226.5518, 436.8323
227.0340, 438.4557
227.5161, 439.1782
227.9982, 438.7288
228.4803, 438.3126
228.9624, 438.7900
229.4445, 439.6913
229.9267, 440.4449
230.4088, 440.8672
230.8909, 441.0052
231.3730, 440.8606
231.8551, 440.2609
232.3372, 439.8277
232.8194, 439.7473
233.3015, 439.9798
233.7836, 440.5675
234.2657, 441.6313
234.7478, 442.8989
235.2299, 443.7295
235.7121, 443.9366
236.1942, 444.0695
236.6763, 444.2260
237.1584, 444.4323
237.6405, 444.7502
238.1227, 445.2265
238.6048, 445.7577
239.0869, 446.0451
239.5690, 445.8386
240.0511, 445.8361
240.5332, 446.4262
241.0154, 447.1408
241.4975, 447.4349
241.9796, 447.0688
242.4617, 446.3739
242.9438, 446.2198
243.4259, 447.1590
243.9081, 447.7766
244.3902, 447.5567
244.8723, 447.1467
245.3544, 447.2684
245.8365, 448.1881
246.3186, 449.4553
246.8008, 450.0274
247.2829, 449.2541
247.7650, 448.6736
248.2471, 448.5771
248.7292, 448.5766
249.2113, 448.2084
249.6935, 447.3382
250.1756, 446.3350
250.6577, 445.9400
251.1398, 446.8340
251.6219, 447.3744
252.1040, 447.4846
252.5862, 447.2970
253.0683, 446.8297
253.5504, 446.1147
254.0325, 445.3420
254.5146, 444.8299
254.9967, 444.7846
255.4789, 444.6475
255.9610, 444.3187
256.4431, 443.9618
256.9252, 443.7770
257.4073, 443.7978
257.8894, 443.8146
258.3716, 443.5503
258.8537, 442.9214
259.3358, 442.1569
259.8179, 440.9260
260.3000, 439.7552
260.7821, 439.2077
261.2643, 439.3540
261.7464, 439.6717
262.2285, 439.5761
262.7106, 438.9394
263.1927, 438.4588
263.6748, 438.2407
264.1570, 438.1184
264.6391, 438.0221
265.1212, 437.9280
265.6033, 437.6960
266.0854, 437.1642
266.5675, 436.3091
267.0497, 435.4907
267.5318, 434.4760
268.0139, 433.6690
268.4960, 433.5792
268.9781, 434.1892
269.4602, 434.7539
269.9424, 434.7370
270.4245, 434.1479
270.9066, 433.4282
271.3887, 432.1887
271.8708, 431.1235
272.3529, 430.9622
272.8351, 431.6319
273.3172, 432.2109
273.7993, 432.1544
274.2814, 431.5604
274.7635, 430.9083
275.2456, 430.1577
275.7278, 429.4116
276.2099, 428.7321
276.6920, 428.1184
277.1741, 427.5607
277.6562, 427.0573
278.1383, 426.6160
278.6205, 426.2285
279.1026, 425.8798
279.5847, 425.6063
280.0668, 425.5198
280.5489, 425.5695
281.0310, 425.4551
281.5132, 425.0409
281.9953, 424.4254
282.4774, 423.6873
282.9595, 422.7545
283.4416, 422.0993
283.9237, 422.2233
284.4059, 422.9241
284.8880, 423.3659
285.3701, 423.3594
285.8522, 422.9865
286.3343, 422.2484
286.8164, 421.1672
287.2986, 420.2223
287.7807, 419.7974
288.2628, 419.7254
288.7449, 419.4161
289.2270, 418.6265
289.7091, 417.8905
290.1913, 417.7442
290.6734, 418.0382
291.1555, 418.2392
291.6376, 418.1261
292.1197, 417.7437
292.6018, 417.0891
293.0840, 415.9619
293.5661, 415.0552
294.0482, 415.1181
294.5303, 415.6937
295.0124, 415.9254
295.4945, 415.1616
295.9767, 414.0325
296.4588, 413.8658
296.9409, 415.0415
297.4230, 415.8721
297.9051, 415.0677
298.3872, 413.5362
298.8694, 412.2646
299.3515, 411.5072
299.8336, 411.1591
300.3157, 411.2762
300.7978, 412.0010
301.2799, 412.3217
301.7621, 411.4342
302.2442, 410.1639
302.7263, 409.2034
303.2084, 408.6891
303.6905, 408.4008
304.1726, 408.1987
304.6548, 408.0933
305.1369, 407.7878
305.6190, 406.7061
306.1011, 405.8350
306.5832, 406.1618
307.0653, 407.7030
307.5475, 409.2202
308.0296, 409.6941
308.5117, 409.1969
308.9938, 408.5386
309.4759, 407.5412
309.9580, 406.7494
310.4402, 406.7338
310.9223, 407.2808
311.4044, 407.5748
311.8865, 406.8927
312.3686, 405.4829
312.8507, 404.3816
313.3329, 403.5253
313.8150, 403.1546
314.2971, 403.6827
314.7792, 404.6920
315.2613, 405.4008
315.7434, 405.3200
316.2256, 404.8085
316.7077, 404.6504
317.1898, 404.9432
317.6719, 405.3181
318.1540, 405.6100
318.6361, 405.8942
319.1183, 406.3373
319.6004, 407.1010
320.0825, 407.7269
320.5646, 407.3670
321.0467, 405.7948
321.5288, 404.6918
322.0110, 405.0919
322.4931, 405.8832
322.9752, 406.1317
323.4573, 405.6800
323.9394, 405.2545
324.4215, 405.7799
324.9037, 407.2231
325.3858, 407.9743
325.8679, 407.2901
326.3500, 406.2697
326.8321, 405.5734
327.3142, 405.2249
327.7964, 405.2009
328.2785, 405.6211
328.7606, 406.3948
329.2427, 407.1618
329.7248, 408.1707
330.2069, 408.6774
330.6891, 407.8584
331.1712, 406.2723
331.6533, 405.0986
332.1354, 404.9796
332.6175, 405.5483
333.0996, 406.0882
333.5818, 406.5773
334.0639, 407.1168
334.5460, 407.7990
335.0281, 408.5438
335.5102, 409.3037
335.9923, 410.1415
336.4745, 410.8263
336.9566, 410.9789
337.4387, 410.5589
337.9208, 410.2769
338.4029, 410.4141
338.8850, 410.7678
339.3671, 411.2342
339.8492, 411.8306
340.3314, 412.2059
340.8135, 411.8928
341.2956, 411.0333
341.7777, 410.5427
342.2598, 410.6638
342.7419, 411.0954
343.2241, 411.7015
343.7062, 412.4222
344.1883, 412.9161
344.6704, 413.0848
345.1525, 412.9051
345.6346, 412.1346
346.1168, 410.4995
346.5989, 409.1225
347.0810, 409.1143
347.5631, 409.9105
348.0452, 410.6094
348.5273, 411.1051
349.0095, 411.2994
349.4916, 410.9970
349.9737, 410.1913
350.4558, 409.2633
350.9379, 408.2490
351.4200, 407.3095
351.9022, 406.7053
352.3843, 406.5459
352.8664, 406.4595
353.3485, 406.2349
353.8306, 405.8881
354.3127, 405.4677
354.7949, 404.9497
355.2770, 404.4210
355.7591, 404.0097
356.2412, 403.7142
356.7233, 403.3753
357.2054, 403.0748
357.6876, 402.6514
358.1697, 401.7295
358.6518, 400.1922
359.1339, 398.6421
359.6160, 397.5973
360.0981, 397.0022
360.5803, 396.5729
361.0624, 396.4080
361.5445, 396.3026
362.0266, 396.1659
362.5087, 395.9752
362.9908, 395.5871
363.4730, 394.9082
363.9551, 393.9721
364.4372, 392.8625
364.9193, 391.2120
365.4014, 389.9994
365.8835, 389.9577
366.3657, 390.6093
366.8478, 391.0279
367.3299, 390.9210
367.8120, 390.4240
368.2941, 389.6605
368.7762, 388.5484
369.2584, 387.5541
369.7405, 386.7990
370.2226, 386.1591
370.7047, 385.5234
371.1868, 384.8731
371.6689, 384.2614
372.1511, 383.7653
372.6332, 383.3896
373.1153, 382.7829
373.5974, 381.5298
374.0795, 380.4714
374.5616, 380.1791
375.0438, 380.4181
375.5259, 380.5492
376.0080, 380.2121
376.4901, 379.5490
376.9722, 379.0625
377.4543, 379.1906
377.9365, 378.9298
378.4186, 377.7454
378.9007, 376.3129
379.3828, 375.4131
379.8649, 375.2489
380.3470, 375.4379
380.8292, 375.4644
381.3113, 375.2948
381.7934, 375.0335
382.2755, 374.6675
382.7576, 374.2351
383.2397, 373.7797
383.7219, 373.2842
384.2040, 372.6429
384.6861, 371.7143
385.1682, 370.5531
385.6503, 370.0591
386.1324, 371.1701
386.6146, 371.9372
387.0967, 371.8500
387.5788, 371.2878
388.0609, 370.7244
388.5430, 370.3637
389.0251, 370.1241
389.5073, 369.8230
389.9894, 369.3446
390.4715, 369.0536
390.9536, 369.0422
391.4357, 369.1327
391.9178, 369.2505
392.4000, 369.3649
392.8821, 369.4384
393.3642, 369.4074
393.8463, 369.2641
394.3284, 369.2463
394.8105, 369.5975
395.2927, 369.7824
395.7748, 369.5375
396.2569, 369.0270
396.7390, 368.4911
397.2211, 368.0073
397.7032, 367.6601
398.1854, 367.7156
398.6675, 368.3600
399.1496, 368.8471
399.6317, 368.9653
400.1138, 368.8509
400.5959, 368.4711
401.0781, 367.8354
401.5602, 367.3155
402.0423, 367.4085
402.5244, 368.0369
403.0065, 368.3141
403.4886, 368.0177
403.9708, 367.5139
404.4529, 367.1237
404.9350, 366.7638
405.4171, 366.1719
405.8992, 364.8685
406.3813, 363.4582
406.8635, 363.0817
407.3456, 363.8695
407.8277, 364.4712
408.3098, 364.0750
408.7919, 363.1442
409.2740, 362.4971
409.7562, 362.2714
410.2383, 362.0831
410.7204, 361.8798
411.2025, 361.5413
411.6846, 360.5703
412.1667, 358.6436
412.6489, 356.6131
413.1310, 355.6777
413.6131, 355.7924
414.0952, 355.6816
414.5773, 354.8569
415.0594, 353.8962
415.5416, 353.4182
416.0237, 353.3950
416.5058, 353.2625
416.9879, 352.5803
417.4700, 350.3495
417.9521, 351.1213
418.4343, 351.3353
418.9164, 351.0217
419.3985, 348.6001
419.8806, 348.9005
420.3627, 348.1101
420.8448, 347.2750
421.3270, 347.9585
421.8091, 345.8434
422.2912, 346.5030
422.7733, 346.0549
423.2554, 346.1138
423.7375, 345.0750
424.2197, 344.3751
424.7018, 344.7733
425.1839, 344.5636
425.6660, 343.2152
426.1481, 343.3380
426.6302, 343.2287
427.1124, 342.8169
427.5945, 342.2313
428.0766, 341.3881
428.5587, 340.4370
429.0408, 339.4228
429.5229, 338.3931
430.0051, 337.5521
430.4872, 337.2690
430.9693, 337.7228
431.4514, 337.9950
431.9335, 338.0880
432.4156, 337.9610
432.8978, 337.4908
433.3799, 336.7757
433.8620, 336.0367
434.3441, 335.4036
434.8262, 334.8515
435.3083, 334.3221
435.7905, 333.8317
436.2726, 333.3211
436.7547, 332.4063
437.2368, 331.6519
437.7189, 331.8520
438.2010, 333.2341
438.6832, 334.3855
439.1653, 333.7269
439.6474, 331.6511
440.1295, 330.3369
440.6116, 330.3346
441.0938, 330.7297
441.5759, 330.8489
442.0580, 330.7418
442.5401, 330.5140
443.0222, 330.0498
443.5043, 329.5776
443.9865, 329.3981
444.4686, 329.4722
444.9507, 329.3991
445.4328, 328.8971
445.9149, 328.2317
446.3970, 328.0481
446.8792, 328.4942
447.3613, 328.8943
447.8434, 329.0826
448.3255, 329.1188
448.8076, 329.0800
449.2897, 328.9787
449.7719, 328.7729
450.2540, 328.4227
450.7361, 327.9222
451.2182, 327.3163
451.7003, 326.1826
452.1824, 325.4166
452.6646, 325.7285
453.1467, 326.5442
453.6288, 326.8234
454.1109, 326.1088
454.5930, 324.9321
455.0751, 324.3595
455.5573, 324.7308
456.0394, 325.0679
456.5215, 324.4657
457.0036, 325.6788
457.4857, 326.3343
457.9678, 326.4620
458.4500, 324.4818
458.9321, 325.2236
459.4142, 324.8745
459.8963, 324.4808
460.3784, 325.6057
460.8605, 323.9321
461.3427, 325.0330
461.8248, 325.0263
462.3069, 325.5265
462.7890, 324.9291
463.2711, 324.6707
463.7532, 325.5103
464.2354, 325.7420
464.7175, 325.0182
465.1996, 325.5507
465.6817, 323.8387
466.1638, 324.0962
466.6459, 325.2036
467.1281, 324.5349
467.6102, 325.3216
468.0923, 326.0852
468.5744, 326.3210
469.0565, 324.4489
469.5386, 325.2988
470.0208, 325.0579
470.5029, 324.7722
470.9850, 326.0052
471.4671, 324.4397
471.9492, 325.6487
472.4313, 325.7501
472.9135, 326.3584
473.3956, 325.8691
473.8777, 325.7188
474.3598, 326.6665
474.8419, 324.0989
475.3240, 325.2855
475.8062, 325.9143
476.2883, 326.0156
476.7704, 324.0088
477.2525, 324.7241
477.7346, 324.3485
478.2167, 323.9281
478.6989, 325.0266
479.1810, 323.3263
479.6631, 324.7528
480.1452, 325.2503
480.6273, 325.2189
481.1094, 323.7232
481.5916, 322.6567
482.0737, 322.9819
482.5558, 324.1041
483.0379, 324.9320
483.5200, 324.9157
484.0021, 324.4965
484.4843, 324.5858
484.9664, 325.3576
485.4485, 325.8247
485.9306, 325.4919
486.4127, 325.0522
486.8948, 325.0119
487.3770, 325.3180
487.8591, 325.5548
488.3412, 325.4063
488.8233, 325.0561
489.3054, 324.8610
489.7875, 324.8370
490.2697, 324.8540
490.7518, 324.8554
491.2339, 324.8565
491.7160, 324.8818
492.1981, 324.9269
492.6802, 325.0093
493.1624, 325.1899
493.6445, 325.3921
494.1266, 325.4596
494.6087, 325.3714
495.0908, 325.3116
495.5729, 323.7232
496.0551, 324.9322
496.5372, 325.5835
497.0193, 325.7072
497.5014, 323.7228
497.9835, 324.4606
498.4656, 324.1075
498.9478, 323.7096
499.4299, 324.8305
499.9120, 323.1527
500.3941, 324.2496
500.8762, 324.2388
501.3583, 324.9779
501.8405, 324.2452
502.3226, 323.6664
502.8047, 323.9085
503.2868, 324.5677
503.7689, 324.8469
504.2510, 324.3172
504.7331, 323.3956
505.2152, 322.7800
505.6974, 322.4648
506.1795, 322.4983
506.6616, 323.1875
507.1437, 323.9591
507.6258, 324.5009
508.1079, 324.7863
508.5901, 324.7171
509.0722, 323.9226
509.5543, 322.9091
510.0364, 322.4685
510.5185, 322.5986
511.0006, 322.7640
511.4828, 322.7088
511.9649, 322.5463
512.4470, 322.5865
512.9291, 323.0073
513.4113, 323.0191
513.8934, 321.8843
514.3755, 320.5644
514.8576, 320.1871
515.3397, 320.7567
515.8218, 321.4627
516.3040, 321.7489
516.7861, 321.6232
517.2682, 321.1430
517.7503, 319.8191
518.2324, 318.7491
518.7145, 317.9561
519.1967, 317.4977
519.6788, 317.6280
520.1609, 318.2639
520.6430, 318.7871
521.1251, 318.4442
521.6072, 317.2753
522.0894, 316.8661
522.5715, 318.0834
523.0536, 318.6606
523.5357, 317.4004
524.0178, 315.3615
524.4999, 313.7307
524.9821, 312.8149
525.4642, 312.2087
525.9463, 311.4319
526.4284, 310.6173
526.9105, 310.5044
527.3926, 311.4573
527.8748, 312.3292
528.3569, 312.0561
528.8390, 310.9520
529.3211, 310.1117
529.8032, 309.9184
530.2853, 309.6977
530.7675, 309.0319
531.2496, 308.0904
531.7317, 307.1926
532.2138, 306.4277
532.6959, 305.7312
533.1780, 305.0316
533.6602, 304.3283
534.1423, 303.6131
534.6244, 302.6625
535.1065, 301.9349
535.5886, 301.8292
536.0707, 301.9931
536.5529, 301.8602
537.0350, 301.2123
537.5171, 300.3366
537.9992, 299.6879
538.4813, 299.3028
538.9634, 298.9588
539.4456, 298.5893
539.9277, 298.3376
540.4098, 297.2919
540.8919, 298.2836
541.3740, 298.7177
541.8561, 298.6241
542.3383, 296.4224
542.8204, 296.9429
543.3025, 296.3725
543.7846, 295.7574
544.2667, 296.6609
544.7488, 294.7660
545.2310, 295.6454
545.7131, 295.4174
546.1952, 295.6963
546.6773, 294.8776
547.1594, 294.3978
547.6415, 295.0161
548.1237, 295.0264
548.6058, 293.0267
549.0879, 293.1986
549.5700, 293.5867
550.0521, 293.5028
550.5342, 292.7059
551.0164, 292.1771
551.4985, 292.0277
551.9806, 291.9922
552.4627, 292.0918
552.9448, 292.1934
553.4269, 292.0290
553.9091, 291.4513
554.3912, 290.7584
554.8733, 290.5035
555.3554, 290.7523
555.8375, 290.9843
556.3196, 291.2205
556.8018, 291.3145
557.2839, 291.1274
557.7660, 290.7365
558.2481, 290.3640
558.7302, 290.1340
559.2123, 289.9024
559.6945, 289.4673
560.1766, 288.8876
560.6587, 288.4665
561.1408, 288.3401
561.6229, 288.2450
562.1050, 287.7544
562.5872, 286.7506
563.0693, 286.3508
563.5514, 286.9974
564.0335, 287.8207
564.5156, 288.6742
564.9977, 289.3253
565.4799, 289.3188
565.9620, 288.4857
566.4441, 287.2928
566.9262, 286.4428
567.4083, 285.9452
567.8904, 285.7527
568.3726, 286.3131
568.8547, 286.7173
569.3368, 286.6631
569.8189, 286.2412
570.3010, 285.5190
570.7831, 284.4306
571.2653, 283.4931
571.7474, 283.5558
572.2295, 284.4518
572.7116, 284.7178
573.1937, 283.8784
573.6758, 282.9896
574.1580, 283.1173
574.6401, 283.9628
575.1222, 284.3448
575.6043, 283.7376
576.0864, 283.1186
576.5685, 283.0145
577.0507, 283.2047
577.5328, 283.3800
578.0149, 283.4502
578.4970, 283.3569
578.9791, 283.0163
579.4612, 282.4174
579.9434, 281.8605
580.4255, 281.1685
580.9076, 280.7379
581.3897, 279.2470
581.8718, 280.4219
582.3539, 281.0392
582.8361, 281.1288
583.3182, 279.1104
583.8003, 279.8141
584.2824, 279.4269
584.7645, 278.9950
585.2466, 280.0818
585.7288, 278.3700
586.2108, 279.4327
586.6929, 279.3879
587.1750, 279.8500
587.6572, 279.2144
588.1393, 278.9178
588.6214, 279.7193
