##NAMES=Krasnovite
##RRUFFID=R080115
##IDEAL CHEMISTRY=Ba(Al,Mg)(PO_4_,CO_3_)(OH)_2_&#183;H_2_O
##LOCALITY=Cerro Sapo Carbonatite dyke, Cochabamba, Bolivia
##OWNER=RRUFF
##SOURCE=William W. Pinch
##DESCRIPTION=Pastel blue, vitreous massive, associated with blue sodalite and white ankerite
##STATUS=The identification of this mineral has been confirmed by single-crystal X-ray diffraction.
##URL=rruff.info/R080115
92.35352, 9.231128
92.83563, 8.957600
93.31775, 8.841311
93.79987, 8.946612
94.28198, 9.217721
94.76410, 9.486128
95.24622, 9.688620
95.72833, 9.900953
96.21045, 10.31997
96.69257, 10.95948
97.17468, 11.61567
97.65680, 12.01757
98.13892, 12.17529
98.62103, 12.55009
99.10315, 13.31890
99.58527, 14.41803
100.0674, 15.34275
100.5495, 16.00954
101.0316, 16.66819
101.5137, 17.57886
101.9958, 18.74031
102.4780, 20.17875
102.9601, 21.91496
103.4422, 23.96993
103.9243, 26.17154
104.4064, 28.52053
104.8885, 31.02661
105.3707, 33.78192
105.8528, 36.85582
106.3349, 40.04942
106.8170, 43.27616
107.2991, 46.56819
107.7813, 49.83457
108.2634, 53.09592
108.7455, 56.35054
109.2276, 59.47337
109.7097, 62.14771
110.1918, 64.95068
110.6740, 68.12631
111.1561, 72.41579
111.6382, 76.25268
112.1203, 79.17050
112.6024, 81.38419
113.0845, 84.03584
113.5667, 87.55435
114.0488, 91.41994
114.5309, 95.32439
115.0130, 98.90804
115.4951, 102.7633
115.9772, 107.1677
116.4594, 112.1482
116.9415, 117.1859
117.4236, 122.1020
117.9057, 126.9776
118.3878, 131.8783
118.8699, 136.9352
119.3521, 141.9988
119.8342, 147.0876
120.3163, 152.2148
120.7984, 157.2134
121.2805, 161.9633
121.7626, 166.5167
122.2448, 170.9625
122.7269, 175.5412
123.2090, 179.9363
123.6911, 183.9245
124.1732, 187.5439
124.6553, 190.4969
125.1375, 192.0155
125.6196, 192.5041
126.1017, 193.2428
126.5838, 195.1834
127.0659, 197.8551
127.5480, 200.4209
128.0302, 202.7543
128.5123, 204.9950
128.9944, 207.1868
129.4765, 209.3654
129.9586, 211.8656
130.4407, 215.1837
130.9229, 219.1017
131.4050, 222.7461
131.8871, 225.8223
132.3692, 228.5501
132.8513, 231.2476
133.3334, 233.5293
133.8156, 234.9463
134.2977, 236.0173
134.7798, 237.5444
135.2619, 239.1971
135.7440, 240.9626
136.2261, 242.7870
136.7083, 244.5307
137.1904, 246.1768
137.6725, 247.8428
138.1546, 249.8040
138.6367, 252.2086
139.1188, 254.1829
139.6010, 255.5581
140.0831, 256.3387
140.5652, 256.5427
141.0473, 256.0191
141.5294, 255.1466
142.0115, 254.3486
142.4937, 253.4797
142.9758, 252.9618
143.4579, 252.7941
143.9400, 252.8170
144.4221, 254.0257
144.9042, 257.2455
145.3864, 261.1580
145.8685, 263.3951
146.3506, 263.0545
146.8327, 262.3091
147.3148, 261.7787
147.7969, 261.3271
148.2791, 261.4106
148.7612, 262.4617
149.2433, 264.0035
149.7254, 264.9361
150.2075, 264.1739
150.6896, 263.7495
151.1718, 264.4492
151.6539, 267.4994
152.1360, 269.8791
152.6181, 271.1101
153.1002, 271.5729
153.5823, 272.3948
154.0645, 274.2492
154.5466, 276.0552
155.0287, 277.3102
155.5108, 277.7423
155.9929, 277.9073
156.4750, 277.6653
156.9572, 277.1449
157.4393, 276.8857
157.9214, 277.1891
158.4035, 277.6680
158.8856, 278.0816
159.3677, 277.9128
159.8499, 278.1385
160.3320, 279.3639
160.8141, 281.3897
161.2962, 283.0143
161.7783, 283.5941
162.2604, 283.6876
162.7426, 283.7560
163.2247, 284.0399
163.7068, 284.2396
164.1889, 284.1705
164.6710, 283.8504
165.1531, 283.5345
165.6353, 283.3709
166.1174, 283.2668
166.5995, 283.1216
167.0816, 282.6208
167.5637, 282.2675
168.0458, 282.5215
168.5280, 283.3798
169.0101, 284.1818
169.4922, 284.5847
169.9743, 284.6495
170.4564, 284.4567
170.9385, 284.0125
171.4207, 283.3425
171.9028, 282.3324
172.3849, 280.9626
172.8670, 279.7245
173.3491, 279.1299
173.8312, 278.9260
174.3134, 278.6270
174.7955, 277.7782
175.2776, 276.8226
175.7597, 276.3996
176.2418, 276.6012
176.7239, 276.8092
177.2061, 276.4416
177.6882, 275.6183
178.1703, 274.6743
178.6524, 273.6409
179.1345, 272.6127
179.6166, 271.8438
180.0988, 271.3976
180.5809, 270.9044
181.0630, 269.8054
181.5451, 268.2375
182.0272, 266.7986
182.5093, 265.7588
182.9915, 265.0594
183.4736, 264.6177
183.9557, 264.4568
184.4378, 264.4212
184.9199, 264.4025
185.4020, 264.3732
185.8842, 264.1390
186.3663, 263.4947
186.8484, 262.5382
187.3305, 261.6815
187.8126, 260.9930
188.2947, 260.2921
188.7769, 259.1215
189.2590, 257.5150
189.7411, 256.1730
190.2232, 255.6707
190.7053, 255.8648
191.1874, 255.7699
191.6696, 255.2259
192.1517, 254.5200
192.6338, 254.1765
193.1159, 254.2033
193.5980, 254.3786
194.0801, 254.7115
194.5623, 255.1689
195.0444, 255.2164
195.5265, 254.6885
196.0086, 253.8907
196.4907, 253.4704
196.9728, 253.4543
197.4550, 253.5735
197.9371, 253.6572
198.4192, 253.7023
198.9013, 253.8954
199.3834, 254.3078
199.8655, 254.8179
200.3477, 255.1622
200.8298, 255.3431
201.3119, 255.3371
201.7940, 255.0450
202.2761, 254.4273
202.7582, 253.9878
203.2404, 253.7908
203.7225, 253.7867
204.2046, 253.8571
204.6867, 254.0186
205.1688, 254.2047
205.6509, 254.3661
206.1331, 254.4944
206.6152, 254.6707
207.0973, 254.9213
207.5794, 255.2151
208.0615, 255.4551
208.5436, 255.6326
209.0258, 255.7796
209.5079, 255.9008
209.9900, 255.9790
210.4721, 256.1007
210.9542, 256.2679
211.4363, 256.4816
211.9185, 256.7870
212.4006, 257.2684
212.8827, 257.6547
213.3648, 257.7613
213.8469, 257.5361
214.3290, 257.1835
214.8112, 256.5443
215.2933, 255.8243
215.7754, 255.8328
216.2575, 256.8880
216.7396, 258.0695
217.2217, 258.8430
217.7038, 259.1342
218.1860, 259.2156
218.6681, 258.9940
219.1502, 258.5918
219.6323, 258.5109
220.1144, 258.9697
220.5965, 259.3816
221.0787, 259.3287
221.5608, 258.4828
222.0429, 258.1130
222.5250, 258.5240
223.0071, 259.4458
223.4892, 259.8325
223.9714, 259.4348
224.4535, 258.9089
224.9356, 258.5786
225.4177, 258.4368
225.8998, 258.5443
226.3819, 259.0361
226.8641, 259.7645
227.3462, 260.1825
227.8283, 260.1306
228.3104, 260.0078
228.7925, 260.0092
229.2746, 260.1553
229.7568, 260.3919
230.2389, 260.8167
230.7210, 261.3145
231.2031, 261.4720
231.6852, 261.0498
232.1673, 260.6383
232.6495, 260.5508
233.1316, 260.9887
233.6137, 261.2956
234.0958, 261.4101
234.5779, 261.3919
235.0600, 261.4224
235.5422, 261.6134
236.0243, 261.6935
236.5064, 261.5102
236.9885, 260.8651
237.4706, 260.4019
237.9527, 260.1860
238.4349, 260.1407
238.9170, 260.0685
239.3991, 259.8821
239.8812, 259.7984
240.3633, 259.9359
240.8454, 260.4347
241.3276, 260.8257
241.8097, 261.2025
242.2918, 261.4319
242.7739, 261.1195
243.2560, 259.7049
243.7381, 258.6203
244.2203, 258.5319
244.7024, 260.0008
245.1845, 260.8641
245.6666, 260.8772
246.1487, 260.4018
246.6308, 260.1323
247.1130, 260.1867
247.5951, 260.2500
248.0772, 260.1630
248.5593, 259.7898
249.0414, 259.7858
249.5235, 260.3609
250.0057, 261.1698
250.4878, 261.6293
250.9699, 261.5311
251.4520, 261.4568
251.9341, 261.6709
252.4162, 262.3303
252.8984, 262.4531
253.3805, 261.7216
253.8626, 260.6936
254.3447, 260.2439
254.8268, 260.6595
255.3089, 261.0514
255.7911, 261.1361
256.2732, 260.8633
256.7553, 260.7320
257.2374, 260.8178
257.7195, 260.9714
258.2017, 261.0347
258.6838, 261.0589
259.1659, 260.8595
259.6480, 260.2350
260.1301, 259.1523
260.6122, 258.7166
261.0944, 258.6062
261.5765, 258.7153
262.0586, 258.5064
262.5407, 257.9965
263.0228, 256.2842
263.5049, 256.1245
263.9871, 255.3426
264.4692, 254.5352
264.9513, 254.5941
265.4334, 253.0566
265.9155, 253.1018
266.3976, 252.5152
266.8798, 252.2177
267.3619, 251.3965
267.8440, 250.9620
268.3261, 250.3230
268.8082, 249.4186
269.2903, 248.4401
269.7725, 247.5963
270.2546, 246.9826
270.7367, 246.0891
271.2188, 244.7542
271.7009, 243.1106
272.1830, 241.7014
272.6652, 240.5916
273.1473, 239.5641
273.6294, 238.4525
274.1115, 237.2351
274.5936, 236.0686
275.0757, 234.9588
275.5579, 233.9025
276.0400, 232.9935
276.5221, 232.3061
277.0042, 231.4585
277.4863, 230.1105
277.9684, 228.2059
278.4506, 226.5881
278.9327, 225.3778
279.4148, 224.4024
279.8969, 223.2746
280.3790, 221.9635
280.8611, 220.7286
281.3433, 219.7450
281.8254, 219.0080
282.3075, 218.2585
282.7896, 217.5308
283.2717, 216.6916
283.7538, 215.3968
284.2360, 213.6232
284.7181, 212.0208
285.2002, 211.0056
285.6823, 210.4920
286.1644, 209.6247
286.6465, 208.3219
287.1287, 206.9881
287.6108, 206.3205
288.0929, 206.2675
288.5750, 205.8870
289.0571, 204.5779
289.5392, 202.6485
290.0214, 201.4696
290.5035, 201.1236
290.9856, 200.8792
291.4677, 199.9121
291.9498, 198.3246
292.4319, 196.7653
292.9141, 195.3098
293.3962, 194.0624
293.8783, 193.3881
294.3604, 193.2994
294.8425, 193.2947
295.3246, 192.9583
295.8068, 192.3555
296.2889, 191.6845
296.7710, 190.9109
297.2531, 190.1823
297.7352, 189.7796
298.2173, 189.6814
298.6995, 189.6935
299.1816, 189.8381
299.6637, 189.9787
300.1458, 189.7609
300.6279, 188.9866
301.1100, 188.1216
301.5922, 187.8142
302.0743, 187.9494
302.5564, 188.0691
303.0385, 187.8934
303.5206, 187.5345
304.0027, 187.1391
304.4849, 186.7224
304.9670, 186.2890
305.4491, 185.7554
305.9312, 185.2054
306.4133, 184.8400
306.8954, 185.0596
307.3776, 185.3563
307.8597, 185.1665
308.3418, 184.4242
308.8239, 183.5662
309.3060, 182.8298
309.7881, 182.2015
310.2703, 181.6813
310.7524, 181.3830
311.2345, 181.1031
311.7166, 180.7395
312.1987, 180.2861
312.6808, 179.6816
313.1630, 178.6276
313.6451, 177.4945
314.1272, 176.6720
314.6093, 176.4474
315.0914, 176.4163
315.5735, 176.3920
316.0557, 176.3930
316.5378, 176.5229
317.0199, 176.9729
317.5020, 177.4813
317.9841, 177.8442
318.4662, 177.8156
318.9484, 177.9279
319.4305, 178.4400
319.9126, 179.2344
320.3947, 180.0021
320.8768, 180.6944
321.3589, 181.3080
321.8411, 181.8082
322.3232, 182.0772
322.8053, 182.5013
323.2874, 183.1400
323.7695, 183.9796
324.2516, 184.9987
324.7338, 186.5547
325.2159, 187.9563
325.6980, 188.8812
326.1801, 189.1407
326.6622, 189.7286
327.1443, 190.9249
327.6265, 192.3921
328.1086, 193.7975
328.5907, 195.0803
329.0728, 196.3463
329.5549, 197.5788
330.0370, 198.7827
330.5192, 200.0922
331.0013, 201.5586
331.4834, 203.0978
331.9655, 204.6654
332.4476, 206.2353
332.9297, 207.8828
333.4119, 209.5767
333.8940, 211.3411
334.3761, 213.3071
334.8582, 215.6080
335.3403, 217.8267
335.8224, 219.7012
336.3046, 221.0687
336.7867, 222.5686
337.2688, 224.1960
337.7509, 225.9808
338.2330, 228.1524
338.7151, 230.9234
339.1973, 233.3612
339.6794, 235.0035
340.1615, 235.7906
340.6436, 236.8528
341.1257, 238.2430
341.6078, 239.7789
342.0899, 241.2558
342.5721, 242.6506
343.0542, 244.0130
343.5363, 245.3547
344.0184, 246.6646
344.5005, 247.9451
344.9826, 249.1983
345.4648, 250.3393
345.9469, 251.3886
346.4290, 252.3090
346.9111, 252.6543
347.3932, 252.1701
347.8753, 251.3004
348.3575, 250.9876
348.8396, 251.1749
349.3217, 251.2404
349.8038, 250.6594
350.2859, 249.6437
350.7680, 248.6927
351.2502, 247.8556
351.7323, 247.1129
352.2144, 246.4778
352.6965, 245.9234
353.1786, 245.3883
353.6607, 244.9318
354.1429, 244.4400
354.6250, 243.7467
355.1071, 242.8445
355.5892, 241.8858
356.0713, 241.0353
356.5534, 240.1994
357.0356, 239.2332
357.5177, 237.8380
357.9998, 236.4995
358.4819, 235.6289
358.9640, 235.1664
359.4461, 234.8070
359.9283, 234.5239
360.4104, 234.2017
360.8925, 233.7215
361.3746, 232.9222
361.8567, 232.1882
362.3388, 231.8153
362.8210, 231.6243
363.3031, 231.2023
363.7852, 230.2136
364.2673, 229.1280
364.7494, 228.1497
365.2315, 227.3080
365.7137, 226.5410
366.1958, 225.8843
366.6779, 225.2881
367.1600, 224.6872
367.6421, 223.8253
368.1242, 223.2172
368.6064, 223.1779
369.0885, 223.7557
369.5706, 223.7729
370.0527, 222.5323
370.5348, 221.2732
371.0169, 220.8269
371.4991, 221.8330
371.9812, 222.5704
372.4633, 222.8104
372.9454, 222.7101
373.4275, 222.8085
373.9096, 223.1440
374.3918, 223.6174
374.8739, 224.1572
375.3560, 224.7310
375.8381, 225.6066
376.3202, 226.9614
376.8023, 228.3734
377.2845, 229.0352
377.7666, 228.7442
378.2487, 228.7762
378.7308, 229.5914
379.2129, 231.0988
379.6950, 232.6727
380.1772, 234.3398
380.6593, 235.9963
381.1414, 237.6385
381.6235, 239.2318
382.1056, 240.5514
382.5877, 241.4370
383.0699, 242.1644
383.5520, 243.1960
384.0341, 244.5358
384.5162, 246.1202
384.9983, 248.1411
385.4804, 250.3619
385.9626, 252.2203
386.4447, 253.5993
386.9268, 254.9460
387.4089, 256.7260
387.8910, 258.8289
388.3731, 260.9673
388.8553, 262.9915
389.3374, 265.0100
389.8195, 267.0532
390.3016, 269.1056
390.7837, 271.3439
391.2658, 274.1950
391.7480, 277.1283
392.2301, 279.5479
392.7122, 280.7923
393.1943, 282.1864
393.6764, 284.4720
394.1585, 287.4201
394.6407, 290.3248
395.1228, 292.8838
395.6049, 295.4082
396.0870, 298.0359
396.5691, 300.7085
397.0512, 303.6894
397.5334, 307.0426
398.0155, 310.7424
398.4976, 314.7076
398.9797, 319.6735
399.4618, 324.1369
399.9439, 327.7037
400.4261, 330.3737
400.9082, 332.9767
401.3903, 335.2788
401.8724, 337.7258
402.3545, 340.6825
402.8366, 344.5629
403.3188, 348.0200
403.8009, 351.1499
404.2830, 353.7377
404.7651, 355.0345
405.2472, 354.5628
405.7293, 354.1474
406.2115, 354.8104
406.6936, 356.6123
407.1757, 357.0516
407.6578, 355.8479
408.1399, 354.0454
408.6220, 353.0344
409.1042, 352.7833
409.5863, 351.7429
410.0684, 349.3079
410.5505, 345.9802
411.0326, 342.7937
411.5147, 339.7276
411.9969, 336.5873
412.4790, 333.2163
412.9611, 329.6261
413.4432, 325.8651
413.9253, 321.8620
414.4074, 317.8450
414.8896, 314.0827
415.3717, 310.4842
415.8538, 306.8567
416.3359, 303.3723
416.8180, 299.6736
417.3001, 295.2502
417.7823, 290.0755
418.2644, 285.2615
418.7465, 281.5147
419.2286, 278.2871
419.7107, 275.1076
420.1928, 271.9021
420.6750, 268.5902
421.1571, 265.0135
421.6392, 261.2754
422.1213, 257.7396
422.6034, 254.6387
423.0855, 251.6531
423.5677, 248.6727
424.0498, 245.7746
424.5319, 242.6553
425.0140, 238.8085
425.4961, 234.9391
425.9782, 231.7658
426.4604, 229.8558
426.9425, 227.8148
427.4246, 225.3676
427.9067, 222.5848
428.3888, 220.1244
428.8709, 218.1165
429.3531, 216.2097
429.8352, 214.1021
430.3173, 211.6908
430.7994, 209.8191
431.2815, 208.6786
431.7636, 207.8071
432.2458, 206.4772
432.7279, 204.6655
433.2100, 202.7280
433.6921, 200.6504
434.1742, 198.5534
434.6563, 197.0188
435.1385, 196.0399
435.6206, 195.1770
436.1027, 193.9137
436.5848, 192.4642
437.0669, 191.5396
437.5490, 191.5107
438.0312, 191.4466
438.5133, 189.9994
438.9954, 187.6113
439.4775, 185.5073
439.9596, 184.2939
440.4417, 183.6637
440.9239, 183.5697
441.4060, 184.0100
441.8881, 184.2063
442.3702, 183.4275
442.8523, 182.3215
443.3344, 181.5060
443.8166, 181.3339
444.2987, 181.2522
444.7808, 181.0848
445.2629, 180.8750
445.7450, 180.7516
446.2271, 180.8669
446.7093, 180.9619
447.1914, 180.9012
447.6735, 180.5751
448.1556, 180.4483
448.6377, 180.7309
449.1198, 181.0717
449.6020, 181.0505
450.0841, 180.2599
450.5662, 179.9973
451.0483, 180.6771
451.5304, 182.0280
452.0125, 182.8118
452.4947, 182.9463
452.9768, 182.7883
453.4589, 182.4216
453.9410, 181.8328
454.4231, 181.5139
454.9052, 181.4924
455.3874, 181.6637
455.8695, 182.0552
456.3516, 182.6012
456.8337, 182.7659
457.3158, 182.0335
457.7979, 181.1089
458.2801, 181.4869
458.7622, 182.9956
459.2443, 184.4437
459.7264, 184.8733
460.2085, 184.8056
460.6906, 184.8610
461.1728, 185.1076
461.6549, 185.5905
462.1370, 186.2608
462.6191, 187.4123
463.1012, 188.2845
463.5833, 188.8924
464.0655, 188.4446
464.5476, 189.3601
465.0297, 189.7292
465.5118, 190.0759
465.9939, 191.1832
466.4760, 190.8889
466.9582, 191.9843
467.4403, 192.5249
467.9224, 193.3193
468.4045, 193.5640
468.8866, 193.9785
469.3687, 194.9430
469.8509, 195.6030
470.3330, 195.7845
470.8151, 196.5950
471.2972, 196.2815
471.7793, 196.9544
472.2614, 198.0529
472.7436, 198.2621
473.2257, 199.0827
473.7078, 199.8034
474.1899, 200.7378
474.6720, 201.1384
475.1541, 201.5372
475.6363, 202.8875
476.1184, 205.0406
476.6005, 207.0509
477.0826, 208.5153
477.5647, 209.6203
478.0468, 210.6030
478.5290, 211.4847
479.0111, 212.4586
479.4932, 213.6135
479.9753, 214.9576
480.4574, 216.5512
480.9395, 218.4867
481.4217, 220.4133
481.9038, 222.0799
482.3859, 223.5791
482.8680, 225.0240
483.3501, 226.4138
483.8322, 227.7892
484.3144, 229.3354
484.7965, 230.9901
485.2786, 232.1172
485.7607, 232.1995
486.2428, 232.0403
486.7249, 232.0233
487.2071, 232.1541
487.6892, 232.4341
488.1713, 233.0407
488.6534, 233.6757
489.1355, 233.9116
489.6176, 233.6868
490.0998, 233.2478
490.5819, 232.6244
491.0640, 231.8372
491.5461, 230.9771
492.0282, 230.0352
492.5103, 229.0822
492.9925, 228.0611
493.4746, 227.0349
493.9567, 226.5530
494.4388, 226.7617
494.9209, 226.8869
495.4030, 225.8757
495.8852, 224.0759
496.3673, 222.3212
496.8494, 220.7464
497.3315, 219.5280
497.8136, 219.1007
498.2957, 219.2594
498.7779, 219.1882
499.2600, 218.3126
499.7421, 217.1504
500.2242, 215.9583
500.7063, 214.6609
501.1884, 213.7906
501.6706, 213.9103
502.1527, 214.3657
502.6348, 214.4959
503.1169, 214.1663
503.5990, 213.5654
504.0811, 212.5297
504.5633, 211.2292
505.0454, 210.2825
505.5275, 209.8487
506.0096, 209.5259
506.4917, 209.1760
506.9738, 208.7952
507.4560, 208.3288
507.9381, 207.6904
508.4202, 207.1954
508.9023, 207.3613
509.3844, 208.1301
509.8665, 208.4458
510.3487, 208.0036
510.8308, 207.2254
511.3129, 206.8121
511.7950, 206.6955
512.2772, 206.5542
512.7593, 206.1237
513.2414, 205.6274
513.7235, 205.3134
514.2056, 205.1861
514.6877, 205.1907
515.1699, 205.3240
515.6520, 205.5547
516.1341, 205.8605
516.6162, 206.2669
517.0983, 206.6842
517.5804, 207.3615
518.0626, 208.0945
518.5447, 208.7140
519.0268, 209.2262
519.5089, 209.3098
519.9910, 209.9469
520.4731, 210.3621
520.9553, 210.7684
521.4374, 211.4833
521.9195, 211.6292
522.4016, 212.3392
522.8837, 212.8298
523.3658, 214.0496
523.8480, 215.1233
524.3301, 216.1406
524.8122, 217.2517
525.2943, 218.4409
525.7764, 219.4275
526.2585, 219.9168
526.7407, 220.4172
527.2228, 222.0983
527.7049, 224.7823
528.1870, 227.3636
528.6691, 229.1111
529.1512, 230.4522
529.6334, 231.7904
530.1155, 233.1579
530.5976, 234.7492
531.0797, 236.5861
531.5618, 238.7670
532.0439, 241.4147
532.5261, 245.3498
533.0082, 248.6524
533.4903, 250.2871
533.9724, 251.0307
534.4545, 252.5977
534.9366, 255.8580
535.4188, 259.1147
535.9009, 261.9240
536.3830, 264.3027
536.8651, 266.9248
537.3472, 269.8368
537.8293, 272.8990
538.3115, 276.0396
538.7936, 279.2621
539.2757, 282.4299
539.7578, 285.5671
540.2399, 288.5046
540.7220, 290.9078
541.2042, 292.8549
541.6863, 294.9817
542.1684, 297.6040
542.6505, 300.3869
543.1326, 303.0201
543.6147, 305.4415
544.0969, 307.4796
544.5790, 308.7298
545.0611, 309.6989
545.5432, 310.8492
546.0253, 312.2315
546.5074, 313.3839
546.9896, 313.8418
547.4717, 314.1281
547.9538, 314.6788
548.4359, 316.1814
548.9180, 317.1117
549.4001, 317.3009
549.8823, 316.8846
550.3644, 316.0029
550.8465, 314.2294
551.3286, 312.8152
551.8107, 312.2901
552.2928, 312.4435
552.7750, 311.6610
553.2571, 309.8033
553.7392, 307.6938
554.2213, 305.6310
554.7034, 303.7141
555.1855, 302.5367
555.6677, 302.1911
556.1498, 302.0918
556.6319, 301.7408
557.1140, 301.1689
557.5961, 300.4782
558.0782, 299.8628
558.5604, 298.8490
559.0425, 296.9943
559.5246, 294.4585
560.0067, 291.5956
560.4888, 287.9487
560.9709, 284.5778
561.4531, 282.0107
561.9352, 280.2531
562.4173, 278.8765
562.8994, 278.3492
563.3815, 277.7658
563.8636, 276.6363
564.3458, 274.7296
564.8279, 272.8893
565.3100, 270.9977
565.7921, 269.2984
566.2742, 268.2548
566.7563, 267.9529
567.2385, 267.3875
567.7206, 266.2498
568.2027, 264.8539
568.6848, 263.9778
569.1669, 263.5472
569.6490, 263.0994
570.1312, 262.2338
570.6133, 261.2612
571.0954, 260.6382
571.5775, 260.3570
572.0596, 260.2574
572.5417, 260.3130
573.0239, 260.4515
573.5060, 260.6108
573.9881, 260.7782
574.4702, 260.9761
574.9523, 261.1032
575.4344, 261.3092
575.9166, 261.7774
576.3987, 262.5134
576.8808, 263.5410
577.3629, 265.0116
577.8450, 266.7670
578.3271, 268.2571
578.8093, 269.3337
579.2914, 270.5745
579.7735, 272.3238
580.2556, 274.4581
580.7377, 276.1473
581.2198, 277.3415
581.7020, 278.4999
582.1841, 280.1561
582.6662, 282.0411
583.1483, 283.4193
583.6304, 284.0603
584.1125, 284.8114
584.5947, 286.6274
585.0768, 288.9802
585.5589, 291.1010
586.0410, 292.7903
586.5231, 294.1390
587.0052, 294.8625
587.4873, 295.2544
587.9694, 296.0779
588.4515, 298.0724
