##NAMES=Krauskopfite
##RRUFFID=R070657
##IDEAL CHEMISTRY=BaSi_2_O_5_&#183;3H_2_O
##LOCALITY=Rush Creek, Fresno County, California, USA
##OWNER=RRUFF
##SOURCE=Michael Scott
##DESCRIPTION=Colorless to white bladed crystals associated with witherite and quartz.
##STATUS=The identification of this mineral has been confirmed by single-crystal X-ray diffraction.
##URL=rruff.info/R070657
97.45238, 1291.833
97.93450, 1372.705
98.41662, 1444.228
98.89874, 1506.451
99.38085, 1572.446
99.86297, 1643.003
100.3451, 1714.631
100.8272, 1778.172
101.3093, 1829.842
101.7914, 1886.745
102.2736, 1955.691
102.7557, 2033.166
103.2378, 2137.924
103.7199, 2290.012
104.2020, 2475.759
104.6841, 2583.544
105.1663, 2564.397
105.6484, 2527.545
106.1305, 2574.483
106.6126, 2760.366
107.0947, 2940.115
107.5768, 3082.366
108.0590, 3178.295
108.5411, 3275.252
109.0232, 3351.449
109.5053, 3433.524
109.9874, 3568.627
110.4695, 3865.967
110.9517, 4129.800
111.4338, 4296.121
111.9159, 4257.442
112.3980, 4261.456
112.8801, 4352.874
113.3622, 4512.350
113.8444, 4638.418
114.3265, 4680.076
114.8086, 4701.498
115.2907, 4746.659
115.7728, 4854.441
116.2549, 4960.129
116.7370, 5043.334
117.2192, 5100.680
117.7013, 5155.858
118.1834, 5209.971
118.6655, 5268.348
119.1476, 5338.573
119.6297, 5435.325
120.1119, 5537.658
120.5940, 5630.710
121.0761, 5707.360
121.5582, 5785.261
122.0403, 5877.055
122.5224, 5979.695
123.0046, 6083.016
123.4867, 6181.749
123.9688, 6277.586
124.4509, 6372.462
124.9330, 6465.258
125.4151, 6558.626
125.8973, 6656.023
126.3794, 6757.407
126.8615, 6859.919
127.3436, 6957.375
127.8257, 7052.885
128.3078, 7153.877
128.7900, 7273.433
129.2721, 7398.723
129.7542, 7500.482
130.2363, 7569.410
130.7184, 7602.455
131.2005, 7631.412
131.6827, 7677.365
132.1648, 7709.532
132.6469, 7694.733
133.1290, 7643.948
133.6111, 7616.227
134.0932, 7624.764
134.5754, 7656.838
135.0575, 7678.697
135.5396, 7688.780
136.0217, 7699.572
136.5038, 7721.006
136.9859, 7752.783
137.4681, 7794.279
137.9502, 7848.519
138.4323, 7914.795
138.9144, 7976.093
139.3965, 8034.570
139.8786, 8086.140
140.3608, 8126.024
140.8429, 8155.432
141.3250, 8171.459
141.8071, 8168.805
142.2892, 8138.517
142.7713, 8121.768
143.2535, 8118.280
143.7356, 8127.925
144.2177, 8153.458
144.6998, 8205.190
145.1819, 8256.880
145.6640, 8293.037
146.1461, 8309.438
146.6283, 8318.964
147.1104, 8321.584
147.5925, 8317.463
148.0746, 8311.411
148.5567, 8298.315
149.0388, 8286.869
149.5210, 8285.379
150.0031, 8309.348
150.4852, 8325.844
150.9673, 8330.428
151.4494, 8324.295
151.9315, 8302.168
152.4137, 8242.727
152.8958, 8171.375
153.3779, 8126.844
153.8600, 8126.774
154.3421, 8139.676
154.8242, 8157.103
155.3064, 8187.871
155.7885, 8207.432
156.2706, 8209.729
156.7527, 8198.230
157.2348, 8183.476
157.7169, 8167.184
158.1991, 8148.478
158.6812, 8127.052
159.1633, 8087.690
159.6454, 8060.760
160.1275, 8057.717
160.6096, 8077.141
161.0918, 8100.748
161.5739, 8137.892
162.0560, 8171.137
162.5381, 8183.631
163.0202, 8147.444
163.5023, 8107.575
163.9845, 8087.064
164.4666, 8089.662
164.9487, 8091.226
165.4308, 8077.637
165.9129, 8056.096
166.3951, 8038.270
166.8772, 8036.338
167.3593, 8035.551
167.8414, 8024.624
168.3235, 7999.166
168.8056, 7970.695
169.2878, 7938.623
169.7699, 7907.635
170.2520, 7891.318
170.7341, 7905.920
171.2162, 7935.932
171.6983, 7967.094
172.1805, 8005.976
172.6626, 8032.850
173.1447, 8023.820
173.6268, 7982.494
174.1089, 7937.517
174.5910, 7903.341
175.0732, 7879.531
175.5553, 7865.370
176.0374, 7859.753
176.5195, 7864.042
177.0016, 7887.530
177.4837, 7931.900
177.9659, 7969.096
178.4480, 7968.276
178.9301, 7939.281
179.4122, 7909.266
179.8943, 7883.496
180.3764, 7866.235
180.8586, 7868.378
181.3407, 7894.072
181.8228, 7925.308
182.3049, 7940.934
182.7870, 7942.993
183.2691, 7942.604
183.7513, 7945.398
184.2334, 7950.803
184.7155, 7957.095
185.1976, 7963.333
185.6797, 7971.492
186.1618, 7988.882
186.6440, 8015.171
187.1261, 8035.542
187.6082, 8034.778
188.0903, 8017.059
188.5724, 8001.650
189.0545, 7992.079
189.5366, 7988.237
190.0188, 7994.906
190.5009, 8013.539
190.9830, 8027.013
191.4651, 8009.129
191.9472, 7963.331
192.4293, 7931.530
192.9115, 7932.229
193.3936, 7958.688
193.8757, 7984.224
194.3578, 8010.646
194.8399, 8029.469
195.3220, 8024.214
195.8042, 7994.030
196.2863, 7967.540
196.7684, 7954.451
197.2505, 7954.958
197.7326, 7973.542
198.2147, 8016.894
198.6969, 8067.220
199.1790, 8087.525
199.6611, 8072.975
200.1432, 8062.215
200.6253, 8081.662
201.1074, 8133.379
201.5896, 8171.553
202.0717, 8192.705
202.5538, 8198.014
203.0359, 8184.490
203.5180, 8145.075
204.0001, 8111.674
204.4823, 8112.263
204.9644, 8153.676
205.4465, 8180.682
205.9286, 8181.753
206.4107, 8163.146
206.8928, 8156.001
207.3750, 8163.138
207.8571, 8175.677
208.3392, 8185.431
208.8213, 8190.986
209.3034, 8201.518
209.7855, 8221.827
210.2677, 8251.171
210.7498, 8270.759
211.2319, 8279.079
211.7140, 8280.125
212.1961, 8275.851
212.6782, 8261.883
213.1604, 8255.814
213.6425, 8266.078
214.1246, 8294.972
214.6067, 8310.031
215.0888, 8306.281
215.5709, 8293.694
216.0531, 8287.782
216.5352, 8291.061
217.0173, 8295.238
217.4994, 8297.850
217.9815, 8299.140
218.4636, 8297.586
218.9458, 8290.033
219.4279, 8281.765
219.9100, 8286.690
220.3921, 8316.518
220.8742, 8338.073
221.3563, 8333.242
221.8385, 8287.781
222.3206, 8254.805
222.8027, 8237.240
223.2848, 8232.239
223.7669, 8229.989
224.2490, 8228.492
224.7312, 8232.482
225.2133, 8245.749
225.6954, 8273.079
226.1775, 8297.957
226.6596, 8320.552
227.1417, 8339.920
227.6239, 8351.885
228.1060, 8355.779
228.5881, 8352.955
229.0702, 8342.251
229.5523, 8315.738
230.0344, 8299.256
230.5165, 8297.896
230.9987, 8311.081
231.4808, 8326.840
231.9629, 8347.614
232.4450, 8368.525
232.9271, 8385.143
233.4092, 8396.418
233.8914, 8405.361
234.3735, 8412.876
234.8556, 8419.176
235.3377, 8420.825
235.8198, 8415.613
236.3019, 8407.802
236.7841, 8402.057
237.2662, 8399.177
237.7483, 8397.201
238.2304, 8397.218
238.7125, 8400.801
239.1946, 8394.317
239.6768, 8365.571
240.1589, 8335.561
240.6410, 8335.244
241.1231, 8383.899
241.6052, 8431.303
242.0873, 8462.678
242.5695, 8473.372
243.0516, 8485.696
243.5337, 8498.868
244.0158, 8513.925
244.4979, 8534.485
244.9800, 8570.061
245.4622, 8595.968
245.9443, 8600.907
246.4264, 8574.665
246.9085, 8555.573
247.3906, 8540.600
247.8727, 8533.664
248.3549, 8545.333
248.8370, 8585.799
249.3191, 8629.607
249.8012, 8669.032
250.2833, 8717.036
250.7654, 8728.698
251.2476, 8687.022
251.7297, 8612.336
252.2118, 8563.348
252.6939, 8546.302
253.1760, 8545.863
253.6581, 8557.476
254.1403, 8590.880
254.6224, 8612.788
255.1045, 8618.076
255.5866, 8611.272
256.0687, 8608.256
256.5508, 8609.222
257.0330, 8614.077
257.5151, 8624.697
257.9972, 8647.128
258.4793, 8659.284
258.9614, 8655.733
259.4435, 8640.066
259.9257, 8629.123
260.4078, 8616.903
260.8899, 8618.344
261.3720, 8651.488
261.8541, 8739.386
262.3362, 8791.846
262.8184, 8787.422
263.3005, 8736.465
263.7826, 8706.626
264.2647, 8704.460
264.7468, 8712.448
265.2289, 8716.189
265.7111, 8711.111
266.1932, 8716.108
266.6753, 8736.248
267.1574, 8769.604
267.6395, 8805.969
268.1216, 8854.462
268.6038, 8889.061
269.0859, 8879.479
269.5680, 8810.930
270.0501, 8753.258
270.5322, 8718.483
271.0143, 8705.550
271.4965, 8709.108
271.9786, 8734.721
272.4607, 8765.460
272.9428, 8786.105
273.4249, 8796.604
273.9070, 8796.687
274.3892, 8782.471
274.8713, 8755.971
275.3534, 8737.801
275.8355, 8727.813
276.3176, 8726.248
276.7997, 8733.338
277.2819, 8748.947
277.7640, 8775.424
278.2461, 8822.354
278.7282, 8884.809
279.2103, 8905.885
279.6924, 8877.038
280.1746, 8830.571
280.6567, 8798.178
281.1388, 8780.064
281.6209, 8774.595
282.1030, 8786.957
282.5851, 8813.398
283.0673, 8825.209
283.5494, 8819.373
284.0315, 8809.871
284.5136, 8812.450
284.9957, 8827.238
285.4778, 8846.672
285.9600, 8873.166
286.4421, 8903.054
286.9242, 8915.633
287.4063, 8908.255
287.8884, 8894.860
288.3705, 8885.454
288.8527, 8880.704
289.3348, 8894.478
289.8169, 8943.858
290.2990, 9016.363
290.7811, 9062.474
291.2632, 9079.327
291.7453, 9083.412
292.2274, 9093.461
292.7096, 9107.863
293.1917, 9115.254
293.6738, 9107.807
294.1559, 9090.214
294.6380, 9074.242
295.1201, 9059.216
295.6023, 9050.073
296.0844, 9052.669
296.5665, 9065.970
297.0486, 9085.068
297.5307, 9111.431
298.0128, 9142.180
298.4950, 9174.269
298.9771, 9209.225
299.4592, 9233.659
299.9413, 9218.025
300.4234, 9178.120
300.9055, 9159.126
301.3877, 9200.525
301.8698, 9267.654
302.3519, 9305.881
302.8340, 9313.880
303.3161, 9313.502
303.7982, 9322.103
304.2804, 9336.890
304.7625, 9352.156
305.2446, 9362.824
305.7267, 9373.564
306.2088, 9392.543
306.6909, 9420.308
307.1731, 9443.067
307.6552, 9444.896
308.1373, 9434.799
308.6194, 9428.079
309.1015, 9437.115
309.5836, 9448.382
310.0658, 9445.300
310.5479, 9427.350
311.0300, 9418.385
311.5121, 9443.584
311.9942, 9485.479
312.4763, 9519.931
312.9585, 9533.262
313.4406, 9539.774
313.9227, 9547.661
314.4048, 9557.190
314.8869, 9566.540
315.3690, 9576.144
315.8512, 9584.580
316.3333, 9590.280
316.8154, 9593.076
317.2975, 9592.446
317.7796, 9584.021
318.2617, 9567.796
318.7439, 9559.744
319.2260, 9571.446
319.7081, 9591.788
320.1902, 9610.236
320.6723, 9632.415
321.1544, 9644.306
321.6366, 9632.807
322.1187, 9598.705
322.6008, 9579.887
323.0829, 9602.125
323.5650, 9634.793
324.0471, 9653.483
324.5293, 9634.432
325.0114, 9621.593
325.4935, 9625.524
325.9756, 9645.935
326.4577, 9666.934
326.9398, 9691.186
327.4220, 9712.826
327.9041, 9727.806
328.3862, 9733.397
328.8683, 9734.803
329.3504, 9733.410
329.8326, 9728.853
330.3147, 9716.228
330.7968, 9681.467
331.2789, 9649.788
331.7610, 9638.105
332.2431, 9665.351
332.7253, 9683.286
333.2074, 9685.144
333.6895, 9673.692
334.1716, 9665.632
334.6537, 9659.416
335.1358, 9659.046
335.6180, 9667.495
336.1001, 9686.794
336.5822, 9710.952
337.0643, 9745.152
337.5464, 9783.130
338.0285, 9799.589
338.5107, 9785.884
338.9928, 9769.026
339.4749, 9764.518
339.9570, 9774.210
340.4391, 9786.779
340.9212, 9802.586
341.4034, 9819.892
341.8855, 9834.600
342.3676, 9846.283
342.8497, 9857.182
343.3318, 9870.017
343.8139, 9884.934
344.2961, 9890.633
344.7782, 9881.030
345.2603, 9871.338
345.7424, 9898.053
346.2245, 9962.170
346.7066, 10016.88
347.1888, 10027.54
347.6709, 10004.92
348.1530, 10002.54
348.6351, 10026.51
349.1172, 10060.98
349.5993, 10091.91
350.0815, 10117.48
350.5636, 10127.79
351.0457, 10105.17
351.5278, 10066.27
352.0099, 10048.68
352.4920, 10056.63
352.9742, 10067.90
353.4563, 10057.39
353.9384, 10032.00
354.4205, 10009.80
354.9026, 10009.48
355.3847, 10011.18
355.8669, 9982.690
356.3490, 9921.386
356.8311, 9872.963
357.3132, 9887.329
357.7953, 9934.337
358.2774, 9967.001
358.7596, 9940.944
359.2417, 9914.016
359.7238, 9935.739
360.2059, 10005.02
360.6880, 10061.92
361.1701, 10066.05
361.6523, 10045.43
362.1344, 10028.45
362.6165, 10015.80
363.0986, 10015.90
363.5807, 10041.71
364.0628, 10089.17
364.5450, 10122.87
365.0271, 10118.39
365.5092, 10104.14
365.9913, 10099.89
366.4734, 10130.79
366.9555, 10148.41
367.4377, 10132.99
367.9198, 10093.41
368.4019, 10073.14
368.8840, 10108.33
369.3661, 10140.38
369.8482, 10140.35
370.3304, 10057.88
370.8125, 10013.71
371.2946, 10025.41
371.7767, 10074.83
372.2588, 10112.15
372.7409, 10135.21
373.2230, 10148.78
373.7051, 10152.88
374.1873, 10141.54
374.6694, 10136.81
375.1515, 10138.87
375.6336, 10147.08
376.1157, 10161.43
376.5978, 10184.37
377.0800, 10206.32
377.5621, 10224.42
378.0442, 10238.90
378.5263, 10245.38
379.0084, 10242.35
379.4905, 10234.32
379.9727, 10223.25
380.4548, 10208.13
380.9369, 10204.91
381.4190, 10223.30
381.9011, 10258.13
382.3832, 10288.90
382.8654, 10315.63
383.3475, 10333.92
383.8296, 10334.51
384.3117, 10320.90
384.7938, 10308.49
385.2759, 10301.55
385.7581, 10298.81
386.2402, 10299.41
386.7223, 10303.27
387.2044, 10307.35
387.6865, 10315.01
388.1686, 10320.65
388.6508, 10311.13
389.1329, 10270.88
389.6150, 10234.97
390.0971, 10250.69
390.5792, 10303.89
391.0613, 10343.61
391.5435, 10320.03
392.0256, 10281.72
392.5077, 10275.53
392.9898, 10321.59
393.4719, 10369.36
393.9540, 10387.33
394.4362, 10387.97
394.9183, 10396.94
395.4004, 10450.08
395.8825, 10491.76
396.3646, 10484.19
396.8467, 10402.92
397.3289, 10352.70
397.8110, 10384.00
398.2931, 10450.82
398.7752, 10494.79
399.2573, 10489.52
399.7394, 10479.81
400.2216, 10472.74
400.7037, 10467.77
401.1858, 10472.81
401.6679, 10493.51
402.1500, 10520.44
402.6321, 10547.97
403.1143, 10591.29
403.5964, 10606.02
404.0785, 10570.86
404.5606, 10497.19
405.0427, 10469.16
405.5248, 10504.34
406.0070, 10551.92
406.4891, 10578.54
406.9712, 10583.04
407.4533, 10574.83
407.9354, 10548.11
408.4175, 10516.03
408.8997, 10511.94
409.3818, 10537.80
409.8639, 10571.33
410.3460, 10601.52
410.8281, 10629.03
411.3102, 10657.08
411.7924, 10686.88
412.2745, 10713.68
412.7566, 10731.49
413.2387, 10740.59
413.7208, 10743.51
414.2029, 10736.08
414.6851, 10724.69
415.1672, 10719.54
415.6493, 10720.80
416.1314, 10724.66
416.6135, 10724.29
417.0956, 10725.20
417.5778, 10736.34
418.0599, 10772.42
418.5420, 10810.10
419.0241, 10834.31
419.5062, 10846.13
419.9883, 10852.90
420.4705, 10854.76
420.9526, 10855.09
421.4347, 10856.16
421.9168, 10855.75
422.3989, 10860.25
422.8810, 10874.32
423.3632, 10894.84
423.8453, 10913.30
424.3274, 10925.20
424.8095, 10936.83
425.2916, 10951.65
425.7737, 10974.58
426.2559, 10988.68
426.7380, 10992.22
427.2201, 10987.39
427.7022, 10976.23
428.1843, 10949.80
428.6664, 10930.92
429.1486, 10924.95
429.6307, 10932.05
430.1128, 10951.97
430.5949, 10993.91
431.0770, 11033.01
431.5591, 11039.94
432.0413, 11007.80
432.5234, 10992.21
433.0055, 11010.68
433.4876, 11048.76
433.9697, 11055.94
434.4518, 11029.90
434.9340, 11004.88
435.4161, 11004.40
435.8982, 11024.95
436.3803, 11052.56
436.8624, 11087.47
437.3445, 11123.38
437.8267, 11157.26
438.3088, 11186.26
438.7909, 11199.51
439.2730, 11179.71
439.7551, 11146.43
440.2372, 11122.37
440.7194, 11109.14
441.2015, 11101.54
441.6836, 11089.90
442.1657, 11083.16
442.6478, 11093.14
443.1299, 11136.28
443.6121, 11186.11
444.0942, 11237.54
444.5763, 11287.91
445.0584, 11320.45
445.5405, 11324.83
446.0226, 11312.34
446.5048, 11289.54
446.9869, 11233.84
447.4690, 11199.10
447.9511, 11205.33
448.4332, 11236.85
448.9153, 11250.64
449.3975, 11228.36
449.8796, 11210.16
450.3617, 11211.93
450.8438, 11240.85
451.3259, 11261.76
451.8080, 11275.06
452.2902, 11280.54
452.7723, 11270.96
453.2544, 11237.03
453.7365, 11230.88
454.2186, 11281.16
454.7007, 11370.64
455.1828, 11400.85
455.6649, 11365.51
456.1471, 11316.59
456.6292, 11295.31
457.1113, 11298.20
457.5934, 11309.66
458.0755, 11328.87
458.5576, 11351.66
459.0398, 11373.37
459.5219, 11393.82
460.0040, 11413.24
460.4861, 11435.72
460.9682, 11455.31
461.4503, 11464.82
461.9325, 11463.49
462.4146, 11452.47
462.8967, 11421.01
463.3788, 11382.97
463.8609, 11358.22
464.3430, 11357.15
464.8252, 11367.77
465.3073, 11394.37
465.7894, 11434.21
466.2715, 11457.12
466.7536, 11444.60
467.2357, 11419.75
467.7179, 11396.89
468.2000, 11364.89
468.6821, 11351.87
469.1642, 11370.39
469.6463, 11407.55
470.1284, 11428.71
470.6106, 11424.56
471.0927, 11419.72
471.5748, 11423.22
472.0569, 11436.10
472.5390, 11449.49
473.0211, 11465.42
473.5033, 11477.48
473.9854, 11472.60
474.4675, 11449.12
474.9496, 11438.13
475.4317, 11452.55
475.9138, 11481.79
476.3960, 11497.41
476.8781, 11499.58
477.3602, 11495.11
477.8423, 11482.52
478.3244, 11468.05
478.8065, 11466.38
479.2887, 11482.29
479.7708, 11504.39
480.2529, 11523.82
480.7350, 11541.02
481.2171, 11556.91
481.6992, 11566.56
482.1814, 11578.68
482.6635, 11602.29
483.1456, 11638.13
483.6277, 11668.85
484.1098, 11681.86
484.5919, 11688.80
485.0741, 11700.04
485.5562, 11740.42
486.0383, 11758.87
486.5204, 11729.36
487.0025, 11665.22
487.4846, 11631.86
487.9668, 11646.52
488.4489, 11673.09
488.9310, 11699.70
489.4131, 11730.44
489.8952, 11747.21
490.3773, 11745.67
490.8595, 11736.39
491.3416, 11733.37
491.8237, 11736.93
492.3058, 11745.88
492.7879, 11762.52
493.2701, 11784.04
493.7522, 11800.91
494.2343, 11813.63
494.7164, 11815.71
495.1985, 11792.44
495.6806, 11754.53
496.1628, 11730.44
496.6449, 11727.09
497.1270, 11733.88
497.6091, 11741.63
498.0912, 11750.64
498.5733, 11761.40
499.0555, 11780.58
499.5376, 11797.19
500.0197, 11802.34
500.5018, 11794.97
500.9839, 11785.16
501.4660, 11765.00
501.9482, 11750.48
502.4303, 11755.56
502.9124, 11803.54
503.3945, 11848.05
503.8766, 11885.54
504.3587, 11915.05
504.8409, 11933.50
505.3230, 11934.31
505.8051, 11932.42
506.2872, 11932.52
506.7693, 11933.64
507.2514, 11944.42
507.7336, 11973.60
508.2157, 11999.20
508.6978, 11983.42
509.1799, 11920.68
509.6620, 11880.69
510.1441, 11884.42
510.6263, 11920.14
511.1084, 11959.98
511.5905, 12003.54
512.0726, 12044.13
512.5547, 12087.67
513.0368, 12122.37
513.5189, 12117.83
514.0010, 12059.35
514.4832, 12004.44
514.9653, 12014.66
515.4474, 12061.99
515.9295, 12095.85
516.4116, 12082.39
516.8937, 12061.33
517.3759, 12057.46
517.8580, 12070.31
518.3401, 12071.78
518.8222, 12035.33
519.3043, 11997.82
519.7864, 11982.82
520.2686, 12018.34
520.7507, 12041.04
521.2328, 12038.91
521.7149, 12027.58
522.1970, 12038.79
522.6791, 12083.12
523.1613, 12127.91
523.6434, 12169.10
524.1255, 12205.39
524.6076, 12204.20
525.0897, 12158.59
525.5718, 12102.23
526.0540, 12060.72
526.5361, 12034.20
527.0182, 12026.57
527.5003, 12039.99
527.9824, 12069.55
528.4645, 12121.72
528.9467, 12187.25
529.4288, 12235.39
529.9109, 12236.93
530.3930, 12220.12
530.8751, 12214.38
531.3572, 12222.16
531.8394, 12221.42
532.3215, 12180.63
532.8036, 12135.27
533.2857, 12117.68
533.7678, 12166.05
534.2499, 12209.06
534.7321, 12234.83
535.2142, 12245.33
535.6963, 12245.74
536.1784, 12223.63
536.6605, 12207.04
537.1426, 12205.74
537.6248, 12221.28
538.1069, 12245.69
538.5890, 12288.85
539.0711, 12324.34
539.5532, 12317.10
540.0353, 12264.04
540.5175, 12221.73
540.9996, 12196.46
541.4817, 12193.17
541.9638, 12240.76
542.4459, 12332.06
542.9280, 12401.78
543.4102, 12386.40
543.8923, 12334.77
544.3744, 12321.86
544.8565, 12354.46
545.3386, 12394.32
545.8207, 12418.66
546.3029, 12433.24
546.7850, 12444.93
547.2671, 12450.29
547.7492, 12458.74
548.2313, 12475.03
548.7134, 12497.08
549.1956, 12518.26
549.6777, 12548.36
550.1598, 12567.11
550.6419, 12565.89
551.1240, 12540.82
551.6061, 12512.10
552.0883, 12471.30
552.5704, 12437.63
553.0525, 12435.50
553.5346, 12471.45
554.0167, 12496.35
554.4988, 12498.43
554.9810, 12488.47
555.4631, 12494.63
555.9452, 12515.87
556.4273, 12530.76
556.9094, 12517.96
557.3915, 12493.43
557.8737, 12484.38
558.3558, 12492.18
558.8379, 12511.96
559.3200, 12556.24
559.8021, 12605.05
560.2842, 12631.20
560.7664, 12607.59
561.2485, 12586.51
561.7306, 12591.77
562.2127, 12615.49
562.6948, 12636.17
563.1769, 12643.79
563.6591, 12653.70
564.1412, 12670.45
564.6233, 12694.44
565.1054, 12723.08
565.5875, 12762.15
566.0696, 12797.80
566.5518, 12812.92
567.0339, 12800.35
567.5160, 12811.77
567.9981, 12863.28
568.4802, 12927.24
568.9623, 12945.31
569.4445, 12921.46
569.9266, 12902.97
570.4087, 12925.84
570.8908, 12964.40
571.3729, 12971.25
571.8550, 12947.20
572.3372, 12920.70
572.8193, 12897.55
573.3014, 12889.51
573.7835, 12914.53
574.2656, 13003.35
574.7477, 13073.02
575.2299, 13076.85
575.7120, 13043.60
576.1941, 13023.71
576.6762, 13022.06
577.1583, 13037.61
577.6404, 13077.17
578.1226, 13139.48
578.6047, 13181.92
579.0868, 13193.18
579.5689, 13204.71
580.0510, 13241.59
580.5331, 13306.74
581.0153, 13354.58
581.4974, 13383.07
581.9795, 13394.24
582.4616, 13375.49
582.9437, 13336.79
583.4258, 13326.04
583.9080, 13375.64
584.3901, 13447.38
584.8722, 13495.13
585.3543, 13522.85
585.8364, 13549.20
586.3185, 13593.21
586.8007, 13634.01
587.2828, 13651.36
587.7649, 13634.43
588.2470, 13630.40
588.7291, 13664.45
589.2112, 13711.21
589.6934, 13745.09
590.1755, 13767.98
590.6576, 13773.06
591.1397, 13747.15
591.6218, 13706.28
592.1039, 13704.07
592.5861, 13752.89
593.0682, 13794.51
593.5503, 13798.70
594.0324, 13771.30
594.5145, 13754.73
