##NAMES=Krauskopfite
##RRUFFID=R070657
##IDEAL CHEMISTRY=BaSi_2_O_5_&#183;3H_2_O
##LOCALITY=Rush Creek, Fresno County, California, USA
##OWNER=RRUFF
##SOURCE=Michael Scott
##DESCRIPTION=Colorless to white bladed crystals associated with witherite and quartz.
##STATUS=The identification of this mineral has been confirmed by single-crystal X-ray diffraction.
##URL=rruff.info/R070657
89.93622, 5067.500
90.41833, 5180.636
90.90045, 5252.052
91.38257, 5301.753
91.86469, 5354.995
92.34680, 5425.491
92.82892, 5508.719
93.31104, 5582.235
93.79315, 5643.168
94.27527, 5683.616
94.75739, 5667.629
95.23950, 5596.122
95.72162, 5534.516
96.20374, 5489.006
96.68585, 5455.186
97.16797, 5421.207
97.65009, 5386.914
98.13220, 5350.784
98.61432, 5309.115
99.09644, 5258.910
99.57855, 5208.167
100.0607, 5158.723
100.5428, 5111.421
101.0249, 5072.076
101.5070, 5048.132
101.9891, 5039.674
102.4713, 5027.675
102.9534, 5006.731
103.4355, 4982.798
103.9176, 4953.913
104.3997, 4920.583
104.8818, 4891.606
105.3640, 4883.365
105.8461, 4913.463
106.3282, 4931.862
106.8103, 4933.184
107.2924, 4922.429
107.7745, 4901.349
108.2567, 4870.229
108.7388, 4832.295
109.2209, 4808.777
109.7030, 4816.750
110.1851, 4820.799
110.6672, 4808.403
111.1494, 4784.774
111.6315, 4763.964
112.1136, 4757.945
112.5957, 4768.729
113.0778, 4775.254
113.5599, 4781.699
114.0421, 4781.767
114.5242, 4768.594
115.0063, 4741.100
115.4884, 4707.707
115.9705, 4675.338
116.4526, 4642.617
116.9348, 4621.576
117.4169, 4624.585
117.8990, 4641.190
118.3811, 4647.157
118.8632, 4630.610
119.3453, 4609.064
119.8275, 4604.860
120.3096, 4619.901
120.7917, 4638.140
121.2738, 4650.089
121.7559, 4655.838
122.2381, 4653.153
122.7202, 4634.246
123.2023, 4609.179
123.6844, 4582.095
124.1665, 4551.980
124.6486, 4526.396
125.1308, 4522.688
125.6129, 4557.462
126.0950, 4584.091
126.5771, 4588.168
127.0592, 4579.055
127.5413, 4567.906
128.0235, 4561.728
128.5056, 4559.700
128.9877, 4551.309
129.4698, 4535.770
129.9519, 4514.093
130.4340, 4477.426
130.9162, 4432.929
131.3983, 4397.413
131.8804, 4389.059
132.3625, 4418.812
132.8446, 4427.166
133.3267, 4394.073
133.8089, 4358.832
134.2910, 4348.198
134.7731, 4365.875
135.2552, 4394.060
135.7373, 4407.167
136.2194, 4395.821
136.7016, 4389.337
137.1837, 4392.917
137.6658, 4401.087
138.1479, 4406.737
138.6300, 4407.202
139.1121, 4404.640
139.5943, 4403.683
140.0764, 4404.745
140.5585, 4405.815
141.0406, 4405.430
141.5227, 4404.086
142.0048, 4403.878
142.4870, 4405.546
142.9691, 4409.341
143.4512, 4415.583
143.9333, 4427.129
144.4154, 4437.688
144.8975, 4439.582
145.3797, 4431.291
145.8618, 4423.439
146.3439, 4427.213
146.8260, 4433.623
147.3081, 4431.018
147.7902, 4410.440
148.2724, 4379.950
148.7545, 4359.227
149.2366, 4349.587
149.7187, 4349.256
150.2008, 4362.291
150.6829, 4382.327
151.1651, 4396.856
151.6472, 4391.668
152.1293, 4367.085
152.6114, 4365.374
153.0935, 4422.753
153.5757, 4473.820
154.0578, 4496.910
154.5399, 4493.389
155.0220, 4476.205
155.5041, 4456.879
155.9862, 4432.005
156.4684, 4415.976
156.9505, 4415.031
157.4326, 4416.625
157.9147, 4415.436
158.3968, 4409.677
158.8789, 4398.893
159.3611, 4381.440
159.8432, 4342.913
160.3253, 4321.585
160.8074, 4335.808
161.2895, 4358.041
161.7716, 4357.965
162.2538, 4323.524
162.7359, 4270.944
163.2180, 4242.108
163.7001, 4259.991
164.1822, 4269.653
164.6643, 4258.810
165.1465, 4233.923
165.6286, 4204.434
166.1107, 4172.291
166.5928, 4142.002
167.0749, 4130.573
167.5570, 4156.311
168.0392, 4179.018
168.5213, 4178.651
169.0034, 4157.876
169.4855, 4129.048
169.9676, 4092.864
170.4497, 4055.990
170.9319, 4037.394
171.4140, 4054.951
171.8961, 4080.768
172.3782, 4089.052
172.8603, 4078.476
173.3424, 4060.705
173.8246, 4040.806
174.3067, 4019.598
174.7888, 3998.025
175.2709, 3974.367
175.7530, 3950.935
176.2351, 3931.412
176.7173, 3913.934
177.1994, 3905.028
177.6815, 3914.068
178.1636, 3934.318
178.6457, 3950.370
179.1278, 3951.975
179.6100, 3941.030
180.0921, 3929.733
180.5742, 3918.229
181.0563, 3906.241
181.5384, 3892.865
182.0205, 3878.671
182.5027, 3865.561
182.9848, 3852.095
183.4669, 3836.755
183.9490, 3835.265
184.4311, 3874.770
184.9132, 3908.318
185.3954, 3912.891
185.8775, 3888.719
186.3596, 3853.516
186.8417, 3826.696
187.3238, 3809.365
187.8059, 3798.457
188.2881, 3796.469
188.7702, 3798.087
189.2523, 3799.995
189.7344, 3801.554
190.2165, 3804.677
190.6986, 3812.874
191.1808, 3830.158
191.6629, 3845.934
192.1450, 3865.744
192.6271, 3881.137
193.1092, 3883.590
193.5914, 3870.254
194.0735, 3846.822
194.5556, 3825.944
195.0377, 3812.567
195.5198, 3796.129
196.0019, 3766.266
196.4841, 3736.265
196.9662, 3725.472
197.4483, 3743.676
197.9304, 3779.559
198.4125, 3794.048
198.8946, 3765.690
199.3768, 3742.544
199.8589, 3736.867
200.3410, 3741.893
200.8231, 3745.524
201.3052, 3741.402
201.7873, 3731.014
202.2695, 3721.383
202.7516, 3704.930
203.2337, 3696.661
203.7158, 3709.196
204.1979, 3736.229
204.6800, 3758.147
205.1622, 3763.222
205.6443, 3753.191
206.1264, 3742.715
206.6085, 3728.166
207.0906, 3716.288
207.5727, 3712.556
208.0549, 3716.180
208.5370, 3720.060
209.0191, 3718.291
209.5012, 3713.070
209.9833, 3713.750
210.4654, 3730.005
210.9476, 3746.142
211.4297, 3744.517
211.9118, 3723.919
212.3939, 3706.171
212.8760, 3709.936
213.3581, 3728.632
213.8403, 3744.465
214.3224, 3760.445
214.8045, 3769.268
215.2866, 3757.138
215.7687, 3719.188
216.2508, 3680.626
216.7330, 3661.104
217.2151, 3654.200
217.6972, 3650.205
218.1793, 3646.926
218.6614, 3644.270
219.1435, 3642.391
219.6257, 3641.914
220.1078, 3640.728
220.5899, 3637.555
221.0720, 3632.797
221.5541, 3626.980
222.0362, 3621.143
222.5184, 3614.534
223.0005, 3604.269
223.4826, 3588.217
223.9647, 3571.971
224.4468, 3561.826
224.9289, 3554.366
225.4111, 3541.303
225.8932, 3509.253
226.3753, 3464.058
226.8574, 3441.482
227.3395, 3454.212
227.8216, 3475.321
228.3038, 3494.873
228.7859, 3511.549
229.2680, 3523.146
229.7501, 3526.405
230.2322, 3521.809
230.7143, 3518.172
231.1965, 3518.497
231.6786, 3516.352
232.1607, 3503.287
232.6428, 3484.196
233.1249, 3473.177
233.6070, 3489.241
234.0892, 3534.007
234.5713, 3553.270
235.0534, 3515.012
235.5355, 3478.736
236.0176, 3467.891
236.4998, 3479.800
236.9819, 3499.280
237.4640, 3514.998
237.9461, 3527.196
238.4282, 3533.450
238.9103, 3520.486
239.3925, 3512.746
239.8746, 3525.330
240.3567, 3553.768
240.8388, 3580.218
241.3209, 3585.662
241.8030, 3565.126
242.2852, 3553.419
242.7673, 3559.720
243.2494, 3566.830
243.7315, 3570.718
244.2136, 3569.548
244.6957, 3560.777
245.1779, 3538.422
245.6600, 3495.879
246.1421, 3472.843
246.6242, 3487.864
247.1063, 3505.070
247.5884, 3510.459
248.0706, 3502.689
248.5527, 3486.202
249.0348, 3462.626
249.5169, 3425.524
249.9990, 3410.252
250.4811, 3436.093
250.9633, 3464.387
251.4454, 3479.630
251.9275, 3479.683
252.4096, 3468.889
252.8917, 3449.782
253.3738, 3417.560
253.8560, 3397.995
254.3381, 3394.298
254.8202, 3397.933
255.3023, 3409.195
255.7844, 3425.313
256.2665, 3439.103
256.7487, 3442.979
257.2308, 3435.313
257.7129, 3423.599
258.1950, 3396.264
258.6771, 3375.210
259.1592, 3375.076
259.6414, 3394.213
260.1235, 3419.758
260.6056, 3439.647
261.0877, 3455.164
261.5698, 3457.813
262.0519, 3438.505
262.5341, 3417.084
263.0162, 3404.512
263.4983, 3400.654
263.9804, 3398.530
264.4625, 3390.824
264.9446, 3375.420
265.4268, 3365.437
265.9089, 3361.739
266.3910, 3361.484
266.8731, 3368.523
267.3552, 3379.543
267.8373, 3382.571
268.3195, 3363.307
268.8016, 3314.071
269.2837, 3291.729
269.7658, 3316.354
270.2479, 3344.117
270.7300, 3354.872
271.2122, 3348.313
271.6943, 3332.726
272.1764, 3313.073
272.6585, 3286.433
273.1406, 3282.329
273.6227, 3324.567
274.1049, 3362.407
274.5870, 3366.249
275.0691, 3342.064
275.5512, 3317.534
276.0333, 3317.001
276.5154, 3343.404
276.9976, 3352.685
277.4797, 3335.722
277.9618, 3314.828
278.4439, 3298.447
278.9260, 3286.239
279.4081, 3273.927
279.8903, 3257.575
280.3724, 3236.917
280.8545, 3225.390
281.3366, 3222.200
281.8187, 3226.741
282.3008, 3244.487
282.7830, 3270.451
283.2651, 3293.960
283.7472, 3308.063
284.2293, 3312.831
284.7114, 3308.875
285.1935, 3287.543
285.6757, 3267.911
286.1578, 3252.857
286.6399, 3243.845
287.1220, 3245.205
287.6041, 3261.420
288.0862, 3289.053
288.5684, 3298.934
289.0505, 3273.190
289.5326, 3251.050
290.0147, 3241.529
290.4968, 3242.030
290.9789, 3248.531
291.4611, 3259.400
291.9432, 3272.969
292.4253, 3280.753
292.9074, 3275.472
293.3895, 3272.932
293.8716, 3280.657
294.3538, 3291.505
294.8359, 3293.172
295.3180, 3279.135
295.8001, 3256.466
296.2823, 3248.117
296.7644, 3269.082
297.2465, 3287.665
297.7286, 3302.840
298.2107, 3314.036
298.6928, 3320.093
299.1750, 3320.524
299.6571, 3317.083
300.1392, 3313.657
300.6213, 3303.045
301.1034, 3302.510
301.5855, 3325.614
302.0677, 3352.319
302.5498, 3359.739
303.0319, 3341.515
303.5140, 3312.998
303.9961, 3302.853
304.4782, 3328.455
304.9604, 3345.226
305.4425, 3349.390
305.9246, 3348.048
306.4067, 3344.537
306.8888, 3340.500
307.3709, 3338.742
307.8531, 3344.082
308.3352, 3362.448
308.8173, 3373.579
309.2994, 3376.654
309.7815, 3374.465
310.2636, 3365.698
310.7458, 3351.957
311.2279, 3339.386
311.7100, 3335.834
312.1921, 3345.186
312.6742, 3348.181
313.1563, 3341.476
313.6385, 3332.239
314.1206, 3320.008
314.6027, 3307.401
315.0848, 3301.235
315.5669, 3310.404
316.0490, 3337.672
316.5312, 3348.450
317.0133, 3324.660
317.4954, 3301.915
317.9775, 3297.043
318.4596, 3303.089
318.9417, 3301.104
319.4239, 3274.439
319.9060, 3225.685
320.3881, 3196.618
320.8702, 3201.494
321.3523, 3212.732
321.8344, 3230.106
322.3166, 3248.625
322.7987, 3261.092
323.2808, 3262.718
323.7629, 3256.087
324.2450, 3251.560
324.7271, 3250.911
325.2093, 3249.831
325.6914, 3246.562
326.1735, 3242.711
326.6556, 3241.319
327.1377, 3244.246
327.6198, 3247.056
328.1020, 3238.281
328.5841, 3209.344
329.0662, 3187.800
329.5483, 3177.941
330.0304, 3177.188
330.5125, 3186.822
330.9947, 3207.234
331.4768, 3229.504
331.9589, 3242.016
332.4410, 3244.441
332.9231, 3238.440
333.4052, 3210.364
333.8874, 3183.156
334.3695, 3173.695
334.8516, 3183.340
335.3337, 3196.311
335.8158, 3195.233
336.2979, 3179.526
336.7801, 3169.580
337.2622, 3172.140
337.7443, 3177.021
338.2264, 3177.610
338.7085, 3174.421
339.1906, 3171.943
339.6728, 3174.093
340.1549, 3179.938
340.6370, 3184.750
341.1191, 3189.360
341.6012, 3191.019
342.0833, 3187.509
342.5655, 3179.993
343.0476, 3171.417
343.5297, 3158.027
344.0118, 3145.389
344.4939, 3147.801
344.9760, 3169.492
345.4582, 3192.105
345.9403, 3203.467
346.4224, 3208.038
346.9045, 3212.261
347.3866, 3222.279
347.8687, 3228.672
348.3509, 3215.748
348.8330, 3182.956
349.3151, 3156.806
349.7972, 3153.541
350.2793, 3164.428
350.7614, 3171.562
351.2436, 3174.170
351.7257, 3172.920
352.2078, 3167.001
352.6899, 3157.184
353.1720, 3146.400
353.6541, 3134.770
354.1363, 3123.994
354.6184, 3117.625
355.1005, 3117.080
355.5826, 3115.314
356.0647, 3104.700
356.5468, 3092.233
357.0290, 3094.418
357.5111, 3118.167
357.9932, 3142.623
358.4753, 3136.969
358.9574, 3094.570
359.4395, 3059.660
359.9217, 3037.318
360.4038, 3024.093
360.8859, 3020.426
361.3680, 3025.244
361.8501, 3028.629
362.3322, 3019.634
362.8144, 2996.020
363.2965, 2986.633
363.7786, 3003.987
364.2607, 3022.850
364.7428, 3031.122
365.2249, 3029.410
365.7071, 3022.354
366.1892, 3012.524
366.6713, 3000.313
367.1534, 2989.179
367.6355, 2967.735
368.1176, 2960.196
368.5998, 2986.053
369.0819, 3025.676
369.5640, 3050.326
370.0461, 3046.654
370.5282, 3023.902
371.0103, 3004.761
371.4925, 2984.691
371.9746, 2976.345
372.4567, 2987.840
372.9388, 3005.772
373.4209, 3021.999
373.9030, 3033.386
374.3852, 3036.953
374.8673, 3024.742
375.3494, 2985.636
375.8315, 2965.656
376.3136, 2976.636
376.7957, 2995.960
377.2779, 3020.231
377.7600, 3044.713
378.2421, 3059.524
378.7242, 3053.904
379.2064, 3028.815
379.6885, 3004.653
380.1706, 2974.915
380.6527, 2955.560
381.1348, 2958.620
381.6169, 2974.311
382.0991, 2985.187
382.5812, 2980.219
383.0633, 2967.887
383.5454, 2969.807
384.0275, 2993.636
384.5096, 3007.963
384.9918, 2991.858
385.4739, 2963.629
385.9560, 2938.800
386.4381, 2919.879
386.9202, 2907.922
387.4023, 2907.027
387.8845, 2916.449
388.3666, 2922.225
388.8487, 2916.054
389.3308, 2909.889
389.8129, 2922.157
390.2950, 2954.849
390.7772, 2975.689
391.2593, 2954.182
391.7414, 2913.109
392.2235, 2900.826
392.7056, 2929.042
393.1877, 2967.608
393.6699, 2989.158
394.1520, 2994.521
394.6341, 2996.232
395.1162, 2998.294
395.5983, 2995.336
396.0804, 2977.747
396.5626, 2948.044
397.0447, 2923.561
397.5268, 2916.032
398.0089, 2923.435
398.4910, 2930.951
398.9731, 2944.410
399.4553, 2951.497
399.9374, 2942.336
400.4195, 2925.365
400.9016, 2914.754
401.3837, 2916.382
401.8658, 2926.072
402.3480, 2935.373
402.8301, 2947.782
403.3122, 2953.973
403.7943, 2946.507
404.2764, 2938.020
404.7585, 2942.486
405.2407, 2959.542
405.7228, 2973.885
406.2049, 2966.375
406.6870, 2931.749
407.1691, 2908.684
407.6512, 2907.193
408.1334, 2907.606
408.6155, 2898.893
409.0976, 2886.949
409.5797, 2886.720
410.0618, 2910.896
410.5439, 2950.423
411.0261, 2968.868
411.5082, 2953.475
411.9903, 2940.578
412.4724, 2942.886
412.9545, 2951.308
413.4366, 2957.011
413.9188, 2957.308
414.4009, 2954.808
414.8830, 2950.849
415.3651, 2945.178
415.8472, 2945.093
416.3293, 2956.760
416.8115, 2970.211
417.2936, 2979.417
417.7757, 2984.006
418.2578, 2979.183
418.7399, 2948.897
419.2220, 2909.546
419.7042, 2901.430
420.1863, 2934.044
420.6684, 2971.187
421.1505, 2982.712
421.6326, 2974.103
422.1147, 2970.542
422.5969, 2980.009
423.0790, 2990.983
423.5611, 2998.573
424.0432, 3001.533
424.5253, 2992.619
425.0074, 2963.787
425.4896, 2926.670
425.9717, 2918.029
426.4538, 2959.455
426.9359, 2991.000
427.4180, 2995.403
427.9001, 2988.024
428.3823, 2985.623
428.8644, 2992.432
429.3465, 3003.697
429.8286, 3014.145
430.3107, 3025.628
430.7928, 3028.972
431.2750, 3019.896
431.7571, 3008.397
432.2392, 2997.483
432.7213, 2988.134
433.2034, 2981.278
433.6855, 2977.997
434.1677, 2977.428
434.6498, 2974.467
435.1319, 2964.510
435.6140, 2959.602
436.0961, 2965.610
436.5782, 2975.641
437.0604, 2981.667
437.5425, 2981.005
438.0246, 2980.284
438.5067, 2992.473
438.9888, 3019.415
439.4709, 3030.314
439.9531, 3006.816
440.4352, 2979.089
440.9173, 2969.240
441.3994, 2976.058
441.8815, 2987.007
442.3636, 3000.512
442.8458, 3012.678
443.3279, 3015.842
443.8100, 3009.184
444.2921, 2996.192
444.7742, 2974.358
445.2563, 2948.189
445.7385, 2932.825
446.2206, 2937.844
446.7027, 2944.188
447.1848, 2936.324
447.6669, 2921.611
448.1490, 2919.162
448.6312, 2937.110
449.1133, 2967.205
449.5954, 2996.679
450.0775, 3036.021
450.5596, 3050.048
451.0417, 3011.736
451.5239, 2965.526
452.0060, 2950.041
452.4881, 2965.077
452.9702, 2981.700
453.4523, 2972.488
453.9344, 2937.313
454.4166, 2924.624
454.8987, 2965.897
455.3808, 2996.384
455.8629, 2994.769
456.3450, 2977.059
456.8271, 2966.377
457.3093, 2972.706
457.7914, 2985.967
458.2735, 2987.347
458.7556, 2972.970
459.2377, 2962.198
459.7198, 2961.412
460.2020, 2962.922
460.6841, 2961.247
461.1662, 2956.686
461.6483, 2954.533
462.1305, 2965.830
462.6126, 2981.788
463.0947, 2972.425
463.5768, 2928.089
464.0589, 2890.079
464.5410, 2893.442
465.0232, 2922.346
465.5053, 2937.129
465.9874, 2924.655
466.4695, 2907.522
466.9516, 2899.237
467.4337, 2897.664
467.9159, 2896.917
468.3980, 2894.791
468.8801, 2893.088
469.3622, 2895.016
469.8443, 2902.182
470.3264, 2909.100
470.8086, 2923.374
471.2907, 2931.561
471.7728, 2915.290
472.2549, 2880.126
472.7370, 2853.705
473.2191, 2860.240
473.7013, 2895.662
474.1834, 2911.282
474.6655, 2882.404
475.1476, 2863.055
475.6297, 2871.938
476.1118, 2890.382
476.5940, 2896.663
477.0761, 2883.567
477.5582, 2863.100
478.0403, 2849.827
478.5224, 2843.899
479.0045, 2844.907
479.4867, 2862.219
479.9688, 2876.101
480.4509, 2871.115
480.9330, 2851.446
481.4151, 2833.526
481.8972, 2824.442
482.3794, 2821.948
482.8615, 2823.402
483.3436, 2828.841
483.8257, 2836.476
484.3078, 2847.798
484.7899, 2859.233
485.2721, 2862.394
485.7542, 2855.095
486.2363, 2844.672
486.7184, 2829.422
487.2005, 2814.075
487.6826, 2805.003
488.1648, 2803.650
488.6469, 2808.890
489.1290, 2821.478
489.6111, 2844.358
490.0932, 2852.692
490.5753, 2833.493
491.0575, 2815.900
491.5396, 2811.047
492.0217, 2815.485
492.5038, 2823.143
492.9859, 2831.289
493.4680, 2838.294
493.9502, 2840.977
494.4323, 2839.854
494.9144, 2832.909
495.3965, 2804.648
495.8786, 2782.219
496.3607, 2787.141
496.8429, 2817.018
497.3250, 2847.672
497.8071, 2863.741
498.2892, 2868.080
498.7713, 2867.857
499.2534, 2862.792
499.7356, 2854.969
500.2177, 2843.195
500.6998, 2830.072
501.1819, 2821.265
501.6640, 2816.997
502.1461, 2817.100
502.6283, 2825.991
503.1104, 2838.285
503.5925, 2843.466
504.0746, 2838.612
504.5567, 2828.592
505.0388, 2817.660
505.5210, 2803.417
506.0031, 2801.755
506.4852, 2827.865
506.9673, 2849.975
507.4494, 2849.334
507.9315, 2834.195
508.4137, 2823.613
508.8958, 2828.199
509.3779, 2839.462
509.8600, 2834.580
510.3421, 2803.586
510.8242, 2782.488
511.3064, 2778.734
511.7885, 2784.416
512.2706, 2800.219
512.7527, 2823.395
513.2349, 2841.514
513.7170, 2842.153
514.1991, 2831.817
514.6812, 2828.811
515.1633, 2835.038
515.6454, 2839.613
516.1276, 2835.550
516.6097, 2825.941
517.0918, 2818.434
517.5739, 2813.603
518.0560, 2810.133
518.5381, 2804.552
519.0203, 2800.852
519.5024, 2811.008
519.9845, 2836.994
520.4666, 2856.396
520.9487, 2841.814
521.4308, 2786.081
521.9130, 2754.753
522.3951, 2761.471
522.8772, 2773.619
523.3593, 2786.369
523.8414, 2795.650
524.3235, 2794.903
524.8057, 2781.096
525.2878, 2762.459
525.7699, 2752.716
526.2520, 2752.431
526.7341, 2758.608
527.2162, 2782.862
527.6984, 2801.660
528.1805, 2797.561
528.6626, 2775.305
529.1447, 2754.089
529.6268, 2740.485
530.1089, 2734.687
530.5911, 2741.448
531.0732, 2760.084
531.5553, 2772.052
532.0374, 2767.044
532.5195, 2752.997
533.0016, 2746.961
533.4838, 2751.460
533.9659, 2754.826
534.4480, 2756.519
534.9301, 2755.110
535.4122, 2745.142
535.8943, 2728.951
536.3765, 2719.793
536.8586, 2729.750
537.3407, 2755.256
537.8228, 2765.541
538.3049, 2745.795
538.7870, 2730.979
539.2692, 2729.887
539.7513, 2733.566
540.2334, 2733.653
540.7155, 2728.391
541.1976, 2721.638
541.6797, 2714.963
542.1619, 2709.164
542.6440, 2712.025
543.1261, 2728.175
543.6082, 2742.624
544.0903, 2743.754
544.5724, 2736.675
545.0546, 2731.057
545.5367, 2727.839
546.0188, 2726.870
546.5009, 2729.571
546.9830, 2734.238
547.4651, 2737.302
547.9473, 2737.826
548.4294, 2737.210
548.9115, 2737.316
549.3936, 2738.757
549.8757, 2737.073
550.3578, 2728.486
550.8400, 2721.365
551.3221, 2722.875
551.8042, 2726.833
552.2863, 2720.401
552.7684, 2697.786
553.2505, 2673.568
553.7327, 2674.702
554.2148, 2705.725
554.6969, 2728.967
555.1790, 2738.994
555.6611, 2741.484
556.1432, 2740.244
556.6254, 2735.212
557.1075, 2725.949
557.5896, 2706.719
558.0717, 2687.865
558.5538, 2682.323
559.0359, 2687.465
559.5181, 2689.494
560.0002, 2682.477
560.4823, 2672.473
560.9644, 2668.914
561.4465, 2672.587
561.9286, 2681.922
562.4108, 2702.705
562.8929, 2723.989
563.3750, 2741.135
563.8571, 2753.108
564.3392, 2759.292
564.8214, 2759.168
565.3035, 2753.504
565.7856, 2740.556
566.2677, 2711.491
566.7498, 2702.196
567.2319, 2740.700
567.7141, 2783.079
568.1962, 2801.516
568.6783, 2798.075
569.1604, 2792.813
569.6425, 2796.510
570.1246, 2804.094
570.6068, 2809.638
571.0889, 2812.995
571.5710, 2810.502
572.0531, 2797.118
572.5352, 2782.014
573.0173, 2786.298
573.4995, 2823.148
573.9816, 2843.346
574.4637, 2823.681
574.9458, 2800.697
575.4279, 2804.834
575.9100, 2831.166
576.3922, 2855.884
576.8743, 2863.766
577.3564, 2858.348
577.8385, 2849.021
578.3206, 2830.148
578.8027, 2821.205
579.2849, 2828.164
579.7670, 2844.598
580.2491, 2869.196
580.7312, 2900.799
581.2133, 2934.216
581.6954, 2977.309
582.1776, 3015.284
582.6597, 3016.723
583.1418, 2983.547
583.6239, 2958.235
584.1060, 2962.767
584.5881, 2983.527
585.0703, 2989.603
585.5524, 2967.624
586.0345, 2964.048
586.5166, 3005.758
586.9987, 3048.764
