##NAMES=Krennerite
##RRUFFID=R060138
##IDEAL CHEMISTRY=Au_3_AgTe_8_
##LOCALITY=Strong mine, Cripple Creek, Teller County, Colorado, USA
##OWNER=RRUFF
##SOURCE=University of Arizona Mineral Museum
##DESCRIPTION=Gray metallic prismatic crystal, striated parallel to [001]
##STATUS=The identification of this mineral is confirmed by single-crystal X-ray diffraction and chemical analysis.
##URL=rruff.info/R060138
##MEASURED CHEMISTRY=(Au_0.87_Ag_0.13_)_Î£=1_Te_2.00_
92.02539, 95.73275
92.50751, 96.63403
92.98962, 97.75374
93.47174, 97.74592
93.95386, 97.34081
94.43597, 96.46542
94.91809, 95.20778
95.40021, 93.71194
95.88232, 92.08216
96.36444, 90.42879
96.84656, 88.49809
97.32867, 86.17253
97.81078, 83.62950
98.29290, 81.14967
98.77502, 78.92329
99.25713, 76.87981
99.73925, 74.63943
100.2214, 71.90295
100.7035, 69.28501
101.1856, 66.97237
101.6677, 65.00105
102.1498, 63.37935
102.6320, 62.11092
103.1141, 61.17781
103.5962, 60.78710
104.0783, 61.37286
104.5604, 62.31023
105.0425, 63.00529
105.5247, 63.33489
106.0068, 63.18697
106.4889, 62.22595
106.9710, 60.41229
107.4531, 58.45237
107.9352, 56.42311
108.4173, 54.40403
108.8995, 52.85963
109.3816, 52.23048
109.8637, 51.97686
110.3458, 51.52690
110.8279, 50.80219
111.3100, 49.94607
111.7922, 49.07300
112.2743, 48.12184
112.7564, 47.37462
113.2385, 47.02377
113.7206, 46.83817
114.2027, 46.64940
114.6849, 46.39207
115.1670, 46.05585
115.6491, 45.60010
116.1312, 44.78105
116.6133, 44.12412
117.0954, 43.79281
117.5776, 43.66483
118.0597, 43.53429
118.5418, 43.24284
119.0239, 42.78395
119.5060, 42.60943
119.9881, 42.74572
120.4703, 43.06813
120.9524, 43.61333
121.4345, 44.33360
121.9166, 45.10398
122.3987, 45.88134
122.8808, 46.67273
123.3630, 46.89816
123.8451, 46.03926
124.3272, 44.87809
124.8093, 44.20272
125.2914, 44.17070
125.7735, 44.38811
126.2557, 44.36951
126.7378, 44.17633
127.2199, 44.19270
127.7020, 44.86253
128.1841, 45.90542
128.6662, 46.39863
129.1483, 46.03246
129.6305, 45.22173
130.1126, 44.20765
130.5947, 43.02885
131.0768, 41.96880
131.5589, 41.32077
132.0410, 41.13782
132.5232, 40.93620
133.0053, 40.41576
133.4874, 40.02700
133.9695, 40.10482
134.4516, 40.68193
134.9337, 41.44094
135.4159, 41.88741
135.8980, 41.80312
136.3801, 41.80391
136.8622, 41.96849
137.3443, 42.19201
137.8264, 42.43129
138.3086, 42.66346
138.7907, 42.82957
139.2728, 42.75982
139.7549, 42.24630
140.2370, 41.72064
140.7191, 41.20108
141.2013, 40.68917
141.6834, 40.21497
142.1655, 39.82064
142.6476, 39.43640
143.1297, 38.75767
143.6118, 37.58435
144.0939, 36.39790
144.5761, 35.43670
145.0582, 34.65096
145.5403, 33.79424
146.0224, 32.68102
146.5045, 31.39705
146.9866, 30.21816
147.4688, 29.20519
147.9509, 28.26296
148.4330, 27.28522
148.9151, 26.25399
149.3972, 25.29268
149.8793, 24.48655
150.3615, 23.78682
150.8436, 23.14275
151.3257, 22.50297
151.8078, 21.92599
152.2899, 21.58241
152.7720, 21.60612
153.2542, 21.63200
153.7363, 21.51142
154.2184, 21.29449
154.7005, 21.05394
155.1826, 20.83427
155.6647, 20.63165
156.1469, 20.40932
156.6290, 20.10837
157.1111, 19.84860
157.5932, 19.67670
158.0753, 19.57201
158.5574, 19.49271
159.0396, 19.40870
159.5217, 19.32375
160.0038, 19.19544
160.4859, 18.96244
160.9680, 18.74656
161.4501, 18.59431
161.9323, 18.50881
162.4144, 18.47959
162.8965, 18.51276
163.3786, 18.65219
163.8607, 18.62413
164.3428, 18.23418
164.8250, 17.82489
165.3071, 17.69779
165.7892, 17.88741
166.2713, 18.12758
166.7534, 18.07718
167.2355, 17.68473
167.7177, 17.37741
168.1998, 17.20817
168.6819, 17.14394
169.1640, 17.18461
169.6461, 17.36287
170.1282, 17.52363
170.6104, 17.41485
171.0925, 17.07140
171.5746, 16.78722
172.0567, 16.72188
172.5388, 16.80943
173.0209, 16.85439
173.5031, 16.80220
173.9852, 16.72548
174.4673, 16.70769
174.9494, 16.74037
175.4315, 16.73974
175.9136, 16.64744
176.3958, 16.46498
176.8779, 16.22728
177.3600, 15.78324
177.8421, 15.42412
178.3242, 15.35323
178.8063, 15.56109
179.2885, 15.86101
179.7706, 16.09529
180.2527, 16.28092
180.7348, 16.31848
181.2169, 16.02786
181.6990, 15.71923
182.1812, 15.54208
182.6633, 15.52487
183.1454, 15.61742
183.6275, 15.77501
184.1096, 16.10236
184.5917, 16.25980
185.0738, 16.17155
185.5560, 15.99862
186.0381, 15.84885
186.5202, 15.75085
187.0023, 15.66326
187.4844, 15.50967
187.9665, 15.15042
188.4487, 14.95963
188.9308, 15.05560
189.4129, 15.25426
189.8950, 15.40048
190.3771, 15.44152
190.8592, 15.40313
191.3414, 15.32353
191.8235, 15.14519
192.3056, 15.03599
192.7877, 15.08121
193.2698, 15.18726
193.7519, 15.22384
194.2341, 15.13939
194.7162, 14.98910
195.1983, 14.87328
195.6804, 14.77585
196.1625, 14.73580
196.6446, 14.83588
197.1268, 15.00265
197.6089, 15.04965
198.0910, 14.86960
198.5731, 14.61416
199.0552, 14.54292
199.5373, 14.68735
200.0195, 14.81212
200.5016, 14.79818
200.9837, 14.65829
201.4658, 14.44048
201.9479, 14.06604
202.4300, 13.71537
202.9122, 13.61226
203.3943, 13.78404
203.8764, 13.96831
204.3585, 13.90891
204.8406, 13.60787
205.3227, 13.42508
205.8048, 13.52866
206.2870, 13.44665
206.7691, 13.81010
207.2512, 14.01931
207.7333, 14.08257
208.2154, 13.56273
208.6975, 13.79584
209.1797, 13.72720
209.6618, 13.64619
210.1439, 13.98528
210.6260, 13.55025
211.1081, 13.88267
211.5902, 13.90874
212.0724, 14.07502
212.5545, 13.93769
213.0366, 13.89414
213.5187, 14.15429
214.0008, 14.24627
214.4829, 13.97015
214.9651, 14.03027
215.4472, 14.07285
215.9293, 14.06694
216.4114, 13.95964
216.8935, 13.91656
217.3756, 13.98887
217.8578, 14.07831
218.3399, 14.13534
218.8220, 14.14155
219.3041, 14.08681
219.7862, 13.93930
220.2683, 13.55032
220.7505, 13.37548
221.2326, 13.51297
221.7147, 13.49650
222.1968, 13.84055
222.6789, 14.03036
223.1610, 14.07421
223.6432, 13.53497
224.1253, 13.74868
224.6074, 13.66064
225.0895, 13.56023
225.5716, 13.87991
226.0537, 13.42548
226.5358, 13.73849
227.0180, 13.74516
227.5001, 13.89204
227.9822, 13.73530
228.4643, 13.67235
228.9464, 13.91310
229.4285, 13.98568
229.9107, 13.56219
230.3928, 13.39567
230.8749, 13.27240
231.3570, 13.10935
231.8391, 13.50871
232.3212, 13.75382
232.8034, 13.85300
233.2855, 13.36907
233.7676, 13.63808
234.2497, 13.60535
234.7318, 13.56025
235.2139, 13.93524
235.6961, 13.53613
236.1782, 13.90446
236.6603, 13.96643
237.1424, 14.16862
237.6245, 14.06719
238.1066, 14.38140
238.5888, 14.75573
239.0709, 14.82104
239.5530, 14.66998
240.0351, 14.58633
240.5172, 14.75370
240.9993, 15.03332
241.4815, 15.09536
241.9636, 14.79069
242.4457, 14.61524
242.9278, 14.91782
243.4099, 15.27797
243.8920, 15.48388
244.3742, 15.54384
244.8563, 15.02070
245.3384, 15.25051
245.8205, 15.17858
246.3026, 15.34288
246.7847, 15.13362
247.2668, 14.77808
247.7490, 14.54440
248.2311, 14.65129
248.7132, 14.91084
249.1953, 14.81743
249.6774, 14.17436
250.1595, 13.57311
250.6417, 13.26578
251.1238, 13.14061
251.6059, 13.07337
252.0880, 13.02312
252.5701, 12.97757
253.0522, 12.90342
253.5344, 12.78946
254.0165, 12.66804
254.4986, 12.54183
254.9807, 12.41758
255.4628, 12.30842
255.9449, 12.22492
256.4271, 12.14375
256.9092, 11.98740
257.3913, 11.64221
257.8734, 11.45038
258.3555, 11.61145
258.8376, 11.86513
259.3198, 11.95732
259.8019, 11.78731
260.2840, 11.46812
260.7661, 11.22118
261.2482, 11.02334
261.7303, 10.95925
262.2125, 11.14910
262.6946, 11.38681
263.1767, 11.47126
263.6588, 11.34712
264.1409, 11.15276
264.6230, 11.15246
265.1052, 11.52396
265.5873, 11.74034
266.0694, 11.66797
266.5515, 11.53091
267.0336, 11.52369
267.5157, 11.67611
267.9979, 11.84209
268.4800, 11.78493
268.9621, 11.33443
269.4442, 11.03053
269.9263, 10.86867
270.4084, 10.82369
270.8906, 10.96313
271.3727, 11.25080
271.8548, 11.50369
272.3369, 11.47669
272.8190, 11.03435
273.3011, 10.76472
273.7833, 10.74780
274.2654, 10.79976
274.7475, 10.84068
275.2296, 10.85470
275.7117, 10.85133
276.1938, 10.84085
276.6760, 10.82627
277.1581, 10.78249
277.6402, 10.65903
278.1223, 10.55914
278.6044, 10.53269
279.0865, 10.57398
279.5686, 10.66375
280.0508, 10.80533
280.5329, 11.00389
281.0150, 10.99260
281.4971, 10.49767
281.9792, 10.11301
282.4613, 10.11964
282.9435, 10.41810
283.4256, 10.77034
283.9077, 11.04143
284.3898, 11.22196
284.8719, 11.20146
285.3540, 10.76828
285.8362, 10.40437
286.3183, 10.26743
286.8004, 10.28381
287.2825, 10.31536
287.7646, 10.29117
288.2467, 10.23384
288.7289, 10.22380
289.2110, 10.35775
289.6931, 10.41734
290.1752, 10.31843
290.6573, 10.13816
291.1394, 9.984616
291.6216, 9.899944
292.1037, 9.853215
292.5858, 9.773498
293.0679, 9.584722
293.5500, 9.511954
294.0321, 9.674276
294.5143, 9.921831
294.9964, 10.09522
295.4785, 10.15187
295.9606, 10.13161
296.4427, 10.08312
296.9248, 9.992715
297.4070, 9.914158
297.8891, 9.796451
298.3712, 9.722724
298.8533, 9.827726
299.3354, 10.11347
299.8175, 10.36483
300.2997, 10.33265
300.7818, 9.950326
301.2639, 9.760751
301.7460, 9.954493
302.2281, 10.18863
302.7102, 10.22479
303.1924, 10.06400
303.6745, 9.847438
304.1566, 9.658422
304.6387, 9.507253
305.1208, 9.469045
305.6029, 9.665975
306.0851, 9.846264
306.5672, 9.866035
307.0493, 9.759419
307.5314, 9.645892
308.0135, 9.591599
308.4956, 9.582730
308.9778, 9.558724
309.4599, 9.498005
309.9420, 9.451232
310.4241, 9.427297
310.9062, 9.429036
311.3883, 9.491960
311.8705, 9.652232
312.3526, 9.812282
312.8347, 9.710608
313.3168, 9.180820
313.7989, 8.821498
314.2810, 8.831275
314.7632, 9.048971
315.2453, 9.294078
315.7274, 9.521915
316.2095, 9.701671
316.6916, 9.789908
317.1737, 9.778788
317.6559, 9.697069
318.1380, 9.421108
318.6201, 9.149768
319.1022, 9.108906
319.5843, 9.315838
320.0664, 9.560636
320.5485, 9.658174
321.0306, 9.591127
321.5128, 9.476776
321.9949, 9.227804
322.4770, 9.005341
322.9591, 8.915572
323.4412, 8.950093
323.9233, 9.054770
324.4055, 9.224153
324.8876, 9.427652
325.3697, 9.454517
325.8518, 9.101290
326.3339, 8.819700
326.8160, 8.844183
327.2982, 9.063236
327.7803, 9.225771
328.2624, 9.208902
328.7445, 9.083603
329.2266, 9.041312
329.7087, 9.124276
330.1909, 9.200178
330.6730, 9.247354
331.1551, 9.273248
331.6372, 9.294999
332.1193, 9.318084
332.6014, 9.314443
333.0836, 9.232339
333.5657, 9.023040
334.0478, 8.884420
334.5299, 8.633847
335.0120, 8.995210
335.4941, 9.202332
335.9763, 9.263503
336.4584, 8.741579
336.9405, 8.972600
337.4226, 8.901875
337.9047, 8.818777
338.3868, 9.155772
338.8690, 8.718659
339.3511, 9.048993
339.8332, 9.072974
340.3153, 9.237166
340.7974, 9.097748
341.2795, 9.052105
341.7617, 9.310170
342.2438, 9.400069
342.7259, 8.995180
343.2080, 9.262211
343.6901, 9.375007
344.1722, 9.341846
344.6544, 8.725580
345.1365, 8.862271
345.6186, 8.697221
346.1007, 8.519793
346.5828, 8.762464
347.0649, 8.231020
347.5471, 8.442172
348.0292, 8.405743
348.5113, 8.441555
348.9934, 8.476250
349.4755, 8.411499
349.9576, 8.197146
350.4398, 7.814722
350.9219, 8.167282
351.4040, 8.365602
351.8861, 8.417971
352.3682, 7.887246
352.8503, 8.109465
353.3325, 8.029938
353.8146, 7.938038
354.2967, 8.266231
354.7788, 7.820315
355.2609, 8.141846
355.7430, 8.157026
356.2252, 8.025337
356.7073, 8.369918
357.1894, 8.560259
357.6715, 8.604647
358.1536, 8.065942
358.6357, 8.280181
359.1179, 8.192673
359.5999, 8.092794
360.0821, 8.413007
360.5642, 7.959111
361.0463, 8.272662
361.5284, 8.279862
362.0105, 8.427272
362.4926, 8.271071
362.9748, 8.208645
363.4569, 8.449927
363.9390, 8.523045
364.4211, 8.331894
364.9032, 8.488215
365.3853, 8.247296
365.8675, 8.263494
366.3496, 8.225502
366.8317, 8.157886
367.3138, 7.991763
367.7959, 7.886987
368.2780, 7.914861
368.7602, 8.007548
369.2423, 8.089082
369.7244, 8.127481
370.2065, 8.126294
370.6886, 8.080576
371.1707, 7.955595
371.6529, 7.875496
372.1350, 7.874016
372.6171, 7.907550
373.0992, 7.977724
373.5813, 8.071122
374.0634, 8.124472
374.5456, 8.043156
375.0277, 7.818069
375.5098, 7.662869
375.9919, 7.625754
376.4740, 7.617232
376.9561, 7.583721
377.4383, 7.544366
377.9204, 7.550353
378.4025, 7.653864
378.8846, 7.809827
379.3667, 7.890079
379.8488, 7.875166
380.3310, 7.833468
380.8131, 7.800064
381.2952, 7.751607
381.7773, 7.633864
382.2594, 7.408835
382.7415, 7.226142
383.2237, 7.321842
383.7058, 7.693552
384.1879, 7.905241
384.6700, 7.769219
385.1521, 7.516677
385.6342, 7.331118
386.1164, 7.216891
386.5985, 7.181759
387.0806, 7.309614
387.5627, 7.512924
388.0448, 7.570186
388.5269, 7.437632
389.0091, 7.245730
389.4912, 7.008864
389.9733, 6.784504
390.4554, 6.725341
390.9375, 6.999122
391.4196, 7.323679
391.9018, 7.442948
392.3839, 7.372569
392.8660, 7.240488
393.3481, 7.068123
393.8302, 6.898569
394.3123, 6.801853
394.7945, 6.764555
395.2766, 6.823973
395.7587, 7.128616
396.2408, 7.506720
396.7229, 7.622285
397.2050, 7.382744
397.6872, 7.053337
398.1693, 6.902736
398.6514, 6.947072
399.1335, 7.097466
399.6156, 7.593723
400.0977, 8.000547
400.5798, 7.901098
401.0620, 7.389894
401.5441, 6.933560
402.0262, 6.828141
402.5083, 7.000522
402.9904, 7.088778
403.4725, 6.960875
403.9547, 6.924714
404.4368, 7.181099
404.9189, 7.507114
405.4010, 7.566614
405.8831, 7.267112
406.3652, 6.871894
406.8474, 6.787699
407.3295, 7.205277
407.8116, 7.378143
408.2937, 7.119340
408.7758, 6.812334
409.2579, 6.657395
409.7401, 6.649130
410.2222, 6.695794
410.7043, 6.738536
411.1864, 6.771821
411.6685, 6.746950
412.1506, 6.554026
412.6328, 6.440012
413.1149, 6.444929
413.5970, 6.543547
414.0791, 6.756810
414.5612, 7.081507
415.0433, 7.381751
415.5255, 7.394734
416.0076, 6.978590
416.4897, 6.767756
416.9718, 7.076123
417.4539, 7.363992
417.9360, 7.334785
418.4182, 7.044034
418.9003, 6.747783
419.3824, 6.620591
419.8645, 6.636686
420.3466, 6.688519
420.8287, 6.799173
421.3109, 6.896617
421.7930, 6.948725
422.2751, 6.973989
422.7572, 6.994956
423.2393, 7.021483
423.7214, 7.027395
424.2036, 6.966609
424.6857, 6.842807
425.1678, 6.749071
425.6499, 6.706916
426.1320, 6.702170
426.6141, 6.725660
427.0963, 6.774237
427.5784, 6.824548
428.0605, 6.901768
428.5426, 6.960899
429.0247, 6.897142
429.5068, 6.695036
429.9890, 6.538356
430.4711, 6.562957
430.9532, 6.719724
431.4353, 6.829626
431.9174, 6.890062
432.3995, 6.906752
432.8817, 6.855519
433.3638, 6.765023
433.8459, 6.690207
434.3280, 6.646310
434.8101, 6.635690
435.2922, 6.670638
435.7744, 6.769746
436.2565, 6.836664
436.7386, 6.863879
437.2207, 6.861385
437.7028, 6.820123
438.1849, 6.751364
438.6671, 6.695985
439.1492, 6.687077
439.6313, 6.708483
440.1134, 6.664844
440.5955, 6.409427
441.0776, 6.271243
441.5598, 6.376254
442.0418, 6.570050
442.5240, 6.697065
443.0061, 6.716227
443.4882, 6.688035
443.9703, 6.691106
444.4524, 6.737252
444.9345, 6.759265
445.4167, 6.768978
445.8988, 6.742008
446.3809, 6.617808
446.8630, 6.455223
447.3451, 6.373459
447.8272, 6.456825
448.3094, 6.623467
448.7915, 6.644990
449.2736, 6.442381
449.7557, 6.320982
450.2378, 6.488158
450.7199, 6.674581
451.2021, 6.650658
451.6842, 6.403543
452.1663, 6.162300
452.6484, 6.126167
453.1305, 6.252046
453.6126, 6.348730
454.0948, 6.389173
454.5769, 6.436088
455.0590, 6.562108
455.5411, 6.720439
456.0232, 6.826535
456.5053, 6.854218
456.9875, 6.834566
457.4696, 6.790998
457.9517, 6.722145
458.4338, 6.598198
458.9159, 6.370089
459.3980, 6.160346
459.8802, 6.220228
460.3623, 6.587999
460.8444, 6.790164
461.3265, 6.522417
461.8086, 6.203890
462.2907, 6.282211
462.7729, 6.723505
463.2550, 7.138204
463.7371, 7.270500
464.2192, 7.152441
464.7013, 6.966572
465.1834, 6.582983
465.6656, 6.301271
466.1477, 6.181679
466.6298, 6.173849
467.1119, 6.273066
467.5940, 6.455670
468.0761, 6.601724
468.5583, 6.551721
469.0404, 6.261889
469.5225, 6.056293
470.0046, 5.933661
470.4867, 5.900095
470.9688, 6.057448
471.4510, 6.285873
471.9331, 6.371061
472.4152, 6.196513
472.8973, 5.930241
473.3794, 5.915564
473.8615, 6.222384
474.3437, 6.484298
474.8258, 6.682467
475.3079, 6.769441
475.7900, 6.649580
476.2721, 6.362546
476.7542, 6.111610
477.2364, 6.046754
477.7185, 6.100807
478.2006, 6.125449
478.6827, 6.117521
479.1648, 6.089903
479.6469, 5.993662
480.1291, 5.911235
480.6112, 6.015259
481.0933, 6.414626
481.5754, 6.714666
482.0575, 6.626496
482.5396, 6.323691
483.0217, 6.112940
483.5038, 6.054067
483.9860, 6.100835
484.4681, 6.241960
484.9502, 6.480499
485.4323, 6.600305
485.9144, 6.526346
486.3965, 6.421557
486.8787, 6.351336
487.3608, 6.299070
487.8429, 6.220333
488.3250, 6.097156
488.8071, 5.968331
489.2892, 5.908875
489.7714, 5.966970
490.2535, 5.974711
490.7356, 5.826257
491.2177, 5.733678
491.6998, 5.864763
492.1819, 6.143106
492.6641, 6.364342
493.1462, 6.388656
493.6283, 6.291700
494.1104, 6.309715
494.5925, 6.509006
495.0746, 6.642707
495.5568, 6.615088
496.0389, 6.526669
496.5210, 6.428872
497.0031, 6.331439
497.4852, 6.245850
497.9673, 6.148428
498.4495, 6.071632
498.9316, 6.148361
499.4137, 6.429796
499.8958, 6.641106
500.3779, 6.567552
500.8600, 6.335192
501.3422, 6.215359
501.8243, 6.271073
502.3064, 6.331102
502.7885, 6.322548
503.2706, 6.257661
503.7527, 6.134227
504.2349, 5.950596
504.7170, 5.791718
505.1991, 5.749561
505.6812, 5.832206
506.1633, 5.880594
506.6454, 5.829340
507.1276, 5.819837
507.6097, 5.953888
508.0918, 6.149114
508.5739, 6.270121
509.0560, 6.268263
509.5381, 6.210108
510.0203, 6.199603
510.5024, 6.248240
510.9845, 6.305307
511.4666, 6.425421
511.9487, 6.499396
512.4308, 6.474597
512.9130, 6.372651
513.3951, 6.214652
513.8772, 5.981748
514.3593, 5.786782
514.8414, 5.918301
515.3235, 6.449719
515.8057, 6.737671
516.2878, 6.469787
516.7699, 6.072659
517.2520, 5.917876
517.7341, 5.977870
518.2162, 6.025210
518.6984, 5.898460
519.1805, 5.744668
519.6626, 5.804336
520.1447, 6.059943
520.6268, 6.219536
521.1089, 6.107042
521.5911, 5.859026
522.0732, 5.807617
522.5553, 6.030234
523.0374, 6.182516
523.5195, 6.183675
524.0016, 6.107759
524.4838, 5.960831
524.9659, 5.782605
525.4480, 5.713717
525.9301, 5.877898
526.4122, 6.204982
526.8943, 6.327331
527.3765, 6.028580
527.8586, 5.828437
528.3407, 5.787859
528.8228, 5.844514
529.3049, 5.997218
529.7870, 6.214113
530.2692, 6.383683
530.7513, 6.382756
531.2334, 6.247007
531.7155, 6.207736
532.1976, 6.336900
532.6797, 6.394299
533.1619, 6.175169
533.6440, 5.883130
534.1261, 5.717599
534.6082, 5.713037
535.0903, 5.794205
535.5724, 5.997430
536.0546, 6.234462
536.5367, 6.286032
537.0188, 6.113332
537.5009, 5.924530
537.9830, 5.877024
538.4651, 5.943046
538.9473, 5.957969
539.4294, 5.882411
539.9115, 5.810391
540.3936, 5.760828
540.8757, 5.732242
541.3578, 5.729675
541.8400, 5.750749
542.3221, 5.773169
542.8042, 5.768113
543.2863, 5.734178
543.7684, 5.761934
544.2505, 5.989987
544.7326, 6.109560
545.2147, 5.993218
545.6968, 5.774386
546.1790, 5.564688
546.6611, 5.402169
547.1432, 5.337919
547.6253, 5.487109
548.1074, 5.824044
548.5895, 6.030900
549.0717, 6.042070
549.5538, 6.037257
550.0359, 6.164033
550.5180, 6.332507
551.0001, 6.394833
551.4822, 6.285299
551.9644, 6.169991
552.4465, 6.176939
552.9286, 6.247310
553.4107, 6.246756
553.8928, 6.147668
554.3749, 6.047561
554.8571, 6.040794
555.3392, 6.123784
555.8213, 6.156738
556.3034, 6.118180
556.7855, 6.064024
557.2676, 6.017410
557.7498, 5.958589
558.2319, 5.843438
558.7140, 5.671893
559.1961, 5.513870
559.6782, 5.435820
560.1603, 5.437495
560.6425, 5.562202
561.1246, 6.008797
561.6067, 6.277284
562.0888, 6.068313
562.5709, 5.694450
563.0530, 5.531379
563.5352, 5.674799
564.0173, 5.856248
564.4994, 5.805048
564.9815, 5.606025
565.4636, 5.559364
565.9457, 5.719747
566.4279, 5.891824
566.9100, 5.936111
567.3921, 5.890742
567.8742, 5.905447
568.3563, 6.056201
568.8384, 6.140604
569.3206, 6.029527
569.8027, 5.845178
570.2848, 5.723457
570.7669, 5.689821
571.2490, 5.720145
571.7311, 5.803823
572.2133, 5.932297
572.6954, 6.005929
573.1775, 5.944419
573.6596, 5.939457
574.1417, 6.091344
574.6238, 6.256678
575.1060, 6.300560
575.5881, 6.215119
576.0702, 6.098767
576.5523, 6.020213
577.0344, 5.977155
577.5165, 5.965184
577.9987, 5.989084
578.4808, 6.027464
578.9629, 6.118716
579.4450, 6.184771
579.9271, 6.092811
580.4092, 5.809612
580.8914, 5.592618
581.3735, 5.534979
581.8556, 5.594954
582.3377, 5.805153
582.8198, 6.118526
583.3019, 6.299665
583.7841, 6.193820
584.2662, 5.911496
584.7483, 5.757139
585.2304, 5.817536
585.7125, 5.869277
586.1946, 5.939187
586.6768, 5.977835
587.1589, 5.924489
