##NAMES=Krennerite
##RRUFFID=R060138
##IDEAL CHEMISTRY=Au_3_AgTe_8_
##LOCALITY=Strong mine, Cripple Creek, Teller County, Colorado, USA
##OWNER=RRUFF
##SOURCE=University of Arizona Mineral Museum
##DESCRIPTION=Gray metallic prismatic crystal, striated parallel to [001]
##STATUS=The identification of this mineral is confirmed by single-crystal X-ray diffraction and chemical analysis.
##URL=rruff.info/R060138
##MEASURED CHEMISTRY=(Au_0.87_Ag_0.13_)_Î£=1_Te_2.00_
89.78156, 0.0000000E+00
90.26367, 20.64094
90.74579, 20.73770
91.22791, 20.69541
91.71002, 20.52993
92.19214, 20.38055
92.67426, 20.50577
93.15638, 20.75513
93.63850, 20.71030
94.12061, 19.96727
94.60273, 18.90665
95.08485, 18.51006
95.56696, 18.85104
96.04908, 19.38303
96.53120, 19.39417
97.01331, 18.91387
97.49543, 18.54060
97.97755, 18.70865
98.45966, 19.36521
98.94178, 19.41893
99.42390, 18.63208
99.90602, 17.57683
100.3881, 17.47278
100.8703, 18.59583
101.3524, 19.69336
101.8345, 20.09892
102.3166, 19.65405
102.7987, 19.15558
103.2808, 18.57739
103.7630, 17.98490
104.2451, 17.71921
104.7272, 17.94858
105.2093, 18.27921
105.6914, 18.45218
106.1735, 18.36789
106.6557, 18.29799
107.1378, 18.33075
107.6199, 18.47559
108.1020, 18.38859
108.5841, 17.79766
109.0662, 17.11691
109.5484, 16.71027
110.0305, 16.71367
110.5126, 16.85071
110.9947, 17.09047
111.4768, 17.44516
111.9590, 17.85010
112.4411, 18.31662
112.9232, 18.82970
113.4053, 19.35605
113.8874, 19.83290
114.3695, 20.37294
114.8517, 21.08050
115.3338, 22.13885
115.8159, 22.92140
116.2980, 22.74319
116.7801, 22.14228
117.2622, 22.28389
117.7444, 24.11105
118.2265, 26.52312
118.7086, 28.74658
119.1907, 30.33599
119.6728, 32.17960
120.1549, 34.93949
120.6371, 38.44014
121.1192, 41.98508
121.6013, 44.96240
122.0834, 47.80709
122.5655, 50.99316
123.0476, 54.77488
123.5298, 58.85783
124.0119, 62.86336
124.4940, 66.82407
124.9761, 71.21950
125.4582, 76.71169
125.9404, 82.87796
126.4225, 88.84560
126.9046, 94.37199
127.3867, 99.46310
127.8688, 103.9776
128.3509, 107.8671
128.8331, 111.6516
129.3152, 116.0589
129.7973, 120.9549
130.2794, 125.5577
130.7615, 129.2887
131.2436, 132.4181
131.7258, 135.7504
132.2079, 139.2826
132.6900, 143.1146
133.1721, 147.5774
133.6542, 152.6606
134.1364, 157.6973
134.6185, 162.4225
135.1006, 166.8552
135.5827, 170.9174
136.0648, 174.5181
136.5469, 177.8837
137.0291, 181.6490
137.5112, 185.9063
137.9933, 190.0793
138.4754, 193.8909
138.9575, 197.3094
139.4396, 200.3796
139.9218, 203.1356
140.4039, 205.5317
140.8860, 207.1214
141.3681, 207.4737
141.8502, 207.7674
142.3323, 209.0467
142.8145, 211.9256
143.2966, 214.2374
143.7787, 215.4968
144.2608, 215.7329
144.7429, 216.1976
145.2250, 217.4252
145.7072, 218.4049
146.1893, 218.1323
146.6714, 215.8985
147.1535, 213.4661
147.6356, 211.0731
148.1178, 208.6848
148.5999, 206.5992
149.0820, 204.3872
149.5641, 202.6703
150.0462, 202.2273
150.5283, 205.0564
151.0105, 207.1731
151.4926, 205.4990
151.9747, 200.6729
152.4568, 197.2567
152.9389, 196.3604
153.4210, 196.6779
153.9032, 196.3695
154.3853, 195.4073
154.8674, 193.7200
155.3495, 191.0979
155.8316, 186.8033
156.3137, 183.2355
156.7959, 181.0231
157.2780, 179.7343
157.7601, 178.5750
158.2422, 177.3527
158.7243, 176.2041
159.2065, 175.1478
159.6886, 174.0263
160.1707, 173.2616
160.6528, 173.1366
161.1349, 173.4710
161.6170, 173.7961
162.0992, 174.0255
162.5813, 174.1405
163.0634, 174.1466
163.5455, 174.1922
164.0276, 173.9341
164.5097, 172.9506
164.9919, 171.4454
165.4740, 170.2118
165.9561, 169.7917
166.4382, 169.7472
166.9203, 168.7933
167.4024, 169.3782
167.8846, 169.5035
168.3667, 169.1941
168.8488, 167.1473
169.3309, 167.3439
169.8130, 166.6415
170.2952, 165.9021
170.7773, 166.4144
171.2594, 164.6204
171.7415, 165.1129
172.2236, 164.6926
172.7057, 164.6901
173.1879, 163.7829
173.6700, 163.1551
174.1521, 163.2224
174.6342, 163.7644
175.1163, 164.2453
175.5984, 164.3755
176.0806, 165.1145
176.5627, 165.3940
177.0448, 165.2386
177.5269, 163.3459
178.0090, 163.6966
178.4911, 163.1483
178.9733, 162.5630
179.4554, 163.2294
179.9375, 161.5895
180.4196, 162.2361
180.9017, 161.9699
181.3838, 160.6573
181.8660, 160.9135
182.3481, 161.3977
182.8302, 161.8946
183.3123, 162.2250
183.7944, 161.7790
184.2766, 160.4111
184.7587, 158.9629
185.2408, 158.3843
185.7229, 157.7643
186.2050, 158.4068
186.6871, 158.5897
187.1693, 158.3377
187.6514, 156.3484
188.1335, 156.6026
188.6156, 155.9577
189.0977, 155.2759
189.5798, 155.8458
190.0620, 154.1091
190.5441, 154.6591
191.0262, 155.9865
191.5083, 156.7835
191.9904, 156.7990
192.4725, 156.3030
192.9547, 155.5966
193.4368, 154.6618
193.9189, 153.9117
194.4010, 153.7622
194.8831, 154.1537
195.3652, 154.0435
195.8474, 153.2168
196.3295, 152.0993
196.8116, 151.5728
197.2937, 151.6887
197.7758, 151.9134
198.2579, 152.0331
198.7401, 152.0524
199.2222, 151.6452
199.7043, 150.5706
200.1864, 149.3054
200.6685, 149.1420
201.1507, 150.3215
201.6328, 151.4671
202.1149, 151.5963
202.5970, 150.5700
203.0791, 150.0072
203.5612, 150.2087
204.0434, 150.8293
204.5255, 150.8470
205.0076, 150.0874
205.4897, 149.3301
205.9718, 149.1474
206.4539, 149.6834
206.9361, 149.8992
207.4182, 149.5720
207.9003, 148.9274
208.3824, 148.7433
208.8645, 149.1907
209.3466, 149.6533
209.8288, 149.7298
210.3109, 149.3270
210.7930, 148.9375
211.2751, 148.5737
211.7572, 148.2617
212.2393, 148.1251
212.7215, 148.2575
213.2036, 148.3610
213.6857, 148.1654
214.1678, 147.4700
214.6499, 147.1907
215.1320, 147.5836
215.6142, 148.4362
216.0963, 148.7854
216.5784, 148.4476
217.0605, 147.9562
217.5426, 147.6162
218.0247, 147.4120
218.5069, 147.4271
218.9890, 147.7484
219.4711, 148.2995
219.9532, 148.7400
220.4353, 149.1122
220.9175, 149.3153
221.3996, 149.2417
221.8817, 148.7332
222.3638, 148.3701
222.8459, 148.2440
223.3280, 148.3094
223.8102, 148.3447
224.2923, 148.3401
224.7744, 148.3197
225.2565, 148.2579
225.7386, 148.0101
226.2207, 148.0927
226.7029, 148.7291
227.1850, 149.7592
227.6671, 150.2841
228.1492, 150.0161
228.6313, 149.6518
229.1134, 149.6259
229.5956, 150.1044
230.0777, 150.5473
230.5598, 150.8958
231.0419, 151.1779
231.5240, 151.5373
232.0062, 152.0040
232.4883, 152.5106
232.9704, 153.0769
233.4525, 153.9588
233.9346, 154.2943
234.4167, 153.6644
234.8989, 152.3925
235.3810, 152.0899
235.8631, 153.4546
236.3452, 154.8643
236.8273, 155.3357
237.3094, 154.2872
237.7916, 153.5631
238.2737, 153.3648
238.7558, 153.5683
239.2379, 153.6379
239.7200, 153.4374
240.2021, 153.2842
240.6843, 153.4166
241.1664, 154.2113
241.6485, 154.4343
242.1306, 153.7698
242.6127, 151.8329
243.0948, 153.0662
243.5770, 153.8400
244.0591, 154.1789
244.5412, 152.7805
245.0233, 153.6254
245.5054, 153.5714
245.9876, 153.4805
246.4697, 154.6412
246.9518, 155.0125
247.4339, 154.0086
247.9160, 152.7661
248.3981, 152.1699
248.8803, 152.4884
249.3624, 152.8111
249.8445, 153.1891
250.3266, 153.5404
250.8087, 153.4879
251.2908, 150.7665
251.7730, 152.4189
252.2551, 153.3820
252.7372, 153.6928
253.2193, 151.3976
253.7014, 152.4675
254.1835, 152.1888
254.6657, 151.8549
255.1478, 153.3983
255.6299, 151.9367
256.1120, 150.4433
256.5941, 152.0983
257.0763, 153.0639
257.5584, 153.3773
258.0405, 151.0847
258.5226, 152.1572
259.0047, 151.8811
259.4868, 151.5497
259.9690, 153.0957
260.4511, 150.7560
260.9332, 149.4807
261.4153, 148.5246
261.8974, 147.8764
262.3795, 147.5589
262.8617, 147.6566
263.3438, 147.8733
263.8259, 148.1167
264.3080, 148.3798
264.7901, 148.7579
265.2722, 149.3920
265.7544, 149.9734
266.2365, 149.9572
266.7186, 149.1118
267.2007, 148.3805
267.6828, 148.0843
268.1649, 148.2465
268.6471, 148.4007
269.1292, 148.5510
269.6113, 148.6931
270.0934, 148.8696
270.5755, 149.1497
271.0576, 149.1837
271.5398, 148.7379
272.0219, 147.8355
272.5040, 147.5442
272.9861, 148.0901
273.4682, 148.7636
273.9503, 148.7018
274.4325, 147.7250
274.9146, 147.0226
275.3967, 146.9337
275.8788, 147.3801
276.3610, 147.7641
276.8431, 148.0739
277.3252, 148.3455
277.8073, 148.7005
278.2894, 149.1794
278.7715, 149.2401
279.2537, 148.5824
279.7358, 147.4707
280.2179, 147.1348
280.7000, 147.7400
281.1821, 148.3797
281.6642, 148.2008
282.1464, 147.1975
282.6285, 146.4337
283.1106, 146.0878
283.5927, 146.0817
284.0748, 146.2637
284.5569, 146.6511
285.0391, 147.0661
285.5212, 147.4427
286.0033, 147.7676
286.4854, 147.8615
286.9675, 147.6248
287.4496, 147.2607
287.9318, 147.2404
288.4139, 147.5691
288.8960, 147.8403
289.3781, 147.7192
289.8602, 147.3022
290.3423, 147.1138
290.8245, 147.2572
291.3066, 147.4959
291.7887, 147.3660
292.2708, 146.9180
292.7529, 146.6226
293.2350, 146.9306
293.7172, 147.6070
294.1993, 147.8551
294.6814, 147.5769
295.1635, 147.1676
295.6456, 147.1764
296.1277, 147.5062
296.6099, 147.7457
297.0920, 147.7202
297.5741, 147.4696
298.0562, 146.9203
298.5383, 146.0390
299.0204, 145.3368
299.5026, 145.4901
299.9847, 146.2464
300.4668, 146.9475
300.9489, 147.4453
301.4311, 147.6770
301.9132, 147.3425
302.3953, 146.4675
302.8774, 145.7421
303.3595, 145.8690
303.8416, 146.5035
304.3238, 147.0499
304.8059, 147.3097
305.2880, 147.4000
305.7701, 147.3743
306.2522, 147.2507
306.7343, 147.1418
307.2165, 147.1423
307.6986, 147.1917
308.1807, 147.2146
308.6628, 147.1861
309.1449, 147.1336
309.6270, 147.1085
310.1092, 147.0825
310.5913, 146.9673
311.0734, 146.5307
311.5555, 146.0796
312.0376, 145.8929
312.5197, 146.0583
313.0019, 145.5915
313.4840, 146.0195
313.9661, 146.2560
314.4482, 146.3113
314.9303, 145.6427
315.4124, 145.9089
315.8946, 145.8004
316.3767, 145.6766
316.8588, 145.3242
317.3409, 145.3077
317.8230, 145.7976
318.3051, 146.1559
318.7873, 146.2440
319.2694, 146.1177
319.7515, 145.6906
320.2336, 144.9304
320.7157, 144.3423
321.1978, 144.0181
321.6800, 143.9554
322.1621, 144.1556
322.6442, 145.1747
323.1263, 145.8821
323.6084, 145.7776
324.0905, 144.9301
324.5727, 144.4634
325.0548, 144.9882
325.5369, 145.6586
326.0190, 145.9631
326.5012, 145.3258
326.9833, 144.9504
327.4654, 145.1012
327.9475, 145.6321
328.4296, 145.9536
328.9117, 146.0957
329.3939, 146.0000
329.8760, 145.5977
330.3581, 144.4996
330.8402, 143.8083
331.3223, 143.6362
331.8044, 143.8309
332.2866, 144.1363
332.7687, 144.8647
333.2508, 145.2231
333.7329, 144.8054
334.2150, 143.3141
334.6971, 142.5273
335.1793, 142.8043
335.6614, 143.3201
336.1435, 143.8323
336.6256, 144.1530
337.1077, 144.2925
337.5898, 143.7082
338.0720, 144.0586
338.5541, 144.0344
339.0362, 143.9948
339.5183, 144.4768
340.0004, 144.3918
340.4825, 144.1022
340.9647, 144.0073
341.4468, 144.3808
341.9289, 144.9802
342.4110, 144.8825
342.8931, 143.9774
343.3752, 143.0937
343.8574, 142.9297
344.3395, 143.4229
344.8216, 143.5967
345.3037, 143.2461
345.7858, 142.7469
346.2679, 142.8583
346.7501, 143.5384
347.2322, 144.1160
347.7143, 144.1057
348.1964, 143.7043
348.6785, 143.5864
349.1607, 143.8107
349.6428, 144.1118
350.1249, 144.2304
350.6070, 144.1885
351.0891, 144.0491
351.5713, 143.7069
352.0534, 143.3496
352.5355, 143.3946
353.0176, 143.8201
353.4997, 144.0608
353.9818, 143.2852
354.4640, 142.1233
354.9461, 141.5727
355.4282, 142.0044
355.9103, 142.2938
356.3924, 142.3918
356.8745, 140.9669
357.3567, 142.5112
357.8388, 143.3661
358.3209, 143.5687
358.8030, 141.1653
359.2851, 142.1270
359.7672, 141.7402
360.2494, 141.2980
360.7315, 142.7334
361.2136, 140.7091
361.6957, 142.1146
362.1778, 141.5995
362.6599, 141.5484
363.1421, 141.9525
363.6242, 142.2690
364.1063, 142.2982
364.5884, 141.0758
365.0705, 142.6843
365.5526, 143.6034
366.0348, 143.8702
366.5169, 141.5311
366.9990, 142.5570
367.4811, 142.2344
367.9632, 140.7499
368.4453, 142.3752
368.9275, 143.3112
369.4096, 143.5950
369.8917, 141.2727
370.3738, 142.3156
370.8559, 142.0098
371.3380, 141.6488
371.8202, 143.1653
372.3023, 141.2221
372.7844, 142.7088
373.2665, 142.8263
373.7487, 143.5705
374.2308, 142.8625
374.7129, 143.5311
375.1950, 143.6945
375.6771, 143.1338
376.1592, 142.7842
376.6414, 142.9923
377.1235, 143.6755
377.6056, 143.9836
378.0877, 143.8661
378.5698, 143.5537
379.0519, 143.1852
379.5341, 142.7632
380.0162, 142.4338
380.4983, 142.2139
380.9804, 142.1136
381.4625, 142.2454
381.9446, 142.6042
382.4268, 142.8729
382.9089, 142.7612
383.3910, 142.3967
383.8731, 142.2035
384.3552, 142.2319
384.8373, 142.3506
385.3195, 142.5176
385.8016, 142.6680
386.2837, 142.6104
386.7658, 141.9314
387.2479, 141.1588
387.7300, 141.0500
388.2122, 141.5840
388.6943, 142.1952
389.1764, 142.4596
389.6585, 142.5550
390.1406, 142.7263
390.6227, 143.2343
391.1049, 143.5582
391.5870, 143.0166
392.0691, 141.9466
392.5512, 141.3638
393.0333, 142.3732
393.5154, 143.5746
393.9976, 144.0169
394.4797, 143.3636
394.9618, 142.6680
395.4439, 142.1005
395.9260, 141.7292
396.4081, 141.6445
396.8903, 142.0344
397.3724, 142.5454
397.8545, 143.2364
398.3366, 144.1260
398.8188, 144.5600
399.3009, 144.1972
399.7830, 143.5598
400.2651, 142.9579
400.7472, 142.1848
401.2293, 141.7689
401.7115, 141.8880
402.1936, 142.3640
402.6757, 142.6649
403.1578, 142.7572
403.6399, 142.7283
404.1220, 142.5686
404.6042, 142.2233
405.0863, 142.0954
405.5684, 142.2903
406.0505, 142.5344
406.5326, 142.4075
407.0147, 141.8448
407.4969, 141.4146
407.9790, 141.3275
408.4611, 141.4758
408.9432, 141.3496
409.4253, 140.9143
409.9074, 140.5828
410.3896, 140.7547
410.8717, 141.3281
411.3538, 141.8726
411.8359, 142.3464
412.3180, 142.7030
412.8001, 142.8906
413.2823, 142.9039
413.7644, 142.7358
414.2465, 141.9507
414.7286, 141.1690
415.2107, 141.5423
415.6928, 143.1599
416.1750, 144.4200
416.6571, 143.5368
417.1392, 141.7131
417.6213, 140.5589
418.1034, 141.0824
418.5855, 141.9256
419.0677, 142.4764
419.5498, 142.7423
420.0319, 142.7278
420.5140, 141.9524
420.9961, 141.2419
421.4782, 141.2007
421.9604, 142.2812
422.4425, 143.0285
422.9246, 142.9105
423.4067, 142.3378
423.8889, 141.8701
424.3710, 141.5423
424.8531, 141.3610
425.3352, 141.3599
425.8173, 141.5376
426.2994, 141.7604
426.7816, 142.1773
427.2637, 142.4861
427.7458, 142.4500
428.2279, 141.8450
428.7100, 141.4457
429.1921, 141.3604
429.6743, 141.4707
430.1564, 141.5227
430.6385, 141.5205
431.1206, 141.4439
431.6027, 141.2753
432.0848, 141.0161
432.5670, 140.6404
433.0491, 140.0705
433.5312, 139.7044
434.0133, 140.1347
434.4954, 141.2365
434.9775, 142.1919
435.4597, 142.8649
435.9418, 143.2076
436.4239, 142.9220
436.9060, 142.1086
437.3881, 141.3937
437.8702, 141.2631
438.3524, 141.4436
438.8345, 141.5036
439.3166, 141.3606
439.7987, 141.3427
440.2808, 141.9201
440.7629, 142.7545
441.2451, 143.3135
441.7272, 143.1505
442.2093, 142.8705
442.6914, 142.8193
443.1735, 142.9571
443.6556, 142.9956
444.1378, 142.7591
444.6199, 142.4393
445.1020, 142.1253
445.5841, 141.6687
446.0662, 141.5382
446.5483, 142.2044
447.0305, 143.1542
447.5126, 143.5206
447.9947, 142.6909
448.4768, 142.0069
448.9590, 141.8213
449.4411, 142.1481
449.9232, 142.3038
450.4053, 142.2261
450.8874, 142.0650
451.3695, 141.8647
451.8517, 141.5340
452.3338, 141.6056
452.8159, 142.2726
453.2980, 143.1916
453.7801, 143.6640
454.2622, 143.6648
454.7444, 143.5242
455.2265, 143.3403
455.7086, 143.1300
456.1907, 142.9606
456.6728, 142.8287
457.1549, 142.7673
457.6371, 142.8438
458.1192, 143.0117
458.6013, 143.1700
459.0834, 143.3183
459.5655, 143.4008
460.0476, 143.2012
460.5298, 142.8558
461.0119, 142.7745
461.4940, 143.5756
461.9761, 144.4467
462.4582, 144.6581
462.9403, 144.1063
463.4225, 143.5952
463.9046, 143.6796
464.3867, 143.8931
464.8688, 143.7928
465.3509, 142.6173
465.8330, 141.8607
466.3152, 142.0992
466.7973, 143.0523
467.2794, 143.7021
467.7615, 143.7386
468.2436, 143.7140
468.7257, 143.8257
469.2079, 144.1289
469.6900, 144.3083
470.1721, 144.3461
470.6542, 144.2754
471.1363, 144.1006
471.6184, 143.7751
472.1006, 143.5320
472.5827, 143.4287
473.0648, 143.4237
473.5469, 143.4056
474.0291, 143.3768
474.5112, 143.3115
474.9933, 143.1679
475.4754, 142.9705
475.9575, 142.8252
476.4396, 142.7381
476.9218, 142.6866
477.4039, 142.6329
477.8860, 142.5959
478.3681, 142.6156
478.8502, 142.6732
479.3323, 142.8294
479.8145, 143.2673
480.2966, 143.8911
480.7787, 144.3353
481.2608, 144.2782
481.7429, 144.0758
482.2250, 143.9466
482.7072, 143.9090
483.1893, 143.9839
483.6714, 144.4000
484.1535, 144.8354
484.6356, 144.9675
485.1177, 144.4196
485.5999, 143.9445
486.0820, 143.6688
486.5641, 143.5585
487.0462, 143.4945
487.5283, 143.1101
488.0104, 144.2771
488.4926, 144.9846
488.9747, 145.2572
489.4568, 143.7925
489.9389, 144.5711
490.4210, 144.4507
490.9031, 144.2935
491.3853, 145.3879
491.8674, 144.1759
492.3495, 145.2504
492.8316, 145.4122
493.3137, 145.9918
493.7958, 145.6667
494.2780, 145.5565
494.7601, 145.5299
495.2422, 145.1791
495.7243, 144.7341
496.2064, 144.1914
496.6885, 143.7820
497.1707, 143.5987
497.6528, 143.6817
498.1349, 144.1346
498.6170, 145.4028
499.0992, 146.4370
499.5813, 146.4980
500.0634, 145.8881
500.5455, 145.3545
501.0276, 145.1285
501.5097, 145.0402
501.9919, 145.0553
502.4740, 145.1923
502.9561, 145.2818
503.4382, 145.2137
503.9203, 145.1654
504.4024, 145.2765
504.8846, 145.6968
505.3667, 145.9541
505.8488, 145.9403
506.3309, 145.7983
506.8130, 145.8677
507.2951, 146.2082
507.7773, 146.4857
508.2594, 146.4939
508.7415, 146.3219
509.2236, 146.5857
509.7057, 147.3256
510.1878, 147.9962
510.6700, 148.0591
511.1521, 147.6912
511.6342, 147.4361
512.1163, 147.4121
512.5984, 147.3997
513.0806, 146.9910
513.5627, 146.4281
514.0448, 146.2172
514.5269, 147.1018
515.0090, 147.9826
515.4911, 147.9863
515.9733, 147.2356
516.4554, 146.6140
516.9375, 146.5128
517.4196, 146.6021
517.9017, 146.7136
518.3839, 146.8822
518.8660, 146.9328
519.3481, 146.8546
519.8302, 146.6426
520.3123, 146.2503
520.7944, 145.3659
521.2766, 144.8914
521.7587, 145.1346
522.2408, 145.8681
522.7229, 146.1767
523.2050, 145.9671
523.6871, 145.6890
524.1693, 145.5204
524.6514, 145.4697
525.1335, 145.6869
525.6156, 146.2246
526.0977, 146.6952
526.5798, 146.7339
527.0620, 145.3573
527.5441, 146.3303
528.0262, 146.7731
528.5083, 146.7141
528.9904, 144.6505
529.4725, 144.5720
529.9547, 145.8423
530.4368, 146.5824
530.9189, 146.8207
531.4010, 145.0544
531.8831, 145.8766
532.3652, 145.6615
532.8474, 145.4038
533.3295, 146.5903
533.8116, 145.1156
534.2937, 146.2792
534.7758, 146.3897
535.2579, 146.9821
535.7401, 146.5309
536.2222, 146.4020
536.7043, 147.3171
537.1864, 147.6542
537.6685, 147.0827
538.1506, 145.5061
538.6328, 145.3405
539.1149, 145.7511
539.5970, 146.2154
540.0791, 146.4758
540.5612, 146.5354
541.0433, 146.2697
541.5255, 145.6302
542.0076, 145.1004
542.4897, 145.2043
542.9718, 145.7567
543.4539, 146.4353
543.9360, 147.3136
544.4182, 147.9871
544.9003, 147.9748
545.3824, 147.5066
545.8645, 147.0956
546.3466, 146.8694
546.8287, 146.8151
547.3109, 147.0128
547.7930, 147.4655
548.2751, 147.7944
548.7572, 147.7775
549.2393, 147.7519
549.7214, 147.9492
550.2036, 148.7345
550.6857, 148.8421
551.1678, 147.8412
551.6499, 146.6049
552.1320, 146.5052
552.6141, 147.7611
553.0963, 148.7275
553.5784, 149.0181
554.0605, 148.7840
554.5426, 148.2355
555.0247, 147.4006
555.5068, 146.7800
555.9890, 146.7875
556.4711, 147.1733
556.9532, 147.5606
557.4353, 147.9321
557.9174, 148.2020
558.3995, 148.2678
558.8817, 148.2100
559.3638, 148.0899
559.8459, 147.8252
560.3281, 147.6998
560.8102, 148.0945
561.2923, 148.6436
561.7744, 148.7685
562.2565, 147.6574
562.7386, 146.9002
563.2208, 147.0450
563.7029, 147.9153
564.1850, 148.2183
564.6671, 147.5885
565.1492, 147.0390
565.6313, 147.1473
566.1135, 147.9816
566.5956, 148.5249
567.0777, 148.7400
567.5598, 148.7810
568.0419, 148.7917
568.5240, 148.7651
569.0062, 148.6581
569.4883, 148.4445
569.9704, 148.1912
570.4525, 147.8497
570.9346, 147.5275
571.4167, 147.5116
571.8989, 148.2734
572.3810, 149.1030
572.8631, 149.5210
573.3452, 149.5576
573.8273, 149.4963
574.3094, 149.2762
574.7916, 149.1165
575.2737, 149.1737
575.7558, 149.5813
576.2379, 149.8157
576.7200, 149.7397
577.2021, 149.5885
577.6843, 149.6334
578.1664, 150.0967
578.6485, 150.0108
579.1306, 149.0328
579.6127, 147.7224
580.0948, 147.2278
580.5770, 147.5492
581.0591, 148.0256
581.5412, 148.4806
582.0233, 148.8705
582.5054, 149.0351
582.9875, 149.0038
583.4697, 149.0178
583.9518, 149.3543
584.4339, 149.7606
