##NAMES=Kristiansenite
##RRUFFID=R090022
##IDEAL CHEMISTRY=Ca_2_Sc^3+^Sn^4+^(Si_2_O_7_)(Si_2_O_6_OH)
##LOCALITY=Heftetjern, TÃ¸rdal, Telemark, Norway
##OWNER=RRUFF
##SOURCE=William W. Pinch
##DESCRIPTION=Pale tan colored, tapering prismatic crystals, associated with albite and quartz
##STATUS=The identification of this mineral has been confirmed by single-crystal X-ray diffraction.
##URL=rruff.info/R090022
92.37695, 415.9495
92.85907, 412.0611
93.34119, 413.3559
93.82330, 416.7299
94.30542, 417.6424
94.78754, 414.2841
95.26965, 408.0056
95.75177, 402.4871
96.23389, 399.8905
96.71600, 398.1862
97.19812, 395.7538
97.68024, 392.3682
98.16235, 388.7545
98.64447, 386.0147
99.12659, 384.7526
99.60870, 381.8053
100.0908, 376.6263
100.5729, 371.0483
101.0551, 366.6865
101.5372, 364.3164
102.0193, 363.5182
102.5014, 362.4611
102.9835, 360.4346
103.4656, 358.7759
103.9478, 358.0342
104.4299, 357.7950
104.9120, 357.3708
105.3941, 356.2887
105.8762, 354.5378
106.3583, 351.4476
106.8405, 346.2271
107.3226, 340.5064
107.8047, 334.6278
108.2868, 328.8003
108.7689, 323.9218
109.2510, 321.1411
109.7332, 320.5449
110.2153, 321.0871
110.6974, 322.6964
111.1795, 325.3470
111.6616, 329.3225
112.1437, 335.1347
112.6259, 341.2599
113.1080, 346.1059
113.5901, 349.7534
114.0722, 352.9291
114.5543, 356.1064
115.0364, 359.2691
115.5185, 361.8011
116.0007, 363.3597
116.4828, 364.3307
116.9649, 364.6831
117.4470, 364.4448
117.9291, 364.2420
118.4112, 364.8198
118.8934, 366.1127
119.3755, 368.4881
119.8576, 373.0980
120.3397, 378.0154
120.8218, 382.0079
121.3039, 384.5524
121.7861, 385.5816
122.2682, 384.9065
122.7503, 383.4869
123.2324, 378.7933
123.7145, 369.2271
124.1966, 356.4626
124.6788, 342.6646
125.1609, 328.8075
125.6430, 315.0347
126.1251, 302.6206
126.6072, 290.9543
127.0893, 280.7556
127.5715, 272.6803
128.0536, 266.4998
128.5357, 261.1951
129.0178, 256.1107
129.4999, 251.3416
129.9821, 247.0589
130.4642, 243.1968
130.9463, 239.8288
131.4284, 237.0697
131.9105, 234.9735
132.3926, 233.2659
132.8748, 231.6552
133.3569, 230.2493
133.8390, 229.4089
134.3211, 229.4036
134.8032, 230.0991
135.2853, 231.0530
135.7674, 232.3377
136.2496, 233.8190
136.7317, 235.4567
137.2138, 237.2146
137.6959, 239.0115
138.1780, 241.0366
138.6601, 243.4217
139.1423, 244.6336
139.6244, 242.7860
140.1065, 241.2963
140.5886, 241.4242
141.0707, 243.2323
141.5528, 246.0921
142.0350, 249.3165
142.5171, 252.9851
142.9992, 256.8977
143.4813, 260.7365
143.9634, 264.9453
144.4455, 270.0515
144.9277, 276.0966
145.4098, 282.5370
145.8919, 288.5021
146.3740, 293.7944
146.8561, 298.8974
147.3382, 303.1140
147.8204, 307.3876
148.3025, 312.8363
148.7846, 319.8607
149.2667, 328.2299
149.7488, 337.5840
150.2309, 347.4348
150.7131, 359.0471
151.1952, 372.9468
151.6773, 389.0064
152.1594, 406.7552
152.6415, 426.6584
153.1236, 447.8027
153.6058, 469.3206
154.0879, 491.9958
154.5700, 512.3705
155.0521, 528.3068
155.5342, 539.8340
156.0163, 545.8249
156.4985, 543.3813
156.9806, 535.8474
157.4627, 524.7663
157.9448, 510.0477
158.4269, 493.7268
158.9090, 478.2841
159.3912, 463.1915
159.8733, 450.6990
160.3554, 441.4456
160.8375, 434.5441
161.3196, 429.3005
161.8017, 425.4452
162.2839, 423.0895
162.7660, 422.6694
163.2481, 425.5587
163.7302, 428.7679
164.2123, 431.7830
164.6944, 434.8543
165.1766, 438.2715
165.6587, 442.2147
166.1408, 446.6598
166.6229, 451.5944
167.1050, 456.8900
167.5871, 462.8130
168.0693, 469.2456
168.5514, 476.3721
169.0335, 484.3649
169.5156, 493.1392
169.9977, 502.9521
170.4798, 515.9759
170.9620, 531.9166
171.4441, 550.4891
171.9262, 572.1136
172.4083, 596.4329
172.8904, 622.3499
173.3725, 649.1530
173.8547, 676.8770
174.3368, 705.4334
174.8189, 737.2689
175.3010, 768.4359
175.7831, 797.6472
176.2652, 825.0815
176.7474, 845.4708
177.2295, 854.2930
177.7116, 852.6107
178.1937, 841.8676
178.6758, 818.4383
179.1579, 787.4417
179.6401, 754.8239
180.1222, 719.4005
180.6043, 686.3545
181.0864, 658.8997
181.5685, 635.8059
182.0506, 616.0084
182.5328, 598.9053
183.0149, 584.7546
183.4970, 574.3763
183.9791, 568.5832
184.4612, 565.9529
184.9433, 566.0505
185.4255, 568.2532
185.9076, 571.5862
186.3897, 575.6245
186.8718, 580.3147
187.3539, 584.9693
187.8360, 589.7648
188.3182, 594.3346
188.8003, 599.2405
189.2824, 603.8686
189.7645, 607.0555
190.2466, 607.7474
190.7287, 605.8531
191.2109, 603.6788
191.6930, 600.7037
192.1751, 597.9323
192.6572, 595.0963
193.1393, 592.6576
193.6214, 591.6448
194.1036, 593.1292
194.5857, 597.5095
195.0678, 601.2589
195.5499, 605.1259
196.0320, 607.9031
196.5141, 609.7682
196.9963, 610.2836
197.4784, 608.2043
197.9605, 602.4241
198.4426, 592.5264
198.9247, 579.2152
199.4068, 560.9179
199.8890, 540.7990
200.3711, 520.2147
200.8532, 499.4521
201.3353, 479.3158
201.8174, 460.1522
202.2995, 442.1404
202.7817, 426.6180
203.2638, 414.3174
203.7459, 404.1371
204.2280, 395.0289
204.7101, 386.8283
205.1922, 380.0960
205.6744, 375.6981
206.1565, 373.3316
206.6386, 371.8607
207.1207, 371.2891
207.6028, 371.4180
208.0849, 372.1779
208.5671, 373.7599
209.0492, 375.2636
209.5313, 376.0658
210.0134, 376.2794
210.4955, 375.9661
210.9776, 375.0958
211.4598, 373.7194
211.9419, 371.7553
212.4240, 368.7553
212.9061, 366.1602
213.3882, 364.5190
213.8703, 363.8192
214.3525, 364.1676
214.8346, 365.6650
215.3167, 368.2545
215.7988, 371.7990
216.2809, 376.7880
216.7630, 382.0636
217.2451, 386.8586
217.7273, 391.5562
218.2094, 396.8422
218.6915, 403.1574
219.1736, 410.4035
219.6557, 417.9593
220.1378, 425.9087
220.6200, 434.0753
221.1021, 441.9380
221.5842, 449.9839
222.0663, 459.1697
222.5484, 470.2997
223.0305, 483.0934
223.5127, 494.8903
223.9948, 506.3413
224.4769, 515.7605
224.9590, 522.9857
225.4411, 527.9495
225.9232, 530.4881
226.4054, 530.4070
226.8875, 527.8605
227.3696, 524.5014
227.8517, 519.9589
228.3338, 514.9787
228.8159, 509.3914
229.2981, 503.4932
229.7802, 497.9279
230.2623, 493.1745
230.7444, 489.0482
231.2265, 483.5202
231.7086, 476.5482
232.1908, 468.3853
232.6729, 458.2642
233.1550, 446.9797
233.6371, 436.0773
234.1192, 426.6064
234.6013, 418.2219
235.0835, 408.2834
235.5656, 395.0126
236.0477, 382.3691
236.5298, 371.4621
237.0119, 362.0786
237.4940, 353.5643
237.9762, 345.5883
238.4583, 338.2099
238.9404, 331.6991
239.4225, 326.2257
239.9046, 321.2394
240.3867, 316.6444
240.8689, 312.4171
241.3510, 308.4634
241.8331, 304.6308
242.3152, 301.1912
242.7973, 298.9115
243.2794, 298.3571
243.7616, 297.8466
244.2437, 296.6779
244.7258, 294.9951
245.2079, 293.2625
245.6900, 291.7538
246.1721, 290.1895
246.6543, 287.8563
247.1364, 284.2813
247.6185, 281.2719
248.1006, 279.9847
248.5827, 280.0736
249.0648, 280.2974
249.5470, 280.2816
250.0291, 280.1816
250.5112, 280.1758
250.9933, 280.2322
251.4754, 280.5150
251.9576, 281.1870
252.4397, 282.1836
252.9218, 283.2274
253.4039, 284.1800
253.8860, 285.2532
254.3681, 286.8097
254.8503, 288.8531
255.3324, 290.5898
255.8145, 291.2672
256.2966, 291.1184
256.7787, 291.4118
257.2608, 292.7884
257.7430, 294.0835
258.2251, 294.2724
258.7072, 293.4879
259.1893, 292.6017
259.6714, 292.2417
260.1535, 292.2874
260.6357, 292.0421
261.1178, 291.3392
261.5999, 290.4555
262.0820, 289.4486
262.5641, 288.4005
263.0462, 287.5559
263.5284, 287.2070
264.0105, 287.2514
264.4926, 287.0454
264.9747, 286.3989
265.4568, 285.7670
265.9389, 285.3637
266.4211, 285.1328
266.9032, 284.9243
267.3853, 284.4521
267.8674, 283.9399
268.3495, 284.4801
268.8316, 286.8546
269.3138, 289.1371
269.7959, 290.4432
270.2780, 291.2406
270.7601, 292.1877
271.2422, 293.5750
271.7243, 295.4100
272.2065, 297.6720
272.6886, 300.1913
273.1707, 303.5064
273.6528, 308.2436
274.1349, 313.5441
274.6170, 318.2672
275.0992, 321.8541
275.5813, 324.9165
276.0634, 329.0181
276.5455, 334.8857
277.0276, 340.4789
277.5097, 345.2479
277.9919, 349.7115
278.4740, 354.5062
278.9561, 359.8732
279.4382, 365.1972
279.9203, 369.2382
280.4024, 371.1288
280.8846, 373.5261
281.3667, 376.7075
281.8488, 380.3903
282.3309, 384.5747
282.8130, 389.1814
283.2951, 393.7749
283.7773, 397.5834
284.2594, 400.0002
284.7415, 403.1629
285.2236, 407.3944
285.7057, 412.0634
286.1878, 417.1474
286.6700, 422.4334
287.1521, 427.3522
287.6342, 431.1460
288.1163, 433.3802
288.5984, 436.0885
289.0805, 439.3105
289.5627, 442.9037
290.0448, 447.1288
290.5269, 451.7630
291.0090, 456.1979
291.4911, 459.9393
291.9732, 462.9914
292.4554, 465.1815
292.9375, 467.2564
293.4196, 467.7589
293.9017, 465.9468
294.3838, 462.1468
294.8659, 456.9975
295.3481, 450.8558
295.8302, 443.7802
296.3123, 436.8900
296.7944, 431.3703
297.2765, 424.7171
297.7586, 415.7891
298.2408, 405.5468
298.7229, 395.3754
299.2050, 386.0536
299.6871, 377.5121
300.1692, 369.5353
300.6513, 361.6730
301.1335, 355.1329
301.6156, 350.5712
302.0977, 347.1935
302.5798, 344.1357
303.0619, 341.0689
303.5440, 338.2358
304.0262, 336.1577
304.5083, 335.6945
304.9904, 334.7373
305.4725, 332.9273
305.9546, 330.8613
306.4367, 328.9289
306.9189, 327.2599
307.4010, 325.8428
307.8831, 324.6866
308.3652, 323.9232
308.8473, 323.0864
309.3294, 322.1162
309.8116, 321.1251
310.2937, 320.0485
310.7758, 318.9663
311.2579, 318.1629
311.7400, 317.9663
312.2221, 318.4854
312.7043, 318.8298
313.1864, 319.2361
313.6685, 319.2759
314.1506, 318.3595
314.6327, 316.8985
315.1148, 315.8560
315.5970, 315.9638
316.0791, 317.1431
316.5612, 318.3130
317.0433, 318.7180
317.5254, 319.9682
318.0075, 322.9522
318.4897, 326.8883
318.9718, 330.4951
319.4539, 333.0858
319.9360, 335.1652
320.4181, 338.4134
320.9002, 344.2257
321.3824, 349.4783
321.8645, 353.1552
322.3466, 356.6046
322.8287, 361.4668
323.3108, 368.1686
323.7929, 375.5510
324.2751, 381.4671
324.7572, 384.5650
325.2393, 388.8288
325.7214, 394.9125
326.2035, 401.5277
326.6856, 407.9493
327.1678, 414.0209
327.6499, 419.9131
328.1320, 425.7896
328.6141, 431.5777
329.0962, 437.7972
329.5783, 444.4525
330.0605, 451.4699
330.5426, 459.3477
331.0247, 467.6378
331.5068, 475.1505
331.9889, 480.8800
332.4710, 484.9771
332.9532, 489.8926
333.4353, 496.5418
333.9174, 503.1102
334.3995, 509.3837
334.8816, 515.3178
335.3637, 520.9070
335.8459, 526.1157
336.3280, 530.9577
336.8101, 535.3276
337.2922, 539.2172
337.7743, 542.5920
338.2564, 544.7828
338.7386, 546.8970
339.2206, 550.0800
339.7028, 554.5901
340.1849, 559.5451
340.6670, 563.7244
341.1491, 567.2132
341.6312, 569.6012
342.1133, 570.1119
342.5955, 570.3114
343.0776, 571.4431
343.5597, 573.2557
344.0418, 574.3670
344.5239, 573.4095
345.0060, 570.2852
345.4882, 566.8234
345.9703, 562.9910
346.4524, 558.8054
346.9345, 553.6339
347.4166, 548.1664
347.8987, 543.4894
348.3809, 540.2430
348.8630, 538.3613
349.3451, 537.7885
349.8272, 539.8508
350.3093, 541.1608
350.7914, 540.2514
351.2736, 538.7556
351.7557, 538.0204
352.2378, 538.5281
352.7199, 540.5149
353.2020, 544.8083
353.6841, 552.5195
354.1663, 559.1285
354.6484, 563.3519
355.1305, 566.9775
355.6126, 570.5988
356.0947, 574.4717
356.5768, 579.0272
357.0590, 584.7733
357.5411, 591.7043
358.0232, 599.1161
358.5053, 607.5442
358.9874, 615.8622
359.4695, 622.9373
359.9517, 629.5492
360.4338, 637.2953
360.9159, 647.3101
361.3980, 658.9728
361.8801, 670.6827
362.3622, 682.6818
362.8444, 694.0359
363.3265, 704.0934
363.8086, 713.5501
364.2907, 723.2841
364.7728, 733.7234
365.2549, 743.8118
365.7371, 752.7284
366.2192, 760.7048
366.7013, 765.6679
367.1834, 766.7185
367.6655, 764.5887
368.1476, 760.0575
368.6298, 753.0998
369.1119, 743.0758
369.5940, 729.4327
370.0761, 712.3262
370.5582, 692.1873
371.0403, 667.8925
371.5225, 642.5969
372.0046, 617.7545
372.4867, 593.6058
372.9688, 570.5206
373.4509, 549.0713
373.9330, 528.6329
374.4152, 508.0069
374.8973, 487.0778
375.3794, 467.6177
375.8615, 451.1432
376.3436, 436.6172
376.8257, 422.2720
377.3079, 407.6963
377.7900, 393.8913
378.2721, 381.8391
378.7542, 371.2403
379.2363, 360.8252
379.7184, 350.1961
380.2006, 339.6216
380.6827, 329.0957
381.1648, 318.6013
381.6469, 309.3090
382.1290, 302.2928
382.6111, 296.3705
383.0933, 289.9384
383.5754, 282.7720
384.0575, 275.3878
384.5396, 267.6947
385.0217, 260.0280
385.5038, 253.9834
385.9860, 251.1469
386.4681, 248.5882
386.9502, 244.2228
387.4323, 238.5746
387.9144, 233.5163
388.3965, 230.0676
388.8787, 227.5866
389.3608, 224.3599
389.8429, 219.9190
390.3250, 215.8210
390.8071, 212.4109
391.2892, 209.4974
391.7714, 206.9005
392.2535, 204.5751
392.7356, 202.4546
393.2177, 200.4802
393.6998, 198.6595
394.1819, 197.0019
394.6641, 195.2448
395.1462, 193.8577
395.6283, 193.1651
396.1104, 193.0887
396.5925, 193.4349
397.0746, 194.1403
397.5568, 195.0760
398.0389, 195.5295
398.5210, 194.4096
399.0031, 194.1279
399.4852, 195.2250
399.9673, 197.1665
400.4495, 199.4549
400.9316, 201.9033
401.4137, 204.5086
401.8958, 207.2798
402.3779, 210.2762
402.8600, 213.2765
403.3422, 215.9664
403.8243, 218.9509
404.3064, 222.4999
404.7885, 226.6208
405.2706, 231.2534
405.7527, 236.3740
406.2349, 241.9503
406.7170, 247.4776
407.1991, 252.6160
407.6812, 258.1819
408.1633, 264.5856
408.6454, 271.3678
409.1276, 277.9088
409.6097, 283.9545
410.0918, 290.1112
410.5739, 297.3737
411.0560, 305.8607
411.5381, 314.6737
412.0203, 323.6673
412.5024, 332.9707
412.9845, 342.7656
413.4666, 352.9397
413.9487, 363.1045
414.4308, 372.8832
414.9130, 382.3901
415.3951, 391.9472
415.8772, 401.3323
416.3593, 411.3207
416.8414, 422.9617
417.3235, 435.2939
417.8057, 446.9538
418.2878, 457.3125
418.7699, 467.5445
419.2520, 478.8405
419.7341, 491.1290
420.2162, 503.7031
420.6984, 516.1121
421.1805, 528.9905
421.6626, 542.9158
422.1447, 557.9280
422.6268, 573.8376
423.1089, 591.9766
423.5911, 610.3477
424.0732, 626.2835
424.5553, 639.4268
425.0374, 651.1454
425.5195, 662.7143
426.0016, 673.5811
426.4838, 681.3243
426.9659, 686.7970
427.4480, 688.4160
427.9301, 684.7760
428.4122, 676.7826
428.8943, 666.0134
429.3765, 652.9150
429.8586, 638.1863
430.3407, 622.9208
430.8228, 606.5045
431.3049, 590.9064
431.7870, 576.5882
432.2692, 562.8339
432.7513, 548.7094
433.2334, 534.5294
433.7155, 521.6034
434.1976, 511.1633
434.6797, 503.0596
435.1619, 494.8746
435.6440, 485.9501
436.1261, 477.6873
436.6082, 470.2379
437.0903, 463.6108
437.5724, 457.8815
438.0546, 453.0672
438.5367, 448.8196
439.0188, 444.5918
439.5009, 440.2912
439.9830, 436.3170
440.4651, 431.7350
440.9473, 428.3099
441.4294, 427.6259
441.9115, 428.9106
442.3936, 429.9783
442.8757, 429.2441
443.3578, 427.3103
443.8400, 426.2480
444.3221, 426.3065
444.8042, 426.6188
445.2863, 426.8134
445.7684, 427.1486
446.2505, 427.7393
446.7327, 428.5706
447.2148, 430.1322
447.6969, 433.5192
448.1790, 438.2544
448.6611, 441.4465
449.1432, 441.9040
449.6254, 442.2178
450.1075, 444.6776
450.5896, 448.7964
451.0717, 453.3627
451.5538, 458.9488
452.0359, 464.1968
452.5181, 467.1686
453.0002, 468.2491
453.4823, 470.1377
453.9644, 474.2101
454.4465, 479.6343
454.9286, 484.6818
455.4108, 489.4587
455.8929, 493.6489
456.3750, 496.8730
456.8571, 499.6325
457.3392, 502.6973
457.8214, 506.0840
458.3035, 508.9966
458.7856, 510.8376
459.2677, 511.6099
459.7498, 510.7668
460.2319, 508.1281
460.7141, 504.3821
461.1962, 499.1890
461.6783, 493.1669
462.1604, 487.2835
462.6425, 481.8846
463.1246, 476.3664
463.6068, 469.5518
464.0889, 460.7471
464.5710, 452.5917
465.0531, 444.8391
465.5352, 437.9301
466.0173, 432.2037
466.4995, 427.4943
466.9816, 423.2934
467.4637, 419.1383
467.9458, 415.4088
468.4279, 413.4327
468.9100, 413.7374
469.3922, 414.4276
469.8743, 415.1083
470.3564, 415.8512
470.8385, 416.7039
471.3206, 417.6746
471.8027, 418.7784
472.2849, 420.2707
472.7670, 421.9438
473.2491, 423.0378
473.7312, 423.5357
474.2133, 423.2963
474.6954, 421.9463
475.1776, 419.7723
475.6597, 417.3863
476.1418, 414.9242
476.6239, 412.2351
477.1060, 409.3647
477.5881, 406.2123
478.0703, 402.2324
478.5524, 397.1300
479.0345, 391.6837
479.5166, 386.9397
479.9987, 382.8575
480.4808, 379.7975
480.9630, 378.2357
481.4451, 377.3425
481.9272, 376.2798
482.4093, 375.3448
482.8914, 375.6021
483.3735, 377.7359
483.8557, 381.4132
484.3378, 385.4585
484.8199, 389.8988
485.3020, 394.7100
485.7841, 399.4806
486.2662, 404.8976
486.7484, 412.0148
487.2305, 420.6015
487.7126, 429.1185
488.1947, 436.6912
488.6768, 443.1692
489.1589, 446.3502
489.6411, 445.8062
490.1232, 442.3601
490.6053, 436.7238
491.0874, 428.6215
491.5695, 417.3677
492.0516, 402.6780
492.5338, 386.3460
493.0159, 369.7435
493.4980, 352.9330
493.9801, 336.9567
494.4622, 321.7418
494.9443, 307.8428
495.4265, 295.9315
495.9086, 285.6853
496.3907, 276.7061
496.8728, 269.0345
497.3549, 262.4536
497.8370, 256.8918
498.3192, 252.3105
498.8013, 248.7259
499.2834, 246.3226
499.7655, 244.4465
500.2476, 241.9019
500.7297, 238.2246
501.2119, 235.5851
501.6940, 234.5143
502.1761, 234.1947
502.6582, 234.0186
503.1403, 234.0581
503.6224, 234.7091
504.1045, 236.2215
504.5866, 238.5301
505.0688, 241.4390
505.5509, 245.5199
506.0330, 249.3352
506.5151, 252.3922
506.9972, 255.4960
507.4793, 259.0600
507.9615, 263.2292
508.4436, 268.1751
508.9257, 274.2268
509.4078, 281.2098
509.8899, 287.6783
510.3720, 293.0806
510.8542, 299.2202
511.3363, 306.7746
511.8184, 315.3822
512.3005, 324.7758
512.7827, 334.9261
513.2648, 345.8523
513.7469, 358.1668
514.2290, 371.2881
514.7111, 383.5428
515.1932, 394.5839
515.6754, 405.5610
516.1575, 417.8005
516.6396, 430.7476
517.1217, 441.8604
517.6038, 449.6396
518.0859, 457.1669
518.5681, 466.1537
519.0502, 475.7309
519.5323, 484.2477
520.0144, 491.2915
520.4965, 497.9118
520.9786, 505.4120
521.4608, 513.9799
521.9429, 522.3649
522.4250, 529.8641
522.9071, 538.0702
523.3892, 547.9262
523.8713, 558.7244
524.3535, 569.3985
524.8356, 579.4429
525.3177, 589.2164
525.7998, 598.9816
526.2819, 608.5434
526.7640, 619.0133
527.2462, 631.1827
527.7283, 643.4742
528.2104, 654.4559
528.6925, 664.9857
529.1746, 677.1973
529.6567, 692.5098
530.1389, 709.0722
530.6210, 723.8236
531.1031, 736.9596
531.5852, 752.0447
532.0673, 770.5141
532.5494, 790.6354
533.0316, 810.3168
533.5137, 829.4754
533.9958, 850.1440
534.4779, 873.6522
534.9600, 897.9990
535.4421, 922.4192
535.9243, 946.5088
536.4064, 969.9245
536.8885, 992.4387
537.3706, 1013.851
537.8527, 1033.500
538.3348, 1051.758
538.8170, 1067.523
539.2991, 1080.173
539.7812, 1091.046
540.2633, 1101.232
540.7454, 1110.380
541.2275, 1117.662
541.7097, 1122.666
542.1918, 1125.174
542.6739, 1124.742
543.1560, 1121.583
543.6381, 1114.758
544.1202, 1103.632
544.6024, 1088.907
545.0845, 1070.993
545.5666, 1049.765
546.0487, 1025.090
546.5308, 995.5193
547.0129, 962.9978
547.4951, 930.2386
547.9772, 897.2043
548.4593, 864.6823
548.9414, 832.7869
549.4235, 802.0286
549.9056, 773.6215
550.3878, 747.4608
550.8699, 723.3707
551.3520, 702.0071
551.8341, 682.4012
552.3162, 663.6247
552.7983, 645.8324
553.2805, 630.0125
553.7626, 616.7725
554.2447, 605.4109
554.7268, 593.7504
555.2089, 580.6939
555.6910, 569.3996
556.1732, 560.7775
556.6553, 552.9394
557.1374, 544.8845
557.6195, 536.5171
558.1016, 528.0770
558.5837, 519.6105
559.0659, 511.2394
559.5480, 503.3968
560.0301, 496.2786
560.5122, 488.6198
560.9943, 479.3734
561.4764, 470.1821
561.9586, 462.5715
562.4407, 456.5132
562.9228, 451.1625
563.4049, 446.6832
563.8870, 442.4306
564.3691, 437.7090
564.8513, 432.5865
565.3334, 427.4825
565.8155, 422.5490
566.2976, 417.8483
566.7797, 413.4189
567.2618, 409.0209
567.7440, 405.6301
568.2261, 404.0194
568.7082, 402.7199
569.1903, 400.9417
569.6724, 398.7701
570.1545, 396.4731
570.6367, 394.1750
571.1188, 392.1098
571.6009, 390.6300
572.0830, 389.4600
572.5651, 389.9215
573.0472, 393.1400
573.5294, 397.1236
574.0115, 400.7096
574.4936, 404.1770
574.9757, 408.3654
575.4578, 413.6830
575.9399, 419.7837
576.4221, 426.1078
576.9042, 432.7768
577.3863, 440.6717
577.8684, 450.1332
578.3505, 460.5732
578.8326, 471.2931
579.3148, 482.3142
579.7969, 493.9278
580.2790, 505.8758
580.7611, 518.6609
581.2432, 532.3204
581.7253, 547.0409
582.2075, 563.1660
582.6896, 580.7324
583.1717, 600.2147
583.6538, 622.3269
584.1359, 647.3577
584.6180, 672.8476
585.1002, 698.4536
585.5823, 725.3521
586.0643, 754.3793
586.5464, 784.6768
587.0286, 815.5782
587.5107, 847.1656
587.9928, 877.4547
588.4749, 905.4124
588.9570, 930.6445
