##NAMES=Kristiansenite
##RRUFFID=R090022
##IDEAL CHEMISTRY=Ca_2_Sc^3+^Sn^4+^(Si_2_O_7_)(Si_2_O_6_OH)
##LOCALITY=Heftetjern, TÃ¸rdal, Telemark, Norway
##OWNER=RRUFF
##SOURCE=William W. Pinch
##DESCRIPTION=Pale tan colored, tapering prismatic crystals, associated with albite and quartz
##STATUS=The identification of this mineral has been confirmed by single-crystal X-ray diffraction.
##URL=rruff.info/R090022
90.92609, 0.0000000E+00
91.40820, 94.41930
91.89032, 94.35872
92.37244, 94.78893
92.85455, 95.52153
93.33667, 95.43496
93.81879, 92.30418
94.30090, 87.50312
94.78302, 85.44020
95.26514, 88.28174
95.74725, 93.42973
96.22937, 94.38965
96.71149, 90.78970
97.19360, 87.12077
97.67572, 88.88496
98.15784, 95.93272
98.63995, 100.5551
99.12207, 99.68810
99.60419, 94.11087
100.0863, 90.83741
100.5684, 90.38857
101.0505, 91.20069
101.5327, 90.92723
102.0148, 88.81219
102.4969, 88.22495
102.9790, 91.02945
103.4611, 98.32051
103.9432, 102.5071
104.4253, 101.8081
104.9075, 98.94381
105.3896, 99.37584
105.8717, 104.4536
106.3538, 111.0123
106.8359, 118.0576
107.3180, 125.8297
107.8002, 133.5637
108.2823, 141.3956
108.7644, 149.2034
109.2465, 156.8540
109.7286, 162.9765
110.2107, 169.8268
110.6929, 178.4967
111.1750, 190.7730
111.6571, 202.8015
112.1392, 212.4518
112.6213, 220.5552
113.1034, 233.5655
113.5856, 254.8576
114.0677, 280.3745
114.5498, 306.9971
115.0319, 333.1062
115.5140, 361.3983
115.9961, 392.1487
116.4783, 425.3912
116.9604, 461.6976
117.4425, 503.6633
117.9246, 548.5579
118.4067, 592.9694
118.8888, 636.7869
119.3710, 679.4431
119.8531, 720.5654
120.3352, 759.9272
120.8173, 798.2678
121.2994, 837.9810
121.7815, 876.5432
122.2637, 909.7011
122.7458, 931.9477
123.2279, 949.1671
123.7100, 966.3603
124.1921, 983.8015
124.6742, 1002.274
125.1564, 1022.202
125.6385, 1043.681
126.1206, 1067.116
126.6027, 1091.403
127.0848, 1117.832
127.5669, 1148.873
128.0491, 1185.580
128.5312, 1225.583
129.0133, 1266.463
129.4954, 1307.810
129.9775, 1349.235
130.4596, 1391.488
130.9418, 1433.570
131.4239, 1473.000
131.9060, 1508.760
132.3881, 1542.216
132.8702, 1575.026
133.3523, 1607.168
133.8345, 1640.845
134.3166, 1678.912
134.7987, 1721.661
135.2808, 1762.976
135.7629, 1801.512
136.2450, 1838.223
136.7272, 1877.375
137.2093, 1920.121
137.6914, 1962.453
138.1735, 1999.632
138.6556, 2030.356
139.1377, 2061.475
139.6199, 2094.693
140.1020, 2129.721
140.5841, 2166.539
141.0662, 2203.755
141.5483, 2244.026
142.0304, 2290.216
142.5126, 2340.969
142.9947, 2399.055
143.4768, 2457.511
143.9589, 2511.669
144.4410, 2568.181
144.9231, 2628.376
145.4053, 2690.348
145.8874, 2752.075
146.3695, 2809.388
146.8516, 2871.903
147.3337, 2941.750
147.8158, 3023.167
148.2980, 3103.659
148.7801, 3179.727
149.2622, 3255.855
149.7443, 3338.958
150.2264, 3429.665
150.7085, 3528.091
151.1907, 3632.966
151.6728, 3747.037
152.1549, 3865.752
152.6370, 3990.340
153.1191, 4120.069
153.6012, 4249.992
154.0834, 4394.476
154.5655, 4527.478
155.0476, 4640.427
155.5297, 4734.825
156.0118, 4803.037
156.4939, 4844.344
156.9761, 4859.556
157.4582, 4848.812
157.9403, 4793.623
158.4224, 4724.974
158.9045, 4660.318
159.3866, 4599.610
159.8688, 4548.173
160.3509, 4504.829
160.8330, 4471.018
161.3151, 4453.988
161.7972, 4459.984
162.2793, 4481.575
162.7615, 4513.093
163.2436, 4554.258
163.7257, 4603.645
164.2078, 4662.147
164.6899, 4729.204
165.1720, 4801.223
165.6541, 4874.993
166.1363, 4953.284
166.6184, 5038.833
167.1005, 5134.334
167.5826, 5235.713
168.0647, 5339.622
168.5468, 5446.477
169.0290, 5562.713
169.5111, 5689.508
169.9932, 5828.570
170.4753, 5982.877
170.9574, 6154.104
171.4395, 6338.562
171.9217, 6535.856
172.4038, 6745.925
172.8859, 6965.353
173.3680, 7196.938
173.8501, 7434.881
174.3322, 7673.365
174.8144, 7922.699
175.2965, 8167.273
175.7786, 8390.629
176.2607, 8595.918
176.7428, 8760.243
177.2249, 8876.031
177.7071, 8935.923
178.1892, 8924.563
178.6713, 8814.627
179.1534, 8634.304
179.6355, 8418.613
180.1176, 8163.232
180.5998, 7902.047
181.0819, 7653.109
181.5640, 7422.603
182.0461, 7223.647
182.5282, 7067.028
183.0103, 6947.326
183.4925, 6855.478
183.9746, 6792.240
184.4567, 6754.182
184.9388, 6741.920
185.4209, 6753.407
185.9030, 6776.961
186.3852, 6809.488
186.8673, 6849.864
187.3494, 6896.615
187.8315, 6950.756
188.3136, 7007.288
188.7957, 7064.131
189.2779, 7120.376
189.7600, 7169.352
190.2421, 7207.395
190.7242, 7234.839
191.2063, 7252.593
191.6884, 7258.817
192.1706, 7259.551
192.6527, 7263.083
193.1348, 7269.308
193.6169, 7278.337
194.0990, 7291.332
194.5811, 7307.839
195.0633, 7324.107
195.5454, 7341.001
196.0275, 7355.455
196.5096, 7366.979
196.9917, 7377.505
197.4738, 7366.060
197.9560, 7326.562
198.4381, 7259.677
198.9202, 7149.673
199.4023, 6991.969
199.8844, 6797.130
200.3665, 6582.142
200.8487, 6342.683
201.3308, 6103.438
201.8129, 5872.655
202.2950, 5649.276
202.7771, 5448.322
203.2592, 5269.089
203.7414, 5110.909
204.2235, 4970.148
204.7056, 4847.734
205.1877, 4743.523
205.6698, 4658.993
206.1519, 4595.233
206.6341, 4543.167
207.1162, 4502.905
207.5983, 4474.196
208.0804, 4459.504
208.5625, 4462.767
209.0446, 4468.217
209.5268, 4468.662
210.0089, 4463.554
210.4910, 4455.922
210.9731, 4445.155
211.4552, 4432.406
211.9373, 4420.113
212.4195, 4407.753
212.9016, 4397.409
213.3837, 4389.071
213.8658, 4380.921
214.3479, 4381.927
214.8300, 4393.862
215.3121, 4414.066
215.7943, 4435.705
216.2764, 4456.704
216.7585, 4482.981
217.2406, 4518.150
217.7227, 4564.094
218.2048, 4611.426
218.6870, 4660.014
219.1691, 4709.752
219.6512, 4761.201
220.1333, 4813.308
220.6154, 4869.366
221.0975, 4932.403
221.5797, 5003.789
222.0618, 5076.619
222.5439, 5152.563
223.0260, 5229.103
223.5081, 5303.473
223.9902, 5377.935
224.4724, 5445.790
224.9545, 5503.612
225.4366, 5553.583
225.9187, 5590.359
226.4008, 5614.007
226.8829, 5624.859
227.3651, 5623.299
227.8472, 5606.674
228.3293, 5581.922
228.8114, 5551.309
229.2935, 5514.526
229.7757, 5472.980
230.2578, 5426.915
230.7399, 5376.281
231.2220, 5319.733
231.7041, 5255.381
232.1862, 5188.516
232.6684, 5121.401
233.1505, 5055.560
233.6326, 4984.060
234.1147, 4905.104
234.5968, 4821.302
235.0789, 4738.564
235.5611, 4655.901
236.0432, 4576.272
236.5253, 4499.154
237.0074, 4424.807
237.4895, 4356.410
237.9716, 4294.142
238.4538, 4237.745
238.9359, 4187.052
239.4180, 4141.919
239.9001, 4101.893
240.3822, 4066.799
240.8643, 4037.140
241.3465, 4011.529
241.8286, 3989.876
242.3107, 3972.305
242.7928, 3959.414
243.2749, 3953.424
243.7570, 3948.203
244.2392, 3941.909
244.7213, 3934.053
245.2034, 3927.901
245.6855, 3923.445
246.1676, 3920.666
246.6497, 3919.350
247.1319, 3918.538
247.6140, 3921.110
248.0961, 3928.364
248.5782, 3940.867
249.0603, 3953.476
249.5424, 3965.588
250.0246, 3978.562
250.5067, 3994.152
250.9888, 4013.149
251.4709, 4033.291
251.9530, 4054.356
252.4351, 4076.558
252.9173, 4098.315
253.3994, 4119.990
253.8815, 4141.023
254.3636, 4161.252
254.8457, 4181.487
255.3278, 4198.411
255.8100, 4211.380
256.2921, 4220.398
256.7742, 4226.234
257.2563, 4230.075
257.7384, 4229.138
258.2205, 4221.124
258.7026, 4205.603
259.1848, 4184.184
259.6669, 4157.725
260.1490, 4125.792
260.6311, 4085.183
261.1132, 4031.964
261.5953, 3976.801
262.0775, 3928.657
262.5596, 3889.562
263.0417, 3850.167
263.5238, 3807.921
264.0059, 3764.457
264.4880, 3725.890
264.9702, 3693.243
265.4523, 3663.875
265.9344, 3635.885
266.4165, 3608.128
266.8986, 3584.930
267.3807, 3566.580
267.8629, 3552.844
268.3450, 3542.931
268.8271, 3537.174
269.3092, 3534.274
269.7913, 3532.764
270.2734, 3531.717
270.7556, 3537.194
271.2377, 3550.251
271.7198, 3569.599
272.2019, 3592.817
272.6840, 3620.544
273.1661, 3650.261
273.6483, 3680.502
274.1304, 3710.827
274.6125, 3744.514
275.0946, 3781.818
275.5767, 3821.802
276.0588, 3862.812
276.5410, 3904.461
277.0231, 3948.066
277.5052, 3993.819
277.9873, 4041.867
278.4694, 4089.108
278.9515, 4135.292
279.4337, 4180.865
279.9158, 4227.001
280.3979, 4273.721
280.8800, 4318.667
281.3621, 4359.693
281.8442, 4397.376
282.3264, 4434.680
282.8085, 4471.109
283.2906, 4509.162
283.7727, 4553.569
284.2548, 4604.488
284.7369, 4652.391
285.2191, 4694.717
285.7012, 4731.800
286.1833, 4765.976
286.6654, 4797.071
287.1475, 4826.664
287.6296, 4856.412
288.1118, 4886.159
288.5939, 4912.917
289.0760, 4935.466
289.5581, 4954.872
290.0402, 4975.250
290.5223, 4996.767
291.0045, 5015.196
291.4866, 5029.235
291.9687, 5038.143
292.4508, 5038.392
292.9329, 5029.136
293.4150, 5011.292
293.8972, 4986.527
294.3793, 4954.744
294.8614, 4913.950
295.3435, 4861.522
295.8256, 4799.337
296.3077, 4732.631
296.7899, 4662.721
297.2720, 4588.289
297.7541, 4505.242
298.2362, 4416.067
298.7183, 4330.013
299.2004, 4252.038
299.6826, 4181.073
300.1647, 4112.969
300.6468, 4047.468
301.1289, 3987.017
301.6110, 3932.825
302.0931, 3885.319
302.5753, 3844.094
303.0574, 3810.428
303.5395, 3782.656
304.0216, 3760.076
304.5037, 3742.523
304.9858, 3727.756
305.4680, 3713.831
305.9501, 3701.399
306.4322, 3691.618
306.9143, 3685.813
307.3964, 3682.160
307.8785, 3678.900
308.3607, 3676.165
308.8428, 3674.757
309.3249, 3675.919
309.8070, 3678.466
310.2891, 3680.945
310.7712, 3682.490
311.2534, 3684.422
311.7355, 3687.190
312.2176, 3690.931
312.6997, 3696.226
313.1818, 3704.159
313.6639, 3713.173
314.1461, 3721.611
314.6282, 3727.450
315.1103, 3736.196
315.5924, 3749.830
316.0745, 3768.266
316.5566, 3791.646
317.0388, 3821.692
317.5209, 3855.319
318.0030, 3891.113
318.4851, 3928.820
318.9672, 3969.069
319.4493, 4013.297
319.9315, 4059.726
320.4136, 4106.623
320.8957, 4149.910
321.3778, 4196.380
321.8599, 4250.014
322.3420, 4311.604
322.8242, 4372.797
323.3063, 4431.719
323.7884, 4489.547
324.2705, 4547.310
324.7526, 4601.470
325.2347, 4659.975
325.7169, 4723.656
326.1990, 4792.788
326.6811, 4864.705
327.1632, 4943.737
327.6453, 5022.428
328.1274, 5096.576
328.6096, 5158.663
329.0917, 5225.926
329.5738, 5301.490
330.0559, 5382.233
330.5380, 5459.508
331.0201, 5532.700
331.5023, 5603.101
331.9844, 5670.866
332.4665, 5732.750
332.9486, 5798.780
333.4307, 5870.926
333.9128, 5945.880
334.3950, 6016.390
334.8771, 6081.485
335.3592, 6145.100
335.8413, 6208.120
336.3234, 6271.128
336.8055, 6330.397
337.2877, 6384.304
337.7698, 6435.814
338.2519, 6489.008
338.7340, 6544.036
339.2161, 6598.651
339.6982, 6653.010
340.1803, 6706.639
340.6624, 6753.474
341.1446, 6793.920
341.6267, 6828.012
342.1088, 6857.508
342.5909, 6882.320
343.0730, 6898.641
343.5551, 6906.214
344.0373, 6904.456
344.5194, 6892.623
345.0015, 6870.692
345.4836, 6836.534
345.9657, 6784.488
346.4478, 6717.549
346.9300, 6651.620
347.4121, 6586.764
347.8942, 6524.224
348.3763, 6462.936
348.8584, 6403.909
349.3405, 6351.176
349.8227, 6304.632
350.3048, 6266.122
350.7869, 6239.528
351.2690, 6224.972
351.7511, 6221.116
352.2332, 6228.145
352.7154, 6245.117
353.1975, 6270.174
353.6796, 6304.114
354.1617, 6344.371
354.6438, 6386.814
355.1259, 6432.252
355.6081, 6485.143
356.0902, 6550.086
356.5723, 6623.703
357.0544, 6702.929
357.5365, 6786.590
358.0186, 6874.573
358.5008, 6964.539
358.9829, 7058.458
359.4650, 7160.674
359.9471, 7278.610
360.4292, 7401.484
360.9113, 7522.875
361.3935, 7640.647
361.8756, 7760.147
362.3577, 7885.327
362.8398, 8012.777
363.3219, 8138.627
363.8040, 8272.540
364.2862, 8394.540
364.7683, 8500.613
365.2504, 8590.808
365.7325, 8660.670
366.2146, 8710.607
366.6967, 8740.187
367.1789, 8749.146
367.6610, 8750.518
368.1431, 8715.732
368.6252, 8640.556
369.1073, 8526.703
369.5894, 8383.575
370.0716, 8201.099
370.5537, 7998.472
371.0358, 7778.555
371.5179, 7535.528
372.0000, 7291.082
372.4821, 7044.334
372.9643, 6799.035
373.4464, 6560.249
373.9285, 6328.490
374.4106, 6105.849
374.8927, 5890.157
375.3748, 5680.850
375.8570, 5488.428
376.3391, 5312.847
376.8212, 5150.718
377.3033, 4998.289
377.7854, 4857.144
378.2675, 4720.069
378.7497, 4584.367
379.2318, 4452.627
379.7139, 4326.968
380.1960, 4208.405
380.6781, 4096.756
381.1602, 3995.418
381.6424, 3902.964
382.1245, 3810.009
382.6066, 3714.804
383.0887, 3621.485
383.5708, 3532.652
384.0529, 3449.111
384.5351, 3370.496
385.0172, 3298.292
385.4993, 3231.423
385.9814, 3165.639
386.4635, 3101.520
386.9456, 3039.476
387.4278, 2979.015
387.9099, 2921.935
388.3920, 2870.734
388.8741, 2827.781
389.3562, 2788.524
389.8383, 2748.483
390.3205, 2708.225
390.8026, 2670.508
391.2847, 2636.733
391.7668, 2606.113
392.2489, 2578.092
392.7310, 2553.073
393.2132, 2528.970
393.6953, 2503.249
394.1774, 2478.655
394.6595, 2458.352
395.1416, 2444.879
395.6237, 2434.646
396.1059, 2426.698
396.5880, 2420.997
397.0701, 2417.421
397.5522, 2415.281
398.0343, 2415.776
398.5164, 2419.626
398.9986, 2426.929
399.4807, 2437.615
399.9628, 2452.493
400.4449, 2470.679
400.9270, 2490.211
401.4091, 2510.234
401.8913, 2532.430
402.3734, 2557.435
402.8555, 2585.492
403.3376, 2614.832
403.8197, 2644.688
404.3018, 2676.702
404.7840, 2712.555
405.2661, 2752.496
405.7482, 2795.929
406.2303, 2843.738
406.7124, 2894.816
407.1945, 2946.672
407.6767, 2999.330
408.1588, 3052.428
408.6409, 3104.708
409.1230, 3156.297
409.6051, 3212.488
410.0872, 3274.148
410.5694, 3340.278
411.0515, 3410.097
411.5336, 3483.225
412.0157, 3555.441
412.4978, 3622.841
412.9799, 3688.807
413.4621, 3761.595
413.9442, 3841.704
414.4263, 3921.977
414.9084, 3995.969
415.3905, 4067.050
415.8727, 4142.512
416.3548, 4227.094
416.8369, 4312.304
417.3190, 4389.545
417.8011, 4461.412
418.2832, 4536.284
418.7654, 4619.030
419.2475, 4704.944
419.7296, 4789.091
420.2117, 4871.021
420.6938, 4955.741
421.1759, 5045.290
421.6581, 5138.266
422.1402, 5234.368
422.6223, 5336.432
423.1044, 5437.443
423.5865, 5536.813
424.0686, 5633.503
424.5508, 5723.842
425.0329, 5812.843
425.5150, 5890.126
425.9971, 5951.272
426.4792, 5995.773
426.9613, 6025.425
427.4435, 6040.958
427.9256, 6041.093
428.4077, 6023.026
428.8898, 5982.987
429.3719, 5932.175
429.8540, 5871.628
430.3362, 5802.119
430.8183, 5728.708
431.3004, 5649.960
431.7825, 5572.616
432.2646, 5501.889
432.7467, 5438.029
433.2289, 5378.071
433.7110, 5322.151
434.1931, 5271.011
434.6752, 5226.997
435.1573, 5189.848
435.6394, 5157.029
436.1216, 5126.053
436.6036, 5098.543
437.0858, 5079.890
437.5679, 5070.214
438.0500, 5063.491
438.5321, 5053.991
439.0142, 5043.929
439.4963, 5036.894
439.9785, 5033.280
440.4606, 5034.046
440.9427, 5041.081
441.4248, 5053.385
441.9069, 5067.893
442.3890, 5084.373
442.8712, 5101.799
443.3533, 5119.275
443.8354, 5136.418
444.3175, 5155.334
444.7996, 5176.826
445.2817, 5200.163
445.7639, 5224.742
446.2460, 5252.663
446.7281, 5279.386
447.2102, 5302.387
447.6923, 5322.532
448.1744, 5345.617
448.6566, 5374.837
449.1387, 5403.563
449.6208, 5428.720
450.1029, 5449.439
450.5850, 5469.577
451.0671, 5489.300
451.5493, 5507.990
452.0314, 5523.845
452.5135, 5535.494
452.9956, 5550.267
453.4777, 5571.870
453.9598, 5597.677
454.4420, 5616.102
454.9241, 5626.510
455.4062, 5634.295
455.8883, 5642.363
456.3704, 5650.891
456.8525, 5662.450
457.3347, 5678.932
457.8168, 5691.513
458.2989, 5688.582
458.7810, 5672.450
459.2631, 5650.049
459.7452, 5623.340
460.2274, 5592.203
460.7095, 5557.310
461.1916, 5518.147
461.6737, 5474.035
462.1558, 5424.006
462.6379, 5368.547
463.1201, 5306.953
463.6022, 5234.815
464.0843, 5165.126
464.5664, 5102.856
465.0485, 5046.288
465.5306, 4992.707
466.0128, 4940.898
466.4949, 4892.486
466.9770, 4847.790
467.4591, 4806.833
467.9412, 4771.662
468.4233, 4741.143
468.9055, 4717.040
469.3876, 4700.420
469.8697, 4693.778
470.3518, 4689.372
470.8339, 4686.952
471.3160, 4686.808
471.7982, 4690.234
472.2803, 4698.485
472.7624, 4705.327
473.2445, 4707.905
473.7266, 4707.167
474.2087, 4709.742
474.6909, 4716.159
475.1730, 4720.964
475.6551, 4718.449
476.1372, 4710.018
476.6193, 4701.247
477.1014, 4692.593
477.5836, 4685.000
478.0657, 4679.925
478.5478, 4676.909
479.0299, 4674.764
479.5120, 4672.134
479.9941, 4670.610
480.4763, 4669.013
480.9584, 4668.216
481.4405, 4676.463
481.9226, 4699.158
482.4047, 4732.302
482.8868, 4773.023
483.3690, 4820.731
483.8511, 4875.170
484.3332, 4939.719
484.8153, 5010.072
485.2974, 5080.598
485.7795, 5146.377
486.2617, 5215.758
486.7438, 5293.432
487.2259, 5379.390
487.7080, 5457.791
488.1901, 5535.391
488.6722, 5597.662
489.1544, 5638.865
489.6365, 5661.776
490.1186, 5651.718
490.6007, 5607.112
491.0828, 5530.907
491.5649, 5422.419
492.0471, 5281.856
492.5292, 5123.707
493.0113, 4947.168
493.4934, 4761.118
493.9755, 4582.857
494.4576, 4413.990
494.9398, 4257.078
495.4219, 4115.071
495.9040, 3986.862
496.3861, 3876.659
496.8682, 3784.009
497.3503, 3704.154
497.8325, 3633.010
498.3146, 3571.300
498.7967, 3518.681
499.2788, 3477.163
499.7609, 3443.562
500.2430, 3417.971
500.7252, 3399.643
501.2073, 3384.649
501.6894, 3368.185
502.1715, 3358.086
502.6536, 3358.666
503.1357, 3373.259
503.6179, 3390.490
504.1000, 3408.824
504.5821, 3430.315
505.0642, 3457.005
505.5463, 3489.242
506.0284, 3525.509
506.5106, 3564.944
506.9927, 3608.180
507.4748, 3657.584
507.9569, 3713.415
508.4390, 3773.868
508.9211, 3838.081
509.4033, 3906.079
509.8854, 3978.545
510.3675, 4055.581
510.8496, 4136.025
511.3317, 4218.559
511.8138, 4303.948
512.2960, 4392.350
512.7781, 4485.511
513.2602, 4581.712
513.7423, 4679.705
514.2244, 4779.656
514.7065, 4881.938
515.1887, 4988.814
515.6708, 5096.927
516.1529, 5204.466
516.6350, 5311.634
517.1171, 5414.300
517.5992, 5507.419
518.0814, 5596.851
518.5635, 5686.252
519.0456, 5778.417
519.5277, 5866.859
520.0098, 5946.442
520.4919, 6023.619
520.9741, 6107.377
521.4562, 6196.318
521.9383, 6292.789
522.4204, 6397.401
522.9025, 6509.885
523.3846, 6629.321
523.8668, 6755.219
524.3489, 6886.860
524.8310, 7024.380
525.3131, 7168.476
525.7952, 7319.582
526.2773, 7478.688
526.7595, 7643.894
527.2416, 7812.045
527.7237, 7982.633
528.2058, 8157.167
528.6879, 8332.141
529.1700, 8513.495
529.6522, 8706.113
530.1343, 8908.484
530.6164, 9122.325
531.0985, 9351.793
531.5806, 9588.380
532.0627, 9823.448
532.5449, 10054.98
533.0270, 10296.31
533.5091, 10554.36
533.9912, 10819.76
534.4733, 11082.24
534.9554, 11345.72
535.4376, 11605.91
535.9197, 11866.23
536.4018, 12119.87
536.8839, 12347.40
537.3660, 12548.06
537.8481, 12729.95
538.3303, 12900.18
538.8124, 13054.31
539.2945, 13172.74
539.7766, 13254.73
540.2587, 13307.39
540.7408, 13337.03
541.2230, 13341.87
541.7051, 13314.27
542.1872, 13253.84
542.6693, 13161.83
543.1514, 13034.34
543.6335, 12876.56
544.1157, 12694.79
544.5978, 12491.91
545.0799, 12265.18
545.5620, 12010.51
546.0441, 11731.98
546.5262, 11439.63
547.0084, 11123.62
547.4905, 10808.11
547.9726, 10494.58
548.4547, 10184.06
548.9368, 9886.817
549.4189, 9600.014
549.9011, 9329.138
550.3832, 9078.136
550.8653, 8852.036
551.3474, 8632.052
551.8295, 8416.030
552.3116, 8211.165
552.7938, 8032.047
553.2759, 7880.619
553.7580, 7736.117
554.2401, 7593.129
554.7222, 7453.581
555.2043, 7322.491
555.6865, 7200.598
556.1686, 7083.176
556.6507, 6965.338
557.1328, 6851.697
557.6149, 6749.061
558.0970, 6657.943
558.5792, 6568.744
559.0613, 6475.941
559.5434, 6382.142
560.0255, 6289.692
560.5076, 6198.775
560.9897, 6111.953
561.4719, 6031.315
561.9540, 5954.800
562.4361, 5880.154
562.9182, 5802.712
563.4003, 5731.269
563.8824, 5667.273
564.3646, 5610.622
564.8467, 5557.203
565.3288, 5507.020
565.8109, 5459.604
566.2930, 5413.811
566.7751, 5369.721
567.2573, 5329.099
567.7394, 5291.273
568.2215, 5258.217
568.7036, 5232.144
569.1857, 5212.405
569.6678, 5194.952
570.1500, 5177.787
570.6321, 5166.081
571.1142, 5166.109
571.5963, 5176.358
572.0784, 5193.329
572.5605, 5213.682
573.0427, 5241.994
573.5248, 5280.767
574.0069, 5329.820
574.4890, 5389.878
574.9711, 5461.682
575.4532, 5543.068
575.9354, 5632.648
576.4175, 5730.266
576.8996, 5835.646
577.3817, 5947.765
577.8638, 6067.351
578.3459, 6196.741
578.8281, 6333.886
579.3102, 6482.036
579.7923, 6641.740
580.2744, 6811.691
580.7565, 6985.792
581.2386, 7164.236
581.7208, 7350.365
582.2029, 7547.554
582.6850, 7753.719
583.1671, 7970.741
583.6492, 8198.294
584.1313, 8433.503
584.6134, 8677.438
585.0955, 8929.345
585.5776, 9192.500
586.0598, 9469.627
586.5419, 9742.584
587.0240, 10019.95
