##NAMES=Krohnkite
##RRUFFID=R050604
##IDEAL CHEMISTRY=Na_2_Cu^2+^(S^6+^O_4_)_2_&#183;2H_2_O
##LOCALITY=Chuquicamata, Chile
##OWNER=RRUFF
##SOURCE=University of Arizona Mineral Museum
##DESCRIPTION=Green elongated prismatic crystals with orange natrojarosite and minor colorless leightonite
##STATUS=The identification of this mineral has been confirmed by X-ray diffraction and chemical analysis
##URL=rruff.info/R050604
##MEASURED CHEMISTRY=Na_2.00_Cu_1.00_(S_1.00_O_4_)_2_Â·2H_2_O
92.06543, 89.48059
92.54755, 88.83120
93.02966, 89.10425
93.51178, 89.87933
93.99390, 90.35744
94.47601, 90.64339
94.95813, 90.82861
95.44025, 90.96073
95.92236, 91.05857
96.40448, 91.08121
96.88660, 91.28793
97.36871, 92.12563
97.85082, 92.86869
98.33294, 92.96993
98.81506, 92.31586
99.29717, 91.20455
99.77929, 90.30978
100.2614, 89.63036
100.7435, 89.08845
101.2256, 88.62703
101.7078, 88.26029
102.1899, 88.05251
102.6720, 88.02430
103.1541, 88.14882
103.6362, 88.35960
104.1183, 88.65058
104.6005, 89.01049
105.0826, 89.54087
105.5647, 90.30991
106.0468, 90.71314
106.5289, 90.41594
107.0110, 89.81345
107.4931, 88.98576
107.9753, 87.96392
108.4574, 86.97126
108.9395, 86.52974
109.4216, 87.42536
109.9037, 87.59927
110.3858, 86.26060
110.8680, 84.37161
111.3501, 82.92992
111.8322, 82.47964
112.3143, 82.88923
112.7964, 83.35683
113.2785, 84.19821
113.7607, 84.76770
114.2428, 84.80420
114.7249, 84.41319
115.2070, 83.90099
115.6891, 83.51968
116.1712, 83.22952
116.6534, 82.57259
117.1355, 81.16541
117.6176, 79.67308
118.0997, 78.52140
118.5818, 77.73727
119.0639, 77.34376
119.5461, 77.57889
120.0282, 78.27466
120.5103, 78.99138
120.9924, 79.69665
121.4745, 80.32960
121.9566, 80.74466
122.4388, 80.88546
122.9209, 80.84010
123.4030, 80.58212
123.8851, 80.18553
124.3672, 79.90984
124.8493, 80.10955
125.3315, 80.84557
125.8136, 81.16496
126.2957, 80.47411
126.7778, 79.72636
127.2599, 79.36242
127.7420, 79.40225
128.2242, 79.52881
128.7063, 79.26028
129.1884, 78.17593
129.6705, 77.58316
130.1526, 77.77708
130.6347, 78.19643
131.1169, 78.40847
131.5990, 78.27393
132.0811, 77.97377
132.5632, 77.90788
133.0453, 78.47277
133.5274, 78.79321
134.0096, 78.66609
134.4917, 78.29964
134.9738, 77.95132
135.4559, 77.71694
135.9380, 77.62817
136.4201, 77.81805
136.9023, 78.58250
137.3844, 79.18678
137.8665, 79.23626
138.3486, 78.82333
138.8307, 78.34560
139.3128, 77.96078
139.7950, 77.69409
140.2771, 77.59014
140.7592, 77.86526
141.2413, 78.08573
141.7234, 77.64397
142.2055, 76.36974
142.6877, 75.32450
143.1698, 75.42587
143.6519, 76.01033
144.1340, 76.32578
144.6161, 75.97481
145.0982, 75.23322
145.5803, 74.82322
146.0625, 74.87625
146.5446, 75.08961
147.0267, 75.43720
147.5088, 75.83347
147.9909, 76.14722
148.4730, 76.27456
148.9552, 76.22746
149.4373, 76.24705
149.9194, 76.38461
150.4015, 76.54930
150.8836, 76.73798
151.3657, 76.93775
151.8479, 77.14053
152.3300, 77.35188
152.8121, 77.60510
153.2942, 77.64555
153.7763, 77.16162
154.2584, 76.77437
154.7406, 76.94102
155.2227, 77.61295
155.7048, 78.28285
156.1869, 78.35286
156.6690, 77.54883
157.1511, 77.12643
157.6333, 77.24592
158.1154, 77.64413
158.5975, 78.17745
159.0796, 78.82364
159.5617, 79.41763
160.0438, 79.77173
160.5260, 79.91814
161.0081, 79.72102
161.4902, 78.84304
161.9723, 77.64041
162.4544, 76.75301
162.9365, 76.34721
163.4187, 76.27390
163.9008, 76.38866
164.3829, 76.67962
164.8650, 77.02834
165.3471, 77.54353
165.8292, 78.14777
166.3113, 78.24118
166.7935, 77.08064
167.2756, 75.96580
167.7577, 76.05885
168.2398, 77.36507
168.7219, 78.77998
169.2040, 79.08453
169.6862, 78.05370
170.1683, 77.44729
170.6504, 78.11302
171.1325, 78.91004
171.6146, 79.18800
172.0967, 78.83243
172.5789, 78.23042
173.0610, 77.91428
173.5431, 77.92959
174.0252, 78.16487
174.5073, 78.75050
174.9894, 79.42294
175.4716, 80.07442
175.9537, 80.64541
176.4358, 81.03602
176.9179, 81.01842
177.4000, 80.12001
177.8821, 79.44211
178.3643, 79.00497
178.8464, 78.79234
179.3285, 78.94228
179.8106, 79.51035
180.2927, 80.17957
180.7748, 80.05695
181.2570, 78.01385
181.7391, 76.58064
182.2212, 76.39195
182.7033, 76.91824
183.1854, 77.35591
183.6675, 77.31848
184.1497, 77.00589
184.6318, 77.08485
185.1139, 77.80840
185.5960, 78.43657
186.0781, 78.71859
186.5602, 78.70537
187.0423, 78.48893
187.5245, 77.98617
188.0066, 77.42874
188.4887, 77.34804
188.9708, 77.97142
189.4529, 78.65456
189.9350, 79.04270
190.4172, 79.14282
190.8993, 79.02515
191.3814, 78.50964
191.8635, 77.90788
192.3456, 77.70434
192.8277, 78.11614
193.3099, 78.59241
193.7920, 78.55051
194.2741, 77.92857
194.7562, 77.24541
195.2383, 76.48164
195.7204, 75.86426
196.2026, 75.66206
196.6847, 76.00068
197.1668, 76.60111
197.6489, 77.01143
198.1310, 77.10440
198.6131, 77.38066
199.0953, 78.47147
199.5774, 79.57494
200.0595, 79.83986
200.5416, 78.88895
201.0237, 77.31367
201.5058, 76.45770
201.9880, 76.78417
202.4701, 77.02995
202.9522, 76.95280
203.4343, 76.69945
203.9164, 76.35188
204.3985, 75.93968
204.8807, 75.56704
205.3628, 75.55650
205.8449, 76.10574
206.3270, 76.81227
206.8091, 78.03143
207.2912, 79.23899
207.7733, 79.75718
208.2555, 79.22798
208.7376, 77.98025
209.2197, 77.23569
209.7018, 77.36675
210.1839, 77.62249
210.6660, 78.13534
211.1482, 78.68734
211.6303, 78.94508
212.1124, 78.71703
212.5945, 78.15346
213.0766, 77.86813
213.5587, 78.20132
214.0409, 78.38995
214.5230, 78.10088
215.0051, 77.57975
215.4872, 77.29640
215.9693, 77.52242
216.4514, 78.09394
216.9336, 78.37827
217.4157, 78.28417
217.8978, 78.10466
218.3799, 77.93281
218.8620, 77.74822
219.3441, 77.44161
219.8263, 76.86095
220.3084, 76.24732
220.7905, 76.27850
221.2726, 77.42382
221.7547, 78.34052
222.2368, 78.13519
222.7190, 77.06541
223.2011, 76.16885
223.6832, 75.86861
224.1653, 76.04293
224.6474, 76.41934
225.1295, 77.16505
225.6117, 77.72012
226.0938, 77.56644
226.5759, 76.78951
227.0580, 76.11079
227.5401, 75.80613
228.0222, 75.73658
228.5043, 75.69495
228.9865, 75.66466
229.4686, 75.69334
229.9507, 75.88354
230.4328, 76.23296
230.9149, 76.45132
231.3970, 76.29191
231.8792, 76.07827
232.3613, 76.10616
232.8434, 76.42190
233.3255, 76.81249
233.8076, 77.15449
234.2897, 77.46918
234.7719, 77.48279
235.2540, 76.73511
235.7361, 75.92439
236.2182, 75.43840
236.7003, 75.33873
237.1824, 75.54410
237.6646, 76.16320
238.1467, 77.37614
238.6288, 77.99165
239.1109, 77.14296
239.5930, 76.13280
240.0751, 75.58640
240.5573, 75.59404
241.0394, 75.91605
241.5215, 76.35583
242.0036, 76.99560
242.4857, 77.41665
242.9678, 77.40989
243.4500, 77.32973
243.9321, 77.28661
244.4142, 77.32385
244.8963, 77.49048
245.3784, 77.96766
245.8605, 79.03268
246.3427, 79.35925
246.8248, 78.29831
247.3069, 77.09969
247.7890, 76.17587
248.2711, 75.65745
248.7532, 75.63919
249.2354, 76.37168
249.7175, 78.24849
250.1996, 79.13374
250.6817, 78.20887
251.1638, 77.15147
251.6459, 76.75170
252.1281, 76.99097
252.6102, 77.37772
253.0923, 77.42090
253.5744, 77.02987
254.0565, 76.85733
254.5386, 77.04423
255.0208, 77.27499
255.5029, 77.43929
255.9850, 77.52258
256.4671, 77.55177
256.9492, 77.55705
257.4313, 77.54797
257.9135, 77.38115
258.3956, 76.78199
258.8777, 76.32214
259.3598, 76.23758
259.8419, 76.50441
260.3240, 77.03676
260.8062, 77.84123
261.2883, 78.91186
261.7704, 79.34599
262.2525, 78.69307
262.7346, 78.02261
263.2167, 77.82264
263.6989, 77.96737
264.1810, 78.05113
264.6631, 77.79842
265.1452, 77.25954
265.6273, 76.88647
266.1094, 76.61965
266.5916, 76.53786
267.0737, 76.88203
267.5558, 77.44762
268.0379, 77.71269
268.5200, 77.32336
269.0021, 76.49535
269.4843, 76.14805
269.9664, 76.59780
270.4485, 77.02793
270.9306, 77.12235
271.4127, 77.01311
271.8948, 76.99737
272.3770, 77.22906
272.8591, 77.58672
273.3412, 77.76624
273.8233, 77.81541
274.3054, 77.66329
274.7875, 77.04337
275.2697, 76.23277
275.7518, 75.78762
276.2339, 75.94234
276.7160, 76.43297
277.1981, 76.82360
277.6802, 77.15771
278.1623, 77.31394
278.6444, 77.10303
279.1266, 76.72564
279.6087, 76.51395
280.0908, 76.55513
280.5729, 76.76717
281.0550, 77.09348
281.5371, 77.53381
282.0193, 77.95671
282.5014, 78.57194
282.9835, 79.07117
283.4656, 78.80845
283.9477, 77.54530
284.4298, 76.26540
284.9120, 76.30370
285.3941, 77.44486
285.8762, 78.05045
286.3583, 77.22837
286.8404, 75.95181
287.3225, 75.55022
287.8047, 76.23110
288.2868, 76.91090
288.7689, 76.49411
289.2510, 75.32430
289.7331, 74.63403
290.2152, 75.00721
290.6974, 75.71679
291.1795, 75.92950
291.6616, 75.61102
292.1437, 75.48130
292.6258, 76.18526
293.1079, 77.36284
293.5901, 78.13630
294.0722, 78.16827
294.5543, 78.05521
295.0364, 78.33774
295.5185, 78.99294
296.0006, 79.59963
296.4828, 80.04235
296.9649, 80.24828
297.4470, 80.12392
297.9291, 79.54942
298.4112, 78.91724
298.8933, 78.53677
299.3755, 78.36110
299.8576, 78.09241
300.3397, 77.62206
300.8218, 77.01810
301.3039, 76.33817
301.7860, 75.55397
302.2682, 74.90739
302.7503, 74.56289
303.2324, 74.46751
303.7145, 74.46075
304.1966, 74.58393
304.6787, 74.65642
305.1609, 74.33343
305.6430, 73.67693
306.1251, 73.35946
306.6072, 74.05093
307.0893, 75.23925
307.5714, 75.73305
308.0536, 75.22150
308.5357, 74.51922
309.0178, 74.33128
309.4999, 74.50508
309.9820, 74.66944
310.4641, 74.86095
310.9463, 74.91319
311.4284, 74.37521
311.9105, 73.07959
312.3926, 72.10416
312.8747, 72.64980
313.3568, 73.91853
313.8390, 74.46048
314.3211, 73.65068
314.8032, 72.37659
315.2853, 71.43881
315.7674, 70.84090
316.2495, 70.52886
316.7317, 70.46042
317.2138, 70.71325
317.6959, 71.45351
318.1780, 72.91812
318.6601, 74.28378
319.1422, 74.85017
319.6243, 74.71842
320.1064, 74.56516
320.5886, 74.57356
321.0707, 74.67211
321.5528, 74.85876
322.0349, 75.16669
322.5170, 75.18241
322.9991, 74.34177
323.4813, 73.02119
323.9634, 72.37819
324.4455, 72.84445
324.9276, 73.54583
325.4097, 73.55943
325.8918, 73.01820
326.3740, 72.51707
326.8561, 72.29668
327.3382, 72.23235
327.8203, 72.12800
328.3024, 71.96420
328.7845, 71.79307
329.2667, 71.72496
329.7488, 71.67931
330.2309, 71.43358
330.7130, 70.60876
331.1951, 69.80783
331.6772, 69.64362
332.1594, 70.10999
332.6415, 70.88808
333.1236, 72.09889
333.6057, 73.37537
334.0878, 73.96147
334.5699, 73.50961
335.0521, 72.95650
335.5342, 73.05885
336.0163, 73.61994
336.4984, 73.76521
336.9805, 73.10315
337.4626, 72.00732
337.9448, 70.91799
338.4269, 69.71782
338.9090, 69.08637
339.3911, 69.75359
339.8732, 71.08916
340.3553, 71.84450
340.8375, 71.69756
341.3196, 71.26041
341.8017, 71.15488
342.2838, 71.35136
342.7659, 71.66444
343.2480, 72.36388
343.7302, 72.99206
344.2123, 72.87895
344.6944, 71.98959
345.1765, 71.18134
345.6586, 71.11807
346.1407, 71.71619
346.6229, 72.16789
347.1050, 72.48247
347.5871, 72.63361
348.0692, 72.46497
348.5513, 72.07819
349.0334, 71.87389
349.5156, 72.09075
349.9977, 72.57298
350.4798, 72.91762
350.9619, 73.20976
351.4440, 73.24777
351.9261, 72.75563
352.4083, 72.01363
352.8904, 71.46790
353.3725, 71.25407
353.8546, 71.27058
354.3367, 71.42966
354.8188, 71.80857
355.3010, 71.98903
355.7831, 71.81505
356.2652, 71.50108
356.7473, 71.17886
357.2294, 70.88315
357.7115, 70.70161
358.1937, 70.73417
358.6758, 70.99329
359.1579, 71.16934
359.6400, 71.24950
360.1221, 71.26938
360.6042, 71.18362
361.0863, 71.04551
361.5685, 70.97487
362.0506, 71.03220
362.5327, 71.21877
363.0148, 71.55146
363.4969, 72.15323
363.9790, 72.73542
364.4612, 73.49825
364.9433, 74.13136
365.4254, 74.13158
365.9075, 73.35311
366.3896, 72.25729
366.8717, 71.58836
367.3539, 71.61311
367.8360, 71.48568
368.3181, 70.90170
368.8002, 70.40849
369.2823, 70.54177
369.7644, 71.21453
370.2466, 71.77978
370.7287, 71.56063
371.2108, 70.46500
371.6929, 70.24387
372.1750, 71.95155
372.6571, 73.34131
373.1393, 73.79615
373.6214, 73.46873
374.1035, 72.57986
374.5856, 71.20586
375.0677, 69.63007
375.5498, 68.78380
376.0320, 69.14893
376.5141, 69.59020
376.9962, 70.17896
377.4783, 70.69418
377.9604, 70.91483
378.4425, 70.80083
378.9247, 70.51400
379.4068, 70.20214
379.8889, 69.74490
380.3710, 69.69573
380.8531, 70.59446
381.3352, 71.41737
381.8174, 71.73687
382.2995, 71.58526
382.7816, 71.15415
383.2637, 70.45303
383.7458, 69.59463
384.2279, 69.42124
384.7101, 70.40902
385.1922, 71.38641
385.6743, 72.13582
386.1564, 72.62530
386.6385, 72.81253
387.1206, 72.66616
387.6028, 72.26753
388.0849, 71.58526
388.5670, 70.44984
389.0491, 69.86059
389.5312, 70.64565
390.0133, 71.64420
390.4955, 72.14372
390.9776, 72.08586
391.4597, 71.76646
391.9418, 71.22668
392.4239, 70.55209
392.9060, 70.34232
393.3882, 70.94949
393.8703, 71.46950
394.3524, 71.05781
394.8345, 70.13536
395.3166, 69.63077
395.7987, 70.12543
396.2809, 71.01982
396.7630, 71.46721
397.2451, 71.44102
397.7272, 71.44778
398.2093, 71.84992
398.6914, 72.32527
399.1736, 72.32436
399.6557, 71.66812
400.1378, 71.06686
400.6199, 70.98130
401.1020, 71.27399
401.5841, 71.66841
402.0662, 72.20357
402.5483, 72.50904
403.0305, 71.82837
403.5126, 70.23679
403.9947, 69.32334
404.4768, 69.95400
404.9589, 70.99498
405.4410, 71.28486
405.9232, 70.83972
406.4053, 70.54624
406.8874, 71.09041
407.3695, 72.22891
407.8516, 72.70357
408.3337, 71.82776
408.8159, 71.17968
409.2980, 71.53136
409.7801, 72.35796
410.2622, 72.74557
410.7443, 72.37302
411.2264, 71.73257
411.7086, 71.62717
412.1907, 72.37888
412.6728, 72.89250
413.1549, 73.28519
413.6370, 73.35991
414.1191, 72.65720
414.6013, 71.40779
415.0834, 70.51454
415.5655, 70.76051
416.0476, 72.05872
416.5297, 72.87611
417.0118, 72.82857
417.4940, 72.71592
417.9761, 72.53395
418.4582, 72.40837
418.9403, 72.50032
419.4224, 72.86790
419.9045, 73.39788
420.3867, 73.97347
420.8688, 74.81516
421.3509, 75.08729
421.8330, 74.42249
422.3151, 73.49880
422.7972, 72.32932
423.2794, 71.15396
423.7615, 70.58740
424.2436, 71.33788
424.7257, 73.14847
425.2078, 74.23923
425.6899, 74.16728
426.1721, 74.13500
426.6542, 74.80433
427.1363, 75.66195
427.6184, 76.05898
428.1005, 75.74870
428.5826, 75.16074
429.0648, 74.70469
429.5469, 74.37438
430.0290, 74.42904
430.5111, 75.27760
430.9932, 76.13419
431.4753, 76.24051
431.9575, 75.68105
432.4396, 75.15053
432.9217, 75.03313
433.4038, 75.13667
433.8859, 75.19032
434.3680, 75.19630
434.8502, 74.99402
435.3323, 74.34322
435.8144, 73.43327
436.2965, 72.77975
436.7786, 72.33641
437.2607, 72.24504
437.7429, 72.83608
438.2250, 73.82542
438.7071, 74.55355
439.1892, 74.80744
439.6713, 74.80294
440.1534, 74.79949
440.6356, 74.77781
441.1177, 74.86296
441.5998, 75.09109
442.0819, 75.40440
442.5640, 75.88291
443.0461, 76.43996
443.5282, 76.78196
444.0103, 76.69465
444.4925, 76.24573
444.9746, 75.80825
445.4567, 75.14521
445.9388, 74.79597
446.4209, 75.21115
446.9030, 75.76597
447.3852, 75.68640
447.8673, 74.84023
448.3494, 73.90376
448.8315, 73.77943
449.3136, 74.65403
449.7957, 75.40271
450.2779, 76.03947
450.7600, 76.53400
451.2421, 76.80209
451.7242, 76.92525
452.2063, 77.07264
452.6884, 77.36002
453.1706, 77.65805
453.6527, 77.54434
454.1348, 76.74771
454.6169, 76.40077
455.0990, 77.36155
455.5811, 78.49825
456.0633, 78.95947
456.5454, 78.69467
457.0275, 78.41792
457.5096, 78.68168
457.9917, 79.35802
458.4738, 80.03770
458.9560, 80.75692
459.4381, 81.30864
459.9202, 81.38956
460.4023, 81.22617
460.8844, 81.26357
461.3665, 81.78983
461.8487, 82.22634
462.3308, 82.03690
462.8129, 81.37721
463.2950, 80.79963
463.7771, 80.48929
464.2592, 80.29301
464.7414, 80.02306
465.2235, 79.69582
465.7056, 79.19195
466.1877, 78.41537
466.6698, 77.51408
467.1519, 76.49424
467.6341, 75.42679
468.1162, 74.56021
468.5983, 74.06341
469.0804, 73.87660
469.5625, 73.74458
470.0446, 73.85069
470.5268, 73.77661
471.0089, 73.31825
471.4910, 72.76626
471.9731, 72.36570
472.4552, 72.17632
472.9373, 72.15287
473.4195, 72.27579
473.9016, 72.56242
474.3837, 72.75815
474.8658, 72.99707
475.3479, 72.96996
475.8300, 72.32150
476.3122, 71.43838
476.7943, 70.86751
477.2764, 70.85030
477.7585, 71.13139
478.2406, 71.37474
478.7227, 71.58961
479.2049, 71.66484
479.6870, 71.47660
480.1691, 71.24449
480.6512, 71.07380
481.1333, 70.98433
481.6154, 71.04595
482.0976, 71.44206
482.5797, 71.94460
483.0618, 72.21651
483.5439, 72.25391
484.0260, 72.08881
484.5081, 71.60501
484.9902, 71.01810
485.4724, 70.85049
485.9545, 71.35326
486.4366, 71.52074
486.9187, 70.58374
487.4008, 69.29925
487.8829, 68.70031
488.3651, 68.93312
488.8472, 69.53116
489.3293, 70.15469
489.8114, 70.80467
490.2935, 71.11549
490.7756, 70.92256
491.2578, 70.64996
491.7399, 70.44009
492.2220, 70.21139
492.7041, 69.74312
493.1862, 68.99204
493.6683, 68.31229
494.1505, 68.28510
494.6326, 69.13918
495.1147, 69.73829
495.5968, 70.06949
496.0789, 70.14189
496.5610, 69.62132
497.0432, 68.88181
497.5253, 68.69402
498.0074, 69.58373
498.4895, 70.84206
498.9716, 70.94231
499.4537, 69.60806
499.9359, 68.91100
500.4180, 69.99018
500.9001, 71.28255
501.3822, 71.25347
501.8643, 70.04435
502.3464, 69.24449
502.8286, 70.02698
503.3107, 71.47344
503.7928, 72.23043
504.2749, 72.25008
504.7570, 71.94688
505.2391, 71.47484
505.7213, 70.86377
506.2034, 70.18069
506.6855, 69.31496
507.1676, 68.63566
507.6497, 68.31776
508.1318, 68.19441
508.6140, 68.05732
509.0961, 67.89113
509.5782, 67.86729
510.0603, 68.16298
510.5424, 68.75581
511.0245, 69.18750
511.5067, 69.16094
511.9888, 69.33260
512.4709, 70.30251
512.9530, 71.28065
513.4351, 71.19966
513.9172, 69.87737
514.3994, 68.33408
514.8815, 67.90752
515.3636, 68.71457
515.8457, 69.00762
516.3278, 68.21919
516.8099, 67.67897
517.2921, 68.21418
517.7742, 69.24046
518.2563, 69.84277
518.7384, 69.67284
519.2205, 69.17233
519.7026, 68.79173
520.1848, 68.50974
520.6669, 68.12088
521.1490, 67.48701
521.6311, 66.92918
522.1132, 66.88969
522.5953, 67.26508
523.0775, 67.51933
523.5596, 67.56635
524.0417, 67.45912
524.5238, 67.15198
525.0059, 66.71543
525.4880, 66.28608
525.9702, 65.90092
526.4523, 65.68732
526.9344, 65.88820
527.4165, 66.70594
527.8986, 67.43111
528.3807, 68.12967
528.8629, 68.68761
529.3450, 68.96130
529.8271, 69.04533
530.3092, 69.19289
530.7913, 69.56718
531.2734, 69.97323
531.7556, 69.85992
532.2377, 68.95605
532.7198, 68.30348
533.2019, 68.19785
533.6840, 68.26602
534.1661, 68.33012
534.6483, 68.38863
535.1304, 68.52103
535.6125, 68.96140
536.0946, 69.38583
536.5767, 69.08733
537.0588, 68.02828
537.5410, 67.00646
538.0231, 66.21903
538.5052, 65.75404
538.9873, 65.76258
539.4694, 66.26305
539.9515, 66.94942
540.4337, 68.15729
540.9158, 69.23279
541.3979, 69.43778
541.8800, 68.83459
542.3621, 67.96250
542.8442, 67.10390
543.3264, 66.31382
543.8085, 65.77901
544.2906, 65.56712
544.7726, 65.54900
545.2548, 66.02286
545.7369, 66.45718
546.2190, 66.37058
546.7011, 65.83833
547.1832, 65.30549
547.6653, 65.11545
548.1475, 65.18573
548.6296, 65.16412
549.1117, 64.94231
549.5938, 64.91326
550.0759, 65.44073
550.5580, 66.04272
551.0402, 66.38435
551.5223, 66.43525
552.0044, 66.31163
552.4865, 65.93204
552.9686, 65.47568
553.4507, 65.25618
553.9329, 65.28693
554.4150, 65.49662
554.8971, 65.97130
555.3792, 66.50222
555.8613, 66.48525
556.3434, 65.65733
556.8256, 65.05383
557.3077, 65.00151
557.7898, 65.16550
558.2719, 65.28536
558.7540, 65.32825
559.2361, 65.33622
559.7183, 65.33296
560.2004, 65.32995
560.6825, 65.37968
561.1646, 65.52325
561.6467, 65.64986
562.1288, 65.76308
562.6110, 65.84754
563.0931, 65.89406
563.5752, 65.90186
564.0573, 65.87362
564.5394, 65.80147
565.0215, 65.70004
565.5037, 65.68386
565.9858, 65.81606
566.4679, 65.55804
566.9500, 64.22307
567.4321, 62.82436
567.9142, 62.84861
568.3964, 64.41045
568.8785, 65.69550
569.3606, 66.07858
569.8427, 65.91015
570.3248, 65.28539
570.8069, 64.36968
571.2891, 63.79255
571.7712, 63.93672
572.2533, 64.52660
572.7354, 64.87984
573.2175, 64.85507
573.6996, 64.82951
574.1818, 64.82658
574.6639, 64.80192
575.1460, 64.71418
575.6281, 64.58125
576.1102, 64.43651
576.5923, 64.28441
577.0745, 64.18276
577.5566, 64.28904
578.0387, 64.64664
578.5208, 64.98903
579.0029, 65.40951
579.4850, 65.63295
579.9672, 65.47202
580.4493, 64.95737
580.9314, 64.22336
581.4135, 62.99133
581.8956, 61.83308
582.3777, 61.42094
582.8599, 61.58337
583.3420, 61.63488
583.8241, 61.32140
584.3062, 60.91997
584.7883, 60.80726
585.2704, 61.04987
585.7526, 61.28082
586.2347, 61.51412
586.7168, 61.72327
