##NAMES=Krupkaite
##RRUFFID=R100098
##IDEAL CHEMISTRY=Cu^1+^Pb^2+^Bi^3+^_3_S^2-^_6_
##LOCALITY=Julcani District, Peru
##OWNER=RRUFF
##SOURCE=Peter Megaw
##DESCRIPTION=Bladed steel-gray metallic crystals with blue irridescence
##STATUS=The identification of this mineral has been confirmed only by single crystal X-ray diffraction.
##URL=rruff.info/R100098
90.49219, 1.692235
90.97430, 3.325949
91.45642, 3.906976
91.93854, 2.516524
92.42065, 0.3396417
92.90277, -0.8274900
93.38489, -0.7707819
93.86700, -0.2222309
94.34912, -6.6709399E-02
94.83124, -0.2232726
95.31335, -0.2275983
95.79547, 0.3689552
96.27759, 1.398296
96.75970, 2.196500
97.24182, 2.661176
97.72394, 2.858580
98.20605, 2.986536
98.68817, 3.070592
99.17029, 2.865857
99.65240, 1.881312
100.1345, 1.6277680E-02
100.6166, -1.107599
101.0988, -0.9299331
101.5809, 0.3454369
102.0630, 0.9634556
102.5451, 0.7828016
103.0272, 0.2069179
103.5093, -0.4167302
103.9915, -1.228068
104.4736, -1.705559
104.9557, -1.653181
105.4378, -0.9799569
105.9199, -0.2446541
106.4020, 0.8054705
106.8842, 1.798835
107.3663, 2.023452
107.8484, 0.4876095
108.3305, -0.6673729
108.8126, -0.5910313
109.2947, 2.183174
109.7769, 3.745988
110.2590, 3.148165
110.7411, 1.172413
111.2232, 0.2669907
111.7053, 1.821866
112.1874, 3.505741
112.6696, 4.261101
113.1517, 3.027923
113.6338, 1.895721
114.1159, 1.364302
114.5980, 1.307837
115.0801, 0.7854834
115.5623, -1.636688
116.0444, -4.020793
116.5265, -4.866011
117.0086, -2.135540
117.4907, 0.7497402
117.9728, 2.616263
118.4550, 3.407931
118.9371, 3.569522
119.4192, 2.819264
119.9013, 1.658192
120.3834, 0.7364634
120.8655, 0.5443056
121.3477, 0.5405731
121.8298, 0.2157993
122.3119, -0.5862318
122.7940, -1.068009
123.2761, -0.3315016
123.7582, 1.178962
124.2404, 2.473843
124.7225, 3.040922
125.2046, 3.094275
125.6867, 2.862416
126.1688, 2.341743
126.6509, 1.636904
127.1331, 0.5468665
127.6152, -0.7783626
128.0973, -1.593431
128.5794, -0.8408487
129.0615, 0.8168373
129.5436, 1.682926
130.0258, 0.9755800
130.5079, -0.2361995
130.9900, 0.3088373
131.4721, 2.604283
131.9542, 4.765414
132.4363, 4.922346
132.9185, 3.335767
133.4006, 1.774146
133.8827, 0.5814127
134.3648, -0.2003663
134.8469, -0.5454515
135.3290, -0.4818462
135.8112, 0.1466416
136.2933, 1.915888
136.7754, 4.949749
137.2575, 7.299447
137.7396, 7.988435
138.2217, 7.068744
138.7039, 7.118639
139.1860, 8.532331
139.6681, 10.29542
140.1502, 10.67846
140.6323, 9.203637
141.1144, 7.927201
141.5966, 7.649439
142.0787, 8.537199
142.5608, 9.767890
143.0429, 11.54710
143.5250, 13.55039
144.0071, 15.03479
144.4893, 15.90933
144.9714, 16.39029
145.4535, 16.44082
145.9356, 15.38358
146.4177, 15.30222
146.8998, 16.72287
147.3820, 19.20214
147.8641, 20.93969
148.3462, 21.36334
148.8283, 21.56231
149.3104, 22.10348
149.7925, 22.90466
150.2747, 24.16584
150.7568, 26.25082
151.2389, 29.04598
151.7210, 31.13052
152.2031, 31.91694
152.6852, 32.33384
153.1674, 32.96559
153.6495, 34.63880
154.1316, 35.67766
154.6137, 35.39104
155.0958, 33.74010
155.5779, 32.93553
156.0601, 33.56687
156.5422, 35.00094
157.0243, 36.69316
157.5064, 39.38549
157.9885, 41.54918
158.4706, 42.58158
158.9528, 42.33335
159.4349, 42.04707
159.9170, 41.79786
160.3991, 41.75035
160.8812, 42.09486
161.3633, 43.52141
161.8455, 44.84298
162.3276, 45.38740
162.8097, 44.88477
163.2918, 44.61606
163.7739, 45.17822
164.2560, 46.23822
164.7382, 47.05828
165.2203, 47.95779
165.7024, 48.72920
166.1845, 49.07351
166.6666, 48.76838
167.1487, 48.66921
167.6309, 49.61352
168.1130, 51.11630
168.5951, 52.13507
169.0772, 51.81147
169.5593, 51.01743
170.0414, 50.44005
170.5236, 50.14077
171.0057, 50.19143
171.4878, 50.94003
171.9699, 52.14878
172.4520, 53.07911
172.9341, 53.07846
173.4163, 52.66983
173.8984, 52.41409
174.3805, 52.30814
174.8626, 52.58292
175.3447, 53.85170
175.8268, 55.87092
176.3090, 57.50679
176.7911, 57.84761
177.2732, 57.32423
177.7553, 56.55157
178.2374, 55.41188
178.7195, 54.39375
179.2017, 54.29115
179.6838, 55.01875
180.1659, 55.79320
180.6480, 55.98815
181.1301, 55.77572
181.6122, 55.54059
182.0944, 55.28047
182.5765, 55.13717
183.0586, 55.54572
183.5407, 56.49105
184.0228, 57.28003
184.5049, 57.01341
184.9871, 55.99230
185.4692, 55.33493
185.9513, 55.65807
186.4334, 56.46899
186.9155, 56.43396
187.3976, 55.47803
187.8798, 54.55114
188.3619, 54.96526
188.8440, 56.46938
189.3261, 57.40167
189.8082, 56.92699
190.2903, 55.46191
190.7725, 54.43944
191.2546, 53.85323
191.7367, 53.66771
192.2188, 54.05661
192.7009, 54.98121
193.1830, 55.62910
193.6652, 55.50985
194.1473, 54.79009
194.6294, 54.60530
195.1115, 55.06641
195.5936, 55.68922
196.0757, 55.73962
196.5579, 55.19290
197.0400, 54.80676
197.5221, 55.03648
198.0042, 55.81773
198.4863, 56.06964
198.9684, 55.63737
199.4506, 55.01683
199.9327, 55.05672
200.4148, 55.84518
200.8969, 56.47935
201.3790, 56.39558
201.8611, 55.54722
202.3433, 55.50029
202.8254, 56.54018
203.3075, 57.92589
203.7896, 58.30251
204.2717, 57.49709
204.7538, 56.58644
205.2360, 55.97486
205.7181, 55.66949
206.2002, 55.59503
206.6823, 55.77814
207.1644, 56.15719
207.6465, 56.63720
208.1287, 57.22500
208.6108, 57.87204
209.0929, 58.76927
209.5750, 60.16516
210.0571, 60.29633
210.5392, 58.58595
211.0214, 56.13640
211.5035, 55.41472
211.9856, 57.00359
212.4677, 58.71684
212.9498, 59.53153
213.4319, 59.19605
213.9141, 59.04334
214.3962, 59.24999
214.8783, 59.53893
215.3604, 59.15503
215.8425, 57.72710
216.3246, 56.45222
216.8067, 55.94331
217.2889, 56.48749
217.7710, 56.81849
218.2531, 56.87856
218.7352, 56.73397
219.2173, 56.47462
219.6994, 55.89315
220.1816, 55.59168
220.6637, 55.98641
221.1458, 57.58313
221.6279, 58.36565
222.1100, 57.98365
222.5921, 56.90565
223.0743, 56.38797
223.5564, 56.74990
224.0385, 57.11947
224.5206, 57.01797
225.0027, 56.09178
225.4848, 55.65825
225.9670, 55.86197
226.4491, 56.52988
226.9312, 57.33371
227.4133, 58.68166
227.8954, 59.49368
228.3775, 59.02565
228.8597, 56.19334
229.3418, 54.79473
229.8239, 55.43125
230.3060, 57.37111
230.7881, 58.56791
231.2702, 58.73606
231.7524, 58.60879
232.2345, 58.54239
232.7166, 58.73839
233.1987, 58.45886
233.6808, 57.29725
234.1629, 55.76591
234.6451, 55.30079
235.1272, 56.51828
235.6093, 57.89199
236.0914, 58.73493
236.5735, 58.75211
237.0556, 58.92589
237.5378, 59.34089
238.0199, 59.89056
238.5020, 60.31771
238.9841, 60.66880
239.4662, 60.83883
239.9483, 60.74235
240.4305, 60.18402
240.9126, 59.82318
241.3947, 59.71150
241.8768, 59.77916
242.3589, 59.83757
242.8410, 59.76695
243.3232, 59.86757
243.8053, 60.36263
244.2874, 61.70870
244.7695, 62.27309
245.2516, 61.56784
245.7337, 60.27572
246.2159, 60.03319
246.6980, 61.65612
247.1801, 63.04391
247.6622, 63.23625
248.1443, 61.49554
248.6264, 60.67327
249.1086, 61.10288
249.5907, 62.27906
250.0728, 63.19617
250.5549, 63.84501
251.0370, 64.24699
251.5191, 64.31579
252.0013, 63.81511
252.4834, 63.81388
252.9655, 64.60493
253.4476, 65.71740
253.9297, 66.21612
254.4118, 65.71748
254.8940, 65.31464
255.3761, 65.48044
255.8582, 66.46712
256.3403, 66.95201
256.8224, 66.61264
257.3046, 66.01983
257.7867, 66.29520
258.2688, 68.14954
258.7509, 69.36707
259.2330, 68.96510
259.7151, 66.52632
260.1973, 64.94579
260.6794, 64.40717
261.1615, 64.57760
261.6436, 65.07097
262.1257, 66.05009
262.6078, 66.97254
263.0900, 67.72320
263.5721, 68.33093
264.0542, 68.51999
264.5363, 68.20609
265.0184, 67.57534
265.5005, 66.76483
265.9827, 65.62645
266.4648, 64.75375
266.9469, 64.31405
267.4290, 64.30876
267.9111, 64.73864
268.3932, 65.97148
268.8754, 67.06127
269.3575, 66.71919
269.8396, 64.45744
270.3217, 62.56271
270.8038, 61.73307
271.2859, 61.89030
271.7681, 61.53814
272.2502, 60.45076
272.7323, 59.32305
273.2144, 59.10422
273.6965, 60.08365
274.1786, 60.34445
274.6608, 59.16925
275.1429, 56.85294
275.6250, 55.58356
276.1071, 55.57630
276.5892, 55.99745
277.0714, 56.07222
277.5535, 55.74168
278.0356, 55.63115
278.5177, 55.92379
278.9998, 56.50745
279.4819, 56.97990
279.9641, 57.38109
280.4462, 57.52604
280.9283, 57.11438
281.4104, 56.12413
281.8925, 55.44093
282.3746, 55.32829
282.8568, 55.51097
283.3389, 55.13240
283.8210, 54.12582
284.3031, 53.07105
284.7852, 52.17791
285.2673, 51.48108
285.7495, 51.68197
286.2316, 53.23755
286.7137, 55.19685
287.1958, 55.30013
287.6779, 53.48771
288.1600, 51.64365
288.6422, 50.97955
289.1243, 51.35705
289.6064, 51.91414
290.0885, 52.72292
290.5706, 53.34780
291.0527, 52.78691
291.5349, 51.13190
292.0170, 49.71953
292.4991, 49.52581
292.9812, 50.21037
293.4633, 50.52086
293.9454, 50.34216
294.4276, 50.01342
294.9097, 50.01019
295.3918, 50.27153
295.8739, 50.47715
296.3560, 50.34438
296.8381, 50.05692
297.3203, 50.07483
297.8024, 50.42501
298.2845, 50.90223
298.7666, 51.42449
299.2487, 51.91978
299.7308, 52.18315
300.2130, 52.09299
300.6951, 51.73112
301.1772, 51.09028
301.6593, 50.17456
302.1414, 49.41453
302.6235, 49.28277
303.1057, 49.58179
303.5878, 49.92300
304.0699, 50.22326
304.5520, 50.46903
305.0341, 50.65890
305.5162, 50.78917
305.9984, 50.82989
306.4805, 50.75274
306.9626, 50.57271
307.4447, 50.25895
307.9268, 49.51068
308.4089, 49.01266
308.8911, 49.74407
309.3732, 51.38398
309.8553, 52.61295
310.3374, 52.34776
310.8195, 51.43108
311.3016, 50.67513
311.7838, 50.25129
312.2659, 50.01251
312.7480, 49.93330
313.2301, 49.97791
313.7122, 50.05409
314.1943, 50.25851
314.6765, 50.39140
315.1586, 50.28493
315.6407, 49.86179
316.1228, 49.39442
316.6049, 48.68792
317.0870, 48.06615
317.5692, 48.06708
318.0513, 49.70713
318.5334, 51.33921
319.0155, 52.00629
319.4976, 51.47500
319.9797, 51.16856
320.4619, 52.27337
320.9440, 53.59938
321.4261, 53.80602
321.9082, 50.98059
322.3903, 48.53201
322.8724, 47.68869
323.3546, 48.51710
323.8367, 49.32074
324.3188, 49.87002
324.8009, 50.23066
325.2830, 50.44818
325.7651, 50.39202
326.2473, 50.35139
326.7294, 50.49019
327.2115, 50.75082
327.6936, 50.67099
328.1757, 49.80917
328.6578, 48.90606
329.1400, 48.32393
329.6221, 48.18990
330.1042, 48.21444
330.5863, 48.45420
331.0684, 48.85396
331.5505, 49.28123
332.0327, 50.13758
332.5148, 50.54621
332.9969, 49.92285
333.4790, 47.34338
333.9611, 46.40006
334.4432, 47.93957
334.9254, 50.63117
335.4075, 52.18866
335.8896, 52.26257
336.3717, 51.92294
336.8538, 51.40155
337.3359, 50.65911
337.8180, 50.09821
338.3001, 49.68697
338.7823, 49.50571
339.2644, 49.76610
339.7465, 50.63234
340.2286, 51.22081
340.7107, 51.26461
341.1928, 50.83797
341.6750, 50.41364
342.1571, 49.94671
342.6392, 49.62181
343.1213, 49.61353
343.6034, 49.92431
344.0855, 50.36748
344.5677, 50.97716
345.0498, 51.63026
345.5319, 52.02723
346.0140, 52.16618
346.4961, 52.10740
346.9782, 51.80122
347.4604, 51.30247
347.9425, 50.83350
348.4246, 50.35336
348.9067, 50.08141
349.3888, 50.64806
349.8709, 51.85783
350.3531, 52.62112
350.8352, 51.81291
351.3173, 50.31407
351.7994, 49.96152
352.2815, 50.88972
352.7636, 52.09991
353.2458, 52.88564
353.7279, 53.23463
354.2100, 53.10816
354.6921, 52.05627
355.1742, 50.82090
355.6563, 50.14678
356.1385, 50.01439
356.6206, 50.16943
357.1027, 50.70134
357.5848, 51.32627
358.0669, 51.69451
358.5490, 51.54828
359.0312, 51.36950
359.5133, 51.65673
359.9954, 52.19939
360.4775, 52.35126
360.9596, 51.10429
361.4417, 49.81683
361.9239, 49.52312
362.4060, 50.74272
362.8881, 51.89632
363.3702, 52.42241
363.8523, 52.50555
364.3344, 52.42889
364.8166, 52.11224
365.2987, 51.79014
365.7808, 51.69441
366.2629, 51.92001
366.7450, 51.62249
367.2271, 49.76223
367.7093, 47.76813
368.1914, 46.89600
368.6735, 48.19886
369.1556, 49.59347
369.6377, 51.04840
370.1198, 52.49788
370.6020, 53.18239
371.0841, 52.52566
371.5662, 51.63844
372.0483, 51.09300
372.5304, 50.88493
373.0125, 51.03939
373.4947, 51.72003
373.9768, 52.70234
374.4589, 53.55494
374.9410, 54.50603
375.4231, 54.83670
375.9052, 53.94606
376.3874, 51.51246
376.8695, 50.54602
377.3516, 51.49629
377.8337, 53.14202
378.3158, 53.99621
378.7979, 53.97972
379.2801, 53.74869
379.7622, 53.35984
380.2443, 52.90963
380.7264, 52.84597
381.2085, 53.19655
381.6906, 53.74633
382.1728, 54.66010
382.6549, 55.77193
383.1370, 55.78615
383.6191, 54.09142
384.1012, 51.91111
384.5833, 51.42609
385.0655, 52.45142
385.5476, 53.55497
386.0297, 54.02418
386.5118, 53.99149
386.9939, 53.61369
387.4760, 52.86040
387.9582, 52.07030
388.4403, 51.42535
388.9224, 50.97707
389.4045, 50.82928
389.8866, 51.28803
390.3687, 51.87838
390.8509, 52.20039
391.3330, 52.26534
391.8151, 52.25172
392.2972, 52.11480
392.7793, 52.01766
393.2614, 52.15738
393.7436, 52.96389
394.2257, 53.46930
394.7078, 52.75728
395.1899, 51.37975
395.6720, 50.78605
396.1541, 52.54388
396.6363, 54.30708
397.1184, 54.86609
397.6005, 53.68316
398.0826, 52.60282
398.5647, 51.70481
399.0468, 51.12201
399.5290, 51.01554
400.0111, 52.44887
400.4932, 53.20947
400.9753, 52.49576
401.4574, 50.31416
401.9395, 49.24038
402.4217, 49.86212
402.9038, 50.95777
403.3859, 51.70109
403.8680, 51.83057
404.3501, 52.28041
404.8322, 53.34536
405.3144, 54.65645
405.7965, 55.15600
406.2786, 54.67797
406.7607, 53.95010
407.2428, 53.11361
407.7249, 52.14423
408.2071, 51.99536
408.6892, 52.86189
409.1713, 53.96894
409.6534, 54.29241
410.1355, 53.86803
410.6176, 53.46489
411.0998, 53.31137
411.5819, 53.32106
412.0640, 53.39302
412.5461, 53.51575
413.0282, 53.40354
413.5103, 52.47357
413.9925, 51.19680
414.4746, 50.59288
414.9567, 50.93827
415.4388, 51.66246
415.9209, 52.29827
416.4030, 52.85608
416.8852, 53.37988
417.3673, 54.11672
417.8494, 54.67275
418.3315, 54.52521
418.8136, 53.63572
419.2957, 52.97285
419.7779, 53.19698
420.2600, 53.87146
420.7421, 54.55621
421.2242, 55.53905
421.7063, 56.08492
422.1884, 55.75716
422.6706, 54.75861
423.1527, 53.84327
423.6348, 52.75215
424.1169, 52.13792
424.5990, 52.41363
425.0811, 54.21075
425.5633, 55.51778
426.0454, 56.06394
426.5275, 56.17324
427.0096, 56.23132
427.4917, 56.08199
427.9738, 56.12819
428.4560, 56.53736
428.9381, 57.28765
429.4202, 57.83821
429.9023, 58.25783
430.3844, 58.34327
430.8665, 57.70880
431.3487, 56.10598
431.8308, 55.43688
432.3129, 56.18445
432.7950, 57.52241
433.2771, 57.52381
433.7592, 56.12555
434.2414, 54.98891
434.7235, 55.16925
435.2056, 56.27523
435.6877, 56.67224
436.1698, 56.32098
436.6519, 55.74513
437.1341, 55.20344
437.6162, 54.83883
438.0983, 55.09418
438.5804, 56.44201
439.0625, 57.95281
439.5446, 58.35692
440.0268, 57.94645
440.5089, 57.78725
440.9910, 59.07374
441.4731, 60.55086
441.9552, 60.94564
442.4373, 59.89837
442.9195, 58.96145
443.4016, 59.06644
443.8837, 59.68056
444.3658, 60.15613
444.8479, 60.31074
445.3300, 60.28955
445.8122, 59.92808
446.2943, 59.31338
446.7764, 59.15175
447.2585, 60.03479
447.7406, 61.01998
448.2227, 61.66830
448.7049, 62.04051
449.1870, 61.90179
449.6691, 60.74516
450.1512, 59.33067
450.6333, 58.95419
451.1154, 60.13000
451.5976, 61.22885
452.0797, 61.77032
452.5618, 61.80579
453.0439, 62.12665
453.5260, 62.86092
454.0081, 63.46441
454.4903, 63.33895
454.9724, 62.50042
455.4545, 62.03854
455.9366, 62.15265
456.4187, 62.56004
456.9008, 62.75984
457.3830, 62.79235
457.8651, 62.94395
458.3472, 63.39742
458.8293, 64.04701
459.3114, 64.90176
459.7935, 65.94435
460.2757, 66.57536
460.7578, 65.92893
461.2399, 64.67800
461.7220, 63.72009
462.2041, 63.17099
462.6862, 63.15353
463.1684, 64.30434
463.6505, 66.06745
464.1326, 67.12770
464.6147, 66.19223
465.0968, 65.05335
465.5789, 64.69167
466.0611, 65.28874
466.5432, 65.78136
467.0253, 66.05232
467.5074, 66.07889
467.9895, 65.83702
468.4716, 64.80023
468.9538, 64.16589
469.4359, 64.10719
469.9180, 64.49987
470.4001, 64.99455
470.8822, 65.70817
471.3643, 66.30866
471.8465, 66.60576
472.3286, 66.55210
472.8107, 66.71581
473.2928, 67.12941
473.7749, 67.67555
474.2570, 68.38255
474.7392, 69.24643
475.2213, 69.53060
475.7034, 68.87679
476.1855, 67.79459
476.6676, 67.29610
477.1497, 67.34890
477.6319, 67.65294
478.1140, 68.29166
478.5961, 68.98143
479.0782, 69.16795
479.5603, 68.78423
480.0424, 68.32606
480.5246, 68.00521
481.0067, 67.91486
481.4888, 68.20956
481.9709, 69.49424
482.4530, 70.53555
482.9352, 70.43404
483.4173, 69.52707
483.8994, 68.88155
484.3815, 68.95811
484.8636, 69.29549
485.3457, 69.79957
485.8279, 70.64853
486.3100, 70.94579
486.7921, 69.98399
487.2742, 68.78481
487.7563, 68.24417
488.2384, 68.70438
488.7206, 69.25925
489.2027, 69.90602
489.6848, 70.56018
490.1669, 70.91234
490.6490, 70.94320
491.1311, 70.72272
491.6133, 70.20728
492.0954, 69.40181
492.5775, 68.66799
493.0596, 67.98222
493.5417, 67.49000
494.0238, 67.47084
494.5060, 67.82259
494.9881, 68.06179
495.4702, 68.02114
495.9523, 67.88499
496.4344, 67.94474
496.9165, 68.14558
497.3987, 68.28167
497.8808, 68.06735
498.3629, 67.83672
498.8450, 68.04418
499.3271, 68.75252
499.8092, 69.19794
500.2914, 68.76798
500.7735, 67.98241
501.2556, 67.31857
501.7377, 66.74112
502.2198, 66.49060
502.7019, 66.79653
503.1841, 67.47670
503.6662, 68.03702
504.1483, 68.83990
504.6304, 69.08248
505.1125, 68.24679
505.5946, 66.16875
506.0768, 65.19864
506.5589, 65.83733
507.0410, 66.85487
507.5231, 67.23167
508.0052, 66.86118
508.4873, 66.54787
508.9695, 66.37172
509.4516, 66.30992
509.9337, 66.41801
510.4158, 66.67790
510.8979, 66.73893
511.3800, 66.20530
511.8622, 65.44294
512.3443, 65.42991
512.8264, 66.12300
513.3085, 66.72208
513.7906, 66.58353
514.2728, 66.00053
514.7549, 65.27493
515.2370, 64.33971
515.7191, 63.65220
516.2012, 63.58359
516.6833, 63.93134
517.1655, 64.38138
517.6476, 65.30422
518.1297, 65.84538
518.6118, 65.37399
519.0939, 64.02073
519.5760, 63.29018
520.0582, 64.18319
520.5403, 65.03071
521.0224, 65.01321
521.5045, 63.55392
521.9866, 62.98046
522.4688, 63.72095
522.9509, 64.87449
523.4330, 65.28765
523.9151, 64.80948
524.3972, 64.41722
524.8793, 64.32140
525.3615, 64.44161
525.8436, 64.70704
526.3257, 65.11069
526.8078, 65.20131
527.2899, 64.38779
527.7720, 63.12590
528.2542, 62.43455
528.7363, 62.36235
529.2184, 62.70023
529.7005, 63.66609
530.1826, 64.80949
530.6647, 65.49638
531.1469, 65.38084
531.6290, 65.04704
532.1111, 64.81627
532.5932, 64.59811
533.0753, 64.20993
533.5574, 62.98174
534.0396, 62.16343
534.5217, 62.42294
535.0038, 63.85725
535.4859, 64.79806
535.9680, 65.00211
536.4501, 64.89808
536.9323, 64.66669
537.4144, 64.12679
537.8965, 64.01134
538.3786, 64.50092
538.8607, 65.19129
539.3428, 65.50906
539.8250, 65.45043
540.3071, 65.05685
540.7892, 64.13706
541.2713, 63.05653
541.7534, 62.91759
542.2355, 63.63282
542.7177, 64.27166
543.1998, 64.12439
543.6819, 63.57206
544.1640, 63.10863
544.6461, 62.75921
545.1282, 62.71991
545.6104, 63.57139
546.0925, 64.63116
546.5746, 65.11180
547.0567, 64.37737
547.5388, 63.62310
548.0209, 63.32573
548.5031, 63.29060
548.9852, 63.08216
549.4673, 62.06874
549.9494, 61.48875
550.4315, 61.86822
550.9136, 63.20079
551.3958, 63.93929
551.8779, 63.98491
552.3600, 63.60224
552.8421, 62.80193
553.3242, 61.49447
553.8063, 60.61527
554.2885, 60.21185
554.7706, 60.21468
555.2527, 60.79100
555.7348, 61.80773
556.2169, 62.38386
556.6990, 62.02131
557.1812, 61.38602
557.6633, 61.47635
558.1454, 62.13353
558.6275, 62.76267
559.1096, 63.11281
559.5917, 63.22971
560.0739, 63.08049
560.5560, 62.66089
561.0381, 62.24286
561.5202, 61.78605
562.0023, 61.47009
562.4844, 61.44291
562.9666, 62.01393
563.4487, 62.43868
563.9308, 62.62563
564.4129, 62.66777
564.8950, 62.73671
565.3771, 62.98941
565.8593, 62.85382
566.3414, 61.89924
566.8235, 60.49588
567.3056, 60.61053
567.7877, 62.48988
568.2698, 64.08202
568.7520, 63.76506
569.2341, 62.11364
569.7162, 61.31194
570.1983, 61.45304
570.6804, 62.09206
571.1625, 63.45455
571.6447, 64.87759
572.1268, 65.13934
572.6089, 63.39208
573.0910, 61.64993
573.5731, 61.16208
574.0552, 61.56565
574.5374, 62.21641
575.0195, 63.39616
575.5016, 64.29624
575.9837, 64.46925
576.4658, 63.98633
576.9479, 63.83455
577.4301, 64.48820
577.9122, 64.93874
578.3943, 64.62672
578.8764, 63.31122
579.3585, 62.64291
579.8406, 62.77393
580.3228, 63.21247
580.8049, 63.48744
581.2870, 63.60518
581.7691, 63.70960
582.2512, 63.83995
582.7333, 63.92521
583.2155, 63.81179
583.6976, 63.55601
584.1797, 63.33049
584.6617, 63.19032
585.1439, 63.13483
585.6260, 63.15558
586.1081, 63.25689
