##NAMES=Krupkaite
##RRUFFID=R070310
##IDEAL CHEMISTRY=Cu^1+^Pb^2+^Bi^3+^_3_S^2-^_6_
##LOCALITY=MaGruder Peak Quadrangle, near Goldfield, Esmerelda County, Nevada, USA
##OWNER=RRUFF
##SOURCE=James Shigley
##DESCRIPTION=Acicular metallic golden crystal with blue iridescence, embedded in quartz. Space group determined in order to help with the identification.
##STATUS=The identification of this mineral is confirmed by single-crystal X-ray diffraction and chemical analysis.
##URL=rruff.info/R070310
##MEASURED CHEMISTRY=Pb_1.00_(Cu_0.99_Zn_0.01_)_Σ=1_(Bi_2.84_Pb_0.16_)_Σ=3_S_6.00_
127.7690, 731.2946
128.2512, 792.7446
128.7333, 869.3074
129.2154, 967.3535
129.6975, 1074.990
130.1796, 1193.356
130.6617, 1318.546
131.1439, 1446.432
131.6260, 1575.618
132.1081, 1704.466
132.5902, 1819.906
133.0723, 1927.853
133.5544, 2014.598
134.0366, 2077.019
134.5187, 2115.693
135.0008, 2132.270
135.4829, 2127.867
135.9650, 2102.538
136.4471, 2051.554
136.9293, 1954.372
137.4114, 1855.481
137.8935, 1772.152
138.3756, 1698.280
138.8577, 1614.058
139.3398, 1501.959
139.8220, 1361.276
140.3041, 1254.344
140.7862, 1183.715
141.2683, 1135.180
141.7504, 1107.038
142.2325, 1097.233
142.7147, 1101.944
143.1968, 1119.785
143.6789, 1151.343
144.1610, 1184.636
144.6431, 1210.029
145.1252, 1244.635
145.6074, 1302.457
146.0895, 1381.389
146.5716, 1464.578
147.0537, 1537.405
147.5358, 1600.352
148.0179, 1677.346
148.5001, 1766.513
148.9822, 1870.421
149.4643, 2012.042
149.9464, 2188.948
150.4285, 2337.126
150.9106, 2406.331
151.3928, 2393.831
151.8749, 2342.835
152.3570, 2237.038
152.8391, 2104.665
153.3212, 1962.053
153.8033, 1809.928
154.2855, 1666.685
154.7676, 1548.087
155.2497, 1451.028
155.7318, 1363.448
156.2139, 1278.940
156.6960, 1205.363
157.1782, 1152.558
157.6603, 1121.898
158.1424, 1106.102
158.6245, 1105.652
159.1066, 1116.633
159.5887, 1131.222
160.0709, 1151.486
160.5530, 1172.783
161.0351, 1189.535
161.5172, 1202.391
161.9993, 1207.407
162.4814, 1200.265
162.9636, 1183.494
163.4457, 1159.089
163.9278, 1119.482
164.4099, 1074.979
164.8920, 1045.762
165.3741, 1035.648
165.8563, 1030.509
166.3384, 1023.458
166.8205, 1015.021
167.3026, 1005.903
167.7847, 996.3931
168.2668, 986.3414
168.7490, 974.8974
169.2311, 960.7786
169.7132, 948.1529
170.1953, 938.1832
170.6774, 931.0477
171.1595, 927.7564
171.6417, 930.9913
172.1238, 937.4498
172.6059, 938.5870
173.0880, 932.5281
173.5701, 924.6133
174.0522, 916.5585
174.5344, 908.4974
175.0165, 900.8591
175.4986, 894.2160
175.9807, 887.8647
176.4628, 879.7212
176.9449, 869.2723
177.4271, 857.7970
177.9092, 846.0055
178.3913, 833.6542
178.8734, 819.8190
179.3555, 802.5721
179.8376, 784.7281
180.3197, 775.1728
180.8019, 778.9707
181.2840, 782.4207
181.7661, 780.7230
182.2482, 776.3329
182.7303, 772.0470
183.2124, 769.0095
183.6946, 767.2642
184.1767, 766.8823
184.6588, 767.6042
185.1409, 770.4199
185.6230, 778.1877
186.1051, 786.9011
186.5873, 791.6812
187.0694, 789.8981
187.5515, 783.9084
188.0336, 780.1852
188.5157, 781.4559
188.9978, 780.1920
189.4800, 773.2902
189.9621, 764.1198
190.4442, 755.6313
190.9263, 749.0583
191.4084, 744.6403
191.8905, 743.0817
192.3727, 745.2579
192.8548, 749.0631
193.3369, 756.0059
193.8190, 763.2483
194.3011, 768.2963
194.7832, 770.1693
195.2654, 769.2233
195.7475, 766.1661
196.2296, 760.6838
196.7117, 753.3270
197.1938, 740.6873
197.6759, 728.3715
198.1581, 721.5677
198.6402, 721.9430
199.1223, 726.9042
199.6044, 732.0607
200.0865, 738.3981
200.5686, 742.8068
201.0508, 743.6307
201.5329, 743.6684
202.0150, 745.7989
202.4971, 750.5930
202.9792, 755.2765
203.4613, 754.4314
203.9435, 742.9153
204.4256, 737.6875
204.9077, 744.8528
205.3898, 753.8396
205.8719, 757.9443
206.3540, 755.6758
206.8362, 749.4479
207.3183, 741.7745
207.8004, 730.9665
208.2825, 723.3430
208.7646, 719.6786
209.2467, 718.1449
209.7289, 718.2226
210.2110, 719.5998
210.6931, 721.7918
211.1752, 724.4630
211.6573, 728.0240
212.1395, 730.4529
212.6216, 729.3028
213.1037, 729.1459
213.5858, 733.4225
214.0679, 741.3406
214.5500, 749.1190
215.0322, 753.2510
215.5143, 753.6002
215.9964, 750.9030
216.4785, 739.7049
216.9606, 730.5319
217.4427, 728.8832
217.9249, 733.0860
218.4070, 737.4655
218.8891, 736.9368
219.3712, 731.2847
219.8533, 728.5773
220.3354, 730.5057
220.8176, 733.9572
221.2997, 740.2667
221.7818, 747.4758
222.2639, 752.1090
222.7460, 751.5732
223.2281, 746.2446
223.7103, 740.1689
224.1924, 728.9359
224.6745, 722.0334
225.1566, 724.1561
225.6387, 731.2715
226.1208, 737.9849
226.6030, 741.4824
227.0851, 741.5404
227.5672, 736.7802
228.0493, 720.6360
228.5314, 708.5103
229.0135, 704.4545
229.4957, 705.0112
229.9778, 706.7410
230.4599, 708.1776
230.9420, 708.9413
231.4241, 707.2837
231.9062, 697.5284
232.3884, 695.7742
232.8705, 710.6483
233.3526, 729.5341
233.8347, 741.1469
234.3168, 741.8209
234.7989, 736.9028
235.2811, 735.2708
235.7632, 737.7742
236.2453, 741.7526
236.7274, 747.9274
237.2095, 754.6602
237.6916, 761.4680
238.1738, 768.0069
238.6559, 773.3969
239.1380, 775.6444
239.6201, 772.8916
240.1022, 774.0089
240.5843, 783.9875
241.0665, 794.0603
241.5486, 799.5897
242.0307, 800.7786
242.5128, 801.1295
242.9949, 804.4513
243.4770, 811.1967
243.9592, 815.3470
244.4413, 809.2332
244.9234, 808.0732
245.4055, 821.7245
245.8876, 845.5638
246.3697, 867.1328
246.8519, 876.5023
247.3340, 875.3320
247.8161, 878.3918
248.2982, 890.2014
248.7803, 900.2684
249.2624, 902.7752
249.7446, 901.6683
250.2267, 903.3790
250.7088, 911.6520
251.1909, 924.6733
251.6730, 938.4182
252.1551, 956.6633
252.6373, 967.5278
253.1194, 960.9275
253.6015, 948.4438
254.0836, 943.1301
254.5657, 950.5352
255.0478, 963.4695
255.5300, 970.3838
256.0121, 969.6775
256.4942, 968.9260
256.9763, 971.8898
257.4584, 974.6659
257.9406, 973.9205
258.4227, 968.8694
258.9048, 962.5077
259.3869, 959.1434
259.8690, 959.0918
260.3511, 954.1063
260.8333, 938.7045
261.3154, 921.0555
261.7975, 906.7255
262.2796, 895.9073
262.7617, 886.2820
263.2438, 875.6403
263.7260, 864.4921
264.2081, 856.5844
264.6902, 855.0348
265.1723, 852.4760
265.6544, 842.3688
266.1365, 826.6822
266.6187, 811.9958
267.1008, 802.9066
267.5829, 796.6362
268.0650, 786.5717
268.5471, 771.1960
269.0292, 756.5375
269.5114, 749.3219
269.9935, 745.5425
270.4756, 737.9120
270.9577, 720.6620
271.4398, 701.9942
271.9219, 692.3871
272.4041, 692.1072
272.8862, 691.2649
273.3683, 684.6656
273.8504, 674.4663
274.3325, 665.3959
274.8146, 658.7839
275.2968, 651.2274
275.7789, 639.3262
276.2610, 624.2360
276.7431, 610.6913
277.2252, 600.6477
277.7073, 592.5307
278.1895, 583.3242
278.6716, 572.4397
279.1537, 563.2473
279.6358, 558.5426
280.1179, 555.9879
280.6000, 551.2314
281.0822, 543.0377
281.5643, 534.2521
282.0464, 528.5494
282.5285, 526.2905
283.0106, 522.8611
283.4927, 519.7354
283.9749, 513.9619
284.4570, 499.6069
284.9391, 477.3127
285.4212, 458.4746
285.9033, 453.7138
286.3854, 462.8325
286.8676, 465.4153
287.3497, 454.8203
287.8318, 444.7574
288.3139, 444.5520
288.7960, 450.5524
289.2781, 451.7119
289.7603, 441.0349
290.2424, 422.3534
290.7245, 412.1145
291.2066, 417.6816
291.6887, 421.9312
292.1708, 423.0522
292.6530, 421.2195
293.1351, 415.8994
293.6172, 406.9892
294.0993, 396.5625
294.5814, 388.2983
295.0635, 382.9462
295.5457, 378.5946
296.0278, 375.5750
296.5099, 373.2544
296.9920, 371.5412
297.4741, 370.2206
297.9562, 368.6775
298.4384, 366.1000
298.9205, 362.1523
299.4026, 359.5215
299.8847, 358.6722
300.3668, 358.6253
300.8489, 359.6369
301.3310, 361.1927
301.8131, 362.5805
302.2953, 363.5544
302.7774, 363.7482
303.2595, 361.0083
303.7416, 352.2556
304.2237, 345.0862
304.7058, 341.0386
305.1880, 339.1902
305.6701, 338.9203
306.1522, 340.0523
306.6343, 341.6422
307.1164, 342.1720
307.5985, 341.4857
308.0807, 340.3049
308.5628, 339.0545
309.0449, 337.0967
309.5270, 333.0374
310.0091, 327.1195
310.4912, 322.4771
310.9734, 323.2900
311.4555, 328.8242
311.9376, 330.6817
312.4197, 326.4966
312.9018, 321.0228
313.3839, 317.0569
313.8661, 314.2378
314.3482, 311.6844
314.8303, 308.5952
315.3124, 305.7030
315.7945, 304.7804
316.2766, 306.2647
316.7588, 307.1700
317.2409, 305.8304
317.7230, 302.8507
318.2051, 298.9307
318.6872, 292.9410
319.1693, 288.1852
319.6515, 287.5667
320.1336, 290.4649
320.6157, 294.7516
321.0978, 301.0405
321.5799, 306.2690
322.0620, 304.3182
322.5442, 294.1126
323.0263, 285.5060
323.5084, 280.7358
323.9905, 279.3092
324.4726, 282.0955
324.9547, 289.2055
325.4369, 295.6213
325.9190, 296.3265
326.4011, 290.6280
326.8832, 285.3708
327.3653, 279.1754
327.8474, 274.6163
328.3296, 273.7581
328.8117, 275.8475
329.2938, 278.9821
329.7759, 282.3915
330.2580, 285.4158
330.7401, 284.9315
331.2223, 276.4800
331.7044, 270.0255
332.1865, 267.7487
332.6686, 267.4241
333.1507, 265.9865
333.6328, 262.7159
334.1150, 260.3165
334.5971, 263.6122
335.0792, 276.7447
335.5613, 284.1609
336.0434, 283.3119
336.5255, 279.7557
337.0077, 274.6569
337.4898, 269.1283
337.9719, 265.0693
338.4540, 264.2774
338.9361, 266.3650
339.4182, 268.0204
339.9004, 270.3019
340.3825, 270.3686
340.8646, 264.6241
341.3467, 257.4488
341.8288, 254.9269
342.3109, 259.8596
342.7931, 267.6117
343.2752, 270.9016
343.7573, 268.9498
344.2394, 268.2257
344.7215, 272.5068
345.2036, 276.7015
345.6858, 275.4780
346.1679, 268.8144
346.6500, 263.9284
347.1321, 268.4454
347.6142, 278.1752
348.0963, 280.4420
348.5785, 272.0048
349.0606, 262.3307
349.5427, 259.0268
350.0248, 260.4773
350.5069, 262.2740
350.9890, 265.1484
351.4712, 266.9154
351.9533, 264.7254
352.4354, 259.3860
352.9175, 255.2770
353.3996, 254.7936
353.8817, 256.4244
354.3639, 256.0354
354.8460, 252.3703
355.3281, 249.7682
355.8102, 250.4918
356.2923, 252.1984
356.7744, 251.7564
357.2566, 248.6058
357.7387, 244.9873
358.2208, 243.4744
358.7029, 244.5679
359.1850, 245.0324
359.6671, 245.4396
360.1493, 244.7777
360.6314, 240.9518
361.1135, 235.7591
361.5956, 233.3352
362.0777, 236.4115
362.5598, 243.0048
363.0420, 245.7086
363.5241, 241.3719
364.0062, 238.0792
364.4883, 237.9635
364.9704, 238.4452
365.4525, 236.6570
365.9347, 232.2901
366.4168, 228.3874
366.8989, 229.1437
367.3810, 234.9593
367.8631, 238.8058
368.3452, 239.5360
368.8274, 239.2093
369.3095, 238.8602
369.7916, 238.3707
370.2737, 237.4195
370.7558, 235.8951
371.2379, 233.7922
371.7201, 230.5012
372.2022, 225.7360
372.6843, 222.5829
373.1664, 222.6517
373.6485, 225.0561
374.1306, 228.7807
374.6128, 234.6816
375.0949, 238.7117
375.5770, 237.3482
376.0591, 232.8442
376.5412, 229.2558
377.0233, 227.2776
377.5055, 227.2934
377.9876, 230.3048
378.4697, 236.7096
378.9518, 241.5671
379.4339, 244.6627
379.9160, 246.3252
380.3982, 245.9378
380.8803, 244.1821
381.3624, 242.9158
381.8445, 243.2403
382.3266, 244.4029
382.8087, 244.1068
383.2909, 241.2776
383.7730, 238.2645
384.2551, 233.9610
384.7372, 230.2512
385.2193, 228.6599
385.7014, 229.4162
386.1836, 231.8046
386.6657, 235.3931
387.1478, 240.2688
387.6299, 244.4874
388.1120, 249.4794
388.5941, 251.9487
389.0763, 249.3105
389.5584, 243.9116
390.0405, 239.2800
390.5226, 236.8006
391.0047, 235.9599
391.4868, 236.7363
391.9690, 239.5203
392.4511, 239.9738
392.9332, 234.8777
393.4153, 228.8577
393.8974, 226.3854
394.3795, 227.4865
394.8617, 229.3121
395.3438, 231.3636
395.8259, 232.9476
396.3080, 232.4669
396.7901, 229.6701
397.2722, 226.8516
397.7544, 225.6338
398.2365, 225.7656
398.7186, 225.5977
399.2007, 224.8771
399.6828, 224.1503
400.1649, 224.0098
400.6471, 223.9153
401.1292, 222.4224
401.6113, 219.0345
402.0934, 215.8576
402.5755, 216.2411
403.0576, 222.0945
403.5398, 225.7004
404.0219, 226.5964
404.5040, 226.0540
404.9861, 223.4705
405.4682, 219.9768
405.9503, 218.1935
406.4325, 220.0769
406.9146, 224.2080
407.3967, 225.3463
407.8788, 221.8580
408.3609, 218.6878
408.8430, 216.2034
409.3252, 214.7448
409.8073, 214.6515
410.2894, 215.9599
410.7715, 218.3690
411.2536, 222.4416
411.7357, 227.6474
412.2179, 231.1581
412.7000, 232.7135
413.1821, 232.7313
413.6642, 230.9575
414.1463, 227.8636
414.6284, 224.0764
415.1106, 217.8169
415.5927, 213.1871
416.0748, 214.0875
416.5569, 219.1669
417.0390, 224.7978
417.5211, 230.1668
418.0033, 234.0175
418.4854, 234.0259
418.9675, 228.5623
419.4496, 224.7190
419.9317, 224.1335
420.4138, 224.1035
420.8960, 222.1199
421.3781, 218.9266
421.8602, 217.2674
422.3423, 218.9729
422.8244, 223.4677
423.3065, 228.5446
423.7887, 237.8170
424.2708, 241.7101
424.7529, 234.3854
425.2350, 225.0766
425.7171, 221.6509
426.1992, 224.9699
426.6814, 230.0215
427.1635, 232.5219
427.6456, 232.6054
428.1277, 231.4010
428.6098, 228.0205
429.0919, 225.0680
429.5741, 224.4482
430.0562, 224.9387
430.5383, 224.7144
431.0204, 223.1081
431.5025, 221.2230
431.9846, 219.8317
432.4668, 218.8961
432.9489, 218.2859
433.4310, 217.9738
433.9131, 217.9804
434.3952, 218.5695
434.8773, 219.8662
435.3595, 220.1754
435.8416, 218.3926
436.3237, 216.5077
436.8058, 215.9461
437.2879, 216.2936
437.7701, 216.3286
438.2522, 215.4171
438.7343, 213.8725
439.2164, 212.4141
439.6985, 210.4188
440.1806, 209.7087
440.6628, 211.1629
441.1449, 213.0374
441.6270, 214.9473
442.1091, 216.3663
442.5912, 215.9244
443.0733, 211.4814
443.5555, 204.8022
444.0376, 203.6010
444.5197, 210.4336
445.0018, 215.5588
445.4839, 211.9090
445.9660, 206.4810
446.4482, 207.1856
446.9303, 215.8828
447.4124, 223.5091
447.8945, 223.3672
448.3766, 218.4469
448.8587, 214.6552
449.3409, 212.7460
449.8230, 212.0879
450.3051, 212.4594
450.7872, 213.7558
451.2693, 214.7366
451.7514, 215.0484
452.2336, 215.4799
452.7157, 216.7442
453.1978, 218.1179
453.6799, 218.6401
454.1620, 218.0219
454.6441, 216.4389
455.1263, 213.7633
455.6084, 209.3767
456.0905, 207.4209
456.5726, 211.8173
457.0547, 214.6788
457.5368, 211.6144
458.0190, 205.9053
458.5011, 203.2678
458.9832, 206.4989
459.4653, 211.7219
459.9474, 212.9031
460.4295, 209.9546
460.9117, 208.9143
461.3938, 212.3102
461.8759, 216.0363
462.3580, 215.9028
462.8401, 212.6644
463.3222, 210.2340
463.8044, 210.1849
464.2865, 210.9738
464.7686, 210.9681
465.2507, 210.5292
465.7328, 211.6109
466.2149, 215.4273
466.6971, 219.8856
467.1792, 220.7202
467.6613, 215.2128
468.1434, 211.7201
468.6255, 211.4376
469.1076, 212.0803
469.5898, 212.7987
470.0719, 213.2245
470.5540, 212.4646
471.0361, 209.5231
471.5182, 206.1793
472.0003, 208.6887
472.4825, 220.6393
472.9646, 228.5903
473.4467, 226.6814
473.9288, 221.8786
474.4109, 217.8730
474.8930, 215.0250
475.3752, 212.8439
475.8573, 211.1223
476.3394, 209.8621
476.8215, 209.1901
477.3036, 209.1140
477.7857, 209.1603
478.2679, 209.3482
478.7500, 209.3004
479.2321, 207.7250
479.7142, 203.2251
480.1963, 200.8563
480.6784, 203.3262
481.1606, 207.1646
481.6427, 209.5500
482.1248, 210.1484
482.6069, 209.3511
483.0890, 207.0694
483.5711, 204.0603
484.0533, 204.9263
484.5354, 214.6333
485.0175, 219.9281
485.4996, 216.0721
485.9817, 209.6575
486.4638, 205.3328
486.9460, 203.8285
487.4281, 204.0657
487.9102, 206.5850
488.3923, 210.1347
488.8744, 209.8239
489.3565, 204.5560
489.8387, 201.8611
490.3208, 207.7959
490.8029, 217.5448
491.2850, 220.8093
491.7671, 215.4144
492.2492, 210.0049
492.7314, 207.7508
493.2135, 206.8711
493.6956, 205.4568
494.1777, 203.3081
494.6598, 200.9500
495.1419, 198.6260
495.6241, 196.5465
496.1062, 196.0755
496.5883, 198.7910
497.0704, 200.9520
497.5525, 202.2022
498.0346, 202.7823
498.5168, 202.5626
498.9989, 201.7293
499.4810, 201.1369
499.9631, 201.7286
500.4452, 203.1160
500.9273, 204.0020
501.4095, 204.5404
501.8916, 203.7673
502.3737, 199.6308
502.8558, 194.9244
503.3379, 194.1579
503.8200, 198.2234
504.3022, 202.7984
504.7843, 208.0013
505.2664, 211.8684
505.7485, 210.7260
506.2306, 205.1371
506.7127, 200.3261
507.1949, 199.8624
507.6770, 202.8152
508.1591, 205.1761
508.6412, 207.8274
509.1233, 208.4516
509.6054, 205.5411
510.0876, 201.7418
510.5697, 198.2650
511.0518, 195.6409
511.5339, 194.7957
512.0161, 197.2729
512.4982, 201.4445
512.9803, 202.2527
513.4624, 198.9244
513.9445, 197.0850
514.4266, 200.3159
514.9088, 204.5500
515.3909, 203.6803
515.8730, 197.1435
516.3551, 192.9119
516.8372, 195.7863
517.3193, 200.2426
517.8015, 200.8083
518.2836, 198.0770
518.7657, 195.9670
519.2478, 196.6797
519.7299, 198.7025
520.2120, 198.3092
520.6942, 193.5137
521.1763, 190.0735
521.6584, 187.8066
522.1405, 186.8808
522.6226, 188.2589
523.1047, 191.0480
523.5869, 193.1653
524.0690, 193.4668
524.5511, 192.6938
525.0332, 191.3910
525.5153, 189.5745
525.9974, 190.2556
526.4796, 195.7350
526.9617, 201.3428
527.4438, 200.9248
527.9259, 195.3348
528.4080, 191.9447
528.8901, 194.8982
529.3723, 197.2344
529.8544, 192.5409
530.3365, 184.6851
530.8186, 181.9581
531.3007, 187.0717
531.7828, 195.0294
532.2650, 198.9933
532.7471, 198.3835
533.2292, 197.4637
533.7113, 196.4025
534.1934, 194.7862
534.6755, 191.4468
535.1577, 187.8904
535.6398, 186.4500
536.1219, 187.9753
536.6040, 189.8506
537.0861, 189.4424
537.5682, 187.4193
538.0504, 185.6400
538.5325, 184.1908
539.0146, 184.1839
539.4967, 187.3200
539.9788, 192.5048
540.4609, 194.2725
540.9431, 190.3223
541.4252, 186.5461
541.9073, 182.4354
542.3894, 180.1131
542.8715, 183.9160
543.3536, 192.5529
543.8358, 198.1721
544.3179, 193.5335
544.8000, 181.8087
545.2821, 177.8885
545.7642, 185.8187
546.2463, 190.4160
546.7285, 183.4506
547.2106, 175.0142
547.6926, 173.3775
548.1747, 178.3169
548.6569, 183.2104
549.1390, 185.5280
549.6211, 186.1100
550.1032, 185.1756
550.5853, 183.1379
551.0674, 181.6709
551.5496, 181.4753
552.0317, 181.9176
552.5138, 181.9589
552.9959, 181.3795
553.4780, 181.1484
553.9601, 180.7610
554.4423, 181.1994
554.9244, 183.9876
555.4065, 187.5126
555.8886, 189.3632
556.3707, 188.6561
556.8528, 186.2574
557.3350, 182.0519
557.8171, 176.5527
558.2992, 174.4469
558.7813, 177.1169
559.2634, 180.1556
559.7455, 180.5592
560.2277, 179.1152
560.7098, 178.4475
561.1919, 178.4213
561.6740, 179.4373
562.1561, 182.3537
562.6382, 185.9287
563.1204, 189.4538
563.6025, 192.4636
564.0846, 193.8375
564.5667, 192.6237
565.0488, 189.3919
565.5309, 186.1851
566.0131, 182.5076
566.4952, 180.1089
566.9773, 179.3569
567.4594, 179.9961
567.9415, 183.6955
568.4236, 189.2027
568.9058, 191.1560
569.3879, 184.5871
569.8700, 175.9187
570.3521, 171.1022
570.8342, 169.5978
571.3163, 170.2203
571.7985, 172.8281
572.2806, 175.1883
572.7627, 174.2580
573.2448, 169.4202
573.7269, 167.1366
574.2090, 167.3614
574.6912, 170.0273
575.1733, 179.7000
575.6554, 189.4120
576.1375, 189.5357
576.6196, 178.7969
577.1017, 167.9255
577.5839, 168.1404
578.0660, 175.9866
578.5481, 179.6992
579.0302, 178.7448
579.5123, 176.7478
579.9944, 174.6870
580.4766, 173.1180
580.9587, 173.6649
581.4408, 177.2461
581.9229, 178.8175
582.4050, 175.0190
582.8871, 171.4115
583.3693, 172.9660
583.8514, 177.5031
584.3335, 179.3057
584.8156, 175.7164
585.2977, 170.6868
585.7798, 171.2686
586.2620, 178.1771
586.7441, 182.2198
587.2262, 182.1647
587.7083, 180.5484
588.1904, 178.3463
588.6725, 175.6692
589.1547, 172.2329
589.6368, 166.7526
590.1189, 163.8036
590.6010, 167.2832
591.0831, 173.6143
591.5652, 179.0999
592.0474, 183.0072
592.5295, 184.3910
593.0116, 182.2087
593.4937, 178.2196
593.9758, 178.5318
594.4579, 187.1219
594.9401, 190.5424
595.4222, 181.7086
595.9043, 172.8648
596.3864, 170.6434
596.8685, 173.2900
597.3506, 175.6599
597.8328, 175.5542
598.3149, 175.1767
598.7970, 177.5920
599.2791, 181.2026
599.7612, 181.0560
600.2433, 176.1828
600.7255, 171.5805
601.2076, 171.8405
601.6897, 176.1241
602.1718, 177.5391
602.6539, 171.9038
603.1360, 169.1234
603.6182, 172.9978
604.1003, 177.5303
604.5824, 177.8957
605.0645, 174.5141
605.5466, 170.9969
606.0287, 169.1226
606.5109, 168.6161
606.9930, 170.0126
607.4751, 172.8647
607.9572, 173.0952
608.4393, 169.0710
608.9214, 164.6469
609.4036, 163.8404
609.8857, 166.6750
610.3678, 168.6385
610.8499, 170.0805
611.3320, 170.3049
611.8141, 167.2301
612.2963, 164.0626
612.7784, 164.6303
613.2605, 168.8548
613.7426, 173.2307
614.2247, 175.2871
614.7068, 175.4763
615.1890, 174.7346
615.6711, 173.0398
616.1532, 170.6257
616.6353, 166.7643
617.1174, 163.6996
617.5995, 165.2681
618.0817, 171.5864
618.5638, 173.1131
619.0459, 163.8334
619.5280, 156.2390
