##NAMES=Krutaite
##RRUFFID=R060381
##IDEAL CHEMISTRY=Cu^2+^(Se_2_)^2-^
##LOCALITY=El Dragon mine, Potosi, Bolivia
##OWNER=RRUFF
##SOURCE=Michael Scott
##DESCRIPTION=Grey metallic octahedra
##STATUS=The identification of this mineral is confirmed by single-crystal X-ray diffraction and chemical analysis.
##URL=rruff.info/R060381
##MEASURED CHEMISTRY=(Cu_0.67_Ni_0.32_Fe_0.01_)_Î£=1_Se_2.00_
100.7209, 1484.648
101.2030, 1479.239
101.6851, 1466.140
102.1672, 1449.738
102.6494, 1440.936
103.1315, 1445.855
103.6136, 1447.565
104.0957, 1433.572
104.5778, 1409.154
105.0599, 1387.240
105.5421, 1379.719
106.0242, 1388.400
106.5063, 1393.261
106.9884, 1393.962
107.4705, 1390.704
107.9526, 1380.950
108.4348, 1365.431
108.9169, 1348.868
109.3990, 1338.356
109.8811, 1336.988
110.3632, 1337.241
110.8453, 1337.490
111.3275, 1339.622
111.8096, 1348.411
112.2917, 1366.002
112.7738, 1386.685
113.2559, 1388.402
113.7380, 1352.267
114.2202, 1319.952
114.7023, 1299.647
115.1844, 1289.568
115.6665, 1285.361
116.1486, 1285.695
116.6307, 1289.826
117.1129, 1290.956
117.5950, 1285.530
118.0771, 1279.766
118.5592, 1278.523
119.0413, 1282.189
119.5234, 1287.679
120.0056, 1294.526
120.4877, 1301.597
120.9698, 1304.679
121.4519, 1297.832
121.9340, 1286.195
122.4161, 1282.914
122.8982, 1294.118
123.3804, 1306.479
123.8625, 1309.472
124.3446, 1304.648
124.8267, 1299.624
125.3088, 1301.329
125.7909, 1310.474
126.2731, 1316.533
126.7552, 1312.427
127.2373, 1308.828
127.7194, 1309.699
128.2015, 1316.130
128.6837, 1328.407
129.1658, 1349.465
129.6479, 1391.071
130.1300, 1417.287
130.6121, 1405.572
131.0942, 1389.390
131.5764, 1402.892
132.0585, 1461.037
132.5406, 1546.418
133.0227, 1596.760
133.5048, 1570.975
133.9869, 1552.466
134.4691, 1555.627
134.9512, 1572.266
135.4333, 1586.078
135.9154, 1584.962
136.3975, 1571.045
136.8796, 1580.735
137.3618, 1624.490
137.8439, 1676.703
138.3260, 1726.198
138.8081, 1772.853
139.2902, 1821.577
139.7723, 1879.109
140.2545, 1944.956
140.7366, 2000.863
141.2187, 2049.220
141.7008, 2085.622
142.1829, 2107.271
142.6650, 2114.783
143.1472, 2102.611
143.6293, 2055.371
144.1114, 1980.155
144.5935, 1902.183
145.0756, 1828.084
145.5577, 1758.685
146.0399, 1696.910
146.5220, 1646.763
147.0041, 1600.778
147.4862, 1549.917
147.9683, 1494.735
148.4504, 1445.136
148.9326, 1413.446
149.4147, 1401.647
149.8968, 1384.513
150.3789, 1349.208
150.8610, 1312.193
151.3431, 1281.141
151.8252, 1257.942
152.3074, 1241.535
152.7895, 1231.745
153.2716, 1233.253
153.7537, 1231.266
154.2358, 1222.692
154.7179, 1211.152
155.2001, 1199.228
155.6822, 1187.955
156.1643, 1177.550
156.6464, 1168.610
157.1285, 1160.647
157.6106, 1154.987
158.0928, 1152.716
158.5749, 1152.604
159.0570, 1153.149
159.5391, 1153.507
160.0212, 1153.679
160.5033, 1153.641
160.9855, 1150.514
161.4676, 1150.043
161.9497, 1158.323
162.4318, 1171.730
162.9139, 1179.734
163.3960, 1173.016
163.8782, 1150.910
164.3603, 1136.821
164.8424, 1134.261
165.3245, 1135.921
165.8066, 1138.435
166.2887, 1141.301
166.7709, 1143.120
167.2530, 1140.882
167.7351, 1134.889
168.2172, 1135.460
168.6993, 1151.052
169.1814, 1170.924
169.6636, 1180.189
170.1457, 1174.686
170.6278, 1166.817
171.1099, 1170.524
171.5920, 1183.652
172.0741, 1197.102
172.5563, 1210.176
173.0384, 1221.200
173.5205, 1223.781
174.0026, 1211.256
174.4847, 1198.025
174.9668, 1197.427
175.4490, 1208.589
175.9311, 1221.136
176.4132, 1226.180
176.8953, 1224.091
177.3774, 1227.754
177.8595, 1247.636
178.3417, 1267.391
178.8238, 1275.215
179.3059, 1270.305
179.7880, 1262.194
180.2701, 1261.719
180.7522, 1270.870
181.2344, 1279.383
181.7165, 1287.282
182.1986, 1293.107
182.6807, 1295.497
183.1628, 1294.120
183.6449, 1290.153
184.1271, 1284.996
184.6092, 1276.487
185.0913, 1271.367
185.5734, 1271.783
186.0555, 1274.473
186.5376, 1276.544
187.0198, 1276.834
187.5019, 1276.436
187.9840, 1278.328
188.4661, 1285.719
188.9482, 1291.443
189.4303, 1292.736
189.9125, 1292.789
190.3946, 1296.059
190.8767, 1305.085
191.3588, 1317.846
191.8409, 1324.962
192.3230, 1316.665
192.8052, 1313.535
193.2873, 1323.276
193.7694, 1340.416
194.2515, 1355.018
194.7336, 1360.842
195.2157, 1359.048
195.6979, 1361.373
196.1800, 1371.975
196.6621, 1381.430
197.1442, 1384.580
197.6263, 1383.295
198.1084, 1383.564
198.5906, 1389.678
199.0727, 1401.362
199.5548, 1412.266
200.0369, 1420.876
200.5190, 1429.965
201.0011, 1442.178
201.4833, 1457.151
201.9654, 1470.984
202.4475, 1480.066
202.9296, 1485.000
203.4117, 1492.757
203.8938, 1508.219
204.3760, 1523.705
204.8581, 1530.812
205.3402, 1528.730
205.8223, 1526.162
206.3044, 1528.745
206.7865, 1536.354
207.2687, 1549.133
207.7508, 1573.437
208.2329, 1600.496
208.7150, 1616.560
209.1971, 1618.115
209.6792, 1619.300
210.1614, 1633.250
210.6435, 1655.594
211.1256, 1677.023
211.6077, 1695.059
212.0898, 1709.779
212.5719, 1718.509
213.0541, 1714.328
213.5362, 1718.675
214.0183, 1749.015
214.5004, 1798.370
214.9825, 1851.090
215.4646, 1893.316
215.9468, 1930.667
216.4289, 1986.320
216.9110, 2066.201
217.3931, 2159.443
217.8752, 2255.671
218.3573, 2357.587
218.8395, 2472.241
219.3216, 2605.666
219.8037, 2756.870
220.2858, 2921.981
220.7679, 3150.255
221.2500, 3335.543
221.7322, 3398.813
222.2143, 3371.675
222.6964, 3353.561
223.1785, 3425.683
223.6606, 3591.227
224.1427, 3774.949
224.6249, 3993.568
225.1070, 4217.354
225.5891, 4425.337
226.0712, 4624.944
226.5533, 4842.061
227.0354, 5095.468
227.5176, 5381.427
227.9997, 5724.122
228.4818, 6119.733
228.9639, 6577.282
229.4460, 7094.463
229.9281, 7674.244
230.4103, 8330.438
230.8924, 9081.231
231.3745, 9948.492
231.8566, 10827.62
232.3387, 11933.90
232.8208, 12879.46
233.3030, 13486.35
233.7851, 13748.09
234.2672, 13747.07
234.7493, 13545.11
235.2314, 13070.35
235.7135, 12651.23
236.1957, 12364.24
236.6778, 12060.56
237.1599, 11689.37
237.6420, 11232.25
238.1241, 10675.47
238.6062, 10000.46
239.0884, 9177.367
239.5705, 8319.172
240.0526, 7342.868
240.5347, 6406.120
241.0168, 5578.652
241.4989, 4878.801
241.9811, 4327.967
242.4632, 3962.537
242.9453, 3865.537
243.4274, 3706.865
243.9095, 3436.456
244.3916, 3151.995
244.8738, 2905.408
245.3559, 2707.817
245.8380, 2544.999
246.3201, 2401.429
246.8022, 2279.163
247.2843, 2176.831
247.7665, 2099.400
248.2486, 2035.569
248.7307, 1979.050
249.2128, 1928.276
249.6949, 1883.858
250.1770, 1846.896
250.6592, 1819.575
251.1413, 1794.025
251.6234, 1770.700
252.1055, 1748.744
252.5876, 1727.184
253.0697, 1706.092
253.5519, 1686.242
254.0340, 1669.164
254.5161, 1656.197
254.9982, 1640.393
255.4803, 1614.200
255.9624, 1590.226
256.4445, 1582.683
256.9267, 1592.170
257.4088, 1601.506
257.8909, 1591.549
258.3730, 1556.361
258.8551, 1530.435
259.3372, 1516.718
259.8194, 1510.412
260.3015, 1511.428
260.7836, 1518.849
261.2657, 1523.604
261.7478, 1515.454
262.2299, 1491.706
262.7121, 1474.240
263.1942, 1472.038
263.6763, 1470.581
264.1584, 1457.890
264.6405, 1432.921
265.1227, 1401.500
265.6048, 1365.759
266.0869, 1325.478
266.5690, 1299.065
267.0511, 1302.780
267.5332, 1309.772
268.0154, 1293.963
268.4975, 1254.529
268.9796, 1215.367
269.4617, 1196.655
269.9438, 1198.963
270.4259, 1200.088
270.9081, 1199.293
271.3902, 1197.290
271.8723, 1193.621
272.3544, 1188.468
272.8365, 1185.093
273.3186, 1187.838
273.8008, 1195.356
274.2829, 1194.991
274.7650, 1182.020
275.2471, 1164.512
275.7292, 1146.424
276.2113, 1128.334
276.6935, 1112.925
277.1756, 1101.936
277.6577, 1095.776
278.1398, 1092.975
278.6219, 1101.624
279.1040, 1107.148
279.5862, 1095.049
280.0683, 1067.632
280.5504, 1044.255
281.0325, 1038.263
281.5146, 1046.012
281.9967, 1048.732
282.4789, 1041.726
282.9610, 1034.087
283.4431, 1033.379
283.9252, 1038.046
284.4073, 1039.272
284.8894, 1032.291
285.3716, 1018.243
285.8537, 1001.890
286.3358, 976.9291
286.8179, 957.5656
287.3000, 955.9870
287.7821, 968.1407
288.2643, 977.7469
288.7464, 977.1754
289.2285, 969.4553
289.7106, 962.5333
290.1927, 955.1962
290.6748, 950.5766
291.1570, 952.6743
291.6391, 959.1275
292.1212, 962.6351
292.6033, 960.1395
293.0854, 953.4099
293.5675, 945.8446
294.0497, 936.8582
294.5318, 928.5242
295.0139, 920.5358
295.4960, 913.7997
295.9781, 910.7087
296.4602, 912.4922
296.9424, 917.2999
297.4245, 923.9587
297.9066, 935.0480
298.3887, 938.0055
298.8708, 921.6578
299.3529, 895.9338
299.8351, 878.7316
300.3172, 875.5698
300.7993, 878.6902
301.2814, 876.4864
301.7635, 867.8461
302.2456, 864.4678
302.7278, 876.3524
303.2099, 892.4106
303.6920, 895.9561
304.1741, 882.9259
304.6562, 865.0154
305.1383, 854.6539
305.6205, 852.1284
306.1026, 851.7206
306.5847, 854.9882
307.0668, 858.8187
307.5489, 859.5118
308.0310, 856.6153
308.5132, 853.3499
308.9953, 853.3528
309.4774, 856.6982
309.9595, 856.3534
310.4416, 845.7654
310.9237, 835.8287
311.4059, 838.2238
311.8880, 852.1935
312.3701, 863.6179
312.8522, 860.0157
313.3343, 842.5933
313.8164, 834.9702
314.2986, 844.7175
314.7807, 857.0526
315.2628, 865.5157
315.7449, 869.6619
316.2270, 869.0208
316.7091, 862.3691
317.1913, 850.8318
317.6734, 841.3426
318.1555, 832.7355
318.6376, 826.9324
319.1197, 825.4073
319.6018, 827.2449
320.0840, 830.9964
320.5661, 836.5472
321.0482, 842.4437
321.5303, 843.3654
322.0124, 835.8567
322.4945, 828.9863
322.9767, 822.5829
323.4588, 818.4410
323.9409, 820.6814
324.4230, 831.3102
324.9051, 845.3770
325.3872, 853.1285
325.8694, 853.3238
326.3515, 849.0474
326.8336, 833.3688
327.3157, 816.6948
327.7978, 810.9261
328.2799, 818.8597
328.7621, 832.8818
329.2442, 843.2485
329.7263, 850.2656
330.2084, 851.1000
330.6905, 840.0069
331.1726, 827.1542
331.6548, 819.5313
332.1369, 817.9844
332.6190, 819.5613
333.1011, 821.5701
333.5832, 824.3211
334.0653, 825.5850
334.5475, 825.0129
335.0296, 823.5968
335.5117, 821.1928
335.9938, 818.2632
336.4759, 815.9079
336.9580, 815.0901
337.4402, 815.7745
337.9223, 815.6214
338.4044, 815.9170
338.8865, 814.0495
339.3686, 804.7082
339.8507, 793.2853
340.3329, 789.9514
340.8150, 801.2142
341.2971, 822.6350
341.7792, 835.1713
342.2613, 833.0104
342.7434, 828.3286
343.2256, 820.4081
343.7077, 811.5874
344.1898, 804.0483
344.6719, 798.6602
345.1540, 795.1413
345.6361, 792.9580
346.1183, 792.3111
346.6004, 792.7938
347.0825, 794.8771
347.5646, 797.5023
348.0467, 799.6415
348.5288, 801.2011
349.0110, 803.2705
349.4931, 808.8351
349.9752, 820.9138
350.4573, 824.4112
350.9394, 807.7523
351.4215, 791.7433
351.9037, 787.2325
352.3858, 792.9099
352.8679, 800.0167
353.3500, 800.0082
353.8321, 793.2442
354.3142, 792.6707
354.7964, 805.6102
355.2785, 815.9019
355.7606, 816.2057
356.2427, 809.4546
356.7248, 801.4508
357.2069, 794.6576
357.6891, 789.3851
358.1712, 786.6930
358.6533, 787.0175
359.1354, 789.0397
359.6175, 793.9321
360.0996, 799.4828
360.5818, 803.2983
361.0639, 804.7499
361.5460, 803.8859
362.0281, 799.5327
362.5102, 791.0311
362.9923, 784.9417
363.4745, 785.5847
363.9566, 788.2090
364.4387, 787.2951
364.9208, 781.6116
365.4029, 777.6816
365.8850, 784.1315
366.3672, 798.0782
366.8493, 802.3032
367.3314, 787.6860
367.8135, 770.3990
368.2956, 769.3774
368.7777, 783.2274
369.2599, 794.0214
369.7420, 790.7570
370.2241, 780.7966
370.7062, 778.0720
371.1883, 785.4586
371.6704, 792.0149
372.1526, 785.9149
372.6347, 769.8687
373.1168, 759.7844
373.5989, 759.9951
374.0810, 765.0863
374.5631, 773.6097
375.0453, 784.4989
375.5274, 790.2388
376.0095, 784.3758
376.4916, 770.5515
376.9737, 764.7223
377.4558, 772.8641
377.9380, 781.0925
378.4201, 784.3875
378.9022, 784.2646
379.3843, 783.2997
379.8664, 782.3929
380.3485, 781.7516
380.8307, 782.0259
381.3128, 785.5182
381.7949, 785.5588
382.2770, 778.1693
382.7591, 769.0908
383.2412, 763.4111
383.7234, 762.2034
384.2055, 764.3665
384.6876, 769.2486
385.1697, 778.5954
385.6518, 782.8856
386.1339, 777.6153
386.6161, 772.3773
387.0982, 773.4728
387.5803, 778.9390
388.0624, 782.2223
388.5445, 778.1990
389.0266, 767.6978
389.5088, 759.8461
389.9909, 756.9731
390.4730, 754.3016
390.9551, 750.1863
391.4372, 746.1117
391.9193, 743.9905
392.4015, 744.6617
392.8836, 747.4320
393.3657, 751.1329
393.8478, 756.2155
394.3299, 761.0490
394.8120, 764.7463
395.2942, 768.5887
395.7763, 775.1182
396.2584, 784.0670
396.7405, 790.1386
397.2226, 787.0332
397.7047, 774.7045
398.1869, 761.5837
398.6690, 742.6448
399.1511, 730.1846
399.6332, 734.9789
400.1153, 751.7908
400.5974, 765.4495
401.0796, 765.3633
401.5617, 757.5035
402.0438, 755.9272
402.5259, 762.4335
403.0080, 768.1011
403.4901, 765.7459
403.9723, 760.1487
404.4544, 759.2065
404.9365, 767.8093
405.4186, 775.4109
405.9007, 770.4911
406.3828, 755.6228
406.8650, 744.8270
407.3471, 743.2017
407.8292, 747.8926
408.3113, 755.9154
408.7934, 768.9710
409.2755, 776.9431
409.7577, 770.8783
410.2398, 760.1132
410.7219, 758.6276
411.2040, 768.9143
411.6861, 781.6882
412.1682, 787.7371
412.6504, 785.9574
413.1325, 785.3107
413.6146, 788.3107
414.0967, 790.1277
414.5788, 786.3521
415.0609, 778.8311
415.5431, 773.3328
416.0252, 773.5758
416.5073, 778.3195
416.9894, 781.7172
417.4715, 780.5902
417.9536, 782.0230
418.4358, 789.1467
418.9179, 798.0397
419.4000, 804.7975
419.8821, 808.1696
420.3642, 809.1685
420.8463, 808.5574
421.3285, 804.0948
421.8106, 804.3488
422.2927, 815.0789
422.7748, 825.1984
423.2569, 828.3245
423.7390, 825.5935
424.2212, 822.6111
424.7033, 823.7452
425.1854, 828.2939
425.6675, 831.8196
426.1496, 832.9453
426.6317, 835.4130
427.1139, 840.0764
427.5960, 846.8640
428.0781, 856.6553
428.5602, 870.9102
429.0423, 884.7720
429.5244, 891.3010
430.0066, 890.3385
430.4887, 888.8824
430.9708, 885.6857
431.4529, 886.2012
431.9350, 897.0636
432.4171, 918.8447
432.8993, 940.3741
433.3814, 954.1910
433.8635, 964.7266
434.3456, 982.0919
434.8277, 1008.586
435.3098, 1033.168
435.7920, 1045.045
436.2741, 1045.182
436.7562, 1049.808
437.2383, 1064.685
437.7204, 1079.359
438.2025, 1087.500
438.6847, 1090.373
439.1668, 1092.087
439.6489, 1094.581
440.1310, 1097.389
440.6131, 1099.274
441.0952, 1102.075
441.5774, 1101.249
442.0595, 1094.013
442.5416, 1084.565
443.0237, 1075.188
443.5058, 1067.041
443.9879, 1062.811
444.4701, 1067.040
444.9522, 1082.270
445.4343, 1087.633
445.9164, 1074.258
446.3985, 1059.789
446.8806, 1046.562
447.3628, 1036.687
447.8449, 1033.526
448.3270, 1039.714
448.8091, 1051.610
449.2912, 1060.298
449.7733, 1064.799
450.2555, 1068.716
450.7376, 1073.290
451.2197, 1077.427
451.7018, 1081.662
452.1839, 1085.965
452.6660, 1085.609
453.1482, 1070.994
453.6303, 1046.862
454.1124, 1037.224
454.5945, 1049.644
455.0766, 1066.020
455.5587, 1071.152
456.0409, 1068.088
456.5230, 1064.671
457.0051, 1064.158
457.4872, 1062.840
457.9693, 1056.742
458.4514, 1046.509
458.9336, 1035.593
459.4157, 1024.923
459.8978, 1015.519
460.3799, 1010.909
460.8620, 1014.803
461.3441, 1015.664
461.8262, 1010.177
462.3083, 1001.384
462.7905, 992.5562
463.2726, 984.2197
463.7547, 974.4685
464.2368, 960.3193
464.7189, 940.3321
465.2010, 928.8964
465.6832, 936.6766
466.1653, 941.1797
466.6474, 930.8266
467.1295, 913.2068
467.6116, 902.2261
468.0938, 905.5175
468.5759, 915.4209
469.0580, 914.1315
469.5401, 897.3658
470.0222, 881.5443
470.5043, 868.9530
470.9865, 858.6414
471.4686, 851.0056
471.9507, 845.7114
472.4328, 840.1674
472.9149, 831.5542
473.3970, 821.0617
473.8792, 812.9786
474.3613, 807.6661
474.8434, 804.2263
475.3255, 802.0143
475.8076, 801.3320
476.2897, 803.3252
476.7719, 811.7575
477.2540, 818.3097
477.7361, 816.0165
478.2182, 807.0729
478.7003, 797.7930
479.1824, 790.1826
479.6646, 783.6047
480.1467, 776.1776
480.6288, 764.7454
481.1109, 763.3869
481.5930, 785.5679
482.0751, 808.1176
482.5573, 812.6959
483.0394, 801.1650
483.5215, 787.2652
484.0036, 780.9201
484.4857, 780.7017
484.9678, 776.9256
485.4500, 762.3932
485.9321, 754.0803
486.4142, 759.7256
486.8963, 769.3151
487.3784, 772.8647
487.8605, 768.0006
488.3427, 760.2614
488.8248, 755.6292
489.3069, 754.2175
489.7890, 753.5923
490.2711, 754.5317
490.7532, 755.0325
491.2354, 753.0110
491.7175, 749.7764
492.1996, 748.5899
492.6817, 752.8457
493.1638, 757.5163
493.6459, 755.4962
494.1281, 747.3117
494.6102, 740.1500
495.0923, 736.1052
495.5744, 735.2340
496.0565, 739.5731
496.5386, 751.7834
497.0208, 757.1284
497.5029, 744.1749
497.9850, 727.6053
498.4671, 724.2058
498.9492, 734.0881
499.4313, 744.0480
499.9135, 742.8848
500.3956, 731.8568
500.8777, 727.9421
501.3598, 740.7881
501.8419, 749.1706
502.3240, 742.9025
502.8062, 733.5477
503.2883, 736.9262
503.7704, 756.7748
504.2525, 778.9350
504.7346, 782.9679
505.2167, 765.3828
505.6989, 755.0605
506.1810, 760.1143
506.6631, 764.0845
507.1452, 757.0956
507.6273, 743.2961
508.1094, 732.0429
508.5916, 727.1435
509.0737, 726.8187
509.5558, 729.8542
510.0379, 736.1172
510.5200, 742.6055
511.0021, 749.8564
511.4843, 754.9237
511.9664, 751.5944
512.4485, 738.3986
512.9306, 729.0704
513.4127, 729.8535
513.8948, 734.3395
514.3770, 736.3179
514.8591, 735.5529
515.3412, 735.1840
515.8233, 737.6999
516.3054, 742.3210
516.7875, 743.9620
517.2697, 738.0769
517.7518, 734.8121
518.2339, 738.4997
518.7160, 743.3246
519.1981, 742.0514
519.6802, 734.0444
520.1624, 726.6315
520.6445, 729.7694
521.1266, 743.8949
521.6087, 750.2095
522.0908, 743.3952
522.5729, 736.4440
523.0551, 736.5537
523.5372, 739.8785
524.0193, 740.0805
524.5014, 734.2206
524.9835, 727.1567
525.4656, 724.2879
525.9478, 724.6957
526.4299, 722.3413
526.9120, 713.8139
527.3941, 706.9966
527.8762, 714.6080
528.3583, 737.5880
528.8405, 750.0397
529.3226, 741.0121
529.8047, 728.3448
530.2868, 722.9756
530.7689, 723.7268
531.2510, 725.5089
531.7332, 725.7748
532.2153, 725.2990
532.6974, 726.2103
533.1795, 731.0950
533.6616, 732.5140
534.1437, 726.2741
534.6259, 720.3865
535.1080, 721.3265
535.5901, 727.6395
536.0722, 732.5759
536.5543, 730.9979
537.0364, 724.6989
537.5186, 718.7250
538.0007, 712.6027
538.4828, 708.4689
538.9649, 706.2153
539.4470, 707.1483
539.9291, 714.5979
540.4113, 730.2384
540.8934, 741.9038
541.3755, 740.1864
541.8576, 732.0042
542.3397, 727.6960
542.8218, 728.4615
543.3040, 731.9173
543.7861, 737.7764
544.2682, 744.9177
544.7503, 743.3271
545.2324, 721.9227
545.7145, 706.8121
546.1967, 709.4995
546.6788, 717.7102
547.1609, 715.9849
547.6430, 702.1459
548.1251, 688.6658
548.6072, 690.8864
549.0894, 709.5469
549.5715, 721.4367
550.0536, 722.8153
550.5357, 722.5695
551.0178, 724.7410
551.4999, 727.2620
551.9821, 727.4526
552.4642, 724.5981
552.9463, 719.0762
553.4284, 708.2651
553.9105, 694.4679
554.3926, 688.1623
554.8748, 692.7041
555.3569, 699.7100
555.8390, 701.4382
556.3211, 697.8994
556.8032, 695.5738
557.2853, 693.3549
557.7675, 693.6350
558.2496, 700.5086
558.7317, 709.9419
559.2138, 714.6884
559.6959, 712.2057
560.1780, 706.1213
560.6602, 701.3536
561.1423, 697.2876
561.6244, 697.0079
562.1065, 706.3576
562.5886, 713.7966
563.0707, 713.2289
563.5529, 708.2729
564.0350, 706.1328
564.5171, 710.6453
564.9992, 716.8873
565.4813, 717.3149
565.9634, 712.4151
566.4456, 710.4669
566.9277, 714.4516
567.4098, 719.9100
567.8919, 723.9504
568.3740, 726.4013
568.8561, 721.8894
569.3383, 699.2333
569.8204, 678.9060
570.3025, 677.3198
570.7846, 688.4747
571.2667, 697.0746
571.7488, 696.7235
572.2310, 692.0795
572.7131, 691.2629
573.1952, 695.1043
573.6773, 700.6596
574.1594, 714.5629
574.6415, 723.5607
575.1237, 717.1423
575.6058, 701.8241
576.0879, 691.5883
576.5700, 693.7870
577.0521, 702.6332
577.5342, 710.2552
578.0164, 716.6383
578.4985, 721.7237
578.9806, 726.2430
579.4627, 728.3013
579.9448, 724.4604
580.4269, 715.4796
580.9091, 707.6508
581.3912, 701.1856
581.8733, 697.1089
582.3554, 697.5931
582.8375, 700.9796
583.3196, 703.4411
583.8018, 703.4105
584.2839, 701.1490
584.7660, 696.0923
585.2481, 683.8481
585.7302, 681.6537
586.2123, 702.0302
586.6945, 719.3356
587.1766, 719.9693
587.6587, 709.9600
588.1408, 702.5938
588.6229, 704.4679
589.1050, 709.7993
589.5872, 708.7650
590.0693, 701.7910
590.5514, 701.7091
591.0335, 714.5630
591.5156, 728.7943
591.9977, 731.5392
592.4799, 724.4515
592.9620, 719.1572
593.4441, 718.7809
593.9262, 719.0399
594.4083, 718.7278
594.8904, 717.0219
595.3726, 711.0135
595.8547, 699.8390
596.3368, 688.9611
596.8189, 687.1030
597.3010, 696.8568
597.7831, 703.1466
