##NAMES=Kryzhanovskite
##RRUFFID=R130691
##IDEAL CHEMISTRY=(Fe^3+^,Mn^2+^)_3_(PO_4_)_2_(OH,H_2_O)_3_
##LOCALITY=Rapid Creek, Dawson Mining District, Yukon Territory, Canada
##OWNER=RRUFF
##SOURCE=Rob Lavinsky
##DESCRIPTION=Euhedral reddish brown crystals
##STATUS=The identification of this mineral is confirmed by single-crystal X-ray diffraction and chemical analysis.
##URL=rruff.info/R130691
##MEASURED CHEMISTRY=(Fe^3+^_1.69_Mg_1.18_Mn_0.09_)(PO_4_)_2_(OH)_1.61_Â·1.35H_2_O
203.1412, 188.7503
203.6233, 189.4475
204.1054, 189.5004
204.5875, 188.6075
205.0696, 186.9335
205.5518, 186.1408
206.0339, 186.5455
206.5160, 187.0955
206.9981, 186.5679
207.4802, 184.7002
207.9623, 183.0378
208.4445, 182.0559
208.9266, 181.7041
209.4087, 180.8442
209.8908, 179.2786
210.3729, 177.5556
210.8550, 176.3427
211.3372, 175.8507
211.8193, 175.1433
212.3014, 173.8870
212.7835, 172.0910
213.2656, 170.6338
213.7477, 169.5451
214.2299, 168.7381
214.7120, 168.1149
215.1941, 167.6384
215.6762, 167.4259
216.1583, 167.5613
216.6404, 168.0623
217.1226, 168.4559
217.6047, 168.5925
218.0868, 168.7952
218.5689, 169.5145
219.0510, 170.9885
219.5331, 172.4327
220.0153, 173.6983
220.4974, 174.7928
220.9795, 175.6555
221.4616, 176.1005
221.9437, 176.5212
222.4258, 177.5097
222.9080, 179.4588
223.3901, 181.1376
223.8722, 182.2668
224.3543, 182.8846
224.8364, 182.6066
225.3185, 180.5038
225.8007, 178.3632
226.2828, 178.6926
226.7649, 182.9484
227.2470, 186.7981
227.7291, 189.0896
228.2112, 189.7586
228.6934, 189.5794
229.1755, 188.2229
229.6576, 186.3102
230.1397, 184.5763
230.6218, 182.7265
231.1039, 181.5824
231.5861, 181.5809
232.0682, 182.9776
232.5503, 183.6940
233.0324, 183.3651
233.5145, 182.6765
233.9966, 182.5188
234.4788, 183.2357
234.9609, 183.8724
235.4430, 184.0981
235.9251, 183.7938
236.4072, 183.9723
236.8893, 184.9861
237.3715, 186.1897
237.8536, 186.7057
238.3357, 185.9782
238.8178, 185.5464
239.2999, 185.9028
239.7820, 187.1830
240.2642, 188.1507
240.7463, 188.6539
241.2284, 188.9652
241.7105, 189.4198
242.1926, 190.0997
242.6747, 190.7607
243.1569, 191.3165
243.6390, 191.7429
244.1211, 192.2818
244.6032, 193.0230
245.0853, 193.8001
245.5674, 194.3867
246.0496, 194.5750
246.5317, 194.9698
247.0138, 195.7859
247.4959, 197.0841
247.9780, 198.1839
248.4601, 199.1168
248.9423, 199.8426
249.4244, 200.2588
249.9065, 200.1026
250.3886, 200.1773
250.8707, 200.7605
251.3528, 201.8833
251.8350, 202.7089
252.3171, 203.1458
252.7992, 203.3766
253.2813, 203.5634
253.7634, 203.6630
254.2455, 203.7996
254.7277, 203.9919
255.2098, 204.2387
255.6919, 204.5126
256.1740, 204.7329
256.6561, 205.0715
257.1382, 205.7272
257.6204, 206.8670
258.1025, 207.9346
258.5846, 208.8681
259.0667, 209.6646
259.5488, 210.0969
260.0309, 209.9762
260.5131, 209.7587
260.9952, 209.8682
261.4773, 210.4409
261.9594, 210.9696
262.4415, 211.3666
262.9236, 211.6474
263.4058, 211.9358
263.8879, 212.3049
264.3700, 212.5682
264.8521, 212.4391
265.3342, 211.6091
265.8163, 211.4867
266.2985, 212.5486
266.7806, 214.5103
267.2627, 215.7446
267.7448, 216.0600
268.2269, 216.0261
268.7090, 216.0415
269.1912, 216.1387
269.6733, 216.1261
270.1554, 215.9425
270.6375, 215.6373
271.1196, 215.3882
271.6017, 215.1539
272.0839, 215.0832
272.5660, 215.3015
273.0481, 215.8391
273.5302, 216.5072
274.0123, 217.4205
274.4944, 218.3782
274.9766, 218.7742
275.4587, 218.5376
275.9408, 218.0288
276.4229, 217.3064
276.9050, 216.3094
277.3871, 215.8864
277.8693, 216.2538
278.3514, 217.0496
278.8335, 217.4353
279.3156, 217.3460
279.7977, 217.2567
280.2798, 217.4945
280.7620, 218.0599
281.2441, 218.3858
281.7262, 218.3767
282.2083, 218.2376
282.6904, 218.3867
283.1725, 218.8484
283.6547, 219.2239
284.1368, 219.1572
284.6189, 218.7168
285.1010, 218.8229
285.5831, 219.6177
286.0652, 220.6135
286.5474, 221.1042
287.0295, 221.0973
287.5116, 220.9553
287.9937, 220.7310
288.4758, 220.4700
288.9579, 220.5101
289.4401, 220.9028
289.9222, 221.3339
290.4043, 221.4197
290.8864, 221.1888
291.3685, 220.8567
291.8506, 220.4134
292.3328, 219.9404
292.8149, 219.7450
293.2970, 219.8449
293.7791, 219.9821
294.2612, 219.9127
294.7433, 219.6609
295.2255, 219.3188
295.7076, 218.9167
296.1897, 218.4448
296.6718, 217.8900
297.1539, 217.2554
297.6360, 216.5502
298.1182, 215.7003
298.6003, 214.7865
299.0824, 213.9956
299.5645, 213.4074
300.0466, 212.9324
300.5287, 212.4839
301.0109, 212.0544
301.4930, 211.5684
301.9751, 210.9851
302.4572, 210.3102
302.9393, 209.5449
303.4214, 208.6255
303.9036, 207.7194
304.3857, 207.0116
304.8678, 206.4749
305.3499, 205.9926
305.8320, 205.5836
306.3141, 205.1609
306.7963, 204.6332
307.2784, 203.9827
307.7605, 203.2157
308.2426, 202.1876
308.7247, 201.0297
309.2068, 200.0587
309.6890, 199.6680
310.1711, 199.3941
310.6532, 198.8209
311.1353, 197.8614
311.6174, 196.8138
312.0995, 195.7395
312.5817, 194.7294
313.0638, 193.9145
313.5459, 193.6605
314.0280, 193.3767
314.5101, 192.6048
314.9922, 191.2869
315.4744, 190.0668
315.9565, 189.3066
316.4386, 188.8042
316.9207, 188.3380
317.4028, 188.0582
317.8849, 187.6008
318.3671, 186.7418
318.8492, 185.4939
319.3313, 184.2680
319.8134, 182.9798
320.2955, 181.8779
320.7776, 181.1724
321.2598, 181.4222
321.7419, 181.5112
322.2240, 181.0639
322.7061, 180.1845
323.1882, 179.4329
323.6703, 179.0627
324.1525, 178.7423
324.6346, 178.2873
325.1167, 177.4359
325.5988, 176.7751
326.0809, 176.5213
326.5630, 176.5114
327.0452, 176.2959
327.5273, 175.6698
328.0094, 174.9948
328.4915, 174.4001
328.9736, 173.9604
329.4557, 173.4452
329.9379, 172.6640
330.4200, 171.8654
330.9021, 171.4864
331.3842, 172.0169
331.8663, 172.3064
332.3484, 171.9686
332.8306, 170.8877
333.3127, 169.9458
333.7948, 169.0381
334.2769, 168.3594
334.7590, 168.2530
335.2411, 169.2174
335.7233, 169.5981
336.2054, 168.7859
336.6875, 166.8955
337.1696, 165.9722
337.6517, 166.3337
338.1339, 167.0569
338.6160, 167.4036
339.0981, 167.3156
339.5802, 167.1411
340.0623, 166.8692
340.5444, 166.5705
341.0266, 166.5360
341.5087, 166.8122
341.9908, 167.1106
342.4729, 167.2877
342.9550, 167.3395
343.4371, 167.1550
343.9193, 166.6178
344.4014, 166.0405
344.8835, 166.0786
345.3656, 166.7276
345.8477, 167.4057
346.3298, 167.9018
346.8120, 168.2083
347.2941, 168.1825
347.7762, 167.7693
348.2583, 167.3201
348.7404, 167.3101
349.2225, 167.6480
349.7047, 167.9346
350.1868, 167.8766
350.6689, 167.7344
351.1510, 168.0845
351.6331, 168.9142
352.1152, 169.6908
352.5974, 169.8148
353.0795, 169.5892
353.5616, 169.5958
354.0437, 170.1252
354.5258, 170.7785
355.0079, 171.1859
355.4901, 171.3737
355.9722, 171.4692
356.4543, 171.4233
356.9364, 171.3864
357.4185, 171.5137
357.9006, 171.8481
358.3828, 172.3099
358.8649, 172.9339
359.3470, 173.6506
359.8291, 174.3243
360.3112, 174.8243
360.7933, 175.3160
361.2755, 175.9303
361.7576, 176.7028
362.2397, 177.4104
362.7218, 177.9005
363.2039, 178.3033
363.6860, 178.7644
364.1682, 179.5703
364.6503, 180.2005
365.1324, 180.2968
365.6145, 179.8937
366.0966, 179.8646
366.5787, 180.7572
367.0609, 181.8164
367.5430, 182.5583
368.0251, 182.5518
368.5072, 182.6943
368.9893, 183.0994
369.4714, 183.7038
369.9536, 184.2950
370.4357, 184.8613
370.9178, 185.4310
371.3999, 186.0153
371.8820, 186.6439
372.3641, 187.2498
372.8463, 187.9977
373.3284, 188.6080
373.8105, 188.5363
374.2926, 187.3358
374.7747, 186.4619
375.2568, 186.4041
375.7390, 187.1722
376.2211, 187.8271
376.7032, 188.3595
377.1853, 188.8068
377.6674, 189.2020
378.1495, 189.5392
378.6317, 189.8904
379.1138, 190.3022
379.5959, 190.7203
380.0780, 190.9987
380.5601, 191.1361
381.0422, 191.1432
381.5244, 190.8805
382.0065, 190.4407
382.4886, 190.4278
382.9707, 191.0169
383.4528, 191.7186
383.9349, 191.7768
384.4171, 191.2918
384.8992, 190.8153
385.3813, 190.5495
385.8634, 190.4822
386.3455, 190.7240
386.8276, 191.2959
387.3098, 191.6923
387.7919, 191.1867
388.2740, 190.2378
388.7561, 189.6761
389.2382, 189.9743
389.7203, 190.5596
390.2025, 191.0221
390.6846, 191.3721
391.1667, 191.6754
391.6488, 192.2880
392.1309, 192.6870
392.6130, 192.2997
393.0952, 190.5451
393.5773, 189.0637
394.0594, 188.7919
394.5415, 189.2588
395.0236, 189.5898
395.5057, 189.2916
395.9879, 189.0110
396.4700, 189.0799
396.9521, 189.6064
397.4342, 189.9318
397.9163, 189.8950
398.3984, 189.6433
398.8806, 189.3111
399.3627, 188.7041
399.8448, 188.2517
400.3269, 188.0727
400.8090, 188.1226
401.2911, 188.0738
401.7733, 187.8852
402.2554, 187.6458
402.7375, 187.4058
403.2196, 187.1952
403.7017, 186.8957
404.1838, 186.4541
404.6660, 185.9663
405.1481, 185.6168
405.6302, 185.4119
406.1123, 185.3141
406.5944, 185.3078
407.0765, 185.3948
407.5587, 185.6169
408.0408, 185.9919
408.5229, 186.4327
409.0050, 187.0175
409.4871, 187.6992
409.9692, 187.7827
410.4514, 186.8295
410.9335, 185.5116
411.4156, 185.3748
411.8977, 186.3275
412.3798, 187.3013
412.8619, 187.5540
413.3441, 187.3274
413.8262, 187.0018
414.3083, 186.5621
414.7904, 186.3152
415.2725, 186.8453
415.7546, 187.7815
416.2368, 188.3662
416.7189, 187.8459
417.2010, 187.1290
417.6831, 186.9941
418.1652, 187.4211
418.6473, 187.8200
419.1295, 187.7022
419.6116, 187.4941
420.0937, 187.6013
420.5758, 188.4668
421.0579, 189.1563
421.5400, 189.2520
422.0222, 188.9503
422.5043, 188.7390
422.9864, 188.8346
423.4685, 188.9525
423.9506, 188.9980
424.4327, 188.9685
424.9149, 188.8563
425.3970, 188.5878
425.8791, 188.2800
426.3612, 188.0452
426.8433, 187.9174
427.3254, 187.8107
427.8076, 187.7339
428.2897, 187.6715
428.7718, 187.5028
429.2539, 187.1482
429.7360, 186.8436
430.2181, 186.8293
430.7003, 187.2088
431.1824, 187.1258
431.6645, 186.4328
432.1466, 185.4596
432.6287, 184.7664
433.1108, 184.3649
433.5930, 184.0036
434.0751, 183.6053
434.5572, 183.1761
435.0393, 182.7088
435.5214, 182.2052
436.0035, 181.7382
436.4857, 181.4292
436.9678, 181.2125
437.4499, 180.9461
437.9320, 180.6578
438.4141, 180.1893
438.8962, 179.2021
439.3784, 177.8602
439.8605, 176.6473
440.3426, 175.8243
440.8247, 175.2396
441.3068, 174.7145
441.7889, 174.2213
442.2711, 174.0098
442.7532, 174.6427
443.2353, 175.4443
443.7174, 175.7127
444.1995, 174.8075
444.6816, 173.8095
445.1638, 172.8530
445.6459, 172.0041
446.1280, 171.5049
446.6101, 171.6431
447.0922, 171.9306
447.5743, 172.1438
448.0565, 172.1564
448.5386, 172.4121
449.0207, 173.1246
449.5028, 173.9447
449.9849, 174.4034
450.4670, 174.3893
450.9492, 174.2718
451.4313, 174.1138
451.9134, 173.9189
452.3955, 173.7060
452.8776, 173.4811
453.3597, 173.2404
453.8419, 172.9314
454.3240, 172.5630
454.8061, 172.3881
455.2882, 172.4555
455.7703, 172.6536
456.2524, 172.8114
456.7346, 172.9438
457.2167, 173.1367
457.6988, 173.5335
458.1809, 173.9673
458.6630, 174.1425
459.1451, 174.0654
459.6273, 173.8854
460.1094, 173.4953
460.5915, 173.1470
461.0736, 173.2399
461.5557, 174.0981
462.0378, 174.8873
462.5200, 174.9556
463.0021, 174.5791
463.4842, 174.2913
463.9663, 174.3674
464.4484, 174.5230
464.9305, 174.6240
465.4127, 174.6581
465.8948, 174.7343
466.3769, 174.9311
466.8590, 175.1452
467.3411, 175.3002
467.8232, 175.2025
468.3054, 175.3065
468.7875, 175.7516
469.2696, 176.3819
469.7517, 176.8051
470.2338, 176.9118
470.7159, 177.0035
471.1981, 177.1778
471.6802, 177.4357
472.1623, 177.7640
472.6444, 178.2061
473.1265, 178.5892
473.6086, 178.6883
474.0908, 178.5080
474.5729, 178.3518
475.0550, 178.2330
475.5371, 178.2266
476.0192, 178.5911
476.5013, 179.2706
476.9835, 179.8274
477.4656, 179.8511
477.9477, 179.6586
478.4298, 179.8522
478.9119, 180.4691
479.3940, 180.9931
479.8762, 180.9315
480.3583, 180.5593
480.8404, 180.2435
481.3225, 180.1430
481.8046, 180.0517
482.2867, 179.7539
482.7689, 179.3792
483.2510, 179.2568
483.7331, 179.9551
484.2152, 180.5419
484.6973, 180.5060
485.1794, 179.6441
485.6616, 179.0529
486.1437, 179.1620
486.6258, 179.3740
487.1079, 179.1932
487.5900, 178.1251
488.0721, 177.5591
488.5543, 177.8308
489.0364, 178.6107
489.5185, 178.9594
490.0006, 178.8036
490.4827, 178.4196
490.9648, 177.7994
491.4470, 176.9675
491.9291, 176.6042
492.4112, 176.7868
492.8933, 177.0773
493.3754, 177.1039
493.8575, 176.8768
494.3397, 176.3562
494.8218, 175.3834
495.3039, 174.4167
495.7860, 174.2321
496.2681, 174.6350
496.7502, 174.9563
497.2324, 174.8404
497.7145, 174.4778
498.1966, 174.0454
498.6787, 173.5492
499.1608, 172.9145
499.6429, 171.8628
500.1251, 170.7739
500.6072, 169.9678
501.0893, 169.7809
501.5714, 169.5246
502.0535, 168.9573
502.5356, 168.2165
503.0178, 167.6171
503.4999, 167.3523
503.9820, 167.0401
504.4641, 166.6091
504.9462, 166.0631
505.4283, 165.3480
505.9105, 164.3269
506.3926, 163.3631
506.8747, 162.8161
507.3568, 162.7910
507.8389, 162.4354
508.3210, 161.5640
508.8032, 160.5341
509.2853, 160.0345
509.7674, 160.0322
510.2495, 159.9935
510.7316, 159.6873
511.2137, 159.1984
511.6959, 158.6829
512.1780, 158.1444
512.6601, 157.5978
513.1422, 157.0631
513.6243, 156.5230
514.1064, 155.9042
514.5886, 155.1186
515.0707, 154.5341
515.5528, 154.6116
516.0349, 154.9791
516.5170, 155.0986
516.9991, 154.5070
517.4813, 153.9432
517.9634, 153.6586
518.4455, 153.6326
518.9276, 153.6387
519.4097, 153.4341
519.8918, 153.4576
520.3740, 153.9542
520.8561, 155.1701
521.3382, 156.0306
521.8203, 156.3625
522.3024, 156.5343
522.7845, 157.0119
523.2667, 157.8657
523.7488, 158.5832
524.2309, 158.9575
524.7130, 159.2199
525.1951, 160.0174
525.6772, 161.3453
526.1594, 162.7665
526.6415, 164.1853
527.1236, 165.5107
527.6057, 166.3700
528.0878, 166.7426
528.5699, 167.2767
529.0521, 168.7672
529.5342, 170.6476
530.0163, 172.1179
530.4984, 172.6610
530.9805, 173.3048
531.4626, 174.8585
531.9448, 176.8841
532.4269, 178.5258
532.9090, 179.1131
533.3911, 179.7010
533.8732, 180.6778
534.3553, 182.0614
534.8375, 183.4153
535.3196, 184.7787
535.8017, 186.0403
536.2838, 187.1425
536.7659, 188.1099
537.2480, 188.8093
537.7302, 189.0675
538.2123, 189.2888
538.6944, 190.2069
539.1765, 191.9009
539.6586, 193.2818
540.1407, 194.0136
540.6229, 194.2767
541.1050, 194.3662
541.5871, 194.3027
542.0692, 194.2650
542.5513, 194.4603
543.0334, 194.7230
543.5156, 194.7327
543.9977, 194.4579
544.4798, 194.2759
544.9619, 194.6416
545.4440, 195.1647
545.9261, 195.3942
546.4083, 194.8662
546.8904, 194.5179
547.3725, 194.8467
547.8546, 195.5596
548.3367, 196.0405
548.8188, 196.1178
549.3010, 196.0255
549.7831, 195.7893
550.2652, 195.4091
550.7473, 194.9943
551.2294, 194.5242
551.7115, 194.0543
552.1937, 193.5939
552.6758, 193.1334
553.1579, 192.8625
553.6400, 192.8769
554.1221, 192.8511
554.6042, 192.2251
555.0864, 191.1052
555.5685, 190.1436
556.0506, 189.5604
556.5327, 189.2117
557.0148, 189.0234
557.4969, 188.9302
557.9791, 188.6903
558.4612, 188.1336
558.9433, 187.3922
559.4254, 186.4692
559.9075, 185.3554
560.3896, 184.4863
560.8718, 184.2188
561.3539, 184.1627
561.8360, 184.0490
562.3181, 184.0632
562.8002, 183.6630
563.2823, 182.5224
563.7645, 181.0981
564.2466, 180.0608
564.7287, 179.4359
565.2108, 179.2071
565.6929, 179.5667
566.1750, 180.2974
566.6572, 180.3175
567.1393, 179.5279
567.6214, 178.7330
568.1035, 178.4894
568.5856, 178.6407
569.0677, 178.4896
569.5499, 177.9857
570.0320, 177.6100
570.5141, 178.1546
570.9962, 179.0473
571.4783, 179.2798
571.9604, 178.2813
572.4426, 177.2550
572.9247, 176.9574
573.4068, 177.1673
573.8889, 177.4822
574.3710, 178.0157
574.8531, 178.3920
575.3353, 178.3692
575.8174, 177.9879
576.2995, 177.8504
576.7816, 178.1462
577.2637, 178.4782
577.7458, 178.5905
578.2280, 178.3303
578.7101, 178.7468
579.1922, 180.0388
579.6743, 181.5692
580.1564, 182.5842
580.6385, 183.1200
581.1207, 183.9736
581.6028, 185.3497
582.0849, 186.9336
582.5670, 188.3384
583.0491, 189.5543
583.5313, 190.6201
584.0134, 191.4194
584.4955, 192.1553
584.9776, 192.9336
585.4597, 193.7827
585.9418, 194.8522
586.4240, 196.3212
586.9061, 197.9402
587.3882, 199.6258
587.8703, 201.3984
588.3524, 203.0693
588.8345, 204.4964
589.3167, 205.8918
589.7988, 207.4360
590.2809, 209.2551
590.7630, 210.9060
591.2451, 212.2311
591.7272, 213.5161
592.2094, 215.4341
592.6915, 218.0217
593.1736, 220.3973
593.6557, 222.1655
594.1378, 223.5899
594.6199, 225.4629
595.1021, 227.6814
595.5842, 229.5280
596.0663, 230.1224
596.5484, 230.2991
597.0305, 231.0669
597.5126, 232.5211
597.9948, 234.0965
598.4769, 235.7740
598.9590, 237.2488
599.4411, 238.2376
599.9232, 238.2720
600.4053, 238.5038
600.8875, 239.4604
601.3696, 240.5793
601.8517, 241.0495
602.3338, 240.5784
602.8159, 240.0157
603.2980, 239.4521
603.7802, 238.9269
604.2623, 238.6826
604.7444, 238.7879
605.2265, 238.5972
605.7086, 237.5804
606.1907, 235.9958
606.6729, 234.8044
607.1550, 233.9992
607.6371, 233.0862
608.1192, 231.6433
608.6013, 229.8745
609.0834, 228.0398
609.5656, 226.1393
610.0477, 224.2867
610.5298, 222.6811
611.0119, 221.1087
611.4940, 219.3082
611.9761, 216.9522
612.4583, 214.7224
612.9404, 212.8505
613.4225, 211.1531
613.9046, 209.1464
614.3867, 206.7445
614.8688, 204.2809
615.3510, 201.7518
615.8331, 199.2194
616.3152, 197.0662
616.7973, 195.3253
617.2794, 193.6648
617.7615, 191.9407
618.2437, 190.1365
618.7258, 188.1673
619.2079, 186.0075
619.6900, 183.7152
620.1721, 181.0747
620.6542, 178.4274
621.1364, 176.2975
621.6185, 175.1143
622.1006, 173.6922
622.5827, 171.1360
623.0648, 168.1298
623.5469, 165.6292
624.0291, 164.3045
624.5112, 162.9036
624.9933, 161.2951
625.4754, 159.4839
625.9575, 157.4622
626.4396, 155.0923
626.9218, 152.8905
627.4039, 151.0815
627.8860, 149.6128
628.3681, 148.2242
628.8502, 146.9208
629.3323, 145.5391
629.8145, 143.8461
630.2966, 142.0191
630.7787, 140.4191
631.2608, 139.1006
631.7429, 137.7170
632.2250, 135.7971
632.7072, 133.7746
633.1893, 132.1121
633.6714, 131.2055
634.1535, 130.2169
634.6356, 128.8651
635.1177, 127.3212
635.5999, 125.8348
636.0820, 124.4308
636.5641, 123.0534
637.0462, 121.6722
637.5283, 120.3168
638.0104, 119.1008
638.4926, 118.0416
638.9747, 116.9528
639.4568, 115.7509
639.9389, 114.4428
640.4210, 113.0190
640.9031, 111.4800
641.3853, 110.0252
641.8674, 108.8030
642.3495, 107.7379
642.8316, 106.7617
643.3137, 105.8554
643.7958, 105.0591
644.2780, 104.5472
644.7601, 104.0551
645.2422, 103.3463
645.7243, 102.1339
646.2064, 101.0864
646.6885, 100.3117
647.1707, 99.66800
647.6528, 98.97897
648.1349, 98.20725
648.6170, 97.49684
649.0991, 96.89188
649.5812, 96.33370
650.0634, 95.65929
650.5455, 94.86959
651.0276, 94.05708
651.5097, 93.09040
651.9918, 92.22195
652.4739, 92.01390
652.9561, 92.33748
653.4382, 92.49953
653.9203, 91.96223
654.4024, 91.22381
654.8845, 90.60379
655.3666, 90.14462
655.8488, 89.69907
656.3309, 89.27748
656.8130, 88.82591
657.2951, 88.28536
657.7772, 87.52116
658.2593, 87.07453
658.7415, 87.09677
659.2236, 87.19287
659.7057, 86.82026
660.1878, 85.99463
660.6699, 85.40614
661.1520, 85.23235
661.6342, 85.22762
662.1163, 85.02364
662.5984, 84.70937
663.0805, 84.52500
663.5626, 84.72849
664.0447, 84.92850
664.5269, 84.83224
665.0090, 84.50892
665.4911, 84.16023
665.9732, 83.77291
666.4553, 83.44552
666.9374, 83.15601
667.4196, 82.91599
667.9017, 83.03047
668.3838, 83.75166
668.8659, 84.35902
669.3480, 84.44408
669.8301, 84.01542
670.3123, 83.67161
670.7944, 83.41972
671.2765, 83.19134
671.7586, 82.87536
672.2407, 82.54063
672.7228, 82.40237
673.2050, 82.53120
673.6871, 82.56622
674.1692, 82.03693
674.6513, 81.34241
675.1334, 80.96242
675.6155, 81.23013
676.0977, 81.49040
676.5798, 81.55595
677.0619, 81.54081
677.5440, 81.62068
678.0261, 81.86742
678.5082, 82.05901
678.9904, 82.16332
679.4725, 82.18740
679.9546, 82.10371
680.4367, 81.91250
680.9188, 81.81300
681.4009, 81.91126
681.8831, 82.14285
682.3652, 82.49340
682.8473, 82.91174
683.3294, 83.12354
683.8115, 82.84328
684.2936, 82.39600
684.7758, 81.89794
685.2579, 81.36910
685.7400, 81.17078
686.2221, 81.83168
686.7042, 82.48248
687.1863, 82.64231
687.6685, 82.15195
688.1506, 81.86168
688.6327, 81.82542
689.1148, 81.86773
689.5969, 81.80225
690.0790, 81.64254
690.5612, 81.63986
691.0433, 81.83842
691.5254, 82.09075
692.0075, 82.15787
692.4896, 82.16545
692.9717, 82.40445
693.4539, 83.21165
693.9360, 83.74856
694.4181, 83.20467
694.9002, 82.15696
695.3823, 81.49898
695.8644, 81.77125
696.3466, 82.04351
696.8287, 82.23136
697.3108, 82.32328
697.7929, 82.24172
