##NAMES=Kryzhanovskite
##RRUFFID=R140111
##IDEAL CHEMISTRY=(Fe^3+^,Mn^2+^)_3_(PO_4_)_2_(OH,H_2_O)_3_
##LOCALITY=Hagendorf, Waidhaus, Vohenstrauß, Oberpfälzer Wald, Upper Palatinate, Bavaria, Germany
##OWNER=RRUFF
##SOURCE=Rock Currier
##DESCRIPTION=Deep red vitreous, almost black, blocky crystals and massive. Golden-brown, bronze on cleavage surfaces
##STATUS=The identification of this mineral is confirmed by single-crystal X-ray diffraction and chemical analysis.
##URL=rruff.info/R140111
##MEASURED CHEMISTRY=(Fe^3+^_1.90_Mn_0.96_Mg_0.01_)_Σ=2.87_(PO_4_)_2_(OH)_1.62_·1.36H_2_O
90.23535, 233.5529
90.71747, 232.4882
91.19958, 231.2166
91.68170, 233.6860
92.16382, 235.1920
92.64594, 235.1854
93.12805, 234.4504
93.61017, 233.6708
94.09229, 232.5703
94.57440, 230.8813
95.05652, 229.2890
95.53863, 228.0139
96.02074, 226.9254
96.50286, 225.8352
96.98498, 224.5042
97.46709, 222.6899
97.94921, 221.6092
98.43133, 222.0742
98.91344, 222.2181
99.39556, 221.3653
99.87768, 219.7432
100.3598, 217.9673
100.8419, 216.1825
101.3240, 214.6039
101.8061, 213.7677
102.2883, 214.0589
102.7704, 214.7865
103.2525, 215.3471
103.7346, 215.7095
104.2167, 216.0276
104.6988, 216.2639
105.1810, 216.4760
105.6631, 216.7861
106.1452, 217.3811
106.6273, 218.1326
107.1094, 218.5433
107.5915, 218.6482
108.0737, 218.2734
108.5558, 217.0607
109.0379, 215.3008
109.5200, 213.6717
110.0021, 212.7995
110.4842, 212.8180
110.9664, 212.9285
111.4485, 213.5069
111.9306, 213.8792
112.4127, 213.5199
112.8948, 212.4622
113.3769, 211.2701
113.8591, 210.7882
114.3412, 211.7078
114.8233, 212.1101
115.3054, 211.8211
115.7875, 211.1264
116.2696, 210.2635
116.7517, 209.3077
117.2339, 208.2695
117.7160, 207.1640
118.1981, 205.9624
118.6802, 204.7598
119.1623, 203.4394
119.6444, 202.1129
120.1266, 201.1178
120.6087, 200.7332
121.0908, 200.6968
121.5729, 200.4575
122.0550, 200.0470
122.5371, 199.3812
123.0193, 198.2946
123.5014, 196.7342
123.9835, 195.1820
124.4656, 193.7981
124.9477, 192.5750
125.4298, 191.5386
125.9120, 190.7288
126.3941, 190.0902
126.8762, 189.5025
127.3583, 188.9185
127.8404, 188.4865
128.3225, 188.2727
128.8047, 188.2027
129.2868, 188.2111
129.7689, 188.2950
130.2510, 188.4297
130.7331, 188.2403
131.2152, 187.2268
131.6974, 186.3514
132.1795, 185.8624
132.6616, 185.7167
133.1437, 185.7556
133.6258, 185.8522
134.1079, 186.0174
134.5901, 186.1779
135.0722, 186.3969
135.5543, 186.5652
136.0364, 186.6123
136.5185, 186.5356
137.0006, 186.3944
137.4828, 186.2863
137.9649, 186.2537
138.4470, 185.9339
138.9291, 185.1270
139.4112, 184.0929
139.8933, 183.0331
140.3755, 181.9310
140.8576, 181.0625
141.3397, 180.9830
141.8218, 181.6165
142.3039, 182.1523
142.7860, 182.0748
143.2681, 181.5887
143.7503, 181.4783
144.2324, 182.1610
144.7145, 182.9966
145.1966, 183.4513
145.6787, 183.5145
146.1608, 183.3478
146.6430, 182.9835
147.1251, 182.3813
147.6072, 181.9680
148.0893, 181.9842
148.5714, 182.1190
149.0535, 182.2188
149.5357, 182.2503
150.0178, 182.2717
150.4999, 182.3745
150.9820, 182.6038
151.4641, 182.8229
151.9462, 182.9111
152.4284, 183.0429
152.9105, 183.4029
153.3926, 184.0507
153.8747, 184.8496
154.3568, 185.4515
154.8389, 185.4729
155.3211, 185.7559
155.8032, 186.4392
156.2853, 187.3713
156.7674, 188.3777
157.2495, 189.3739
157.7316, 190.3725
158.2138, 191.4323
158.6959, 192.5531
159.1780, 193.7233
159.6601, 194.9203
160.1422, 196.1604
160.6243, 197.5287
161.1065, 199.1391
161.5886, 200.8596
162.0707, 202.1287
162.5528, 202.8291
163.0349, 203.2434
163.5170, 203.4663
163.9991, 203.5082
164.4813, 203.4579
164.9634, 203.3468
165.4455, 203.1786
165.9276, 202.9769
166.4097, 202.7876
166.8918, 202.5298
167.3740, 202.1994
167.8561, 201.8645
168.3382, 201.1331
168.8203, 199.4626
169.3024, 197.3366
169.7845, 195.2816
170.2667, 193.4475
170.7488, 191.8400
171.2309, 190.4853
171.7130, 189.4310
172.1951, 188.5754
172.6772, 187.9686
173.1594, 187.4739
173.6415, 186.8938
174.1236, 186.1110
174.6057, 185.1520
175.0878, 184.1601
175.5699, 182.7982
176.0521, 181.8227
176.5342, 181.9296
177.0163, 182.5349
177.4984, 182.5895
177.9805, 181.2298
178.4626, 178.4371
178.9448, 176.2822
179.4269, 174.9970
179.9090, 174.1055
180.3911, 173.8602
180.8732, 173.9609
181.3553, 173.7439
181.8375, 172.5808
182.3196, 170.3224
182.8017, 168.5841
183.2838, 167.6341
183.7659, 166.8329
184.2480, 165.9518
184.7301, 164.9489
185.2123, 163.8098
185.6944, 162.4852
186.1765, 160.9332
186.6586, 159.6445
187.1407, 159.0590
187.6228, 158.4307
188.1050, 157.0366
188.5871, 154.8389
189.0692, 152.6344
189.5513, 151.3168
190.0334, 150.8608
190.5155, 150.0252
190.9977, 148.2664
191.4798, 146.2608
191.9619, 144.7948
192.4440, 144.0101
192.9261, 143.4767
193.4082, 142.8138
193.8904, 142.0694
194.3725, 141.4109
194.8546, 140.8638
195.3367, 140.4390
195.8188, 140.2282
196.3009, 140.3929
196.7831, 140.4235
197.2652, 139.7305
197.7473, 138.5829
198.2294, 137.6944
198.7115, 137.6617
199.1936, 138.2462
199.6758, 138.3819
200.1579, 137.7249
200.6400, 137.0485
201.1221, 136.8537
201.6042, 136.9810
202.0863, 137.0225
202.5685, 136.5391
203.0506, 135.5883
203.5327, 135.2101
204.0148, 135.9201
204.4969, 136.7184
204.9790, 137.2659
205.4612, 137.5905
205.9433, 137.8382
206.4254, 138.1537
206.9075, 138.5529
207.3896, 138.6974
207.8717, 138.1322
208.3539, 137.7168
208.8360, 137.8567
209.3181, 138.4122
209.8002, 138.9534
210.2823, 139.0673
210.7644, 138.6752
211.2466, 138.5618
211.7287, 138.7887
212.2108, 139.2026
212.6929, 139.8536
213.1750, 140.6660
213.6571, 141.4683
214.1393, 142.1005
214.6214, 142.5384
215.1035, 142.9692
215.5856, 143.4224
216.0677, 143.8470
216.5498, 144.1972
217.0320, 144.4862
217.5141, 144.7769
217.9962, 145.1185
218.4783, 145.5140
218.9604, 145.9843
219.4425, 146.5548
219.9247, 147.1701
220.4068, 147.8598
220.8889, 148.5971
221.3710, 149.2296
221.8531, 149.5885
222.3352, 149.6532
222.8174, 149.8828
223.2995, 150.4474
223.7816, 151.0504
224.2637, 151.4972
224.7458, 151.7740
225.2279, 151.9123
225.7100, 151.9172
226.1922, 151.7856
226.6743, 151.5818
227.1564, 151.3354
227.6385, 151.0016
228.1206, 150.4256
228.6027, 149.5881
229.0849, 148.9380
229.5670, 148.9765
230.0491, 149.4662
230.5312, 149.7400
231.0133, 149.7014
231.4954, 149.3928
231.9776, 148.7329
232.4597, 147.6536
232.9418, 146.7036
233.4239, 146.3570
233.9060, 146.3478
234.3881, 146.2887
234.8703, 146.0375
235.3524, 145.7341
235.8345, 145.5852
236.3166, 145.6266
236.7987, 145.6691
237.2808, 145.8065
237.7630, 145.8306
238.2451, 145.4135
238.7272, 144.2901
239.2093, 142.9201
239.6914, 142.0451
240.1735, 141.7622
240.6557, 141.6646
241.1378, 141.7801
241.6199, 141.9180
242.1020, 141.8922
242.5841, 141.6336
243.0662, 141.2061
243.5484, 140.6294
244.0305, 139.7168
244.5126, 139.1882
244.9947, 139.6790
245.4768, 140.3843
245.9589, 140.5780
246.4410, 139.9989
246.9232, 139.0323
247.4053, 138.3122
247.8874, 137.8968
248.3695, 137.6127
248.8516, 137.4775
249.3337, 137.4125
249.8159, 137.3552
250.2980, 137.2871
250.7801, 137.2430
251.2622, 137.3109
251.7443, 137.6189
252.2264, 137.7357
252.7086, 137.5334
253.1907, 137.2190
253.6728, 136.7748
254.1549, 136.2581
254.6370, 135.9875
255.1191, 136.5923
255.6013, 138.8640
256.0834, 140.2702
256.5655, 140.4075
257.0476, 140.1038
257.5297, 139.8374
258.0118, 139.7231
258.4940, 139.6317
258.9761, 139.3428
259.4582, 138.5914
259.9403, 138.3508
260.4224, 138.9824
260.9045, 139.7319
261.3867, 140.1342
261.8688, 140.1468
262.3509, 140.0187
262.8330, 140.0345
263.3151, 140.2449
263.7972, 140.4207
264.2794, 140.5872
264.7615, 140.7064
265.2436, 140.7839
265.7257, 140.8033
266.2078, 140.7075
266.6899, 140.4206
267.1721, 139.8953
267.6542, 139.4878
268.1363, 139.1833
268.6184, 138.9804
269.1005, 138.9980
269.5826, 139.1510
270.0648, 139.1610
270.5469, 138.7655
271.0290, 137.9445
271.5111, 137.3876
271.9932, 137.2747
272.4753, 137.1882
272.9575, 136.9151
273.4396, 136.5155
273.9217, 136.1910
274.4038, 136.0897
274.8859, 136.1880
275.3680, 136.1943
275.8501, 136.2142
276.3322, 136.0594
276.8144, 135.5097
277.2965, 134.7323
277.7786, 134.0761
278.2607, 133.7182
278.7428, 133.6396
279.2249, 133.7942
279.7071, 134.6474
280.1892, 135.1498
280.6713, 134.7018
281.1534, 133.7662
281.6355, 133.1966
282.1176, 133.3907
282.5998, 134.0551
283.0819, 134.4373
283.5640, 134.3915
284.0461, 134.3935
284.5282, 134.6119
285.0103, 134.9170
285.4925, 135.1152
285.9746, 135.1396
286.4567, 135.0634
286.9388, 135.0054
287.4209, 134.9809
287.9030, 134.9243
288.3852, 134.7783
288.8673, 134.6138
289.3494, 134.5144
289.8315, 134.4986
290.3136, 134.5465
290.7957, 134.6703
291.2779, 134.8941
291.7600, 134.9765
292.2421, 134.8288
292.7242, 134.5647
293.2063, 134.2819
293.6884, 133.9927
294.1706, 133.6845
294.6527, 133.3118
295.1348, 132.8819
295.6169, 132.6098
296.0990, 132.6859
296.5811, 132.7906
297.0633, 132.7000
297.5454, 132.4050
298.0275, 131.9603
298.5096, 131.3769
298.9917, 130.6628
299.4738, 129.9333
299.9560, 129.1785
300.4381, 128.4237
300.9202, 127.6648
301.4023, 126.9100
301.8844, 126.1900
302.3665, 125.5351
302.8487, 124.9106
303.3308, 124.2064
303.8129, 123.3512
304.2950, 122.5323
304.7771, 121.8064
305.2592, 121.1776
305.7414, 120.6761
306.2235, 120.3416
306.7056, 120.0888
307.1877, 119.7394
307.6698, 119.2538
308.1519, 118.8391
308.6341, 118.6989
309.1162, 118.6465
309.5983, 118.3087
310.0804, 117.5478
310.5625, 116.6817
311.0446, 116.1737
311.5268, 116.0297
312.0089, 115.8223
312.4910, 115.3302
312.9731, 114.7954
313.4552, 114.5649
313.9373, 114.7002
314.4195, 114.8553
314.9016, 114.7160
315.3837, 114.2870
315.8658, 113.7983
316.3479, 113.0548
316.8300, 112.4082
317.3121, 112.2788
317.7943, 112.6321
318.2764, 112.9060
318.7585, 112.7196
319.2406, 112.1331
319.7227, 111.5651
320.2048, 110.9923
320.6870, 110.4578
321.1691, 109.9901
321.6512, 109.5827
322.1333, 109.1881
322.6154, 108.7553
323.0975, 108.3638
323.5797, 108.2448
324.0618, 108.5230
324.5439, 108.7502
325.0260, 108.6606
325.5081, 108.4274
325.9902, 108.4399
326.4724, 108.8738
326.9545, 109.3852
327.4366, 109.3718
327.9187, 108.7464
328.4008, 108.2313
328.8829, 108.0989
329.3651, 108.0804
329.8472, 107.8301
330.3293, 107.2882
330.8114, 106.6967
331.2935, 106.2909
331.7756, 106.0900
332.2578, 105.8960
332.7399, 105.6996
333.2220, 105.5115
333.7041, 105.3930
334.1862, 105.3197
334.6683, 105.1329
335.1505, 104.7209
335.6326, 104.0922
336.1147, 103.3890
336.5968, 102.4730
337.0789, 101.6285
337.5610, 100.9779
338.0432, 100.4879
338.5253, 100.0968
339.0074, 99.78760
339.4895, 99.53374
339.9716, 99.26833
340.4537, 98.99411
340.9359, 98.70809
341.4180, 98.33444
341.9001, 97.97527
342.3822, 97.80331
342.8643, 97.86869
343.3464, 98.00427
343.8286, 97.97626
344.3107, 97.70943
344.7928, 97.47836
345.2749, 97.20517
345.7570, 97.02451
346.2391, 97.15006
346.7213, 97.53996
347.2034, 97.82970
347.6855, 97.63509
348.1676, 96.91579
348.6497, 96.67249
349.1318, 97.30112
349.6140, 97.92205
350.0961, 98.10782
350.5782, 97.98603
351.0603, 97.91734
351.5424, 98.12556
352.0245, 98.51546
352.5067, 98.67363
352.9888, 98.20122
353.4709, 97.99123
353.9530, 98.28074
354.4351, 98.83706
354.9172, 99.44202
355.3994, 100.0111
355.8815, 100.4928
356.3636, 100.7896
356.8457, 100.7369
357.3278, 100.8327
357.8099, 101.1538
358.2920, 101.5502
358.7741, 101.9670
359.2563, 102.3718
359.7384, 102.6922
360.2205, 102.8380
360.7026, 102.7752
361.1847, 102.8705
361.6668, 103.0858
362.1490, 103.4837
362.6311, 104.2082
363.1132, 105.1257
363.5953, 105.9963
364.0774, 106.6797
364.5595, 107.1966
365.0417, 107.6267
365.5238, 107.8437
366.0059, 108.1479
366.4880, 108.7126
366.9701, 109.3058
367.4522, 109.6649
367.9344, 109.7159
368.4165, 109.6478
368.8986, 109.7573
369.3807, 110.1120
369.8628, 110.4658
370.3449, 110.8464
370.8271, 111.1961
371.3092, 111.5004
371.7913, 111.7495
372.2734, 111.9256
372.7555, 111.9699
373.2376, 111.8914
373.7198, 112.0104
374.2019, 112.6282
374.6840, 113.0678
375.1661, 112.9748
375.6482, 112.6002
376.1303, 112.3437
376.6125, 112.4187
377.0946, 112.6708
377.5767, 112.7069
378.0588, 112.3677
378.5409, 112.2680
379.0230, 112.8459
379.5052, 113.5622
379.9873, 113.9847
380.4694, 114.0292
380.9515, 113.9641
381.4336, 114.1170
381.9157, 114.4790
382.3979, 114.5649
382.8800, 114.0788
383.3621, 113.5763
383.8442, 113.4489
384.3263, 113.6249
384.8084, 113.8303
385.2906, 113.9111
385.7727, 113.9200
386.2548, 113.9991
386.7369, 114.1845
387.2190, 114.3063
387.7011, 114.1319
388.1833, 113.8701
388.6654, 113.8647
389.1475, 114.3450
389.6296, 114.7931
390.1117, 114.6533
390.5938, 114.0055
391.0760, 113.4763
391.5581, 113.2814
392.0402, 113.2850
392.5223, 113.3094
393.0044, 113.3572
393.4865, 113.3981
393.9687, 113.3733
394.4508, 113.3497
394.9329, 113.4651
395.4150, 113.7531
395.8971, 114.0433
396.3792, 114.1991
396.8614, 114.2175
397.3435, 114.1682
397.8256, 113.9030
398.3077, 113.7013
398.7898, 113.7571
399.2719, 114.0354
399.7540, 114.4329
400.2361, 114.9415
400.7183, 115.4646
401.2004, 115.6741
401.6825, 115.2365
402.1646, 115.1143
402.6467, 115.7729
403.1288, 116.6972
403.6110, 117.2209
404.0931, 117.2130
404.5752, 117.1402
405.0573, 117.5704
405.5394, 118.6378
406.0215, 119.5466
406.5037, 120.2379
406.9858, 120.8471
407.4679, 121.4217
407.9500, 121.9715
408.4321, 122.5176
408.9142, 123.0878
409.3964, 123.6436
409.8785, 124.0130
410.3606, 123.8892
410.8427, 123.9759
411.3248, 124.4999
411.8069, 125.1625
412.2891, 125.7153
412.7712, 126.0795
413.2533, 126.2787
413.7354, 126.3084
414.2175, 126.1011
414.6996, 125.9949
415.1818, 126.1333
415.6639, 126.2419
416.1460, 126.2493
416.6281, 126.1405
417.1102, 125.9058
417.5923, 125.5278
418.0745, 125.0297
418.5566, 124.4769
419.0387, 123.8594
419.5208, 123.2148
420.0029, 122.5433
420.4850, 121.8623
420.9672, 121.2328
421.4493, 120.6761
421.9314, 120.0172
422.4135, 119.0638
422.8956, 117.8260
423.3777, 116.4491
423.8599, 114.8023
424.3420, 113.2383
424.8241, 112.0601
425.3062, 111.1845
425.7883, 110.3045
426.2704, 109.3560
426.7526, 108.2987
427.2347, 107.0223
427.7168, 105.5037
428.1989, 104.0193
428.6810, 102.6322
429.1631, 101.4384
429.6453, 100.6167
430.1274, 100.3482
430.6095, 100.0396
431.0916, 99.28333
431.5737, 98.29908
432.0558, 97.52946
432.5380, 97.09590
433.0201, 96.82497
433.5022, 96.51659
433.9843, 96.15566
434.4664, 95.92700
434.9485, 96.06664
435.4307, 96.14400
435.9128, 95.70302
436.3949, 94.91467
436.8770, 94.41807
437.3591, 94.62755
437.8412, 95.32122
438.3234, 95.64909
438.8055, 95.07506
439.2876, 94.82210
439.7697, 95.13477
440.2518, 95.71168
440.7339, 96.39251
441.2160, 97.08138
441.6982, 97.56676
442.1803, 97.53353
442.6624, 96.85461
443.1445, 96.59074
443.6266, 97.15849
444.1087, 97.71638
444.5909, 98.05608
445.0730, 98.20137
445.5551, 98.18209
446.0372, 97.98687
446.5193, 97.76515
447.0014, 97.90462
447.4836, 98.58582
447.9657, 99.08814
448.4478, 99.08131
448.9299, 99.00015
449.4120, 99.12605
449.8941, 99.46648
450.3763, 99.83304
450.8584, 100.1734
451.3405, 100.4387
451.8226, 100.3350
452.3047, 99.68237
452.7868, 99.09933
453.2690, 98.99525
453.7511, 99.18145
454.2332, 99.46150
454.7153, 99.91935
455.1974, 100.2161
455.6795, 99.84669
456.1617, 99.01104
456.6438, 98.66211
457.1259, 99.23048
457.6080, 100.0298
458.0901, 100.0558
458.5722, 99.31562
459.0544, 98.82999
459.5365, 98.95509
460.0186, 99.28365
460.5007, 99.64600
460.9828, 99.94428
461.4649, 99.75874
461.9471, 98.70206
462.4292, 97.09354
462.9113, 96.25325
463.3934, 96.97869
463.8755, 97.37261
464.3576, 96.91361
464.8398, 96.19008
465.3219, 95.77935
465.8040, 95.80078
466.2861, 96.06652
466.7682, 96.41326
467.2503, 96.87968
467.7325, 97.06618
468.2146, 96.71415
468.6967, 96.35170
469.1788, 96.15041
469.6609, 96.01802
470.1430, 95.74087
470.6252, 95.21099
471.1073, 94.71120
471.5894, 94.86827
472.0715, 95.92318
472.5536, 96.57142
473.0357, 96.26625
473.5179, 95.79890
474.0000, 95.57717
474.4821, 95.59161
474.9642, 95.67455
475.4463, 95.79140
475.9284, 95.88838
476.4106, 95.81197
476.8927, 95.52909
477.3748, 95.28743
477.8569, 95.25753
478.3390, 95.30633
478.8211, 95.22327
479.3033, 94.97677
479.7854, 94.68433
480.2675, 94.31805
480.7496, 93.96677
481.2317, 93.86105
481.7138, 94.05392
482.1959, 94.20660
482.6780, 94.00661
483.1602, 93.44991
483.6423, 92.89995
484.1244, 92.17215
484.6065, 91.64924
485.0886, 91.62493
485.5707, 91.88073
486.0529, 92.06092
486.5350, 92.03197
487.0171, 91.83643
487.4992, 91.52866
487.9813, 91.02645
488.4634, 90.63390
488.9456, 90.43456
489.4277, 90.24688
489.9098, 89.98183
490.3919, 89.65804
490.8740, 89.34786
491.3561, 89.10659
491.8383, 88.87730
492.3204, 88.46461
492.8025, 87.74509
493.2846, 87.18764
493.7667, 87.07017
494.2488, 87.02217
494.7310, 86.75598
495.2131, 86.28075
495.6952, 85.87340
496.1773, 85.83154
496.6594, 85.99639
497.1415, 85.89378
497.6237, 85.45286
498.1058, 85.03679
498.5879, 84.88773
499.0700, 84.87178
499.5521, 84.71727
500.0342, 84.34124
500.5164, 83.99561
500.9985, 83.84709
501.4806, 83.80036
501.9627, 83.66946
502.4448, 83.41596
502.9269, 83.15709
503.4091, 83.01311
503.8912, 82.98843
504.3733, 82.90320
504.8554, 82.68035
505.3375, 82.49034
505.8196, 82.45359
506.3018, 82.47068
506.7839, 82.31353
507.2660, 81.91653
507.7481, 81.56990
508.2302, 81.78770
508.7123, 82.83352
509.1945, 83.48934
509.6766, 83.54704
510.1587, 83.41850
510.6408, 83.15588
511.1229, 82.83328
511.6050, 82.54157
512.0872, 82.31300
512.5693, 82.17915
513.0514, 82.21766
513.5335, 82.44805
514.0156, 82.69994
514.4977, 82.91145
514.9799, 83.16504
515.4620, 83.60577
515.9441, 84.18494
516.4262, 84.58418
516.9083, 84.49543
517.3904, 84.25548
517.8726, 84.30561
518.3547, 84.63567
518.8368, 85.02703
519.3189, 85.41081
519.8010, 85.75431
520.2831, 85.94956
520.7653, 85.93094
521.2474, 85.98889
521.7295, 86.24538
522.2116, 86.54591
522.6937, 86.74738
523.1758, 86.85126
523.6580, 86.94749
524.1401, 87.09950
524.6222, 87.29697
525.1043, 87.49341
525.5864, 87.73208
526.0685, 87.90093
526.5507, 87.84128
527.0328, 87.81509
527.5149, 88.07616
527.9970, 88.62363
528.4791, 89.23328
528.9612, 89.73746
529.4434, 90.13696
529.9255, 90.42266
530.4076, 90.54074
530.8897, 90.66896
531.3718, 90.89520
531.8539, 91.16547
532.3361, 91.43628
532.8182, 91.70382
533.3003, 91.95321
533.7824, 92.16894
534.2645, 92.36182
534.7466, 92.54614
535.2288, 92.72082
535.7109, 92.92941
536.1930, 93.21736
536.6751, 93.56915
537.1572, 93.87682
537.6393, 94.01421
538.1215, 94.26562
538.6036, 94.81796
539.0857, 95.48084
539.5678, 96.02823
540.0499, 96.40928
540.5320, 96.69615
541.0142, 96.95572
541.4963, 97.18730
541.9784, 97.40483
542.4605, 97.54175
542.9426, 97.74488
543.4247, 98.10033
543.9068, 98.50863
544.3889, 98.83353
544.8710, 99.04460
545.3531, 99.27263
545.8353, 99.74116
546.3174, 100.4120
546.7995, 100.7574
547.2816, 100.5732
547.7637, 100.4371
548.2458, 100.7602
548.7280, 101.3596
549.2101, 101.9927
549.6922, 102.6932
550.1743, 103.2615
550.6564, 103.5191
551.1385, 103.5659
551.6207, 103.5672
552.1028, 103.5542
552.5849, 103.6372
553.0670, 103.9492
553.5491, 104.4932
554.0313, 104.9007
554.5134, 105.0197
554.9955, 105.2066
555.4776, 105.6158
555.9597, 106.1234
556.4418, 106.5861
556.9240, 106.9622
557.4061, 107.2633
557.8882, 107.4658
558.3703, 107.5576
558.8524, 107.8627
559.3345, 108.5230
559.8167, 109.1956
560.2988, 109.8736
560.7809, 110.4498
561.2630, 110.7613
561.7451, 110.7479
562.2272, 110.6591
562.7094, 110.7085
563.1915, 110.8573
563.6736, 110.9254
564.1557, 110.8444
564.6378, 110.9513
565.1199, 111.6595
565.6021, 112.7536
566.0842, 113.2967
566.5663, 113.0378
567.0484, 112.5964
567.5305, 112.0651
568.0126, 111.5250
568.4948, 111.0254
568.9769, 110.6015
569.4590, 110.3654
569.9411, 110.4513
570.4232, 110.8396
570.9053, 111.1464
571.3875, 111.4035
571.8696, 111.5262
572.3517, 111.4426
572.8338, 111.2632
573.3159, 111.0106
573.7980, 110.7266
574.2802, 110.6055
574.7623, 110.9081
575.2444, 111.5255
575.7265, 112.0326
576.2086, 112.4444
576.6907, 112.6668
577.1729, 112.4838
577.6550, 112.1794
578.1371, 112.2406
578.6192, 112.7653
579.1013, 113.2475
579.5834, 113.4013
580.0656, 113.4690
580.5477, 113.6963
581.0298, 114.1094
581.5119, 114.7036
581.9940, 115.5038
