##NAMES=Kryzhanovskite
##RRUFFID=R130691
##IDEAL CHEMISTRY=(Fe^3+^,Mn^2+^)_3_(PO_4_)_2_(OH,H_2_O)_3_
##LOCALITY=Rapid Creek, Dawson Mining District, Yukon Territory, Canada
##OWNER=RRUFF
##SOURCE=Rob Lavinsky
##DESCRIPTION=Euhedral reddish brown crystals
##STATUS=The identification of this mineral is confirmed by single-crystal X-ray diffraction and chemical analysis.
##URL=rruff.info/R130691
##MEASURED CHEMISTRY=(Fe^3+^_1.69_Mg_1.18_Mn_0.09_)(PO_4_)_2_(OH)_1.61_Â·1.35H_2_O
90.71747, 445.4982
91.19958, 444.6635
91.68170, 445.7179
92.16382, 448.1767
92.64594, 452.5638
93.12805, 454.0930
93.61017, 449.5113
94.09229, 441.4894
94.57440, 430.4838
95.05651, 421.2961
95.53863, 414.9949
96.02074, 410.0631
96.50286, 405.1107
96.98498, 399.2484
97.46709, 392.0989
97.94921, 386.2189
98.43133, 382.2528
98.91344, 378.4883
99.39556, 374.1450
99.87768, 369.4771
100.3598, 365.3936
100.8419, 362.4840
101.3240, 360.5817
101.8061, 358.6353
102.2883, 356.1931
102.7704, 353.9250
103.2525, 352.5493
103.7346, 352.1522
104.2167, 352.0117
104.6988, 351.5922
105.1810, 350.9993
105.6631, 350.4160
106.1452, 350.1249
106.6273, 349.9257
107.1094, 348.9771
107.5915, 346.8220
108.0737, 344.3569
108.5558, 341.6253
109.0379, 338.8456
109.5200, 336.5014
110.0021, 335.0692
110.4842, 334.6945
110.9664, 334.5096
111.4485, 334.3747
111.9306, 334.5078
112.4127, 335.1958
112.8948, 336.3836
113.3769, 337.6735
113.8591, 338.4824
114.3412, 338.5137
114.8233, 338.5272
115.3054, 338.4180
115.7875, 338.3321
116.2696, 338.3974
116.7517, 338.6567
117.2339, 339.0936
117.7160, 339.6719
118.1981, 340.2353
118.6802, 341.1592
119.1623, 342.6762
119.6444, 344.6523
120.1266, 346.8024
120.6087, 349.1886
121.0908, 351.4805
121.5729, 353.0848
122.0550, 353.6613
122.5371, 354.1314
123.0193, 355.3579
123.5014, 357.4320
123.9835, 359.5011
124.4656, 360.9659
124.9477, 362.2770
125.4298, 363.8966
125.9120, 366.0762
126.3941, 368.5166
126.8762, 370.4580
127.3583, 371.4689
127.8404, 372.7186
128.3225, 374.8527
128.8047, 377.3512
129.2868, 379.4894
129.7689, 380.7626
130.2510, 381.2428
130.7331, 381.9804
131.2152, 383.3592
131.6974, 384.6478
132.1795, 385.7937
132.6616, 386.7149
133.1437, 387.2460
133.6258, 387.1843
134.1079, 386.3681
134.5901, 386.0600
135.0722, 386.6020
135.5543, 387.2720
136.0364, 387.5699
136.5185, 387.4827
137.0006, 387.4557
137.4828, 388.0844
137.9649, 389.5849
138.4470, 390.5846
138.9291, 390.7091
139.4112, 390.4138
139.8933, 390.2492
140.3755, 390.3681
140.8576, 390.4882
141.3397, 390.2007
141.8218, 389.5504
142.3039, 388.8457
142.7860, 388.3852
143.2681, 388.0128
143.7503, 387.0736
144.2324, 384.9641
144.7145, 382.7749
145.1966, 381.4846
145.6787, 381.1049
146.1608, 380.9997
146.6430, 380.7441
147.1251, 380.3520
147.6072, 379.6661
148.0893, 378.1150
148.5714, 376.5915
149.0535, 375.5974
149.5357, 375.2393
150.0178, 375.2636
150.4999, 375.3836
150.9820, 375.8382
151.4641, 375.8274
151.9462, 375.0682
152.4284, 374.0354
152.9105, 373.0263
153.3926, 372.1683
153.8747, 371.4779
154.3568, 371.0140
154.8389, 371.2628
155.3211, 371.1444
155.8032, 369.9986
156.2853, 368.6328
156.7674, 368.1767
157.2495, 369.2476
157.7316, 371.3527
158.2138, 372.3663
158.6959, 371.5933
159.1780, 370.6864
159.6601, 369.8589
160.1422, 369.1715
160.6243, 368.7595
161.1065, 368.7366
161.5886, 369.0471
162.0707, 369.3657
162.5528, 369.9757
163.0349, 370.3408
163.5170, 369.9164
163.9991, 368.7936
164.4813, 367.8830
164.9634, 367.8846
165.4455, 368.4823
165.9276, 368.8941
166.4097, 368.9826
166.8918, 368.9055
167.3740, 368.7106
167.8561, 368.3034
168.3382, 368.2422
168.8203, 369.3508
169.3024, 370.8904
169.7845, 371.9264
170.2667, 371.9177
170.7488, 371.3006
171.2309, 371.0483
171.7130, 371.2010
172.1951, 371.6962
172.6772, 372.6601
173.1594, 373.8565
173.6415, 374.9647
174.1236, 375.8018
174.6057, 376.3930
175.0878, 376.8675
175.5699, 377.0336
176.0521, 377.2982
176.5342, 377.8390
177.0163, 378.5484
177.4984, 379.2273
177.9805, 379.7281
178.4626, 380.0492
178.9448, 380.4008
179.4269, 380.7587
179.9090, 381.1681
180.3911, 381.6584
180.8732, 382.2145
181.3553, 382.7990
181.8375, 383.3857
182.3196, 383.9785
182.8017, 384.5185
183.2838, 385.1101
183.7659, 385.5744
184.2480, 385.6680
184.7301, 385.4749
185.2123, 385.4339
185.6944, 386.0434
186.1765, 387.4430
186.6586, 388.1085
187.1407, 387.2092
187.6228, 386.1906
188.1050, 386.1635
188.5871, 387.2334
189.0692, 388.7357
189.5513, 390.2323
190.0334, 391.6876
190.5155, 392.5963
190.9977, 392.1826
191.4798, 391.5197
191.9619, 391.9967
192.4440, 393.9411
192.9261, 396.1305
193.4082, 397.4615
193.8904, 398.1147
194.3725, 398.3973
194.8546, 398.2878
195.3367, 397.8864
195.8188, 397.4157
196.3009, 396.9550
196.7831, 396.2629
197.2652, 395.2266
197.7473, 393.8589
198.2294, 392.1454
198.7115, 389.8622
199.1936, 387.1622
199.6758, 384.8103
200.1579, 383.2993
200.6400, 381.4264
201.1221, 378.5637
201.6042, 374.9004
202.0863, 370.9307
202.5685, 366.8084
203.0506, 362.5624
203.5327, 358.8354
204.0148, 356.0529
204.4969, 353.4203
204.9790, 350.7457
205.4612, 347.9988
205.9433, 345.1371
206.4254, 342.0930
206.9075, 338.8467
207.3896, 335.8070
207.8717, 333.0569
208.3539, 330.4483
208.8360, 327.8600
209.3181, 325.3702
209.8002, 323.1740
210.2823, 321.4509
210.7644, 320.2370
211.2466, 319.2739
211.7287, 318.9027
212.2108, 318.4440
212.6929, 317.6237
213.1750, 316.4638
213.6571, 315.1111
214.1393, 313.6735
214.6214, 312.1121
215.1035, 310.7529
215.5856, 309.5503
216.0677, 308.5329
216.5498, 307.8059
217.0320, 307.3141
217.5141, 306.8223
217.9962, 306.0948
218.4783, 305.0844
218.9604, 304.3466
219.4425, 304.2600
219.9247, 304.1057
220.4068, 303.1985
220.8889, 301.6323
221.3710, 300.3193
221.8531, 300.1428
222.3352, 301.1973
222.8174, 301.7840
223.2995, 301.6817
223.7816, 301.2834
224.2637, 300.7802
224.7458, 300.2013
225.2279, 299.7050
225.7100, 299.4986
226.1922, 299.5203
226.6743, 299.2896
227.1564, 298.4284
227.6385, 297.5189
228.1206, 297.1571
228.6027, 297.3832
229.0849, 297.7369
229.5670, 297.9908
230.0491, 298.1117
230.5312, 298.0087
231.0133, 297.4930
231.4954, 296.8427
231.9776, 296.3391
232.4597, 295.9828
232.9418, 295.7733
233.4239, 295.7238
233.9060, 295.8278
234.3881, 296.1301
234.8703, 296.8529
235.3524, 297.6017
235.8345, 297.7062
236.3166, 296.9679
236.7987, 296.4168
237.2808, 296.8968
237.7630, 297.7636
238.2451, 298.2985
238.7272, 298.1813
239.2093, 297.7807
239.6914, 297.6722
240.1735, 297.9092
240.6557, 298.2686
241.1378, 298.6784
241.6199, 299.1536
242.1020, 299.7010
242.5841, 300.3065
243.0662, 301.0311
243.5484, 302.0141
244.0305, 303.3507
244.5126, 304.6898
244.9947, 306.1711
245.4768, 307.4980
245.9589, 308.2990
246.4410, 308.4249
246.9232, 308.2989
247.4053, 308.6360
247.8874, 309.5190
248.3695, 310.7142
248.8516, 312.5789
249.3337, 314.4626
249.8159, 315.7379
250.2980, 316.2358
250.7801, 316.4747
251.2622, 317.4157
251.7443, 319.5737
252.2264, 321.2419
252.7086, 321.7392
253.1907, 322.1066
253.6728, 323.2198
254.1549, 325.2429
254.6370, 327.5373
255.1191, 329.0974
255.6013, 329.4654
256.0834, 330.0466
256.5655, 330.7104
257.0476, 331.6557
257.5297, 333.1596
258.0118, 335.1994
258.4940, 337.3930
258.9761, 339.2111
259.4582, 340.4594
259.9403, 341.8197
260.4224, 343.4311
260.9045, 345.0423
261.3867, 346.5294
261.8688, 347.8685
262.3509, 349.0589
262.8330, 350.1001
263.3151, 350.9638
263.7972, 351.7699
264.2794, 352.0255
264.7615, 352.6313
265.2436, 354.2803
265.7257, 356.8534
266.2078, 359.6447
266.6899, 361.9782
267.1721, 363.7802
267.6542, 365.4968
268.1363, 366.9466
268.6184, 368.4857
269.1005, 370.4196
269.5826, 372.6370
270.0648, 374.6879
270.5469, 376.1402
271.0290, 376.9435
271.5111, 378.4227
271.9932, 381.0185
272.4753, 383.6964
272.9575, 386.0597
273.4396, 388.1420
273.9217, 390.1024
274.4038, 392.0340
274.8859, 393.9449
275.3680, 395.8832
275.8501, 397.8193
276.3322, 399.8143
276.8144, 401.8427
277.2965, 403.9556
277.7786, 406.2833
278.2607, 408.9349
278.7428, 411.8011
279.2249, 414.4267
279.7071, 416.8149
280.1892, 419.0304
280.6713, 420.9322
281.1534, 422.6905
281.6355, 424.6182
282.1176, 426.8566
282.5998, 429.3117
283.0819, 431.7244
283.5640, 434.2387
284.0461, 436.4798
284.5282, 438.1045
285.0103, 439.4750
285.4925, 441.1993
285.9746, 443.5169
286.4567, 446.0016
286.9388, 447.9238
287.4209, 449.1456
287.9030, 450.3082
288.3852, 451.5146
288.8673, 452.6991
289.3494, 453.9140
289.8315, 455.1914
290.3136, 456.0957
290.7957, 455.9785
291.2779, 454.7068
291.7600, 453.4075
292.2421, 452.3349
292.7242, 451.2037
293.2063, 449.6377
293.6884, 447.5944
294.1706, 445.5587
294.6527, 444.1016
295.1348, 443.2086
295.6169, 441.6878
296.0990, 439.2854
296.5811, 436.3973
297.0633, 433.1453
297.5454, 429.5997
298.0275, 426.1315
298.5096, 423.0411
298.9917, 420.2679
299.4738, 417.3292
299.9560, 414.2006
300.4381, 410.9543
300.9202, 407.4857
301.4023, 403.8715
301.8844, 400.4526
302.3665, 397.5132
302.8487, 394.7852
303.3308, 391.4458
303.8129, 387.1101
304.2950, 382.8287
304.7771, 379.0865
305.2592, 375.7543
305.7414, 372.5297
306.2235, 369.3454
306.7056, 366.1392
307.1877, 362.7909
307.6698, 359.2635
308.1519, 355.7758
308.6341, 352.3319
309.1162, 348.9934
309.5983, 345.9873
310.0804, 343.4460
310.5625, 340.9736
311.0446, 337.9757
311.5268, 334.4222
312.0089, 331.0944
312.4910, 328.2250
312.9731, 325.6270
313.4552, 323.1108
313.9373, 320.6613
314.4195, 318.1743
314.9016, 315.4913
315.3837, 312.6270
315.8658, 309.9306
316.3479, 307.4689
316.8300, 305.1540
317.3121, 302.9212
317.7943, 300.7587
318.2764, 298.7096
318.7585, 296.8495
319.2406, 295.1236
319.7227, 293.2386
320.2048, 291.2580
320.6870, 289.0542
321.1691, 286.2061
321.6512, 282.9915
322.1333, 280.4396
322.6154, 279.2299
323.0975, 278.7668
323.5797, 277.4988
324.0618, 274.9922
324.5439, 272.7653
325.0260, 271.7113
325.5081, 271.2520
325.9902, 270.2279
326.4724, 268.2162
326.9545, 265.7607
327.4366, 263.6303
327.9187, 261.8036
328.4008, 260.2753
328.8829, 259.3377
329.3651, 258.5695
329.8472, 257.4532
330.3293, 255.8987
330.8114, 254.1888
331.2935, 252.4996
331.7756, 250.8370
332.2578, 249.6207
332.7399, 249.3578
333.2220, 249.1752
333.7041, 248.3390
334.1862, 246.9016
334.6683, 245.4757
335.1505, 244.5029
335.6326, 243.9177
336.1147, 243.2038
336.5968, 242.2403
337.0789, 241.2871
337.5610, 240.4209
338.0432, 239.6463
338.5253, 239.0414
339.0074, 238.6994
339.4895, 238.4205
339.9716, 237.6048
340.4537, 235.9098
340.9359, 234.3951
341.4180, 233.2419
341.9001, 232.3841
342.3822, 231.8137
342.8643, 231.5313
343.3464, 231.3500
343.8286, 231.0083
344.3107, 230.4217
344.7928, 229.9073
345.2749, 229.4119
345.7570, 229.0288
346.2391, 228.9340
346.7213, 229.0868
347.2034, 229.1641
347.6855, 228.8457
348.1676, 228.1006
348.6497, 227.5946
349.1318, 227.5718
349.6140, 227.4996
350.0961, 227.0690
350.5782, 226.4082
351.0603, 225.8104
351.5424, 225.4373
352.0245, 225.2832
352.5067, 225.3366
352.9888, 226.0407
353.4709, 226.4037
353.9530, 225.8929
354.4351, 225.1416
354.9172, 225.0246
355.3994, 225.8242
355.8815, 226.9112
356.3636, 227.2135
356.8457, 226.3058
357.3278, 225.4106
357.8099, 224.3510
358.2920, 223.4309
358.7741, 222.8737
359.2563, 222.6842
359.7384, 222.7397
360.2205, 222.9532
360.7026, 223.3591
361.1847, 223.5833
361.6668, 223.5954
362.1490, 223.4715
362.6311, 223.1152
363.1132, 222.6480
363.5953, 222.2995
364.0774, 222.2184
364.5595, 222.3307
365.0417, 222.3093
365.5238, 221.8853
366.0059, 221.7108
366.4880, 221.9721
366.9701, 222.4483
367.4522, 222.9953
367.9344, 223.5457
368.4165, 223.9937
368.8986, 224.1474
369.3807, 223.8902
369.8628, 223.6490
370.3449, 223.4591
370.8271, 223.2696
371.3092, 223.0600
371.7913, 222.8253
372.2734, 222.5528
372.7555, 222.1913
373.2376, 221.7491
373.7198, 221.5088
374.2019, 221.4890
374.6840, 221.6779
375.1661, 222.4035
375.6482, 223.2489
376.1303, 223.4906
376.6125, 222.6530
377.0946, 221.3155
377.5767, 220.8275
378.0588, 221.4976
378.5409, 222.1493
379.0230, 222.5349
379.5052, 222.7322
379.9873, 222.7728
380.4694, 222.6644
380.9515, 222.4373
381.4336, 221.9919
381.9157, 221.3382
382.3979, 221.0929
382.8800, 221.6470
383.3621, 222.2661
383.8442, 222.3920
384.3263, 222.1434
384.8084, 221.9671
385.2906, 222.1018
385.7727, 222.4746
386.2548, 223.0956
386.7369, 224.1792
387.2190, 224.7170
387.7011, 223.3359
388.1833, 221.2538
388.6654, 220.2881
389.1475, 221.1814
389.6296, 222.5209
390.1117, 223.1277
390.5938, 223.0719
391.0760, 222.8631
391.5581, 222.5968
392.0402, 222.3312
392.5223, 222.1397
393.0044, 222.0203
393.4865, 221.9530
393.9687, 221.8272
394.4508, 221.7823
394.9329, 222.1765
395.4150, 223.1150
395.8971, 223.9365
396.3792, 223.9483
396.8614, 223.2278
397.3435, 222.8460
397.8256, 223.0397
398.3077, 223.4150
398.7898, 223.8304
399.2719, 224.2333
399.7540, 224.4373
400.2361, 224.3059
400.7183, 223.9858
401.2004, 223.9158
401.6825, 224.2383
402.1646, 224.5164
402.6467, 224.5016
403.1288, 224.4818
403.6110, 224.9140
404.0931, 225.8648
404.5752, 226.8225
405.0573, 227.1514
405.5394, 226.6679
406.0215, 226.4439
406.5037, 226.5569
406.9858, 226.8183
407.4679, 227.1756
407.9500, 227.6057
408.4321, 228.0498
408.9142, 228.4569
409.3964, 228.8977
409.8785, 229.7115
410.3606, 231.3889
410.8427, 232.8097
411.3248, 233.6604
411.8069, 234.3391
412.2891, 235.2447
412.7712, 236.4721
413.2533, 237.8142
413.7354, 238.9716
414.2175, 239.8634
414.6996, 240.9160
415.1818, 242.3120
415.6639, 243.6966
416.1460, 244.9633
416.6281, 246.1111
417.1102, 247.1462
417.5923, 248.0728
418.0745, 248.9018
418.5566, 249.6023
419.0387, 249.8897
419.5208, 250.6954
420.0029, 253.0092
420.4850, 255.5570
420.9672, 257.0150
421.4493, 257.0431
421.9314, 256.7371
422.4135, 257.2099
422.8956, 258.4250
423.3777, 259.6186
423.8599, 260.6297
424.3420, 261.6693
424.8241, 263.0682
425.3062, 264.6747
425.7883, 265.9293
426.2704, 266.4368
426.7526, 266.5327
427.2347, 266.6891
427.7168, 266.9153
428.1989, 267.0922
428.6810, 267.0519
429.1631, 266.9829
429.6453, 267.2909
430.1274, 268.1464
430.6095, 268.9947
431.0916, 269.8392
431.5737, 270.4394
432.0558, 270.0968
432.5380, 268.5323
433.0201, 266.7898
433.5022, 266.2424
433.9843, 267.1341
434.4664, 267.1051
434.9485, 265.5810
435.4307, 263.5341
435.9128, 261.4063
436.3949, 259.2886
436.8770, 257.3129
437.3591, 255.5780
437.8412, 254.0009
438.3234, 252.2955
438.8055, 250.5806
439.2876, 248.5698
439.7697, 245.8255
440.2518, 243.0216
440.7339, 240.8459
441.2160, 239.4198
441.6982, 238.3451
442.1803, 237.2051
442.6624, 235.9926
443.1445, 234.7594
443.6266, 233.3005
444.1087, 232.0434
444.5909, 231.2838
445.0730, 230.7942
445.5551, 230.1902
446.0372, 229.2762
446.5193, 228.1683
447.0014, 227.0904
447.4836, 225.9946
447.9657, 225.0732
448.4478, 224.3721
448.9299, 223.8447
449.4120, 223.5447
449.8941, 223.4373
450.3763, 223.3151
450.8584, 223.0155
451.3405, 222.5671
451.8226, 222.0377
452.3047, 221.2965
452.7868, 220.8090
453.2690, 221.1565
453.7511, 221.8597
454.2332, 222.2171
454.7153, 221.9496
455.1974, 221.5662
455.6795, 221.5065
456.1617, 221.6989
456.6438, 221.8251
457.1259, 221.7876
457.6080, 221.6733
458.0901, 221.5883
458.5722, 221.5335
459.0544, 221.4685
459.5365, 221.2673
460.0186, 221.1407
460.5007, 221.3230
460.9828, 221.7795
461.4649, 222.2752
461.9471, 222.6797
462.4292, 223.0027
462.9113, 223.2917
463.3934, 223.5519
463.8755, 223.7729
464.3576, 224.0525
464.8398, 224.2397
465.3219, 224.0951
465.8040, 223.6154
466.2861, 223.1028
466.7682, 222.8887
467.2503, 222.9974
467.7325, 223.1576
468.2146, 223.7099
468.6967, 223.9439
469.1788, 223.3084
469.6609, 222.3288
470.1430, 221.8195
470.6252, 222.1504
471.1073, 222.9013
471.5894, 223.2935
472.0715, 223.1908
472.5536, 223.3388
473.0357, 224.3773
473.5179, 225.2261
474.0000, 225.0567
474.4821, 224.0746
474.9642, 223.2244
475.4463, 223.1621
475.9284, 223.5767
476.4106, 223.8189
476.8927, 223.8777
477.3748, 223.8120
477.8569, 223.5536
478.3390, 223.2329
478.8211, 223.0758
479.3033, 223.1425
479.7854, 223.1795
480.2675, 222.9608
480.7496, 222.6506
481.2317, 222.6136
481.7138, 222.9263
482.1959, 223.2173
482.6780, 223.1537
483.1602, 222.7295
483.6423, 222.2786
484.1244, 221.8801
484.6065, 221.3754
485.0886, 220.5634
485.5707, 219.6290
486.0529, 218.9221
486.5350, 218.5693
487.0171, 218.3749
487.4992, 218.0154
487.9813, 217.3995
488.4634, 216.8637
488.9456, 216.4391
489.4277, 216.0529
489.9098, 215.6446
490.3919, 215.2481
490.8740, 214.9602
491.3561, 214.8559
491.8383, 214.8519
492.3204, 214.7677
492.8025, 214.7065
493.2846, 214.2754
493.7667, 212.9300
494.2488, 211.5199
494.7310, 210.5889
495.2131, 210.1694
495.6952, 209.9902
496.1773, 210.0540
496.6594, 210.2047
497.1415, 210.0000
497.6237, 209.3970
498.1058, 208.5939
498.5879, 207.5921
499.0700, 206.4854
499.5521, 205.4382
500.0342, 204.4067
500.5164, 203.5571
500.9985, 203.0297
501.4806, 202.7193
501.9627, 202.4709
502.4448, 202.2560
502.9269, 201.9924
503.4091, 201.5963
503.8912, 201.0587
504.3733, 200.5186
504.8554, 199.7157
505.3375, 199.1970
505.8196, 199.6221
506.3018, 200.3165
506.7839, 200.1414
507.2660, 198.7167
507.7481, 196.7884
508.2302, 195.4997
508.7123, 194.9939
509.1945, 194.6065
509.6766, 194.4542
510.1587, 194.3037
510.6408, 194.0506
511.1229, 193.7351
511.6050, 193.4322
512.0872, 193.1671
512.5693, 192.9697
513.0514, 192.9461
513.5335, 193.1378
514.0156, 193.1787
514.4977, 192.9157
514.9799, 192.5434
515.4620, 192.1460
515.9441, 191.7559
516.4262, 191.5667
516.9083, 191.6580
517.3904, 191.9942
517.8726, 192.6394
518.3547, 193.5622
518.8368, 194.3739
519.3189, 194.8765
519.8010, 195.1769
520.2831, 195.4659
520.7653, 195.6597
521.2474, 196.0759
521.7295, 196.9908
522.2116, 197.9918
522.6937, 198.6187
523.1758, 198.9251
523.6580, 199.3497
524.1401, 200.2007
524.6222, 201.4312
525.1043, 202.8447
525.5864, 204.6647
526.0685, 206.3336
526.5507, 207.7889
527.0328, 209.1019
527.5149, 210.3050
527.9970, 211.4160
528.4791, 212.4505
528.9612, 213.3125
529.4434, 214.0903
529.9255, 215.4351
530.4076, 217.6575
530.8897, 219.7178
531.3718, 221.0340
531.8539, 222.0185
532.3361, 223.0444
532.8182, 224.1491
533.3003, 225.4055
533.7824, 226.9461
534.2645, 228.6583
534.7466, 230.3999
535.2288, 232.1739
535.7109, 233.6592
536.1930, 234.4771
536.6751, 234.7787
537.1572, 235.5086
537.6393, 236.9007
538.1215, 238.3932
538.6036, 240.1231
539.0857, 241.7377
539.5678, 242.6567
540.0499, 242.8310
540.5320, 242.8973
541.0142, 243.5592
541.4963, 244.8450
541.9784, 245.7650
542.4604, 246.0728
542.9426, 246.2800
543.4247, 246.3992
543.9068, 246.5138
544.3889, 246.7483
544.8710, 247.1264
545.3531, 247.4721
545.8353, 247.4573
546.3174, 247.1429
546.7995, 247.3648
547.2816, 248.5114
547.7637, 249.4589
548.2458, 249.1314
548.7280, 248.2162
549.2101, 247.8656
549.6922, 248.5416
550.1743, 249.2176
550.6564, 249.2502
551.1385, 248.8194
551.6207, 248.2729
552.1028, 247.6812
552.5849, 247.0329
553.0670, 246.3175
553.5491, 245.5324
554.0313, 244.7001
554.5134, 243.6106
554.9955, 242.7336
555.4776, 242.4359
555.9597, 242.3107
556.4418, 241.8359
556.9240, 240.8917
557.4061, 239.7924
557.8882, 238.9363
558.3703, 238.3498
558.8524, 237.3885
559.3345, 235.8243
559.8167, 234.2063
560.2988, 232.7165
560.7809, 231.2820
561.2630, 229.8016
561.7451, 228.2516
562.2272, 226.6752
562.7094, 224.9564
563.1915, 223.2307
563.6736, 222.0227
564.1557, 221.4575
564.6378, 221.0441
565.1199, 220.3849
565.6021, 219.5977
566.0842, 219.1845
566.5663, 219.6685
567.0484, 219.7827
567.5305, 218.7506
568.0126, 217.2734
568.4948, 216.2864
568.9769, 215.9188
569.4590, 215.5866
569.9411, 214.7289
570.4232, 213.3806
570.9053, 212.2783
571.3875, 211.4836
571.8696, 210.8693
572.3517, 210.2931
572.8338, 209.9511
573.3159, 210.2001
573.7980, 211.0058
574.2802, 211.7230
574.7623, 211.6818
575.2444, 211.0736
575.7265, 210.6746
576.2086, 210.4982
576.6907, 210.4807
577.1729, 210.6102
577.6550, 210.8844
578.1371, 211.2528
578.6192, 211.6845
579.1013, 212.3490
579.5834, 213.5557
580.0656, 214.8823
580.5477, 215.9017
581.0298, 216.5682
581.5119, 216.8527
581.9940, 216.6203
582.4761, 216.2170
582.9583, 216.8377
583.4404, 219.3506
583.9225, 221.6105
584.4046, 223.7562
584.8867, 225.5173
585.3688, 226.4173
