##NAMES=Ktenasite
##RRUFFID=R070081
##IDEAL CHEMISTRY=Zn^2+^Cu^2+^_4_(S^6+^O_4_)_2_(OH)_6_&#183;6H_2_O
##LOCALITY=Amot, Modum, Norway
##OWNER=RRUFF
##SOURCE=Bob Jenkins
##DESCRIPTION=Radial aggregates of bluish green tabular crystals, associated with colorless tabular gypsum crystals.
##STATUS=The identification of this mineral has been confirmed only by single crystal X-ray diffraction.
##URL=rruff.info/R070081
158.3766, 594.7115
158.8587, 597.9503
159.3408, 601.4891
159.8230, 602.4390
160.3051, 594.3487
160.7872, 585.1691
161.2693, 582.7881
161.7514, 598.4175
162.2335, 614.4489
162.7157, 621.6190
163.1978, 618.6816
163.6799, 615.2706
164.1620, 613.9983
164.6441, 615.5293
165.1262, 620.8170
165.6084, 634.1443
166.0905, 648.9007
166.5726, 661.1970
167.0547, 670.9539
167.5368, 676.7515
168.0189, 674.7512
168.5011, 667.8176
168.9832, 662.4634
169.4653, 662.4523
169.9474, 665.4705
170.4295, 669.6857
170.9116, 675.4507
171.3938, 680.8373
171.8759, 684.1783
172.3580, 685.6944
172.8401, 686.3079
173.3222, 687.1558
173.8043, 687.3041
174.2865, 684.8024
174.7686, 676.9521
175.2507, 669.4188
175.7328, 670.1506
176.2149, 678.2161
176.6970, 686.5026
177.1792, 688.8438
177.6613, 687.4700
178.1434, 687.0704
178.6255, 690.1204
179.1076, 693.9933
179.5897, 694.8564
180.0719, 692.7042
180.5540, 688.4849
181.0361, 680.3969
181.5182, 670.3981
182.0003, 664.4894
182.4824, 667.2343
182.9646, 674.9059
183.4467, 679.3278
183.9288, 680.4064
184.4109, 679.4268
184.8930, 676.2021
185.3751, 671.3755
185.8573, 668.8588
186.3394, 671.1982
186.8215, 677.3041
187.3036, 683.8193
187.7857, 691.3528
188.2678, 697.2115
188.7500, 696.0121
189.2321, 688.0743
189.7142, 681.6098
190.1963, 682.7702
190.6784, 689.9499
191.1605, 690.0847
191.6427, 680.9265
192.1248, 668.8168
192.6069, 664.6267
193.0890, 668.6151
193.5711, 675.3765
194.0532, 683.4446
194.5354, 692.6570
195.0175, 698.9888
195.4996, 701.9692
195.9817, 702.3121
196.4638, 701.1993
196.9460, 698.4655
197.4281, 695.3497
197.9102, 693.1342
198.3923, 691.9665
198.8744, 687.8512
199.3565, 678.4135
199.8387, 667.1430
200.3208, 664.5256
200.8029, 671.5394
201.2850, 683.5659
201.7671, 700.3561
202.2492, 723.6743
202.7314, 737.1573
203.2135, 735.8847
203.6956, 723.5948
204.1777, 716.3925
204.6598, 715.0519
205.1419, 716.7762
205.6241, 719.7114
206.1062, 723.9972
206.5883, 728.8163
207.0704, 734.6440
207.5525, 741.0692
208.0346, 744.7943
208.5168, 745.3765
208.9989, 744.1058
209.4810, 741.2872
209.9631, 735.6282
210.4452, 733.0102
210.9273, 735.0201
211.4095, 741.5027
211.8916, 748.8754
212.3737, 758.1970
212.8558, 766.8705
213.3379, 772.0615
213.8200, 772.6443
214.3022, 772.6379
214.7843, 772.2258
215.2664, 771.2822
215.7485, 773.8422
216.2306, 781.1619
216.7127, 790.5508
217.1949, 799.6983
217.6770, 810.3846
218.1591, 816.6837
218.6412, 815.5229
219.1233, 805.5564
219.6054, 801.3425
220.0876, 805.5245
220.5697, 813.0448
221.0518, 817.0182
221.5339, 815.4754
222.0160, 814.1842
222.4981, 814.1364
222.9803, 814.7927
223.4624, 820.2505
223.9445, 833.1203
224.4266, 848.8409
224.9087, 860.4603
225.3908, 867.4662
225.8730, 871.2372
226.3551, 871.4688
226.8372, 866.8724
227.3193, 863.8508
227.8014, 861.5074
228.2835, 861.2596
228.7657, 865.9446
229.2478, 878.5412
229.7299, 891.3777
230.2120, 901.8788
230.6941, 909.9019
231.1762, 916.5018
231.6584, 921.0992
232.1405, 924.5633
232.6226, 928.4413
233.1047, 932.7762
233.5868, 937.4785
234.0689, 942.6758
234.5511, 949.1311
235.0332, 953.8958
235.5153, 956.3628
235.9974, 957.3840
236.4795, 958.7266
236.9616, 960.6959
237.4438, 962.5198
237.9259, 963.2769
238.4080, 960.6397
238.8901, 963.4689
239.3722, 975.4863
239.8543, 991.8335
240.3365, 1000.362
240.8186, 994.4913
241.3007, 990.3755
241.7828, 996.3358
242.2649, 1021.497
242.7470, 1034.304
243.2292, 1029.016
243.7113, 1012.901
244.1934, 1004.168
244.6755, 1004.477
245.1576, 1009.741
245.6397, 1019.666
246.1219, 1039.971
246.6040, 1051.155
247.0861, 1049.542
247.5682, 1039.687
248.0503, 1033.947
248.5324, 1034.918
249.0146, 1036.139
249.4967, 1034.649
249.9788, 1029.072
250.4609, 1024.070
250.9430, 1020.612
251.4251, 1017.467
251.9073, 1010.615
252.3894, 996.6188
252.8715, 984.3579
253.3536, 978.4145
253.8357, 982.0701
254.3178, 984.1190
254.8000, 984.5665
255.2821, 983.2534
255.7642, 979.5652
256.2463, 972.5757
256.7284, 964.7396
257.2105, 956.5771
257.6927, 946.0022
258.1748, 941.6779
258.6569, 948.8354
259.1390, 960.3345
259.6211, 954.2104
260.1032, 919.6587
260.5854, 888.1288
261.0675, 875.6456
261.5496, 889.6295
262.0317, 900.4369
262.5138, 908.3103
262.9959, 912.2457
263.4781, 908.4294
263.9602, 893.2779
264.4423, 878.2957
264.9244, 869.5486
265.4065, 868.8071
265.8886, 867.4315
266.3708, 864.9639
266.8529, 861.9325
267.3350, 859.7866
267.8171, 858.9151
268.2992, 857.8561
268.7813, 856.2928
269.2635, 854.6044
269.7456, 849.9434
270.2277, 840.8947
270.7098, 830.1349
271.1919, 824.1713
271.6740, 824.2367
272.1562, 824.8997
272.6383, 823.3836
273.1204, 819.2405
273.6025, 816.7633
274.0846, 817.4473
274.5667, 818.1568
275.0489, 810.3292
275.5310, 791.0938
276.0131, 776.7957
276.4952, 779.3491
276.9773, 800.9199
277.4594, 807.9380
277.9416, 795.9550
278.4237, 775.3992
278.9058, 763.8159
279.3879, 762.0411
279.8700, 762.7637
280.3521, 763.6344
280.8343, 764.6509
281.3164, 763.6357
281.7985, 760.3582
282.2806, 755.4578
282.7627, 748.3531
283.2448, 738.7151
283.7270, 733.0195
284.2091, 736.9954
284.6912, 749.3785
285.1733, 755.0823
285.6554, 752.8574
286.1375, 747.5223
286.6197, 746.7529
287.1018, 750.2421
287.5839, 750.8447
288.0660, 740.6380
288.5481, 723.6070
289.0303, 722.8029
289.5124, 741.0182
289.9945, 762.5626
290.4766, 766.8970
290.9587, 756.0129
291.4409, 743.9226
291.9230, 735.3008
292.4051, 729.7996
292.8872, 726.7114
293.3693, 726.0782
293.8514, 727.5323
294.3336, 732.8954
294.8157, 740.7036
295.2978, 745.0130
295.7799, 739.9444
296.2620, 731.1110
296.7441, 731.7053
297.2263, 742.0689
297.7084, 752.3098
298.1905, 750.4036
298.6726, 740.7021
299.1547, 734.1807
299.6368, 735.8619
300.1190, 742.0975
300.6011, 749.7953
301.0832, 758.7689
301.5653, 763.7949
302.0474, 757.3497
302.5295, 744.4484
303.0117, 733.5561
303.4938, 724.5342
303.9759, 721.4462
304.4580, 733.7792
304.9401, 759.4488
305.4222, 781.5839
305.9044, 786.9146
306.3865, 782.1755
306.8686, 776.3531
307.3507, 770.5028
307.8328, 765.9986
308.3149, 765.7420
308.7971, 768.4969
309.2792, 768.7995
309.7613, 758.4921
310.2434, 746.3870
310.7255, 741.6412
311.2076, 749.4092
311.6898, 759.6514
312.1719, 767.4526
312.6540, 773.0062
313.1361, 776.8660
313.6182, 780.2896
314.1003, 781.5503
314.5825, 778.8976
315.0646, 770.2171
315.5467, 761.7222
316.0288, 755.3035
316.5109, 750.9501
316.9930, 748.5485
317.4752, 749.1483
317.9573, 750.8914
318.4394, 752.0221
318.9215, 750.6212
319.4036, 753.7839
319.8857, 772.8883
320.3679, 796.1264
320.8500, 805.3917
321.3321, 776.6715
321.8142, 749.7954
322.2963, 742.7066
322.7784, 762.4281
323.2606, 776.6312
323.7427, 776.9534
324.2248, 770.5135
324.7069, 765.6548
325.1890, 767.3888
325.6711, 766.7303
326.1533, 759.8845
326.6354, 745.1191
327.1175, 735.3291
327.5996, 731.8942
328.0817, 732.9666
328.5638, 737.0381
329.0460, 746.7710
329.5281, 756.2940
330.0102, 767.0195
330.4923, 778.7366
330.9744, 780.5696
331.4565, 763.3553
331.9387, 745.0716
332.4208, 739.8472
332.9029, 756.6008
333.3850, 768.8698
333.8671, 772.2181
334.3492, 768.4706
334.8314, 768.2183
335.3135, 773.5196
335.7956, 778.8275
336.2777, 780.0887
336.7598, 775.2962
337.2419, 774.0235
337.7241, 778.4388
338.2062, 785.9557
338.6883, 788.9445
339.1704, 786.6847
339.6525, 782.7059
340.1346, 777.4009
340.6168, 770.4071
341.0989, 768.8159
341.5810, 773.8409
342.0631, 782.7903
342.5452, 792.6124
343.0273, 803.7117
343.5095, 810.2006
343.9916, 806.1410
344.4737, 793.6295
344.9558, 788.4471
345.4379, 791.6703
345.9200, 798.0836
346.4022, 801.7608
346.8843, 803.0105
347.3664, 803.9116
347.8485, 806.5939
348.3306, 809.1044
348.8127, 804.9724
349.2949, 793.9127
349.7770, 784.0677
350.2591, 784.0810
350.7412, 791.1973
351.2233, 798.8264
351.7054, 804.6398
352.1876, 810.2621
352.6697, 819.6978
353.1518, 832.1208
353.6339, 840.7486
354.1160, 838.3914
354.5981, 830.0970
355.0803, 821.8671
355.5624, 813.5053
356.0445, 808.1586
356.5266, 811.6989
357.0087, 821.0020
357.4908, 826.4601
357.9730, 818.1349
358.4551, 806.8300
358.9372, 800.9539
359.4193, 802.7560
359.9014, 807.3138
360.3835, 813.0445
360.8657, 819.8878
361.3478, 827.7396
361.8299, 840.0268
362.3120, 850.4459
362.7941, 856.3679
363.2762, 857.4205
363.7584, 854.7857
364.2405, 845.9056
364.7226, 834.5633
365.2047, 824.8046
365.6868, 815.7520
366.1689, 809.9161
366.6511, 807.6481
367.1332, 808.9083
367.6153, 814.2192
368.0974, 828.5343
368.5795, 843.8641
369.0616, 854.9631
369.5438, 862.6635
370.0259, 864.7549
370.5080, 856.4949
370.9901, 841.2623
371.4722, 837.8548
371.9543, 855.2930
372.4365, 872.2117
372.9186, 876.3952
373.4007, 862.1180
373.8828, 850.9907
374.3649, 842.8364
374.8470, 838.8045
375.3292, 843.6599
375.8113, 860.7731
376.2934, 874.9935
376.7755, 877.9055
377.2576, 869.0382
377.7397, 866.8076
378.2219, 873.1617
378.7040, 881.2954
379.1861, 881.3416
379.6682, 873.3415
380.1503, 865.9202
380.6324, 860.0816
381.1146, 857.2895
381.5967, 863.8093
382.0788, 880.0668
382.5609, 898.8458
383.0430, 916.3691
383.5251, 931.4835
384.0073, 940.0342
384.4894, 938.2538
384.9715, 933.0574
385.4536, 934.2255
385.9357, 940.9212
386.4178, 948.9858
386.9000, 957.3717
387.3821, 964.8455
387.8642, 969.3701
388.3463, 969.7945
388.8284, 969.8731
389.3105, 973.9919
389.7927, 979.9271
390.2748, 983.1611
390.7569, 977.6714
391.2390, 971.6165
391.7211, 969.8582
392.2032, 972.7858
392.6854, 979.9609
393.1675, 995.3607
393.6496, 1013.318
394.1317, 1027.804
394.6138, 1034.523
395.0959, 1040.191
395.5781, 1047.960
396.0602, 1057.392
396.5423, 1062.688
397.0244, 1058.170
397.5065, 1052.355
397.9886, 1050.238
398.4708, 1049.171
398.9529, 1055.673
399.4350, 1075.023
399.9171, 1101.950
400.3992, 1122.036
400.8813, 1133.967
401.3635, 1140.689
401.8456, 1142.020
402.3277, 1135.563
402.8098, 1133.518
403.2919, 1137.512
403.7740, 1144.219
404.2562, 1147.431
404.7383, 1144.033
405.2204, 1149.294
405.7025, 1171.884
406.1846, 1208.098
406.6667, 1228.790
407.1489, 1231.657
407.6310, 1228.709
408.1131, 1231.634
408.5952, 1239.648
409.0773, 1241.633
409.5594, 1233.039
410.0416, 1220.837
410.5237, 1219.135
411.0058, 1227.015
411.4879, 1234.682
411.9700, 1236.068
412.4521, 1232.973
412.9343, 1228.906
413.4164, 1224.139
413.8985, 1218.584
414.3806, 1210.260
414.8628, 1201.090
415.3449, 1195.139
415.8270, 1197.633
416.3091, 1201.875
416.7912, 1201.888
417.2733, 1197.659
417.7555, 1193.632
418.2376, 1191.389
418.7197, 1190.847
419.2018, 1192.062
419.6839, 1199.901
420.1660, 1203.881
420.6482, 1195.764
421.1303, 1179.865
421.6124, 1171.322
422.0945, 1179.752
422.5766, 1191.198
423.0587, 1199.750
423.5409, 1205.183
424.0230, 1207.345
424.5051, 1202.310
424.9872, 1195.430
425.4693, 1194.550
425.9514, 1206.149
426.4336, 1213.957
426.9157, 1212.476
427.3978, 1201.583
427.8799, 1197.376
428.3620, 1204.062
428.8441, 1210.839
429.3263, 1205.229
429.8084, 1182.684
430.2905, 1175.628
430.7726, 1193.434
431.2547, 1224.926
431.7368, 1240.804
432.2190, 1240.116
432.7011, 1236.529
433.1832, 1235.733
433.6653, 1238.124
434.1474, 1247.740
434.6295, 1266.252
435.1117, 1284.224
435.5938, 1286.199
436.0759, 1277.622
436.5580, 1275.989
437.0401, 1294.205
437.5222, 1319.023
438.0044, 1332.813
438.4865, 1336.830
438.9686, 1342.431
439.4507, 1362.269
439.9328, 1385.535
440.4149, 1399.349
440.8971, 1394.879
441.3792, 1391.960
441.8613, 1404.484
442.3434, 1426.080
442.8255, 1443.192
443.3076, 1446.481
443.7898, 1447.994
444.2719, 1453.539
444.7540, 1464.704
445.2361, 1473.747
445.7182, 1477.773
446.2003, 1479.853
446.6825, 1482.971
447.1646, 1488.859
447.6467, 1493.479
448.1288, 1494.372
448.6109, 1492.947
449.0930, 1499.059
449.5752, 1519.030
450.0573, 1535.877
450.5394, 1538.984
451.0215, 1524.512
451.5036, 1513.032
451.9857, 1504.514
452.4679, 1499.647
452.9500, 1502.368
453.4321, 1513.454
453.9142, 1518.104
454.3963, 1506.763
454.8784, 1485.527
455.3606, 1477.043
455.8427, 1481.780
456.3248, 1488.142
456.8069, 1486.498
457.2890, 1478.739
457.7711, 1468.843
458.2533, 1456.303
458.7354, 1444.461
459.2175, 1438.737
459.6996, 1436.864
460.1817, 1432.126
460.6638, 1415.510
461.1460, 1398.316
461.6281, 1390.123
462.1102, 1392.643
462.5923, 1395.601
463.0744, 1397.684
463.5565, 1396.384
464.0387, 1389.138
464.5208, 1366.087
465.0029, 1346.810
465.4850, 1339.981
465.9671, 1342.583
466.4492, 1338.178
466.9314, 1312.083
467.4135, 1291.053
467.8956, 1287.782
468.3777, 1313.584
468.8598, 1327.132
469.3419, 1324.806
469.8241, 1313.318
470.3062, 1300.710
470.7883, 1286.124
471.2704, 1273.404
471.7525, 1262.858
472.2346, 1254.951
472.7168, 1254.456
473.1989, 1262.684
473.6810, 1269.451
474.1631, 1263.841
474.6452, 1248.898
475.1273, 1241.247
475.6095, 1244.665
476.0916, 1250.881
476.5737, 1247.689
477.0558, 1237.858
477.5379, 1230.260
478.0201, 1230.298
478.5022, 1234.056
478.9843, 1239.508
479.4664, 1246.317
479.9485, 1248.781
480.4306, 1236.299
480.9128, 1221.167
481.3949, 1215.691
481.8770, 1231.677
482.3591, 1244.749
482.8412, 1244.806
483.3233, 1236.118
483.8055, 1228.571
484.2876, 1222.004
484.7697, 1218.826
485.2518, 1222.385
485.7339, 1235.419
486.2160, 1237.883
486.6982, 1220.066
487.1803, 1200.487
487.6624, 1196.464
488.1445, 1215.457
488.6266, 1229.777
489.1087, 1235.814
489.5909, 1234.940
490.0730, 1229.901
490.5551, 1220.004
491.0372, 1210.073
491.5193, 1200.901
492.0014, 1193.238
492.4836, 1194.346
492.9657, 1205.953
493.4478, 1215.357
493.9299, 1203.443
494.4120, 1178.364
494.8941, 1162.700
495.3763, 1169.574
495.8584, 1181.212
496.3405, 1177.310
496.8226, 1161.385
497.3047, 1145.735
497.7868, 1137.819
498.2690, 1132.165
498.7511, 1123.890
499.2332, 1111.065
499.7153, 1102.467
500.1974, 1104.787
500.6795, 1111.474
501.1617, 1115.529
501.6438, 1117.494
502.1259, 1114.766
502.6080, 1102.782
503.0901, 1084.567
503.5722, 1074.705
504.0544, 1079.728
504.5365, 1084.306
505.0186, 1080.587
505.5007, 1065.537
505.9828, 1058.331
506.4649, 1062.031
506.9471, 1067.932
507.4292, 1062.724
507.9113, 1045.903
508.3934, 1036.666
508.8755, 1043.848
509.3576, 1058.032
509.8398, 1056.899
510.3219, 1041.661
510.8040, 1025.097
511.2861, 1014.384
511.7682, 1008.100
512.2504, 1004.984
512.7325, 1005.255
513.2146, 1005.509
513.6967, 1004.979
514.1788, 1002.362
514.6609, 995.9105
515.1431, 975.8446
515.6252, 960.8282
516.1073, 965.2659
516.5894, 983.2627
517.0715, 990.0955
517.5536, 967.7149
518.0358, 943.5770
518.5179, 930.2025
519.0000, 931.5015
519.4821, 932.1071
519.9642, 932.5419
520.4464, 931.8405
520.9285, 927.7726
521.4106, 917.2580
521.8927, 913.6869
522.3748, 922.3801
522.8569, 938.0086
523.3391, 943.1471
523.8212, 936.9857
524.3033, 928.4308
524.7854, 919.9390
525.2675, 912.9070
525.7496, 914.5722
526.2318, 925.9586
526.7139, 937.9900
527.1960, 941.3412
527.6781, 938.9832
528.1602, 936.8696
528.6423, 938.8334
529.1245, 938.7358
529.6066, 929.3564
530.0887, 913.9669
530.5708, 901.4460
531.0529, 896.8834
531.5350, 895.1470
532.0172, 894.2900
532.4993, 894.3336
532.9814, 893.7559
533.4635, 890.9957
533.9456, 888.3728
534.4277, 887.5775
534.9099, 888.7819
535.3920, 891.9012
535.8741, 898.8558
536.3562, 906.7572
536.8383, 907.2206
537.3204, 898.0299
537.8026, 890.6487
538.2847, 891.2306
538.7668, 898.0150
539.2489, 898.7579
539.7310, 892.8533
540.2131, 886.6456
540.6953, 886.5270
541.1774, 890.3335
541.6595, 892.0515
542.1416, 889.8537
542.6237, 887.5431
543.1058, 890.3028
543.5880, 895.6819
544.0701, 898.7227
544.5522, 895.7971
545.0343, 891.2416
545.5164, 885.9590
545.9985, 880.3722
546.4807, 878.5250
546.9628, 886.0185
547.4449, 894.2817
547.9270, 898.5980
548.4091, 897.3754
548.8912, 894.4890
549.3734, 888.4496
549.8555, 881.7401
550.3376, 877.4857
550.8197, 875.7322
551.3018, 876.7508
551.7839, 882.3391
552.2661, 890.0757
552.7482, 889.0554
553.2303, 878.5417
553.7124, 870.0844
554.1945, 874.6837
554.6766, 886.9529
555.1588, 888.0132
555.6409, 875.8725
556.1230, 865.1993
556.6051, 873.2471
557.0872, 890.6453
557.5693, 902.6047
558.0515, 902.6288
558.5336, 899.1630
559.0157, 895.9196
559.4978, 892.9782
559.9799, 890.6000
560.4620, 886.9758
560.9442, 885.6855
561.4263, 889.9953
561.9084, 901.2242
562.3905, 906.1587
562.8726, 901.4013
563.3547, 893.5895
563.8369, 885.6019
564.3190, 874.7786
564.8011, 874.3325
565.2832, 888.9164
565.7653, 908.4848
566.2474, 915.1968
566.7296, 908.8846
567.2117, 904.3325
567.6938, 908.6677
568.1759, 916.2231
568.6580, 913.2775
569.1401, 901.1359
569.6223, 890.0901
570.1044, 888.2604
570.5865, 890.8519
571.0686, 891.5406
571.5507, 888.9124
572.0328, 890.0424
572.5150, 903.4811
572.9971, 920.5480
573.4792, 932.4550
573.9613, 929.4502
574.4434, 929.7239
574.9255, 943.6196
575.4077, 963.2143
575.8898, 965.8519
576.3719, 937.2280
576.8540, 913.8706
577.3361, 908.4112
577.8182, 920.5416
578.3004, 931.2883
578.7825, 940.8781
579.2646, 947.8580
579.7467, 949.5801
580.2288, 946.8846
580.7109, 945.8511
581.1931, 947.3511
581.6752, 949.7616
582.1573, 951.0287
582.6394, 951.6700
583.1215, 952.9866
583.6036, 957.1513
584.0858, 960.5646
584.5679, 955.4113
585.0500, 945.8504
585.5321, 947.3827
586.0142, 981.1552
586.4963, 1015.044
586.9785, 1032.346
587.4606, 1028.402
587.9427, 1024.317
588.4248, 1019.145
588.9069, 1015.882
589.3890, 1017.073
589.8712, 1024.102
590.3533, 1031.179
590.8354, 1036.613
591.3175, 1043.611
591.7996, 1061.455
592.2817, 1090.257
592.7639, 1111.756
593.2460, 1115.886
593.7281, 1110.642
594.2102, 1112.142
594.6923, 1119.914
595.1744, 1131.032
595.6566, 1149.347
596.1387, 1166.870
596.6208, 1172.907
597.1029, 1164.544
597.5850, 1158.703
598.0671, 1163.102
598.5493, 1174.089
599.0314, 1188.203
599.5135, 1211.881
599.9956, 1229.942
600.4777, 1238.516
600.9598, 1241.316
601.4420, 1245.216
601.9241, 1249.465
602.4062, 1256.467
602.8883, 1267.741
603.3704, 1282.373
603.8525, 1297.470
604.3347, 1313.853
604.8168, 1323.557
605.2989, 1316.799
605.7810, 1299.185
606.2631, 1286.620
606.7452, 1280.379
607.2274, 1277.890
607.7095, 1278.811
608.1916, 1281.546
608.6737, 1283.663
609.1558, 1282.575
609.6379, 1283.665
610.1201, 1294.780
610.6022, 1309.276
611.0843, 1313.704
611.5664, 1289.960
612.0485, 1272.591
612.5306, 1273.476
613.0128, 1290.620
613.4949, 1297.234
613.9770, 1288.774
614.4591, 1279.211
614.9412, 1277.856
615.4233, 1284.958
615.9055, 1284.124
616.3876, 1273.590
616.8697, 1263.149
617.3518, 1267.531
617.8339, 1280.489
618.3160, 1282.722
618.7982, 1265.165
619.2803, 1246.542
619.7624, 1248.937
620.2445, 1262.714
620.7266, 1268.805
621.2087, 1251.516
621.6909, 1232.734
622.1730, 1220.393
622.6551, 1214.274
623.1372, 1211.526
623.6193, 1219.573
624.1014, 1222.786
624.5836, 1212.645
625.0657, 1185.299
625.5478, 1170.102
626.0299, 1170.013
626.5120, 1174.927
626.9941, 1177.748
627.4763, 1178.152
627.9584, 1170.038
628.4405, 1150.613
628.9226, 1128.527
629.4047, 1116.612
629.8868, 1111.315
630.3690, 1103.651
630.8511, 1084.467
631.3332, 1066.916
631.8153, 1062.368
632.2974, 1067.679
632.7795, 1071.871
633.2617, 1071.356
633.7438, 1068.767
634.2259, 1065.585
634.7080, 1062.169
635.1901, 1054.457
635.6722, 1039.257
636.1544, 1024.040
636.6365, 1014.097
637.1186, 1010.413
637.6007, 1005.486
638.0828, 998.2190
638.5649, 992.0461
639.0471, 992.0272
639.5292, 997.1605
640.0113, 1004.058
640.4934, 1014.818
640.9755, 1021.517
641.4576, 1008.963
641.9398, 985.1703
642.4219, 969.6798
642.9040, 981.3829
643.3861, 994.0050
643.8682, 991.2516
644.3503, 974.5397
644.8325, 964.9560
645.3146, 973.0344
645.7967, 981.9522
646.2788, 985.1906
646.7609, 981.9154
647.2430, 977.8137
647.7252, 972.0387
648.2073, 967.2145
648.6894, 966.0240
649.1715, 968.2582
649.6536, 972.1844
650.1357, 978.5858
650.6179, 983.1957
651.1000, 977.7211
651.5821, 966.4287
652.0642, 959.4299
652.5463, 964.5175
653.0284, 970.2921
653.5106, 969.2142
653.9927, 963.0281
654.4748, 956.5513
