##NAMES=Ktenasite
##RRUFFID=R090002
##IDEAL CHEMISTRY=Zn^2+^Cu^2+^_4_(S^6+^O_4_)_2_(OH)_6_&#183;6H_2_O
##LOCALITY=Oh mine, Gila County, Arizona, USA
##OWNER=RRUFF
##SOURCE=Michael Scott
##DESCRIPTION=Radial aggregates of bluish green tabular crystals associated with serpierite, R060475
##STATUS=The identification of this mineral has been confirmed by single-crystal X-ray diffraction.
##URL=rruff.info/R090002
90.52570, 0.0000000E+00
91.00781, 17.21305
91.48993, 16.96034
91.97205, 16.85981
92.45416, 17.19653
92.93628, 17.67437
93.41840, 17.53022
93.90051, 16.41723
94.38263, 15.03240
94.86475, 14.64941
95.34686, 15.25846
95.82898, 15.91802
96.31110, 15.76791
96.79321, 14.89200
97.27533, 14.13194
97.75745, 13.52353
98.23956, 13.19346
98.72168, 13.98540
99.20380, 16.19026
99.68591, 18.58071
100.1680, 19.79305
100.6501, 19.64605
101.1323, 19.12213
101.6144, 18.21916
102.0965, 16.81075
102.5786, 16.58618
103.0607, 17.69645
103.5428, 19.85055
104.0250, 22.78730
104.5071, 27.14837
104.9892, 31.17179
105.4713, 34.17349
105.9534, 35.89301
106.4355, 37.10587
106.9177, 37.27335
107.3998, 36.90867
107.8819, 37.63422
108.3640, 39.43554
108.8461, 42.32708
109.3282, 46.38100
109.8104, 51.31377
110.2925, 57.61702
110.7746, 65.85007
111.2567, 75.73817
111.7388, 85.50086
112.2209, 95.08402
112.7031, 104.3048
113.1852, 113.1448
113.6673, 121.3680
114.1494, 129.3326
114.6315, 137.3961
115.1136, 145.6671
115.5958, 153.0123
116.0779, 158.4380
116.5600, 162.9497
117.0421, 167.6546
117.5242, 171.9332
118.0063, 177.2922
118.4885, 184.9626
118.9706, 195.4111
119.4527, 206.1541
119.9348, 215.5991
120.4169, 224.3533
120.8990, 233.6890
121.3812, 244.7240
121.8633, 256.3558
122.3454, 267.4211
122.8275, 277.7571
123.3096, 287.6780
123.7917, 297.3369
124.2739, 306.7724
124.7560, 316.1251
125.2381, 326.4140
125.7202, 336.5795
126.2023, 344.4080
126.6844, 348.5129
127.1666, 351.3688
127.6487, 356.8939
128.1308, 364.9318
128.6129, 372.5189
129.0950, 376.6371
129.5771, 378.1879
130.0593, 380.5073
130.5414, 385.1647
131.0235, 390.9613
131.5056, 394.0485
131.9877, 392.7512
132.4698, 389.3115
132.9520, 388.4540
133.4341, 390.0204
133.9162, 391.1640
134.3983, 390.8260
134.8804, 389.2167
135.3625, 387.4072
135.8447, 385.0302
136.3268, 383.3307
136.8089, 384.3907
137.2910, 388.6172
137.7731, 393.0752
138.2552, 396.7056
138.7374, 399.4214
139.2195, 401.8386
139.7016, 403.7015
140.1837, 405.5180
140.6658, 408.7279
141.1479, 414.4708
141.6301, 419.0326
142.1122, 420.2165
142.5943, 415.9730
143.0764, 414.0641
143.5585, 415.4862
144.0406, 419.2382
144.5228, 421.7848
145.0049, 422.0685
145.4870, 422.4427
145.9691, 424.3029
146.4512, 429.3664
146.9333, 433.1147
147.4155, 434.5507
147.8976, 434.0555
148.3797, 435.1030
148.8618, 439.4964
149.3439, 444.1531
149.8260, 447.0917
150.3082, 446.6227
150.7903, 446.3533
151.2724, 446.6042
151.7545, 447.3770
152.2366, 448.3199
152.7188, 448.8202
153.2009, 449.7545
153.6830, 451.8237
154.1651, 456.9749
154.6472, 461.4157
155.1293, 464.1451
155.6115, 465.0226
156.0936, 465.3241
156.5757, 464.5578
157.0578, 463.5678
157.5399, 463.2908
158.0220, 463.6443
158.5042, 465.0041
158.9863, 468.0601
159.4684, 473.4483
159.9505, 477.6620
160.4326, 478.7456
160.9147, 478.1330
161.3969, 477.9499
161.8790, 479.9713
162.3611, 481.8712
162.8432, 482.1183
163.3253, 479.8688
163.8074, 477.9683
164.2896, 477.3417
164.7717, 477.9617
165.2538, 479.7868
165.7359, 484.2018
166.2180, 488.9914
166.7001, 492.4451
167.1823, 493.9055
167.6644, 494.6862
168.1465, 495.1974
168.6286, 495.5954
169.1107, 496.3283
169.5928, 498.7408
170.0750, 501.1571
170.5571, 501.6561
171.0392, 498.8889
171.5213, 495.6403
172.0034, 494.3726
172.4855, 494.7248
172.9677, 495.1154
173.4498, 494.5973
173.9319, 493.4811
174.4140, 492.1400
174.8961, 490.3564
175.3782, 488.7506
175.8604, 487.9871
176.3425, 488.0172
176.8246, 488.4586
177.3067, 489.2234
177.7888, 490.1857
178.2709, 491.0355
178.7531, 491.3905
179.2352, 491.8239
179.7173, 494.0211
180.1994, 497.8823
180.6815, 500.5132
181.1636, 497.4347
181.6458, 490.7062
182.1279, 486.6620
182.6100, 488.7224
183.0921, 494.1296
183.5742, 497.4174
184.0563, 498.4739
184.5385, 498.5768
185.0206, 498.6588
185.5027, 498.7448
185.9848, 498.9515
186.4669, 499.1848
186.9490, 499.5743
187.4312, 500.7648
187.9133, 502.8534
188.3954, 504.9339
188.8775, 506.0597
189.3596, 506.2538
189.8417, 505.6997
190.3239, 503.9587
190.8060, 501.3902
191.2881, 499.7054
191.7702, 498.8332
192.2523, 499.1668
192.7344, 502.2690
193.2166, 508.1236
193.6987, 512.4777
194.1808, 512.5746
194.6629, 508.9384
195.1450, 508.2318
195.6271, 511.1864
196.1093, 515.2017
196.5914, 515.8702
197.0735, 512.8411
197.5556, 510.7855
198.0377, 512.4217
198.5198, 517.7966
199.0020, 521.2155
199.4841, 522.2927
199.9662, 522.0889
200.4483, 522.0894
200.9304, 522.2247
201.4125, 522.9589
201.8947, 524.7526
202.3768, 527.7272
202.8589, 530.1407
203.3410, 531.8102
203.8231, 533.1586
204.3052, 534.8685
204.7874, 536.9298
205.2695, 539.4311
205.7516, 542.4623
206.2337, 546.0715
206.7158, 550.0208
207.1979, 554.6283
207.6801, 559.2830
208.1622, 562.4219
208.6443, 563.5558
209.1264, 564.7565
209.6085, 566.6714
210.0906, 569.0251
210.5728, 573.8275
211.0549, 582.5257
211.5370, 592.6367
212.0191, 597.5735
212.5012, 595.1005
212.9833, 593.0790
213.4655, 595.7283
213.9476, 604.8008
214.4297, 612.0172
214.9118, 616.7773
215.3939, 619.8235
215.8760, 622.7744
216.3581, 624.8525
216.8403, 628.3816
217.3224, 634.6779
217.8045, 644.6747
218.2866, 654.7497
218.7687, 664.9825
219.2508, 675.1465
219.7330, 684.2226
220.2151, 691.5854
220.6972, 698.9441
221.1793, 706.9686
221.6614, 715.7864
222.1435, 725.0962
222.6257, 735.1439
223.1078, 745.6129
223.5899, 756.1378
224.0720, 767.6571
224.5541, 777.7719
225.0362, 785.4216
225.5184, 789.6737
226.0005, 793.9344
226.4826, 799.9255
226.9647, 805.5873
227.4468, 804.6505
227.9289, 793.5895
228.4111, 781.3900
228.8932, 771.9117
229.3753, 765.3434
229.8574, 761.2369
230.3395, 760.5707
230.8216, 762.1644
231.3038, 762.6970
231.7859, 761.3348
232.2680, 760.1212
232.7501, 759.7143
233.2322, 759.2128
233.7143, 761.8642
234.1965, 770.1634
234.6786, 781.1203
235.1607, 785.9841
235.6428, 780.6445
236.1249, 775.1649
236.6070, 774.4149
237.0892, 782.0742
237.5713, 786.0554
238.0534, 784.2413
238.5355, 779.2878
239.0176, 778.2965
239.4997, 783.9096
239.9819, 789.6843
240.4640, 792.7226
240.9461, 791.6464
241.4282, 791.2114
241.9103, 791.9347
242.3924, 793.1432
242.8746, 793.1666
243.3567, 791.4692
243.8388, 789.4119
244.3209, 787.2545
244.8030, 784.1796
245.2851, 783.5248
245.7673, 787.0848
246.2494, 792.3480
246.7315, 793.6838
247.2136, 789.1849
247.6957, 783.7889
248.1778, 779.1691
248.6600, 775.2455
249.1421, 772.5518
249.6242, 771.6724
250.1063, 771.6879
250.5884, 770.8888
251.0705, 769.3074
251.5527, 766.8063
252.0348, 762.9738
252.5169, 756.8873
252.9990, 752.8674
253.4811, 751.9862
253.9632, 752.4235
254.4454, 750.8934
254.9275, 746.4819
255.4096, 741.8129
255.8917, 737.5808
256.3738, 733.7030
256.8560, 731.0234
257.3381, 730.6373
257.8202, 730.5157
258.3023, 727.2372
258.7844, 719.4297
259.2665, 711.5297
259.7487, 704.7677
260.2308, 699.2488
260.7129, 694.5411
261.1950, 691.1102
261.6771, 687.9992
262.1592, 683.7953
262.6414, 678.0381
263.1235, 672.4600
263.6056, 667.7882
264.0877, 664.0968
264.5698, 659.5760
265.0519, 654.1405
265.5341, 648.0235
266.0162, 640.9855
266.4983, 632.2421
266.9804, 625.2242
267.4625, 621.1974
267.9446, 620.1383
268.4268, 618.2797
268.9089, 615.6221
269.3910, 612.2362
269.8731, 608.0286
270.3552, 602.8444
270.8373, 597.4606
271.3195, 591.5233
271.8016, 585.2956
272.2837, 581.7108
272.7658, 581.6300
273.2479, 582.1551
273.7300, 580.4567
274.2122, 576.1834
274.6943, 571.8917
275.1764, 567.8651
275.6585, 564.2454
276.1406, 561.9616
276.6227, 561.2886
277.1049, 561.0583
277.5870, 560.2277
278.0691, 558.7062
278.5512, 557.6866
279.0333, 557.4470
279.5154, 557.7945
279.9976, 558.0945
280.4797, 558.3248
280.9618, 558.6215
281.4439, 559.1268
281.9260, 559.8385
282.4081, 560.5717
282.8903, 561.4695
283.3724, 562.1858
283.8545, 561.4292
284.3366, 559.0048
284.8187, 557.1631
285.3008, 557.8185
285.7830, 560.7333
286.2651, 562.8242
286.7472, 563.4635
287.2293, 563.8679
287.7114, 566.9505
288.1935, 572.6795
288.6757, 577.5379
289.1578, 578.5121
289.6399, 576.5533
290.1220, 576.6118
290.6041, 579.2219
291.0862, 583.0161
291.5684, 587.0767
292.0505, 591.1664
292.5326, 592.9794
293.0147, 590.3981
293.4968, 584.6647
293.9789, 579.0985
294.4611, 573.7443
294.9432, 569.1440
295.4253, 566.4622
295.9074, 565.2850
296.3895, 563.8757
296.8716, 561.1360
297.3538, 557.7426
297.8359, 555.1937
298.3180, 553.5054
298.8001, 551.8446
299.2822, 549.3741
299.7643, 546.2802
300.2465, 543.0947
300.7286, 540.1328
301.2107, 537.1086
301.6928, 533.0688
302.1749, 528.1627
302.6570, 524.1262
303.1392, 523.3643
303.6213, 524.2924
304.1034, 524.1874
304.5855, 521.9403
305.0676, 518.7413
305.5497, 515.4553
306.0319, 512.1488
306.5140, 508.9937
306.9961, 505.4877
307.4782, 502.4636
307.9603, 501.0941
308.4424, 502.4069
308.9246, 504.0206
309.4067, 504.2422
309.8888, 503.2938
310.3709, 501.8054
310.8530, 499.1284
311.3351, 496.6086
311.8173, 495.5286
312.2994, 496.4020
312.7815, 497.7162
313.2636, 498.9397
313.7457, 499.9474
314.2278, 500.5133
314.7100, 500.1915
315.1921, 499.6515
315.6742, 499.3852
316.1563, 499.5396
316.6384, 499.3822
317.1205, 498.2936
317.6027, 496.8022
318.0848, 495.5811
318.5669, 494.1343
319.0490, 493.6239
319.5311, 495.2624
320.0132, 499.2101
320.4954, 501.7615
320.9775, 500.6993
321.4596, 498.3406
321.9417, 496.6599
322.4238, 496.3275
322.9059, 496.4238
323.3881, 497.0495
323.8702, 498.1140
324.3523, 498.6864
324.8344, 498.0597
325.3165, 497.2843
325.7986, 496.9781
326.2808, 496.4453
326.7629, 497.2661
327.2450, 501.2390
327.7271, 507.0907
328.2092, 509.7816
328.6913, 505.8741
329.1735, 501.7972
329.6556, 500.0473
330.1377, 501.7693
330.6198, 503.7057
331.1019, 506.6149
331.5840, 509.4974
332.0662, 510.3063
332.5483, 507.0189
333.0304, 504.5623
333.5125, 504.8733
333.9946, 508.7284
334.4767, 511.1546
334.9589, 511.5747
335.4410, 511.1002
335.9231, 511.0714
336.4052, 511.5641
336.8873, 512.3309
337.3694, 513.4337
337.8515, 514.8353
338.3336, 515.8466
338.8158, 516.3572
339.2979, 516.7370
339.7800, 517.4648
340.2621, 518.6725
340.7442, 519.1953
341.2263, 518.4082
341.7085, 517.0089
342.1906, 517.7884
342.6727, 521.1310
343.1548, 524.2961
343.6369, 524.8051
344.1190, 522.8923
344.6012, 522.8842
345.0833, 525.8557
345.5654, 529.7006
346.0475, 530.0066
346.5296, 527.0260
347.0117, 524.8358
347.4939, 526.6971
347.9760, 531.1521
348.4581, 533.2482
348.9402, 532.4263
349.4223, 531.1046
349.9044, 532.2547
350.3866, 535.2535
350.8687, 537.9576
351.3508, 538.9415
351.8329, 539.3759
352.3150, 541.5549
352.7971, 545.4218
353.2793, 548.7263
353.7614, 548.8647
354.2435, 547.4840
354.7256, 547.3361
355.2077, 549.9268
355.6898, 553.1246
356.1720, 555.6674
356.6541, 557.4143
357.1362, 557.8126
357.6183, 555.0153
358.1004, 551.5543
358.5826, 549.7460
359.0647, 550.3317
359.5468, 551.7963
360.0289, 553.7469
360.5110, 555.9773
360.9931, 558.1039
361.4753, 560.9377
361.9574, 562.8402
362.4395, 562.4070
362.9216, 559.0128
363.4037, 556.5851
363.8858, 555.8103
364.3680, 556.7797
364.8501, 559.6027
365.3322, 567.5880
365.8143, 574.0468
366.2964, 577.1506
366.7785, 576.9288
367.2607, 575.7872
367.7428, 571.6318
368.2249, 568.1777
368.7070, 567.7196
369.1891, 572.8296
369.6712, 577.5480
370.1534, 582.1280
370.6355, 586.2279
371.1176, 588.6657
371.5997, 588.1775
372.0818, 587.6222
372.5639, 588.1371
373.0461, 590.0233
373.5282, 591.9135
374.0103, 593.4914
374.4924, 595.3807
374.9745, 598.9066
375.4566, 605.0195
375.9388, 609.7659
376.4209, 611.3165
376.9030, 610.0072
377.3851, 611.1898
377.8672, 615.4568
378.3493, 620.4141
378.8315, 623.6508
379.3136, 625.1728
379.7957, 626.7325
380.2778, 628.3890
380.7599, 630.5754
381.2420, 634.9920
381.7242, 641.5634
382.2063, 647.8625
382.6884, 651.7323
383.1705, 653.9180
383.6526, 656.8947
384.1347, 660.9409
384.6169, 665.5199
385.0990, 669.8225
385.5811, 674.0143
386.0632, 678.4659
386.5453, 684.0673
387.0274, 689.7170
387.5096, 693.6013
387.9917, 695.7064
388.4738, 697.5915
388.9559, 700.0314
389.4380, 703.0541
389.9201, 706.7186
390.4023, 710.9088
390.8844, 715.8882
391.3665, 722.8802
391.8486, 731.1532
392.3307, 737.7537
392.8128, 738.7928
393.2950, 739.3002
393.7771, 743.2772
394.2592, 753.2831
394.7413, 761.4971
395.2234, 764.0922
395.7055, 763.5242
396.1877, 763.5963
396.6698, 764.6173
397.1519, 766.8978
397.6340, 771.2489
398.1161, 778.0860
398.5982, 783.2623
399.0804, 785.6708
399.5625, 786.8451
400.0446, 787.8583
400.5267, 788.5709
401.0088, 789.3297
401.4909, 789.7188
401.9731, 790.1464
402.4552, 792.4122
402.9373, 797.5032
403.4194, 802.8388
403.9015, 807.2919
404.3836, 810.8268
404.8658, 813.5691
405.3479, 815.3702
405.8300, 816.5210
406.3121, 817.1625
406.7942, 817.0948
407.2763, 817.9259
407.7585, 820.8723
408.2406, 825.2192
408.7227, 826.4993
409.2048, 824.4076
409.6869, 821.7188
410.1690, 821.2437
410.6512, 822.4459
411.1333, 822.5477
411.6154, 820.6468
412.0975, 818.1361
412.5796, 817.9856
413.0617, 819.4966
413.5439, 819.2059
414.0260, 813.5529
414.5081, 805.4999
414.9902, 799.4826
415.4723, 795.9606
415.9544, 792.6906
416.4366, 787.8937
416.9187, 782.2061
417.4008, 776.6004
417.8829, 770.5647
418.3650, 765.4178
418.8471, 762.1174
419.3293, 760.4850
419.8114, 759.2642
420.2935, 758.4542
420.7756, 757.5404
421.2577, 756.2596
421.7398, 754.7804
422.2220, 752.5007
422.7041, 748.1221
423.1862, 743.0155
423.6683, 739.6214
424.1504, 739.3844
424.6325, 739.7054
425.1147, 739.7762
425.5968, 739.4479
426.0789, 740.2557
426.5610, 743.2726
427.0431, 746.4545
427.5252, 747.9228
428.0074, 746.4639
428.4895, 746.1733
428.9716, 747.8605
429.4537, 750.8712
429.9358, 753.1162
430.4179, 754.4095
430.9001, 755.5551
431.3822, 756.6855
431.8643, 757.7844
432.3464, 760.0983
432.8285, 763.8429
433.3106, 768.1122
433.7928, 771.8361
434.2749, 775.0621
434.7570, 778.0925
435.2391, 780.5402
435.7212, 783.2320
436.2033, 788.2643
436.6855, 795.3945
437.1676, 802.5869
437.6497, 808.4226
438.1318, 813.3734
438.6139, 818.1895
439.0960, 823.0601
439.5782, 827.5573
440.0603, 830.4771
440.5424, 832.8544
441.0245, 836.5682
441.5066, 843.2650
441.9887, 850.8639
442.4709, 858.8841
442.9530, 867.1911
443.4351, 873.7811
443.9172, 876.2944
444.3993, 877.6833
444.8814, 880.0409
445.3636, 884.2825
445.8457, 888.7629
446.3278, 893.9263
446.8099, 899.1530
447.2920, 903.0411
447.7741, 904.9344
448.2563, 906.2327
448.7384, 907.3908
449.2205, 908.5369
449.7026, 908.7180
450.1847, 907.8549
450.6668, 906.1564
451.1490, 903.6870
451.6311, 900.2420
452.1132, 896.8905
452.5953, 893.9786
453.0774, 891.1034
453.5595, 886.8999
454.0417, 881.2539
454.5238, 875.1232
455.0059, 869.1575
455.4880, 863.1913
455.9701, 855.6473
456.4522, 846.2621
456.9344, 836.9586
457.4165, 830.2814
457.8986, 825.3636
458.3807, 819.8887
458.8628, 812.2241
459.3449, 804.6035
459.8271, 800.0734
460.3092, 797.9860
460.7913, 795.4596
461.2734, 790.3347
461.7555, 784.3486
462.2376, 778.8181
462.7198, 773.9783
463.2019, 769.5986
463.6840, 765.3525
464.1661, 761.6188
464.6482, 758.8555
465.1303, 758.0290
465.6125, 757.2838
466.0946, 756.5529
466.5767, 755.6938
467.0588, 753.5636
467.5409, 748.0739
468.0230, 743.0663
468.5052, 740.3044
468.9873, 740.7028
469.4694, 741.1705
469.9515, 741.9862
470.4336, 742.6459
470.9157, 742.1718
471.3979, 739.9911
471.8800, 738.7495
472.3621, 739.4623
472.8442, 741.6209
473.3263, 742.5411
473.8084, 742.0163
474.2906, 741.8467
474.7727, 743.4771
475.2548, 746.6219
475.7369, 750.3129
476.2190, 754.7965
476.7011, 758.4371
477.1833, 757.9055
477.6654, 754.8196
478.1475, 753.6485
478.6296, 758.1829
479.1117, 764.1846
479.5938, 767.1354
480.0760, 767.4482
480.5581, 767.7977
481.0402, 769.9485
481.5223, 772.6559
482.0044, 775.0148
482.4865, 776.9611
482.9687, 778.2361
483.4508, 778.5878
483.9329, 778.2585
484.4150, 777.5936
484.8971, 776.6239
485.3792, 775.3533
485.8614, 774.1481
486.3435, 772.9161
486.8256, 769.9473
487.3077, 764.2130
487.7898, 758.0004
488.2719, 752.5971
488.7541, 748.6464
489.2362, 743.5705
489.7183, 736.6798
490.2004, 729.5497
490.6825, 724.6431
491.1646, 722.1472
491.6468, 719.9135
492.1289, 717.7128
492.6110, 715.1055
493.0931, 709.9884
493.5752, 702.3770
494.0573, 695.2318
494.5395, 691.0591
495.0216, 688.7717
495.5037, 685.8914
495.9858, 682.0536
496.4679, 678.3743
496.9500, 676.4888
497.4322, 675.3933
497.9143, 673.4550
498.3964, 669.3620
498.8785, 664.8522
499.3606, 660.2242
499.8427, 655.7629
500.3249, 653.0602
500.8070, 654.6668
501.2891, 656.5599
501.7712, 656.6193
502.2533, 654.1495
502.7354, 651.2347
503.2176, 647.3380
503.6997, 643.4376
504.1818, 640.5212
504.6639, 638.8145
505.1460, 637.6938
505.6281, 637.2848
506.1103, 637.3521
506.5924, 637.1321
507.0745, 636.7379
507.5566, 635.6305
508.0387, 632.6611
508.5208, 628.0473
509.0030, 627.1050
509.4851, 630.4890
509.9672, 633.8660
510.4493, 631.6447
510.9314, 625.4242
511.4135, 620.7574
511.8957, 619.7264
512.3778, 619.7225
512.8599, 617.6328
513.3420, 614.0649
513.8242, 610.7908
514.3063, 608.6882
514.7884, 607.2306
515.2705, 606.1057
515.7526, 605.2948
516.2347, 604.6422
516.7169, 604.6713
517.1990, 604.4828
517.6811, 603.3699
518.1632, 600.3505
518.6453, 597.5613
519.1274, 594.9868
519.6096, 592.7980
520.0917, 591.3686
520.5738, 590.8573
521.0559, 590.8832
521.5380, 591.7449
522.0201, 593.3176
522.5023, 593.0963
522.9844, 590.4724
523.4665, 587.7870
523.9486, 587.0641
524.4307, 588.1718
524.9128, 588.3158
525.3950, 587.1638
525.8771, 585.4232
526.3592, 583.5758
526.8413, 581.8384
527.3234, 580.9784
527.8055, 581.6849
528.2877, 583.0184
528.7698, 584.2395
529.2519, 585.2411
529.7340, 585.6279
530.2161, 584.9046
530.6982, 583.6634
531.1804, 582.1097
531.6625, 580.1437
532.1446, 578.8547
532.6267, 578.9206
533.1088, 579.6970
533.5909, 580.5881
534.0731, 581.9789
534.5552, 582.9291
535.0373, 583.2929
535.5194, 583.1986
536.0015, 582.7993
536.4836, 581.4113
536.9658, 581.1962
537.4479, 583.6463
537.9300, 588.5200
538.4121, 590.1572
538.8942, 587.9929
539.3763, 584.8636
539.8585, 582.8071
540.3406, 581.7716
540.8227, 581.6323
541.3048, 582.5258
541.7869, 583.7310
542.2690, 584.1341
542.7512, 584.1318
543.2333, 584.7365
543.7154, 587.4334
544.1975, 590.0194
544.6796, 590.4331
545.1617, 589.0762
545.6439, 587.6861
546.1260, 586.4406
546.6081, 585.8770
547.0902, 586.5113
547.5723, 588.7284
548.0544, 590.7129
548.5366, 592.6056
549.0187, 593.9431
549.5008, 594.2960
549.9829, 593.0886
550.4650, 591.9394
550.9471, 590.9645
551.4293, 590.1398
551.9114, 589.2507
552.3935, 588.1445
552.8756, 587.7548
553.3577, 588.7528
553.8398, 590.7563
554.3220, 591.8321
554.8041, 591.9508
555.2862, 592.1601
555.7683, 593.7161
556.2504, 595.8703
556.7325, 597.1037
557.2147, 597.1421
557.6968, 596.6578
558.1789, 595.0415
558.6610, 593.5493
559.1431, 594.0465
559.6252, 600.2855
560.1074, 605.4544
560.5895, 606.1090
561.0716, 603.4005
561.5537, 601.1962
562.0358, 600.4467
562.5179, 600.1217
563.0001, 599.9384
563.4822, 599.9135
563.9643, 599.7566
564.4464, 599.0988
564.9285, 598.8348
565.4106, 599.8903
565.8928, 602.5905
566.3749, 604.3953
566.8570, 604.9070
567.3391, 604.9657
567.8212, 606.2258
568.3033, 608.4328
568.7855, 609.4855
569.2676, 607.7672
569.7497, 605.4393
570.2318, 606.0295
570.7139, 608.9899
571.1960, 611.9752
571.6782, 613.6342
572.1603, 614.7036
572.6424, 615.6423
573.1245, 616.4872
573.6066, 617.4493
574.0887, 618.8524
574.5709, 620.2727
575.0530, 621.3986
575.5351, 622.2358
576.0172, 622.6888
576.4993, 622.1307
576.9814, 621.4909
577.4636, 622.4536
577.9457, 625.7830
578.4278, 628.6594
578.9099, 630.2219
579.3920, 630.8514
579.8741, 631.7848
580.3563, 632.9849
580.8384, 634.9630
581.3205, 638.6595
581.8026, 643.3624
582.2847, 646.7428
582.7668, 648.7301
583.2490, 650.3580
583.7311, 652.1159
584.2131, 654.1635
584.6953, 656.8929
585.1774, 660.8537
585.6595, 664.3622
586.1416, 665.7217
586.6237, 666.2725
