##NAMES=Ktenasite
##RRUFFID=R090002
##IDEAL CHEMISTRY=Zn^2+^Cu^2+^_4_(S^6+^O_4_)_2_(OH)_6_&#183;6H_2_O
##LOCALITY=Oh mine, Gila County, Arizona, USA
##OWNER=RRUFF
##SOURCE=Michael Scott
##DESCRIPTION=Radial aggregates of bluish green tabular crystals associated with serpierite, R060475
##STATUS=The identification of this mineral has been confirmed by single-crystal X-ray diffraction.
##URL=rruff.info/R090002
93.30109, 0.0000000E+00
93.78320, 149.8933
94.26532, 149.6745
94.74744, 150.1915
95.22955, 151.0736
95.71167, 152.3867
96.19379, 153.4679
96.67590, 154.7486
97.15802, 155.5831
97.64014, 155.7251
98.12225, 155.4005
98.60437, 154.9936
99.08649, 154.6460
99.56860, 154.3707
100.0507, 154.2121
100.5328, 154.0041
101.0150, 153.5557
101.4971, 152.5204
101.9792, 150.8526
102.4613, 149.6838
102.9434, 150.0981
103.4255, 150.8461
103.9077, 151.0531
104.3898, 150.4486
104.8719, 149.2397
105.3540, 147.6198
105.8361, 144.5171
106.3182, 142.9410
106.8004, 144.1955
107.2825, 146.8873
107.7646, 149.6008
108.2467, 151.6038
108.7288, 152.8163
109.2109, 151.9510
109.6931, 146.0864
110.1752, 141.0759
110.6573, 138.8540
111.1394, 138.9065
111.6215, 139.4628
112.1036, 138.8997
112.5858, 136.9400
113.0679, 136.4172
113.5500, 138.2443
114.0321, 140.7138
114.5142, 142.7784
114.9964, 144.2684
115.4785, 145.2818
115.9606, 145.7911
116.4427, 145.8304
116.9248, 145.7045
117.4069, 145.5165
117.8891, 145.2058
118.3712, 144.6243
118.8533, 143.6818
119.3354, 142.5332
119.8175, 140.8894
120.2996, 138.8439
120.7818, 137.7487
121.2639, 139.3801
121.7460, 143.8887
122.2281, 146.9323
122.7102, 146.3546
123.1923, 144.9246
123.6745, 143.8885
124.1566, 143.4921
124.6387, 143.3906
125.1208, 143.1453
125.6029, 142.8770
126.0850, 142.1451
126.5672, 140.4385
127.0493, 138.6043
127.5314, 137.4336
128.0135, 137.2204
128.4956, 137.5701
128.9777, 137.3623
129.4599, 135.4333
129.9420, 134.2361
130.4241, 134.4225
130.9062, 135.3767
131.3883, 136.1677
131.8704, 136.2624
132.3526, 135.8233
132.8347, 135.7837
133.3168, 136.9528
133.7989, 137.6472
134.2810, 136.6554
134.7632, 134.3138
135.2453, 132.3985
135.7274, 132.1465
136.2095, 133.2817
136.6916, 134.3846
137.1737, 135.5625
137.6559, 136.5797
138.1380, 137.1690
138.6201, 137.2816
139.1022, 137.1909
139.5843, 137.3113
140.0664, 137.3295
140.5486, 136.6399
141.0307, 134.3940
141.5128, 131.3429
141.9949, 129.7877
142.4770, 130.3615
142.9591, 131.6514
143.4413, 133.3922
143.9234, 135.2898
144.4055, 136.8544
144.8876, 137.7063
145.3697, 137.8426
145.8518, 137.7609
146.3340, 137.3003
146.8161, 136.7442
147.2982, 136.2469
147.7803, 135.7451
148.2624, 134.9956
148.7445, 133.6091
149.2267, 131.1150
149.7088, 130.1254
150.1909, 131.1599
150.6730, 132.8950
151.1551, 135.0327
151.6372, 137.3383
152.1194, 139.2010
152.6015, 139.8404
153.0836, 138.7198
153.5657, 137.5360
154.0478, 136.0603
154.5299, 134.6263
155.0121, 133.4432
155.4942, 132.5364
155.9763, 132.1669
156.4584, 133.2082
156.9405, 135.8689
157.4226, 137.6960
157.9048, 137.6715
158.3869, 136.3654
158.8690, 134.8143
159.3511, 132.9420
159.8332, 131.4897
160.3153, 131.5195
160.7975, 133.0658
161.2796, 134.5215
161.7617, 134.4803
162.2438, 133.1117
162.7259, 132.7176
163.2081, 135.0475
163.6902, 137.5545
164.1723, 138.3022
164.6544, 137.1136
165.1365, 135.0871
165.6186, 133.2024
166.1008, 131.3988
166.5829, 130.0685
167.0650, 129.3683
167.5471, 129.0884
168.0292, 129.1878
168.5113, 129.6433
168.9935, 130.3832
169.4756, 131.4016
169.9577, 133.2701
170.4398, 134.2520
170.9219, 133.7855
171.4040, 132.7781
171.8862, 131.9383
172.3683, 131.5356
172.8504, 131.4043
173.3325, 131.1516
173.8146, 130.8282
174.2967, 130.2893
174.7789, 128.9422
175.2610, 127.5651
175.7431, 127.3534
176.2252, 128.9131
176.7073, 131.4221
177.1894, 132.0916
177.6716, 128.8738
178.1537, 126.5374
178.6358, 126.6596
179.1179, 128.2493
179.6000, 129.3857
180.0821, 129.0753
180.5643, 127.7506
181.0464, 126.7976
181.5285, 126.3530
182.0106, 125.9875
182.4927, 125.5457
182.9748, 125.0275
183.4570, 124.3225
183.9391, 122.9284
184.4212, 121.6791
184.9033, 122.2806
185.3854, 125.9678
185.8675, 129.5117
186.3497, 129.8165
186.8318, 126.7847
187.3139, 123.9506
187.7960, 123.0690
188.2781, 123.1742
188.7602, 123.2026
189.2424, 122.8238
189.7245, 122.6095
190.2066, 123.5761
190.6887, 126.2096
191.1708, 128.2425
191.6530, 128.6216
192.1351, 128.1829
192.6172, 127.4438
193.0993, 126.5198
193.5814, 125.6425
194.0635, 125.3550
194.5457, 126.0410
195.0278, 126.5634
195.5099, 126.6142
195.9920, 126.4401
196.4741, 126.3093
196.9562, 126.3501
197.4384, 126.4295
197.9205, 126.1191
198.4026, 124.7979
198.8847, 123.9535
199.3668, 123.6608
199.8489, 123.9417
200.3311, 125.1039
200.8132, 127.3461
201.2953, 130.1178
201.7774, 131.2141
202.2595, 128.3060
202.7416, 126.2201
203.2238, 125.6488
203.7059, 126.1353
204.1880, 127.1954
204.6701, 128.6446
205.1522, 130.2076
205.6343, 130.5795
206.1165, 127.8799
206.5986, 126.2610
207.0807, 127.5674
207.5628, 130.5171
208.0449, 132.6421
208.5270, 132.5544
209.0092, 130.8501
209.4913, 129.9804
209.9734, 130.2548
210.4555, 130.7762
210.9376, 131.3978
211.4197, 132.0476
211.9019, 132.4167
212.3840, 132.1053
212.8661, 131.6554
213.3482, 132.6069
213.8303, 136.1173
214.3124, 139.0923
214.7946, 139.4306
215.2767, 137.5381
215.7588, 135.5780
216.2409, 134.4041
216.7230, 133.8060
217.2052, 133.2696
217.6873, 132.8277
218.1694, 132.3749
218.6515, 131.3906
219.1336, 129.9342
219.6157, 129.7787
220.0979, 132.6908
220.5800, 136.5957
221.0621, 139.1745
221.5442, 140.0079
222.0263, 140.2255
222.5084, 140.8630
222.9906, 141.9609
223.4727, 143.0537
223.9548, 143.5360
224.4369, 144.2603
224.9190, 146.3085
225.4011, 149.9767
225.8833, 153.4421
226.3654, 154.4795
226.8475, 152.7171
227.3296, 150.2670
227.8117, 146.3207
228.2938, 142.6122
228.7760, 140.6954
229.2581, 140.7819
229.7402, 141.2229
230.2223, 139.5208
230.7044, 134.6261
231.1865, 130.9412
231.6687, 129.2195
232.1508, 128.5305
232.6329, 128.7917
233.1150, 129.8037
233.5971, 130.7937
234.0792, 130.5208
234.5614, 128.1467
235.0435, 126.5943
235.5256, 125.9314
236.0077, 125.9538
236.4898, 126.9065
236.9719, 128.6507
237.4541, 130.4687
237.9362, 131.3694
238.4183, 131.0185
238.9004, 130.4707
239.3825, 129.5980
239.8646, 128.6657
240.3468, 127.6866
240.8289, 126.7412
241.3110, 126.1166
241.7931, 126.2168
242.2752, 127.4109
242.7573, 128.2921
243.2395, 128.8561
243.7216, 129.1646
244.2037, 129.1844
244.6858, 128.9465
245.1679, 128.5874
245.6501, 128.2416
246.1322, 127.8888
246.6143, 127.6681
247.0964, 127.4216
247.5785, 127.4044
248.0606, 128.1129
248.5428, 129.4299
249.0249, 130.4039
249.5070, 129.9718
249.9891, 127.8180
250.4712, 126.5644
250.9533, 126.5853
251.4355, 127.1447
251.9176, 128.0274
252.3997, 129.1148
252.8818, 129.9761
253.3639, 130.3636
253.8460, 130.1710
254.3282, 128.9767
254.8103, 125.1098
255.2924, 121.5725
255.7745, 120.9532
256.2566, 123.0614
256.7387, 125.3047
257.2209, 125.9774
257.7030, 125.1108
258.1851, 123.9612
258.6672, 121.4589
259.1493, 119.5398
259.6314, 120.1745
260.1136, 123.0697
260.5957, 125.5191
261.0778, 126.0140
261.5599, 124.7383
262.0420, 122.8356
262.5241, 118.9910
263.0063, 116.0815
263.4884, 117.1438
263.9705, 121.6555
264.4526, 124.9301
264.9347, 124.1107
265.4168, 121.0698
265.8990, 119.6415
266.3811, 120.3685
266.8632, 121.6107
267.3453, 122.5492
267.8274, 123.1362
268.3095, 122.8057
268.7917, 120.4197
269.2738, 117.8827
269.7559, 117.7922
270.2380, 120.5607
270.7201, 123.7330
271.2022, 125.9534
271.6844, 127.2339
272.1665, 127.5772
272.6486, 126.5562
273.1307, 124.9839
273.6128, 123.2159
274.0949, 121.2675
274.5771, 120.6289
275.0592, 123.5024
275.5413, 129.0504
276.0234, 132.2159
276.5055, 131.2282
276.9876, 128.9215
277.4698, 127.4309
277.9519, 126.6612
278.4340, 126.1116
278.9161, 125.2341
279.3982, 124.2579
279.8803, 124.3562
280.3625, 126.3149
280.8446, 128.2377
281.3267, 128.7895
281.8088, 128.4246
282.2909, 128.2044
282.7730, 128.7068
283.2552, 129.7893
283.7373, 131.0669
284.2194, 132.7933
284.7015, 134.2147
285.1836, 135.0529
285.6658, 135.4038
286.1479, 135.2789
286.6300, 134.3721
287.1121, 133.2979
287.5942, 133.5755
288.0764, 135.7195
288.5585, 138.0425
289.0406, 139.7184
289.5227, 141.3111
290.0048, 143.6647
290.4869, 147.3383
290.9691, 151.0450
291.4512, 152.3834
291.9333, 150.6207
292.4154, 148.8025
292.8975, 147.3865
293.3796, 146.4261
293.8618, 146.3131
294.3439, 147.1407
294.8260, 147.8923
295.3081, 147.0317
295.7902, 144.1379
296.2723, 141.6445
296.7545, 140.0956
297.2366, 138.9671
297.7187, 138.2736
298.2008, 137.8948
298.6829, 137.2643
299.1650, 135.5088
299.6472, 132.4094
300.1293, 130.2099
300.6114, 129.6418
301.0935, 129.5364
301.5756, 129.9024
302.0577, 130.4043
302.5399, 130.1673
303.0220, 128.0048
303.5041, 124.0676
303.9862, 121.7813
304.4683, 122.3895
304.9504, 123.3463
305.4326, 124.2913
305.9147, 124.8575
306.3968, 124.3372
306.8789, 121.9621
307.3610, 118.3716
307.8431, 116.4750
308.3253, 117.4859
308.8074, 118.3557
309.2895, 118.0779
309.7716, 117.2541
310.2537, 116.5967
310.7358, 116.4177
311.2180, 116.5486
311.7001, 116.6933
312.1822, 117.0674
312.6643, 116.9413
313.1464, 115.8930
313.6285, 114.5239
314.1107, 113.1803
314.5928, 111.9785
315.0749, 111.0719
315.5570, 110.7857
316.0391, 111.3373
316.5212, 111.7159
317.0034, 111.0869
317.4855, 110.8203
317.9676, 112.3911
318.4497, 115.5151
318.9318, 118.0433
319.4139, 117.2016
319.8961, 112.4728
320.3782, 109.5367
320.8603, 110.0722
321.3424, 110.9741
321.8245, 110.9245
322.3066, 110.2523
322.7888, 110.0359
323.2709, 111.3465
323.7530, 113.8391
324.2351, 114.8019
324.7172, 112.8938
325.1993, 111.2837
325.6815, 111.1348
326.1636, 111.8075
326.6457, 112.3621
327.1278, 112.3033
327.6099, 111.9608
328.0920, 112.2017
328.5742, 113.3970
329.0563, 114.3765
329.5384, 115.1643
330.0205, 115.4932
330.5026, 114.8989
330.9847, 113.2557
331.4669, 111.3535
331.9490, 110.3222
332.4311, 110.3465
332.9132, 110.4333
333.3953, 111.1309
333.8774, 111.3304
334.3596, 109.7734
334.8417, 106.7094
335.3238, 104.0934
335.8059, 104.2176
336.2880, 107.1343
336.7701, 108.9215
337.2523, 108.5495
337.7344, 108.0533
338.2165, 108.3656
338.6986, 109.2858
339.1807, 110.3246
339.6628, 111.4442
340.1450, 112.3851
340.6271, 112.0181
341.1092, 109.5845
341.5913, 107.2913
342.0735, 105.8943
342.5556, 105.1245
343.0377, 104.6261
343.5198, 104.2093
344.0019, 104.1911
344.4840, 105.4069
344.9662, 108.3238
345.4483, 110.4543
345.9304, 110.5918
346.4125, 109.8847
346.8946, 108.7492
347.3767, 107.2656
347.8589, 106.1861
348.3410, 106.4960
348.8231, 108.1537
349.3052, 109.5027
349.7873, 110.6829
350.2694, 111.0010
350.7516, 109.3542
351.2337, 106.2882
351.7158, 104.0896
352.1979, 104.9600
352.6800, 107.8049
353.1621, 108.6756
353.6443, 106.4377
354.1264, 104.6979
354.6085, 106.4142
355.0906, 109.8469
355.5727, 112.2885
356.0548, 112.6173
356.5370, 111.8630
357.0191, 111.2356
357.5012, 110.7327
357.9833, 110.4424
358.4654, 110.7503
358.9475, 111.0771
359.4297, 110.6910
359.9118, 109.4262
360.3939, 107.9373
360.8760, 106.4940
361.3581, 105.1710
361.8402, 104.3389
362.3224, 104.1494
362.8045, 104.4019
363.2866, 105.2387
363.7687, 106.5556
364.2508, 107.0735
364.7329, 105.4821
365.2151, 103.0230
365.6972, 101.7686
366.1793, 101.9615
366.6614, 102.9321
367.1435, 104.6420
367.6256, 106.7644
368.1078, 108.2791
368.5899, 109.0473
369.0720, 109.1771
369.5541, 108.2854
370.0362, 106.5864
370.5183, 105.5534
371.0005, 105.9894
371.4826, 107.4402
371.9647, 108.9435
372.4468, 110.7955
372.9289, 111.9808
373.4110, 111.8671
373.8932, 110.8604
374.3753, 109.4830
374.8574, 107.7727
375.3395, 106.3264
375.8216, 105.9832
376.3037, 106.8404
376.7859, 107.9693
377.2680, 110.1352
377.7501, 111.9627
378.2322, 111.6817
378.7143, 109.4978
379.1964, 107.8773
379.6786, 108.9547
380.1607, 112.3526
380.6428, 113.6943
381.1249, 111.5058
381.6070, 109.2131
382.0891, 107.9343
382.5713, 107.4082
383.0534, 107.1044
383.5355, 106.8001
384.0176, 106.5431
384.4997, 106.4146
384.9818, 106.0770
385.4640, 106.4986
385.9461, 108.4808
386.4282, 110.7477
386.9103, 112.1907
387.3924, 112.6606
387.8745, 112.7407
388.3567, 113.1068
388.8388, 113.9378
389.3209, 113.6961
389.8030, 111.2722
390.2851, 109.0856
390.7672, 107.9848
391.2494, 107.8335
391.7315, 108.3453
392.2136, 109.4148
392.6957, 110.7643
393.1778, 111.2618
393.6599, 109.8064
394.1421, 109.0553
394.6242, 109.4691
395.1063, 110.5073
395.5884, 112.0372
396.0706, 113.8815
396.5527, 115.2912
397.0348, 114.8565
397.5169, 111.6256
397.9990, 110.3671
398.4811, 113.6971
398.9633, 116.6668
399.4454, 117.0868
399.9275, 115.4690
400.4096, 113.4666
400.8917, 112.0695
401.3738, 111.2433
401.8560, 110.8485
402.3381, 110.9066
402.8202, 111.3946
403.3023, 112.6960
403.7844, 114.1851
404.2665, 115.0524
404.7487, 115.0055
405.2308, 114.9892
405.7129, 116.6359
406.1950, 120.1246
406.6771, 122.0986
407.1592, 121.2423
407.6414, 119.3495
408.1235, 117.3803
408.6056, 115.4685
409.0877, 114.0852
409.5698, 113.8050
410.0519, 114.2052
410.5341, 114.2451
411.0162, 113.7928
411.4983, 113.3951
411.9804, 113.4126
412.4625, 113.7018
412.9446, 114.0713
413.4268, 114.6099
413.9089, 115.0211
414.3910, 115.0990
414.8731, 114.8525
415.3552, 114.2168
415.8373, 112.9426
416.3195, 111.6548
416.8016, 111.6211
417.2837, 112.9693
417.7658, 113.4251
418.2479, 111.7613
418.7300, 109.2243
419.2122, 106.8857
419.6943, 104.9247
420.1764, 103.9924
420.6585, 104.9358
421.1406, 107.5181
421.6227, 108.8741
422.1049, 107.9754
422.5870, 107.1224
423.0691, 107.6094
423.5512, 108.7079
424.0333, 109.0204
424.5154, 107.9740
424.9976, 106.1140
425.4797, 104.3928
425.9618, 102.4148
426.4439, 101.5141
426.9260, 102.4712
427.4081, 103.8562
427.8903, 104.7933
428.3724, 105.1871
428.8545, 105.2641
429.3366, 105.1628
429.8187, 104.9053
430.3008, 104.9680
430.7830, 105.2255
431.2651, 106.0009
431.7472, 108.4875
432.2293, 111.0820
432.7114, 111.4376
433.1935, 108.7580
433.6757, 105.0506
434.1578, 103.8443
434.6399, 106.0922
435.1220, 107.4623
435.6041, 106.6029
436.0862, 105.6665
436.5684, 105.9644
437.0505, 107.1587
437.5326, 107.8463
438.0147, 106.5631
438.4968, 104.1816
438.9789, 104.1685
439.4611, 107.7335
439.9432, 110.6045
440.4253, 110.8083
440.9074, 109.5088
441.3895, 107.5192
441.8716, 104.8313
442.3538, 102.4561
442.8359, 101.2201
443.3180, 101.0632
443.8001, 101.8765
444.2822, 104.1331
444.7643, 106.4556
445.2465, 107.3891
445.7286, 107.2094
446.2107, 106.9257
446.6928, 106.6430
447.1749, 106.4952
447.6570, 106.6721
448.1392, 107.1486
448.6213, 107.7811
449.1034, 108.7203
449.5855, 109.5568
450.0677, 108.9204
450.5498, 105.6542
451.0319, 103.5931
451.5140, 104.9139
451.9961, 107.4174
452.4782, 108.4038
452.9604, 107.3808
453.4425, 105.4854
453.9246, 103.7696
454.4067, 102.2100
454.8888, 101.1437
455.3709, 100.6222
455.8531, 100.4412
456.3352, 100.8516
456.8173, 101.4859
457.2994, 101.7133
457.7815, 101.2379
458.2636, 100.4032
458.7458, 99.98175
459.2279, 100.4319
459.7100, 100.3174
460.1921, 98.72146
460.6742, 97.35791
461.1563, 97.48293
461.6385, 98.85469
462.1206, 100.2727
462.6027, 100.8449
463.0848, 100.6917
463.5669, 100.4020
464.0490, 99.87813
464.5312, 99.41885
465.0133, 99.24612
465.4954, 99.12328
465.9775, 98.60858
466.4596, 97.53693
466.9417, 96.90984
467.4239, 98.28192
467.9060, 101.2162
468.3881, 102.6501
468.8702, 101.6943
469.3523, 100.0504
469.8344, 98.95131
470.3166, 98.29338
470.7987, 97.87598
471.2808, 97.68889
471.7629, 97.69128
472.2450, 97.89483
472.7271, 98.27560
473.2093, 98.78522
473.6914, 99.52332
474.1735, 100.1647
474.6556, 99.96905
475.1377, 98.71104
475.6198, 97.54005
476.1020, 96.16670
476.5841, 95.25624
477.0662, 95.87058
477.5483, 97.77197
478.0304, 99.30939
478.5125, 99.13737
478.9947, 97.49779
479.4768, 96.53635
479.9589, 96.55006
480.4410, 96.88930
480.9231, 98.04891
481.4052, 99.19700
481.8874, 99.40632
482.3695, 98.49619
482.8516, 97.05519
483.3337, 95.61620
483.8158, 94.07372
484.2979, 93.45969
484.7801, 94.52791
485.2622, 95.72228
485.7443, 96.78074
486.2264, 97.53944
486.7085, 97.72877
487.1906, 97.16882
487.6728, 96.24360
488.1549, 95.40229
488.6370, 94.63375
489.1191, 94.18944
489.6012, 94.33386
490.0833, 94.59056
490.5655, 94.16409
491.0476, 93.26478
491.5297, 93.36751
492.0118, 96.24641
492.4939, 99.78540
492.9760, 101.3906
493.4582, 101.0375
493.9403, 99.29317
494.4224, 95.79309
494.9045, 91.66920
495.3866, 90.02827
495.8687, 91.70075
496.3509, 93.22044
496.8330, 93.51638
497.3151, 93.42336
497.7972, 93.89305
498.2793, 94.98701
498.7614, 96.17021
499.2436, 97.09898
499.7257, 97.72179
500.2078, 97.11183
500.6899, 93.24950
501.1720, 90.60112
501.6541, 90.33893
502.1363, 91.42078
502.6184, 93.14519
503.1005, 95.13878
503.5826, 96.57608
504.0647, 96.08191
504.5468, 93.35277
505.0290, 91.81256
505.5111, 92.66259
505.9932, 93.22243
506.4753, 91.77798
506.9575, 89.54613
507.4396, 88.64022
507.9217, 90.10764
508.4038, 92.20577
508.8859, 92.50938
509.3680, 91.15685
509.8502, 90.91628
510.3323, 93.35289
510.8144, 95.51048
511.2965, 93.25905
511.7786, 87.60228
512.2607, 84.22103
512.7429, 86.36141
513.2250, 89.87360
513.7071, 91.61362
514.1892, 91.66057
514.6713, 90.53274
515.1534, 88.18536
515.6356, 85.57326
516.1177, 84.65843
516.5998, 86.48008
517.0819, 87.70811
517.5640, 87.46220
518.0461, 87.25033
518.5283, 88.58469
519.0104, 90.97365
519.4925, 92.58508
519.9746, 92.14387
520.4567, 90.21861
520.9388, 88.91012
521.4210, 88.45074
521.9031, 88.20443
522.3852, 88.30815
522.8673, 88.40713
523.3494, 88.19757
523.8315, 87.70327
524.3137, 87.20177
524.7958, 86.79208
525.2779, 86.55888
525.7600, 87.04869
526.2421, 88.63854
526.7242, 89.50649
527.2064, 88.13189
527.6885, 85.96834
528.1706, 84.98527
528.6527, 85.56100
529.1348, 85.96248
529.6169, 84.60476
530.0991, 82.75138
530.5812, 82.79469
531.0633, 84.99469
531.5454, 87.36555
532.0275, 88.57045
532.5096, 88.68887
532.9918, 88.22245
533.4739, 86.05562
533.9560, 84.82104
534.4381, 85.82805
534.9202, 87.62348
535.4023, 88.77369
535.8845, 88.94365
536.3666, 88.36668
536.8487, 87.04669
537.3308, 84.98579
537.8129, 84.54380
538.2950, 87.70456
538.7772, 89.89489
539.2593, 89.38882
539.7414, 87.79814
540.2235, 86.86217
540.7056, 87.02480
541.1877, 87.43133
541.6699, 87.28310
542.1520, 86.62936
542.6341, 85.64705
543.1162, 83.99789
543.5983, 82.89394
544.0804, 83.93970
544.5626, 85.91769
545.0447, 86.40502
545.5268, 84.24067
546.0089, 82.16692
546.4910, 82.08443
546.9731, 83.13063
547.4553, 83.40276
547.9374, 82.48573
548.4195, 81.97937
548.9016, 83.73218
549.3837, 87.84010
549.8658, 89.79655
550.3480, 88.33207
550.8301, 86.65162
551.3122, 85.46164
551.7943, 84.61929
552.2764, 83.83829
552.7585, 83.06770
553.2407, 82.56503
553.7228, 82.67649
554.2049, 83.42764
554.6870, 84.36308
555.1691, 85.85031
555.6512, 86.98087
556.1334, 87.44599
556.6155, 87.40107
557.0976, 86.96325
557.5797, 86.11760
558.0618, 85.23239
558.5439, 84.32976
559.0261, 83.62378
559.5082, 84.22224
559.9903, 86.61479
560.4724, 88.78859
560.9545, 89.21619
561.4366, 88.05273
561.9188, 86.59261
562.4009, 84.33442
562.8830, 82.42854
563.3651, 81.27489
563.8472, 80.73283
564.3293, 80.70891
564.8115, 81.14079
565.2936, 81.76933
565.7757, 82.30233
566.2578, 82.74031
566.7399, 83.68169
567.2220, 86.25345
567.7042, 87.94814
568.1863, 88.10831
568.6684, 87.32848
569.1505, 85.89554
569.6326, 84.00780
570.1147, 82.38707
570.5969, 81.81865
571.0790, 82.17258
571.5611, 82.72617
572.0432, 83.59935
572.5253, 84.30327
573.0074, 84.63670
573.4896, 84.61264
573.9717, 84.10706
574.4538, 82.84802
574.9359, 82.05797
575.4180, 82.72385
575.9001, 84.01503
576.3823, 84.98984
576.8644, 85.47759
577.3465, 85.01871
577.8286, 82.94904
578.3107, 79.92238
578.7928, 79.17221
579.2750, 83.54099
579.7571, 86.49527
580.2392, 86.56636
580.7213, 85.94091
581.2034, 86.55618
581.6855, 88.28516
582.1677, 89.50790
582.6498, 88.83088
583.1319, 86.90250
583.6140, 86.01897
584.0961, 86.45161
584.5782, 87.00661
585.0604, 87.75584
585.5425, 88.17317
586.0246, 87.44453
586.5067, 85.70088
586.9889, 84.63828
587.4710, 85.61214
587.9531, 87.24197
588.4352, 88.06752
588.9174, 88.09798
589.3995, 87.45156
