##NAMES=Kukharenkoite-(Ce)
##RRUFFID=R110190
##IDEAL CHEMISTRY=Ba_2_Ce(CO_3_)_3_F
##LOCALITY=Demix-Varennes quarry, Saint-Amable sill, Varennes & St-Amable, Lajemmerais RCM, Monteregie, Quebec, Canada
##OWNER=RRUFF
##SOURCE=Donald Doell
##DESCRIPTION=Radial sprays of white bladed crystals
##STATUS=The identification of this mineral is confirmed by single-crystal X-ray diffraction and chemical analysis.
##URL=rruff.info/R110190
##MEASURED CHEMISTRY=(Ba_1.90_Sr_0.10_)_Σ=2.00_(Ce_0.54_La_0.22_Nd_0.15_Pr_0.06_)_Σ=0.97_(CO_3_)_2.99_F_1.14_
212.9498, 6734.103
213.4319, 6738.292
213.9140, 6739.563
214.3962, 6736.403
214.8783, 6736.417
215.3604, 6741.140
215.8425, 6749.462
216.3246, 6757.559
216.8067, 6767.516
217.2889, 6773.330
217.7710, 6769.503
218.2531, 6750.498
218.7352, 6738.292
219.2173, 6736.858
219.6994, 6743.400
220.1816, 6744.743
220.6637, 6738.096
221.1458, 6730.757
221.6279, 6727.561
222.1100, 6730.214
222.5921, 6732.158
223.0743, 6732.398
223.5564, 6731.544
224.0385, 6733.070
224.5206, 6739.884
225.0027, 6744.772
225.4848, 6742.175
225.9670, 6726.859
226.4491, 6717.455
226.9312, 6717.503
227.4133, 6724.846
227.8954, 6728.829
228.3775, 6728.272
228.8597, 6726.105
229.3418, 6723.719
229.8239, 6720.120
230.3060, 6718.389
230.7881, 6718.450
231.2702, 6720.365
231.7524, 6725.315
232.2345, 6735.768
232.7166, 6745.317
233.1987, 6749.280
233.6808, 6742.848
234.1629, 6741.259
234.6451, 6747.167
235.1272, 6758.635
235.6093, 6767.651
236.0914, 6774.115
236.5735, 6778.289
237.0556, 6780.028
237.5378, 6777.929
238.0199, 6776.666
238.5020, 6776.263
238.9841, 6777.051
239.4662, 6779.999
239.9483, 6784.984
240.4305, 6792.704
240.9126, 6804.457
241.3947, 6824.408
241.8768, 6839.346
242.3589, 6846.515
242.8410, 6848.467
243.3232, 6854.476
243.8053, 6866.588
244.2874, 6879.841
244.7695, 6891.472
245.2516, 6900.227
245.7337, 6909.758
246.2159, 6919.224
246.6980, 6929.477
247.1801, 6943.940
247.6622, 6966.516
248.1443, 6987.347
248.6264, 7001.006
249.1086, 7003.741
249.5907, 7008.524
250.0728, 7016.576
250.5549, 7026.577
251.0370, 7034.997
251.5191, 7041.579
252.0013, 7047.274
252.4834, 7052.639
252.9655, 7057.899
253.4476, 7062.617
253.9297, 7067.546
254.4118, 7071.719
254.8940, 7072.212
255.3761, 7065.632
255.8582, 7061.354
256.3403, 7064.642
256.8224, 7079.896
257.3046, 7087.408
257.7867, 7084.698
258.2688, 7075.555
258.7509, 7066.724
259.2330, 7057.234
259.7151, 7049.982
260.1973, 7047.171
260.6794, 7050.928
261.1615, 7049.451
261.6436, 7041.212
262.1257, 7029.204
262.6078, 7018.326
263.0900, 7009.155
263.5721, 7000.376
264.0542, 6991.494
264.5363, 6982.222
265.0184, 6975.519
265.5005, 6972.814
265.9827, 6971.172
266.4648, 6964.750
266.9469, 6950.038
267.4290, 6941.333
267.9111, 6946.240
268.3932, 6966.226
268.8754, 6972.396
269.3575, 6959.521
269.8396, 6940.607
270.3217, 6933.220
270.8038, 6940.534
271.2859, 6946.360
271.7681, 6945.301
272.2502, 6937.603
272.7323, 6932.903
273.2144, 6931.631
273.6965, 6932.532
274.1786, 6935.455
274.6608, 6941.444
275.1429, 6943.868
275.6250, 6940.245
276.1071, 6931.493
276.5892, 6923.763
277.0714, 6916.950
277.5535, 6911.860
278.0356, 6909.891
278.5177, 6911.351
278.9998, 6912.414
279.4819, 6912.451
279.9641, 6911.416
280.4462, 6909.111
280.9283, 6905.403
281.4104, 6900.828
281.8925, 6896.803
282.3746, 6893.438
282.8568, 6884.942
283.3389, 6868.064
283.8210, 6847.549
284.3031, 6838.213
284.7852, 6841.417
285.2673, 6845.495
285.7495, 6840.006
286.2316, 6826.173
286.7137, 6819.813
287.1958, 6825.196
287.6779, 6835.790
288.1600, 6837.085
288.6422, 6828.908
289.1243, 6820.706
289.6064, 6818.876
290.0885, 6822.225
290.5706, 6824.958
291.0527, 6826.075
291.5349, 6827.105
292.0170, 6832.049
292.4991, 6840.224
292.9812, 6845.585
293.4633, 6842.186
293.9454, 6833.058
294.4276, 6827.850
294.9097, 6827.309
295.3918, 6829.944
295.8739, 6837.136
296.3560, 6847.201
296.8381, 6852.345
297.3203, 6844.041
297.8024, 6829.171
298.2845, 6822.458
298.7666, 6824.709
299.2487, 6829.883
299.7308, 6832.356
300.2130, 6832.908
300.6951, 6833.728
301.1772, 6835.642
301.6593, 6838.318
302.1414, 6841.937
302.6235, 6846.399
303.1057, 6849.844
303.5878, 6849.527
304.0699, 6847.177
304.5520, 6846.105
305.0341, 6848.813
305.5162, 6851.995
305.9984, 6851.321
306.4805, 6847.414
306.9626, 6844.425
307.4447, 6846.797
307.9268, 6851.311
308.4089, 6853.628
308.8911, 6851.655
309.3732, 6848.749
309.8553, 6847.661
310.3374, 6847.923
310.8195, 6847.922
311.3016, 6844.869
311.7838, 6842.088
312.2659, 6843.043
312.7480, 6849.920
313.2301, 6856.841
313.7122, 6859.792
314.1943, 6860.260
314.6765, 6861.319
315.1586, 6866.600
315.6407, 6871.354
316.1228, 6871.622
316.6049, 6865.439
317.0870, 6861.226
317.5692, 6866.416
318.0513, 6875.064
318.5334, 6878.807
319.0155, 6869.072
319.4976, 6858.944
319.9797, 6854.481
320.4619, 6856.507
320.9440, 6858.868
321.4261, 6860.610
321.9082, 6861.362
322.3903, 6860.752
322.8724, 6856.146
323.3546, 6852.586
323.8367, 6851.822
324.3188, 6853.750
324.8009, 6855.331
325.2830, 6856.555
325.7651, 6857.083
326.2473, 6856.736
326.7294, 6854.562
327.2115, 6852.895
327.6936, 6852.209
328.1757, 6852.497
328.6578, 6853.177
329.1400, 6855.000
329.6221, 6856.861
330.1042, 6858.347
330.5863, 6859.487
331.0684, 6860.198
331.5505, 6858.839
332.0327, 6857.218
332.5148, 6859.550
332.9969, 6867.807
333.4790, 6876.937
333.9611, 6885.176
334.4432, 6891.930
334.9254, 6899.239
335.4075, 6907.147
335.8896, 6915.116
336.3717, 6922.978
336.8538, 6932.042
337.3359, 6937.174
337.8180, 6935.333
338.3001, 6926.735
338.7823, 6923.905
339.2644, 6929.290
339.7465, 6936.011
340.2286, 6936.952
340.7107, 6931.203
341.1928, 6925.917
341.6750, 6922.493
342.1571, 6920.767
342.6392, 6920.763
343.1213, 6923.052
343.6034, 6924.448
344.0855, 6921.483
344.5677, 6914.472
345.0498, 6910.283
345.5319, 6910.218
346.0140, 6912.604
346.4961, 6914.589
346.9782, 6916.172
347.4604, 6917.486
347.9425, 6916.825
348.4246, 6915.672
348.9067, 6921.032
349.3888, 6934.478
349.8709, 6948.424
350.3531, 6952.342
350.8352, 6948.513
351.3173, 6945.447
351.7994, 6946.525
352.2815, 6950.663
352.7636, 6956.435
353.2458, 6963.767
353.7279, 6971.792
354.2100, 6980.740
354.6921, 6989.640
355.1742, 6996.955
355.6563, 7002.989
356.1385, 7006.390
356.6206, 7003.743
357.1027, 6996.356
357.5848, 6990.927
358.0669, 6993.312
358.5490, 6998.599
359.0312, 7002.054
359.5133, 7002.165
359.9954, 7001.943
360.4775, 7004.463
360.9596, 7008.040
361.4417, 7008.991
361.9239, 7000.381
362.4060, 6993.088
362.8881, 6995.820
363.3702, 7012.636
363.8523, 7022.497
364.3344, 7011.009
364.8166, 6991.614
365.2987, 6979.541
365.7808, 6983.095
366.2629, 6989.912
366.7450, 6998.528
367.2271, 7008.774
367.7093, 7015.917
368.1914, 7018.766
368.6735, 7018.649
369.1556, 7016.316
369.6377, 7004.968
370.1198, 7000.013
370.6020, 7006.046
371.0841, 7019.360
371.5662, 7026.576
372.0483, 7024.348
372.5304, 7019.825
373.0125, 7015.185
373.4947, 7008.804
373.9768, 7007.428
374.4589, 7013.786
374.9410, 7022.935
375.4231, 7026.443
375.9052, 7022.260
376.3874, 7018.714
376.8695, 7019.261
377.3516, 7023.837
377.8337, 7024.078
378.3158, 7019.124
378.7979, 7012.771
379.2801, 7008.541
379.7622, 7006.505
380.2443, 7005.987
380.7264, 7007.607
381.2085, 7010.042
381.6906, 7009.011
382.1728, 7004.377
382.6549, 7000.117
383.1370, 6996.769
383.6191, 6995.440
384.1012, 7003.078
384.5833, 7022.664
385.0655, 7043.106
385.5476, 7048.363
386.0297, 7041.462
386.5118, 7033.302
386.9939, 7030.282
387.4760, 7028.648
387.9582, 7021.833
388.4403, 7009.657
388.9224, 6998.260
389.4045, 6992.646
389.8866, 6991.125
390.3687, 6991.479
390.8509, 6995.205
391.3330, 6998.408
391.8151, 6997.803
392.2972, 6994.204
392.7793, 6990.766
393.2614, 6988.000
393.7436, 6986.659
394.2257, 6987.565
394.7078, 6991.906
395.1899, 6995.763
395.6720, 6996.885
396.1541, 6996.679
396.6363, 6997.456
397.1184, 6999.683
397.6005, 7002.966
398.0826, 7007.927
398.5647, 7015.010
399.0468, 7019.905
399.5290, 7020.261
400.0111, 7019.343
400.4932, 7019.805
400.9753, 7023.354
401.4574, 7026.028
401.9395, 7026.606
402.4217, 7025.899
402.9038, 7027.776
403.3859, 7033.610
403.8680, 7040.081
404.3501, 7045.708
404.8322, 7050.333
405.3144, 7054.643
405.7965, 7058.914
406.2786, 7062.471
406.7607, 7063.265
407.2428, 7060.317
407.7249, 7060.068
408.2071, 7066.227
408.6892, 7077.220
409.1713, 7082.290
409.6534, 7080.711
410.1355, 7077.248
410.6176, 7075.802
411.0998, 7076.138
411.5819, 7077.080
412.0640, 7078.327
412.5461, 7080.134
413.0282, 7083.815
413.5103, 7088.884
413.9925, 7092.640
414.4746, 7091.503
414.9567, 7088.716
415.4388, 7090.584
415.9209, 7098.269
416.4030, 7104.559
416.8852, 7102.117
417.3673, 7094.533
417.8494, 7087.677
418.3315, 7083.237
418.8136, 7080.821
419.2957, 7082.291
419.7779, 7086.721
420.2600, 7087.799
420.7421, 7079.601
421.2242, 7068.947
421.7063, 7060.659
422.1884, 7054.637
422.6706, 7052.714
423.1527, 7057.942
423.6348, 7067.290
424.1169, 7075.001
424.5990, 7077.877
425.0811, 7081.254
425.5633, 7087.862
426.0454, 7098.806
426.5275, 7104.343
427.0096, 7098.690
427.4917, 7092.014
427.9738, 7093.396
428.4560, 7108.847
428.9381, 7119.182
429.4202, 7120.281
429.9023, 7115.049
430.3844, 7114.174
430.8665, 7119.544
431.3487, 7123.907
431.8308, 7122.407
432.3129, 7114.614
432.7950, 7111.331
433.2771, 7113.740
433.7592, 7118.024
434.2414, 7118.943
434.7235, 7116.870
435.2056, 7115.904
435.6877, 7118.412
436.1698, 7122.215
436.6519, 7121.462
437.1341, 7116.512
437.6162, 7112.968
438.0983, 7118.052
438.5804, 7126.641
439.0625, 7128.920
439.5446, 7121.700
440.0268, 7113.448
440.5089, 7110.965
440.9910, 7113.021
441.4731, 7117.101
441.9552, 7127.005
442.4373, 7134.600
442.9195, 7131.544
443.4016, 7118.015
443.8837, 7109.421
444.3658, 7116.081
444.8479, 7127.873
445.3300, 7136.797
445.8122, 7139.375
446.2943, 7141.397
446.7764, 7144.197
447.2585, 7147.115
447.7406, 7148.492
448.2227, 7146.103
448.7049, 7144.296
449.1870, 7144.542
449.6691, 7147.311
450.1512, 7149.972
450.6333, 7154.086
451.1154, 7156.576
451.5976, 7153.364
452.0797, 7141.669
452.5618, 7134.493
453.0439, 7135.388
453.5260, 7141.468
454.0081, 7143.164
454.4903, 7139.768
454.9724, 7136.873
455.4545, 7137.386
455.9366, 7141.048
456.4187, 7147.011
456.9008, 7155.616
457.3830, 7163.849
457.8651, 7167.328
458.3472, 7167.188
458.8293, 7167.124
459.3114, 7168.609
459.7935, 7170.255
460.2757, 7170.646
460.7578, 7169.690
461.2399, 7167.291
461.7220, 7161.821
462.2041, 7155.717
462.6862, 7151.507
463.1684, 7149.898
463.6505, 7148.930
464.1326, 7146.892
464.6147, 7145.279
465.0968, 7146.006
465.5789, 7155.283
466.0611, 7161.477
466.5432, 7159.232
467.0253, 7149.487
467.5074, 7142.600
467.9895, 7141.017
468.4716, 7141.676
468.9538, 7143.463
469.4359, 7147.881
469.9180, 7149.761
470.4001, 7146.836
470.8822, 7142.811
471.3643, 7144.086
471.8465, 7153.350
472.3286, 7159.463
472.8107, 7157.718
473.2928, 7150.200
473.7749, 7150.364
474.2570, 7159.479
474.7392, 7169.366
475.2213, 7173.065
475.7034, 7171.655
476.1855, 7173.495
476.6676, 7180.622
477.1497, 7187.329
477.6319, 7182.800
478.1140, 7170.811
478.5961, 7163.658
479.0782, 7172.001
479.5603, 7184.749
480.0424, 7187.230
480.5246, 7180.849
481.0067, 7176.953
481.4888, 7185.317
481.9709, 7197.786
482.4530, 7207.604
482.9352, 7213.971
483.4173, 7216.157
483.8994, 7209.557
484.3815, 7199.414
484.8636, 7193.819
485.3457, 7199.304
485.8279, 7204.603
486.3100, 7205.790
486.7921, 7202.873
487.2742, 7203.536
487.7563, 7211.600
488.2384, 7219.614
488.7206, 7223.096
489.2027, 7219.759
489.6848, 7218.683
490.1669, 7221.180
490.6490, 7224.846
491.1311, 7225.274
491.6133, 7221.804
492.0954, 7219.651
492.5775, 7220.300
493.0596, 7223.457
493.5417, 7228.839
494.0238, 7236.376
494.5060, 7243.511
494.9881, 7248.470
495.4702, 7251.357
495.9523, 7252.040
496.4344, 7249.815
496.9165, 7248.007
497.3987, 7252.708
497.8808, 7259.948
498.3629, 7262.178
498.8450, 7248.375
499.3271, 7235.286
499.8092, 7236.912
500.2914, 7250.490
500.7735, 7260.194
501.2556, 7258.325
501.7377, 7252.231
502.2198, 7245.819
502.7019, 7238.913
503.1841, 7233.598
503.6662, 7230.187
504.1483, 7228.620
504.6304, 7228.944
505.1125, 7232.473
505.5946, 7235.900
506.0768, 7239.737
506.5589, 7243.134
507.0410, 7240.875
507.5231, 7230.280
508.0052, 7221.329
508.4873, 7219.786
508.9695, 7225.684
509.4516, 7232.087
509.9337, 7239.377
510.4158, 7245.075
510.8979, 7245.226
511.3800, 7240.936
511.8622, 7237.478
512.3443, 7237.158
512.8264, 7236.946
513.3085, 7230.417
513.7906, 7219.875
514.2728, 7213.513
514.7549, 7222.927
515.2370, 7234.077
515.7191, 7232.789
516.2012, 7217.359
516.6833, 7204.349
517.1655, 7203.151
517.6476, 7206.866
518.1297, 7209.649
518.6118, 7211.787
519.0939, 7211.146
519.5760, 7203.419
520.0582, 7192.930
520.5403, 7189.888
521.0224, 7200.322
521.5045, 7209.639
521.9866, 7212.474
522.4688, 7208.821
522.9509, 7212.837
523.4330, 7227.880
523.9151, 7242.606
524.3972, 7246.889
524.8793, 7240.381
525.3615, 7236.222
525.8436, 7235.387
526.3257, 7237.427
526.8078, 7244.597
527.2899, 7255.104
527.7720, 7260.132
528.2542, 7252.810
528.7363, 7240.722
529.2184, 7233.429
529.7005, 7230.450
530.1826, 7228.816
530.6647, 7227.452
531.1469, 7226.292
531.6290, 7224.941
532.1111, 7223.044
532.5932, 7222.970
533.0753, 7230.654
533.5574, 7238.626
534.0396, 7239.016
534.5217, 7220.167
535.0038, 7205.947
535.4859, 7199.390
535.9680, 7199.810
536.4501, 7205.955
536.9323, 7222.972
537.4144, 7236.953
537.8965, 7241.884
538.3786, 7237.494
538.8607, 7234.547
539.3428, 7233.351
539.8250, 7232.439
540.3071, 7230.210
540.7892, 7226.825
541.2713, 7223.862
541.7534, 7221.370
542.2355, 7219.798
542.7177, 7220.386
543.1998, 7222.538
543.6819, 7224.363
544.1640, 7224.647
544.6461, 7224.461
545.1282, 7224.033
545.6104, 7223.709
546.0925, 7225.429
546.5746, 7235.040
547.0567, 7243.690
547.5388, 7243.517
548.0209, 7228.747
548.5031, 7221.274
548.9852, 7233.894
549.4673, 7252.009
549.9494, 7260.028
550.4315, 7250.143
550.9136, 7241.685
551.3958, 7235.810
551.8779, 7232.723
552.3600, 7233.896
552.8421, 7240.603
553.3242, 7246.970
553.8063, 7250.841
554.2885, 7252.301
554.7706, 7251.827
555.2527, 7249.386
555.7348, 7245.615
556.2169, 7239.167
556.6990, 7231.952
557.1812, 7229.004
557.6633, 7231.662
558.1454, 7236.821
558.6275, 7245.271
559.1096, 7253.625
559.5917, 7256.037
560.0739, 7243.471
560.5560, 7230.734
561.0381, 7225.293
561.5202, 7226.042
562.0023, 7227.608
562.4844, 7230.619
562.9666, 7232.342
563.4487, 7230.627
563.9308, 7224.105
564.4129, 7220.930
564.8950, 7222.758
565.3771, 7225.995
565.8593, 7227.552
566.3414, 7226.779
566.8235, 7227.389
567.3056, 7230.921
567.7877, 7234.146
568.2698, 7228.997
568.7520, 7216.148
569.2341, 7207.442
569.7162, 7209.860
570.1983, 7217.617
570.6804, 7219.461
571.1625, 7216.360
571.6447, 7214.559
572.1268, 7221.039
572.6089, 7229.251
573.0910, 7232.142
573.5731, 7228.324
574.0552, 7224.579
574.5374, 7223.635
575.0195, 7224.362
575.5016, 7225.655
575.9837, 7227.665
576.4658, 7229.528
576.9479, 7230.172
577.4301, 7230.584
577.9122, 7232.751
578.3943, 7236.497
578.8764, 7242.126
579.3585, 7251.040
579.8406, 7262.047
580.3228, 7266.507
580.8049, 7263.614
581.2870, 7259.237
581.7691, 7257.349
582.2512, 7257.372
582.7333, 7257.478
583.2155, 7257.917
583.6975, 7256.153
584.1796, 7246.352
584.6617, 7233.667
585.1439, 7226.710
585.6260, 7229.545
586.1081, 7235.784
586.5902, 7245.232
587.0723, 7255.003
587.5544, 7259.378
588.0366, 7250.032
588.5187, 7241.798
589.0008, 7238.815
589.4829, 7241.094
589.9650, 7246.630
590.4471, 7258.296
590.9293, 7269.121
591.4114, 7275.651
591.8935, 7277.430
592.3756, 7277.269
592.8577, 7274.430
593.3398, 7271.515
593.8220, 7271.897
594.3041, 7275.087
594.7862, 7277.027
595.2683, 7276.982
595.7504, 7275.743
596.2325, 7273.540
596.7147, 7270.997
597.1968, 7269.623
597.6789, 7270.901
598.1610, 7273.045
598.6431, 7275.127
599.1252, 7277.104
599.6074, 7278.717
600.0895, 7281.883
600.5716, 7282.973
601.0537, 7279.303
601.5358, 7269.183
602.0179, 7261.617
602.5001, 7257.468
602.9822, 7255.108
603.4643, 7253.350
603.9464, 7252.034
604.4285, 7251.874
604.9106, 7252.831
605.3928, 7255.128
605.8749, 7260.115
606.3570, 7267.485
606.8391, 7272.877
607.3212, 7273.817
607.8033, 7273.487
608.2855, 7278.207
608.7676, 7286.231
609.2497, 7291.445
609.7318, 7288.066
610.2139, 7282.103
610.6960, 7276.986
611.1782, 7273.003
611.6603, 7272.372
612.1424, 7281.862
612.6245, 7290.584
613.1066, 7291.345
613.5887, 7279.440
614.0709, 7269.297
614.5530, 7260.099
615.0351, 7253.521
615.5172, 7251.880
615.9993, 7256.507
616.4814, 7260.285
616.9636, 7262.171
617.4457, 7262.790
617.9278, 7263.785
618.4099, 7264.889
618.8920, 7263.749
619.3741, 7256.997
619.8563, 7248.999
620.3384, 7247.867
620.8205, 7252.039
621.3026, 7253.967
621.7847, 7246.069
622.2668, 7236.514
622.7490, 7231.470
623.2311, 7231.744
623.7132, 7233.490
624.1953, 7239.028
624.6774, 7243.606
625.1595, 7243.988
625.6417, 7239.403
626.1238, 7231.894
626.6059, 7218.518
627.0880, 7205.810
627.5701, 7204.495
628.0522, 7216.222
628.5344, 7223.618
629.0165, 7221.989
629.4986, 7215.655
629.9807, 7211.670
630.4628, 7210.041
630.9449, 7211.007
631.4271, 7216.086
631.9092, 7222.718
632.3913, 7228.502
632.8734, 7233.342
633.3555, 7237.176
633.8376, 7239.336
634.3198, 7240.840
634.8019, 7242.330
635.2840, 7243.938
635.7661, 7244.952
636.2482, 7244.924
636.7303, 7244.645
637.2125, 7244.699
637.6946, 7245.374
638.1767, 7245.849
638.6588, 7246.293
639.1409, 7246.391
639.6230, 7246.016
640.1052, 7245.154
640.5873, 7242.176
641.0694, 7235.350
641.5515, 7228.694
642.0336, 7229.592
642.5157, 7235.914
642.9979, 7241.456
643.4800, 7243.079
643.9621, 7242.794
644.4442, 7240.476
644.9263, 7236.827
645.4084, 7235.784
645.8906, 7242.476
646.3727, 7248.729
646.8548, 7249.683
647.3369, 7244.152
647.8190, 7243.200
648.3011, 7250.794
648.7833, 7257.059
649.2654, 7252.225
649.7475, 7234.666
650.2296, 7226.593
650.7117, 7230.481
651.1938, 7238.893
651.6760, 7242.827
652.1581, 7243.707
652.6402, 7245.921
653.1223, 7250.989
653.6044, 7256.825
654.0865, 7262.599
654.5687, 7267.694
655.0508, 7271.024
655.5329, 7268.755
656.0150, 7268.197
656.4971, 7274.629
656.9792, 7285.971
657.4614, 7291.115
657.9435, 7285.552
658.4256, 7279.439
658.9077, 7275.239
659.3898, 7273.009
659.8719, 7275.788
660.3541, 7284.807
660.8362, 7292.967
661.3183, 7294.085
661.8004, 7290.056
662.2825, 7289.417
662.7646, 7292.922
663.2468, 7294.913
663.7289, 7287.796
664.2110, 7277.240
664.6931, 7270.760
665.1752, 7270.978
665.6573, 7272.989
666.1395, 7275.765
666.6216, 7278.802
667.1037, 7281.456
667.5858, 7282.679
668.0679, 7284.930
668.5500, 7289.265
669.0322, 7294.331
669.5143, 7297.070
669.9964, 7297.244
670.4785, 7296.030
670.9606, 7293.089
671.4427, 7289.400
671.9249, 7287.355
672.4070, 7286.940
672.8891, 7288.485
673.3712, 7293.795
673.8533, 7300.193
674.3354, 7304.373
674.8176, 7306.461
675.2997, 7308.464
675.7818, 7312.401
676.2639, 7315.828
676.7460, 7316.349
677.2281, 7311.888
677.7103, 7312.141
678.1924, 7319.504
678.6745, 7329.497
679.1566, 7339.463
679.6387, 7349.889
680.1208, 7357.823
680.6030, 7362.863
681.0851, 7366.158
681.5672, 7369.104
682.0493, 7371.585
682.5314, 7373.392
683.0135, 7374.447
683.4957, 7374.674
683.9778, 7374.955
684.4599, 7374.192
684.9420, 7370.381
685.4241, 7357.369
685.9063, 7346.884
686.3884, 7344.167
686.8705, 7347.633
687.3526, 7351.542
687.8347, 7356.262
688.3168, 7360.573
688.7990, 7364.263
689.2811, 7367.396
689.7632, 7369.356
690.2453, 7369.875
690.7274, 7371.329
691.2095, 7376.055
691.6917, 7382.664
692.1738, 7386.908
692.6559, 7388.720
693.1380, 7389.960
693.6201, 7391.729
694.1022, 7393.568
694.5844, 7394.409
695.0665, 7393.550
695.5486, 7395.021
696.0307, 7401.981
696.5128, 7410.536
696.9949, 7417.975
697.4771, 7426.150
697.9592, 7428.335
698.4413, 7420.328
698.9234, 7411.915
699.4055, 7417.154
699.8876, 7436.467
700.3698, 7452.166
700.8519, 7461.496
701.3340, 7465.542
701.8161, 7464.896
702.2982, 7460.178
702.7803, 7452.643
703.2625, 7441.031
703.7446, 7428.950
704.2267, 7417.570
704.7088, 7407.594
705.1909, 7400.693
705.6730, 7397.027
706.1552, 7396.916
