##NAMES=Kulanite
##RRUFFID=R060240
##IDEAL CHEMISTRY=BaFe^2+^_2_Al_2_(PO_4_)_3_(OH)_3_
##LOCALITY=Big Fish River, Yukon Territory, Canada
##OWNER=RRUFF
##SOURCE=Rock Currier
##DESCRIPTION=Dark green tabular crystals
##STATUS=The identification of this mineral is confirmed by single-crystal X-ray diffraction and chemical analysis.
##URL=rruff.info/R060240
##MEASURED CHEMISTRY=(Ba_0.97_Sr_0.03_)_Σ=1_(Fe^2+^_1.06_Mn_0.54_Mg_0.35_Ca_0.03_Ti_0.01_[box]_0.01_)_Σ=2_(Al_1.67_Fe^3+^_0.33_)_Σ=2_(P_1.00_O_4_)_3_((OH)_2.68_F_0.32_)_Σ=3_; OH estimated by difference and charge balance
91.82715, 322.4633
92.30927, 321.1441
92.79138, 321.7803
93.27350, 321.6588
93.75562, 319.8198
94.23773, 316.1503
94.71985, 311.4832
95.20197, 307.4484
95.68408, 305.1748
96.16620, 303.5435
96.64832, 301.6829
97.13043, 299.4539
97.61255, 297.3809
98.09467, 296.3570
98.57678, 297.0318
99.05890, 296.2616
99.54102, 293.8816
100.0231, 290.8735
100.5052, 287.8013
100.9874, 284.7791
101.4695, 281.9827
101.9516, 280.6334
102.4337, 282.9282
102.9158, 284.4621
103.3979, 283.9110
103.8801, 282.0409
104.3622, 280.3643
104.8443, 280.0786
105.3264, 281.3133
105.8085, 282.5508
106.2906, 284.9061
106.7728, 286.3393
107.2549, 285.0780
107.7370, 281.1601
108.2191, 276.7488
108.7012, 274.1662
109.1833, 273.5020
109.6655, 273.4174
110.1476, 273.8771
110.6297, 274.7827
111.1118, 276.1998
111.5939, 278.4595
112.0760, 280.4933
112.5582, 280.7712
113.0403, 279.4647
113.5224, 278.5916
114.0045, 279.6946
114.4866, 282.6740
114.9688, 285.4283
115.4509, 287.9688
115.9330, 289.7626
116.4151, 290.1629
116.8972, 289.1202
117.3793, 287.6955
117.8615, 287.4274
118.3436, 289.0780
118.8257, 290.0154
119.3078, 288.6582
119.7899, 287.2611
120.2720, 287.6135
120.7542, 290.4257
121.2363, 295.0863
121.7184, 299.9045
122.2005, 307.4395
122.6826, 312.0814
123.1647, 311.4295
123.6468, 307.9720
124.1290, 305.3202
124.6111, 305.6399
125.0932, 308.4477
125.5753, 309.6261
126.0574, 307.9131
126.5395, 306.2553
127.0217, 306.2257
127.5038, 307.5192
127.9859, 308.3918
128.4680, 307.2603
128.9501, 304.5547
129.4323, 303.0315
129.9144, 303.7607
130.3965, 305.1962
130.8786, 305.7098
131.3607, 305.1097
131.8428, 304.2482
132.3250, 303.8367
132.8071, 303.6333
133.2892, 303.1901
133.7713, 302.2103
134.2534, 300.8283
134.7355, 299.5696
135.2177, 298.8933
135.6998, 297.6422
136.1819, 295.0269
136.6640, 291.4194
137.1461, 287.7690
137.6282, 284.8706
138.1104, 282.8167
138.5925, 280.4824
139.0746, 277.7005
139.5567, 274.7612
140.0388, 271.6617
140.5209, 268.4672
141.0031, 265.2504
141.4852, 261.9393
141.9673, 257.7904
142.4494, 255.7715
142.9315, 257.4550
143.4136, 259.7660
143.8958, 260.5705
144.3779, 259.3893
144.8600, 257.3826
145.3421, 256.4212
145.8242, 257.2431
146.3063, 257.8122
146.7885, 257.8491
147.2706, 257.6614
147.7527, 257.6532
148.2348, 257.9884
148.7169, 258.4655
149.1990, 258.6591
149.6812, 258.5369
150.1633, 258.3676
150.6454, 258.0898
151.1275, 257.8075
151.6096, 257.9926
152.0917, 259.3185
152.5739, 260.6568
153.0560, 260.3087
153.5381, 257.8484
154.0202, 255.0469
154.5023, 253.3077
154.9844, 252.6708
155.4665, 252.2539
155.9487, 252.1631
156.4308, 251.9339
156.9129, 250.9936
157.3950, 249.0762
157.8771, 247.0162
158.3592, 246.3205
158.8414, 247.9255
159.3235, 248.4899
159.8056, 246.0007
160.2877, 242.8094
160.7698, 241.1047
161.2519, 241.9015
161.7341, 244.2938
162.2162, 245.6263
162.6983, 245.2164
163.1804, 244.5368
163.6625, 243.7609
164.1446, 242.8754
164.6268, 241.7468
165.1089, 240.2577
165.5910, 238.5663
166.0731, 237.6884
166.5552, 239.6053
167.0373, 240.1885
167.5195, 236.7202
168.0016, 231.2934
168.4837, 228.2358
168.9658, 230.7356
169.4479, 238.2797
169.9300, 242.5697
170.4122, 242.4139
170.8943, 240.9384
171.3764, 238.8018
171.8585, 236.3149
172.3406, 234.4691
172.8227, 234.2733
173.3049, 235.4883
173.7870, 235.6387
174.2691, 233.6007
174.7512, 231.2839
175.2333, 230.2229
175.7154, 230.4883
176.1976, 231.3455
176.6797, 232.9288
177.1618, 234.6968
177.6439, 235.2339
178.1260, 233.0284
178.6081, 229.8710
179.0903, 228.6522
179.5724, 230.0447
180.0545, 231.4152
180.5366, 230.7234
181.0187, 228.9469
181.5008, 227.6173
181.9830, 227.6463
182.4651, 228.5984
182.9472, 229.2205
183.4293, 229.7947
183.9114, 229.4678
184.3935, 227.0674
184.8757, 223.7278
185.3578, 221.4220
185.8399, 221.7077
186.3220, 224.3052
186.8041, 226.1927
187.2862, 226.9130
187.7684, 227.3239
188.2505, 227.7876
188.7326, 228.1452
189.2147, 227.9855
189.6968, 226.8537
190.1789, 224.6795
190.6611, 223.3765
191.1432, 223.8892
191.6253, 224.3453
192.1074, 223.7609
192.5895, 222.5333
193.0716, 221.9297
193.5538, 223.2977
194.0359, 227.1830
194.5180, 228.3096
195.0001, 224.4446
195.4822, 220.5182
195.9643, 218.8667
196.4465, 219.4130
196.9286, 220.7928
197.4107, 221.8904
197.8928, 222.6977
198.3749, 222.7965
198.8570, 221.4528
199.3392, 220.0309
199.8213, 219.4027
200.3034, 219.6329
200.7855, 220.3059
201.2676, 221.1433
201.7497, 222.1536
202.2319, 223.0105
202.7140, 223.8719
203.1961, 224.4783
203.6782, 224.4162
204.1603, 223.6116
204.6424, 222.7914
205.1246, 222.6694
205.6067, 223.1144
206.0888, 223.5446
206.5709, 223.7647
207.0530, 223.9417
207.5351, 224.6642
208.0173, 226.3608
208.4994, 227.1298
208.9815, 224.2025
209.4636, 219.1620
209.9457, 215.3025
210.4278, 214.7896
210.9100, 216.1537
211.3921, 216.0464
211.8742, 213.9287
212.3563, 211.3632
212.8384, 208.9862
213.3205, 206.8645
213.8027, 205.2208
214.2848, 204.7517
214.7669, 204.8286
215.2490, 202.8901
215.7311, 197.0577
216.2132, 192.1299
216.6954, 190.4950
217.1775, 190.9730
217.6596, 191.5283
218.1417, 190.9099
218.6238, 189.3511
219.1059, 188.2909
219.5881, 188.5786
220.0702, 188.2945
220.5523, 186.2680
221.0344, 183.3959
221.5165, 181.1641
221.9986, 180.6748
222.4808, 181.6959
222.9629, 182.0378
223.4450, 181.1089
223.9271, 180.0514
224.4092, 178.8653
224.8913, 177.7332
225.3735, 176.9372
225.8556, 176.6900
226.3377, 176.9350
226.8198, 177.0165
227.3019, 176.7157
227.7840, 176.4739
228.2662, 176.3813
228.7483, 176.4133
229.2304, 176.6167
229.7125, 177.0861
230.1946, 177.7132
230.6767, 177.2675
231.1589, 174.0913
231.6410, 171.7346
232.1231, 171.4239
232.6052, 172.5604
233.0873, 174.1158
233.5694, 175.6168
234.0516, 176.8788
234.5337, 176.3914
235.0158, 172.2199
235.4979, 168.7732
235.9800, 167.7430
236.4621, 168.4242
236.9443, 169.2708
237.4264, 169.4925
237.9085, 169.1741
238.3906, 168.6980
238.8727, 167.8325
239.3548, 167.1006
239.8370, 166.4237
240.3191, 165.9893
240.8012, 166.5542
241.2833, 168.9607
241.7654, 172.0549
242.2475, 172.3374
242.7297, 168.0108
243.2118, 164.2706
243.6939, 163.9809
244.1760, 166.1619
244.6581, 167.8935
245.1402, 167.9664
245.6224, 166.9068
246.1045, 165.7205
246.5866, 164.1570
247.0687, 163.1192
247.5508, 163.6514
248.0329, 165.2262
248.5151, 165.8378
248.9972, 164.3971
249.4793, 162.1841
249.9614, 161.1534
250.4435, 161.4487
250.9256, 161.8226
251.4078, 161.4362
251.8899, 160.4956
252.3720, 159.9871
252.8541, 160.5264
253.3362, 161.1031
253.8183, 160.2935
254.3005, 158.1052
254.7826, 156.5564
255.2647, 157.3086
255.7468, 159.9203
256.2289, 162.3421
256.7110, 164.9954
257.1931, 166.2097
257.6753, 163.9099
258.1574, 158.7015
258.6395, 154.4500
259.1216, 154.2738
259.6037, 157.4194
260.0858, 159.7019
260.5680, 160.5100
261.0501, 160.6794
261.5322, 160.7016
262.0143, 160.6004
262.4964, 160.4345
262.9785, 160.2067
263.4607, 159.9337
263.9428, 159.6726
264.4249, 159.2327
264.9070, 159.1176
265.3891, 159.7456
265.8712, 160.8220
266.3534, 161.7631
266.8355, 162.2471
267.3176, 162.3227
267.7997, 162.1964
268.2818, 161.8765
268.7639, 161.3017
269.2461, 159.5878
269.7282, 157.8106
270.2103, 157.8216
270.6924, 161.1054
271.1745, 166.2619
271.6566, 168.4960
272.1388, 166.0551
272.6209, 163.4856
273.1030, 161.6484
273.5851, 160.4998
274.0672, 160.0929
274.5493, 160.4881
275.0315, 161.4267
275.5136, 162.3859
275.9957, 163.8535
276.4778, 164.3399
276.9599, 162.6210
277.4420, 160.4775
277.9242, 159.8894
278.4063, 161.5324
278.8884, 163.8623
279.3705, 163.7865
279.8526, 159.7202
280.3347, 156.5928
280.8169, 155.2861
281.2990, 154.6819
281.7811, 154.0636
282.2632, 153.2246
282.7453, 152.3073
283.2274, 151.5015
283.7096, 150.7883
284.1917, 150.2521
284.6738, 150.2287
285.1559, 150.1040
285.6380, 149.2497
286.1201, 147.7555
286.6023, 146.4203
287.0844, 146.2696
287.5665, 147.7305
288.0486, 148.6829
288.5307, 148.8396
289.0128, 148.7895
289.4950, 148.8845
289.9771, 149.0426
290.4592, 148.8871
290.9413, 148.0218
291.4234, 146.3806
291.9055, 144.9335
292.3877, 142.6368
292.8698, 141.5579
293.3519, 143.3408
293.8340, 146.9124
294.3161, 150.0589
294.7982, 151.2168
295.2804, 150.5064
295.7625, 149.4127
296.2446, 146.8734
296.7267, 145.0962
297.2088, 144.4510
297.6909, 144.8494
298.1731, 146.4705
298.6552, 149.5006
299.1373, 153.2412
299.6194, 154.9748
300.1015, 151.9307
300.5836, 150.1373
301.0658, 150.8629
301.5479, 152.7473
302.0300, 154.3889
302.5121, 155.2237
302.9942, 155.5244
303.4763, 155.8503
303.9585, 156.1785
304.4406, 156.5723
304.9227, 157.3194
305.4048, 157.9529
305.8869, 157.7145
306.3690, 156.6001
306.8512, 155.7394
307.3333, 156.8906
307.8154, 161.4618
308.2975, 164.2829
308.7796, 164.5802
309.2617, 164.0956
309.7439, 163.7063
310.2260, 163.5546
310.7081, 163.4313
311.1902, 163.1128
311.6723, 162.5398
312.1544, 162.1992
312.6366, 161.7243
313.1187, 161.7876
313.6008, 163.4684
314.0829, 165.9765
314.5650, 167.3143
315.0471, 165.8212
315.5293, 161.8372
316.0114, 159.8865
316.4935, 162.3126
316.9756, 164.1499
317.4577, 164.1278
317.9398, 162.9237
318.4220, 161.6287
318.9041, 160.8014
319.3862, 159.4029
319.8683, 159.1957
320.3504, 156.9717
320.8326, 155.2323
321.3147, 154.2049
321.7968, 153.6201
322.2789, 153.3664
322.7610, 153.3667
323.2431, 153.3216
323.7253, 152.7100
324.2074, 151.2588
324.6895, 149.7195
325.1716, 147.7406
325.6537, 145.9296
326.1358, 144.5722
326.6180, 143.7685
327.1001, 143.6307
327.5822, 144.4592
328.0643, 146.7024
328.5464, 147.5473
329.0285, 145.4935
329.5107, 143.6718
329.9928, 143.8417
330.4749, 145.4131
330.9570, 146.5199
331.4391, 145.6109
331.9212, 142.9197
332.4034, 141.9393
332.8855, 145.1609
333.3676, 147.4464
333.8497, 146.9943
334.3318, 145.2160
334.8139, 144.2965
335.2961, 145.3591
335.7782, 147.5236
336.2603, 148.1524
336.7424, 145.9081
337.2245, 144.0425
337.7066, 142.4212
338.1888, 141.4429
338.6709, 141.8199
339.1530, 143.6063
339.6351, 145.7329
340.1172, 146.5171
340.5993, 145.2753
341.0815, 144.4057
341.5636, 143.9760
342.0457, 143.8080
342.5278, 144.1640
343.0099, 144.8046
343.4920, 144.9624
343.9742, 143.8035
344.4563, 141.2366
344.9384, 139.0609
345.4205, 136.7930
345.9026, 135.4715
346.3847, 136.2302
346.8669, 138.0635
347.3490, 139.1745
347.8311, 138.3894
348.3132, 136.2279
348.7953, 134.8159
349.2774, 134.8163
349.7596, 134.5303
350.2417, 133.4054
350.7238, 131.9917
351.2059, 130.7588
351.6880, 129.8703
352.1701, 129.3627
352.6523, 129.4742
353.1344, 130.6301
353.6165, 131.0836
354.0986, 129.6910
354.5807, 128.3050
355.0628, 128.3085
355.5450, 129.6093
356.0271, 130.8156
356.5092, 130.2721
356.9913, 127.8861
357.4734, 126.5933
357.9555, 127.2559
358.4377, 128.1334
358.9198, 128.6350
359.4019, 128.7992
359.8840, 128.7283
360.3661, 128.3499
360.8482, 127.8740
361.3304, 128.1359
361.8125, 129.8477
362.2946, 130.6845
362.7767, 128.6469
363.2588, 125.9306
363.7409, 125.0356
364.2231, 126.8860
364.7052, 129.5583
365.1873, 130.4697
365.6694, 129.4073
366.1515, 128.5964
366.6336, 128.8356
367.1158, 129.2522
367.5979, 129.2618
368.0800, 128.8354
368.5621, 128.1638
369.0442, 126.9688
369.5263, 125.5232
370.0085, 125.3291
370.4906, 127.1416
370.9727, 129.0555
371.4548, 129.6370
371.9369, 129.3479
372.4190, 129.2147
372.9012, 129.8675
373.3833, 130.7275
373.8654, 130.7278
374.3475, 129.7225
374.8296, 129.1518
375.3117, 130.3549
375.7939, 132.1067
376.2760, 132.4749
376.7581, 130.8247
377.2402, 129.0009
377.7223, 128.2222
378.2044, 128.3696
378.6866, 129.1257
379.1687, 130.8626
379.6508, 132.4032
380.1329, 131.7645
380.6150, 129.0141
381.0971, 127.1683
381.5793, 128.3705
382.0614, 130.5481
382.5435, 130.1982
383.0256, 126.7863
383.5077, 123.9071
383.9898, 124.9411
384.4720, 129.2754
384.9541, 131.7850
385.4362, 131.2697
385.9183, 129.8418
386.4004, 128.2840
386.8825, 126.7821
387.3647, 125.9802
387.8468, 126.3497
388.3289, 127.3383
388.8110, 127.4366
389.2931, 126.0654
389.7752, 125.2262
390.2574, 125.1993
390.7395, 125.9751
391.2216, 128.0930
391.7037, 131.5673
392.1858, 134.7245
392.6679, 135.5234
393.1501, 133.4063
393.6322, 131.4483
394.1143, 129.2548
394.5964, 127.5450
395.0785, 126.8010
395.5606, 126.9089
396.0428, 127.5550
396.5249, 128.6064
397.0070, 129.9292
397.4891, 130.8297
397.9712, 130.8870
398.4533, 131.0099
398.9355, 131.7173
399.4176, 132.3452
399.8997, 131.9511
400.3818, 130.3177
400.8639, 128.3161
401.3460, 127.1276
401.8282, 126.4661
402.3103, 127.5481
402.7924, 132.7209
403.2745, 137.3014
403.7566, 138.6624
404.2387, 137.2710
404.7209, 135.0491
405.2030, 133.2410
405.6851, 131.9287
406.1672, 131.9858
406.6493, 135.0895
407.1314, 137.1316
407.6136, 136.0940
408.0957, 134.0849
408.5778, 133.5988
409.0599, 135.5367
409.5420, 138.3857
410.0241, 139.7686
410.5063, 139.2720
410.9884, 139.5084
411.4705, 141.2283
411.9526, 143.5125
412.4347, 146.4778
412.9168, 149.7462
413.3990, 151.9738
413.8811, 151.9370
414.3632, 150.0839
414.8453, 147.6776
415.3274, 143.9055
415.8095, 141.6141
416.2917, 143.5704
416.7738, 147.5653
417.2559, 150.8513
417.7380, 152.7632
418.2201, 153.8172
418.7022, 154.1775
419.1844, 153.9449
419.6665, 154.2001
420.1486, 155.6570
420.6307, 157.1906
421.1128, 156.9757
421.5949, 155.0063
422.0771, 154.0112
422.5592, 155.8699
423.0413, 158.8654
423.5234, 160.4444
424.0055, 160.3255
424.4876, 160.3815
424.9698, 162.3155
425.4519, 165.6734
425.9340, 167.4787
426.4161, 166.4059
426.8982, 165.2367
427.3803, 165.2222
427.8625, 166.0103
428.3446, 166.8898
428.8267, 167.6052
429.3088, 168.2388
429.7909, 168.8994
430.2730, 169.4303
430.7552, 170.4221
431.2373, 172.1898
431.7194, 174.1822
432.2015, 175.9672
432.6836, 177.5592
433.1657, 179.3491
433.6479, 181.7307
434.1300, 184.5944
434.6121, 186.4985
435.0942, 186.4581
435.5763, 186.5722
436.0584, 187.0533
436.5406, 187.9066
437.0227, 189.2916
437.5048, 191.2154
437.9869, 193.1833
438.4690, 194.3736
438.9511, 194.5283
439.4333, 194.7363
439.9154, 194.5815
440.3975, 194.8866
440.8796, 196.3406
441.3617, 198.6086
441.8438, 200.7671
442.3260, 202.1592
442.8081, 203.0279
443.2902, 204.2276
443.7723, 206.0875
444.2544, 207.4558
444.7365, 207.3705
445.2187, 206.9191
445.7008, 207.0355
446.1829, 207.9073
446.6650, 209.2176
447.1471, 210.6355
447.6292, 212.2226
448.1114, 214.5983
448.5935, 218.4762
449.0756, 221.8936
449.5577, 222.8947
450.0398, 222.0784
450.5219, 221.0063
451.0041, 219.2168
451.4862, 217.9772
451.9683, 219.3026
452.4504, 222.7225
452.9325, 224.8693
453.4146, 223.8806
453.8968, 221.1852
454.3789, 219.8742
454.8610, 220.1384
455.3431, 220.7545
455.8252, 222.6110
456.3073, 224.0518
456.7895, 222.7872
457.2716, 218.7298
457.7537, 214.1705
458.2358, 211.0270
458.7179, 209.2969
459.2000, 207.8100
459.6822, 207.2870
460.1643, 206.1428
460.6464, 203.5983
461.1285, 200.2737
461.6106, 196.8710
462.0927, 193.6858
462.5748, 190.9583
463.0569, 189.2604
463.5391, 189.3558
464.0212, 188.4162
464.5033, 185.9217
464.9854, 182.9560
465.4675, 179.5477
465.9496, 176.0649
466.4318, 173.2646
466.9139, 171.7735
467.3960, 171.1281
467.8781, 169.7758
468.3602, 167.3088
468.8423, 165.1901
469.3245, 163.9175
469.8066, 163.1035
470.2887, 162.6559
470.7708, 162.5359
471.2529, 162.2216
471.7350, 160.8263
472.2172, 158.8322
472.6993, 158.3011
473.1814, 159.8351
473.6635, 161.5859
474.1456, 162.2945
474.6277, 162.2440
475.1099, 161.9820
475.5920, 161.5074
476.0741, 160.9494
476.5562, 160.5549
477.0383, 160.1657
477.5204, 158.9009
478.0026, 156.1385
478.4847, 153.8007
478.9668, 155.2865
479.4489, 162.0175
479.9310, 165.3526
480.4131, 161.6363
480.8953, 157.0745
481.3774, 155.9185
481.8595, 157.6739
482.3416, 159.8904
482.8237, 161.2127
483.3058, 161.6994
483.7880, 161.5185
484.2701, 159.4783
484.7522, 158.5139
485.2343, 159.9530
485.7164, 161.5743
486.1985, 161.4774
486.6807, 159.6343
487.1628, 157.4850
487.6449, 156.3757
488.1270, 156.1952
488.6091, 155.3038
489.0912, 153.1360
489.5734, 151.1431
490.0555, 149.6569
490.5376, 148.5975
491.0197, 147.8440
491.5018, 147.3533
491.9839, 147.3198
492.4661, 148.7171
492.9482, 151.1884
493.4303, 151.0994
493.9124, 146.6763
494.3945, 142.0712
494.8766, 141.3147
495.3588, 143.0702
495.8409, 143.8673
496.3230, 142.4139
496.8051, 140.1370
497.2872, 138.0659
497.7693, 136.1505
498.2515, 134.0061
498.7336, 131.2814
499.2157, 128.9063
499.6978, 128.5195
500.1799, 130.7147
500.6620, 132.6685
501.1442, 134.9413
501.6263, 136.3220
502.1084, 135.3090
502.5905, 132.5601
503.0726, 130.1392
503.5547, 129.3006
504.0369, 129.7254
504.5190, 130.3677
505.0011, 132.0134
505.4832, 132.5742
505.9653, 130.5852
506.4474, 128.5962
506.9296, 128.8040
507.4117, 131.0507
507.8938, 133.4188
508.3759, 134.4309
508.8580, 134.2084
509.3401, 133.2464
509.8223, 130.8962
510.3044, 129.2337
510.7865, 129.7742
511.2686, 130.9507
511.7507, 130.8855
512.2328, 129.1056
512.7150, 128.1245
513.1971, 131.3891
513.6792, 136.9089
514.1613, 138.1936
514.6434, 133.6519
515.1255, 128.8586
515.6077, 128.0997
516.0898, 130.6136
516.5719, 132.5780
517.0540, 134.4607
517.5361, 135.0667
518.0182, 132.5972
518.5004, 128.8227
518.9825, 126.9840
519.4646, 127.9352
519.9467, 129.7244
520.4288, 129.9677
520.9109, 128.3103
521.3931, 127.4912
521.8752, 128.2508
522.3573, 128.8892
522.8394, 128.6894
523.3215, 128.0232
523.8036, 127.3162
524.2858, 126.7607
524.7679, 126.6996
525.2500, 128.0213
525.7321, 131.2274
526.2142, 133.2673
526.6964, 133.4093
527.1785, 132.8816
527.6606, 131.7699
528.1427, 130.4789
528.6248, 129.8192
529.1069, 130.2063
529.5891, 131.2442
530.0712, 132.5619
530.5533, 134.1392
531.0354, 135.7210
531.5175, 137.4910
531.9996, 138.8399
532.4818, 138.4295
532.9639, 136.4332
533.4460, 135.7278
533.9281, 137.9142
534.4102, 140.7446
534.8923, 142.6326
535.3745, 143.6665
535.8566, 144.4704
536.3387, 145.3352
536.8208, 146.0821
537.3029, 146.2405
537.7850, 144.7610
538.2672, 144.9866
538.7493, 149.0354
539.2314, 152.7374
539.7135, 152.6760
540.1956, 150.2313
540.6777, 149.6194
541.1599, 153.6428
541.6420, 160.0121
542.1241, 162.5656
542.6062, 159.8597
543.0883, 158.0204
543.5704, 159.0284
544.0526, 160.5302
544.5347, 161.3357
545.0168, 161.3776
545.4989, 160.7872
545.9810, 158.8774
546.4631, 156.7997
546.9453, 156.7384
547.4274, 158.6283
547.9095, 160.0537
548.3916, 159.7864
548.8737, 158.8528
549.3558, 159.2123
549.8380, 161.0773
550.3201, 162.4776
550.8022, 162.7214
551.2843, 162.6072
551.7664, 162.9481
552.2485, 163.5632
552.7307, 163.6718
553.2128, 162.8245
553.6949, 161.1946
554.1770, 159.1862
554.6591, 156.0405
555.1412, 153.9202
555.6234, 153.9849
556.1055, 153.9742
556.5876, 152.0338
557.0697, 148.7392
557.5518, 146.2468
558.0339, 146.1833
558.5161, 147.2552
558.9982, 146.1736
559.4803, 142.4699
559.9624, 139.4413
560.4445, 137.8224
560.9266, 137.4262
561.4088, 138.4704
561.8909, 140.7763
562.3730, 142.3516
562.8551, 141.7877
563.3372, 140.6136
563.8193, 140.5088
564.3015, 141.3163
564.7836, 142.0550
565.2657, 142.3360
565.7478, 142.1983
566.2299, 141.6819
566.7120, 140.6058
567.1942, 139.5607
567.6763, 138.7779
568.1584, 137.8194
568.6405, 136.1457
569.1226, 134.1125
569.6047, 132.3995
570.0869, 131.3502
570.5690, 131.0305
571.0511, 131.7456
571.5332, 133.8324
572.0153, 135.7041
572.4974, 137.6938
572.9796, 138.9001
573.4617, 138.6142
573.9438, 137.1890
574.4259, 135.3849
574.9080, 132.7218
575.3901, 130.9783
575.8723, 133.4971
576.3544, 139.2693
576.8365, 142.1646
577.3186, 139.8030
577.8007, 136.2103
578.2828, 136.0271
578.7650, 139.4911
579.2471, 142.2083
579.7292, 143.8750
580.2113, 144.9732
580.6934, 145.5688
581.1755, 145.8018
581.6577, 145.7986
582.1398, 145.6214
582.6219, 145.4905
583.1040, 145.9237
583.5861, 147.2126
584.0682, 146.7304
