##NAMES=Kurnakovite
##RRUFFID=R050393
##IDEAL CHEMISTRY=MgB_3_O_3_(OH)_5_&#183;5H_2_O
##LOCALITY=Kramer deposit, Boron, Kern County, California, USA
##OWNER=RRUFF
##SOURCE=Marcus Origlieri
##DESCRIPTION=Colorless to gray cleavage fragment
##STATUS=The identification of this mineral has been confirmed by X-ray diffraction and chemical analysis
##URL=rruff.info/R050393
##MEASURED CHEMISTRY=Mg_1.00_B_3_O_3_(OH)_5_·5H_2_O ; = lighter phase. The darker phase: (Mg_0.97_Al_0.02_[box]_0.01_)_Σ=1_B_3_O_3_(OH)_5_·5H_2_O ; B not measured but estimated by stoichiometry
92.35352, 74.71900
92.83563, 73.56108
93.31775, 73.06985
93.79987, 73.09177
94.28198, 73.76075
94.76410, 75.52145
95.24622, 78.56505
95.72833, 82.62657
96.21045, 87.14091
96.69257, 92.12828
97.17468, 97.55860
97.65680, 103.0848
98.13892, 108.7459
98.62103, 115.6187
99.10315, 123.7942
99.58527, 133.3195
100.0674, 144.1521
100.5495, 156.1424
101.0316, 169.5708
101.5137, 184.3868
101.9958, 200.4653
102.4780, 218.6882
102.9601, 239.0862
103.4422, 261.5413
103.9243, 286.7536
104.4064, 314.6377
104.8885, 345.4503
105.3707, 380.7602
105.8528, 422.5806
106.3349, 465.6649
106.8170, 507.9492
107.2991, 549.8233
107.7813, 590.1667
108.2634, 628.8880
108.7455, 666.2555
109.2276, 701.7714
109.7097, 736.7516
110.1918, 769.2177
110.6740, 798.3933
111.1561, 817.0947
111.6382, 840.5511
112.1203, 869.2543
112.6024, 903.5155
113.0845, 943.6946
113.5667, 988.7686
114.0488, 1040.159
114.5309, 1099.406
115.0130, 1170.431
115.4951, 1245.479
115.9772, 1324.109
116.4594, 1406.806
116.9415, 1488.597
117.4236, 1569.428
117.9057, 1647.934
118.3878, 1722.339
118.8699, 1796.610
119.3521, 1864.026
119.8342, 1922.739
120.3163, 1972.846
120.7984, 2011.539
121.2805, 2035.973
121.7626, 2047.902
122.2448, 2050.323
122.7269, 2039.609
123.2090, 2022.496
123.6911, 2003.396
124.1732, 1981.143
124.6553, 1963.734
125.1375, 1957.117
125.6196, 1961.088
126.1017, 1975.001
126.5838, 1998.458
127.0659, 2031.709
127.5480, 2075.378
128.0302, 2130.244
128.5123, 2194.553
128.9944, 2267.101
129.4765, 2347.639
129.9586, 2433.835
130.4407, 2527.638
130.9229, 2626.772
131.4050, 2724.223
131.8871, 2820.623
132.3692, 2910.286
132.8513, 2980.696
133.3334, 3027.419
133.8156, 3037.613
134.2977, 3008.230
134.7798, 2950.979
135.2619, 2882.038
135.7440, 2800.344
136.2261, 2710.905
136.7083, 2629.348
137.1904, 2555.254
137.6725, 2488.853
138.1546, 2428.923
138.6367, 2374.609
139.1188, 2329.257
139.6010, 2293.149
140.0831, 2266.295
140.5652, 2247.782
141.0473, 2238.273
141.5294, 2235.426
142.0115, 2235.933
142.4937, 2238.289
142.9758, 2247.016
143.4579, 2263.532
143.9400, 2288.030
144.4221, 2318.537
144.9042, 2356.504
145.3864, 2399.458
145.8685, 2442.518
146.3506, 2486.651
146.8327, 2530.045
147.3148, 2573.454
147.7969, 2620.587
148.2791, 2659.056
148.7612, 2690.409
149.2433, 2713.181
149.7254, 2723.965
150.2075, 2716.715
150.6896, 2702.925
151.1718, 2686.388
151.6539, 2661.209
152.1360, 2641.884
152.6181, 2628.474
153.1002, 2620.990
153.5823, 2619.577
154.0645, 2628.639
154.5466, 2640.434
155.0287, 2651.277
155.5108, 2657.611
155.9929, 2666.900
156.4750, 2679.284
156.9572, 2695.079
157.4393, 2715.597
157.9214, 2743.152
158.4035, 2774.396
158.8856, 2807.298
159.3677, 2839.137
159.8499, 2874.989
160.3320, 2915.649
160.8141, 2961.004
161.2962, 3011.213
161.7783, 3068.199
162.2604, 3128.809
162.7426, 3190.443
163.2247, 3257.641
163.7068, 3321.128
164.1889, 3381.071
164.6710, 3436.180
165.1531, 3476.101
165.6353, 3495.384
166.1174, 3496.952
166.5995, 3483.941
167.0816, 3455.794
167.5637, 3414.752
168.0458, 3357.720
168.5280, 3285.310
169.0101, 3211.383
169.4922, 3144.363
169.9743, 3082.040
170.4564, 3021.782
170.9385, 2962.264
171.4207, 2904.478
171.9028, 2848.571
172.3849, 2794.748
172.8670, 2744.666
173.3491, 2699.296
173.8312, 2658.208
174.3134, 2620.432
174.7955, 2587.211
175.2776, 2556.690
175.7597, 2528.115
176.2418, 2501.672
176.7239, 2473.619
177.2061, 2437.192
177.6882, 2395.206
178.1703, 2356.023
178.6524, 2324.498
179.1345, 2297.662
179.6166, 2270.868
180.0988, 2243.368
180.5809, 2217.039
181.0630, 2192.617
181.5451, 2170.473
182.0272, 2153.170
182.5093, 2141.591
182.9915, 2135.607
183.4736, 2135.943
183.9557, 2143.416
184.4378, 2154.227
184.9199, 2163.485
185.4020, 2171.374
185.8842, 2180.527
186.3663, 2192.448
186.8484, 2206.802
187.3305, 2222.417
187.8126, 2239.902
188.2947, 2257.265
188.7769, 2272.530
189.2590, 2285.620
189.7411, 2294.498
190.2232, 2299.499
190.7053, 2299.964
191.1874, 2291.519
191.6696, 2273.073
192.1517, 2246.890
192.6338, 2216.685
193.1159, 2182.485
193.5980, 2143.952
194.0801, 2098.523
194.5623, 2047.066
195.0444, 1998.353
195.5265, 1952.634
196.0086, 1911.285
196.4907, 1878.565
196.9728, 1855.189
197.4550, 1834.257
197.9371, 1810.675
198.4192, 1784.315
198.9013, 1763.112
199.3834, 1748.557
199.8655, 1738.726
200.3477, 1729.097
200.8298, 1719.679
201.3119, 1710.516
201.7940, 1701.391
202.2761, 1692.236
202.7582, 1684.038
203.2404, 1677.109
203.7225, 1671.048
204.2046, 1664.279
204.6867, 1656.158
205.1688, 1649.555
205.6509, 1646.797
206.1331, 1648.470
206.6152, 1649.990
207.0973, 1650.837
207.5794, 1651.360
208.0615, 1652.160
208.5436, 1652.496
209.0258, 1655.074
209.5079, 1662.633
209.9900, 1676.773
210.4721, 1687.813
210.9542, 1693.616
211.4363, 1696.238
211.9185, 1702.832
212.4006, 1714.428
212.8827, 1727.832
213.3648, 1741.170
213.8469, 1754.885
214.3290, 1767.478
214.8112, 1779.048
215.2933, 1789.314
215.7754, 1797.543
216.2575, 1803.275
216.7396, 1807.834
217.2217, 1811.528
217.7038, 1813.418
218.1860, 1817.454
218.6681, 1824.835
219.1502, 1834.382
219.6323, 1841.275
220.1144, 1843.585
220.5965, 1846.482
221.0787, 1852.882
221.5608, 1863.453
222.0429, 1875.733
222.5250, 1889.750
223.0071, 1905.382
223.4892, 1921.482
223.9714, 1937.761
224.4535, 1955.226
224.9356, 1974.689
225.4177, 1996.344
225.8998, 2019.449
226.3819, 2044.629
226.8641, 2071.251
227.3462, 2096.340
227.8283, 2119.738
228.3104, 2141.784
228.7925, 2162.925
229.2746, 2185.894
229.7568, 2202.192
230.2389, 2211.050
230.7210, 2213.262
231.2031, 2211.335
231.6852, 2206.550
232.1673, 2195.761
232.6495, 2176.959
233.1316, 2147.327
233.6137, 2115.818
234.0958, 2082.105
234.5779, 2047.098
235.0600, 2013.726
235.5422, 1981.274
236.0243, 1950.970
236.5064, 1923.402
236.9885, 1899.355
237.4706, 1876.149
237.9527, 1852.863
238.4349, 1830.943
238.9170, 1814.442
239.3991, 1804.791
239.8812, 1798.409
240.3633, 1794.091
240.8454, 1792.573
241.3276, 1791.294
241.8097, 1790.188
242.2918, 1789.363
242.7739, 1788.771
243.2560, 1786.856
243.7381, 1787.609
244.2203, 1793.211
244.7024, 1806.281
245.1845, 1816.757
245.6666, 1823.717
246.1487, 1828.512
246.6308, 1833.616
247.1130, 1838.233
247.5951, 1844.514
248.0772, 1853.513
248.5593, 1866.284
249.0414, 1878.106
249.5235, 1888.977
250.0057, 1898.862
250.4878, 1907.650
250.9699, 1914.214
251.4520, 1921.745
251.9341, 1931.770
252.4162, 1945.425
252.8984, 1956.048
253.3805, 1962.590
253.8626, 1966.945
254.3447, 1971.979
254.8268, 1979.086
255.3089, 1984.248
255.7911, 1986.545
256.2732, 1986.082
256.7553, 1981.947
257.2374, 1973.240
257.7195, 1961.703
258.2017, 1949.818
258.6838, 1938.883
259.1659, 1924.256
259.6480, 1903.162
260.1301, 1875.389
260.6122, 1851.605
261.0944, 1831.449
261.5765, 1815.675
262.0586, 1806.061
262.5407, 1805.444
263.0228, 1803.112
263.5049, 1796.018
263.9871, 1784.397
264.4692, 1775.572
264.9513, 1769.610
265.4334, 1766.212
265.9155, 1765.400
266.3976, 1767.816
266.8798, 1770.700
267.3619, 1773.600
267.8440, 1776.564
268.3261, 1779.684
268.8082, 1782.730
269.2903, 1786.388
269.7725, 1791.404
270.2546, 1798.046
270.7367, 1804.561
271.2188, 1810.939
271.7009, 1816.892
272.1830, 1820.854
272.6652, 1821.908
273.1473, 1823.375
273.6294, 1827.468
274.1115, 1834.374
274.5936, 1843.118
275.0757, 1854.257
275.5579, 1866.771
276.0400, 1877.338
276.5221, 1885.630
277.0042, 1893.234
277.4863, 1900.411
277.9684, 1906.949
278.4506, 1916.302
278.9327, 1929.661
279.4148, 1944.740
279.8969, 1956.848
280.3790, 1965.828
280.8611, 1973.048
281.3433, 1979.584
281.8254, 1985.446
282.3075, 1988.270
282.7896, 1987.959
283.2717, 1984.804
283.7538, 1979.048
284.2360, 1970.676
284.7181, 1960.359
285.2002, 1947.865
285.6823, 1933.409
286.1644, 1918.863
286.6465, 1904.372
287.1287, 1889.728
287.6108, 1875.096
288.0929, 1860.401
288.5750, 1844.376
289.0571, 1825.533
289.5392, 1804.868
290.0214, 1786.454
290.5035, 1770.338
290.9856, 1756.577
291.4677, 1746.343
291.9498, 1739.060
292.4319, 1731.351
292.9141, 1721.443
293.3962, 1710.793
293.8783, 1702.626
294.3604, 1697.004
294.8425, 1693.335
295.3246, 1692.260
295.8068, 1692.921
296.2889, 1692.212
296.7710, 1688.585
297.2531, 1684.213
297.7352, 1682.945
298.2173, 1684.528
298.6995, 1686.809
299.1816, 1687.065
299.6637, 1686.972
300.1458, 1690.391
300.6279, 1698.802
301.1100, 1709.187
301.5922, 1718.090
302.0743, 1725.720
302.5564, 1732.950
303.0385, 1738.635
303.5206, 1744.769
304.0027, 1755.055
304.4849, 1770.630
304.9670, 1787.135
305.4491, 1800.188
305.9312, 1810.806
306.4133, 1821.432
306.8954, 1832.278
307.3776, 1844.328
307.8597, 1858.878
308.3418, 1876.344
308.8239, 1894.205
309.3060, 1910.520
309.7881, 1926.224
310.2703, 1942.246
310.7524, 1958.823
311.2345, 1976.213
311.7166, 1994.438
312.1987, 2013.500
312.6808, 2033.238
313.1630, 2053.690
313.6451, 2074.892
314.1272, 2097.061
314.6093, 2119.995
315.0914, 2143.810
315.5735, 2168.118
316.0557, 2193.020
316.5378, 2219.125
317.0199, 2248.235
317.5020, 2277.626
317.9841, 2305.647
318.4662, 2330.205
318.9484, 2355.054
319.4305, 2381.737
319.9126, 2409.660
320.3947, 2437.253
320.8768, 2465.427
321.3589, 2492.140
321.8411, 2515.977
322.3232, 2534.780
322.8053, 2554.974
323.2874, 2581.223
323.7695, 2608.964
324.2516, 2630.969
324.7338, 2641.603
325.2159, 2650.500
325.6980, 2661.256
326.1801, 2675.400
326.6622, 2685.321
327.1443, 2691.457
327.6265, 2692.849
328.1086, 2688.453
328.5907, 2675.154
329.0728, 2659.700
329.5549, 2643.109
330.0370, 2625.317
330.5192, 2605.358
331.0013, 2582.733
331.4834, 2558.257
331.9655, 2531.917
332.4476, 2500.868
332.9297, 2472.766
333.4119, 2449.202
333.8940, 2429.245
334.3761, 2408.913
334.8582, 2386.987
335.3403, 2367.238
335.8224, 2351.775
336.3046, 2341.335
336.7867, 2333.021
337.2688, 2327.365
337.7509, 2323.262
338.2330, 2317.833
338.7151, 2309.999
339.1973, 2304.410
339.6794, 2303.728
340.1615, 2308.284
340.6436, 2310.478
341.1257, 2309.484
341.6078, 2307.989
342.0899, 2309.588
342.5721, 2314.461
343.0542, 2320.051
343.5363, 2325.651
344.0184, 2331.360
344.5005, 2337.803
344.9826, 2344.998
345.4648, 2352.487
345.9469, 2358.916
346.4290, 2364.777
346.9111, 2373.179
347.3932, 2384.739
347.8753, 2399.086
348.3575, 2416.558
348.8396, 2436.728
349.3217, 2456.121
349.8038, 2470.000
350.2859, 2481.236
350.7680, 2497.580
351.2502, 2520.774
351.7323, 2545.762
352.2144, 2568.386
352.6965, 2588.456
353.1786, 2604.715
353.6607, 2615.393
354.1429, 2622.555
354.6250, 2628.927
355.1071, 2634.704
355.5892, 2638.372
356.0713, 2641.039
356.5534, 2640.430
357.0356, 2633.130
357.5177, 2615.839
357.9998, 2593.127
358.4819, 2566.533
358.9640, 2536.715
359.4461, 2507.981
359.9283, 2484.219
360.4104, 2461.597
360.8925, 2436.495
361.3746, 2405.366
361.8567, 2376.330
362.3388, 2353.114
362.8210, 2334.503
363.3031, 2317.200
363.7852, 2298.127
364.2673, 2281.775
364.7494, 2270.656
365.2315, 2266.042
365.7137, 2262.886
366.1958, 2260.847
366.6779, 2259.577
367.1600, 2258.648
367.6421, 2256.115
368.1242, 2255.893
368.6064, 2259.249
369.0885, 2266.378
369.5706, 2274.107
370.0527, 2284.229
370.5348, 2293.641
371.0169, 2300.015
371.4991, 2298.385
371.9812, 2302.268
372.4633, 2314.888
372.9454, 2333.640
373.4275, 2349.067
373.9096, 2360.333
374.3918, 2370.055
374.8739, 2379.056
375.3560, 2387.315
375.8381, 2395.624
376.3202, 2404.443
376.8023, 2412.581
377.2845, 2417.983
377.7666, 2420.273
378.2487, 2421.707
378.7308, 2424.007
379.2129, 2426.307
379.6950, 2422.018
380.1772, 2410.487
380.6593, 2395.473
381.1414, 2379.947
381.6235, 2363.943
382.1056, 2346.590
382.5877, 2328.123
383.0699, 2307.869
383.5520, 2284.559
384.0341, 2258.087
384.5162, 2229.524
384.9983, 2197.144
385.4804, 2163.214
385.9626, 2132.660
386.4447, 2106.310
386.9268, 2081.456
387.4089, 2054.421
387.8910, 2026.609
388.3731, 2001.824
388.8553, 1982.177
389.3374, 1965.953
389.8195, 1952.243
390.3016, 1941.109
390.7837, 1931.290
391.2658, 1922.173
391.7480, 1914.068
392.2301, 1907.250
392.7122, 1901.385
393.1943, 1897.423
393.6764, 1896.228
394.1585, 1897.415
394.6407, 1899.849
395.1228, 1904.470
395.6049, 1909.220
396.0870, 1912.658
396.5691, 1913.525
397.0512, 1916.674
397.5334, 1922.880
398.0155, 1931.944
398.4976, 1943.500
398.9797, 1962.196
399.4618, 1978.409
399.9439, 1989.171
400.4261, 1994.494
400.9082, 2001.851
401.3903, 2011.764
401.8724, 2023.155
402.3545, 2035.511
402.8366, 2049.171
403.3188, 2062.900
403.8009, 2077.413
404.2830, 2091.608
404.7651, 2101.846
405.2472, 2106.013
405.7293, 2112.045
406.2115, 2124.330
406.6936, 2143.032
407.1757, 2158.013
407.6578, 2168.300
408.1399, 2177.638
408.6220, 2190.671
409.1042, 2207.336
409.5863, 2224.367
410.0684, 2240.762
410.5505, 2257.062
411.0326, 2274.782
411.5147, 2294.051
411.9969, 2315.929
412.4790, 2343.683
412.9611, 2374.760
413.4432, 2402.263
413.9253, 2425.072
414.4074, 2446.243
414.8896, 2469.313
415.3717, 2493.413
415.8538, 2516.351
416.3359, 2538.797
416.8180, 2558.322
417.3001, 2573.032
417.7823, 2582.971
418.2644, 2586.818
418.7465, 2584.383
419.2286, 2575.406
419.7107, 2559.670
420.1928, 2536.090
420.6750, 2506.821
421.1571, 2471.240
421.6392, 2430.300
422.1213, 2387.373
422.6034, 2342.683
423.0855, 2296.937
423.5677, 2249.187
424.0498, 2198.197
424.5319, 2150.796
425.0140, 2108.272
425.4961, 2068.888
425.9782, 2030.826
426.4604, 1994.739
426.9425, 1958.879
427.4246, 1921.108
427.9067, 1882.485
428.3888, 1853.614
428.8709, 1838.903
429.3531, 1826.230
429.8352, 1808.034
430.3173, 1782.868
430.7994, 1760.797
431.2815, 1742.422
431.7636, 1726.651
432.2458, 1711.772
432.7279, 1697.647
433.2100, 1686.448
433.6921, 1679.730
434.1742, 1676.357
434.6563, 1672.715
435.1385, 1668.763
435.6206, 1664.245
436.1027, 1658.359
436.5848, 1651.715
437.0669, 1645.561
437.5490, 1639.459
438.0312, 1635.647
438.5133, 1639.244
438.9954, 1647.547
439.4775, 1653.013
439.9596, 1647.844
440.4417, 1640.632
440.9239, 1639.417
441.4060, 1644.680
441.8881, 1651.363
442.3702, 1658.711
442.8523, 1665.044
443.3344, 1668.708
443.8166, 1665.819
444.2987, 1664.222
444.7808, 1665.983
445.2629, 1670.796
445.7450, 1677.853
446.2271, 1691.630
446.7093, 1703.374
447.1914, 1708.562
447.6735, 1703.683
448.1556, 1703.495
448.6377, 1710.639
449.1198, 1720.673
449.6020, 1729.051
450.0841, 1734.038
450.5662, 1740.747
451.0483, 1750.481
451.5304, 1762.542
452.0125, 1773.350
452.4947, 1782.508
452.9768, 1791.914
453.4589, 1802.291
453.9410, 1813.708
454.4231, 1827.785
454.9052, 1845.219
455.3874, 1863.683
455.8695, 1880.489
456.3516, 1895.880
456.8337, 1910.932
457.3158, 1925.317
457.7979, 1940.361
458.2801, 1958.847
458.7622, 1980.429
459.2443, 2003.412
459.7264, 2027.010
460.2085, 2051.034
460.6906, 2075.098
461.1728, 2099.279
461.6549, 2122.823
462.1370, 2142.388
462.6191, 2161.235
463.1012, 2183.713
463.5833, 2217.134
464.0655, 2249.268
464.5476, 2275.686
465.0297, 2296.109
465.5118, 2310.454
465.9939, 2315.408
466.4760, 2316.235
466.9582, 2315.871
467.4403, 2316.375
467.9224, 2312.281
468.4045, 2303.211
468.8866, 2289.740
469.3687, 2272.269
469.8509, 2250.437
470.3330, 2225.700
470.8151, 2197.567
471.2972, 2166.471
471.7793, 2136.567
472.2614, 2107.233
472.7436, 2080.046
473.2257, 2056.970
473.7078, 2038.004
474.1899, 2017.193
474.6720, 1993.405
475.1541, 1969.161
475.6363, 1946.870
476.1184, 1926.881
476.6005, 1911.646
477.0826, 1904.531
477.5647, 1901.348
478.0468, 1895.177
478.5290, 1886.243
479.0111, 1876.593
479.4932, 1865.286
479.9753, 1855.100
480.4574, 1849.683
480.9395, 1850.490
481.4217, 1853.421
481.9038, 1856.629
482.3859, 1860.182
482.8680, 1864.152
483.3501, 1869.044
483.8322, 1873.859
484.3144, 1877.936
484.7965, 1881.321
485.2786, 1885.491
485.7607, 1891.865
486.2428, 1898.032
486.7249, 1902.682
487.2071, 1904.546
487.6892, 1907.512
488.1713, 1911.979
488.6534, 1917.290
489.1355, 1922.434
489.6176, 1927.060
490.0998, 1932.942
490.5819, 1941.334
491.0640, 1951.421
491.5461, 1958.224
492.0282, 1961.380
492.5103, 1964.470
492.9925, 1969.738
493.4746, 1977.062
493.9567, 1986.068
494.4388, 1997.358
494.9209, 2007.518
495.4030, 2011.206
495.8852, 2010.675
496.3673, 2011.791
496.8494, 2017.649
497.3315, 2025.100
497.8136, 2031.646
498.2957, 2037.328
498.7779, 2042.126
499.2600, 2045.656
499.7421, 2048.615
500.2242, 2051.547
500.7063, 2054.666
501.1884, 2057.302
501.6706, 2059.142
502.1527, 2060.491
502.6348, 2061.617
503.1169, 2061.100
503.5990, 2062.234
504.0811, 2066.822
504.5633, 2073.471
505.0454, 2076.833
505.5275, 2075.199
506.0096, 2073.107
506.4917, 2072.131
506.9738, 2072.255
507.4560, 2073.942
507.9381, 2077.848
508.4202, 2081.523
508.9023, 2082.063
509.3844, 2079.646
509.8665, 2077.292
510.3487, 2075.356
510.8308, 2074.126
511.3129, 2074.210
511.7950, 2075.493
512.2772, 2077.392
512.7593, 2079.838
513.2414, 2082.611
513.7235, 2086.054
514.2056, 2090.058
514.6877, 2092.643
515.1699, 2089.910
515.6520, 2086.525
516.1341, 2087.166
516.6162, 2095.218
517.0983, 2102.659
517.5804, 2107.034
518.0626, 2109.097
518.5447, 2110.098
519.0268, 2107.038
519.5089, 2106.371
519.9910, 2110.312
520.4731, 2118.521
520.9553, 2125.809
521.4374, 2132.059
521.9195, 2137.471
522.4016, 2141.736
522.8837, 2144.262
523.3658, 2148.744
523.8480, 2155.470
524.3301, 2163.717
524.8122, 2172.873
525.2943, 2182.851
525.7764, 2192.423
526.2585, 2200.982
526.7407, 2209.301
527.2228, 2219.483
527.7049, 2231.191
528.1870, 2242.088
528.6691, 2250.085
529.1512, 2256.977
529.6334, 2265.215
530.1155, 2275.086
530.5976, 2284.063
531.0797, 2290.446
531.5618, 2295.344
532.0439, 2299.606
532.5261, 2301.216
533.0082, 2305.420
533.4903, 2317.432
533.9724, 2332.622
534.4545, 2341.315
534.9366, 2336.100
535.4188, 2331.795
535.9009, 2332.352
536.3830, 2337.636
536.8651, 2340.795
537.3472, 2341.247
537.8293, 2340.822
538.3115, 2340.594
538.7936, 2340.593
539.2757, 2340.796
539.7578, 2341.271
540.2399, 2341.814
540.7220, 2341.692
541.2042, 2341.191
541.6863, 2342.134
542.1684, 2346.037
542.6505, 2350.503
543.1326, 2351.924
543.6147, 2350.837
544.0969, 2349.351
544.5790, 2347.210
545.0611, 2346.156
545.5432, 2348.410
546.0253, 2354.304
546.5074, 2359.418
546.9896, 2360.954
547.4717, 2361.416
547.9538, 2362.825
548.4359, 2366.125
548.9180, 2369.615
549.4001, 2374.058
549.8823, 2378.401
550.3644, 2380.680
550.8465, 2379.738
551.3286, 2379.036
551.8107, 2379.761
552.2928, 2381.559
552.7750, 2381.977
553.2571, 2381.122
553.7392, 2378.470
554.2213, 2372.895
554.7034, 2364.969
555.1855, 2358.384
555.6677, 2353.657
556.1498, 2347.565
556.6319, 2336.516
557.1140, 2321.663
557.5961, 2305.316
558.0782, 2287.681
558.5604, 2269.425
559.0425, 2250.970
559.5246, 2232.420
560.0067, 2214.103
560.4888, 2198.175
560.9709, 2180.849
561.4531, 2159.455
561.9352, 2133.879
562.4173, 2110.660
562.8994, 2091.728
563.3815, 2074.586
563.8636, 2057.929
564.3458, 2042.069
564.8279, 2025.985
565.3100, 2008.675
565.7921, 1992.211
566.2742, 1979.984
566.7563, 1972.384
567.2385, 1964.484
567.7206, 1954.900
568.2027, 1944.938
568.6848, 1938.251
569.1669, 1934.380
569.6490, 1930.601
570.1312, 1924.987
570.6133, 1918.719
571.0954, 1912.903
571.5775, 1907.618
572.0596, 1904.647
572.5417, 1907.276
573.0239, 1911.386
573.5060, 1913.210
573.9881, 1911.239
574.4702, 1909.369
574.9523, 1908.240
575.4344, 1908.040
575.9166, 1909.040
576.3987, 1913.399
576.8808, 1916.066
577.3629, 1915.853
577.8450, 1913.645
578.3271, 1912.084
578.8093, 1910.808
579.2914, 1911.317
579.7735, 1915.541
580.2556, 1922.489
580.7377, 1923.911
581.2198, 1919.290
581.7020, 1914.325
582.1841, 1914.262
582.6662, 1917.362
583.1483, 1919.558
583.6304, 1920.219
584.1125, 1920.289
584.5947, 1920.378
