##NAMES=Kurnakovite
##RRUFFID=R050105
##IDEAL CHEMISTRY=MgB_3_O_3_(OH)_5_&#183;5H_2_O
##LOCALITY=Kramer deposit, Boron, Kern County, California, USA
##OWNER=RRUFF
##SOURCE=Rock Currier
##DESCRIPTION=Tabular single crystal
##STATUS=The identification of this mineral has been confirmed by X-ray diffraction and chemical analysis
##URL=rruff.info/R050105
##MEASURED CHEMISTRY=MgB_3_O_3_(OH)_5_Â·5H_2_O
93.91730, 1071.168
94.39941, 1164.672
94.88153, 1263.904
95.36365, 1368.795
95.84576, 1461.633
96.32788, 1575.073
96.81000, 1720.631
97.29211, 1899.094
97.77423, 2104.258
98.25635, 2329.951
98.73847, 2576.155
99.22059, 2856.149
99.70271, 3211.785
100.1848, 3580.244
100.6669, 3919.159
101.1491, 4219.031
101.6312, 4321.705
102.1133, 4455.349
102.5954, 4320.646
103.0775, 4137.632
103.5596, 3907.679
104.0418, 3645.847
104.5239, 3407.830
105.0060, 3206.797
105.4881, 3048.251
105.9702, 2933.271
106.4523, 2867.425
106.9345, 2831.897
107.4166, 2812.913
107.8987, 2815.250
108.3808, 2813.327
108.8629, 2790.369
109.3450, 2757.407
109.8272, 2726.472
110.3093, 2699.778
110.7914, 2679.052
111.2735, 2673.991
111.7556, 2691.374
112.2377, 2718.455
112.7199, 2745.864
113.2020, 2777.675
113.6841, 2823.781
114.1662, 2892.847
114.6483, 2986.446
115.1304, 3099.311
115.6126, 3244.604
116.0947, 3396.626
116.5768, 3544.636
117.0589, 3685.967
117.5410, 3820.560
118.0231, 3949.872
118.5053, 4095.703
118.9874, 4198.316
119.4695, 4252.479
119.9516, 4265.896
120.4337, 4244.934
120.9158, 4191.507
121.3980, 4108.497
121.8801, 3999.293
122.3622, 3864.928
122.8443, 3712.845
123.3264, 3525.756
123.8085, 3316.219
124.2907, 3128.943
124.7728, 2990.172
125.2549, 2899.550
125.7370, 2828.659
126.2191, 2771.146
126.7012, 2736.175
127.1834, 2736.712
127.6655, 2776.465
128.1476, 2833.552
128.6297, 2894.547
129.1118, 2961.172
129.5939, 3038.896
130.0761, 3134.293
130.5582, 3243.049
131.0403, 3354.969
131.5224, 3480.180
132.0045, 3592.617
132.4866, 3696.134
132.9688, 3782.809
133.4509, 3825.684
133.9330, 3798.744
134.4151, 3697.294
134.8972, 3562.056
135.3793, 3363.885
135.8615, 3153.836
136.3436, 2946.397
136.8257, 2747.254
137.3078, 2562.239
137.7899, 2402.090
138.2720, 2275.007
138.7542, 2159.783
139.2363, 2051.822
139.7184, 1954.725
140.2005, 1869.878
140.6826, 1798.393
141.1647, 1740.880
141.6469, 1700.207
142.1290, 1690.167
142.6111, 1683.050
143.0932, 1672.338
143.5753, 1663.413
144.0574, 1664.849
144.5396, 1681.863
145.0217, 1713.653
145.5038, 1752.624
145.9859, 1802.742
146.4680, 1854.297
146.9501, 1907.753
147.4323, 1961.052
147.9144, 2006.893
148.3965, 2042.378
148.8786, 2064.159
149.3607, 2063.964
149.8428, 2038.578
150.3250, 1992.864
150.8071, 1923.678
151.2892, 1826.844
151.7713, 1730.993
152.2534, 1665.564
152.7355, 1623.506
153.2177, 1588.504
153.6998, 1555.805
154.1819, 1526.528
154.6640, 1502.832
155.1461, 1484.473
155.6283, 1473.760
156.1104, 1475.271
156.5925, 1487.049
157.0746, 1496.190
157.5567, 1488.231
158.0388, 1463.898
158.5210, 1453.171
159.0031, 1470.536
159.4852, 1496.350
159.9673, 1517.987
160.4494, 1534.318
160.9315, 1554.221
161.4137, 1590.383
161.8958, 1649.034
162.3779, 1703.671
162.8600, 1746.199
163.3421, 1786.785
163.8242, 1832.941
164.3064, 1887.112
164.7885, 1944.793
165.2706, 1997.428
165.7527, 2041.917
166.2348, 2085.191
166.7169, 2135.487
167.1991, 2182.174
167.6812, 2213.420
168.1633, 2223.305
168.6454, 2215.854
169.1275, 2208.204
169.6096, 2196.691
170.0918, 2189.096
170.5739, 2189.504
171.0560, 2194.371
171.5381, 2197.759
172.0202, 2195.672
172.5023, 2188.505
172.9845, 2184.252
173.4666, 2182.502
173.9487, 2183.229
174.4308, 2188.891
174.9129, 2197.832
175.3951, 2205.747
175.8772, 2211.553
176.3593, 2214.275
176.8414, 2196.900
177.3235, 2156.278
177.8056, 2099.857
178.2878, 2026.264
178.7699, 1936.574
179.2520, 1846.120
179.7341, 1768.923
180.2162, 1704.901
180.6983, 1643.401
181.1805, 1578.377
181.6626, 1517.408
182.1447, 1471.044
182.6268, 1442.769
183.1089, 1421.443
183.5910, 1393.612
184.0732, 1360.740
184.5553, 1336.121
185.0374, 1328.237
185.5195, 1331.762
186.0016, 1334.925
186.4837, 1337.051
186.9659, 1336.172
187.4480, 1329.060
187.9301, 1316.384
188.4122, 1305.343
188.8943, 1300.711
189.3764, 1301.919
189.8586, 1304.877
190.3407, 1313.469
190.8228, 1318.805
191.3049, 1315.165
191.7870, 1302.217
192.2691, 1282.676
192.7513, 1256.253
193.2334, 1221.848
193.7155, 1191.735
194.1976, 1172.906
194.6797, 1156.074
195.1618, 1135.246
195.6440, 1109.396
196.1261, 1083.540
196.6082, 1065.391
197.0903, 1058.554
197.5724, 1048.111
198.0545, 1026.213
198.5367, 1003.583
199.0188, 987.8783
199.5009, 981.3900
199.9830, 980.8362
200.4651, 980.9666
200.9472, 985.4568
201.4294, 983.1573
201.9115, 965.7211
202.3936, 945.5556
202.8757, 934.7244
203.3578, 938.3525
203.8399, 950.7953
204.3221, 956.9576
204.8042, 949.9989
205.2863, 945.2817
205.7684, 940.2418
206.2505, 939.3871
206.7326, 949.8501
207.2148, 975.7289
207.6969, 1011.850
208.1790, 1037.105
208.6611, 1041.528
209.1432, 1045.112
209.6253, 1046.356
210.1075, 1048.925
210.5896, 1057.983
211.0717, 1076.731
211.5538, 1104.182
212.0359, 1133.474
212.5181, 1171.861
213.0002, 1204.323
213.4823, 1223.043
213.9644, 1232.859
214.4465, 1245.077
214.9286, 1268.288
215.4108, 1300.249
215.8929, 1315.085
216.3750, 1305.426
216.8571, 1290.530
217.3392, 1275.055
217.8213, 1260.083
218.3035, 1247.566
218.7856, 1239.338
219.2677, 1235.023
219.7498, 1228.238
220.2319, 1213.802
220.7140, 1201.742
221.1962, 1200.027
221.6783, 1207.100
222.1604, 1212.266
222.6425, 1205.582
223.1246, 1188.971
223.6067, 1184.999
224.0889, 1199.706
224.5710, 1222.098
225.0531, 1244.766
225.5352, 1267.424
226.0173, 1293.517
226.4994, 1326.836
226.9816, 1366.581
227.4637, 1403.805
227.9458, 1437.866
228.4279, 1469.405
228.9100, 1500.447
229.3921, 1531.352
229.8743, 1556.732
230.3564, 1570.970
230.8385, 1575.621
231.3206, 1576.574
231.8027, 1577.796
232.2848, 1574.237
232.7670, 1559.491
233.2491, 1532.690
233.7312, 1498.373
234.2133, 1454.390
234.6954, 1405.083
235.1775, 1361.421
235.6597, 1330.531
236.1418, 1305.416
236.6239, 1275.150
237.1060, 1237.733
237.5881, 1201.235
238.0702, 1170.484
238.5524, 1144.721
239.0345, 1124.182
239.5166, 1110.115
239.9987, 1100.969
240.4808, 1094.091
240.9629, 1089.734
241.4451, 1086.987
241.9272, 1084.437
242.4093, 1082.884
242.8914, 1084.382
243.3735, 1090.674
243.8556, 1100.485
244.3378, 1110.509
244.8199, 1119.600
245.3020, 1131.618
245.7841, 1151.614
246.2662, 1175.878
246.7483, 1196.985
247.2305, 1206.471
247.7126, 1210.758
248.1947, 1229.248
248.6768, 1268.085
249.1589, 1309.635
249.6410, 1341.836
250.1232, 1369.683
250.6053, 1403.187
251.0874, 1450.836
251.5695, 1507.424
252.0516, 1554.389
252.5337, 1583.211
253.0159, 1617.376
253.4980, 1675.641
253.9801, 1745.470
254.4622, 1805.523
254.9443, 1844.842
255.4264, 1865.462
255.9086, 1874.565
256.3907, 1872.370
256.8728, 1856.333
257.3549, 1827.190
257.8370, 1786.042
258.3192, 1733.858
258.8013, 1668.045
259.2834, 1592.559
259.7655, 1520.373
260.2476, 1449.529
260.7297, 1385.267
261.2119, 1330.219
261.6940, 1281.840
262.1761, 1236.521
262.6582, 1192.946
263.1403, 1150.775
263.6224, 1109.354
264.1046, 1063.419
264.5867, 1027.373
265.0688, 1008.077
265.5509, 999.3457
266.0330, 992.8755
266.5151, 984.7703
266.9973, 975.2925
267.4794, 964.5129
267.9615, 948.0689
268.4436, 937.9952
268.9257, 938.8474
269.4078, 946.8984
269.8900, 958.0531
270.3721, 971.1767
270.8542, 984.7428
271.3363, 993.0013
271.8184, 990.4185
272.3005, 991.9666
272.7827, 1000.727
273.2648, 1015.382
273.7469, 1035.322
274.2290, 1061.011
274.7111, 1089.775
275.1932, 1113.866
275.6754, 1129.348
276.1575, 1147.021
276.6396, 1170.814
277.1217, 1197.023
277.6038, 1221.976
278.0859, 1243.992
278.5681, 1263.803
279.0502, 1282.559
279.5323, 1296.798
280.0144, 1316.974
280.4965, 1354.610
280.9786, 1393.849
281.4608, 1418.519
281.9429, 1421.762
282.4250, 1413.142
282.9071, 1411.892
283.3892, 1423.484
283.8713, 1430.053
284.3535, 1430.453
284.8356, 1424.245
285.3177, 1411.036
285.7998, 1390.707
286.2819, 1363.051
286.7640, 1325.993
287.2462, 1273.661
287.7283, 1226.700
288.2104, 1189.941
288.6925, 1157.860
289.1746, 1127.163
289.6567, 1096.852
290.1389, 1066.943
290.6210, 1035.236
291.1031, 997.9889
291.5852, 972.1439
292.0673, 966.8950
292.5494, 968.2796
293.0316, 969.6311
293.5137, 969.3284
293.9958, 967.7639
294.4779, 965.7847
294.9600, 963.9225
295.4421, 959.0547
295.9243, 940.7783
296.4064, 927.1068
296.8885, 930.4898
297.3706, 950.2683
297.8527, 973.4526
298.3348, 985.8021
298.8170, 985.2813
299.2991, 991.0622
299.7812, 1013.274
300.2633, 1034.146
300.7454, 1042.177
301.2275, 1039.947
301.7097, 1040.214
302.1918, 1056.978
302.6739, 1090.517
303.1560, 1115.779
303.6381, 1127.839
304.1202, 1136.160
304.6024, 1143.109
305.0845, 1149.718
305.5666, 1158.115
306.0487, 1171.449
306.5308, 1188.611
307.0129, 1200.516
307.4951, 1206.427
307.9772, 1207.334
308.4593, 1202.115
308.9414, 1193.010
309.4235, 1184.052
309.9056, 1176.860
310.3878, 1171.729
310.8699, 1170.056
311.3520, 1173.211
311.8341, 1177.428
312.3162, 1179.788
312.7983, 1182.350
313.2805, 1188.023
313.7626, 1198.146
314.2447, 1211.983
314.7268, 1227.940
315.2089, 1245.482
315.6910, 1266.951
316.1732, 1297.389
316.6553, 1330.479
317.1374, 1359.714
317.6195, 1382.441
318.1016, 1401.978
318.5837, 1421.736
319.0659, 1441.215
319.5480, 1463.873
320.0301, 1493.286
320.5122, 1525.475
320.9943, 1558.874
321.4764, 1594.171
321.9586, 1624.780
322.4407, 1640.068
322.9228, 1639.998
323.4049, 1646.565
323.8870, 1672.124
324.3691, 1701.068
324.8513, 1716.736
325.3334, 1717.440
325.8155, 1718.653
326.2976, 1737.807
326.7797, 1769.609
327.2618, 1783.580
327.7440, 1767.993
328.2261, 1740.405
328.7082, 1715.763
329.1903, 1694.088
329.6724, 1676.914
330.1545, 1671.546
330.6367, 1670.826
331.1188, 1655.388
331.6009, 1619.030
332.0830, 1577.926
332.5651, 1543.592
333.0472, 1515.505
333.5294, 1496.431
334.0115, 1495.240
334.4936, 1500.131
334.9757, 1492.261
335.4579, 1468.830
335.9400, 1448.576
336.4221, 1449.043
336.9042, 1465.175
337.3863, 1476.245
337.8684, 1469.249
338.3506, 1464.113
338.8327, 1480.790
339.3148, 1517.655
339.7969, 1555.258
340.2790, 1580.367
340.7611, 1598.184
341.2433, 1627.817
341.7254, 1677.545
342.2075, 1729.015
342.6896, 1776.097
343.1717, 1818.111
343.6538, 1851.286
344.1360, 1871.677
344.6181, 1885.915
345.1002, 1911.432
345.5823, 1946.653
346.0644, 1991.987
346.5465, 2053.354
347.0287, 2123.391
347.5108, 2192.247
347.9929, 2256.731
348.4750, 2317.259
348.9571, 2373.164
349.4392, 2421.523
349.9214, 2473.049
350.4035, 2527.414
350.8856, 2585.418
351.3677, 2649.291
351.8498, 2718.665
352.3319, 2790.571
352.8141, 2862.219
353.2962, 2934.987
353.7783, 2999.212
354.2604, 3058.829
354.7425, 3107.868
355.2246, 3142.861
355.7068, 3163.991
356.1889, 3173.822
356.6710, 3175.231
357.1531, 3168.060
357.6352, 3137.713
358.1173, 3071.029
358.5995, 2996.696
359.0816, 2919.135
359.5637, 2839.481
360.0458, 2759.080
360.5279, 2677.735
361.0100, 2596.134
361.4922, 2514.739
361.9743, 2433.450
362.4564, 2353.305
362.9385, 2270.774
363.4206, 2190.510
363.9027, 2113.712
364.3849, 2041.337
364.8670, 1979.981
365.3491, 1944.129
365.8312, 1946.698
366.3133, 1940.781
366.7954, 1915.100
367.2776, 1886.453
367.7597, 1863.696
368.2418, 1848.140
368.7239, 1837.248
369.2060, 1828.085
369.6881, 1820.436
370.1703, 1818.587
370.6524, 1831.134
371.1345, 1840.483
371.6166, 1835.148
372.0987, 1819.693
372.5808, 1807.009
373.0630, 1806.224
373.5451, 1814.287
374.0272, 1819.793
374.5093, 1820.379
374.9914, 1823.617
375.4735, 1836.250
375.9557, 1852.889
376.4378, 1866.475
376.9199, 1875.800
377.4020, 1879.576
377.8841, 1874.849
378.3662, 1861.244
378.8484, 1845.459
379.3305, 1829.103
379.8126, 1812.490
380.2947, 1796.601
380.7768, 1782.286
381.2589, 1765.883
381.7411, 1747.466
382.2232, 1725.437
382.7053, 1691.519
383.1874, 1637.957
383.6695, 1582.875
384.1516, 1555.189
384.6338, 1555.524
385.1159, 1544.169
385.5980, 1502.602
386.0801, 1447.369
386.5622, 1395.951
387.0443, 1350.670
387.5265, 1312.486
388.0086, 1284.429
388.4907, 1266.871
388.9728, 1242.404
389.4549, 1197.900
389.9370, 1158.261
390.4192, 1143.057
390.9013, 1146.155
391.3834, 1145.632
391.8655, 1127.778
392.3476, 1097.469
392.8297, 1078.949
393.3119, 1082.950
393.7940, 1084.641
394.2761, 1077.692
394.7582, 1067.171
395.2403, 1058.732
395.7224, 1054.418
396.2046, 1054.211
396.6867, 1058.804
397.1688, 1073.953
397.6509, 1082.112
398.1330, 1077.111
398.6151, 1070.978
399.0973, 1072.183
399.5794, 1080.582
400.0615, 1089.889
400.5436, 1093.282
401.0257, 1090.157
401.5078, 1093.078
401.9900, 1111.206
402.4721, 1125.801
402.9542, 1125.690
403.4363, 1118.824
403.9184, 1120.531
404.4005, 1141.176
404.8827, 1172.268
405.3648, 1190.887
405.8469, 1191.399
406.3290, 1194.056
406.8111, 1205.156
407.2932, 1221.260
407.7754, 1240.251
408.2575, 1262.055
408.7396, 1284.661
409.2217, 1305.671
409.7038, 1325.283
410.1859, 1347.272
410.6681, 1373.066
411.1502, 1400.901
411.6323, 1424.377
412.1144, 1444.647
412.5965, 1478.836
413.0786, 1545.679
413.5608, 1627.237
414.0429, 1693.228
414.5250, 1740.154
415.0071, 1781.063
415.4892, 1825.001
415.9713, 1870.966
416.4535, 1913.798
416.9356, 1954.332
417.4177, 1990.303
417.8998, 2023.748
418.3819, 2051.931
418.8640, 2066.961
419.3462, 2064.710
419.8283, 2047.911
420.3104, 2023.271
420.7925, 1992.982
421.2746, 1951.774
421.7567, 1892.591
422.2389, 1825.586
422.7210, 1762.021
423.2031, 1703.961
423.6852, 1645.000
424.1673, 1576.200
424.6494, 1493.830
425.1316, 1419.281
425.6137, 1354.255
426.0958, 1294.201
426.5779, 1237.211
427.0600, 1183.497
427.5421, 1133.786
428.0243, 1088.514
428.5064, 1047.636
428.9885, 1010.624
429.4706, 979.9744
429.9527, 948.7715
430.4348, 912.4544
430.9170, 876.3258
431.3991, 845.9174
431.8812, 822.7292
432.3633, 803.7826
432.8455, 786.3965
433.3276, 770.5891
433.8097, 754.2944
434.2918, 734.7906
434.7739, 717.6101
435.2560, 709.6908
435.7382, 708.9854
436.2203, 703.1208
436.7024, 679.6914
437.1845, 648.8725
437.6666, 629.3589
438.1487, 622.6786
438.6309, 622.6747
439.1130, 630.4816
439.5951, 641.4268
440.0772, 641.6498
440.5593, 618.8920
441.0414, 598.9578
441.5236, 597.9818
442.0057, 610.9437
442.4878, 626.1091
442.9699, 639.9586
443.4520, 651.8392
443.9341, 660.4878
444.4163, 664.7798
444.8984, 668.4388
445.3805, 672.5410
445.8626, 675.4888
446.3447, 673.7153
446.8268, 668.4149
447.3090, 666.2037
447.7911, 673.1005
448.2732, 689.1497
448.7553, 705.5364
449.2374, 723.9118
449.7195, 740.7998
450.2017, 754.4092
450.6838, 766.4191
451.1659, 778.3615
451.6480, 790.8432
452.1301, 805.1848
452.6122, 823.4129
453.0944, 844.7902
453.5765, 872.5547
454.0586, 917.0566
454.5407, 960.8627
455.0228, 990.1326
455.5049, 1006.396
455.9871, 1027.378
456.4692, 1068.072
456.9513, 1123.605
457.4334, 1178.405
457.9155, 1232.653
458.3976, 1283.718
458.8798, 1323.977
459.3619, 1360.820
459.8440, 1409.376
460.3261, 1478.678
460.8082, 1552.022
461.2903, 1617.152
461.7725, 1676.031
462.2546, 1735.734
462.7367, 1798.070
463.2188, 1864.234
463.7009, 1937.856
464.1830, 2025.009
464.6652, 2100.961
465.1473, 2162.788
465.6294, 2212.039
466.1115, 2250.323
466.5936, 2277.360
467.0757, 2291.163
467.5579, 2289.241
468.0400, 2272.093
468.5221, 2250.219
469.0042, 2228.609
469.4863, 2196.284
469.9684, 2152.335
470.4506, 2096.088
470.9327, 2023.585
471.4148, 1933.597
471.8969, 1836.922
472.3790, 1751.699
472.8611, 1680.742
473.3433, 1607.932
473.8254, 1519.859
474.3075, 1440.526
474.7896, 1388.724
475.2717, 1358.809
475.7538, 1327.598
476.2360, 1278.096
476.7181, 1218.849
477.2002, 1168.220
477.6823, 1126.657
478.1644, 1091.054
478.6465, 1062.660
479.1287, 1038.182
479.6108, 1010.602
480.0929, 977.2603
480.5750, 945.9301
481.0571, 922.5019
481.5392, 903.4970
482.0214, 881.1517
482.5035, 853.2408
482.9856, 825.9359
483.4677, 805.9811
483.9498, 794.3815
484.4319, 786.8831
484.9141, 786.8065
485.3962, 787.3505
485.8783, 784.1630
486.3604, 778.8452
486.8425, 776.2850
487.3246, 779.5491
487.8068, 785.1635
488.2889, 782.0000
488.7710, 760.8007
489.2531, 748.1875
489.7352, 753.5427
490.2173, 761.8904
490.6995, 761.6899
491.1816, 752.4922
491.6637, 742.8585
492.1458, 740.1143
492.6279, 743.5183
493.1100, 748.5220
493.5922, 756.3313
494.0743, 763.1351
494.5564, 766.3975
495.0385, 767.4509
495.5206, 768.0448
496.0027, 768.4439
496.4849, 768.6498
496.9670, 767.6003
497.4491, 766.1825
497.9312, 768.2072
498.4133, 775.5772
498.8954, 784.0384
499.3776, 787.8663
499.8597, 786.1498
500.3418, 784.7511
500.8239, 783.8722
501.3060, 783.5147
501.7881, 785.1137
502.2703, 787.4362
502.7524, 786.3934
503.2345, 779.1155
503.7166, 767.9351
504.1987, 761.8266
504.6808, 764.7764
505.1630, 766.8176
505.6451, 764.0860
506.1272, 762.3145
506.6093, 768.1454
507.0914, 781.1538
507.5735, 792.8754
508.0557, 793.3621
508.5378, 784.2263
509.0199, 782.3073
509.5020, 792.7449
509.9841, 800.3928
510.4662, 794.7681
510.9484, 782.3804
511.4305, 772.1938
511.9126, 766.3544
512.3947, 762.7406
512.8768, 760.1983
513.3589, 758.5474
513.8411, 756.1158
514.3232, 751.4772
514.8053, 749.9503
515.2874, 759.9720
515.7695, 784.4886
516.2516, 800.2873
516.7338, 798.4295
517.2159, 795.3948
517.6980, 804.4816
518.1801, 820.4389
518.6622, 827.5259
519.1443, 816.8577
519.6265, 796.6742
520.1086, 789.6367
520.5907, 804.5503
521.0728, 816.0012
521.5549, 824.2398
522.0370, 827.6642
522.5192, 821.8415
523.0013, 809.0126
523.4834, 798.6425
523.9655, 798.6189
524.4476, 806.4332
524.9297, 813.0231
525.4119, 817.5732
525.8940, 824.1107
526.3761, 839.2534
526.8582, 855.1129
527.3403, 858.3358
527.8224, 842.6890
528.3046, 831.3725
528.7867, 840.1049
529.2688, 860.2219
529.7509, 878.8596
530.2330, 893.7198
530.7151, 901.2538
531.1973, 895.3578
531.6794, 875.6978
532.1615, 872.3904
532.6436, 901.7743
533.1257, 926.0777
533.6078, 931.1198
534.0900, 925.2905
534.5721, 919.5800
535.0542, 917.9821
535.5363, 919.0329
536.0184, 919.6789
536.5005, 918.4464
536.9827, 924.5314
537.4648, 943.6406
537.9469, 964.4550
538.4290, 985.0728
538.9111, 1003.361
539.3932, 1014.537
539.8754, 1013.189
540.3575, 1009.177
540.8396, 1016.340
541.3217, 1033.567
541.8038, 1048.223
542.2859, 1055.182
542.7681, 1060.199
543.2502, 1071.656
543.7323, 1089.922
544.2144, 1108.099
544.6965, 1124.360
545.1786, 1140.976
545.6608, 1160.013
546.1429, 1180.880
546.6250, 1200.835
547.1071, 1217.955
547.5892, 1234.283
548.0714, 1256.911
548.5535, 1294.339
549.0356, 1322.274
549.5177, 1332.635
549.9998, 1339.810
550.4819, 1351.308
550.9641, 1368.320
551.4462, 1390.490
551.9283, 1419.920
552.4104, 1453.308
552.8925, 1481.738
553.3746, 1505.364
553.8568, 1523.477
554.3389, 1532.520
554.8210, 1537.675
555.3031, 1547.248
555.7852, 1562.628
556.2673, 1576.911
556.7495, 1591.277
557.2316, 1601.150
557.7137, 1599.543
558.1958, 1586.489
558.6779, 1568.133
559.1600, 1548.390
559.6422, 1527.512
560.1243, 1507.021
560.6064, 1497.835
561.0885, 1474.762
561.5706, 1425.219
562.0527, 1367.389
562.5349, 1315.631
563.0170, 1273.183
563.4991, 1236.669
563.9812, 1203.490
564.4633, 1173.547
564.9454, 1146.069
565.4276, 1122.494
565.9097, 1097.885
566.3918, 1063.780
566.8739, 1029.453
567.3560, 1009.580
567.8381, 1011.604
568.3203, 1010.087
568.8024, 987.9929
569.2845, 953.9327
569.7666, 920.0579
570.2487, 888.7521
570.7308, 863.7889
571.2130, 849.8252
571.6951, 846.1288
572.1772, 836.6321
572.6593, 812.5201
573.1414, 793.9142
573.6235, 787.0507
574.1057, 786.1288
574.5878, 783.9828
575.0699, 779.4377
575.5520, 777.9855
576.0341, 789.3052
576.5162, 812.2762
576.9984, 820.2925
577.4805, 805.6140
577.9626, 791.2981
578.4447, 788.9243
578.9268, 793.7261
579.4089, 800.2489
579.8911, 808.2534
580.3732, 816.1140
580.8553, 823.3089
581.3375, 829.6042
581.8196, 833.6085
582.3017, 835.1520
582.7838, 838.0406
583.2659, 845.7808
583.7480, 858.1422
584.2302, 870.3495
584.7123, 877.4449
585.1944, 890.4551
585.6765, 917.9365
586.1586, 948.8042
586.6407, 971.3943
587.1229, 983.3459
587.6050, 991.1102
588.0871, 1001.940
588.5692, 1015.133
589.0513, 1021.495
589.5334, 1017.227
590.0156, 1015.045
590.4977, 1026.509
