##NAMES=Kurnakovite
##RRUFFID=R050105
##IDEAL CHEMISTRY=MgB_3_O_3_(OH)_5_&#183;5H_2_O
##LOCALITY=Kramer deposit, Boron, Kern County, California, USA
##OWNER=RRUFF
##SOURCE=Rock Currier
##DESCRIPTION=Tabular single crystal
##STATUS=The identification of this mineral has been confirmed by X-ray diffraction and chemical analysis
##URL=rruff.info/R050105
##MEASURED CHEMISTRY=MgB_3_O_3_(OH)_5_Â·5H_2_O
121.4606, 4075.817
121.9427, 4300.234
122.4248, 4478.840
122.9070, 4619.513
123.3891, 4740.013
123.8712, 4826.551
124.3533, 4903.704
124.8354, 5009.507
125.3175, 5148.332
125.7996, 5319.456
126.2818, 5531.631
126.7639, 5784.848
127.2460, 6047.004
127.7281, 6300.894
128.2102, 6548.641
128.6924, 6797.492
129.1745, 7045.024
129.6566, 7296.281
130.1387, 7576.040
130.6208, 7888.795
131.1029, 8195.334
131.5850, 8474.434
132.0672, 8726.738
132.5493, 8900.951
133.0314, 8978.297
133.5135, 8959.281
133.9956, 8858.567
134.4777, 8669.151
134.9599, 8408.661
135.4420, 8101.685
135.9241, 7738.913
136.4062, 7375.354
136.8883, 7029.697
137.3704, 6697.063
137.8526, 6426.676
138.3347, 6230.304
138.8168, 6100.548
139.2989, 5995.064
139.7810, 5915.650
140.2631, 5857.875
140.7453, 5815.809
141.2274, 5780.328
141.7095, 5782.309
142.1916, 5834.281
142.6737, 5942.508
143.1558, 6047.767
143.6380, 6138.071
144.1201, 6234.132
144.6022, 6366.369
145.0843, 6546.886
145.5664, 6685.945
146.0485, 6827.806
146.5307, 6982.838
147.0128, 7122.310
147.4949, 7252.854
147.9770, 7368.529
148.4591, 7448.493
148.9412, 7515.963
149.4234, 7533.015
149.9055, 7484.929
150.3876, 7350.532
150.8697, 7179.327
151.3518, 6943.515
151.8339, 6656.497
152.3161, 6428.222
152.7982, 6298.652
153.2803, 6210.907
153.7624, 6124.375
154.2445, 6021.219
154.7266, 5929.747
155.2087, 5860.308
155.6909, 5815.482
156.1730, 5771.690
156.6551, 5714.145
157.1372, 5657.423
157.6193, 5617.812
158.1014, 5617.526
158.5836, 5621.525
159.0657, 5608.394
159.5478, 5562.456
160.0299, 5539.075
160.5120, 5565.520
160.9941, 5628.638
161.4763, 5701.446
161.9584, 5780.728
162.4405, 5861.097
162.9226, 5938.418
163.4047, 6009.151
163.8868, 6080.788
164.3690, 6170.707
164.8511, 6270.844
165.3332, 6345.578
165.8153, 6363.385
166.2974, 6350.660
166.7795, 6335.449
167.2617, 6348.695
167.7438, 6347.216
168.2259, 6288.127
168.7080, 6173.506
169.1901, 6055.527
169.6722, 5967.927
170.1544, 5901.502
170.6365, 5840.991
171.1186, 5783.054
171.6007, 5726.330
172.0828, 5663.104
172.5649, 5590.333
173.0471, 5528.216
173.5292, 5506.327
174.0113, 5512.315
174.4934, 5512.763
174.9755, 5488.947
175.4576, 5448.204
175.9397, 5402.579
176.4219, 5353.784
176.9040, 5299.120
177.3861, 5232.246
177.8682, 5155.003
178.3503, 5074.558
178.8324, 4994.101
179.3146, 4914.478
179.7967, 4833.754
180.2788, 4748.362
180.7609, 4667.247
181.2430, 4606.175
181.7251, 4565.498
182.2073, 4539.023
182.6894, 4530.951
183.1715, 4535.955
183.6536, 4530.945
184.1357, 4499.301
184.6178, 4455.416
185.1000, 4437.712
185.5821, 4447.815
186.0642, 4470.923
186.5463, 4495.034
187.0284, 4519.522
187.5105, 4540.083
187.9927, 4550.456
188.4748, 4553.585
188.9569, 4570.758
189.4390, 4607.598
189.9211, 4642.517
190.4032, 4640.700
190.8854, 4601.417
191.3675, 4552.210
191.8496, 4508.289
192.3317, 4468.550
192.8138, 4414.057
193.2959, 4336.750
193.7781, 4254.114
194.2602, 4203.653
194.7423, 4188.598
195.2244, 4184.623
195.7065, 4179.687
196.1886, 4174.030
196.6708, 4161.723
197.1529, 4140.803
197.6350, 4113.569
198.1171, 4085.405
198.5992, 4054.709
199.0813, 4029.380
199.5634, 4016.608
200.0456, 4017.313
200.5277, 4023.291
201.0098, 4033.586
201.4919, 4048.009
201.9740, 4065.011
202.4561, 4085.430
202.9383, 4106.397
203.4204, 4124.655
203.9025, 4139.640
204.3846, 4153.974
204.8667, 4166.157
205.3488, 4176.104
205.8310, 4195.932
206.3131, 4226.245
206.7952, 4265.379
207.2773, 4313.660
207.7594, 4375.246
208.2415, 4432.956
208.7237, 4475.979
209.2058, 4499.127
209.6879, 4543.049
210.1700, 4613.854
210.6521, 4700.229
211.1342, 4782.386
211.6164, 4861.089
212.0985, 4932.086
212.5806, 4991.555
213.0627, 5034.520
213.5448, 5083.334
214.0269, 5144.389
214.5091, 5209.511
214.9912, 5255.637
215.4733, 5279.825
215.9554, 5289.641
216.4375, 5289.275
216.9196, 5280.229
217.4018, 5256.162
217.8839, 5212.343
218.3660, 5153.012
218.8481, 5094.575
219.3302, 5033.628
219.8123, 4979.378
220.2945, 4938.598
220.7766, 4912.176
221.2587, 4897.831
221.7408, 4899.496
222.2229, 4915.562
222.7050, 4922.072
223.1871, 4905.041
223.6693, 4895.252
224.1514, 4923.363
224.6335, 5014.129
225.1156, 5091.441
225.5977, 5139.290
226.0798, 5156.339
226.5620, 5181.016
227.0441, 5207.790
227.5262, 5247.188
228.0083, 5316.146
228.4904, 5440.828
228.9725, 5545.773
229.4547, 5609.198
229.9368, 5624.757
230.4189, 5649.864
230.9010, 5702.569
231.3831, 5751.650
231.8652, 5753.214
232.3474, 5687.308
232.8295, 5606.116
233.3116, 5523.839
233.7937, 5440.907
234.2758, 5353.972
234.7579, 5261.660
235.2401, 5166.467
235.7222, 5071.835
236.2043, 4973.327
236.6864, 4882.055
237.1685, 4798.928
237.6507, 4715.536
238.1328, 4666.980
238.6149, 4675.510
239.0970, 4711.274
239.5791, 4703.323
240.0612, 4624.358
240.5434, 4541.793
241.0255, 4484.455
241.5076, 4461.822
241.9897, 4442.284
242.4718, 4425.820
242.9539, 4412.402
243.4360, 4400.418
243.9182, 4382.373
244.4003, 4376.413
244.8824, 4395.274
245.3645, 4457.194
245.8466, 4502.038
246.3287, 4519.814
246.8109, 4518.267
247.2930, 4530.597
247.7751, 4562.648
248.2572, 4600.215
248.7393, 4633.319
249.2214, 4652.458
249.7036, 4688.363
250.1857, 4748.140
250.6678, 4827.498
251.1499, 4904.723
251.6320, 4979.388
252.1141, 5052.710
252.5963, 5126.271
253.0784, 5206.603
253.5605, 5273.397
254.0426, 5325.013
254.5247, 5361.208
255.0068, 5384.229
255.4890, 5395.677
255.9711, 5391.693
256.4532, 5369.087
256.9353, 5325.914
257.4174, 5267.191
257.8995, 5186.935
258.3817, 5088.168
258.8638, 5004.983
259.3459, 4948.260
259.8280, 4891.729
260.3101, 4806.939
260.7922, 4680.780
261.2744, 4563.221
261.7565, 4464.592
262.2386, 4383.406
262.7207, 4317.601
263.2028, 4268.999
263.6849, 4231.951
264.1671, 4198.355
264.6492, 4164.251
265.1313, 4147.816
265.6134, 4161.111
266.0955, 4202.491
266.5776, 4218.636
267.0598, 4199.850
267.5419, 4171.647
268.0240, 4162.177
268.5061, 4175.441
268.9882, 4193.122
269.4703, 4211.233
269.9525, 4229.831
270.4346, 4248.984
270.9167, 4268.555
271.3988, 4289.493
271.8809, 4312.665
272.3630, 4337.740
272.8452, 4366.386
273.3273, 4398.206
273.8094, 4433.099
274.2915, 4477.895
274.7736, 4535.608
275.2557, 4596.428
275.7379, 4645.854
276.2200, 4682.430
276.7021, 4718.521
277.1842, 4759.359
277.6663, 4804.065
278.1484, 4843.675
278.6305, 4877.042
279.1126, 4908.008
279.5948, 4939.743
280.0769, 4971.961
280.5590, 5008.722
281.0411, 5057.017
281.5232, 5114.538
282.0053, 5153.673
282.4875, 5173.168
282.9696, 5179.015
283.4517, 5178.239
283.9338, 5170.856
284.4159, 5156.440
284.8980, 5137.843
285.3802, 5113.194
285.8623, 5069.378
286.3444, 5003.773
286.8265, 4928.808
287.3086, 4854.231
287.7907, 4781.068
288.2729, 4721.837
288.7550, 4694.847
289.2371, 4688.779
289.7192, 4655.382
290.2013, 4589.966
290.6834, 4518.627
291.1656, 4471.645
291.6477, 4447.191
292.1298, 4436.564
292.6119, 4443.819
293.0940, 4461.681
293.5761, 4469.339
294.0583, 4464.501
294.5404, 4459.231
295.0225, 4471.037
295.5046, 4495.418
295.9867, 4514.508
296.4688, 4510.454
296.9510, 4497.828
297.4331, 4506.503
297.9152, 4539.167
298.3973, 4579.292
298.8794, 4610.551
299.3615, 4636.066
299.8437, 4665.214
300.3258, 4705.823
300.8079, 4751.211
301.2900, 4791.114
301.7721, 4823.401
302.2542, 4859.952
302.7364, 4917.575
303.2185, 4986.617
303.7006, 5048.209
304.1827, 5082.611
304.6648, 5110.719
305.1469, 5155.993
305.6291, 5220.955
306.1112, 5285.954
306.5933, 5339.004
307.0754, 5382.207
307.5575, 5418.065
308.0396, 5440.900
308.5218, 5461.492
309.0039, 5489.104
309.4860, 5524.802
309.9681, 5559.199
310.4502, 5577.762
310.9323, 5593.589
311.4145, 5624.664
311.8966, 5691.242
312.3787, 5765.279
312.8608, 5828.611
313.3429, 5879.530
313.8250, 5936.355
314.3072, 6010.899
314.7893, 6095.497
315.2714, 6181.504
315.7535, 6272.062
316.2356, 6358.040
316.7177, 6430.019
317.1999, 6486.425
317.6820, 6554.706
318.1641, 6661.889
318.6462, 6777.992
319.1283, 6872.181
319.6104, 6910.564
320.0926, 6951.964
320.5747, 7016.954
321.0568, 7107.588
321.5389, 7193.053
322.0210, 7263.963
322.5031, 7329.184
322.9852, 7395.206
323.4673, 7480.569
323.9495, 7549.067
324.4316, 7591.725
324.9137, 7608.048
325.3958, 7618.217
325.8779, 7624.231
326.3600, 7623.546
326.8422, 7614.185
327.3243, 7596.131
327.8064, 7569.501
328.2885, 7534.174
328.7706, 7490.075
329.2527, 7437.597
329.7349, 7381.640
330.2170, 7313.179
330.6991, 7221.577
331.1812, 7079.386
331.6633, 6965.837
332.1454, 6900.419
332.6276, 6873.904
333.1097, 6820.440
333.5918, 6725.360
334.0739, 6626.696
334.5560, 6547.143
335.0381, 6488.093
335.5203, 6446.582
336.0024, 6425.174
336.4845, 6420.769
336.9666, 6422.128
337.4487, 6428.304
337.9308, 6443.375
338.4130, 6473.237
338.8951, 6520.316
339.3772, 6560.005
339.8593, 6587.452
340.3414, 6609.146
340.8235, 6639.826
341.3057, 6679.035
341.7878, 6728.774
342.2699, 6791.413
342.7520, 6866.632
343.2341, 6944.188
343.7162, 7024.539
344.1984, 7105.454
344.6805, 7187.884
345.1626, 7271.579
345.6447, 7342.870
346.1268, 7384.089
346.6089, 7406.230
347.0911, 7441.504
347.5732, 7494.440
348.0553, 7552.297
348.5374, 7594.417
349.0195, 7625.738
349.5016, 7666.006
349.9838, 7720.628
350.4659, 7791.617
350.9480, 7892.237
351.4301, 8029.750
351.9122, 8156.359
352.3943, 8213.426
352.8765, 8227.692
353.3586, 8254.859
353.8407, 8343.413
354.3228, 8441.636
354.8049, 8503.354
355.2870, 8525.646
355.7692, 8526.963
356.2513, 8512.394
356.7334, 8485.485
357.2155, 8450.940
357.6976, 8421.989
358.1797, 8376.085
358.6619, 8297.916
359.1440, 8187.542
359.6261, 8064.517
360.1082, 7920.929
360.5903, 7775.448
361.0724, 7644.973
361.5546, 7543.104
362.0367, 7447.482
362.5188, 7350.607
363.0009, 7253.067
363.4830, 7161.925
363.9651, 7077.172
364.4473, 7000.143
364.9294, 6931.388
365.4115, 6868.081
365.8936, 6817.468
366.3757, 6779.963
366.8578, 6755.476
367.3399, 6743.552
367.8221, 6753.902
368.3042, 6768.298
368.7863, 6777.387
369.2684, 6765.860
369.7505, 6777.530
370.2326, 6827.850
370.7148, 6897.901
371.1969, 6936.770
371.6790, 6929.647
372.1611, 6917.542
372.6432, 6916.635
373.1253, 6927.883
373.6075, 6947.560
374.0896, 6978.983
374.5717, 7014.702
375.0538, 7044.052
375.5359, 7067.560
376.0180, 7081.538
376.5002, 7080.326
376.9823, 7064.842
377.4644, 7059.968
377.9465, 7068.203
378.4286, 7078.819
378.9107, 7076.186
379.3929, 7061.360
379.8750, 7051.688
380.3571, 7062.200
380.8392, 7079.906
381.3213, 7064.357
381.8034, 7014.358
382.2856, 6955.523
382.7677, 6911.490
383.2498, 6877.476
383.7319, 6840.071
384.2140, 6795.570
384.6961, 6746.340
385.1783, 6689.226
385.6604, 6626.223
386.1425, 6573.090
386.6246, 6542.461
387.1067, 6526.120
387.5888, 6513.071
388.0710, 6498.029
388.5531, 6489.930
389.0352, 6493.111
389.5173, 6507.945
389.9994, 6535.585
390.4815, 6593.892
390.9637, 6653.975
391.4458, 6692.848
391.9279, 6696.277
392.4100, 6706.168
392.8921, 6732.800
393.3742, 6776.188
393.8564, 6835.771
394.3385, 6929.139
394.8206, 7023.169
395.3027, 7105.609
395.7848, 7173.396
396.2669, 7237.955
396.7491, 7302.139
397.2312, 7362.864
397.7133, 7416.650
398.1954, 7452.569
398.6775, 7494.833
399.1596, 7550.862
399.6418, 7621.368
400.1239, 7684.759
400.6060, 7741.930
401.0881, 7791.520
401.5702, 7829.753
402.0523, 7848.687
402.5345, 7879.521
403.0166, 7932.121
403.4987, 7999.174
403.9808, 8048.847
404.4629, 8078.550
404.9450, 8097.462
405.4272, 8101.476
405.9093, 8089.689
406.3914, 8110.781
406.8735, 8175.938
407.3556, 8263.358
407.8377, 8327.779
408.3199, 8370.730
408.8020, 8426.915
409.2841, 8518.791
409.7662, 8639.425
410.2483, 8771.229
410.7304, 8914.771
411.2126, 9057.702
411.6946, 9178.827
412.1768, 9287.035
412.6589, 9409.062
413.1410, 9563.631
413.6231, 9733.294
414.1052, 9896.157
414.5873, 10051.71
415.0695, 10215.12
415.5516, 10419.61
416.0337, 10628.38
416.5158, 10795.57
416.9979, 10890.25
417.4800, 10959.26
417.9622, 11027.83
418.4443, 11091.06
418.9264, 11126.48
419.4085, 11153.58
419.8906, 11131.53
420.3727, 11033.44
420.8549, 10822.71
421.3370, 10583.69
421.8191, 10325.31
422.3012, 10046.58
422.7833, 9754.496
423.2654, 9424.467
423.7476, 9101.709
424.2297, 8800.688
424.7118, 8528.570
425.1939, 8254.467
425.6760, 7971.646
426.1581, 7695.954
426.6403, 7436.677
427.1224, 7189.813
427.6045, 6976.331
428.0866, 6810.434
428.5687, 6686.274
429.0508, 6550.884
429.5330, 6401.278
430.0151, 6249.087
430.4972, 6094.687
430.9793, 5939.545
431.4614, 5812.979
431.9435, 5725.797
432.4257, 5665.221
432.9078, 5608.821
433.3899, 5556.306
433.8720, 5504.362
434.3541, 5442.845
434.8362, 5381.764
435.3184, 5345.131
435.8005, 5338.948
436.2826, 5343.707
436.7647, 5349.333
437.2468, 5351.535
437.7289, 5340.348
438.2111, 5297.091
438.6932, 5248.322
439.1753, 5213.008
439.6574, 5192.290
440.1395, 5182.959
440.6216, 5195.997
441.1038, 5214.523
441.5859, 5221.008
442.0680, 5178.632
442.5501, 5156.715
443.0322, 5182.278
443.5143, 5249.106
443.9965, 5316.745
444.4786, 5385.174
444.9607, 5447.938
445.4428, 5501.586
445.9249, 5531.128
446.4070, 5574.730
446.8892, 5628.557
447.3713, 5697.275
447.8534, 5792.742
448.3355, 5928.347
448.8176, 6066.105
449.2997, 6194.854
449.7819, 6313.480
450.2640, 6429.257
450.7461, 6538.502
451.2282, 6655.234
451.7103, 6794.819
452.1924, 6958.822
452.6746, 7132.574
453.1567, 7313.096
453.6388, 7502.397
454.1209, 7708.867
454.6030, 7934.012
455.0851, 8166.353
455.5673, 8395.558
456.0494, 8626.729
456.5315, 8879.548
457.0136, 9160.669
457.4957, 9450.998
457.9778, 9732.011
458.4599, 10010.30
458.9420, 10311.05
459.4242, 10656.03
459.9063, 11019.73
460.3884, 11375.01
460.8705, 11715.86
461.3526, 12079.44
461.8347, 12491.97
462.3169, 12924.18
462.7990, 13349.42
463.2811, 13763.68
463.7632, 14161.58
464.2453, 14557.45
464.7274, 14945.25
465.2096, 15283.68
465.6917, 15582.78
466.1738, 15818.11
466.6559, 15975.65
467.1380, 16057.69
467.6201, 16055.58
468.1023, 15960.92
468.5844, 15786.69
469.0665, 15563.76
469.5486, 15304.56
470.0307, 14962.32
470.5128, 14494.37
470.9950, 13909.54
471.4771, 13372.85
471.9592, 12892.31
472.4413, 12426.49
472.9234, 11922.83
473.4055, 11390.36
473.8877, 10885.37
474.3698, 10416.90
474.8519, 9989.271
475.3340, 9619.661
475.8161, 9301.719
476.2982, 9005.329
476.7804, 8708.229
477.2625, 8419.755
477.7446, 8147.917
478.2267, 7895.483
478.7088, 7653.486
479.1909, 7401.803
479.6731, 7158.969
480.1552, 6954.591
480.6373, 6825.335
481.1194, 6712.964
481.6015, 6594.213
482.0836, 6467.341
482.5658, 6344.312
483.0479, 6213.050
483.5300, 6095.443
484.0121, 6006.934
484.4942, 5984.335
484.9763, 5936.915
485.4585, 5846.325
485.9406, 5731.839
486.4227, 5650.773
486.9048, 5617.283
487.3869, 5588.980
487.8690, 5546.462
488.3512, 5488.113
488.8333, 5442.739
489.3154, 5411.318
489.7975, 5391.136
490.2796, 5385.274
490.7617, 5392.061
491.2439, 5387.342
491.7260, 5359.175
492.2081, 5319.594
492.6902, 5289.585
493.1723, 5269.354
493.6544, 5256.009
494.1366, 5255.390
494.6187, 5258.009
495.1008, 5246.833
495.5829, 5212.390
496.0650, 5187.105
496.5471, 5206.385
497.0293, 5248.437
497.5114, 5275.548
497.9935, 5256.296
498.4756, 5235.175
498.9577, 5234.016
499.4398, 5254.159
499.9220, 5269.255
500.4041, 5267.029
500.8862, 5262.724
501.3683, 5267.670
501.8504, 5297.756
502.3325, 5312.186
502.8146, 5301.882
503.2968, 5276.687
503.7789, 5263.222
504.2610, 5267.504
504.7431, 5268.401
505.2252, 5251.065
505.7073, 5215.493
506.1895, 5214.076
506.6716, 5255.048
507.1537, 5300.208
507.6358, 5300.002
508.1179, 5262.385
508.6000, 5239.026
509.0822, 5249.488
509.5643, 5273.314
510.0464, 5281.021
510.5285, 5274.496
511.0106, 5262.898
511.4927, 5241.476
511.9749, 5223.224
512.4570, 5225.446
512.9391, 5254.290
513.4212, 5282.208
513.9033, 5292.472
514.3854, 5293.754
514.8676, 5297.171
515.3497, 5312.218
515.8318, 5323.301
516.3139, 5325.872
516.7960, 5320.145
517.2781, 5310.606
517.7603, 5285.434
518.2424, 5267.950
518.7245, 5271.366
519.2066, 5308.166
519.6887, 5335.593
520.1708, 5352.385
520.6530, 5361.011
521.1351, 5359.201
521.6172, 5342.710
522.0993, 5348.233
522.5814, 5405.806
523.0635, 5492.211
523.5457, 5501.897
524.0278, 5433.146
524.5099, 5361.341
524.9920, 5359.445
525.4741, 5399.540
525.9562, 5423.320
526.4384, 5417.708
526.9205, 5400.098
527.4026, 5377.414
527.8847, 5354.786
528.3668, 5342.570
528.8489, 5347.146
529.3311, 5362.347
529.8132, 5391.180
530.2953, 5433.938
530.7774, 5464.335
531.2595, 5466.380
531.7416, 5458.560
532.2238, 5453.805
532.7059, 5452.553
533.1880, 5455.421
533.6701, 5465.491
534.1522, 5478.755
534.6343, 5484.122
535.1165, 5474.808
535.5986, 5474.503
536.0807, 5493.451
536.5628, 5531.092
537.0449, 5571.332
537.5270, 5617.396
538.0092, 5653.444
538.4913, 5653.926
538.9734, 5628.522
539.4555, 5620.564
539.9376, 5642.233
540.4197, 5677.587
540.9019, 5711.356
541.3840, 5743.305
541.8661, 5773.231
542.3482, 5798.489
542.8303, 5823.246
543.3124, 5849.889
543.7946, 5878.444
544.2767, 5911.777
544.7588, 5954.922
545.2409, 6001.305
545.7230, 6045.307
546.2051, 6081.676
546.6873, 6121.188
547.1694, 6167.586
547.6515, 6217.505
548.1336, 6263.025
548.6157, 6302.332
549.0978, 6339.640
549.5800, 6376.051
550.0621, 6411.653
550.5442, 6448.111
551.0263, 6486.549
551.5084, 6523.081
551.9905, 6552.987
552.4727, 6577.052
552.9548, 6602.190
553.4369, 6630.028
553.9190, 6659.250
554.4011, 6689.961
554.8832, 6720.778
555.3654, 6747.644
555.8475, 6780.321
556.3296, 6800.016
556.8117, 6778.037
557.2938, 6712.671
557.7759, 6663.080
558.2581, 6681.037
558.7402, 6712.627
559.2223, 6713.995
559.7044, 6668.633
560.1865, 6602.253
560.6686, 6502.259
561.1508, 6384.271
561.6329, 6281.968
562.1150, 6200.718
562.5971, 6125.163
563.0792, 6053.515
563.5613, 5985.115
564.0435, 5911.271
564.5256, 5830.656
565.0077, 5750.989
565.4898, 5677.480
565.9719, 5610.836
566.4540, 5552.292
566.9362, 5504.331
567.4183, 5459.591
567.9004, 5410.116
568.3824, 5356.630
568.8646, 5303.336
569.3467, 5241.150
569.8288, 5187.396
570.3109, 5160.349
570.7930, 5158.386
571.2751, 5156.719
571.7573, 5147.233
572.2394, 5132.222
572.7215, 5112.194
573.2036, 5079.558
573.6857, 5056.322
574.1678, 5049.144
574.6500, 5050.482
575.1321, 5050.252
575.6142, 5047.037
576.0963, 5045.397
576.5784, 5047.533
577.0605, 5052.103
577.5427, 5048.985
578.0248, 5035.864
578.5069, 5028.833
578.9890, 5042.904
579.4711, 5072.908
579.9532, 5096.965
580.4354, 5112.668
580.9175, 5126.886
581.3996, 5148.166
581.8817, 5172.876
582.3638, 5194.155
582.8459, 5208.446
583.3281, 5220.213
583.8102, 5226.637
584.2923, 5231.674
584.7744, 5248.906
585.2565, 5296.644
585.7386, 5345.823
586.2208, 5382.170
586.7029, 5400.073
587.1850, 5423.990
587.6671, 5454.015
588.1492, 5489.632
588.6313, 5534.564
589.1135, 5596.865
589.5956, 5636.065
590.0777, 5642.701
590.5598, 5628.467
591.0419, 5614.306
591.5240, 5600.487
592.0062, 5594.145
592.4883, 5609.815
592.9704, 5632.285
593.4525, 5626.950
593.9346, 5594.805
594.4167, 5559.997
594.8989, 5532.791
595.3810, 5515.671
595.8631, 5514.550
596.3452, 5542.464
596.8273, 5558.671
597.3094, 5532.356
597.7916, 5488.408
598.2737, 5465.278
598.7558, 5492.801
599.2379, 5514.302
599.7200, 5517.823
600.2021, 5506.001
600.6843, 5497.802
601.1664, 5492.231
601.6485, 5492.849
602.1306, 5501.524
602.6127, 5518.302
603.0948, 5544.981
603.5770, 5583.089
604.0591, 5622.375
604.5412, 5644.363
605.0233, 5657.278
605.5054, 5685.030
605.9875, 5740.538
606.4697, 5804.566
606.9518, 5853.405
607.4339, 5895.453
607.9160, 5953.922
608.3981, 6054.107
608.8802, 6159.628
609.3624, 6251.100
609.8445, 6326.965
610.3266, 6401.362
610.8087, 6467.365
611.2908, 6538.720
611.7729, 6623.333
612.2551, 6724.280
612.7372, 6828.014
613.2193, 6928.052
613.7014, 7037.387
614.1835, 7186.362
614.6656, 7376.353
615.1478, 7558.238
615.6299, 7720.725
616.1120, 7866.887
616.5941, 7988.909
617.0762, 8093.591
617.5583, 8224.589
618.0405, 8430.788
