##NAMES=Kutnohorite
##RRUFFID=R060473
##IDEAL CHEMISTRY=CaMn^2+^(CO_3_)_2_
##LOCALITY=N'Chwaning II mine, Kalahari manganese field, northern Cape Province, Republic of South Africa
##OWNER=RRUFF
##SOURCE=Michael Scott
##DESCRIPTION=Aggregate of parallel pink colored acicular crystals
##STATUS=The identification of this mineral has been confirmed by X-ray diffraction and chemical analysis
##URL=rruff.info/R060473
##MEASURED CHEMISTRY=Ca_1.00_(Mn^2+^_0.63_Ca_0.35_Mg_0.02_)(CO_3_)_2_
95.33472, 2.286628
95.81683, 2.422709
96.29895, 2.584743
96.78107, 2.734345
97.26318, 2.870013
97.74530, 3.018639
98.22742, 3.220340
98.70953, 3.474588
99.19165, 3.704530
99.67377, 3.881128
100.1559, 4.008605
100.6380, 4.130900
101.1201, 4.242557
101.6022, 4.357763
102.0844, 4.496841
102.5665, 4.667150
103.0486, 4.838828
103.5307, 4.992460
104.0128, 5.116706
104.4949, 5.283695
104.9771, 5.509033
105.4592, 5.771022
105.9413, 6.027370
106.4234, 6.269341
106.9055, 6.514462
107.3876, 6.772792
107.8697, 7.110517
108.3519, 7.358090
108.8340, 7.443994
109.3161, 7.413433
109.7982, 7.508365
110.2803, 7.837599
110.7624, 8.222484
111.2446, 8.568331
111.7267, 8.853602
112.2088, 9.126234
112.6909, 9.372767
113.1730, 9.598598
113.6551, 9.869879
114.1373, 10.28709
114.6194, 10.70962
115.1015, 11.02832
115.5836, 11.13226
116.0657, 11.20335
116.5478, 11.28674
117.0300, 11.38512
117.5121, 11.51048
117.9942, 11.69215
118.4763, 11.89775
118.9584, 12.08473
119.4405, 12.21599
119.9227, 12.34091
120.4048, 12.47053
120.8869, 12.59091
121.3690, 12.78560
121.8511, 13.18983
122.3332, 13.71026
122.8154, 14.15042
123.2975, 14.34850
123.7796, 14.44102
124.2617, 14.56445
124.7438, 14.73954
125.2259, 14.94997
125.7081, 15.16217
126.1902, 15.38092
126.6723, 15.58615
127.1544, 15.89722
127.6365, 16.28691
128.1186, 16.59945
128.6008, 16.77147
129.0829, 16.88851
129.5650, 17.08211
130.0471, 17.34737
130.5292, 17.60863
131.0113, 17.75948
131.4935, 17.83857
131.9756, 18.02099
132.4577, 18.41058
132.9398, 18.91261
133.4219, 19.22725
133.9040, 19.34017
134.3862, 19.40485
134.8683, 19.56043
135.3504, 19.80540
135.8325, 20.12259
136.3146, 20.51205
136.7967, 20.96989
137.2789, 21.49602
137.7610, 22.12024
138.2431, 22.75290
138.7252, 23.28382
139.2073, 23.70666
139.6894, 24.07084
140.1716, 24.37020
140.6537, 24.58669
141.1358, 24.89541
141.6179, 25.30897
142.1000, 25.80636
142.5821, 26.35993
143.0643, 27.02449
143.5464, 27.64057
144.0285, 28.11728
144.5106, 28.31640
144.9927, 28.73783
145.4748, 29.46069
145.9570, 30.38712
146.4391, 31.20704
146.9212, 31.90807
147.4033, 32.52932
147.8854, 33.08919
148.3675, 33.50088
148.8497, 33.98204
149.3318, 34.54684
149.8139, 35.18266
150.2960, 35.83572
150.7781, 36.46894
151.2602, 37.14188
151.7424, 37.88001
152.2245, 38.78984
152.7066, 39.64262
153.1887, 40.38933
153.6708, 41.03441
154.1529, 41.71659
154.6351, 42.57543
155.1172, 43.40476
155.5993, 44.06663
156.0814, 44.32007
156.5635, 44.64507
157.0456, 45.23929
157.5278, 46.09843
158.0099, 46.72874
158.4920, 46.92196
158.9741, 46.90133
159.4562, 46.86724
159.9383, 46.92099
160.4205, 46.92093
160.9026, 46.80827
161.3847, 46.57663
161.8668, 46.31408
162.3489, 46.07178
162.8310, 45.80966
163.3132, 45.48078
163.7953, 45.01904
164.2774, 44.52531
164.7595, 44.03659
165.2416, 43.54889
165.7237, 43.10185
166.2059, 42.76004
166.6880, 42.45997
167.1701, 42.10535
167.6522, 41.58006
168.1343, 41.03247
168.6164, 40.60104
169.0985, 40.33635
169.5807, 40.01073
170.0628, 39.40702
170.5449, 38.63350
171.0270, 37.90634
171.5091, 37.41334
171.9912, 36.97908
172.4734, 36.41297
172.9555, 35.64994
173.4376, 34.88003
173.9197, 34.25877
174.4018, 33.75687
174.8839, 33.30147
175.3661, 32.93440
175.8482, 32.56627
176.3303, 32.06778
176.8124, 31.38529
177.2945, 30.64456
177.7766, 29.96691
178.2588, 29.33843
178.7409, 28.73225
179.2230, 28.10995
179.7051, 27.49227
180.1872, 26.94007
180.6693, 26.48756
181.1515, 26.04848
181.6336, 25.49582
182.1157, 24.84258
182.5978, 24.18352
183.0799, 23.54876
183.5620, 22.94968
184.0442, 22.43122
184.5263, 22.00422
185.0084, 21.64994
185.4905, 21.34470
185.9726, 21.08834
186.4547, 20.84166
186.9369, 20.58349
187.4190, 20.31082
187.9011, 20.01461
188.3832, 19.66766
188.8653, 19.31575
189.3474, 19.05911
189.8296, 18.89697
190.3117, 18.78972
190.7938, 18.74217
191.2759, 18.74043
191.7580, 18.66852
192.2401, 18.47573
192.7223, 18.20858
193.2044, 17.99350
193.6865, 17.82906
194.1686, 17.71054
194.6507, 17.64425
195.1328, 17.62798
195.6150, 17.62996
196.0971, 17.66501
196.5792, 17.70776
197.0613, 17.62745
197.5434, 17.39765
198.0255, 17.17132
198.5077, 17.13526
198.9898, 17.29868
199.4719, 17.39995
199.9540, 17.35134
200.4361, 17.18870
200.9182, 17.11596
201.4004, 17.15336
201.8825, 17.22106
202.3646, 17.23982
202.8467, 17.20487
203.3288, 17.15988
203.8109, 17.10732
204.2931, 17.05118
204.7752, 17.03258
205.2573, 17.06435
205.7394, 17.10308
206.2215, 17.09041
206.7036, 17.00908
207.1858, 16.97020
207.6679, 17.01582
208.1500, 17.13830
208.6321, 17.22220
209.1142, 17.26546
209.5963, 17.27418
210.0785, 17.23431
210.5606, 17.11599
211.0427, 17.06702
211.5248, 17.15361
212.0069, 17.37064
212.4890, 17.47570
212.9712, 17.42971
213.4533, 17.33228
213.9354, 17.29034
214.4175, 17.31210
214.8996, 17.36469
215.3817, 17.44945
215.8639, 17.56572
216.3460, 17.66807
216.8281, 17.75445
217.3102, 17.82972
217.7923, 17.89814
218.2744, 17.96029
218.7565, 18.01785
219.2387, 18.08669
219.7208, 18.17019
220.2029, 18.13666
220.6850, 17.89889
221.1671, 17.64789
221.6492, 17.61132
222.1314, 17.87531
222.6135, 18.15827
223.0956, 18.40335
223.5777, 18.61409
224.0598, 18.77799
224.5419, 18.87688
225.0241, 18.95079
225.5062, 19.04634
225.9883, 19.18003
226.4704, 19.29887
226.9525, 19.38688
227.4346, 19.44403
227.9168, 19.49991
228.3989, 19.55840
228.8810, 19.61149
229.3631, 19.63691
229.8452, 19.57533
230.3273, 19.60789
230.8095, 19.80060
231.2916, 20.16138
231.7737, 20.46325
232.2558, 20.70155
232.7379, 20.88621
233.2200, 21.01365
233.7022, 21.03695
234.1843, 21.09350
234.6664, 21.20334
235.1485, 21.36513
235.6306, 21.59878
236.1127, 21.95221
236.5949, 22.33151
237.0770, 22.65212
237.5591, 22.90402
238.0412, 23.11280
238.5233, 23.25768
239.0054, 23.33952
239.4876, 23.49346
239.9697, 23.74181
240.4518, 24.03911
240.9339, 24.35346
241.4160, 24.71240
241.8981, 25.02780
242.3803, 25.23842
242.8624, 25.35304
243.3445, 25.64730
243.8266, 26.21537
244.3087, 26.85846
244.7908, 27.41016
245.2730, 27.81564
245.7551, 28.24090
246.2372, 28.72564
246.7193, 29.26154
247.2014, 29.72862
247.6835, 30.05972
248.1657, 30.39740
248.6478, 30.84339
249.1299, 31.42536
249.6120, 32.06261
250.0941, 32.76492
250.5762, 33.52197
251.0584, 34.25287
251.5405, 34.93886
252.0226, 35.61591
252.5047, 36.29584
252.9868, 36.97414
253.4689, 37.66547
253.9511, 38.30763
254.4332, 38.95541
254.9153, 39.93484
255.3974, 41.42727
255.8795, 42.96977
256.3616, 44.22683
256.8438, 45.04331
257.3259, 46.00685
257.8080, 47.20207
258.2901, 48.57013
258.7722, 49.91744
259.2543, 51.20761
259.7365, 52.54688
260.2186, 54.03431
260.7007, 55.69882
261.1828, 57.36804
261.6649, 58.99278
262.1470, 60.62259
262.6292, 62.49328
263.1113, 64.69595
263.5934, 66.92812
264.0755, 69.01263
264.5576, 70.90515
265.0397, 72.86898
265.5219, 74.93587
266.0040, 77.07123
266.4861, 79.23283
266.9682, 81.35168
267.4503, 83.63565
267.9324, 86.20334
268.4146, 89.21585
268.8967, 91.90759
269.3788, 94.14335
269.8609, 96.19740
270.3430, 98.56443
270.8251, 101.3247
271.3073, 104.1176
271.7894, 106.7184
272.2715, 109.0971
272.7536, 111.6435
273.2357, 114.3953
273.7178, 117.2194
274.2000, 119.9665
274.6821, 122.6197
275.1642, 125.1962
275.6463, 127.6870
276.1284, 130.0908
276.6105, 132.4960
277.0927, 134.9220
277.5748, 137.3048
278.0569, 139.6057
278.5390, 141.8360
279.0211, 143.8345
279.5032, 145.5082
279.9854, 146.8713
280.4675, 148.2232
280.9496, 149.6267
281.4317, 150.8154
281.9138, 151.4884
282.3959, 151.6381
282.8781, 151.5136
283.3602, 151.1821
283.8423, 150.6233
284.3244, 149.7579
284.8065, 148.5758
285.2886, 147.1342
285.7708, 145.4480
286.2529, 143.5220
286.7350, 141.4794
287.2171, 139.3896
287.6992, 137.1562
288.1813, 134.5042
288.6635, 131.4074
289.1456, 128.1655
289.6277, 124.9911
290.1098, 121.8582
290.5919, 118.6997
291.0740, 115.4629
291.5562, 112.2031
292.0383, 109.1117
292.5204, 106.1552
293.0025, 103.1977
293.4846, 100.0564
293.9667, 96.80647
294.4489, 93.70667
294.9310, 90.83780
295.4131, 88.08524
295.8952, 85.27110
296.3773, 82.42819
296.8594, 79.69482
297.3416, 77.18777
297.8237, 74.81441
298.3058, 72.36479
298.7879, 69.77767
299.2700, 67.25742
299.7521, 65.14533
300.2343, 63.33901
300.7164, 61.61790
301.1985, 59.86858
301.6806, 58.11528
302.1627, 56.38933
302.6448, 54.66901
303.1270, 53.07697
303.6091, 51.79163
304.0912, 50.71111
304.5733, 49.56285
305.0554, 48.13219
305.5375, 46.64611
306.0197, 45.40145
306.5018, 44.39213
306.9839, 43.41446
307.4660, 42.31507
307.9481, 41.16496
308.4302, 40.06629
308.9124, 39.01711
309.3945, 38.04990
309.8766, 37.20647
310.3587, 36.46904
310.8408, 35.78548
311.3229, 35.12317
311.8051, 34.49357
312.2872, 33.93169
312.7693, 33.47490
313.2514, 33.02944
313.7335, 32.55157
314.2156, 32.04094
314.6978, 31.49138
315.1799, 30.81411
315.6620, 30.14676
316.1441, 29.61419
316.6262, 29.27449
317.1083, 28.95241
317.5905, 28.56417
318.0726, 28.14580
318.5547, 27.75425
319.0368, 27.42571
319.5189, 27.11854
320.0010, 26.81840
320.4832, 26.52274
320.9653, 26.23030
321.4474, 25.92278
321.9295, 25.62445
322.4116, 25.36376
322.8937, 25.11085
323.3759, 24.93160
323.8580, 24.90301
324.3401, 25.03911
324.8222, 25.04905
325.3043, 24.78897
325.7864, 24.44219
326.2686, 24.15006
326.7507, 23.93003
327.2328, 23.76059
327.7149, 23.67707
328.1970, 23.66699
328.6791, 23.58695
329.1613, 23.36107
329.6434, 23.12415
330.1255, 22.94355
330.6076, 22.84394
331.0897, 22.76689
331.5718, 22.74452
332.0540, 22.74296
332.5361, 22.66055
333.0182, 22.43521
333.5003, 22.20933
333.9824, 22.04420
334.4645, 21.96271
334.9467, 21.86617
335.4288, 21.73873
335.9109, 21.60829
336.3930, 21.52443
336.8751, 21.49836
337.3572, 21.49297
337.8394, 21.51291
338.3215, 21.56213
338.8036, 21.52925
339.2857, 21.37633
339.7678, 21.20705
340.2499, 21.16178
340.7320, 21.27743
341.2141, 21.29516
341.6963, 21.12486
342.1784, 20.81498
342.6605, 20.58008
343.1426, 20.41930
343.6247, 20.34611
344.1068, 20.42297
344.5890, 20.63944
345.0711, 20.77254
345.5532, 20.77591
346.0353, 20.69648
346.5174, 20.61671
346.9995, 20.53610
347.4817, 20.46917
347.9638, 20.42974
348.4459, 20.41182
348.9280, 20.40558
349.4101, 20.41965
349.8922, 20.40660
350.3744, 20.24825
350.8565, 19.99262
351.3386, 19.82412
351.8207, 19.92344
352.3028, 20.13540
352.7849, 20.19123
353.2671, 20.08645
353.7492, 19.95238
354.2313, 19.90856
354.7134, 19.91353
355.1955, 19.89135
355.6776, 19.77986
356.1598, 19.66649
356.6419, 19.65089
357.1240, 19.71548
357.6061, 19.76549
358.0882, 19.74467
358.5703, 19.68070
359.0525, 19.59026
359.5346, 19.44473
360.0167, 19.33895
360.4988, 19.35472
360.9809, 19.45178
361.4630, 19.54213
361.9452, 19.57094
362.4273, 19.59617
362.9094, 19.66651
363.3915, 19.80851
363.8736, 19.89318
364.3557, 19.83054
364.8379, 19.70289
365.3200, 19.60658
365.8021, 19.59848
366.2842, 19.58936
366.7663, 19.54336
367.2484, 19.45914
367.7306, 19.40731
368.2127, 19.40318
368.6948, 19.43013
369.1769, 19.47731
369.6590, 19.60738
370.1411, 19.67994
370.6233, 19.65918
371.1054, 19.57199
371.5875, 19.52166
372.0696, 19.54281
372.5517, 19.55904
373.0338, 19.52796
373.5160, 19.40429
373.9981, 19.37261
374.4802, 19.48906
374.9623, 19.65222
375.4444, 19.68418
375.9265, 19.52944
376.4087, 19.39829
376.8908, 19.35660
377.3729, 19.40120
377.8550, 19.45354
378.3371, 19.51996
378.8192, 19.57597
379.3014, 19.56729
379.7835, 19.48691
380.2656, 19.51425
380.7477, 19.72938
381.2298, 20.03009
381.7119, 20.15086
382.1941, 20.08795
382.6762, 19.97419
383.1583, 19.88391
383.6404, 19.81327
384.1225, 19.74210
384.6046, 19.65961
385.0868, 19.60852
385.5689, 19.66391
386.0510, 19.80331
386.5331, 19.94225
387.0152, 20.06734
387.4973, 20.15874
387.9795, 20.16837
388.4616, 20.09652
388.9437, 20.02645
389.4258, 20.03779
389.9079, 20.08812
390.3900, 20.11551
390.8722, 20.08335
391.3543, 20.04363
391.8364, 20.03935
392.3185, 20.06091
392.8006, 20.07255
393.2827, 20.02703
393.7649, 19.98440
394.2470, 19.99296
394.7291, 20.07982
395.2112, 20.16235
395.6933, 20.20087
396.1754, 20.21877
396.6576, 20.25119
397.1397, 20.35574
397.6218, 20.42905
398.1039, 20.41777
398.5860, 20.30975
399.0681, 20.24197
399.5503, 20.27988
400.0324, 20.33163
400.5145, 20.32703
400.9966, 20.16285
401.4787, 20.08916
401.9608, 20.16647
402.4430, 20.35106
402.9251, 20.47298
403.4072, 20.51276
403.8893, 20.51979
404.3714, 20.51517
404.8535, 20.50133
405.3357, 20.45158
405.8178, 20.32644
406.2999, 20.21796
406.7820, 20.30566
407.2641, 20.64146
407.7462, 20.86610
408.2284, 20.82725
408.7105, 20.58986
409.1926, 20.47282
409.6747, 20.48219
410.1568, 20.56699
410.6389, 20.73307
411.1211, 20.95518
411.6032, 21.09028
412.0853, 21.10139
412.5674, 21.04335
413.0495, 20.97463
413.5316, 20.90151
414.0138, 20.85687
414.4959, 20.88450
414.9780, 20.94210
415.4601, 20.96071
415.9422, 20.93460
416.4243, 20.90445
416.9065, 20.87533
417.3886, 20.86942
417.8707, 20.92183
418.3528, 21.11067
418.8349, 21.29813
419.3170, 21.39459
419.7992, 21.41382
420.2813, 21.41757
420.7634, 21.41196
421.2455, 21.41498
421.7276, 21.45227
422.2097, 21.57516
422.6919, 21.61820
423.1740, 21.42732
423.6561, 21.15721
424.1382, 21.04083
424.6203, 21.25969
425.1024, 21.49259
425.5846, 21.67272
426.0667, 21.79752
426.5488, 21.89028
427.0309, 21.94806
427.5130, 21.97732
427.9951, 21.98142
428.4773, 21.95464
428.9594, 21.91184
429.4415, 21.83718
429.9236, 21.75525
430.4057, 21.73464
430.8878, 21.79264
431.3700, 21.86040
431.8521, 21.91660
432.3342, 21.96145
432.8163, 21.95733
433.2984, 21.88761
433.7805, 21.82743
434.2627, 21.88744
434.7448, 22.05334
435.2269, 22.17892
435.7090, 22.22055
436.1911, 22.20831
436.6732, 22.19119
437.1554, 22.17034
437.6375, 22.15721
438.1196, 22.12538
438.6017, 22.11554
439.0838, 22.23332
439.5659, 22.52261
440.0480, 22.76291
440.5302, 22.69307
441.0123, 22.46006
441.4944, 22.31067
441.9765, 22.45806
442.4586, 22.62696
442.9407, 22.62088
443.4229, 22.46158
443.9050, 22.34659
444.3871, 22.37551
444.8692, 22.46491
445.3513, 22.56871
445.8334, 22.72086
446.3156, 22.81220
446.7977, 22.76559
447.2798, 22.65452
447.7619, 22.60857
448.2440, 22.69289
448.7261, 22.78233
449.2083, 22.85503
449.6904, 22.91168
450.1725, 22.94130
450.6546, 22.92186
451.1367, 22.90245
451.6188, 22.92724
452.1010, 23.01881
452.5831, 23.07343
453.0652, 23.06546
453.5473, 23.03257
454.0294, 23.07185
454.5115, 23.19407
454.9937, 23.30334
455.4758, 23.36098
455.9579, 23.36991
456.4400, 23.33276
456.9221, 23.24304
457.4042, 23.16383
457.8864, 23.14613
458.3685, 23.18703
458.8506, 23.29331
459.3327, 23.51143
459.8148, 23.71833
460.2969, 23.71526
460.7791, 23.56519
461.2612, 23.47647
461.7433, 23.65365
462.2254, 23.88774
462.7075, 23.99263
463.1896, 23.94603
463.6718, 23.85661
464.1539, 23.71245
464.6360, 23.58414
465.1181, 23.54486
465.6002, 23.69652
466.0823, 23.84952
466.5645, 23.96454
467.0466, 24.04479
467.5287, 24.10356
468.0108, 24.13832
468.4929, 24.15443
468.9750, 24.14079
469.4572, 24.06885
469.9393, 24.07771
470.4214, 24.22115
470.9035, 24.39571
471.3856, 24.48212
471.8677, 24.44728
472.3499, 24.43029
472.8320, 24.46344
473.3141, 24.52772
473.7962, 24.54568
474.2783, 24.50793
474.7604, 24.49303
475.2426, 24.58294
475.7247, 24.75013
476.2068, 24.79943
476.6889, 24.70675
477.1710, 24.61036
477.6531, 24.71449
478.1353, 24.94262
478.6174, 25.07275
479.0995, 24.94903
479.5816, 24.79135
480.0637, 24.88400
480.5458, 25.16679
481.0280, 25.41525
481.5101, 25.47502
481.9922, 25.46703
482.4743, 25.50026
482.9564, 25.60540
483.4385, 25.64669
483.9207, 25.46545
484.4028, 25.23533
484.8849, 25.13900
485.3670, 25.35199
485.8491, 25.55006
486.3312, 25.66014
486.8134, 25.70115
487.2955, 25.78030
487.7776, 25.99178
488.2597, 26.12635
488.7418, 26.06787
489.2239, 25.74855
489.7061, 25.57437
490.1882, 25.58157
490.6703, 25.68067
491.1524, 25.79086
491.6345, 25.91935
492.1166, 26.00155
492.5988, 26.01543
493.0809, 25.98598
493.5630, 25.97362
494.0451, 25.97756
494.5272, 25.98599
495.0093, 25.95484
495.4915, 25.92859
495.9736, 26.03525
496.4557, 26.28637
496.9378, 26.54720
497.4199, 26.73898
497.9020, 26.85190
498.3842, 26.85373
498.8663, 26.63580
499.3484, 26.44837
499.8305, 26.46865
500.3126, 26.64407
500.7947, 26.84004
501.2769, 27.14575
501.7590, 27.34482
502.2411, 27.26793
502.7232, 26.84382
503.2053, 26.58572
503.6874, 26.66997
504.1696, 26.87895
504.6517, 27.06182
505.1338, 27.24446
505.6159, 27.35106
506.0980, 27.34838
506.5801, 27.27867
507.0623, 27.23634
507.5444, 27.22303
508.0265, 27.23035
508.5086, 27.25857
508.9907, 27.30567
509.4728, 27.35597
509.9550, 27.40911
510.4371, 27.46693
510.9192, 27.55396
511.4013, 27.65135
511.8834, 27.67159
512.3655, 27.58262
512.8477, 27.47808
513.3298, 27.47774
513.8119, 27.54772
514.2940, 27.60705
514.7761, 27.60255
515.2582, 27.58637
515.7404, 27.57258
516.2225, 27.57050
516.7046, 27.64100
517.1867, 27.91535
517.6688, 28.19906
518.1509, 28.35794
518.6331, 28.32071
519.1152, 28.28724
519.5973, 28.28575
520.0794, 28.30515
520.5615, 28.33602
521.0436, 28.44236
521.5258, 28.45003
522.0079, 28.25337
522.4900, 27.92868
522.9721, 27.88612
523.4542, 28.21399
523.9363, 28.56444
524.4185, 28.75828
524.9006, 28.79688
525.3827, 28.81736
525.8648, 28.81734
526.3469, 28.81384
526.8290, 28.83081
527.3112, 28.86176
527.7933, 28.87516
528.2754, 28.84789
528.7575, 28.83041
529.2396, 28.91654
529.7217, 29.06789
530.2039, 29.16978
530.6860, 29.05685
531.1681, 28.95352
531.6502, 29.08155
532.1323, 29.44328
532.6144, 29.69491
533.0966, 29.60197
533.5787, 29.41532
534.0608, 29.30783
534.5429, 29.32137
535.0250, 29.39075
535.5071, 29.56540
535.9893, 29.77172
536.4714, 29.90131
536.9535, 29.93857
537.4356, 29.92458
537.9177, 29.84017
538.3998, 29.70752
538.8820, 29.67938
539.3641, 29.77428
539.8462, 29.88897
540.3283, 29.96105
540.8104, 29.99557
541.2925, 30.03302
541.7747, 30.07697
542.2568, 30.10927
542.7389, 30.07768
543.2210, 30.02031
543.7031, 30.03773
544.1852, 30.20856
544.6674, 30.38169
545.1495, 30.36555
545.6316, 30.23893
546.1137, 30.19848
546.5958, 30.47982
547.0779, 30.74620
547.5601, 30.77640
548.0422, 30.55247
548.5243, 30.40698
549.0064, 30.46649
549.4885, 30.58626
549.9706, 30.67444
550.4528, 30.68345
550.9349, 30.75340
551.4170, 30.93951
551.8991, 31.14360
552.3812, 31.20207
552.8633, 31.06848
553.3455, 30.97902
553.8276, 30.99811
554.3097, 31.09598
554.7918, 31.17467
555.2739, 31.23307
555.7560, 31.31360
556.2382, 31.50625
556.7203, 31.72775
557.2024, 31.76260
557.6845, 31.59696
558.1666, 31.40977
558.6487, 31.31279
559.1309, 31.29665
559.6130, 31.35909
560.0951, 31.53432
560.5772, 31.71880
561.0593, 31.90814
561.5414, 32.06686
562.0236, 32.13030
562.5057, 31.94592
562.9878, 31.80773
563.4699, 31.81598
563.9520, 31.95623
564.4341, 32.08248
564.9163, 32.20043
565.3984, 32.29574
565.8805, 32.35571
566.3626, 32.37189
566.8447, 32.40356
567.3268, 32.44921
567.8090, 32.51465
568.2911, 32.62336
568.7732, 32.76814
569.2553, 32.86860
569.7374, 32.89356
570.2195, 32.90078
570.7017, 33.01073
571.1838, 33.17985
571.6659, 33.26863
572.1480, 33.07427
572.6301, 32.87042
573.1122, 32.95515
573.5944, 33.29040
574.0765, 33.51525
574.5586, 33.29326
575.0407, 33.04253
575.5228, 33.04805
576.0049, 33.48769
576.4871, 33.77565
576.9692, 33.80582
577.4513, 33.70500
577.9334, 33.57157
578.4155, 33.35521
578.8976, 33.23442
579.3798, 33.24753
579.8619, 33.35435
580.3440, 33.45972
580.8261, 33.56114
581.3082, 33.69221
581.7903, 33.90792
582.2725, 34.15163
582.7546, 34.21714
583.2367, 34.11843
583.7188, 34.03527
584.2009, 34.16506
584.6830, 34.36168
585.1652, 34.41191
585.6473, 34.26601
586.1294, 34.12655
586.6115, 34.09743
587.0936, 34.14170
587.5757, 34.22118
588.0578, 34.30854
588.5399, 34.45024
589.0220, 34.72329
589.5042, 35.05051
589.9863, 35.25440
