##NAMES=Kuzmenkoite-Mn
##RRUFFID=R070662
##IDEAL CHEMISTRY=K_4_Mn^2+^_2_Ti^4+^_8_(Si_4_O_12_)_4_(OH,O)_8_&#183;10-12H_2_O
##LOCALITY=Selsurt Mt, Lovozero Massif, Kola Peninsula, Murmanskaja Oblast', Northern Region, Russia
##OWNER=RRUFF
##SOURCE=Michael Scott
##DESCRIPTION=Vitreous yellow prismatic crystals associated with natrolite and clinoenstatite.
##STATUS=The identification of this mineral has been confirmed by single-crystal X-ray diffraction.
##URL=rruff.info/R070662
89.93622, 18268.01
90.41833, 18955.29
90.90045, 19598.94
91.38257, 20201.12
91.86469, 20750.14
92.34680, 21235.61
92.82892, 21675.40
93.31104, 22167.22
93.79315, 22834.58
94.27527, 23368.04
94.75739, 23453.79
95.23950, 23110.39
95.72162, 22773.06
96.20374, 22574.44
96.68585, 22479.86
97.16797, 22388.28
97.65009, 22275.72
98.13220, 22158.03
98.61432, 22064.94
99.09644, 22010.82
99.57855, 21952.31
100.0607, 21845.71
100.5428, 21703.04
101.0249, 21572.08
101.5070, 21493.41
101.9891, 21467.18
102.4713, 21429.64
102.9534, 21342.80
103.4355, 21260.35
103.9176, 21210.50
104.3997, 21197.82
104.8818, 21202.37
105.3640, 21192.91
105.8461, 21158.41
106.3282, 21127.02
106.8103, 21103.61
107.2924, 21082.30
107.7745, 21054.14
108.2567, 21013.66
108.7388, 20965.67
109.2209, 20943.30
109.7030, 20967.50
110.1851, 20993.67
110.6672, 21008.88
111.1494, 21017.25
111.6315, 21032.29
112.1136, 21067.64
112.5957, 21126.49
113.0778, 21159.31
113.5599, 21143.26
114.0421, 21119.05
114.5242, 21117.58
115.0063, 21143.75
115.4884, 21179.86
115.9705, 21208.60
116.4526, 21231.51
116.9348, 21238.96
117.4169, 21217.77
117.8990, 21179.38
118.3811, 21146.45
118.8632, 21119.50
119.3453, 21108.70
119.8275, 21125.48
120.3096, 21172.60
120.7917, 21225.60
121.2738, 21273.73
121.7559, 21317.84
122.2381, 21338.58
122.7202, 21299.01
123.2023, 21245.83
123.6844, 21214.95
124.1665, 21219.60
124.6486, 21241.65
125.1308, 21246.36
125.6129, 21222.46
126.0950, 21200.79
126.5771, 21181.04
127.0592, 21169.79
127.5413, 21177.83
128.0235, 21215.67
128.5056, 21279.31
128.9877, 21321.59
129.4698, 21308.36
129.9519, 21304.91
130.4340, 21331.15
130.9162, 21382.10
131.3983, 21442.67
131.8804, 21502.05
132.3625, 21568.05
132.8446, 21594.24
133.3267, 21555.90
133.8089, 21505.14
134.2910, 21488.95
134.7731, 21510.43
135.2552, 21518.09
135.7373, 21429.69
136.2194, 21164.05
136.7016, 20980.15
137.1837, 20934.71
137.6658, 20965.95
138.1479, 21000.58
138.6300, 21015.81
139.1121, 21016.09
139.5943, 21008.52
140.0764, 20988.46
140.5585, 20972.16
141.0406, 20974.63
141.5227, 20989.59
142.0048, 20988.36
142.4870, 20945.91
142.9691, 20885.70
143.4512, 20853.63
143.9333, 20865.10
144.4154, 20888.44
144.8975, 20892.41
145.3797, 20874.27
145.8618, 20853.67
146.3439, 20842.13
146.8260, 20834.39
147.3081, 20823.80
147.7902, 20804.32
148.2724, 20782.06
148.7545, 20773.93
149.2366, 20790.14
149.7187, 20804.56
150.2008, 20800.43
150.6829, 20786.75
151.1651, 20780.32
151.6472, 20794.32
152.1293, 20828.48
152.6114, 20861.08
153.0935, 20905.50
153.5757, 20935.57
154.0578, 20927.57
154.5399, 20891.55
155.0220, 20861.66
155.5041, 20881.21
155.9862, 20980.88
156.4684, 21030.06
156.9505, 20993.06
157.4326, 20941.72
157.9147, 20912.85
158.3968, 20915.27
158.8789, 20938.12
159.3611, 20965.40
159.8432, 21010.12
160.3253, 21038.04
160.8074, 21043.79
161.2895, 21036.95
161.7716, 21025.28
162.2538, 21011.72
162.7359, 20996.94
163.2180, 20982.13
163.7001, 20956.06
164.1822, 20944.05
164.6643, 20964.80
165.1465, 21001.71
165.6286, 21023.07
166.1107, 21011.12
166.5928, 20973.96
167.0749, 20945.60
167.5570, 20919.79
168.0392, 20906.35
168.5213, 20916.16
169.0034, 20945.40
169.4855, 20975.13
169.9676, 20995.82
170.4497, 21006.74
170.9319, 21010.47
171.4140, 21009.29
171.8961, 20999.75
172.3782, 20970.43
172.8603, 20917.37
173.3424, 20875.68
173.8246, 20886.68
174.3067, 20926.97
174.7888, 20954.92
175.2709, 20958.12
175.7530, 20941.12
176.2351, 20907.34
176.7173, 20844.60
177.1994, 20791.15
177.6815, 20776.03
178.1636, 20787.45
178.6457, 20798.95
179.1278, 20794.74
179.6100, 20777.06
180.0921, 20760.28
180.5742, 20739.97
181.0563, 20726.41
181.5384, 20729.95
182.0205, 20745.91
182.5027, 20758.38
182.9848, 20749.27
183.4669, 20714.91
183.9490, 20693.64
184.4311, 20704.85
184.9132, 20716.11
185.3954, 20712.75
185.8775, 20694.55
186.3596, 20671.72
186.8417, 20656.22
187.3238, 20650.76
187.8059, 20645.67
188.2881, 20632.34
188.7702, 20624.90
189.2523, 20634.37
189.7344, 20662.33
190.2165, 20699.91
190.6986, 20734.41
191.1808, 20771.83
191.6629, 20793.42
192.1450, 20789.65
192.6271, 20776.65
193.1092, 20764.00
193.5914, 20755.74
194.0735, 20755.17
194.5556, 20769.99
195.0377, 20827.78
195.5198, 20869.00
196.0019, 20881.00
196.4841, 20879.41
196.9662, 20882.70
197.4483, 20899.34
197.9304, 20925.34
198.4125, 20947.23
198.8946, 20954.36
199.3768, 20969.96
199.8589, 21016.92
200.3410, 21074.05
200.8231, 21096.49
201.3052, 21052.48
201.7873, 20964.45
202.2695, 20943.77
202.7516, 21052.46
203.2337, 21149.04
203.7158, 21168.12
204.1979, 21129.40
204.6800, 21096.05
205.1622, 21108.26
205.6443, 21156.04
206.1264, 21179.64
206.6085, 21152.61
207.0906, 21126.36
207.5727, 21135.37
208.0549, 21176.19
208.5370, 21217.95
209.0191, 21238.98
209.5012, 21243.75
209.9833, 21256.58
210.4654, 21300.57
210.9476, 21338.23
211.4297, 21325.57
211.9118, 21259.35
212.3939, 21197.72
212.8760, 21182.41
213.3581, 21203.81
213.8403, 21237.16
214.3224, 21300.12
214.8045, 21363.18
215.2866, 21386.03
215.7687, 21362.97
216.2508, 21322.56
216.7330, 21272.53
217.2151, 21219.74
217.6972, 21179.70
218.1793, 21173.37
218.6614, 21179.80
219.1435, 21154.51
219.6257, 21083.44
220.1078, 21012.82
220.5899, 20972.75
221.0720, 20954.92
221.5541, 20944.23
222.0362, 20940.38
222.5184, 20939.11
223.0005, 20925.15
223.4826, 20890.64
223.9647, 20856.43
224.4468, 20841.72
224.9289, 20837.33
225.4111, 20821.23
225.8932, 20772.26
226.3753, 20697.23
226.8574, 20635.68
227.3395, 20588.98
227.8216, 20556.23
228.3038, 20541.97
228.7859, 20540.49
229.2680, 20537.66
229.7501, 20526.85
230.2322, 20507.68
230.7143, 20472.08
231.1965, 20396.38
231.6786, 20329.03
232.1607, 20292.66
232.6428, 20282.25
233.1249, 20281.31
233.6070, 20280.61
234.0892, 20280.45
234.5713, 20269.41
235.0534, 20235.84
235.5355, 20201.16
236.0176, 20172.87
236.4998, 20150.76
236.9819, 20131.47
237.4640, 20111.03
237.9461, 20088.60
238.4282, 20073.72
238.9103, 20058.63
239.3925, 20058.91
239.8746, 20100.43
240.3567, 20169.64
240.8388, 20221.97
241.3209, 20207.11
241.8030, 20108.98
242.2852, 20039.66
242.7673, 20012.65
243.2494, 20002.23
243.7315, 20005.27
244.2136, 20017.72
244.6957, 20032.63
245.1779, 20045.25
245.6600, 20058.46
246.1421, 20053.56
246.6242, 20009.88
247.1063, 19966.91
247.5884, 19940.21
248.0706, 19931.26
248.5527, 19935.27
249.0348, 19951.23
249.5169, 19987.93
249.9990, 19997.97
250.4811, 19959.87
250.9633, 19917.43
251.4454, 19889.95
251.9275, 19878.91
252.4096, 19874.83
252.8917, 19867.05
253.3738, 19851.92
253.8560, 19849.46
254.3381, 19870.03
254.8202, 19892.15
255.3023, 19908.75
255.7844, 19917.29
256.2665, 19915.52
256.7487, 19899.37
257.2308, 19862.96
257.7129, 19836.07
258.1950, 19807.42
258.6771, 19794.88
259.1592, 19827.89
259.6414, 19895.05
260.1235, 19946.09
260.6056, 19924.00
261.0877, 19803.88
261.5698, 19719.85
262.0519, 19676.22
262.5341, 19655.65
263.0162, 19658.23
263.4983, 19678.65
263.9804, 19703.77
264.4625, 19721.06
264.9446, 19730.29
265.4268, 19732.39
265.9089, 19724.45
266.3910, 19713.61
266.8731, 19700.87
267.3552, 19687.88
267.8373, 19678.70
268.3195, 19678.08
268.8016, 19688.48
269.2837, 19691.49
269.7658, 19685.29
270.2479, 19674.77
270.7300, 19658.06
271.2122, 19637.78
271.6943, 19622.15
272.1764, 19619.76
272.6585, 19633.33
273.1406, 19636.21
273.6227, 19608.20
274.1049, 19589.97
274.5870, 19605.84
275.0691, 19650.58
275.5512, 19704.68
276.0333, 19755.87
276.5154, 19807.53
276.9976, 19811.63
277.4797, 19724.27
277.9618, 19643.23
278.4439, 19616.14
278.9260, 19633.13
279.4081, 19655.38
279.8903, 19652.99
280.3724, 19625.44
280.8545, 19607.35
281.3366, 19612.17
281.8187, 19611.26
282.3008, 19582.82
282.7830, 19538.55
283.2651, 19509.88
283.7472, 19521.36
284.2293, 19570.05
284.7114, 19594.79
285.1935, 19577.93
285.6757, 19558.97
286.1578, 19558.64
286.6399, 19565.27
287.1220, 19548.99
287.6041, 19486.75
288.0862, 19388.18
288.5684, 19334.58
289.0505, 19369.49
289.5326, 19397.27
290.0147, 19388.98
290.4968, 19358.88
290.9789, 19335.33
291.4611, 19335.25
291.9432, 19350.96
292.4253, 19344.02
292.9074, 19281.77
293.3895, 19235.27
293.8716, 19229.69
294.3538, 19243.61
294.8359, 19244.79
295.3180, 19217.08
295.8001, 19170.87
296.2823, 19139.67
296.7644, 19144.24
297.2465, 19140.04
297.7286, 19110.55
298.2107, 19075.16
298.6928, 19056.46
299.1750, 19063.72
299.6571, 19090.48
300.1392, 19122.18
300.6213, 19164.86
301.1034, 19204.90
301.5855, 19254.36
302.0677, 19295.15
302.5498, 19308.76
303.0319, 19289.69
303.5140, 19246.23
303.9961, 19190.08
304.4782, 19080.38
304.9604, 19028.98
305.4425, 19089.18
305.9246, 19169.00
306.4067, 19191.52
306.8888, 19141.70
307.3709, 19064.20
307.8531, 19022.81
308.3352, 19036.27
308.8173, 19042.81
309.2994, 19038.50
309.7815, 19031.40
310.2636, 19026.42
310.7458, 19024.08
311.2279, 19022.06
311.7100, 19018.82
312.1921, 19016.96
312.6742, 19002.15
313.1563, 18959.79
313.6385, 18918.80
314.1206, 18898.99
314.6027, 18895.53
315.0848, 18886.22
315.5669, 18847.89
316.0490, 18776.51
316.5312, 18722.64
317.0133, 18702.08
317.4954, 18683.42
317.9775, 18657.81
318.4596, 18625.91
318.9417, 18590.61
319.4239, 18552.14
319.9060, 18511.57
320.3881, 18487.02
320.8702, 18497.62
321.3523, 18504.73
321.8344, 18492.63
322.3166, 18472.38
322.7987, 18465.01
323.2808, 18486.15
323.7629, 18523.79
324.2450, 18525.70
324.7271, 18453.47
325.2093, 18402.50
325.6914, 18409.63
326.1735, 18440.82
326.6556, 18454.85
327.1377, 18432.15
327.6198, 18392.93
328.1020, 18382.92
328.5841, 18419.34
329.0662, 18447.69
329.5483, 18454.11
330.0304, 18450.75
330.5125, 18444.39
330.9947, 18436.99
331.4768, 18433.83
331.9589, 18444.36
332.4410, 18472.22
332.9231, 18497.99
333.4052, 18526.14
333.8874, 18545.55
334.3695, 18541.08
334.8516, 18513.03
335.3337, 18488.16
335.8158, 18501.07
336.2979, 18553.68
336.7801, 18586.23
337.2622, 18576.10
337.7443, 18559.33
338.2264, 18551.67
338.7085, 18555.42
339.1906, 18575.24
339.6728, 18628.74
340.1549, 18706.26
340.6370, 18753.66
341.1191, 18757.85
341.6012, 18747.09
342.0833, 18733.90
342.5655, 18720.63
343.0476, 18714.18
343.5297, 18728.76
344.0118, 18750.00
344.4939, 18740.12
344.9760, 18686.78
345.4582, 18642.42
345.9403, 18654.60
346.4224, 18696.38
346.9045, 18726.45
347.3866, 18725.42
347.8687, 18716.39
348.3509, 18734.10
348.8330, 18779.66
349.3151, 18801.81
349.7972, 18755.93
350.2793, 18678.82
350.7614, 18646.90
351.2436, 18697.79
351.7257, 18735.80
352.2078, 18672.52
352.6899, 18533.99
353.1720, 18436.95
353.6541, 18435.71
354.1363, 18482.09
354.6184, 18486.79
355.1005, 18438.86
355.5826, 18395.09
356.0647, 18386.36
356.5468, 18392.70
357.0290, 18377.63
357.5111, 18329.88
357.9932, 18268.38
358.4753, 18218.74
358.9574, 18184.94
359.4395, 18139.42
359.9217, 18064.62
360.4038, 17984.76
360.8859, 17923.05
361.3680, 17881.96
361.8501, 17852.05
362.3322, 17826.63
362.8144, 17806.47
363.2965, 17779.69
363.7786, 17736.28
364.2607, 17696.26
364.7428, 17677.61
365.2249, 17673.40
365.7071, 17658.46
366.1892, 17612.95
366.6713, 17542.87
367.1534, 17503.30
367.6355, 17525.12
368.1176, 17539.65
368.5998, 17533.87
369.0819, 17511.29
369.5640, 17474.26
370.0461, 17423.67
370.5282, 17367.38
371.0103, 17327.03
371.4925, 17320.13
371.9746, 17303.40
372.4567, 17250.96
372.9388, 17202.37
373.4209, 17200.51
373.9030, 17251.33
374.3852, 17316.16
374.8673, 17341.77
375.3494, 17314.81
375.8315, 17288.44
376.3136, 17251.65
376.7957, 17224.70
377.2779, 17230.14
377.7600, 17258.71
378.2421, 17275.40
378.7242, 17240.60
379.2064, 17158.21
379.6885, 17116.97
380.1706, 17150.56
380.6527, 17183.84
381.1348, 17187.52
381.6169, 17171.48
382.0991, 17153.14
382.5812, 17139.87
383.0633, 17131.07
383.5454, 17126.51
384.0275, 17128.38
384.5096, 17127.94
384.9918, 17118.67
385.4739, 17106.84
385.9560, 17098.09
386.4381, 17093.63
386.9202, 17092.78
387.4023, 17095.16
387.8845, 17100.76
388.3666, 17109.99
388.8487, 17128.26
389.3308, 17144.12
389.8129, 17135.98
390.2950, 17100.53
390.7772, 17088.92
391.2593, 17146.71
391.7414, 17240.84
392.2235, 17305.86
392.7056, 17328.77
393.1877, 17333.29
393.6699, 17337.22
394.1520, 17340.78
394.6341, 17348.75
395.1162, 17356.73
395.5983, 17372.83
396.0804, 17412.84
396.5626, 17472.31
397.0447, 17520.43
397.5268, 17534.26
398.0089, 17519.76
398.4910, 17519.00
398.9731, 17530.08
399.4553, 17554.07
399.9374, 17608.96
400.4195, 17673.80
400.9016, 17709.33
401.3837, 17698.43
401.8658, 17664.65
402.3480, 17657.91
402.8301, 17716.22
403.3122, 17743.57
403.7943, 17711.43
404.2764, 17668.68
404.7585, 17657.29
405.2407, 17680.91
405.7228, 17711.88
406.2049, 17719.84
406.6870, 17702.16
407.1691, 17678.68
407.6512, 17634.80
408.1334, 17599.60
408.6155, 17594.43
409.0976, 17605.96
409.5797, 17603.94
410.0618, 17565.39
410.5439, 17502.94
411.0261, 17466.96
411.5082, 17473.06
411.9903, 17476.64
412.4724, 17457.40
412.9545, 17433.02
413.4366, 17423.04
413.9188, 17434.26
414.4009, 17452.69
414.8830, 17468.27
415.3651, 17481.79
415.8472, 17469.62
416.3293, 17413.19
416.8115, 17340.84
417.2936, 17269.52
417.7757, 17200.78
418.2578, 17155.08
418.7399, 17152.97
419.2220, 17180.45
419.7042, 17210.27
420.1863, 17240.73
420.6684, 17269.36
421.1505, 17302.25
421.6326, 17333.00
422.1147, 17333.65
422.5969, 17264.19
423.0790, 17194.81
423.5611, 17174.07
424.0432, 17196.87
424.5253, 17240.53
425.0074, 17298.94
425.4896, 17364.13
425.9717, 17411.66
426.4538, 17441.38
426.9359, 17457.81
427.4180, 17455.32
427.9001, 17442.92
428.3823, 17419.07
428.8644, 17387.00
429.3465, 17377.24
429.8286, 17436.43
430.3107, 17599.68
430.7928, 17703.77
431.2750, 17714.38
431.7571, 17710.53
432.2392, 17726.54
432.7213, 17760.23
433.2034, 17794.52
433.6855, 17816.31
434.1677, 17829.59
434.6498, 17858.46
435.1319, 17921.40
435.6140, 17970.43
436.0961, 17988.16
436.5782, 17992.07
437.0604, 17995.76
437.5425, 18003.05
438.0246, 18022.37
438.5067, 18072.86
438.9888, 18157.79
439.4709, 18225.30
439.9531, 18271.52
440.4352, 18291.09
440.9173, 18269.95
441.3994, 18214.61
441.8815, 18170.02
442.3636, 18171.93
442.8458, 18196.52
443.3279, 18198.61
443.8100, 18175.01
444.2921, 18135.72
444.7742, 18079.48
445.2563, 18012.60
445.7385, 17957.84
446.2206, 17921.73
446.7027, 17892.18
447.1848, 17871.93
447.6669, 17853.60
448.1490, 17815.97
448.6312, 17749.18
449.1133, 17667.76
449.5954, 17597.91
450.0775, 17547.64
450.5596, 17492.09
451.0417, 17424.21
451.5239, 17355.27
452.0060, 17289.75
452.4881, 17230.77
452.9702, 17185.28
453.4523, 17161.40
453.9344, 17159.19
454.4166, 17148.21
454.8987, 17114.24
455.3808, 17086.39
455.8629, 17078.09
456.3450, 17077.03
456.8271, 17063.56
457.3093, 17028.56
457.7914, 16987.83
458.2735, 16971.88
458.7556, 16988.66
459.2377, 16998.20
459.7198, 16992.05
460.2020, 16977.37
460.6841, 16955.93
461.1662, 16928.75
461.6483, 16900.43
462.1305, 16862.46
462.6126, 16826.12
463.0947, 16833.29
463.5768, 16900.54
464.0589, 16954.60
464.5410, 16927.08
465.0232, 16852.89
465.5053, 16819.36
465.9874, 16853.55
466.4695, 16909.81
466.9516, 16966.95
467.4337, 17023.70
467.9159, 17073.52
468.3980, 17112.50
468.8801, 17150.79
469.3622, 17207.29
469.8443, 17297.13
470.3264, 17366.47
470.8086, 17389.50
471.2907, 17409.21
471.7728, 17456.57
472.2549, 17532.35
472.7370, 17622.82
473.2191, 17719.22
473.7013, 17820.27
474.1834, 17911.84
474.6655, 17971.62
475.1476, 18049.41
475.6297, 18159.52
476.1118, 18288.34
476.5940, 18424.82
477.0761, 18564.90
477.5582, 18704.35
478.0403, 18837.54
478.5224, 18963.00
479.0045, 19091.74
479.4867, 19232.37
479.9688, 19368.09
480.4509, 19486.37
480.9330, 19589.87
481.4151, 19690.45
481.8972, 19800.21
482.3794, 19907.35
482.8615, 19998.22
483.3436, 20072.93
483.8257, 20120.73
484.3078, 20134.95
484.7899, 20117.12
485.2721, 20076.32
485.7542, 20013.22
486.2363, 19928.83
486.7184, 19819.38
487.2005, 19690.30
487.6826, 19552.03
488.1648, 19406.85
488.6469, 19241.83
489.1290, 19037.69
489.6111, 18785.76
490.0932, 18564.33
490.5753, 18374.52
491.0575, 18209.42
491.5396, 18081.22
492.0217, 17974.20
492.5038, 17859.43
492.9859, 17722.54
493.4680, 17579.07
493.9502, 17465.71
494.4323, 17394.10
494.9144, 17318.50
495.3965, 17228.26
495.8786, 17135.74
496.3607, 17041.01
496.8429, 16948.08
497.3250, 16873.22
497.8071, 16838.55
498.2892, 16829.97
498.7713, 16808.60
499.2534, 16772.08
499.7356, 16729.78
500.2177, 16674.44
500.6998, 16620.90
501.1819, 16603.91
501.6640, 16649.81
502.1461, 16690.35
502.6283, 16682.70
503.1104, 16648.14
503.5925, 16628.72
504.0746, 16636.01
504.5567, 16648.19
505.0388, 16636.29
505.5210, 16589.77
506.0031, 16572.27
506.4852, 16601.49
506.9673, 16638.53
507.4494, 16664.87
507.9315, 16685.75
508.4137, 16714.58
508.8958, 16758.79
509.3779, 16812.93
509.8600, 16865.02
510.3421, 16917.04
510.8242, 16961.14
511.3064, 16981.01
511.7885, 17004.28
512.2706, 17047.62
512.7527, 17111.59
513.2349, 17187.71
513.7170, 17279.38
514.1991, 17377.72
514.6812, 17454.58
515.1633, 17503.18
515.6454, 17564.41
516.1276, 17675.55
516.6097, 17809.99
517.0918, 17903.36
517.5739, 17930.32
518.0560, 17960.88
518.5381, 18036.93
519.0203, 18132.82
519.5024, 18203.76
519.9845, 18240.37
520.4666, 18273.29
520.9487, 18338.31
521.4308, 18443.34
521.9130, 18519.15
522.3951, 18550.33
522.8772, 18574.66
523.3593, 18600.08
523.8414, 18628.50
524.3235, 18664.36
524.8057, 18709.69
525.2878, 18753.29
525.7699, 18773.71
526.2520, 18766.58
526.7341, 18756.85
527.2162, 18747.37
527.6984, 18735.07
528.1805, 18726.29
528.6626, 18715.02
529.1447, 18680.00
529.6268, 18597.38
530.1089, 18493.05
530.5911, 18406.85
531.0732, 18337.74
531.5553, 18259.13
532.0374, 18159.66
532.5195, 18043.35
533.0016, 17911.78
533.4838, 17752.07
533.9659, 17619.18
534.4480, 17542.56
534.9301, 17484.75
535.4122, 17414.86
535.8943, 17328.42
536.3765, 17229.27
536.8586, 17116.35
537.3407, 16993.84
537.8228, 16893.94
538.3049, 16837.68
538.7870, 16775.09
539.2692, 16694.18
539.7513, 16606.18
540.2334, 16517.28
540.7155, 16430.24
541.1976, 16354.98
541.6797, 16310.10
542.1619, 16289.34
542.6440, 16248.45
543.1261, 16180.00
543.6082, 16103.59
544.0903, 16019.06
544.5724, 15936.97
545.0546, 15882.34
545.5367, 15879.14
546.0188, 15873.25
546.5009, 15829.29
546.9830, 15760.39
547.4651, 15690.57
547.9473, 15625.69
548.4294, 15570.23
548.9115, 15530.25
549.3936, 15508.98
549.8757, 15485.22
550.3578, 15455.75
550.8400, 15427.68
551.3221, 15399.57
551.8042, 15375.69
552.2863, 15366.83
552.7684, 15378.07
553.2505, 15390.16
553.7327, 15365.99
554.2148, 15298.22
554.6969, 15247.93
555.1790, 15233.37
555.6611, 15224.40
556.1432, 15197.31
556.6254, 15158.73
557.1075, 15130.75
557.5896, 15127.91
558.0717, 15133.59
558.5538, 15128.80
559.0359, 15116.49
559.5181, 15115.96
560.0002, 15139.53
560.4823, 15162.67
560.9644, 15141.41
561.4465, 15048.15
561.9286, 14987.23
562.4108, 14982.10
562.8929, 14989.52
563.3750, 14986.78
563.8571, 14974.63
564.3392, 14963.20
564.8214, 14959.26
565.3035, 14954.99
565.7856, 14926.17
566.2677, 14858.57
566.7498, 14809.48
567.2319, 14793.04
567.7141, 14794.73
568.1962, 14817.32
568.6783, 14854.55
569.1604, 14878.23
569.6425, 14871.12
570.1246, 14843.51
570.6068, 14804.48
571.0889, 14754.97
571.5710, 14708.18
572.0531, 14664.21
572.5352, 14634.22
573.0173, 14647.46
573.4995, 14732.73
573.9816, 14782.57
574.4637, 14757.75
574.9458, 14717.54
575.4279, 14706.38
575.9100, 14720.51
576.3922, 14732.79
576.8743, 14725.59
577.3564, 14703.97
577.8385, 14681.85
578.3206, 14652.72
578.8027, 14638.92
579.2849, 14671.38
579.7670, 14700.10
580.2491, 14683.67
580.7312, 14626.28
581.2133, 14575.90
581.6954, 14564.18
582.1776, 14573.16
582.6597, 14583.07
583.1418, 14592.47
583.6239, 14578.64
584.1060, 14522.72
584.5881, 14448.57
