##NAMES=Kyanite
##RRUFFID=R100159
##IDEAL CHEMISTRY=Al_2_OSiO_4_
##LOCALITY=Tanzania
##OWNER=RRUFF
##SOURCE=William W. Pinch
##DESCRIPTION=Reddish-orange cut gemstone
##STATUS=The identification of this mineral has been confirmed by single-crystal X-ray diffraction.
##URL=rruff.info/R100159
100.7299, 17888.79
101.2120, 17885.67
101.6941, 17895.82
102.1763, 17913.48
102.6584, 17940.17
103.1405, 17972.06
103.6226, 18003.67
104.1047, 18031.45
104.5868, 18056.13
105.0690, 18081.50
105.5511, 18102.74
106.0332, 18126.48
106.5153, 18157.62
106.9974, 18194.78
107.4795, 18230.14
107.9617, 18255.95
108.4438, 18274.25
108.9259, 18294.52
109.4080, 18320.90
109.8901, 18348.32
110.3722, 18369.46
110.8544, 18382.40
111.3365, 18392.42
111.8186, 18401.07
112.3007, 18409.45
112.7828, 18420.20
113.2649, 18437.37
113.7471, 18460.08
114.2292, 18476.34
114.7113, 18480.81
115.1934, 18483.13
115.6755, 18487.10
116.1576, 18492.47
116.6397, 18497.09
117.1219, 18497.99
117.6040, 18492.37
118.0861, 18491.44
118.5682, 18497.43
119.0503, 18505.23
119.5324, 18512.20
120.0146, 18517.55
120.4967, 18521.90
120.9788, 18526.17
121.4609, 18529.23
121.9430, 18533.74
122.4251, 18539.24
122.9073, 18546.18
123.3894, 18555.79
123.8715, 18568.99
124.3536, 18583.51
124.8357, 18593.12
125.3178, 18596.83
125.8000, 18599.59
126.2821, 18602.23
126.7642, 18605.13
127.2463, 18609.83
127.7284, 18618.16
128.2105, 18628.15
128.6927, 18636.29
129.1748, 18642.51
129.6569, 18647.02
130.1390, 18649.66
130.6211, 18650.21
131.1032, 18650.44
131.5854, 18649.56
132.0675, 18649.42
132.5496, 18652.07
133.0317, 18658.53
133.5138, 18667.89
133.9959, 18678.19
134.4781, 18690.07
134.9602, 18701.97
135.4423, 18712.84
135.9244, 18723.56
136.4065, 18735.83
136.8886, 18751.32
137.3708, 18769.43
137.8529, 18781.04
138.3350, 18778.04
138.8171, 18776.15
139.2992, 18780.15
139.7813, 18788.35
140.2635, 18796.36
140.7456, 18800.37
141.2277, 18799.85
141.7098, 18799.51
142.1919, 18799.06
142.6740, 18799.00
143.1561, 18800.54
143.6383, 18803.42
144.1204, 18805.11
144.6025, 18802.43
145.0846, 18794.47
145.5667, 18789.21
146.0488, 18790.55
146.5310, 18793.24
147.0131, 18790.74
147.4952, 18781.17
147.9773, 18770.34
148.4594, 18764.61
148.9415, 18763.13
149.4237, 18764.29
149.9058, 18769.69
150.3879, 18777.47
150.8700, 18782.31
151.3521, 18782.28
151.8342, 18780.31
152.3164, 18779.07
152.7985, 18778.42
153.2806, 18777.50
153.7627, 18775.37
154.2448, 18771.94
154.7269, 18769.04
155.2091, 18764.14
155.6912, 18762.13
156.1733, 18767.23
156.6554, 18779.09
157.1375, 18792.40
157.6196, 18800.88
158.1018, 18803.34
158.5839, 18803.98
159.0660, 18803.90
159.5481, 18801.73
160.0302, 18793.80
160.5123, 18780.21
160.9945, 18767.04
161.4766, 18765.65
161.9587, 18788.63
162.4408, 18805.05
162.9229, 18812.20
163.4050, 18814.51
163.8871, 18815.30
164.3693, 18815.91
164.8514, 18816.56
165.3335, 18817.79
165.8156, 18819.56
166.2977, 18822.07
166.7798, 18828.05
167.2620, 18834.41
167.7441, 18835.65
168.2262, 18828.71
168.7083, 18816.95
169.1904, 18809.97
169.6725, 18808.92
170.1547, 18809.17
170.6368, 18809.63
171.1189, 18810.13
171.6010, 18809.87
172.0831, 18807.88
172.5652, 18805.42
173.0474, 18805.18
173.5295, 18808.46
174.0116, 18811.45
174.4937, 18810.41
174.9758, 18805.38
175.4579, 18801.57
175.9401, 18802.56
176.4222, 18805.46
176.9043, 18808.16
177.3864, 18811.53
177.8685, 18811.69
178.3506, 18800.05
178.8328, 18770.64
179.3149, 18751.21
179.7970, 18760.47
180.2791, 18779.30
180.7612, 18791.16
181.2433, 18789.44
181.7255, 18780.57
182.2076, 18778.71
182.6897, 18788.50
183.1718, 18796.80
183.6539, 18801.62
184.1360, 18803.46
184.6181, 18801.87
185.1003, 18796.36
185.5824, 18788.77
186.0645, 18785.88
186.5466, 18793.00
187.0287, 18798.58
187.5108, 18802.23
187.9930, 18803.29
188.4751, 18800.14
188.9572, 18791.63
189.4393, 18779.41
189.9214, 18772.81
190.4035, 18779.20
190.8857, 18783.23
191.3678, 18780.46
191.8499, 18773.63
192.3320, 18767.88
192.8141, 18766.64
193.2962, 18768.93
193.7784, 18766.73
194.2605, 18754.45
194.7426, 18744.64
195.2247, 18742.16
195.7068, 18745.65
196.1889, 18751.57
196.6711, 18759.01
197.1532, 18766.44
197.6353, 18767.62
198.1174, 18758.44
198.5995, 18747.32
199.0816, 18738.29
199.5638, 18731.14
200.0459, 18724.50
200.5280, 18716.96
201.0101, 18709.68
201.4922, 18705.63
201.9743, 18706.91
202.4565, 18709.47
202.9386, 18710.04
203.4207, 18708.64
203.9028, 18706.69
204.3849, 18703.49
204.8670, 18700.97
205.3492, 18702.76
205.8313, 18712.77
206.3134, 18723.20
206.7955, 18722.43
207.2776, 18707.63
207.7597, 18694.88
208.2419, 18695.93
208.7240, 18701.12
209.2061, 18700.57
209.6882, 18689.65
210.1703, 18674.54
210.6524, 18666.46
211.1346, 18668.51
211.6167, 18669.57
212.0988, 18664.86
212.5809, 18658.00
213.0630, 18652.15
213.5451, 18648.48
214.0273, 18646.73
214.5094, 18646.80
214.9915, 18651.05
215.4736, 18652.70
215.9557, 18650.33
216.4378, 18645.39
216.9200, 18638.62
217.4021, 18630.33
217.8842, 18621.68
218.3663, 18616.19
218.8484, 18617.42
219.3305, 18616.94
219.8127, 18611.77
220.2948, 18605.38
220.7769, 18602.28
221.2590, 18604.54
221.7411, 18609.43
222.2232, 18608.73
222.7054, 18593.12
223.1875, 18583.01
223.6696, 18582.43
224.1517, 18586.90
224.6338, 18591.99
225.1159, 18595.75
225.5980, 18597.94
226.0802, 18597.77
226.5623, 18594.68
227.0444, 18589.76
227.5265, 18583.06
228.0086, 18574.56
228.4907, 18563.49
228.9729, 18549.35
229.4550, 18534.12
229.9371, 18523.21
230.4192, 18516.80
230.9013, 18513.91
231.3834, 18516.72
231.8656, 18522.51
232.3477, 18527.71
232.8298, 18531.12
233.3119, 18532.57
233.7940, 18530.98
234.2761, 18524.90
234.7583, 18519.87
235.2404, 18516.97
235.7225, 18515.96
236.2046, 18517.10
236.6867, 18521.18
237.1688, 18525.50
237.6510, 18524.71
238.1331, 18518.30
238.6152, 18511.83
239.0973, 18508.81
239.5794, 18506.91
240.0615, 18500.25
240.5437, 18485.46
241.0258, 18469.15
241.5079, 18460.59
241.9900, 18459.49
242.4721, 18459.33
242.9542, 18458.91
243.4364, 18457.54
243.9185, 18452.32
244.4006, 18440.44
244.8827, 18429.07
245.3648, 18426.80
245.8469, 18432.43
246.3290, 18437.28
246.8112, 18437.97
247.2933, 18434.74
247.7754, 18427.43
248.2575, 18413.76
248.7396, 18399.70
249.2217, 18389.28
249.7039, 18382.03
250.1860, 18376.82
250.6681, 18374.63
251.1502, 18374.26
251.6323, 18371.16
252.1144, 18364.69
252.5966, 18355.94
253.0787, 18343.52
253.5608, 18329.51
254.0429, 18318.67
254.5250, 18315.79
255.0071, 18318.37
255.4893, 18316.29
255.9714, 18307.49
256.4535, 18297.07
256.9356, 18284.83
257.4177, 18273.13
257.8998, 18266.26
258.3820, 18268.29
258.8641, 18276.10
259.3462, 18278.65
259.8283, 18273.82
260.3104, 18266.65
260.7925, 18256.79
261.2747, 18246.49
261.7568, 18239.01
262.2389, 18236.36
262.7210, 18236.70
263.2031, 18235.14
263.6852, 18233.44
264.1674, 18226.13
264.6495, 18207.13
265.1316, 18184.85
265.6137, 18168.39
266.0958, 18161.81
266.5779, 18162.11
267.0601, 18162.66
267.5422, 18164.32
268.0243, 18164.76
268.5064, 18163.75
268.9885, 18161.65
269.4706, 18158.99
269.9528, 18155.92
270.4349, 18151.85
270.9170, 18145.29
271.3991, 18133.91
271.8812, 18124.71
272.3633, 18117.90
272.8455, 18113.20
273.3276, 18111.03
273.8097, 18111.23
274.2918, 18112.48
274.7739, 18112.69
275.2560, 18110.66
275.7382, 18110.11
276.2202, 18115.44
276.7024, 18118.65
277.1845, 18113.03
277.6666, 18098.59
278.1487, 18081.68
278.6308, 18069.99
279.1129, 18065.21
279.5951, 18059.85
280.0772, 18052.08
280.5593, 18045.23
281.0414, 18043.93
281.5235, 18046.27
282.0056, 18044.65
282.4878, 18030.96
282.9699, 18002.67
283.4520, 17979.92
283.9341, 17960.96
284.4162, 17948.19
284.8983, 17947.26
285.3805, 17954.16
285.8626, 17958.44
286.3447, 17951.21
286.8268, 17932.91
287.3089, 17924.35
287.7910, 17933.70
288.2732, 17943.28
288.7553, 17949.06
289.2374, 17951.37
289.7195, 17952.08
290.2016, 17952.56
290.6837, 17951.79
291.1659, 17943.79
291.6480, 17919.96
292.1301, 17898.81
292.6122, 17881.71
293.0943, 17869.40
293.5764, 17863.25
294.0586, 17863.93
294.5407, 17869.81
295.0228, 17876.58
295.5049, 17880.81
295.9870, 17890.49
296.4691, 17905.01
296.9513, 17925.59
297.4334, 17957.11
297.9155, 18000.47
298.3976, 18046.46
298.8797, 18079.91
299.3618, 18099.23
299.8440, 18105.65
300.3261, 18099.20
300.8082, 18080.24
301.2903, 18045.58
301.7724, 17995.98
302.2545, 17939.19
302.7367, 17882.66
303.2188, 17824.31
303.7009, 17777.38
304.1830, 17744.56
304.6651, 17719.30
305.1472, 17698.35
305.6294, 17681.12
306.1115, 17668.29
306.5936, 17661.41
307.0757, 17661.00
307.5578, 17654.51
308.0399, 17634.82
308.5221, 17617.22
309.0042, 17611.32
309.4863, 17613.35
309.9684, 17612.76
310.4505, 17602.47
310.9326, 17584.13
311.4148, 17569.26
311.8969, 17557.65
312.3790, 17549.15
312.8611, 17546.69
313.3432, 17546.89
313.8253, 17543.95
314.3075, 17535.11
314.7896, 17522.87
315.2717, 17513.55
315.7538, 17509.68
316.2359, 17505.25
316.7180, 17498.89
317.2001, 17492.24
317.6823, 17485.99
318.1644, 17480.48
318.6465, 17478.10
319.1286, 17482.82
319.6107, 17498.54
320.0928, 17512.29
320.5750, 17521.01
321.0571, 17529.74
321.5392, 17543.40
322.0213, 17561.84
322.5034, 17580.64
322.9855, 17595.90
323.4677, 17607.87
323.9498, 17611.46
324.4319, 17606.69
324.9140, 17594.94
325.3961, 17575.60
325.8782, 17549.71
326.3604, 17519.13
326.8425, 17484.67
327.3246, 17446.88
327.8067, 17410.60
328.2888, 17372.36
328.7709, 17339.51
329.2531, 17316.42
329.7352, 17299.87
330.2173, 17284.76
330.6994, 17268.74
331.1815, 17252.70
331.6636, 17238.82
332.1458, 17224.55
332.6279, 17216.23
333.1100, 17219.91
333.5921, 17226.79
334.0742, 17226.90
334.5563, 17217.84
335.0385, 17206.39
335.5206, 17202.92
336.0027, 17213.16
336.4848, 17216.24
336.9669, 17206.07
337.4490, 17194.20
337.9312, 17188.77
338.4133, 17189.58
338.8954, 17191.01
339.3775, 17188.11
339.8596, 17180.77
340.3417, 17169.88
340.8239, 17151.73
341.3060, 17134.33
341.7881, 17119.32
342.2702, 17107.20
342.7523, 17099.50
343.2344, 17097.73
343.7166, 17099.70
344.1987, 17094.85
344.6808, 17073.35
345.1629, 17055.85
345.6450, 17045.55
346.1271, 17039.74
346.6093, 17037.03
347.0914, 17036.58
347.5735, 17035.33
348.0556, 17027.10
348.5377, 17006.99
349.0198, 16988.58
349.5020, 16970.60
349.9841, 16955.10
350.4662, 16944.49
350.9483, 16938.54
351.4304, 16934.59
351.9125, 16929.96
352.3947, 16924.56
352.8768, 16919.22
353.3589, 16912.06
353.8410, 16906.77
354.3231, 16902.73
354.8052, 16901.60
355.2874, 16907.29
355.7695, 16923.60
356.2516, 16947.67
356.7337, 16963.53
357.2158, 16964.71
357.6979, 16965.79
358.1800, 16973.20
358.6621, 16980.38
359.1443, 16981.14
359.6264, 16973.09
360.1085, 16955.89
360.5906, 16925.73
361.0727, 16872.86
361.5548, 16832.93
362.0370, 16820.11
362.5191, 16812.51
363.0012, 16796.48
363.4833, 16771.01
363.9654, 16744.43
364.4475, 16724.14
364.9297, 16710.18
365.4118, 16701.34
365.8939, 16699.28
366.3760, 16701.01
366.8581, 16708.04
367.3402, 16717.62
367.8224, 16724.70
368.3045, 16726.27
368.7866, 16723.31
369.2687, 16718.56
369.7508, 16712.04
370.2329, 16703.59
370.7151, 16690.76
371.1972, 16677.35
371.6793, 16667.20
372.1614, 16661.71
372.6435, 16658.34
373.1256, 16654.04
373.6078, 16648.72
374.0899, 16644.23
374.5720, 16639.77
375.0541, 16637.55
375.5362, 16641.44
376.0183, 16650.45
376.5005, 16656.04
376.9826, 16650.10
377.4647, 16635.82
377.9468, 16625.03
378.4289, 16618.93
378.9110, 16615.01
379.3932, 16610.76
379.8753, 16607.30
380.3574, 16607.63
380.8395, 16614.93
381.3216, 16624.24
381.8037, 16628.21
382.2859, 16626.69
382.7680, 16628.86
383.2501, 16644.90
383.7322, 16662.51
384.2143, 16663.04
384.6964, 16643.41
385.1786, 16616.72
385.6607, 16585.38
386.1428, 16552.81
386.6249, 16528.19
387.1070, 16514.48
387.5891, 16507.29
388.0713, 16501.81
388.5534, 16498.03
389.0355, 16499.42
389.5176, 16509.69
389.9997, 16523.65
390.4818, 16540.11
390.9640, 16558.02
391.4461, 16566.13
391.9282, 16555.19
392.4103, 16527.63
392.8924, 16500.48
393.3745, 16471.92
393.8567, 16445.44
394.3388, 16421.35
394.8209, 16400.31
395.3030, 16384.12
395.7851, 16373.29
396.2672, 16366.89
396.7494, 16363.24
397.2315, 16362.08
397.7136, 16364.50
398.1957, 16370.14
398.6778, 16379.56
399.1599, 16394.04
399.6420, 16413.20
400.1241, 16434.86
400.6063, 16457.62
401.0884, 16481.72
401.5705, 16501.91
402.0526, 16525.07
402.5347, 16537.83
403.0168, 16534.24
403.4990, 16518.07
403.9811, 16494.92
404.4632, 16467.59
404.9453, 16436.16
405.4274, 16400.02
405.9095, 16352.26
406.3917, 16312.49
406.8738, 16283.69
407.3559, 16260.60
407.8380, 16238.18
408.3201, 16216.62
408.8022, 16200.94
409.2844, 16197.91
409.7665, 16208.69
410.2486, 16212.35
410.7307, 16202.53
411.2128, 16191.73
411.6949, 16181.86
412.1771, 16173.69
412.6592, 16167.62
413.1413, 16163.55
413.6234, 16162.60
414.1055, 16169.60
414.5876, 16190.00
415.0698, 16201.63
415.5519, 16191.35
416.0340, 16175.76
416.5161, 16165.37
416.9982, 16161.52
417.4803, 16160.17
417.9625, 16158.67
418.4446, 16156.96
418.9267, 16154.43
419.4088, 16150.35
419.8909, 16146.72
420.3730, 16146.46
420.8552, 16147.46
421.3373, 16145.19
421.8194, 16136.71
422.3015, 16125.73
422.7836, 16116.21
423.2657, 16108.16
423.7479, 16101.14
424.2300, 16095.01
424.7121, 16089.91
425.1942, 16085.93
425.6763, 16083.23
426.1584, 16080.88
426.6406, 16077.61
427.1227, 16074.72
427.6048, 16074.63
428.0869, 16077.87
428.5690, 16082.72
429.0511, 16087.45
429.5333, 16092.30
430.0154, 16099.53
430.4975, 16109.91
430.9796, 16121.96
431.4617, 16135.95
431.9438, 16150.91
432.4260, 16163.99
432.9081, 16173.34
433.3902, 16181.66
433.8723, 16195.74
434.3544, 16222.71
434.8365, 16243.26
435.3187, 16257.30
435.8008, 16264.22
436.2829, 16262.68
436.7650, 16252.98
437.2471, 16237.20
437.7292, 16217.03
438.2114, 16192.34
438.6935, 16165.01
439.1756, 16132.37
439.6577, 16100.03
440.1398, 16064.72
440.6219, 16032.11
441.1040, 16011.37
441.5862, 16006.39
442.0683, 16009.68
442.5504, 16008.29
443.0325, 16001.94
443.5146, 15991.90
443.9967, 15969.09
444.4789, 15950.47
444.9610, 15948.12
445.4431, 15959.16
445.9252, 15970.82
446.4073, 15974.55
446.8894, 15971.51
447.3716, 15965.85
447.8537, 15956.85
448.3358, 15946.72
448.8179, 15934.26
449.3000, 15921.88
449.7821, 15912.39
450.2643, 15906.51
450.7464, 15902.35
451.2285, 15898.79
451.7106, 15895.62
452.1927, 15892.22
452.6748, 15888.57
453.1570, 15884.41
453.6391, 15878.97
454.1212, 15872.59
454.6033, 15866.94
455.0854, 15862.05
455.5675, 15858.35
456.0497, 15857.25
456.5318, 15858.19
457.0139, 15857.38
457.4960, 15852.04
457.9781, 15844.86
458.4602, 15843.67
458.9424, 15852.04
459.4245, 15858.00
459.9066, 15860.26
460.3887, 15858.73
460.8708, 15851.08
461.3529, 15838.05
461.8351, 15826.27
462.3172, 15822.44
462.7993, 15826.97
463.2814, 15827.62
463.7635, 15821.80
464.2456, 15815.35
464.7278, 15808.27
465.2099, 15801.83
465.6920, 15797.89
466.1741, 15797.10
466.6562, 15797.93
467.1383, 15797.69
467.6205, 15795.57
468.1026, 15794.88
468.5847, 15801.29
469.0668, 15804.14
469.5489, 15794.68
470.0310, 15777.23
470.5132, 15763.80
470.9953, 15762.36
471.4774, 15769.32
471.9595, 15775.82
472.4416, 15781.85
472.9237, 15787.68
473.4059, 15795.13
473.8880, 15801.30
474.3701, 15802.84
474.8522, 15799.24
475.3343, 15795.00
475.8164, 15792.60
476.2986, 15791.77
476.7807, 15790.90
477.2628, 15789.03
477.7449, 15791.20
478.2270, 15801.87
478.7091, 15820.12
479.1913, 15840.52
479.6734, 15858.39
480.1555, 15883.11
480.6376, 15923.24
481.1197, 15973.29
481.6018, 16021.58
482.0839, 16064.16
482.5660, 16106.03
483.0482, 16156.34
483.5303, 16221.99
484.0124, 16267.76
484.4945, 16293.66
484.9766, 16301.06
485.4587, 16286.99
485.9409, 16255.01
486.4230, 16211.05
486.9051, 16157.63
487.3872, 16098.34
487.8693, 16043.81
488.3514, 15994.18
488.8336, 15948.72
489.3157, 15905.89
489.7978, 15867.75
490.2799, 15838.02
490.7620, 15815.27
491.2441, 15793.16
491.7263, 15765.08
492.2084, 15733.67
492.6905, 15713.24
493.1726, 15709.36
493.6547, 15703.31
494.1368, 15683.35
494.6190, 15659.45
495.1011, 15642.26
495.5832, 15634.34
496.0653, 15627.49
496.5474, 15613.26
497.0295, 15595.13
497.5117, 15585.78
497.9938, 15589.31
498.4759, 15591.74
498.9580, 15579.43
499.4401, 15555.26
499.9222, 15536.15
500.4044, 15524.51
500.8865, 15516.51
501.3686, 15510.44
501.8507, 15506.45
502.3328, 15505.56
502.8149, 15508.23
503.2971, 15511.87
503.7792, 15513.03
504.2613, 15511.69
504.7434, 15507.56
505.2255, 15494.84
505.7076, 15485.48
506.1898, 15489.19
506.6719, 15500.30
507.1540, 15506.12
507.6361, 15499.75
508.1182, 15487.32
508.6003, 15483.84
509.0825, 15494.55
509.5646, 15500.17
510.0467, 15493.71
510.5288, 15486.02
511.0109, 15484.56
511.4930, 15487.50
511.9752, 15486.76
512.4573, 15475.13
512.9394, 15457.76
513.4215, 15446.79
513.9036, 15442.95
514.3857, 15440.55
514.8679, 15439.31
515.3500, 15436.86
515.8321, 15430.53
516.3142, 15420.12
516.7963, 15407.17
517.2784, 15388.25
517.7606, 15369.00
518.2427, 15357.90
518.7248, 15355.47
519.2069, 15356.44
519.6890, 15358.42
520.1711, 15360.56
520.6533, 15358.39
521.1354, 15350.90
521.6175, 15341.22
522.0996, 15327.93
522.5817, 15313.82
523.0638, 15300.83
523.5460, 15289.84
524.0281, 15281.93
524.5102, 15278.19
524.9923, 15278.58
525.4744, 15282.91
525.9565, 15300.56
526.4387, 15309.42
526.9208, 15300.98
527.4029, 15284.22
527.8850, 15266.69
528.3671, 15250.75
528.8492, 15238.71
529.3314, 15234.69
529.8135, 15237.80
530.2956, 15239.55
530.7777, 15240.54
531.2598, 15238.06
531.7419, 15226.16
532.2241, 15210.62
532.7062, 15200.99
533.1883, 15200.68
533.6704, 15203.13
534.1525, 15207.30
534.6346, 15210.54
535.1168, 15204.17
535.5989, 15185.28
536.0810, 15166.56
536.5631, 15162.17
537.0452, 15172.92
537.5273, 15175.58
538.0095, 15162.67
538.4916, 15150.75
538.9737, 15146.15
539.4558, 15146.31
539.9379, 15148.93
540.4200, 15152.76
540.9022, 15153.42
541.3843, 15143.43
541.8664, 15119.76
542.3485, 15102.71
542.8306, 15094.67
543.3127, 15091.48
543.7948, 15096.29
544.2769, 15103.90
544.7590, 15106.57
545.2411, 15101.22
545.7233, 15092.08
546.2054, 15083.29
546.6875, 15074.88
547.1696, 15069.02
547.6517, 15067.10
548.1339, 15065.59
548.6160, 15060.24
549.0981, 15052.70
549.5802, 15047.98
550.0623, 15047.93
550.5444, 15049.85
551.0266, 15055.08
551.5087, 15060.69
551.9908, 15058.24
552.4729, 15044.88
552.9550, 15029.57
553.4371, 15024.09
553.9193, 15031.04
554.4014, 15032.22
554.8835, 15021.08
555.3656, 15012.40
555.8477, 15013.54
556.3298, 15019.96
556.8120, 15024.35
557.2941, 15024.11
557.7762, 15022.91
558.2583, 15026.82
558.7404, 15036.87
559.2225, 15042.87
559.7047, 15040.53
560.1868, 15039.24
560.6689, 15047.17
561.1510, 15057.99
561.6331, 15060.83
562.1152, 15051.54
562.5974, 15035.83
563.0795, 15016.19
563.5616, 14994.07
564.0437, 14974.90
564.5258, 14959.78
565.0079, 14947.15
565.4901, 14934.88
565.9722, 14923.59
566.4543, 14918.38
566.9364, 14928.24
567.4185, 14934.05
567.9006, 14925.89
568.3828, 14910.39
568.8649, 14896.06
569.3470, 14885.56
569.8291, 14877.93
570.3112, 14872.77
570.7933, 14870.36
571.2755, 14865.13
571.7576, 14853.63
572.2397, 14843.53
572.7218, 14837.18
573.2039, 14832.79
573.6860, 14827.80
574.1682, 14821.58
574.6503, 14816.86
575.1324, 14818.44
575.6145, 14824.08
576.0966, 14823.33
576.5787, 14814.24
577.0609, 14803.70
577.5430, 14795.70
578.0251, 14789.22
578.5072, 14781.60
578.9893, 14771.81
579.4714, 14763.13
579.9536, 14757.27
580.4357, 14753.03
580.9178, 14750.81
581.3999, 14749.69
581.8820, 14743.55
582.3641, 14726.41
582.8463, 14701.53
583.3284, 14687.77
583.8105, 14694.75
584.2926, 14699.47
584.7747, 14703.60
585.2568, 14702.57
585.7390, 14689.42
586.2211, 14666.64
586.7032, 14645.59
587.1853, 14634.27
587.6674, 14630.55
588.1495, 14630.42
588.6317, 14635.08
589.1138, 14635.52
589.5959, 14625.49
590.0780, 14613.08
590.5601, 14608.69
591.0422, 14612.10
591.5244, 14613.85
592.0065, 14610.16
592.4886, 14604.18
592.9707, 14597.28
593.4528, 14590.35
593.9349, 14585.77
594.4171, 14584.54
594.8992, 14586.35
595.3813, 14591.02
595.8634, 14600.37
596.3455, 14607.04
596.8276, 14616.06
597.3098, 14617.53
597.7919, 14602.67
598.2740, 14578.57
598.7561, 14555.71
599.2382, 14538.15
599.7203, 14526.85
600.2025, 14525.81
