##NAMES=Kyanite
##RRUFFID=R040119
##IDEAL CHEMISTRY=Al_2_OSiO_4_
##LOCALITY=Rutherford County, North Carolina, USA
##OWNER=RRUFF
##SOURCE=University of Arizona Mineral Museum
##DESCRIPTION=Blue bladed crystal
##STATUS=The identification of this mineral has been confirmed by X-ray diffraction and chemical analysis
##URL=rruff.info/R040119
##MEASURED CHEMISTRY=(Al_0.99_Fe^3+^_0.01_)_2_OSi_1.00_O_4_
136.1626, 776.2065
136.6447, 800.5908
137.1268, 818.4161
137.6089, 827.8567
138.0910, 836.6895
138.5731, 850.0909
139.0553, 870.6541
139.5374, 884.1500
140.0195, 888.5082
140.5016, 885.3532
140.9837, 880.0007
141.4658, 870.1788
141.9480, 861.6506
142.4301, 858.5194
142.9122, 862.4255
143.3943, 868.2794
143.8764, 875.9054
144.3585, 885.2096
144.8407, 895.0433
145.3228, 905.6110
145.8049, 916.4896
146.2870, 927.0934
146.7691, 935.7293
147.2512, 946.1265
147.7334, 959.1782
148.2155, 975.6309
148.6976, 991.9663
149.1797, 1008.101
149.6618, 1024.185
150.1439, 1040.265
150.6261, 1058.120
151.1082, 1074.190
151.5903, 1087.401
152.0724, 1097.212
152.5545, 1105.265
153.0366, 1109.388
153.5188, 1111.856
154.0009, 1117.112
154.4830, 1134.047
154.9651, 1147.815
155.4472, 1150.919
155.9293, 1129.626
156.4115, 1116.576
156.8936, 1124.184
157.3757, 1146.585
157.8578, 1163.492
158.3399, 1165.287
158.8221, 1161.869
159.3042, 1159.706
159.7863, 1159.845
160.2684, 1161.940
160.7505, 1166.394
161.2326, 1173.040
161.7148, 1180.293
162.1969, 1189.469
162.6790, 1198.206
163.1611, 1204.127
163.6432, 1205.948
164.1253, 1205.249
164.6075, 1200.043
165.0896, 1190.161
165.5717, 1185.663
166.0538, 1197.998
166.5359, 1218.264
167.0180, 1233.738
167.5002, 1235.343
167.9823, 1232.702
168.4644, 1232.298
168.9465, 1234.519
169.4286, 1239.594
169.9107, 1249.935
170.3929, 1263.321
170.8750, 1275.350
171.3571, 1284.404
171.8392, 1290.550
172.3213, 1292.361
172.8034, 1287.911
173.2856, 1284.830
173.7677, 1293.398
174.2498, 1310.332
174.7319, 1324.210
175.2140, 1325.757
175.6961, 1320.473
176.1783, 1316.617
176.6604, 1315.932
177.1425, 1316.728
177.6246, 1317.168
178.1067, 1317.316
178.5888, 1317.622
179.0710, 1318.568
179.5531, 1319.903
180.0352, 1321.149
180.5173, 1322.459
180.9994, 1323.331
181.4815, 1321.130
181.9637, 1316.027
182.4458, 1313.930
182.9279, 1322.443
183.4100, 1338.881
183.8921, 1353.278
184.3742, 1362.663
184.8564, 1368.268
185.3385, 1372.240
185.8206, 1374.547
186.3027, 1376.017
186.7848, 1377.442
187.2669, 1378.782
187.7491, 1379.818
188.2312, 1380.834
188.7133, 1381.507
189.1954, 1379.372
189.6775, 1373.541
190.1596, 1368.988
190.6418, 1375.402
191.1239, 1392.333
191.6060, 1403.069
192.0881, 1395.732
192.5702, 1373.300
193.0524, 1362.490
193.5345, 1364.736
194.0166, 1374.849
194.4987, 1387.488
194.9808, 1403.064
195.4629, 1414.937
195.9451, 1418.220
196.4272, 1413.160
196.9093, 1409.963
197.3914, 1408.872
197.8735, 1409.762
198.3556, 1411.975
198.8378, 1415.198
199.3199, 1421.549
199.8020, 1433.545
200.2841, 1451.598
200.7662, 1467.606
201.2483, 1481.121
201.7305, 1492.323
202.2126, 1501.501
202.6947, 1508.508
203.1768, 1514.034
203.6589, 1515.349
204.1410, 1510.051
204.6232, 1519.469
205.1053, 1551.856
205.5874, 1597.398
206.0695, 1622.960
206.5516, 1625.165
207.0337, 1616.255
207.5159, 1603.219
207.9980, 1585.913
208.4801, 1565.476
208.9622, 1538.711
209.4443, 1508.991
209.9264, 1494.671
210.4086, 1500.962
210.8907, 1512.219
211.3728, 1516.146
211.8549, 1510.456
212.3370, 1505.324
212.8191, 1502.125
213.3013, 1500.729
213.7834, 1499.908
214.2655, 1499.801
214.7476, 1500.047
215.2297, 1500.703
215.7118, 1502.623
216.1940, 1502.432
216.6761, 1498.683
217.1582, 1491.616
217.6403, 1486.638
218.1224, 1483.111
218.6045, 1482.579
219.0867, 1487.108
219.5688, 1498.568
220.0509, 1510.587
220.5330, 1521.262
221.0151, 1530.648
221.4972, 1543.192
221.9794, 1561.824
222.4615, 1580.466
222.9436, 1591.863
223.4257, 1591.022
223.9078, 1593.482
224.3899, 1604.080
224.8721, 1623.940
225.3542, 1639.855
225.8363, 1655.135
226.3184, 1663.504
226.8005, 1655.611
227.2827, 1621.466
227.7648, 1590.117
228.2469, 1568.695
228.7290, 1558.088
229.2111, 1551.288
229.6932, 1550.424
230.1754, 1551.722
230.6575, 1550.179
231.1396, 1544.591
231.6217, 1538.156
232.1038, 1530.288
232.5859, 1519.193
233.0681, 1516.759
233.5502, 1526.027
234.0323, 1541.720
234.5144, 1557.180
234.9965, 1574.768
235.4786, 1587.831
235.9608, 1593.290
236.4429, 1588.950
236.9250, 1587.000
237.4071, 1588.316
237.8892, 1591.500
238.3713, 1594.395
238.8535, 1596.882
239.3356, 1599.263
239.8177, 1601.403
240.2998, 1602.866
240.7819, 1605.516
241.2640, 1607.883
241.7462, 1612.329
242.2283, 1624.531
242.7104, 1653.352
243.1925, 1675.255
243.6746, 1680.657
244.1567, 1663.130
244.6389, 1651.262
245.1210, 1648.016
245.6031, 1648.670
246.0852, 1644.661
246.5673, 1633.291
247.0494, 1621.781
247.5316, 1611.603
248.0137, 1600.763
248.4958, 1599.068
248.9779, 1612.407
249.4600, 1631.594
249.9421, 1638.773
250.4243, 1628.877
250.9064, 1616.172
251.3885, 1605.676
251.8706, 1598.144
252.3527, 1589.930
252.8348, 1579.786
253.3170, 1569.741
253.7991, 1564.102
254.2812, 1564.841
254.7633, 1566.347
255.2454, 1567.286
255.7275, 1568.801
256.2097, 1564.546
256.6918, 1550.348
257.1739, 1533.292
257.6560, 1527.431
258.1381, 1537.872
258.6202, 1548.986
259.1024, 1554.511
259.5845, 1552.493
260.0666, 1552.760
260.5487, 1555.651
261.0308, 1560.580
261.5129, 1566.903
261.9951, 1575.119
262.4772, 1583.421
262.9593, 1591.305
263.4414, 1599.139
263.9235, 1605.405
264.4056, 1611.046
264.8878, 1614.281
265.3699, 1610.345
265.8520, 1595.364
266.3341, 1584.179
266.8162, 1583.143
267.2983, 1593.698
267.7805, 1605.081
268.2626, 1616.617
268.7447, 1629.651
269.2268, 1648.602
269.7089, 1676.693
270.1910, 1698.966
270.6732, 1705.965
271.1553, 1694.788
271.6374, 1697.369
272.1195, 1716.202
272.6016, 1745.182
273.0837, 1772.761
273.5659, 1797.323
274.0480, 1829.175
274.5301, 1874.407
275.0122, 1933.316
275.4943, 1995.807
275.9764, 2067.668
276.4586, 2132.216
276.9407, 2165.874
277.4228, 2167.739
277.9049, 2144.362
278.3870, 2089.743
278.8691, 2005.627
279.3513, 1929.929
279.8334, 1860.948
280.3155, 1804.765
280.7976, 1772.648
281.2798, 1765.599
281.7619, 1765.508
282.2440, 1767.468
282.7261, 1771.219
283.2082, 1772.287
283.6903, 1768.418
284.1725, 1770.178
284.6546, 1795.589
285.1367, 1843.463
285.6188, 1887.952
286.1009, 1914.660
286.5830, 1930.048
287.0652, 1962.593
287.5473, 2013.073
288.0294, 2074.212
288.5115, 2143.367
288.9936, 2219.172
289.4757, 2288.213
289.9579, 2352.363
290.4400, 2405.407
290.9221, 2426.402
291.4042, 2413.583
291.8863, 2390.726
292.3684, 2370.553
292.8506, 2357.294
293.3327, 2369.140
293.8148, 2419.430
294.2969, 2493.933
294.7790, 2563.552
295.2611, 2628.607
295.7433, 2704.938
296.2254, 2794.807
296.7075, 2907.325
297.1896, 3061.797
297.6717, 3261.974
298.1538, 3511.924
298.6360, 3854.034
299.1181, 4280.708
299.6002, 4665.108
300.0823, 4995.126
300.5644, 5208.139
301.0465, 5173.929
301.5287, 4776.442
302.0108, 4221.890
302.4929, 3686.708
302.9750, 3176.211
303.4571, 2751.129
303.9392, 2467.347
304.4214, 2285.005
304.9035, 2148.846
305.3856, 2060.804
305.8677, 1997.014
306.3498, 1938.870
306.8319, 1889.177
307.3141, 1856.896
307.7962, 1861.358
308.2783, 1879.811
308.7604, 1889.339
309.2425, 1881.532
309.7246, 1872.248
310.2068, 1869.535
310.6889, 1873.000
311.1710, 1881.490
311.6531, 1898.060
312.1352, 1917.248
312.6173, 1933.933
313.0995, 1944.753
313.5816, 1959.971
314.0637, 1986.995
314.5458, 2021.709
315.0279, 2056.526
315.5100, 2083.366
315.9922, 2113.446
316.4743, 2151.698
316.9564, 2198.036
317.4385, 2255.317
317.9206, 2328.633
318.4027, 2412.521
318.8849, 2499.350
319.3670, 2582.666
319.8491, 2672.455
320.3312, 2764.008
320.8133, 2850.973
321.2954, 2980.213
321.7776, 3166.168
322.2597, 3397.287
322.7418, 3661.256
323.2239, 4041.899
323.7060, 4369.830
324.1881, 4643.753
324.6703, 4874.217
325.1524, 4903.490
325.6345, 4600.277
326.1166, 4154.402
326.5987, 3714.366
327.0808, 3215.512
327.5630, 2800.344
328.0451, 2496.036
328.5272, 2299.566
329.0093, 2145.678
329.4914, 2052.893
329.9735, 1989.092
330.4557, 1935.297
330.9378, 1893.317
331.4199, 1858.123
331.9020, 1829.001
332.3841, 1806.144
332.8662, 1791.036
333.3484, 1786.479
333.8305, 1785.647
334.3126, 1784.618
334.7947, 1782.180
335.2768, 1782.959
335.7589, 1786.074
336.2411, 1793.145
336.7232, 1810.248
337.2053, 1840.853
337.6874, 1871.002
338.1695, 1893.034
338.6516, 1905.301
339.1338, 1923.704
339.6159, 1951.502
340.0980, 1980.480
340.5801, 1997.884
341.0622, 2003.918
341.5443, 1997.392
342.0265, 1971.992
342.5086, 1930.670
342.9907, 1899.382
343.4728, 1879.405
343.9549, 1865.502
344.4370, 1851.836
344.9192, 1838.713
345.4013, 1828.488
345.8834, 1821.702
346.3655, 1818.630
346.8476, 1821.111
347.3297, 1829.217
347.8119, 1839.966
348.2940, 1851.401
348.7761, 1863.341
349.2582, 1874.724
349.7403, 1884.184
350.2225, 1894.342
350.7046, 1907.142
351.1867, 1923.149
351.6688, 1945.876
352.1509, 1981.702
352.6331, 2024.909
353.1152, 2065.716
353.5973, 2097.920
354.0794, 2134.838
354.5615, 2188.619
355.0436, 2256.951
355.5258, 2332.796
356.0079, 2404.648
356.4900, 2486.561
356.9721, 2593.631
357.4542, 2733.597
357.9363, 2880.338
358.4185, 3059.583
358.9006, 3231.478
359.3827, 3327.073
359.8648, 3303.432
360.3469, 3209.276
360.8290, 3043.047
361.3112, 2788.967
361.7933, 2578.132
362.2754, 2472.144
362.7575, 2421.516
363.2396, 2372.267
363.7217, 2295.655
364.2039, 2236.598
364.6860, 2209.837
365.1681, 2215.829
365.6502, 2230.842
366.1323, 2255.115
366.6144, 2285.763
367.0966, 2320.912
367.5787, 2352.635
368.0608, 2398.145
368.5429, 2462.794
369.0250, 2543.765
369.5071, 2626.845
369.9893, 2729.924
370.4714, 2814.150
370.9535, 2859.421
371.4356, 2853.302
371.9177, 2833.474
372.3998, 2790.474
372.8820, 2738.913
373.3641, 2710.142
373.8462, 2704.350
374.3283, 2720.893
374.8104, 2762.652
375.2925, 2831.780
375.7747, 2909.958
376.2568, 3005.469
376.7389, 3094.970
377.2210, 3139.008
377.7031, 3134.175
378.1852, 3132.090
378.6674, 3143.782
379.1495, 3171.050
379.6316, 3219.955
380.1137, 3289.287
380.5958, 3387.528
381.0779, 3522.809
381.5601, 3695.014
382.0422, 3898.172
382.5243, 4154.461
383.0064, 4416.450
383.4885, 4637.503
383.9706, 4811.458
384.4528, 4878.162
384.9349, 4755.271
385.4170, 4509.588
385.8991, 4234.175
386.3812, 3922.837
386.8633, 3640.001
387.3455, 3427.381
387.8276, 3287.876
388.3097, 3225.823
388.7918, 3265.320
389.2739, 3370.986
389.7560, 3536.588
390.2382, 3768.320
390.7203, 3978.111
391.2024, 4192.792
391.6845, 4334.149
392.1666, 4313.390
392.6487, 3953.985
393.1309, 3562.269
393.6130, 3236.034
394.0951, 2976.569
394.5772, 2784.375
395.0593, 2678.587
395.5414, 2627.682
396.0236, 2613.311
396.5057, 2650.856
396.9878, 2703.695
397.4699, 2767.740
397.9520, 2844.677
398.4341, 2938.100
398.9163, 3037.223
399.3984, 3163.954
399.8805, 3326.513
400.3626, 3528.254
400.8447, 3759.601
401.3268, 4044.996
401.8090, 4341.663
402.2911, 4615.357
402.7732, 4911.796
403.2553, 5057.035
403.7374, 4984.404
404.2195, 4703.077
404.7017, 4360.870
405.1838, 3932.538
405.6659, 3507.650
406.1480, 3161.257
406.6301, 2891.883
407.1122, 2682.538
407.5944, 2540.129
408.0765, 2445.308
408.5586, 2354.794
409.0407, 2268.399
409.5228, 2200.479
410.0049, 2170.387
410.4871, 2166.905
410.9692, 2158.130
411.4513, 2140.017
411.9334, 2119.844
412.4155, 2103.715
412.8976, 2091.705
413.3798, 2084.464
413.8619, 2082.738
414.3440, 2085.406
414.8261, 2091.125
415.3082, 2099.918
415.7903, 2112.736
416.2725, 2134.373
416.7546, 2158.879
417.2367, 2180.252
417.7188, 2201.494
418.2009, 2213.217
418.6830, 2207.938
419.1652, 2188.591
419.6473, 2166.127
420.1294, 2138.203
420.6115, 2112.413
421.0937, 2091.474
421.5758, 2072.722
422.0579, 2066.459
422.5400, 2080.772
423.0221, 2106.912
423.5042, 2130.965
423.9864, 2153.556
424.4685, 2172.313
424.9506, 2182.232
425.4327, 2181.025
425.9148, 2199.926
426.3969, 2246.604
426.8791, 2304.591
427.3612, 2358.940
427.8433, 2406.425
428.3254, 2459.297
428.8075, 2517.020
429.2896, 2582.097
429.7718, 2663.434
430.2539, 2763.043
430.7360, 2868.443
431.2181, 2967.205
431.7002, 3060.995
432.1823, 3174.413
432.6645, 3309.312
433.1466, 3462.384
433.6287, 3640.821
434.1108, 3837.027
434.5929, 4014.477
435.0750, 4169.539
435.5572, 4289.605
436.0393, 4347.290
436.5214, 4343.788
437.0035, 4304.415
437.4856, 4261.795
437.9677, 4192.266
438.4499, 4057.344
438.9320, 3821.265
439.4141, 3561.888
439.8962, 3311.060
440.3783, 3078.950
440.8604, 2884.371
441.3426, 2746.100
441.8247, 2642.711
442.3068, 2564.768
442.7889, 2512.470
443.2710, 2479.544
443.7531, 2466.448
444.2353, 2471.159
444.7174, 2491.232
445.1995, 2542.273
445.6816, 2591.147
446.1637, 2639.736
446.6458, 2685.598
447.1280, 2705.581
447.6101, 2700.330
448.0922, 2668.240
448.5743, 2604.346
449.0564, 2490.960
449.5385, 2390.390
450.0207, 2304.137
450.5028, 2231.731
450.9849, 2173.559
451.4670, 2130.742
451.9491, 2099.290
452.4312, 2080.586
452.9134, 2073.113
453.3955, 2064.024
453.8776, 2052.979
454.3597, 2042.944
454.8418, 2037.112
455.3239, 2034.899
455.8061, 2033.840
456.2882, 2032.533
456.7703, 2033.441
457.2524, 2041.831
457.7345, 2056.089
458.2166, 2069.868
458.6988, 2076.420
459.1809, 2081.902
459.6630, 2094.587
460.1451, 2116.736
460.6272, 2136.369
461.1093, 2137.890
461.5915, 2134.860
462.0736, 2144.168
462.5557, 2189.129
463.0378, 2229.995
463.5199, 2249.906
464.0020, 2250.967
464.4842, 2251.205
464.9663, 2259.067
465.4484, 2263.435
465.9305, 2257.784
466.4126, 2232.389
466.8947, 2213.396
467.3769, 2199.794
467.8590, 2193.030
468.3411, 2196.076
468.8232, 2212.208
469.3053, 2231.846
469.7874, 2253.063
470.2696, 2275.830
470.7517, 2297.868
471.2338, 2316.605
471.7159, 2342.225
472.1980, 2383.698
472.6801, 2441.085
473.1623, 2506.421
473.6444, 2579.522
474.1265, 2659.077
474.6086, 2740.748
475.0907, 2825.694
475.5728, 2921.406
476.0550, 3034.168
476.5371, 3159.930
477.0192, 3286.025
477.5013, 3412.268
477.9834, 3557.563
478.4655, 3740.332
478.9477, 3950.569
479.4298, 4171.347
479.9119, 4383.743
480.3940, 4626.678
480.8761, 4910.947
481.3582, 5239.217
481.8404, 5616.747
482.3225, 6058.163
482.8046, 6538.459
483.2867, 7070.449
483.7688, 7694.852
484.2509, 8231.946
484.7331, 8781.356
485.2152, 9173.439
485.6973, 9249.049
486.1794, 8904.891
486.6615, 8408.326
487.1436, 7734.628
487.6258, 6932.012
488.1079, 6215.945
488.5900, 5585.615
489.0721, 5057.150
489.5542, 4655.234
490.0363, 4378.487
490.5185, 4148.430
491.0006, 3969.803
491.4827, 3822.033
491.9648, 3692.240
492.4470, 3576.282
492.9291, 3452.887
493.4112, 3312.840
493.8933, 3165.952
494.3754, 3023.968
494.8575, 2887.837
495.3397, 2772.039
495.8218, 2689.213
496.3039, 2628.312
496.7860, 2581.654
497.2681, 2551.522
497.7502, 2518.404
498.2324, 2464.061
498.7145, 2402.456
499.1966, 2351.523
499.6787, 2321.525
500.1608, 2298.581
500.6429, 2279.999
501.1251, 2265.503
501.6072, 2252.801
502.0893, 2239.076
502.5714, 2229.270
503.0535, 2226.424
503.5356, 2235.032
504.0178, 2239.708
504.4999, 2239.006
504.9820, 2235.632
505.4641, 2234.457
505.9462, 2236.649
506.4283, 2234.266
506.9105, 2221.109
507.3926, 2202.542
507.8747, 2203.622
508.3568, 2225.445
508.8389, 2247.042
509.3210, 2252.167
509.8032, 2245.243
510.2853, 2238.474
510.7674, 2233.544
511.2495, 2228.100
511.7316, 2222.354
512.2137, 2214.128
512.6959, 2199.192
513.1780, 2172.478
513.6601, 2141.117
514.1422, 2104.078
514.6243, 2063.735
515.1064, 2035.420
515.5886, 2037.696
516.0707, 2045.020
516.5528, 2041.106
517.0349, 2016.221
517.5170, 1996.096
517.9991, 1986.538
518.4813, 1981.843
518.9634, 1975.053
519.4455, 1965.071
519.9276, 1954.882
520.4097, 1945.078
520.8918, 1935.666
521.3740, 1924.128
521.8561, 1908.356
522.3382, 1897.445
522.8203, 1901.067
523.3024, 1917.945
523.7845, 1925.472
524.2667, 1921.034
524.7488, 1912.534
525.2309, 1909.464
525.7130, 1910.433
526.1951, 1910.717
526.6772, 1908.967
527.1594, 1905.435
527.6415, 1897.733
528.1236, 1887.559
528.6057, 1882.262
529.0878, 1893.436
529.5699, 1906.305
530.0521, 1907.384
530.5342, 1891.079
531.0163, 1880.778
531.4984, 1890.666
531.9805, 1907.390
532.4626, 1916.783
532.9448, 1914.302
533.4269, 1907.238
533.9090, 1891.885
534.3911, 1872.044
534.8732, 1863.795
535.3553, 1872.103
535.8375, 1882.675
536.3196, 1889.811
536.8017, 1893.536
537.2838, 1895.118
537.7659, 1894.282
538.2480, 1892.258
538.7302, 1889.600
539.2123, 1886.581
539.6944, 1884.982
540.1765, 1884.603
540.6586, 1886.881
541.1407, 1897.293
541.6229, 1913.015
542.1050, 1924.083
542.5871, 1919.524
543.0692, 1911.612
543.5513, 1911.895
544.0334, 1920.932
544.5156, 1930.666
544.9977, 1938.656
545.4798, 1945.032
545.9619, 1949.847
546.4440, 1953.760
546.9261, 1955.154
547.4083, 1953.843
547.8904, 1949.795
548.3725, 1942.313
548.8546, 1924.876
549.3367, 1914.900
549.8188, 1919.087
550.3010, 1935.872
550.7831, 1945.746
551.2652, 1946.260
551.7473, 1948.056
552.2294, 1960.189
552.7115, 1981.524
553.1937, 1999.238
553.6758, 2011.186
554.1579, 2024.215
554.6400, 2049.419
555.1221, 2082.974
555.6042, 2113.084
556.0864, 2130.711
556.5685, 2148.453
557.0506, 2175.874
557.5327, 2212.910
558.0148, 2259.130
558.4969, 2319.461
558.9791, 2385.295
559.4612, 2452.567
559.9433, 2521.764
560.4254, 2586.215
560.9075, 2661.498
561.3896, 2721.298
561.8718, 2744.666
562.3539, 2723.435
562.8360, 2677.546
563.3181, 2598.833
563.8002, 2501.421
564.2823, 2417.331
564.7645, 2348.822
565.2466, 2286.411
565.7287, 2225.416
566.2108, 2167.753
566.6929, 2125.125
567.1750, 2098.135
567.6572, 2080.241
568.1393, 2070.057
568.6214, 2064.764
569.1035, 2058.393
569.5856, 2048.978
570.0677, 2042.414
570.5499, 2050.582
571.0320, 2063.323
571.5141, 2064.656
571.9962, 2038.140
572.4783, 2009.666
572.9604, 1985.499
573.4426, 1966.986
573.9247, 1959.525
574.4068, 1976.928
574.8889, 1993.903
575.3710, 1999.935
575.8531, 1992.160
576.3353, 1988.081
576.8174, 1988.100
577.2995, 1991.281
577.7816, 1997.109
578.2637, 2005.696
578.7458, 2015.790
579.2280, 2027.585
579.7101, 2040.124
580.1922, 2051.012
580.6743, 2060.769
581.1564, 2072.335
581.6385, 2090.180
582.1207, 2108.965
582.6028, 2119.692
583.0849, 2123.409
583.5670, 2129.056
584.0491, 2149.178
584.5313, 2168.663
585.0134, 2175.638
585.4955, 2166.621
585.9776, 2150.685
586.4597, 2125.845
586.9418, 2096.971
587.4240, 2069.409
587.9061, 2036.478
588.3882, 2016.021
588.8703, 2017.326
589.3524, 2030.325
589.8345, 2022.228
590.3167, 1986.370
590.7988, 1954.980
591.2809, 1944.301
591.7630, 1950.159
592.2451, 1951.214
592.7272, 1947.180
593.2094, 1945.315
593.6915, 1954.336
594.1736, 1969.280
594.6557, 1980.057
595.1378, 1983.752
595.6199, 1987.907
596.1021, 1998.606
596.5842, 2013.172
597.0663, 2027.851
597.5485, 2037.309
598.0306, 2050.788
598.5127, 2073.166
598.9948, 2102.519
599.4769, 2130.780
599.9590, 2159.759
600.4412, 2185.040
600.9233, 2202.251
601.4054, 2210.180
601.8875, 2231.504
602.3696, 2269.378
602.8517, 2312.633
603.3339, 2354.001
603.8160, 2393.312
604.2981, 2422.637
604.7802, 2440.299
605.2623, 2449.710
605.7444, 2458.892
606.2266, 2463.385
606.7087, 2450.657
607.1908, 2405.261
607.6729, 2352.148
608.1550, 2307.116
608.6371, 2270.001
609.1193, 2238.697
609.6014, 2212.920
610.0835, 2192.626
610.5656, 2179.773
611.0477, 2175.541
611.5298, 2169.615
612.0120, 2158.257
612.4941, 2148.507
612.9762, 2145.419
613.4583, 2150.600
613.9404, 2156.839
614.4225, 2164.244
614.9047, 2171.938
615.3868, 2178.135
615.8689, 2183.118
616.3510, 2190.874
616.8331, 2206.340
617.3152, 2220.236
617.7974, 2213.971
618.2795, 2192.410
618.7616, 2174.197
619.2437, 2173.602
619.7258, 2177.330
620.2079, 2173.747
620.6901, 2162.395
621.1722, 2156.344
621.6543, 2164.095
622.1364, 2175.868
622.6185, 2184.846
623.1006, 2186.512
623.5828, 2194.825
624.0649, 2212.234
624.5470, 2234.043
625.0291, 2253.906
625.5112, 2270.466
625.9933, 2293.386
626.4755, 2326.570
626.9576, 2363.717
627.4397, 2393.388
627.9218, 2415.543
628.4039, 2429.865
628.8860, 2429.898
629.3682, 2425.324
629.8503, 2430.396
630.3324, 2443.922
630.8145, 2456.491
631.2966, 2461.320
631.7787, 2464.001
632.2609, 2467.083
632.7430, 2469.133
