##NAMES=Labuntsovite-Mn
##RRUFFID=R110169
##IDEAL CHEMISTRY=Na_4_K_4_Mn^2+^_2_Ti^4+^_8_O_4_(Si_4_O_12_)_4_(OH)_4_&#183;10-12H_2_O
##LOCALITY=Mont St-Hilaire, Quebec, Canada
##OWNER=RRUFF
##SOURCE=Donald V Doell
##DESCRIPTION=Brownish-red bladed crystals associated with albite
##STATUS=The identification of this mineral has been confirmed only by single crystal X-ray diffraction.
##URL=rruff.info/R110169
177.2732, 327.9000
177.7553, 332.0245
178.2374, 334.9411
178.7195, 337.3647
179.2017, 339.8651
179.6838, 342.0748
180.1659, 343.0670
180.6480, 342.7802
181.1301, 342.5151
181.6122, 343.9385
182.0944, 346.5542
182.5765, 348.6740
183.0586, 349.0371
183.5407, 348.4969
184.0228, 348.9854
184.5049, 350.6297
184.9871, 352.6874
185.4692, 354.2925
185.9513, 355.5250
186.4334, 356.7364
186.9155, 358.0855
187.3976, 359.5418
187.8798, 361.0284
188.3619, 362.5224
188.8440, 364.0752
189.3261, 365.6830
189.8082, 367.3644
190.2903, 369.2290
190.7725, 371.6470
191.2546, 374.4477
191.7367, 376.3024
192.2188, 376.9921
192.7009, 377.1917
193.1830, 377.9362
193.6652, 379.2184
194.1473, 380.7228
194.6294, 382.3622
195.1115, 384.1157
195.5936, 385.6668
196.0757, 386.8961
196.5579, 388.0868
197.0400, 389.9334
197.5221, 392.5112
198.0042, 394.9326
198.4863, 396.7848
198.9684, 398.0616
199.4506, 398.7647
199.9327, 398.6545
200.4148, 398.2719
200.8969, 398.9171
201.3790, 400.7660
201.8611, 402.7342
202.3433, 404.0926
202.8254, 404.7592
203.3075, 405.8904
203.7896, 407.7171
204.2717, 409.9100
204.7538, 411.4748
205.2360, 412.1797
205.7181, 413.0845
206.2002, 415.0540
206.6823, 418.3578
207.1644, 420.8790
207.6465, 422.2819
208.1287, 422.8793
208.6108, 423.5233
209.0929, 424.0763
209.5750, 425.0393
210.0571, 426.9183
210.5392, 430.0443
211.0214, 432.5749
211.5035, 434.3348
211.9856, 435.4085
212.4677, 436.0538
212.9498, 436.1430
213.4319, 436.1226
213.9140, 436.2803
214.3962, 436.6918
214.8783, 437.0367
215.3604, 437.2511
215.8425, 437.3887
216.3246, 437.7124
216.8067, 438.4188
217.2889, 438.9340
217.7710, 438.8212
218.2531, 437.7801
218.7352, 437.0174
219.2173, 436.8312
219.6994, 436.9839
220.1816, 436.2772
220.6637, 434.1438
221.1458, 432.0875
221.6279, 431.2260
222.1100, 432.2690
222.5921, 432.5887
223.0743, 431.8659
223.5564, 430.2647
224.0385, 428.3973
224.5206, 426.0345
225.0027, 423.8476
225.4848, 422.2748
225.9670, 421.5060
226.4491, 420.9758
226.9312, 420.8126
227.4133, 420.8803
227.8954, 420.4604
228.3775, 419.3800
228.8597, 418.0865
229.3418, 416.8717
229.8239, 415.8596
230.3060, 414.5954
230.7881, 412.7878
231.2702, 410.6592
231.7524, 409.4058
232.2345, 409.3676
232.7166, 409.7130
233.1987, 410.0354
233.6808, 410.5346
234.1629, 410.5237
234.6451, 409.7684
235.1272, 408.4486
235.6093, 407.3391
236.0914, 406.4595
236.5735, 405.7633
237.0556, 405.2282
237.5378, 404.8579
238.0199, 404.6851
238.5020, 404.9111
238.9841, 405.3545
239.4662, 405.2097
239.9483, 404.1358
240.4305, 402.9659
240.9126, 402.1626
241.3947, 401.9932
241.8768, 401.6262
242.3589, 401.0214
242.8410, 400.2040
243.3232, 399.1938
243.8053, 397.7723
244.2874, 396.4588
244.7695, 395.5122
245.2516, 394.9506
245.7337, 394.7013
246.2159, 394.9470
246.6980, 395.4666
247.1801, 395.5368
247.6622, 394.9250
248.1443, 394.2012
248.6264, 393.5937
249.1086, 392.9820
249.5907, 392.7744
250.0728, 393.1079
250.5549, 393.8155
251.0370, 394.4171
251.5191, 394.7103
252.0013, 395.2362
252.4834, 396.4424
252.9655, 399.1110
253.4476, 400.2733
253.9297, 399.0568
254.4118, 396.7304
254.8940, 396.2475
255.3761, 398.5552
255.8582, 401.0303
256.3403, 402.4440
256.8224, 402.2001
257.3046, 402.9207
257.7867, 405.0963
258.2688, 407.9017
258.7509, 409.6264
259.2330, 409.6908
259.7151, 409.8060
260.1973, 410.6447
260.6794, 412.3365
261.1615, 414.0941
261.6436, 415.8940
262.1257, 417.7631
262.6078, 419.8434
263.0900, 422.3911
263.5721, 424.5115
264.0542, 425.7274
264.5363, 425.8552
265.0184, 426.5061
265.5005, 427.8828
265.9827, 429.5721
266.4648, 430.9286
266.9469, 431.7203
267.4290, 432.8500
267.9111, 434.7688
268.3932, 437.5459
268.8754, 439.7267
269.3575, 441.1267
269.8396, 442.1945
270.3217, 443.4313
270.8038, 444.8240
271.2859, 446.4129
271.7681, 448.4239
272.2502, 450.8004
272.7323, 452.0120
273.2144, 451.6956
273.6965, 450.9005
274.1786, 450.8210
274.6608, 451.6352
275.1429, 452.1755
275.6250, 452.0074
276.1071, 451.2813
276.5892, 451.2159
277.0714, 451.9801
277.5535, 452.9296
278.0356, 453.5218
278.5177, 453.7491
278.9998, 453.5844
279.4819, 452.7032
279.9641, 451.4806
280.4462, 451.9074
280.9283, 454.3512
281.4104, 456.8633
281.8925, 457.7046
282.3746, 456.8525
282.8568, 456.1408
283.3389, 455.7569
283.8210, 455.8060
284.3031, 456.8982
284.7852, 459.2021
285.2673, 461.2539
285.7495, 461.6279
286.2316, 460.5117
286.7137, 460.3854
287.1958, 461.8095
287.6779, 464.0157
288.1600, 465.2706
288.6422, 465.5534
289.1243, 466.1050
289.6064, 467.7526
290.0885, 470.3465
290.5706, 473.2514
291.0527, 476.5823
291.5349, 479.7456
292.0170, 481.5428
292.4991, 482.0667
292.9812, 482.6232
293.4633, 484.0792
293.9454, 486.1305
294.4276, 487.7260
294.9097, 488.7120
295.3918, 489.6154
295.8739, 491.2724
296.3560, 493.4954
296.8381, 495.4667
297.3203, 496.4365
297.8024, 496.9361
298.2845, 498.1364
298.7666, 500.1122
299.2487, 502.3290
299.7308, 504.4464
300.2130, 506.4242
300.6951, 508.1076
301.1772, 509.1276
301.6593, 509.9649
302.1414, 511.4360
302.6235, 513.5122
303.1057, 515.6063
303.5878, 517.1660
304.0699, 518.3921
304.5520, 519.6677
305.0341, 521.5872
305.5162, 523.1795
305.9984, 523.2469
306.4805, 521.9401
306.9626, 520.2839
307.4447, 518.9207
307.9268, 517.6481
308.4089, 516.2501
308.8911, 514.7601
309.3732, 512.9924
309.8553, 510.7779
310.3374, 508.1677
310.8195, 505.2732
311.3016, 501.9230
311.7838, 498.4774
312.2659, 495.3028
312.7480, 492.7067
313.2301, 489.8427
313.7122, 486.3343
314.1943, 482.1574
314.6765, 477.3350
315.1586, 471.2361
315.6407, 464.9645
316.1228, 459.1210
316.6049, 453.8466
317.0870, 448.8744
317.5692, 444.2526
318.0513, 439.8648
318.5334, 435.5768
319.0155, 431.4671
319.4976, 427.3423
319.9797, 423.1326
320.4619, 418.8220
320.9440, 414.5360
321.4261, 410.2953
321.9082, 406.1358
322.3903, 402.1090
322.8724, 398.0035
323.3546, 394.2461
323.8367, 391.1325
324.3188, 388.6316
324.8009, 385.8907
325.2830, 382.4017
325.7651, 378.8936
326.2473, 375.8494
326.7294, 373.6649
327.2115, 371.5556
327.6936, 369.5069
328.1757, 367.5190
328.6578, 365.4742
329.1400, 362.9850
329.6221, 360.7728
330.1042, 359.1389
330.5863, 358.3951
331.0684, 357.7076
331.5505, 356.9163
332.0327, 356.2066
332.5148, 356.0206
332.9969, 356.6033
333.4790, 357.3636
333.9611, 358.1358
334.4432, 358.9355
334.9254, 359.6567
335.4075, 360.3934
335.8896, 360.9458
336.3717, 360.8366
336.8538, 359.4311
337.3359, 358.9462
337.8180, 360.4164
338.3001, 363.7861
338.7823, 365.6329
339.2644, 365.5815
339.7465, 364.7369
340.2286, 364.1313
340.7107, 363.8412
341.1928, 363.3749
341.6750, 362.5267
342.1571, 361.4829
342.6392, 361.2148
343.1213, 361.9145
343.6034, 362.3785
344.0855, 361.5552
344.5677, 359.5094
345.0498, 357.6379
345.5319, 356.1583
346.0140, 354.8617
346.4961, 353.3661
346.9782, 351.6827
347.4604, 349.9093
347.9425, 347.8516
348.4246, 345.7122
348.9067, 344.4970
349.3888, 344.4123
349.8709, 344.4850
350.3531, 343.4402
350.8352, 341.5182
351.3173, 339.6211
351.7994, 338.0120
352.2815, 336.6930
352.7636, 335.7799
353.2458, 335.2681
353.7279, 334.7228
354.2100, 333.9406
354.6921, 332.8459
355.1742, 331.2860
355.6563, 328.9125
356.1385, 326.3492
356.6206, 324.5307
357.1027, 323.1895
357.5848, 321.0667
358.0669, 316.5725
358.5490, 311.3398
359.0312, 307.0233
359.5133, 304.2920
359.9954, 301.6282
360.4775, 298.1612
360.9596, 294.1072
361.4417, 289.9853
361.9239, 285.4668
362.4060, 281.3131
362.8881, 278.0824
363.3702, 276.0041
363.8523, 273.9188
364.3344, 271.5779
364.8166, 268.9879
365.2987, 266.1320
365.7808, 262.9050
366.2629, 259.5903
366.7450, 256.0969
367.2271, 252.4337
367.7093, 249.2588
368.1914, 247.0709
368.6735, 245.1247
369.1556, 242.9112
369.6377, 239.4122
370.1198, 236.9723
370.6020, 236.2806
371.0841, 236.7940
371.5662, 236.5312
372.0483, 235.0224
372.5304, 233.3074
373.0125, 231.7305
373.4947, 230.1551
373.9768, 229.1837
374.4589, 229.0479
374.9410, 229.3192
375.4231, 229.2778
375.9052, 228.7541
376.3874, 228.4128
376.8695, 228.5344
377.3516, 229.1086
377.8337, 229.3352
378.3158, 229.0367
378.7979, 228.9014
379.2801, 229.9180
379.7622, 232.1845
380.2443, 233.6081
380.7264, 233.5339
381.2085, 232.5845
381.6906, 232.5684
382.1728, 233.5046
382.6549, 234.2854
383.1370, 233.8679
383.6191, 232.5978
384.1012, 231.8779
384.5833, 231.8856
385.0655, 232.3004
385.5476, 232.6863
386.0297, 233.1073
386.5118, 233.7866
386.9939, 235.0391
387.4760, 236.5382
387.9582, 237.8849
388.4403, 239.0835
388.9224, 240.0329
389.4045, 240.3565
389.8866, 240.4518
390.3687, 240.8948
390.8509, 242.0660
391.3330, 243.4356
391.8151, 244.7028
392.2972, 245.8769
392.7793, 247.0122
393.2614, 248.0715
393.7436, 249.1366
394.2257, 250.2861
394.7078, 251.5293
395.1899, 252.8426
395.6720, 254.2198
396.1541, 255.6574
396.6363, 257.1519
397.1184, 258.8618
397.6005, 260.4766
398.0826, 261.8359
398.5647, 262.8903
399.0468, 264.0517
399.5290, 265.7110
400.0111, 267.2935
400.4932, 268.3316
400.9753, 268.2362
401.4574, 268.3942
401.9395, 269.0360
402.4217, 270.0484
402.9038, 270.9059
403.3859, 271.6748
403.8680, 272.1940
404.3501, 272.3150
404.8322, 271.8526
405.3144, 271.6262
405.7965, 271.6334
406.2786, 271.8804
406.7607, 272.5743
407.2428, 273.8989
407.7249, 274.6382
408.2071, 274.1855
408.6892, 272.7574
409.1713, 271.6864
409.6534, 270.9759
410.1355, 270.5835
410.6176, 270.5006
411.0998, 270.7083
411.5819, 271.1004
412.0640, 271.6300
412.5461, 272.3790
413.0282, 273.7342
413.5103, 275.5600
413.9925, 277.0924
414.4746, 277.5176
414.9567, 277.5003
415.4388, 278.0985
415.9209, 279.4395
416.4030, 281.0294
416.8852, 282.4238
417.3673, 283.8100
417.8494, 285.4931
418.3315, 288.0171
418.8136, 290.5425
419.2957, 292.4402
419.7779, 293.8004
420.2600, 295.3341
420.7421, 297.0381
421.2242, 299.2400
421.7063, 302.2252
422.1884, 306.6747
422.6706, 310.8032
423.1527, 313.7225
423.6348, 316.1090
424.1169, 319.2419
424.5990, 324.1884
425.0811, 329.1010
425.5633, 333.3789
426.0454, 336.9136
426.5275, 340.5360
427.0096, 344.3318
427.4917, 348.1753
427.9738, 351.9069
428.4560, 355.1220
428.9381, 359.1118
429.4202, 364.4591
429.9023, 370.5256
430.3844, 375.1659
430.8665, 377.7617
431.3487, 380.6129
431.8308, 385.2549
432.3129, 391.8157
432.7950, 396.9340
433.2771, 400.1864
433.7592, 403.0075
434.2414, 407.4691
434.7235, 413.4379
435.2056, 419.3101
435.6877, 424.7113
436.1698, 429.5962
436.6519, 433.6166
437.1341, 436.8378
437.6162, 440.3360
438.0983, 445.4639
438.5804, 451.3194
439.0625, 456.3013
439.5446, 460.0326
440.0268, 463.2591
440.5089, 466.2736
440.9910, 469.2975
441.4731, 472.7279
441.9552, 477.3604
442.4373, 481.9996
442.9195, 486.0157
443.4016, 489.3761
443.8837, 492.1622
444.3658, 494.4017
444.8479, 496.0780
445.3300, 497.1377
445.8122, 497.0582
446.2943, 497.0404
446.7764, 497.5773
447.2585, 498.3294
447.7406, 498.4308
448.2227, 497.6660
448.7049, 496.3994
449.1870, 494.8131
449.6691, 493.0458
450.1512, 490.2163
450.6333, 486.1267
451.1154, 481.2497
451.5976, 475.9231
452.0797, 470.0486
452.5618, 464.2916
453.0439, 458.8586
453.5260, 453.5908
454.0081, 447.5709
454.4903, 440.6805
454.9724, 433.6722
455.4545, 426.8051
455.9366, 420.1323
456.4187, 413.5060
456.9008, 406.9212
457.3830, 400.6447
457.8651, 395.2661
458.3472, 390.5667
458.8293, 386.1163
459.3114, 381.6739
459.7935, 377.4427
460.2757, 373.5231
460.7578, 369.9535
461.2399, 366.8451
461.7220, 364.6393
462.2041, 362.7173
462.6862, 360.3317
463.1684, 357.1345
463.6505, 354.6102
464.1326, 353.8629
464.6147, 354.1691
465.0968, 354.5889
465.5789, 354.7885
466.0611, 355.1265
466.5432, 355.4938
467.0253, 355.9672
467.5074, 357.2821
467.9895, 360.2310
468.4716, 363.4818
468.9538, 366.3020
469.4359, 367.9137
469.9180, 370.7384
470.4001, 375.1111
470.8822, 380.4908
471.3643, 386.1353
471.8465, 392.0534
472.3286, 398.1870
472.8107, 404.5039
473.2928, 410.9604
473.7749, 417.9130
474.2570, 425.3721
474.7392, 433.0811
475.2213, 440.7494
475.7034, 448.4495
476.1855, 456.7917
476.6676, 465.9634
477.1497, 475.4077
477.6319, 484.1164
478.1140, 492.3671
478.5961, 500.9400
479.0782, 510.3083
479.5603, 520.0983
480.0424, 529.7717
480.5246, 539.4346
481.0067, 549.5681
481.4888, 560.3355
481.9709, 571.7740
482.4530, 583.9723
482.9352, 597.2032
483.4173, 610.5339
483.8994, 623.5110
484.3815, 636.4202
484.8636, 649.5628
485.3457, 664.0148
485.8279, 677.6234
486.3100, 689.5878
486.7921, 699.9244
487.2742, 710.2607
487.7563, 722.2491
488.2384, 732.7012
488.7206, 739.9283
489.2027, 744.0153
489.6848, 744.7047
490.1669, 741.9354
490.6490, 735.8398
491.1311, 726.3047
491.6133, 713.2659
492.0954, 697.8276
492.5775, 680.1255
493.0596, 660.2977
493.5417, 638.0282
494.0238, 613.3693
494.5060, 588.4400
494.9881, 564.2102
495.4702, 541.0882
495.9523, 519.3401
496.4344, 499.0670
496.9165, 480.5178
497.3987, 464.4569
497.8808, 450.1890
498.3629, 436.7261
498.8450, 423.4987
499.3271, 411.0406
499.8092, 399.9409
500.2914, 389.9866
500.7735, 380.8965
501.2556, 372.0909
501.7377, 364.2289
502.2198, 357.8237
502.7019, 353.3409
503.1841, 349.0723
503.6662, 344.5883
504.1483, 340.2990
504.6304, 336.7318
505.1125, 334.1574
505.5946, 331.9356
506.0768, 329.9742
506.5589, 328.2800
507.0410, 326.8638
507.5231, 325.7536
508.0052, 324.8350
508.4873, 323.9116
508.9695, 322.9883
509.4516, 322.8194
509.9337, 323.4636
510.4158, 324.6210
510.8979, 325.9474
511.3800, 327.4914
511.8622, 329.4616
512.3443, 332.0654
512.8264, 334.9016
513.3085, 337.0923
513.7906, 338.9843
514.2728, 341.8203
514.7549, 347.2030
515.2370, 353.2484
515.7191, 358.1005
516.2012, 361.5598
516.6833, 365.5819
517.1655, 371.2536
517.6476, 377.8370
518.1297, 384.7080
518.6118, 391.9263
519.0939, 399.1952
519.5760, 406.2483
520.0582, 413.3102
520.5403, 421.1096
521.0224, 429.8718
521.5045, 438.9171
521.9866, 447.9951
522.4688, 457.1448
522.9509, 466.9491
523.4330, 477.6880
523.9151, 488.5490
524.3972, 498.9870
524.8793, 508.9484
525.3615, 518.5178
525.8436, 527.6125
526.3257, 536.7487
526.8078, 547.2441
527.2899, 558.6279
527.7720, 568.4567
528.2542, 575.1884
528.7363, 580.1697
529.2184, 585.3256
529.7005, 590.4440
530.1826, 594.6297
530.6647, 597.6869
531.1469, 599.3416
531.6290, 599.3356
532.1111, 597.5447
532.5932, 594.5168
533.0753, 590.6180
533.5574, 585.5383
534.0396, 579.0239
534.5217, 570.3568
535.0038, 560.9926
535.4859, 550.7362
535.9680, 539.8740
536.4501, 529.1849
536.9323, 519.0479
537.4144, 508.4557
537.8965, 496.9388
538.3786, 484.5070
538.8607, 472.5646
539.3428, 461.2250
539.8250, 450.3045
540.3071, 439.6712
540.7892, 429.4758
541.2713, 419.9313
541.7534, 411.2411
542.2355, 402.9437
542.7177, 394.2233
543.1998, 385.2810
543.6819, 376.9922
544.1640, 370.3471
544.6461, 364.2359
545.1282, 357.4331
545.6104, 350.1181
546.0925, 343.2318
546.5746, 337.1906
547.0567, 331.8199
547.5388, 327.0577
548.0209, 323.1146
548.5031, 319.1009
548.9852, 314.5499
549.4673, 309.9422
549.9494, 305.7750
550.4315, 302.1621
550.9136, 298.8286
551.3958, 295.8324
551.8779, 293.0607
552.3600, 290.1999
552.8421, 287.1472
553.3242, 284.3152
553.8063, 282.0245
554.2885, 280.1625
554.7706, 277.7304
555.2527, 274.6783
555.7348, 271.5963
556.2169, 268.8776
556.6990, 266.5444
557.1812, 264.7256
557.6633, 263.6062
558.1454, 262.3710
558.6275, 259.9406
559.1096, 256.8956
559.5917, 254.2029
560.0739, 252.4952
560.5560, 251.0447
561.0381, 249.6771
561.5202, 248.3255
562.0023, 246.6642
562.4844, 244.1335
562.9666, 241.6754
563.4487, 239.8014
563.9308, 238.6824
564.4129, 237.2935
564.8950, 235.3496
565.3771, 233.4431
565.8593, 232.1698
566.3414, 231.7979
566.8235, 230.8503
567.3056, 229.0679
567.7877, 226.8070
568.2698, 224.5216
568.7520, 222.2211
569.2341, 220.4101
569.7162, 219.5328
570.1983, 219.0780
570.6804, 218.0542
571.1625, 216.5347
571.6447, 214.9905
572.1268, 213.6884
572.6089, 212.5351
573.0910, 211.4535
573.5731, 210.4175
574.0552, 209.5185
574.5374, 209.1828
575.0195, 208.7997
575.5016, 207.7969
575.9837, 205.2734
576.4658, 203.1035
576.9479, 201.4502
577.4301, 200.2339
577.9122, 199.3260
578.3943, 198.8290
578.8764, 198.4178
579.3585, 198.0717
579.8406, 197.7462
580.3228, 197.0921
580.8049, 196.0667
581.2870, 194.9915
581.7691, 193.9724
582.2512, 193.0649
582.7333, 192.5858
583.2155, 192.6022
583.6975, 192.5750
584.1796, 191.8916
584.6617, 190.8438
585.1439, 189.9189
585.6260, 189.3269
586.1081, 188.7541
586.5902, 187.8885
587.0723, 186.9165
587.5544, 186.2108
588.0366, 185.9106
588.5187, 185.8371
589.0008, 186.0475
589.4829, 186.5124
589.9650, 186.7690
590.4471, 186.6957
590.9293, 186.5594
591.4114, 186.4624
591.8935, 186.3923
592.3756, 186.4672
592.8577, 186.7539
593.3398, 187.0021
593.8220, 186.8838
594.3041, 186.4539
594.7862, 186.0936
595.2683, 185.8151
595.7504, 185.7870
596.2325, 186.4482
596.7147, 187.5527
597.1968, 188.4451
597.6789, 188.9374
598.1610, 189.0448
598.6431, 188.3592
599.1252, 187.1554
599.6074, 186.6699
600.0895, 188.1944
600.5716, 189.8107
601.0537, 190.5686
601.5358, 190.2078
602.0179, 189.8147
602.5001, 189.2339
602.9822, 188.7918
603.4643, 188.7679
603.9464, 189.2830
604.4285, 189.7482
604.9106, 190.1350
605.3928, 190.4583
605.8749, 190.6478
606.3570, 190.7337
606.8391, 191.1435
607.3212, 192.2341
607.8033, 193.4221
608.2855, 193.7064
608.7676, 193.2833
609.2497, 192.8897
609.7318, 192.9624
610.2139, 193.2019
610.6960, 193.5191
611.1782, 193.8861
611.6603, 193.8599
612.1424, 192.8369
612.6245, 191.6979
613.1066, 191.0876
613.5887, 191.6858
614.0709, 191.2726
614.5530, 189.2108
615.0351, 186.7096
615.5172, 185.0486
615.9993, 184.4103
616.4814, 183.7406
616.9636, 182.9085
617.4457, 181.9481
617.9278, 180.8763
618.4099, 179.7003
618.8920, 178.5139
619.3741, 177.2969
619.8563, 176.1154
620.3384, 175.1000
620.8205, 174.2315
621.3026, 173.4212
621.7847, 172.7249
622.2668, 171.9847
622.7490, 171.0179
623.2311, 169.7679
623.7132, 168.7530
624.1953, 168.2909
624.6774, 167.9951
625.1595, 167.5898
625.6417, 166.9398
626.1238, 166.4213
626.6059, 165.9589
627.0880, 165.7211
627.5701, 166.1979
628.0522, 167.5519
628.5344, 167.9547
629.0165, 166.7366
629.4986, 164.7911
629.9807, 163.8454
630.4628, 163.7549
630.9449, 163.7628
631.4271, 163.4198
631.9092, 163.0238
632.3913, 162.9827
632.8734, 163.2281
633.3555, 163.3352
633.8376, 162.9507
634.3198, 162.4702
634.8019, 162.0890
635.2840, 161.8054
635.7661, 161.7362
636.2482, 161.9823
636.7303, 162.3671
637.2125, 162.8122
637.6946, 163.4309
638.1767, 163.7748
638.6588, 163.7873
639.1409, 163.5967
639.6230, 163.3142
640.1052, 162.9528
640.5873, 162.7343
641.0694, 162.7712
641.5515, 162.8865
642.0336, 162.7245
642.5157, 162.4075
642.9979, 162.2923
643.4800, 162.7225
643.9621, 163.2780
644.4442, 163.5785
644.9263, 163.6973
645.4084, 164.0870
645.8906, 165.3393
646.3727, 166.5029
646.8548, 167.0318
647.3369, 166.8053
647.8190, 166.9174
648.3011, 167.6191
648.7833, 168.2828
649.2654, 168.2976
649.7475, 167.5708
650.2296, 167.4317
650.7117, 168.0415
651.1938, 168.8961
651.6760, 169.3374
652.1581, 169.5034
652.6402, 169.8011
653.1223, 170.3328
653.6044, 171.0350
654.0865, 171.9093
654.5687, 172.9153
655.0508, 173.9778
655.5329, 175.1078
656.0150, 176.2634
656.4971, 177.6454
656.9792, 179.1107
657.4614, 179.9090
657.9435, 179.4420
658.4256, 179.1131
658.9077, 179.3620
659.3898, 180.1741
659.8719, 181.2596
660.3541, 182.6752
660.8362, 184.0907
661.3183, 185.2769
661.8004, 186.2711
662.2825, 187.2749
662.7646, 188.2993
663.2468, 189.3369
663.7289, 190.4602
664.2110, 191.5634
664.6931, 192.4936
665.1752, 193.1707
665.6573, 193.8094
666.1395, 194.3924
666.6216, 195.0412
667.1037, 195.9044
667.5858, 197.4966
668.0679, 198.6485
668.5500, 199.0065
669.0322, 198.9857
669.5143, 199.5404
669.9964, 200.8111
670.4785, 201.9856
670.9606, 202.8434
671.4427, 203.4188
671.9249, 203.7856
672.4070, 203.9465
672.8891, 203.9075
673.3712, 203.5543
673.8533, 203.0715
