##NAMES=Laihunite
##RRUFFID=R110051
##IDEAL CHEMISTRY=(Fe^3+^,Fe^2+^,[box])_2_SiO_4_
##LOCALITY=Laihe Fe deposit, Qianshan District, Anshan Prefecture, Liaoning Province, China
##OWNER=RRUFF
##SOURCE=Pingqu Fu
##DESCRIPTION=Unconsolidated black subhedral grains. Type sample
##STATUS=The identification of this mineral has been confirmed by single-crystal X-ray diffraction.
##URL=rruff.info/R110051
179.6838, 1220.465
180.1659, 1228.230
180.6480, 1240.029
181.1301, 1254.238
181.6122, 1270.793
182.0944, 1289.003
182.5765, 1306.111
183.0586, 1319.533
183.5407, 1331.297
184.0228, 1347.312
184.5049, 1368.160
184.9871, 1389.520
185.4692, 1406.137
185.9513, 1418.609
186.4334, 1429.107
186.9155, 1438.591
187.3976, 1446.974
187.8798, 1454.207
188.3619, 1460.327
188.8440, 1465.109
189.3261, 1468.434
189.8082, 1470.286
190.2903, 1469.889
190.7725, 1465.636
191.2546, 1458.283
191.7367, 1452.686
192.2188, 1449.263
192.7009, 1447.007
193.1830, 1443.784
193.6652, 1439.567
194.1473, 1437.141
194.6294, 1438.753
195.1115, 1444.063
195.5936, 1448.677
196.0757, 1451.885
196.5579, 1455.063
197.0400, 1461.401
197.5221, 1471.192
198.0042, 1480.903
198.4863, 1488.433
198.9684, 1493.726
199.4506, 1499.517
199.9327, 1506.034
200.4148, 1513.009
200.8969, 1519.823
201.3790, 1526.549
201.8611, 1533.151
202.3433, 1539.769
202.8254, 1546.475
203.3075, 1552.626
203.7896, 1558.376
204.2717, 1563.314
204.7538, 1566.720
205.2360, 1568.999
205.7181, 1568.252
206.2002, 1561.668
206.6823, 1547.647
207.1644, 1538.558
207.6465, 1537.179
208.1287, 1540.320
208.6108, 1537.931
209.0929, 1528.404
209.5750, 1517.750
210.0571, 1510.032
210.5392, 1506.097
211.0214, 1500.781
211.5035, 1493.115
211.9856, 1483.996
212.4677, 1476.417
212.9498, 1470.990
213.4319, 1465.784
213.9141, 1459.509
214.3962, 1451.843
214.8783, 1444.405
215.3604, 1437.651
215.8425, 1431.206
216.3246, 1423.728
216.8067, 1414.695
217.2889, 1405.482
217.7710, 1396.731
218.2531, 1388.273
218.7352, 1380.580
219.2173, 1373.459
219.6994, 1367.000
220.1816, 1362.336
220.6637, 1360.535
221.1458, 1358.487
221.6279, 1353.805
222.1100, 1344.530
222.5921, 1337.721
223.0743, 1334.346
223.5564, 1333.872
224.0385, 1334.164
224.5206, 1336.855
225.0027, 1337.826
225.4848, 1333.789
225.9670, 1321.431
226.4491, 1312.325
226.9312, 1308.104
227.4133, 1307.880
227.8954, 1307.164
228.3775, 1305.559
228.8597, 1304.085
229.3418, 1303.539
229.8239, 1304.745
230.3060, 1304.960
230.7881, 1303.989
231.2702, 1301.840
231.7524, 1298.338
232.2345, 1292.044
232.7166, 1286.417
233.1987, 1283.705
233.6808, 1285.267
234.1629, 1286.629
234.6451, 1287.255
235.1272, 1287.432
235.6093, 1288.563
236.0914, 1291.242
236.5735, 1294.057
237.0556, 1296.445
237.5378, 1299.221
238.0199, 1299.734
238.5020, 1296.942
238.9841, 1291.796
239.4662, 1288.202
239.9483, 1286.754
240.4305, 1286.116
240.9126, 1285.430
241.3947, 1283.804
241.8768, 1284.357
242.3589, 1288.685
242.8410, 1295.212
243.3232, 1297.974
243.8053, 1294.037
244.2874, 1290.337
244.7695, 1290.928
245.2516, 1299.460
245.7337, 1303.783
246.2159, 1301.392
246.6980, 1294.779
247.1801, 1292.255
247.6622, 1296.052
248.1443, 1300.469
248.6264, 1302.577
249.1086, 1300.761
249.5907, 1300.787
250.0728, 1304.437
250.5549, 1309.522
251.0370, 1309.649
251.5191, 1301.464
252.0013, 1293.689
252.4834, 1290.694
252.9655, 1295.713
253.4476, 1296.933
253.9297, 1292.444
254.4118, 1285.038
254.8940, 1281.013
255.3761, 1281.835
255.8582, 1283.428
256.3403, 1284.027
256.8224, 1283.054
257.3046, 1283.031
257.7867, 1284.510
258.2688, 1286.545
258.7509, 1287.129
259.2330, 1285.411
259.7151, 1283.919
260.1973, 1283.581
260.6794, 1284.526
261.1615, 1286.090
261.6436, 1288.431
262.1257, 1291.244
262.6078, 1294.187
263.0900, 1297.639
263.5721, 1300.293
264.0542, 1301.154
264.5363, 1299.630
265.0184, 1301.020
265.5005, 1306.999
265.9827, 1314.010
266.4648, 1316.343
266.9469, 1311.970
267.4290, 1308.809
267.9111, 1309.667
268.3932, 1314.834
268.8754, 1319.051
269.3575, 1322.032
269.8396, 1324.448
270.3217, 1326.932
270.8038, 1329.297
271.2859, 1332.307
271.7681, 1336.301
272.2502, 1341.204
272.7323, 1345.844
273.2144, 1350.053
273.6965, 1354.152
274.1786, 1358.671
274.6608, 1363.897
275.1429, 1368.190
275.6250, 1370.960
276.1071, 1372.402
276.5892, 1374.165
277.0714, 1376.419
277.5535, 1378.431
278.0356, 1379.637
278.5177, 1380.055
278.9998, 1379.216
279.4819, 1376.287
279.9641, 1372.153
280.4462, 1371.598
280.9283, 1375.539
281.4104, 1379.096
281.8925, 1377.729
282.3746, 1371.372
282.8568, 1365.570
283.3389, 1361.392
283.8210, 1358.266
284.3031, 1354.479
284.7852, 1349.952
285.2673, 1345.621
285.7495, 1341.857
286.2316, 1338.721
286.7137, 1337.095
287.1958, 1337.655
287.6779, 1338.972
288.1600, 1337.391
288.6422, 1332.844
289.1243, 1329.179
289.6064, 1329.615
290.0885, 1333.302
290.5706, 1335.844
291.0527, 1336.589
291.5349, 1336.595
292.0170, 1337.320
292.4991, 1338.730
292.9812, 1340.760
293.4633, 1343.438
293.9454, 1346.691
294.4276, 1350.485
294.9097, 1354.921
295.3918, 1359.294
295.8739, 1362.637
296.3560, 1365.076
296.8381, 1367.340
297.3203, 1369.346
297.8024, 1371.468
298.2845, 1374.629
298.7666, 1378.927
299.2487, 1383.638
299.7308, 1388.163
300.2130, 1392.589
300.6951, 1397.084
301.1772, 1401.458
301.6593, 1406.047
302.1414, 1411.725
302.6235, 1418.410
303.1057, 1424.933
303.5878, 1429.943
304.0699, 1434.099
304.5520, 1438.516
305.0341, 1443.602
305.5162, 1449.060
305.9984, 1455.238
306.4805, 1461.861
306.9626, 1467.436
307.4447, 1469.592
307.9268, 1470.460
308.4089, 1472.989
308.8911, 1479.153
309.3732, 1485.296
309.8553, 1487.931
310.3374, 1487.929
310.8195, 1488.286
311.3016, 1491.363
311.7838, 1495.191
312.2659, 1498.146
312.7480, 1499.986
313.2301, 1500.669
313.7122, 1499.768
314.1943, 1497.701
314.6765, 1495.368
315.1586, 1493.268
315.6407, 1490.980
316.1228, 1487.972
316.6049, 1483.885
317.0870, 1480.436
317.5692, 1479.250
318.0513, 1479.001
318.5334, 1477.840
319.0155, 1475.791
319.4976, 1472.186
319.9797, 1465.716
320.4619, 1455.928
320.9440, 1448.093
321.4261, 1444.590
321.9082, 1443.452
322.3903, 1442.843
322.8724, 1444.213
323.3546, 1444.182
323.8367, 1440.377
324.3188, 1433.033
324.8009, 1428.832
325.2830, 1431.391
325.7651, 1435.907
326.2473, 1439.280
326.7294, 1441.503
327.2115, 1442.321
327.6936, 1440.798
328.1757, 1437.560
328.6578, 1435.559
329.1400, 1434.778
329.6221, 1435.331
330.1042, 1437.500
330.5863, 1444.128
331.0684, 1447.677
331.5505, 1447.141
332.0327, 1443.675
332.5148, 1439.656
332.9969, 1433.838
333.4790, 1429.042
333.9611, 1426.436
334.4432, 1426.812
334.9254, 1425.941
335.4075, 1423.289
335.8896, 1419.778
336.3717, 1416.806
336.8538, 1414.936
337.3359, 1412.284
337.8180, 1408.501
338.3001, 1403.617
338.7823, 1396.831
339.2644, 1387.275
339.7465, 1377.748
340.2286, 1371.797
340.7107, 1370.495
341.1928, 1366.435
341.6750, 1356.784
342.1571, 1343.859
342.6392, 1338.394
343.1213, 1341.683
343.6034, 1345.367
344.0855, 1342.813
344.5677, 1334.324
345.0498, 1326.439
345.5319, 1319.724
346.0140, 1314.389
346.4961, 1311.445
346.9782, 1310.808
347.4604, 1310.147
347.9425, 1307.802
348.4246, 1304.310
348.9067, 1301.647
349.3888, 1299.926
349.8709, 1298.990
350.3531, 1299.424
350.8352, 1300.701
351.3173, 1300.883
351.7994, 1298.293
352.2815, 1294.347
352.7636, 1290.947
353.2458, 1288.084
353.7279, 1286.531
354.2100, 1288.542
354.6921, 1292.055
355.1742, 1293.366
355.6563, 1289.792
356.1385, 1285.190
356.6206, 1283.422
357.1027, 1283.983
357.5848, 1284.416
358.0669, 1282.560
358.5490, 1280.220
359.0312, 1279.410
359.5133, 1281.491
359.9954, 1282.939
360.4775, 1280.630
360.9596, 1276.220
361.4417, 1273.248
361.9239, 1274.656
362.4060, 1276.723
362.8881, 1277.380
363.3702, 1276.193
363.8523, 1274.797
364.3344, 1274.466
364.8166, 1273.950
365.2987, 1271.803
365.7808, 1265.094
366.2629, 1259.376
366.7450, 1256.201
367.2271, 1255.595
367.7093, 1255.907
368.1914, 1258.807
368.6735, 1261.378
369.1556, 1261.696
369.6377, 1256.902
370.1198, 1253.315
370.6020, 1251.463
371.0841, 1251.009
371.5662, 1250.865
372.0483, 1252.007
372.5304, 1252.245
373.0125, 1250.324
373.4947, 1244.853
373.9768, 1241.320
374.4589, 1240.389
374.9410, 1240.824
375.4231, 1240.639
375.9052, 1239.547
376.3874, 1238.698
376.8695, 1238.449
377.3516, 1238.815
377.8337, 1239.738
378.3158, 1241.595
378.7979, 1243.098
379.2801, 1242.624
379.7622, 1240.068
380.2443, 1238.033
380.7264, 1237.154
381.2085, 1236.988
381.6906, 1236.000
382.1728, 1234.149
382.6549, 1233.080
383.1370, 1234.634
383.6191, 1238.037
384.1012, 1240.267
384.5833, 1240.979
385.0655, 1240.558
385.5476, 1239.053
386.0297, 1236.712
386.5118, 1234.570
386.9939, 1232.680
387.4760, 1231.448
387.9582, 1231.914
388.4403, 1234.123
388.9224, 1236.189
389.4045, 1236.508
389.8866, 1235.762
390.3687, 1234.886
390.8509, 1234.108
391.3330, 1233.430
391.8151, 1232.986
392.2972, 1232.698
392.7793, 1232.200
393.2614, 1231.333
393.7436, 1230.181
394.2257, 1228.805
394.7078, 1227.291
395.1899, 1225.354
395.6720, 1221.391
396.1541, 1217.182
396.6363, 1215.589
397.1184, 1219.878
397.6005, 1224.484
398.0826, 1227.933
398.5647, 1230.198
399.0468, 1230.715
399.5290, 1227.891
400.0111, 1224.153
400.4932, 1221.453
400.9753, 1220.750
401.4574, 1219.794
401.9395, 1218.002
402.4217, 1215.734
402.9038, 1214.824
403.3859, 1216.036
403.8680, 1217.495
404.3501, 1218.297
404.8322, 1218.228
405.3144, 1218.394
405.7965, 1219.308
406.2786, 1219.847
406.7607, 1217.870
407.2428, 1212.925
407.7249, 1207.815
408.2071, 1202.945
408.6892, 1198.596
409.1713, 1197.098
409.6534, 1198.735
410.1355, 1201.559
410.6176, 1204.224
411.0998, 1206.665
411.5819, 1208.578
412.0640, 1210.192
412.5461, 1210.754
413.0282, 1208.033
413.5103, 1202.637
413.9925, 1198.110
414.4746, 1196.604
414.9567, 1197.212
415.4388, 1199.239
415.9209, 1202.915
416.4030, 1205.546
416.8852, 1203.347
417.3673, 1198.879
417.8494, 1196.305
418.3315, 1199.828
418.8136, 1203.620
419.2957, 1203.667
419.7779, 1200.442
420.2600, 1197.115
420.7421, 1194.724
421.2242, 1193.063
421.7063, 1192.088
422.1884, 1192.023
422.6706, 1192.174
423.1527, 1192.244
423.6348, 1192.437
424.1169, 1193.128
424.5990, 1194.788
425.0811, 1196.545
425.5633, 1198.159
426.0454, 1199.614
426.5275, 1200.928
427.0096, 1202.071
427.4917, 1203.068
427.9738, 1204.061
428.4560, 1205.670
428.9381, 1205.771
429.4202, 1203.222
429.9023, 1199.182
430.3844, 1197.831
430.8665, 1200.025
431.3487, 1202.504
431.8308, 1203.606
432.3129, 1203.269
432.7950, 1202.947
433.2771, 1202.644
433.7592, 1202.415
434.2414, 1202.193
434.7235, 1202.025
435.2056, 1202.476
435.6877, 1204.311
436.1698, 1206.491
436.6519, 1206.430
437.1341, 1204.244
437.6162, 1202.002
438.0983, 1201.410
438.5804, 1201.742
439.0625, 1201.623
439.5446, 1200.625
440.0268, 1199.849
440.5089, 1200.531
440.9910, 1202.152
441.4731, 1203.645
441.9552, 1204.700
442.4373, 1205.334
442.9195, 1204.967
443.4016, 1203.659
443.8837, 1203.677
444.3658, 1207.951
444.8479, 1212.795
445.3300, 1215.260
445.8122, 1213.255
446.2943, 1210.827
446.7764, 1207.801
447.2585, 1204.788
447.7406, 1203.376
448.2227, 1206.717
448.7049, 1208.602
449.1870, 1206.365
449.6691, 1198.747
450.1512, 1194.925
450.6333, 1196.684
451.1154, 1200.359
451.5976, 1202.686
452.0797, 1203.566
452.5618, 1203.389
453.0439, 1201.958
453.5260, 1199.675
454.0081, 1197.146
454.4903, 1194.068
454.9724, 1192.740
455.4545, 1196.069
455.9366, 1202.990
456.4187, 1205.638
456.9008, 1203.297
457.3830, 1199.114
457.8651, 1195.806
458.3472, 1193.516
458.8293, 1193.062
459.3114, 1195.718
459.7935, 1199.237
460.2757, 1201.041
460.7578, 1201.244
461.2399, 1200.541
461.7220, 1198.258
462.2041, 1195.875
462.6862, 1195.099
463.1684, 1196.585
463.6505, 1197.870
464.1326, 1198.013
464.6147, 1197.143
465.0968, 1195.407
465.5789, 1191.695
466.0611, 1188.376
466.5432, 1185.726
467.0253, 1183.885
467.5074, 1183.817
467.9895, 1188.298
468.4716, 1192.449
468.9538, 1193.841
469.4359, 1191.031
469.9180, 1188.472
470.4001, 1185.403
470.8822, 1183.061
471.3643, 1183.951
471.8465, 1189.909
472.3286, 1193.589
472.8107, 1192.399
473.2928, 1187.305
473.7749, 1183.531
474.2570, 1181.064
474.7392, 1180.094
475.2213, 1182.016
475.7034, 1186.128
476.1855, 1187.188
476.6676, 1184.103
477.1497, 1179.795
477.6319, 1177.853
478.1140, 1177.929
478.5961, 1178.925
479.0782, 1181.135
479.5603, 1183.552
480.0424, 1184.703
480.5246, 1184.772
481.0067, 1185.218
481.4888, 1187.874
481.9709, 1190.795
482.4530, 1192.167
482.9352, 1191.200
483.4173, 1189.745
483.8994, 1188.161
484.3815, 1186.605
484.8636, 1185.338
485.3457, 1184.107
485.8279, 1183.477
486.3100, 1183.777
486.7921, 1185.025
487.2742, 1186.286
487.7563, 1188.069
488.2384, 1189.402
488.7206, 1189.719
489.2027, 1188.797
489.6848, 1187.380
490.1669, 1184.965
490.6490, 1182.643
491.1311, 1182.192
491.6133, 1183.786
492.0954, 1186.147
492.5775, 1189.258
493.0596, 1192.727
493.5417, 1195.208
494.0238, 1196.678
494.5060, 1197.362
494.9881, 1196.479
495.4702, 1194.954
495.9523, 1195.515
496.4344, 1198.913
496.9165, 1202.461
497.3987, 1203.263
497.8808, 1202.317
498.3629, 1201.485
498.8450, 1201.482
499.3271, 1201.912
499.8092, 1202.454
500.2914, 1203.193
500.7735, 1204.489
501.2556, 1207.785
501.7377, 1210.777
502.2198, 1212.015
502.7019, 1210.736
503.1841, 1209.358
503.6662, 1207.484
504.1483, 1205.978
504.6304, 1205.897
505.1125, 1208.080
505.5946, 1210.406
506.0768, 1213.175
506.5589, 1215.895
507.0410, 1215.600
507.5231, 1210.937
508.0052, 1207.021
508.4873, 1207.312
508.9695, 1211.847
509.4516, 1214.102
509.9337, 1213.887
510.4158, 1211.963
510.8979, 1208.442
511.3800, 1203.717
511.8622, 1199.713
512.3443, 1196.982
512.8264, 1195.126
513.3085, 1193.634
513.7906, 1192.537
514.2728, 1191.942
514.7549, 1193.008
515.2370, 1193.902
515.7191, 1192.400
516.2012, 1188.179
516.6833, 1185.133
517.1655, 1186.573
517.6476, 1189.174
518.1297, 1190.084
518.6118, 1187.281
519.0939, 1184.558
519.5760, 1181.981
520.0582, 1179.921
520.5403, 1179.224
521.0224, 1181.483
521.5045, 1182.827
521.9866, 1181.635
522.4688, 1177.902
522.9509, 1176.643
523.4330, 1178.739
523.9151, 1181.191
524.3972, 1181.421
524.8793, 1179.358
525.3615, 1178.078
525.8436, 1177.955
526.3257, 1178.350
526.8078, 1178.410
527.2899, 1178.174
527.7720, 1177.869
528.2542, 1177.960
528.7363, 1177.734
529.2184, 1175.358
529.7005, 1171.394
530.1826, 1168.789
530.6647, 1170.793
531.1469, 1174.094
531.6290, 1175.864
532.1111, 1175.503
532.5932, 1174.647
533.0753, 1173.197
533.5574, 1171.919
534.0396, 1171.630
534.5217, 1174.267
535.0038, 1175.813
535.4859, 1175.516
535.9680, 1173.740
536.4501, 1171.325
536.9323, 1166.854
537.4144, 1164.201
537.8965, 1165.463
538.3786, 1170.758
538.8607, 1174.017
539.3428, 1174.842
539.8250, 1174.728
540.3071, 1174.950
540.7892, 1175.445
541.2713, 1175.526
541.7534, 1174.817
542.2355, 1174.401
542.7177, 1176.054
543.1998, 1179.325
543.6819, 1182.742
544.1640, 1185.985
544.6461, 1188.773
545.1282, 1190.852
545.6104, 1192.238
546.0925, 1193.091
546.5746, 1192.537
547.0567, 1192.155
547.5388, 1193.038
548.0209, 1195.553
548.5031, 1198.632
548.9852, 1202.504
549.4673, 1206.633
549.9494, 1210.443
550.4315, 1213.502
550.9136, 1216.887
551.3958, 1220.858
551.8779, 1225.188
552.3600, 1229.404
552.8421, 1233.908
553.3242, 1236.875
553.8063, 1236.361
554.2885, 1233.198
554.7706, 1234.740
555.2527, 1241.362
555.7348, 1248.764
556.2169, 1252.838
556.6990, 1254.791
557.1812, 1258.101
557.6633, 1263.701
558.1454, 1269.245
558.6275, 1272.190
559.1096, 1273.531
559.5917, 1275.072
560.0739, 1276.516
560.5560, 1279.282
561.0381, 1285.375
561.5202, 1293.773
562.0023, 1300.248
562.4844, 1302.189
562.9666, 1303.290
563.4487, 1305.068
563.9308, 1307.653
564.4129, 1310.363
564.8950, 1313.315
565.3771, 1316.239
565.8593, 1319.162
566.3414, 1322.430
566.8235, 1324.001
567.3056, 1323.222
567.7877, 1321.384
568.2698, 1321.180
568.7520, 1322.472
569.2341, 1322.820
569.7162, 1320.436
570.1983, 1317.146
570.6804, 1316.833
571.1625, 1319.068
571.6447, 1320.750
572.1268, 1319.187
572.6089, 1316.503
573.0910, 1315.215
573.5731, 1315.955
574.0552, 1315.246
574.5374, 1308.776
575.0195, 1301.448
575.5016, 1297.813
575.9837, 1302.848
576.4658, 1306.484
576.9479, 1307.354
577.4301, 1306.332
577.9122, 1305.057
578.3943, 1303.329
578.8764, 1301.645
579.3585, 1300.230
579.8406, 1298.966
580.3228, 1296.794
580.8049, 1293.466
581.2870, 1290.822
581.7691, 1290.386
582.2512, 1291.725
582.7333, 1293.277
583.2155, 1295.053
583.6976, 1296.318
584.1797, 1295.668
584.6617, 1294.260
585.1439, 1294.062
585.6260, 1296.106
586.1081, 1298.634
586.5902, 1301.432
587.0723, 1303.880
587.5544, 1304.746
588.0366, 1302.656
588.5187, 1299.974
589.0008, 1296.314
589.4829, 1291.946
589.9650, 1291.231
590.4471, 1297.028
590.9293, 1302.700
591.4114, 1304.819
591.8935, 1302.766
592.3756, 1301.643
592.8577, 1301.702
593.3398, 1301.986
593.8220, 1301.401
594.3041, 1300.077
594.7862, 1299.240
595.2683, 1299.520
595.7504, 1299.316
596.2325, 1295.380
596.7147, 1289.211
597.1968, 1284.748
597.6789, 1285.906
598.1610, 1287.552
598.6431, 1285.674
599.1252, 1280.926
599.6074, 1276.428
600.0895, 1273.561
600.5716, 1270.942
601.0537, 1267.859
601.5358, 1264.141
602.0179, 1260.671
602.5001, 1257.744
602.9822, 1254.773
603.4643, 1251.294
603.9464, 1247.132
604.4285, 1242.970
604.9106, 1238.671
605.3928, 1234.639
605.8749, 1231.775
606.3570, 1229.935
606.8391, 1227.310
607.3212, 1222.742
607.8033, 1217.873
608.2855, 1214.964
608.7676, 1213.859
609.2497, 1213.900
609.7318, 1216.938
610.2139, 1219.346
610.6960, 1217.104
611.1782, 1210.262
611.6603, 1205.243
612.1424, 1205.831
612.6245, 1207.787
613.1066, 1208.629
613.5887, 1208.235
614.0709, 1206.477
614.5530, 1202.289
615.0351, 1197.711
615.5172, 1194.999
615.9993, 1194.641
616.4814, 1193.800
616.9636, 1191.848
617.4457, 1189.568
617.9278, 1188.765
618.4099, 1189.252
618.8920, 1189.165
619.3741, 1187.214
619.8563, 1184.589
620.3384, 1183.068
620.8205, 1182.486
621.3026, 1182.066
621.7847, 1181.583
622.2668, 1180.916
622.7490, 1179.597
623.2311, 1177.424
623.7132, 1176.603
624.1953, 1180.228
624.6774, 1183.723
625.1595, 1183.742
625.6417, 1177.565
626.1238, 1173.274
626.6059, 1171.375
627.0880, 1170.898
627.5701, 1170.964
628.0522, 1171.738
628.5344, 1171.275
629.0165, 1168.505
629.4986, 1165.264
629.9807, 1166.066
630.4628, 1170.065
630.9449, 1172.693
631.4271, 1170.002
631.9092, 1165.878
632.3913, 1164.543
632.8734, 1165.685
633.3555, 1167.244
633.8376, 1168.840
634.3198, 1170.004
634.8019, 1170.610
635.2840, 1170.765
635.7661, 1169.591
636.2482, 1164.729
636.7303, 1160.397
637.2125, 1159.827
637.6946, 1164.918
638.1767, 1168.316
638.6588, 1169.584
639.1409, 1169.424
639.6230, 1168.458
640.1052, 1166.756
640.5873, 1165.331
641.0694, 1164.606
641.5515, 1164.038
642.0336, 1162.566
642.5157, 1160.549
642.9979, 1159.014
643.4800, 1158.236
643.9621, 1158.316
644.4442, 1160.051
644.9263, 1163.023
645.4084, 1164.846
645.8906, 1164.168
646.3727, 1162.662
646.8548, 1160.763
647.3369, 1158.290
647.8190, 1157.161
648.3011, 1158.197
648.7833, 1159.362
649.2654, 1158.721
649.7475, 1155.980
650.2296, 1155.422
650.7117, 1157.749
651.1938, 1160.451
651.6760, 1159.877
652.1581, 1157.049
652.6402, 1155.205
653.1223, 1155.452
653.6044, 1156.359
654.0865, 1157.249
654.5687, 1157.791
655.0508, 1157.367
655.5329, 1154.270
656.0150, 1151.677
656.4971, 1150.984
656.9792, 1151.892
657.4614, 1152.702
657.9435, 1153.188
658.4256, 1153.779
658.9077, 1154.733
659.3898, 1156.012
659.8719, 1156.797
660.3541, 1157.138
660.8362, 1156.752
661.3183, 1154.743
661.8004, 1151.760
662.2825, 1150.527
662.7646, 1151.278
663.2468, 1152.338
663.7289, 1152.530
664.2110, 1152.036
664.6931, 1151.056
665.1752, 1149.548
665.6573, 1147.814
666.1395, 1145.099
666.6216, 1142.570
667.1037, 1141.663
667.5858, 1143.861
668.0679, 1146.188
668.5500, 1148.994
669.0322, 1151.538
669.5143, 1151.971
669.9964, 1149.964
670.4785, 1147.329
670.9606, 1144.015
671.4427, 1140.849
671.9249, 1140.654
672.4070, 1143.108
672.8891, 1145.713
673.3712, 1147.548
673.8533, 1148.396
674.3354, 1147.823
674.8176, 1145.896
675.2997, 1143.300
675.7818, 1137.884
676.2639, 1133.838
