##NAMES=Lammerite
##RRUFFID=R060715
##IDEAL CHEMISTRY=Cu^2+^_3_(As^5+^O_4_)_2_
##LOCALITY=Guanaco, Antofagasta Province, Chile
##OWNER=RRUFF
##SOURCE=Bob Jenkins
##DESCRIPTION=Dark green tabular crystals associated with blue lavendulan, R060716, white quartz and barite
##STATUS=The identification of this mineral is confirmed by single-crystal X-ray diffraction and chemical analysis.
##URL=rruff.info/R060715
##MEASURED CHEMISTRY=Cu_3.00_(As_1.00_O_4_)_2_
112.363, 665.486
112.845, 688.247
113.327, 708.284
113.809, 722.316
114.291, 735.498
114.773, 751.163
115.255, 770.211
115.737, 791.843
116.219, 817.058
116.702, 845.794
117.184, 873.132
117.666, 896.645
118.148, 918.110
118.630, 939.498
119.112, 964.318
119.594, 987.592
120.076, 1005.680
120.559, 1017.616
121.041, 1027.613
121.523, 1040.304
122.005, 1053.337
122.487, 1061.413
122.969, 1060.977
123.451, 1054.546
123.933, 1044.174
124.415, 1028.757
124.898, 1012.469
125.380, 998.988
125.862, 988.233
126.344, 979.657
126.826, 973.015
127.308, 968.333
127.790, 966.050
128.272, 967.990
128.755, 971.170
129.237, 969.495
129.719, 962.822
130.201, 955.847
130.683, 954.782
131.165, 958.381
131.647, 958.884
132.129, 950.156
132.611, 935.491
133.094, 929.885
133.576, 934.543
134.058, 944.360
134.540, 952.631
135.022, 959.329
135.504, 965.811
135.986, 973.315
136.468, 981.858
136.951, 987.711
137.433, 989.519
137.915, 989.889
138.397, 996.460
138.879, 1012.355
139.361, 1025.212
139.843, 1026.849
140.325, 1013.975
140.807, 1002.794
141.290, 994.006
141.772, 987.967
142.254, 987.093
142.736, 994.698
143.218, 1002.763
143.700, 1004.215
144.182, 992.721
144.664, 987.256
145.146, 992.140
145.629, 1007.963
146.111, 1022.294
146.593, 1034.674
147.075, 1045.843
147.557, 1055.737
148.039, 1057.096
148.521, 1066.149
149.003, 1088.277
149.486, 1128.068
149.968, 1164.662
150.450, 1191.347
150.932, 1216.588
151.414, 1252.698
151.896, 1307.716
152.378, 1367.257
152.860, 1426.726
153.342, 1483.658
153.824, 1546.373
154.307, 1615.025
154.789, 1690.344
155.271, 1772.694
155.753, 1859.300
156.235, 1954.323
156.717, 2058.435
157.199, 2160.896
157.682, 2288.010
158.164, 2453.909
158.646, 2652.403
159.128, 2856.985
159.610, 3097.787
160.092, 3319.897
160.574, 3481.679
161.056, 3593.418
161.538, 3622.729
162.020, 3520.169
162.503, 3295.787
162.985, 3080.506
163.467, 2904.802
163.949, 2777.799
164.431, 2709.833
164.913, 2720.679
165.395, 2779.233
165.877, 2872.627
166.360, 3000.581
166.842, 3156.053
167.324, 3330.219
167.806, 3529.442
168.288, 3766.076
168.770, 4033.393
169.252, 4347.027
169.734, 4727.994
170.217, 5180.346
170.699, 5667.815
171.181, 6266.005
171.663, 6884.866
172.145, 7334.637
172.627, 7567.989
173.109, 7556.501
173.591, 7227.827
174.073, 6506.729
174.555, 5646.792
175.038, 4826.872
175.520, 4055.732
176.002, 3399.082
176.484, 2912.151
176.966, 2558.053
177.448, 2273.071
177.930, 2055.098
178.413, 1886.013
178.895, 1745.530
179.377, 1632.163
179.859, 1542.815
180.341, 1481.508
180.823, 1440.665
181.305, 1402.418
181.787, 1360.819
182.269, 1320.453
182.751, 1289.542
183.234, 1268.266
183.716, 1249.788
184.198, 1227.974
184.680, 1203.947
185.162, 1182.360
185.644, 1165.549
186.126, 1151.655
186.608, 1134.351
187.091, 1113.262
187.573, 1093.779
188.055, 1082.927
188.537, 1079.863
189.019, 1077.818
189.501, 1074.276
189.983, 1069.812
190.465, 1066.666
190.947, 1064.731
191.430, 1064.599
191.912, 1068.065
192.394, 1074.976
192.876, 1081.397
193.358, 1085.098
193.840, 1086.429
194.322, 1087.738
194.804, 1087.615
195.286, 1090.787
195.769, 1107.524
196.251, 1139.415
196.733, 1169.465
197.215, 1186.684
197.697, 1191.195
198.179, 1205.460
198.661, 1231.080
199.143, 1265.281
199.626, 1303.006
200.108, 1344.790
200.590, 1388.082
201.072, 1430.098
201.554, 1470.079
202.036, 1519.536
202.518, 1581.075
203.000, 1650.725
203.482, 1718.810
203.965, 1784.810
204.447, 1851.098
204.929, 1917.651
205.411, 1984.253
205.893, 2054.574
206.375, 2130.080
206.857, 2208.961
207.339, 2287.430
207.822, 2368.866
208.304, 2441.468
208.786, 2496.869
209.268, 2534.796
209.750, 2560.046
210.232, 2577.711
210.714, 2583.314
211.196, 2552.504
211.678, 2478.990
212.161, 2381.458
212.643, 2271.731
213.125, 2144.500
213.607, 2019.168
214.089, 1896.356
214.571, 1776.541
215.053, 1662.803
215.535, 1552.981
216.018, 1454.362
216.500, 1375.311
216.982, 1324.141
217.464, 1273.256
217.946, 1215.698
218.428, 1152.685
218.910, 1100.942
219.392, 1061.820
219.874, 1032.269
220.357, 1010.006
220.839, 998.132
221.321, 986.943
221.803, 974.903
222.285, 962.151
222.767, 947.837
223.249, 931.115
223.731, 913.946
224.214, 898.767
224.696, 886.194
225.178, 873.979
225.660, 860.651
226.142, 845.887
226.624, 836.017
227.106, 833.825
227.588, 834.035
228.070, 830.005
228.553, 817.995
229.035, 808.547
229.517, 804.991
229.999, 808.352
230.481, 808.965
230.963, 805.073
231.445, 799.860
231.927, 797.797
232.410, 801.482
232.892, 803.778
233.374, 803.015
233.856, 799.112
234.338, 792.325
234.820, 780.308
235.302, 767.036
235.784, 758.132
236.266, 755.899
236.749, 754.136
237.231, 750.871
237.713, 745.325
238.195, 742.028
238.677, 741.670
239.159, 743.113
239.641, 744.916
240.123, 748.092
240.605, 749.987
241.088, 749.201
241.570, 744.497
242.052, 742.585
242.534, 744.761
243.016, 748.928
243.498, 751.691
243.980, 752.124
244.462, 752.606
244.945, 753.872
245.427, 756.055
245.909, 758.435
246.391, 761.655
246.873, 764.639
247.355, 765.002
247.837, 759.358
248.319, 756.733
248.801, 760.950
249.284, 774.159
249.766, 785.132
250.248, 793.196
250.730, 799.500
251.212, 805.856
251.694, 812.202
252.176, 818.832
252.658, 825.885
253.141, 833.243
253.623, 841.242
254.105, 849.328
254.587, 858.464
255.069, 870.808
255.551, 888.140
256.033, 905.506
256.515, 921.942
256.997, 938.367
257.480, 950.259
257.962, 956.912
258.444, 959.750
258.926, 960.312
259.408, 956.047
259.890, 954.792
260.372, 960.156
260.854, 974.055
261.336, 985.688
261.819, 994.559
262.301, 1001.788
262.783, 1009.308
263.265, 1017.835
263.747, 1025.153
264.229, 1031.725
264.711, 1038.798
265.193, 1036.851
265.676, 1023.327
266.158, 1003.580
266.640, 985.237
267.122, 968.467
267.604, 953.133
268.086, 939.290
268.568, 926.769
269.050, 917.039
269.532, 912.310
270.015, 907.703
270.497, 893.739
270.979, 866.569
271.461, 844.438
271.943, 836.264
272.425, 843.261
272.907, 843.380
273.389, 834.192
273.871, 821.967
274.354, 815.925
274.836, 817.053
275.318, 819.374
275.800, 820.872
276.282, 821.543
276.764, 823.183
277.246, 826.207
277.728, 829.371
278.211, 830.749
278.693, 830.034
279.175, 829.832
279.657, 830.692
280.139, 832.668
280.621, 836.568
281.103, 842.390
281.585, 850.130
282.068, 860.782
282.550, 874.474
283.032, 887.380
283.514, 896.525
283.996, 903.361
284.478, 919.065
284.960, 945.593
285.442, 973.131
285.924, 986.506
286.406, 986.861
286.889, 994.059
287.371, 1014.814
287.853, 1047.028
288.335, 1083.249
288.817, 1123.438
289.299, 1168.080
289.781, 1218.532
290.263, 1273.952
290.746, 1329.910
291.228, 1382.492
291.710, 1435.748
292.192, 1499.999
292.674, 1574.726
293.156, 1659.073
293.638, 1754.932
294.120, 1860.344
294.603, 1968.522
295.085, 2079.069
295.567, 2191.289
296.049, 2301.833
296.531, 2410.119
297.013, 2525.124
297.495, 2659.799
297.977, 2806.002
298.459, 2952.219
298.942, 3101.947
299.424, 3240.419
299.906, 3348.269
300.388, 3424.837
300.870, 3473.354
301.352, 3503.678
301.834, 3505.156
302.316, 3454.204
302.798, 3333.083
303.281, 3177.667
303.763, 3016.340
304.245, 2851.495
304.727, 2686.674
305.209, 2517.874
305.691, 2354.385
306.173, 2208.754
306.655, 2082.447
307.138, 1973.138
307.620, 1881.691
308.102, 1805.428
308.584, 1739.042
309.066, 1681.693
309.548, 1631.592
310.030, 1587.101
310.512, 1548.129
310.994, 1514.610
311.477, 1485.715
311.959, 1462.651
312.441, 1447.541
312.923, 1447.149
313.405, 1451.587
313.887, 1452.894
314.369, 1448.642
314.851, 1448.394
315.333, 1458.595
315.816, 1475.560
316.298, 1493.542
316.780, 1508.543
317.262, 1525.840
317.744, 1547.529
318.226, 1573.781
318.708, 1605.238
319.190, 1642.741
319.672, 1685.409
320.155, 1732.212
320.637, 1784.127
321.119, 1839.239
321.601, 1896.263
322.083, 1955.308
322.565, 2017.431
323.047, 2082.035
323.530, 2150.144
324.012, 2222.646
324.494, 2302.815
324.976, 2384.052
325.458, 2464.411
325.940, 2543.249
326.422, 2626.333
326.904, 2708.118
327.386, 2797.822
327.868, 2901.456
328.351, 3036.848
328.833, 3165.370
329.315, 3284.424
329.797, 3394.135
330.279, 3501.660
330.761, 3605.562
331.243, 3709.147
331.725, 3813.339
332.208, 3921.547
332.690, 4026.078
333.172, 4130.697
333.654, 4231.171
334.136, 4314.470
334.618, 4375.509
335.100, 4428.963
335.582, 4482.243
336.065, 4538.119
336.547, 4585.072
337.029, 4620.443
337.511, 4649.481
337.993, 4682.626
338.475, 4722.970
338.957, 4758.416
339.439, 4779.590
339.921, 4784.121
340.404, 4807.870
340.886, 4851.954
341.368, 4913.646
341.850, 4993.954
342.332, 5094.082
342.814, 5194.728
343.296, 5290.873
343.778, 5382.564
344.260, 5468.135
344.743, 5551.295
345.225, 5614.550
345.707, 5644.437
346.189, 5640.485
346.671, 5598.109
347.153, 5515.671
347.635, 5393.394
348.117, 5224.799
348.599, 5008.355
349.082, 4770.205
349.564, 4525.723
350.046, 4275.428
350.528, 4018.463
351.010, 3747.422
351.492, 3481.875
351.974, 3244.094
352.457, 3033.305
352.939, 2838.863
353.421, 2655.854
353.903, 2484.460
354.385, 2323.562
354.867, 2171.061
355.349, 2035.241
355.831, 1927.749
356.313, 1843.248
356.796, 1767.451
357.278, 1699.256
357.760, 1634.066
358.242, 1565.894
358.724, 1493.021
359.206, 1424.987
359.688, 1367.942
360.170, 1318.820
360.652, 1273.387
361.135, 1228.288
361.617, 1188.057
362.099, 1156.392
362.581, 1133.517
363.063, 1109.825
363.545, 1081.320
364.027, 1051.005
364.509, 1021.496
364.991, 989.104
365.474, 961.943
365.956, 944.817
366.438, 936.202
366.920, 925.357
367.402, 907.594
367.884, 889.602
368.366, 874.868
368.848, 870.910
369.331, 860.806
369.813, 839.594
370.295, 812.281
370.777, 793.209
371.259, 785.429
371.741, 782.252
372.223, 782.130
372.705, 787.487
373.188, 788.255
373.670, 783.119
374.152, 774.373
374.634, 765.254
375.116, 755.829
375.598, 745.944
376.080, 734.651
376.562, 722.073
377.044, 713.934
377.526, 711.065
378.009, 710.852
378.491, 711.375
378.973, 712.773
379.455, 712.576
379.937, 709.867
380.419, 705.346
380.901, 701.000
381.384, 696.765
381.866, 693.343
382.348, 678.804
382.830, 662.052
383.312, 666.318
383.794, 669.588
384.276, 664.374
384.758, 672.453
385.240, 677.305
385.723, 679.104
386.205, 668.704
386.687, 674.057
387.169, 673.096
387.651, 671.877
388.133, 679.446
388.615, 670.821
389.097, 677.388
389.579, 669.646
390.062, 669.239
390.544, 670.211
391.026, 667.464
391.508, 661.031
391.990, 655.607
392.472, 654.402
392.954, 655.099
393.436, 655.435
393.918, 653.066
394.401, 652.044
394.883, 653.346
395.365, 657.021
395.847, 663.201
396.329, 678.088
396.811, 690.975
397.293, 695.795
397.775, 686.067
398.258, 678.323
398.740, 672.203
399.222, 669.209
399.704, 672.381
400.186, 691.611
400.668, 705.811
401.150, 706.916
401.632, 690.987
402.114, 684.602
402.597, 692.103
403.079, 704.847
403.561, 713.586
404.043, 716.033
404.525, 720.844
405.007, 731.034
405.489, 745.247
405.971, 753.097
406.453, 752.800
406.936, 752.562
407.418, 759.793
407.900, 774.748
408.382, 784.840
408.864, 787.121
409.346, 786.888
409.828, 794.356
410.310, 809.316
410.793, 826.248
411.275, 842.466
411.757, 858.642
412.239, 876.966
412.721, 897.890
413.203, 918.569
413.685, 934.385
414.167, 947.375
414.650, 961.850
415.132, 979.451
415.614, 999.164
416.096, 1020.103
416.578, 1042.219
417.060, 1064.815
417.542, 1085.555
418.024, 1107.041
418.506, 1131.606
418.988, 1161.495
419.471, 1191.847
419.953, 1220.386
420.435, 1247.783
420.917, 1276.318
421.399, 1307.575
421.881, 1339.216
422.363, 1370.642
422.845, 1402.185
423.328, 1431.582
423.810, 1455.099
424.292, 1477.568
424.774, 1503.985
425.256, 1543.984
425.738, 1576.770
426.220, 1598.048
426.702, 1608.423
427.185, 1617.353
427.667, 1625.993
428.149, 1631.547
428.631, 1632.713
429.113, 1630.194
429.595, 1620.773
430.077, 1604.046
430.559, 1580.570
431.041, 1549.675
431.524, 1510.325
432.006, 1470.060
432.488, 1433.309
432.970, 1399.311
433.452, 1359.376
433.934, 1312.712
434.416, 1264.277
434.898, 1218.874
435.380, 1176.282
435.863, 1135.203
436.345, 1094.089
436.827, 1055.277
437.309, 1023.278
437.791, 997.552
438.273, 975.670
438.755, 957.866
439.237, 942.214
439.720, 925.773
440.202, 907.078
440.684, 890.565
441.166, 880.151
441.648, 874.059
442.130, 868.883
442.612, 867.636
443.094, 863.273
443.576, 848.307
444.059, 821.707
444.541, 804.151
445.023, 808.854
445.505, 820.882
445.987, 828.591
446.469, 829.574
446.951, 827.061
447.433, 818.089
447.915, 805.334
448.398, 797.938
448.880, 797.638
449.362, 800.658
449.844, 806.075
450.326, 814.598
450.808, 822.323
451.290, 829.018
451.772, 835.179
452.254, 841.489
452.737, 847.968
453.219, 854.645
453.701, 861.790
454.183, 869.100
454.665, 875.209
455.147, 880.184
455.629, 883.760
456.112, 883.942
456.594, 882.241
457.076, 884.563
457.558, 891.989
458.040, 902.825
458.522, 914.727
459.004, 928.228
459.486, 944.519
459.968, 967.293
460.451, 991.449
460.933, 1011.836
461.415, 1028.010
461.897, 1043.955
462.379, 1062.767
462.861, 1082.257
463.343, 1100.311
463.825, 1110.665
464.307, 1126.158
464.790, 1154.887
465.272, 1192.644
465.754, 1227.507
466.236, 1248.535
466.718, 1273.533
467.200, 1310.171
467.682, 1362.290
468.164, 1414.649
468.647, 1464.721
469.129, 1517.418
469.611, 1577.840
470.093, 1648.763
470.575, 1721.137
471.057, 1791.580
471.539, 1862.400
472.021, 1947.645
472.503, 2048.336
472.986, 2160.092
473.468, 2279.130
473.950, 2405.930
474.432, 2542.256
474.914, 2688.883
475.396, 2842.923
475.878, 2994.670
476.360, 3148.137
476.842, 3323.635
477.325, 3536.025
477.807, 3769.539
478.289, 3996.740
478.771, 4219.787
479.253, 4458.163
479.735, 4723.906
480.217, 5013.144
480.699, 5324.067
481.181, 5656.618
481.664, 6002.351
482.146, 6359.804
482.628, 6725.067
483.110, 7097.866
483.592, 7482.026
484.074, 7868.910
484.556, 8275.477
485.039, 8701.412
485.521, 9060.726
486.003, 9336.172
486.485, 9547.260
486.967, 9708.062
487.449, 9843.377
487.931, 9881.640
488.413, 9816.375
488.895, 9652.926
489.378, 9395.966
489.860, 9027.523
490.342, 8617.270
490.824, 8176.794
491.306, 7707.120
491.788, 7258.622
492.270, 6826.892
492.752, 6417.629
493.234, 6035.755
493.717, 5681.229
494.199, 5345.106
494.681, 5020.997
495.163, 4721.601
495.645, 4463.918
496.127, 4243.544
496.609, 4039.131
497.091, 3841.157
497.573, 3652.771
498.056, 3476.394
498.538, 3314.261
499.020, 3156.132
499.502, 2994.311
499.984, 2836.033
500.466, 2689.946
500.948, 2564.304
501.430, 2446.468
501.913, 2335.743
502.395, 2232.094
502.877, 2133.148
503.359, 2035.282
503.841, 1946.665
504.323, 1870.120
504.805, 1808.823
505.287, 1748.753
505.770, 1689.295
506.252, 1631.827
506.734, 1578.178
507.216, 1528.132
507.698, 1483.501
508.180, 1445.776
508.662, 1412.653
509.144, 1377.101
509.626, 1339.151
510.108, 1305.100
510.591, 1282.364
511.073, 1265.915
511.555, 1241.548
512.037, 1207.940
512.519, 1174.861
513.001, 1150.005
513.483, 1131.392
513.966, 1116.198
514.448, 1106.337
514.930, 1095.996
515.412, 1079.380
515.894, 1058.930
516.376, 1042.145
516.858, 1029.962
517.340, 1023.388
517.822, 1027.392
518.305, 1047.869
518.787, 1051.702
519.269, 1019.842
519.751, 978.915
520.233, 950.022
520.715, 937.318
521.197, 930.671
521.679, 933.563
522.161, 940.381
522.644, 932.146
523.126, 904.423
523.608, 879.407
524.090, 868.607
524.572, 870.590
525.054, 869.859
525.536, 866.064
526.018, 862.205
526.500, 862.368
526.983, 864.957
527.465, 865.501
527.947, 863.304
528.429, 857.948
528.911, 845.400
529.393, 828.991
529.875, 817.126
530.357, 820.328
530.839, 824.613
531.322, 818.806
531.804, 802.001
532.286, 788.684
532.768, 785.729
533.250, 786.811
533.732, 787.471
534.214, 789.904
534.696, 788.108
535.179, 778.146
535.661, 765.047
536.143, 759.396
536.625, 766.253
537.107, 769.460
537.589, 761.986
538.071, 745.464
538.553, 739.480
539.036, 746.201
539.518, 753.933
540.000, 752.529
540.482, 743.591
540.964, 736.232
541.446, 731.329
541.928, 728.500
542.410, 728.483
542.892, 730.206
543.375, 730.989
543.857, 728.445
544.339, 725.366
544.821, 724.300
545.303, 724.863
545.785, 725.022
546.267, 723.266
546.749, 721.213
547.231, 720.024
547.714, 720.411
548.196, 720.060
548.678, 718.298
549.160, 715.803
549.642, 713.047
550.124, 707.632
550.606, 706.216
551.088, 710.619
551.570, 719.573
552.053, 729.142
552.535, 740.380
553.017, 748.177
553.499, 748.332
553.981, 741.807
554.463, 737.628
554.945, 735.875
555.427, 735.787
555.909, 736.238
556.392, 737.798
556.874, 742.551
557.356, 753.166
557.838, 762.643
558.320, 760.257
558.802, 751.814
559.284, 750.613
559.766, 769.733
560.249, 791.097
560.731, 806.348
561.213, 815.111
561.695, 821.243
562.177, 820.962
562.659, 821.735
563.141, 828.418
563.623, 846.105
564.106, 858.504
564.588, 862.852
565.070, 864.274
565.552, 870.237
566.034, 881.448
566.516, 894.405
566.998, 910.189
567.480, 926.050
567.963, 930.999
568.445, 925.485
568.927, 923.010
569.409, 936.654
569.891, 957.888
570.373, 970.958
570.855, 974.449
571.337, 974.708
571.819, 976.457
572.302, 977.822
572.784, 976.663
573.266, 973.292
573.748, 966.017
574.230, 953.165
574.712, 935.973
575.194, 917.117
575.676, 895.362
576.158, 873.727
576.641, 852.190
577.123, 830.621
577.605, 813.942
578.087, 805.058
578.569, 795.850
579.051, 778.927
579.533, 753.500
580.015, 737.151
580.497, 732.545
580.980, 732.075
581.462, 726.322
581.944, 716.119
582.426, 704.557
582.908, 691.611
583.390, 679.304
583.872, 670.233
584.354, 663.942
584.836, 658.929
585.319, 655.156
585.801, 651.754
586.283, 648.238
586.765, 644.562
587.247, 640.587
587.729, 635.325
588.211, 630.334
588.693, 626.798
589.176, 626.113
589.658, 624.584
590.140, 621.806
590.622, 618.433
591.104, 615.918
591.586, 614.749
592.068, 611.925
592.550, 605.815
593.032, 597.917
593.515, 592.890
593.997, 590.692
594.479, 589.957
594.961, 590.015
595.443, 590.864
595.925, 593.512
596.407, 598.207
596.890, 600.660
597.372, 595.421
597.854, 587.314
598.336, 581.519
598.818, 580.589
599.300, 580.237
599.782, 580.380
600.264, 580.115
600.746, 577.592
601.229, 569.563
601.711, 563.421
602.193, 560.978
602.675, 561.855
603.157, 562.912
603.639, 564.190
604.121, 565.535
604.603, 567.729
605.085, 570.470
605.568, 569.377
606.050, 564.026
606.532, 557.046
607.014, 549.847
607.496, 543.198
607.978, 538.896
608.460, 538.229
608.942, 538.286
609.424, 536.963
609.907, 534.701
610.389, 532.407
610.871, 528.844
611.353, 526.794
611.835, 527.979
612.317, 532.152
612.799, 535.661
613.281, 539.525
613.763, 541.393
614.246, 539.627
614.728, 533.383
615.210, 529.395
615.692, 528.266
616.174, 527.889
616.656, 526.558
617.138, 524.225
617.620, 519.922
618.103, 512.625
618.585, 505.420
619.067, 501.500
619.549, 500.764
620.031, 502.947
620.513, 513.375
620.995, 522.120
621.477, 520.073
621.959, 509.437
622.442, 500.967
622.924, 498.872
623.406, 499.216
623.888, 500.877
624.370, 504.412
624.852, 505.871
625.334, 504.202
625.816, 501.670
626.299, 499.833
626.781, 498.595
627.263, 498.863
627.745, 501.190
628.227, 503.965
628.709, 505.050
629.191, 504.503
629.673, 502.524
630.156, 498.809
630.638, 494.233
631.120, 488.488
631.602, 482.524
632.084, 479.411
632.566, 483.168
633.048, 488.230
633.530, 491.839
634.012, 493.736
634.495, 493.782
634.977, 489.258
635.459, 485.000
635.941, 484.118
636.423, 489.130
636.905, 489.719
637.387, 483.187
637.869, 476.157
638.351, 477.964
638.834, 488.791
639.316, 495.665
639.798, 495.210
640.280, 491.350
640.762, 488.967
641.244, 488.397
641.726, 490.790
642.208, 501.119
642.690, 511.296
643.173, 513.398
643.655, 508.664
644.137, 504.361
644.619, 502.987
645.101, 503.054
645.583, 504.119
646.065, 506.571
646.547, 507.974
647.029, 507.039
647.512, 506.450
647.994, 508.849
648.476, 515.183
648.958, 518.930
649.440, 518.881
649.922, 517.812
650.404, 520.578
650.886, 526.234
651.369, 529.786
