##NAMES=Lamprophyllite
##RRUFFID=R070200
##IDEAL CHEMISTRY=(SrNa)Ti^4+^_2_Na_3_Ti^4+^(Si_2_O_7_)_2_O_2_(OH)_2_
##LOCALITY=Windy Boy Peak, Bearpaw Mountains, Hill County, Montana, USA
##OWNER=RRUFF
##SOURCE=James Shigley
##DESCRIPTION=Golden brown translucent platy massive associated with quartz
##STATUS=The identification of this mineral is confirmed by single-crystal X-ray diffraction and chemical analysis.
##URL=rruff.info/R070200
##MEASURED CHEMISTRY=(Na_2.64_Mn^2+^_0.22_Mg_0.15_)_Σ=3.01_(Sr_1.19_K_0.18_Ba_0.13_Ca_0.09_)(Ti_2.82_Fe_0.33_Al_0.01_)_Σ=3.16_(Si_1.95_O_7_)_2_O_2_[(OH)_1.34_F_0.66_]_Σ=2_
127.5770, 1582.225
128.0591, 1676.748
128.5412, 1760.117
129.0233, 1837.460
129.5054, 1890.109
129.9875, 1957.159
130.4697, 2068.048
130.9518, 2208.178
131.4339, 2339.017
131.9160, 2433.886
132.3981, 2493.491
132.8802, 2507.246
133.3624, 2429.331
133.8445, 2342.146
134.3266, 2265.282
134.8087, 2203.467
135.2908, 2157.592
135.7729, 2132.462
136.2551, 2135.054
136.7372, 2123.528
137.2193, 2085.354
137.7014, 2045.111
138.1835, 2006.594
138.6656, 1974.477
139.1478, 1957.563
139.6299, 1967.205
140.1120, 2011.465
140.5941, 2058.388
141.0762, 2099.521
141.5583, 2148.874
142.0405, 2215.344
142.5226, 2299.413
143.0047, 2394.608
143.4868, 2494.157
143.9689, 2598.729
144.4510, 2705.621
144.9332, 2817.004
145.4153, 2928.611
145.8974, 3039.978
146.3795, 3150.086
146.8616, 3254.187
147.3438, 3345.837
147.8259, 3420.278
148.3080, 3490.658
148.7901, 3567.962
149.2722, 3635.192
149.7543, 3677.283
150.2365, 3691.052
150.7186, 3684.023
151.2007, 3664.190
151.6828, 3625.866
152.1649, 3590.455
152.6470, 3565.392
153.1292, 3541.047
153.6113, 3503.847
154.0934, 3449.986
154.5755, 3392.783
155.0576, 3350.126
155.5397, 3321.998
156.0219, 3306.018
156.5040, 3302.711
156.9861, 3311.182
157.4682, 3330.951
157.9503, 3362.163
158.4324, 3402.961
158.9146, 3452.366
159.3967, 3509.943
159.8788, 3572.704
160.3609, 3643.139
160.8430, 3717.549
161.3251, 3790.428
161.8073, 3861.138
162.2894, 3927.106
162.7715, 3985.071
163.2536, 4035.973
163.7357, 4077.988
164.2178, 4099.284
164.7000, 4112.031
165.1821, 4142.041
165.6642, 4197.696
166.1463, 4265.136
166.6284, 4333.695
167.1105, 4403.627
167.5927, 4460.682
168.0748, 4494.823
168.5569, 4511.795
169.0390, 4527.067
169.5211, 4545.715
170.0032, 4558.756
170.4854, 4561.652
170.9675, 4554.851
171.4496, 4529.170
171.9317, 4468.562
172.4138, 4384.101
172.8959, 4311.073
173.3781, 4258.336
173.8602, 4213.148
174.3423, 4166.425
174.8244, 4117.605
175.3065, 4063.168
175.7886, 3996.695
176.2708, 3922.029
176.7529, 3851.414
177.2350, 3781.855
177.7171, 3724.463
178.1992, 3689.948
178.6813, 3674.809
179.1634, 3662.137
179.6456, 3642.024
180.1277, 3616.060
180.6098, 3591.473
181.0919, 3568.950
181.5740, 3547.933
182.0561, 3526.644
182.5383, 3505.799
183.0204, 3488.420
183.5025, 3479.031
183.9846, 3475.658
184.4667, 3467.315
184.9488, 3450.814
185.4310, 3432.922
185.9131, 3416.406
186.3952, 3401.741
186.8773, 3390.007
187.3594, 3379.924
187.8415, 3372.638
188.3237, 3376.063
188.8058, 3399.817
189.2879, 3420.940
189.7700, 3429.744
190.2521, 3427.454
190.7342, 3416.726
191.2164, 3394.409
191.6985, 3363.939
192.1806, 3343.244
192.6627, 3336.426
193.1448, 3334.219
193.6269, 3333.482
194.1091, 3333.515
194.5912, 3332.672
195.0733, 3327.756
195.5554, 3321.329
196.0375, 3326.266
196.5196, 3354.508
197.0018, 3375.331
197.4839, 3373.560
197.9660, 3357.948
198.4481, 3342.495
198.9302, 3334.583
199.4123, 3332.301
199.8945, 3329.306
200.3766, 3325.908
200.8587, 3321.083
201.3408, 3312.164
201.8229, 3302.388
202.3050, 3296.238
202.7872, 3296.000
203.2693, 3300.609
203.7514, 3308.168
204.2335, 3322.860
204.7156, 3332.207
205.1977, 3332.827
205.6799, 3326.945
206.1620, 3315.528
206.6441, 3297.649
207.1262, 3278.072
207.6083, 3268.153
208.0904, 3272.719
208.5726, 3277.046
209.0547, 3277.482
209.5368, 3275.830
210.0189, 3273.420
210.5010, 3270.660
210.9831, 3267.967
211.4653, 3266.071
211.9474, 3265.031
212.4295, 3247.315
212.9116, 3271.294
213.3937, 3285.839
213.8758, 3291.456
214.3580, 3261.405
214.8401, 3277.412
215.3222, 3274.961
215.8043, 3271.752
216.2864, 3294.242
216.7685, 3269.378
217.2507, 3291.460
217.7328, 3294.802
218.2149, 3306.721
218.6970, 3300.068
219.1791, 3299.150
219.6612, 3316.811
220.1434, 3324.186
220.6255, 3315.395
221.1076, 3327.858
221.5897, 3302.346
222.0718, 3310.158
222.5539, 3332.348
223.0361, 3324.491
223.5182, 3337.295
224.0003, 3342.229
224.4824, 3311.403
224.9645, 3329.695
225.4466, 3336.528
225.9288, 3344.388
226.4109, 3349.451
226.8930, 3346.202
227.3751, 3334.524
227.8572, 3328.323
228.3393, 3332.283
228.8215, 3337.029
229.3036, 3339.364
229.7857, 3339.167
230.2678, 3336.400
230.7499, 3327.459
231.2320, 3314.781
231.7142, 3315.687
232.1963, 3335.870
232.6784, 3363.103
233.1605, 3399.931
233.6426, 3438.441
234.1247, 3464.520
234.6069, 3465.838
235.0890, 3451.350
235.5711, 3449.268
236.0532, 3462.765
236.5353, 3483.333
237.0174, 3511.706
237.4996, 3543.171
237.9817, 3571.604
238.4638, 3593.228
238.9459, 3612.563
239.4280, 3639.409
239.9101, 3677.307
240.3923, 3712.265
240.8744, 3734.943
241.3565, 3754.636
241.8386, 3779.517
242.3207, 3811.976
242.8028, 3849.770
243.2850, 3892.300
243.7671, 3941.111
244.2492, 3984.919
244.7313, 4016.615
245.2134, 4044.731
245.6955, 4077.480
246.1777, 4116.473
246.6598, 4151.240
247.1419, 4168.295
247.6240, 4168.000
248.1061, 4174.412
248.5882, 4192.951
249.0704, 4219.550
249.5525, 4254.856
250.0346, 4297.802
250.5167, 4334.802
250.9988, 4354.109
251.4809, 4358.835
251.9631, 4365.233
252.4452, 4377.339
252.9273, 4387.678
253.4094, 4386.796
253.8915, 4378.350
254.3736, 4376.542
254.8558, 4395.641
255.3379, 4424.938
255.8200, 4439.446
256.3021, 4434.301
256.7842, 4425.299
257.2664, 4418.089
257.7485, 4415.046
258.2306, 4423.346
258.7127, 4466.184
259.1948, 4508.546
259.6769, 4495.010
260.1591, 4419.528
260.6412, 4352.526
261.1233, 4340.635
261.6054, 4361.072
262.0875, 4369.296
262.5696, 4356.263
263.0518, 4336.076
263.5339, 4314.500
264.0160, 4292.840
264.4981, 4283.274
264.9802, 4296.037
265.4623, 4319.436
265.9445, 4331.347
266.4266, 4329.078
266.9087, 4324.198
267.3908, 4321.757
267.8729, 4320.958
268.3550, 4318.779
268.8372, 4312.998
269.3193, 4308.721
269.8014, 4316.184
270.2835, 4336.044
270.7656, 4353.818
271.2477, 4363.331
271.7299, 4369.671
272.2120, 4380.673
272.6941, 4398.027
273.1762, 4414.860
273.6583, 4422.650
274.1404, 4420.397
274.6226, 4424.555
275.1047, 4442.212
275.5868, 4462.041
276.0689, 4476.072
276.5510, 4483.880
277.0331, 4487.919
277.5153, 4489.863
277.9974, 4489.492
278.4795, 4485.710
278.9616, 4468.944
279.4437, 4458.898
279.9258, 4468.484
280.4080, 4491.378
280.8901, 4513.014
281.3722, 4526.214
281.8543, 4532.366
282.3364, 4536.058
282.8185, 4529.002
283.3007, 4529.842
283.7828, 4549.258
284.2649, 4574.546
284.7470, 4588.134
285.2291, 4584.502
285.7112, 4575.921
286.1934, 4584.311
286.6755, 4625.713
287.1576, 4652.601
287.6397, 4656.052
288.1218, 4652.719
288.6039, 4652.335
289.0861, 4657.015
289.5682, 4665.902
290.0503, 4679.210
290.5324, 4698.955
291.0145, 4710.259
291.4966, 4703.623
291.9788, 4698.520
292.4609, 4703.588
292.9430, 4716.122
293.4251, 4729.060
293.9072, 4737.774
294.3893, 4742.646
294.8715, 4746.027
295.3536, 4746.204
295.8357, 4747.133
296.3178, 4749.850
296.7999, 4753.594
297.2820, 4757.850
297.7642, 4762.503
298.2463, 4766.519
298.7284, 4767.474
299.2105, 4763.749
299.6926, 4761.322
300.1747, 4760.158
300.6569, 4761.236
301.1390, 4766.813
301.6211, 4776.760
302.1032, 4786.288
302.5853, 4787.757
303.0674, 4780.793
303.5495, 4783.305
304.0316, 4801.061
304.5138, 4824.495
304.9959, 4855.894
305.4780, 4889.681
305.9601, 4908.367
306.4422, 4891.047
306.9243, 4851.781
307.4065, 4830.172
307.8886, 4829.564
308.3707, 4837.744
308.8528, 4855.598
309.3349, 4876.183
309.8170, 4887.989
310.2992, 4883.996
310.7813, 4875.721
311.2634, 4874.400
311.7455, 4879.853
312.2276, 4888.537
312.7097, 4899.865
313.1919, 4913.224
313.6740, 4928.788
314.1561, 4949.081
314.6382, 4963.015
315.1203, 4960.243
315.6024, 4947.831
316.0846, 4940.896
316.5667, 4943.326
317.0488, 4950.323
317.5309, 4956.391
318.0130, 4961.369
318.4951, 4967.954
318.9773, 4984.031
319.4594, 4996.793
319.9415, 4989.729
320.4236, 4964.457
320.9057, 4941.961
321.3878, 4938.808
321.8700, 4953.708
322.3521, 4964.502
322.8342, 4973.629
323.3163, 4976.742
323.7984, 4969.571
324.2805, 4955.715
324.7627, 4940.828
325.2448, 4927.267
325.7269, 4915.567
326.2090, 4906.848
326.6911, 4898.089
327.1732, 4897.380
327.6554, 4911.122
328.1375, 4928.559
328.6196, 4940.027
329.1017, 4944.396
329.5838, 4948.266
330.0659, 4960.220
330.5481, 4983.170
331.0302, 4998.638
331.5123, 4992.064
331.9944, 4992.301
332.4765, 5013.128
332.9586, 5048.962
333.4408, 5086.593
333.9229, 5117.337
334.4050, 5143.576
334.8871, 5176.345
335.3692, 5224.759
335.8513, 5261.436
336.3335, 5272.949
336.8156, 5273.635
337.2977, 5276.068
337.7798, 5283.712
338.2619, 5295.128
338.7440, 5309.453
339.2262, 5326.804
339.7083, 5344.586
340.1904, 5367.252
340.6725, 5384.358
341.1546, 5387.937
341.6367, 5378.697
342.1189, 5364.053
342.6010, 5343.401
343.0831, 5320.877
343.5652, 5307.507
344.0473, 5306.389
344.5294, 5302.160
345.0116, 5277.959
345.4937, 5242.648
345.9758, 5221.699
346.4579, 5233.873
346.9400, 5245.233
347.4221, 5225.719
347.9043, 5184.055
348.3864, 5153.169
348.8685, 5149.298
349.3506, 5158.795
349.8327, 5152.252
350.3148, 5125.782
350.7970, 5096.858
351.2791, 5066.931
351.7612, 5036.657
352.2433, 5004.076
352.7254, 4969.781
353.2076, 4940.815
353.6897, 4925.270
354.1718, 4925.198
354.6539, 4921.596
355.1360, 4916.359
355.6181, 4906.460
356.1003, 4889.012
356.5824, 4866.164
357.0645, 4840.254
357.5466, 4811.695
358.0287, 4784.971
358.5108, 4775.766
358.9930, 4805.887
359.4751, 4815.736
359.9572, 4785.799
360.4393, 4745.056
360.9214, 4716.030
361.4035, 4702.634
361.8857, 4694.089
362.3678, 4677.623
362.8499, 4652.499
363.3320, 4634.488
363.8141, 4626.304
364.2962, 4622.888
364.7784, 4624.809
365.2605, 4629.087
365.7426, 4629.437
366.2247, 4621.920
366.7068, 4609.871
367.1889, 4598.983
367.6711, 4589.464
368.1532, 4578.275
368.6353, 4561.414
369.1174, 4544.026
369.5995, 4534.740
370.0816, 4537.002
370.5638, 4534.699
371.0459, 4512.431
371.5280, 4480.228
372.0101, 4460.985
372.4922, 4460.329
372.9743, 4465.681
373.4565, 4465.073
373.9386, 4458.080
374.4207, 4450.243
374.9028, 4445.195
375.3849, 4436.331
375.8670, 4414.849
376.3492, 4385.357
376.8313, 4363.144
377.3134, 4357.820
377.7955, 4362.570
378.2776, 4354.807
378.7597, 4320.108
379.2419, 4290.388
379.7240, 4265.728
380.2061, 4246.975
380.6882, 4239.645
381.1703, 4242.224
381.6524, 4242.174
382.1346, 4223.161
382.6167, 4181.989
383.0988, 4152.777
383.5809, 4134.104
384.0630, 4130.916
384.5451, 4156.717
385.0273, 4196.918
385.5094, 4227.134
385.9915, 4233.874
386.4736, 4228.450
386.9557, 4230.798
387.4378, 4241.123
387.9200, 4257.906
388.4021, 4279.222
388.8842, 4308.959
389.3663, 4354.629
389.8484, 4416.658
390.3305, 4474.196
390.8127, 4512.627
391.2948, 4538.539
391.7769, 4567.891
392.2590, 4602.935
392.7411, 4636.013
393.2232, 4657.616
393.7054, 4671.783
394.1875, 4697.524
394.6696, 4744.906
395.1517, 4794.875
395.6338, 4834.501
396.1159, 4869.390
396.5981, 4914.045
397.0802, 4974.603
397.5623, 5041.545
398.0444, 5098.801
398.5265, 5143.137
399.0086, 5183.474
399.4908, 5218.956
399.9729, 5250.929
400.4550, 5275.476
400.9371, 5296.276
401.4192, 5324.423
401.9013, 5369.125
402.3835, 5427.764
402.8656, 5485.309
403.3477, 5545.847
403.8298, 5597.941
404.3119, 5635.616
404.7940, 5667.389
405.2762, 5700.342
405.7583, 5736.619
406.2404, 5776.537
406.7225, 5822.299
407.2046, 5873.800
407.6867, 5923.022
408.1689, 5974.458
408.6510, 6014.915
409.1331, 6026.922
409.6152, 6021.610
410.0973, 6028.585
410.5794, 6069.182
411.0616, 6116.578
411.5437, 6141.969
412.0258, 6147.432
412.5079, 6146.370
412.9900, 6141.269
413.4721, 6136.570
413.9543, 6143.659
414.4364, 6167.809
414.9185, 6183.035
415.4006, 6182.669
415.8827, 6172.398
416.3648, 6154.760
416.8470, 6131.549
417.3291, 6107.872
417.8112, 6087.603
418.2933, 6070.740
418.7754, 6057.342
419.2575, 6051.240
419.7397, 6044.179
420.2218, 6046.908
420.7039, 6042.455
421.1860, 6004.951
421.6681, 5929.258
422.1502, 5846.035
422.6324, 5800.536
423.1145, 5800.522
423.5966, 5777.181
424.0787, 5718.609
424.5608, 5646.069
425.0429, 5563.474
425.5251, 5475.995
426.0072, 5395.787
426.4893, 5332.773
426.9714, 5272.552
427.4535, 5193.547
427.9356, 5095.744
428.4178, 4999.315
428.8999, 4910.522
429.3820, 4826.985
429.8641, 4744.366
430.3462, 4661.991
430.8283, 4583.728
431.3105, 4512.448
431.7926, 4444.569
432.2747, 4378.475
432.7568, 4313.078
433.2389, 4242.708
433.7210, 4161.303
434.2032, 4072.983
434.6853, 4002.246
435.1674, 3966.974
435.6495, 3927.201
436.1316, 3867.793
436.6137, 3808.467
437.0959, 3771.146
437.5780, 3758.548
438.0601, 3752.704
438.5422, 3732.430
439.0243, 3696.651
439.5064, 3673.874
439.9886, 3671.211
440.4707, 3672.518
440.9528, 3670.090
441.4349, 3667.801
441.9170, 3671.170
442.3991, 3681.948
442.8813, 3698.958
443.3634, 3721.440
443.8455, 3749.223
444.3276, 3780.934
444.8097, 3816.308
445.2918, 3855.461
445.7740, 3899.635
446.2561, 3948.333
446.7382, 4000.162
447.2203, 4057.847
447.7024, 4115.803
448.1845, 4165.578
448.6667, 4211.617
449.1488, 4268.474
449.6309, 4344.171
450.1130, 4430.671
450.5951, 4510.346
451.0772, 4570.404
451.5594, 4647.081
452.0415, 4755.852
452.5236, 4867.088
453.0057, 4961.048
453.4878, 5039.601
453.9699, 5115.333
454.4521, 5198.070
454.9342, 5284.011
455.4163, 5358.973
455.8984, 5420.880
456.3805, 5477.010
456.8626, 5533.391
457.3448, 5581.627
457.8269, 5614.612
458.3090, 5631.497
458.7911, 5634.884
459.2732, 5626.917
459.7553, 5606.471
460.2375, 5569.477
460.7196, 5515.274
461.2017, 5450.956
461.6838, 5377.391
462.1659, 5298.015
462.6480, 5225.953
463.1302, 5173.913
463.6123, 5111.491
464.0944, 5020.559
464.5765, 4918.954
465.0586, 4828.906
465.5407, 4754.534
466.0229, 4685.419
466.5050, 4610.336
466.9871, 4528.254
467.4692, 4455.625
467.9513, 4401.754
468.4334, 4346.587
468.9156, 4286.626
469.3977, 4222.548
469.8798, 4153.350
470.3619, 4078.331
470.8440, 4007.994
471.3261, 3957.935
471.8083, 3926.283
472.2904, 3884.585
472.7725, 3823.232
473.2546, 3765.297
473.7367, 3734.055
474.2188, 3719.549
474.7010, 3699.534
475.1831, 3666.331
475.6652, 3631.003
476.1473, 3602.185
476.6294, 3576.508
477.1115, 3544.283
477.5937, 3502.271
478.0758, 3459.991
478.5579, 3429.940
479.0400, 3414.875
479.5221, 3398.742
480.0042, 3380.791
480.4864, 3362.887
480.9685, 3341.500
481.4506, 3321.754
481.9327, 3313.246
482.4148, 3320.234
482.8969, 3333.423
483.3791, 3337.474
483.8612, 3330.938
484.3433, 3325.933
484.8254, 3323.906
485.3075, 3323.371
485.7896, 3320.589
486.2718, 3318.244
486.7539, 3323.865
487.2360, 3342.789
487.7181, 3367.573
488.2002, 3394.221
488.6823, 3421.242
489.1645, 3440.510
489.6466, 3447.598
490.1287, 3453.201
490.6108, 3473.093
491.0929, 3513.067
491.5750, 3541.729
492.0572, 3549.789
492.5393, 3556.049
493.0214, 3568.426
493.5035, 3586.317
493.9856, 3608.805
494.4677, 3635.469
494.9499, 3661.594
495.4320, 3678.107
495.9141, 3683.175
496.3962, 3685.667
496.8783, 3683.310
497.3604, 3681.270
497.8426, 3682.667
498.3247, 3686.390
498.8068, 3689.825
499.2889, 3693.425
499.7710, 3694.168
500.2531, 3686.392
500.7353, 3671.717
501.2174, 3660.327
501.6995, 3655.988
502.1816, 3653.743
502.6637, 3649.988
503.1458, 3645.913
503.6280, 3626.293
504.1101, 3568.824
504.5922, 3517.620
505.0743, 3499.830
505.5564, 3504.011
506.0385, 3509.313
506.5207, 3507.021
507.0028, 3498.910
507.4849, 3486.871
507.9670, 3469.357
508.4491, 3454.038
508.9312, 3438.145
509.4134, 3427.927
509.8955, 3433.436
510.3776, 3445.163
510.8597, 3442.795
511.3418, 3412.684
511.8239, 3381.125
512.3061, 3383.177
512.7882, 3409.328
513.2703, 3415.685
513.7524, 3389.357
514.2346, 3353.352
514.7167, 3329.398
515.1988, 3318.210
515.6809, 3307.170
516.1630, 3294.059
516.6451, 3283.559
517.1273, 3279.662
517.6094, 3278.684
518.0915, 3273.974
518.5736, 3264.048
519.0557, 3255.392
519.5378, 3258.985
520.0200, 3276.715
520.5021, 3279.170
520.9842, 3257.439
521.4663, 3232.812
521.9484, 3208.784
522.4305, 3188.867
522.9127, 3179.648
523.3948, 3184.484
523.8769, 3189.887
524.3590, 3184.891
524.8411, 3172.923
525.3232, 3161.836
525.8054, 3152.730
526.2875, 3143.340
526.7696, 3130.624
527.2517, 3116.037
527.7338, 3110.504
528.2159, 3125.201
528.6981, 3133.003
529.1802, 3125.570
529.6623, 3111.822
530.1444, 3099.153
530.6265, 3089.027
531.1086, 3080.647
531.5908, 3074.518
532.0729, 3069.050
532.5550, 3054.542
533.0371, 3025.898
533.5192, 3002.314
534.0013, 2995.251
534.4835, 2992.280
534.9656, 2980.406
535.4477, 2958.903
535.9298, 2941.327
536.4119, 2935.374
536.8940, 2935.266
537.3762, 2937.064
537.8583, 2939.257
538.3404, 2934.471
538.8225, 2917.700
539.3046, 2896.716
539.7867, 2889.584
540.2689, 2909.137
540.7510, 2914.826
541.2331, 2894.743
541.7152, 2873.714
542.1973, 2868.200
542.6794, 2871.538
543.1616, 2866.145
543.6437, 2841.655
544.1258, 2812.850
544.6079, 2804.507
545.0900, 2816.320
545.5721, 2826.583
546.0543, 2832.218
546.5364, 2834.499
547.0185, 2830.797
547.5006, 2823.726
547.9827, 2824.815
548.4648, 2848.380
548.9469, 2866.029
549.4290, 2853.962
549.9111, 2830.992
550.3932, 2829.762
550.8754, 2856.026
551.3575, 2884.948
551.8396, 2889.686
552.3217, 2870.844
552.8038, 2864.712
553.2859, 2883.886
553.7681, 2896.307
554.2502, 2886.073
554.7323, 2871.510
555.2144, 2872.040
555.6965, 2889.905
556.1786, 2907.758
556.6608, 2910.682
557.1429, 2907.599
557.6250, 2914.480
558.1071, 2931.673
558.5892, 2954.248
559.0714, 2982.329
559.5535, 3010.088
560.0356, 3023.547
560.5177, 3006.359
560.9998, 3012.102
561.4819, 3063.359
561.9641, 3116.990
562.4462, 3147.755
562.9283, 3161.039
563.4104, 3172.079
563.8925, 3187.806
564.3746, 3207.410
564.8568, 3230.667
565.3389, 3257.628
565.8210, 3283.686
566.3031, 3305.165
566.7852, 3331.214
567.2673, 3369.390
567.7495, 3417.319
568.2316, 3470.797
568.7137, 3533.088
569.1958, 3595.057
569.6779, 3650.596
570.1600, 3704.333
570.6422, 3760.936
571.1243, 3822.241
571.6064, 3892.639
572.0885, 3976.530
572.5706, 4072.471
573.0527, 4170.486
573.5349, 4277.460
574.0170, 4373.732
574.4991, 4436.779
574.9812, 4504.403
575.4633, 4608.906
575.9454, 4746.815
576.4276, 4886.748
576.9097, 5014.194
577.3918, 5133.942
577.8739, 5246.800
578.3560, 5355.882
578.8381, 5480.004
579.3203, 5627.723
579.8024, 5780.186
580.2845, 5914.023
580.7666, 6030.040
581.2487, 6121.586
581.7308, 6186.975
582.2130, 6234.141
582.6951, 6264.592
583.1772, 6278.101
583.6593, 6272.134
584.1414, 6246.811
584.6235, 6208.873
585.1057, 6168.620
585.5878, 6121.982
586.0699, 6050.399
586.5520, 5952.224
587.0341, 5837.667
587.5162, 5705.151
587.9984, 5562.429
588.4805, 5421.689
588.9626, 5280.733
589.4447, 5149.671
589.9268, 5027.346
590.4089, 4917.127
590.8911, 4828.218
591.3732, 4752.330
591.8553, 4670.977
592.3374, 4575.636
592.8195, 4476.372
593.3016, 4389.366
593.7838, 4315.398
594.2659, 4249.594
594.7480, 4198.983
595.2301, 4144.692
595.7122, 4066.049
596.1943, 3979.610
596.6765, 3914.157
597.1586, 3877.608
597.6407, 3848.941
598.1228, 3823.533
598.6049, 3798.094
599.0870, 3767.191
599.5692, 3731.604
600.0513, 3697.427
600.5334, 3668.421
601.0155, 3642.958
601.4976, 3616.697
601.9797, 3590.398
602.4619, 3561.215
602.9440, 3526.565
603.4261, 3491.205
603.9082, 3456.927
604.3903, 3423.787
604.8724, 3391.266
605.3546, 3357.795
605.8367, 3327.924
606.3188, 3309.974
606.8009, 3297.055
607.2830, 3274.313
607.7651, 3239.388
608.2473, 3197.811
608.7294, 3151.412
609.2115, 3103.445
609.6936, 3071.517
610.1757, 3073.270
610.6578, 3062.296
611.1400, 3024.058
611.6221, 2982.951
612.1042, 2954.705
612.5863, 2937.626
613.0684, 2922.842
613.5505, 2907.873
614.0327, 2890.049
614.5148, 2863.192
614.9969, 2830.249
615.4790, 2803.573
615.9611, 2786.198
616.4432, 2771.327
616.9254, 2752.731
617.4075, 2730.961
617.8896, 2713.275
618.3717, 2702.605
618.8538, 2692.088
