##NAMES=Lamprophyllite
##RRUFFID=R070284
##IDEAL CHEMISTRY=(SrNa)Ti^4+^_2_Na_3_Ti^4+^(Si_2_O_7_)_2_O_2_(OH)_2_
##LOCALITY=Lovozero Massif,  Kola Peninsula,  Murmanskaja Oblast',  Northern Region,  Russia
##OWNER=RRUFF
##SOURCE=Michael Scott
##DESCRIPTION=Stellate groups of transparent brown bladed crystals
##STATUS=The identification of this mineral has been confirmed by X-ray diffraction and chemical analysis
##URL=rruff.info/R070284
##MEASURED CHEMISTRY=(Na_2.35_Mn_0.36_Mg_0.17_Ca_0.12_)(Sr_1.08_Na_0.35_K_0.09_Ba_0.01_)(Ti_2.80_Fe_0.26_Al_0.02_)Si_3.87_O_16_[(OH)_1.14_F_0.86_]
148.6976, 4802.994
149.1797, 4833.431
149.6618, 4864.618
150.1439, 4911.773
150.6261, 4988.299
151.1082, 5068.225
151.5903, 5143.347
152.0724, 5206.542
152.5545, 5280.094
153.0366, 5373.483
153.5188, 5477.683
154.0009, 5574.539
154.4830, 5654.360
154.9651, 5732.587
155.4472, 5817.039
155.9293, 5912.858
156.4115, 6008.370
156.8936, 6098.472
157.3757, 6185.992
157.8578, 6281.944
158.3399, 6396.461
158.8221, 6516.254
159.3042, 6633.738
159.7863, 6740.220
160.2684, 6850.749
160.7505, 6967.099
161.2326, 7090.858
161.7148, 7226.274
162.1969, 7379.997
162.6790, 7545.240
163.1611, 7713.417
163.6432, 7868.835
164.1253, 8038.324
164.6075, 8244.357
165.0896, 8488.034
165.5717, 8729.504
166.0538, 8945.071
166.5359, 9144.813
167.0180, 9343.685
167.5002, 9565.589
167.9823, 9779.735
168.4644, 9970.722
168.9465, 10140.67
169.4286, 10264.84
169.9107, 10324.72
170.3929, 10325.05
170.8750, 10277.23
171.3571, 10191.15
171.8392, 10058.46
172.3213, 9862.896
172.8034, 9595.992
173.2856, 9294.163
173.7677, 8973.869
174.2498, 8640.795
174.7319, 8320.403
175.2140, 8022.156
175.6961, 7747.010
176.1783, 7498.970
176.6604, 7284.269
177.1425, 7092.203
177.6246, 6912.238
178.1067, 6745.986
178.5888, 6591.841
179.0710, 6451.208
179.5531, 6324.170
180.0352, 6214.874
180.5173, 6130.134
180.9994, 6058.808
181.4815, 5982.422
181.9637, 5900.758
182.4458, 5828.102
182.9279, 5780.066
183.4100, 5751.757
183.8921, 5723.509
184.3742, 5687.099
184.8564, 5648.208
185.3385, 5622.640
185.8206, 5610.908
186.3027, 5603.578
186.7848, 5592.844
187.2669, 5578.666
187.7491, 5560.123
188.2312, 5530.737
188.7133, 5496.549
189.1954, 5480.521
189.6775, 5484.266
190.1596, 5499.633
190.6418, 5520.596
191.1239, 5546.871
191.6060, 5570.638
192.0881, 5585.747
192.5702, 5593.859
193.0524, 5610.331
193.5345, 5636.362
194.0166, 5667.470
194.4987, 5698.266
194.9808, 5729.007
195.4629, 5755.662
195.9451, 5770.817
196.4272, 5775.134
196.9093, 5796.284
197.3914, 5839.013
197.8735, 5892.486
198.3556, 5934.405
198.8378, 5962.153
199.3199, 5993.954
199.8020, 6040.082
200.2841, 6100.831
200.7662, 6166.330
201.2483, 6238.114
201.7305, 6312.418
202.2126, 6376.767
202.6947, 6426.827
203.1768, 6483.115
203.6589, 6563.213
204.1410, 6671.361
204.6232, 6766.790
205.1053, 6841.487
205.5874, 6903.066
206.0695, 6977.295
206.5516, 7066.889
207.0337, 7162.002
207.5159, 7256.455
207.9980, 7347.410
208.4801, 7442.466
208.9622, 7541.596
209.4443, 7645.476
209.9264, 7760.186
210.4086, 7892.104
210.8907, 8022.550
211.3728, 8135.030
211.8549, 8226.766
212.3370, 8313.739
212.8191, 8401.317
213.3013, 8487.084
213.7834, 8555.960
214.2655, 8603.739
214.7476, 8641.546
215.2297, 8679.563
215.7118, 8722.526
216.1940, 8753.168
216.6761, 8766.277
217.1582, 8762.661
217.6403, 8760.229
218.1224, 8766.617
218.6045, 8764.097
219.0867, 8731.235
219.5688, 8652.154
220.0509, 8581.269
220.5330, 8535.352
221.0151, 8514.648
221.4972, 8477.977
221.9794, 8420.225
222.4615, 8351.905
222.9436, 8283.454
223.4257, 8216.579
223.9078, 8144.595
224.3899, 8063.431
224.8721, 7970.142
225.3542, 7893.097
225.8363, 7838.067
226.3184, 7793.155
226.8005, 7743.438
227.2827, 7687.013
227.7648, 7629.580
228.2469, 7568.938
228.7290, 7502.286
229.2111, 7456.821
229.6932, 7442.311
230.1754, 7441.590
230.6575, 7431.476
231.1396, 7404.646
231.6217, 7381.592
232.1038, 7369.283
232.5859, 7370.573
233.0681, 7366.183
233.5502, 7349.021
234.0323, 7331.265
234.5144, 7331.208
234.9965, 7355.915
235.4786, 7386.632
235.9608, 7419.073
236.4429, 7453.611
236.9250, 7485.813
237.4071, 7512.671
237.8892, 7538.850
238.3713, 7572.283
238.8535, 7617.147
239.3356, 7662.173
239.8177, 7702.178
240.2998, 7733.213
240.7819, 7775.328
241.2640, 7833.279
241.7462, 7900.206
242.2283, 7965.048
242.7104, 8027.531
243.1925, 8088.492
243.6746, 8149.981
244.1567, 8216.597
244.6389, 8266.751
245.1210, 8289.216
245.6031, 8301.803
246.0852, 8338.291
246.5673, 8415.668
247.0494, 8488.049
247.5316, 8539.221
248.0137, 8564.954
248.4958, 8583.100
248.9779, 8590.576
249.4600, 8592.092
249.9421, 8596.728
250.4243, 8608.001
250.9064, 8616.206
251.3885, 8618.332
251.8706, 8614.798
252.3527, 8602.948
252.8348, 8579.961
253.3170, 8550.499
253.7991, 8524.828
254.2812, 8509.460
254.7633, 8485.756
255.2454, 8441.119
255.7275, 8362.832
256.2097, 8314.886
256.6918, 8311.607
257.1739, 8329.354
257.6560, 8323.159
258.1381, 8283.292
258.6202, 8239.320
259.1024, 8200.614
259.5845, 8167.143
260.0666, 8141.183
260.5487, 8125.250
261.0308, 8114.981
261.5129, 8101.129
261.9951, 8081.417
262.4772, 8063.869
262.9593, 8052.816
263.4414, 8050.255
263.9235, 8043.026
264.4056, 8026.758
264.8878, 8009.841
265.3699, 8005.971
265.8520, 8015.629
266.3341, 8037.014
266.8162, 8074.026
267.2983, 8130.668
267.7805, 8174.504
268.2626, 8202.167
268.7447, 8220.297
269.2268, 8240.151
269.7089, 8262.649
270.1910, 8283.460
270.6732, 8300.161
271.1553, 8311.958
271.6374, 8326.639
272.1195, 8344.236
272.6016, 8364.720
273.0837, 8390.969
273.5659, 8426.397
274.0480, 8450.563
274.5301, 8445.578
275.0122, 8409.319
275.4943, 8415.812
275.9764, 8480.132
276.4586, 8558.841
276.9407, 8583.722
277.4228, 8549.421
277.9049, 8506.112
278.3870, 8470.424
278.8691, 8442.212
279.3513, 8419.136
279.8334, 8402.355
280.3155, 8387.728
280.7976, 8368.771
281.2798, 8345.381
281.7619, 8324.184
282.2440, 8310.494
282.7261, 8302.407
283.2082, 8282.582
283.6903, 8248.070
284.1725, 8212.674
284.6546, 8196.855
285.1367, 8199.890
285.6188, 8198.761
286.1009, 8181.894
286.5830, 8153.960
287.0652, 8134.903
287.5473, 8125.400
288.0294, 8121.751
288.5115, 8122.232
288.9936, 8126.220
289.4757, 8128.116
289.9579, 8121.064
290.4400, 8111.777
290.9221, 8124.089
291.4042, 8159.800
291.8863, 8194.646
292.3684, 8196.727
292.8506, 8174.381
293.3327, 8164.337
293.8148, 8184.406
294.2969, 8220.205
294.7790, 8241.661
295.2611, 8248.832
295.7433, 8258.539
296.2254, 8285.584
296.7075, 8327.237
297.1896, 8374.801
297.6717, 8428.946
298.1538, 8486.072
298.6360, 8543.191
299.1181, 8600.160
299.6002, 8649.099
300.0823, 8673.070
300.5644, 8686.440
301.0465, 8717.904
301.5287, 8782.644
302.0108, 8858.773
302.4929, 8918.696
302.9750, 8966.010
303.4571, 9017.917
303.9392, 9093.024
304.4214, 9178.028
304.9035, 9255.456
305.3856, 9313.643
305.8677, 9372.546
306.3498, 9447.001
306.8319, 9535.193
307.3141, 9632.722
307.7962, 9748.363
308.2783, 9865.401
308.7604, 9968.143
309.2425, 10047.69
309.7246, 10120.39
310.2068, 10194.45
310.6889, 10269.77
311.1710, 10346.88
311.6531, 10423.79
312.1352, 10504.06
312.6173, 10589.62
313.0995, 10679.85
313.5816, 10775.26
314.0637, 10883.99
314.5458, 10998.09
315.0279, 11103.47
315.5100, 11189.51
315.9922, 11269.38
316.4743, 11351.44
316.9564, 11439.26
317.4385, 11518.54
317.9206, 11575.33
318.4027, 11622.85
318.8849, 11679.60
319.3670, 11759.70
319.8491, 11841.81
320.3312, 11922.88
320.8133, 12006.09
321.2954, 12068.20
321.7776, 12096.91
322.2597, 12105.95
322.7418, 12109.99
323.2239, 12103.18
323.7060, 12099.48
324.1881, 12100.47
324.6703, 12105.89
325.1524, 12120.96
325.6345, 12163.70
326.1166, 12206.71
326.5987, 12228.00
327.0808, 12189.03
327.5630, 12173.78
328.0451, 12204.06
328.5272, 12276.93
329.0093, 12327.38
329.4914, 12337.66
329.9735, 12340.58
330.4557, 12356.73
330.9378, 12389.49
331.4199, 12430.04
331.9020, 12479.77
332.3841, 12537.24
332.8662, 12595.51
333.3484, 12652.50
333.8305, 12712.53
334.3126, 12780.43
334.7947, 12860.74
335.2768, 12932.05
335.7589, 12990.02
336.2411, 13040.08
336.7232, 13100.72
337.2053, 13178.50
337.6874, 13246.44
338.1695, 13285.08
338.6516, 13288.07
339.1338, 13317.90
339.6159, 13383.92
340.0980, 13463.37
340.5801, 13517.45
341.0622, 13545.28
341.5443, 13560.74
342.0265, 13569.47
342.5086, 13571.14
342.9907, 13558.69
343.4728, 13528.32
343.9549, 13499.20
344.4370, 13505.84
344.9192, 13543.06
345.4013, 13560.28
345.8834, 13529.43
346.3655, 13468.57
346.8476, 13427.41
347.3297, 13406.71
347.8119, 13388.57
348.2940, 13350.00
348.7761, 13299.81
349.2582, 13266.96
349.7403, 13269.84
350.2225, 13282.47
350.7046, 13263.57
351.1867, 13216.71
351.6688, 13170.67
352.1509, 13153.19
352.6331, 13147.93
353.1152, 13126.96
353.5973, 13072.49
354.0794, 13022.75
354.5615, 13017.99
355.0436, 13047.33
355.5258, 13077.65
356.0079, 13089.53
356.4900, 13095.10
356.9721, 13101.58
357.4542, 13105.77
357.9363, 13125.47
358.4185, 13180.66
358.9006, 13257.06
359.3827, 13329.90
359.8648, 13377.01
360.3469, 13428.01
360.8290, 13500.49
361.3112, 13598.88
361.7933, 13699.32
362.2754, 13794.10
362.7575, 13887.80
363.2396, 13985.82
363.7217, 14092.22
364.2039, 14198.86
364.6860, 14300.46
365.1681, 14397.32
365.6502, 14503.98
366.1323, 14636.96
366.6144, 14772.05
367.0966, 14892.96
367.5787, 14986.41
368.0608, 15079.66
368.5429, 15172.22
369.0250, 15265.60
369.5071, 15366.67
369.9893, 15491.13
370.4714, 15604.65
370.9535, 15690.14
371.4356, 15738.68
371.9177, 15778.90
372.3998, 15818.43
372.8820, 15846.09
373.3641, 15837.27
373.8462, 15790.25
374.3283, 15711.52
374.8104, 15599.23
375.2925, 15449.75
375.7747, 15302.64
376.2568, 15166.20
376.7389, 15013.28
377.2210, 14803.28
377.7031, 14533.18
378.1852, 14250.10
378.6674, 13961.02
379.1495, 13670.52
379.6316, 13388.94
380.1137, 13120.17
380.5958, 12846.20
381.0779, 12540.12
381.5601, 12209.44
382.0422, 11917.09
382.5243, 11681.38
383.0064, 11475.97
383.4885, 11253.94
383.9706, 11016.98
384.4528, 10793.16
384.9349, 10588.75
385.4170, 10411.37
385.8991, 10274.75
386.3812, 10188.19
386.8633, 10114.51
387.3455, 10019.57
387.8276, 9911.048
388.3097, 9804.754
388.7918, 9700.021
389.2739, 9607.479
389.7560, 9537.954
390.2382, 9493.354
390.7203, 9458.583
391.2024, 9430.619
391.6845, 9406.395
392.1666, 9382.025
392.6487, 9358.106
393.1309, 9332.232
393.6130, 9306.070
394.0951, 9278.814
394.5772, 9242.757
395.0593, 9191.187
395.5414, 9133.153
396.0236, 9074.770
396.5057, 9018.198
396.9878, 8959.450
397.4699, 8904.805
397.9520, 8848.778
398.4341, 8774.176
398.9163, 8650.304
399.3984, 8539.812
399.8805, 8468.096
400.3626, 8450.700
400.8447, 8426.231
401.3268, 8393.105
401.8090, 8354.091
402.2911, 8309.045
402.7732, 8249.907
403.2553, 8207.778
403.7374, 8197.148
404.2195, 8215.533
404.7017, 8214.697
405.1838, 8188.334
405.6659, 8159.674
406.1480, 8154.677
406.6301, 8173.855
407.1122, 8178.041
407.5944, 8152.963
408.0765, 8116.324
408.5586, 8115.482
409.0407, 8149.736
409.5228, 8184.964
410.0049, 8198.887
410.4871, 8196.142
410.9692, 8187.891
411.4513, 8173.736
411.9334, 8160.137
412.4155, 8152.701
412.8976, 8151.434
413.3798, 8156.357
413.8619, 8176.651
414.3440, 8197.822
414.8261, 8203.007
415.3082, 8191.905
415.7903, 8178.443
416.2725, 8173.292
416.7546, 8170.209
417.2367, 8161.723
417.7188, 8137.635
418.2009, 8116.583
418.6830, 8111.504
419.1652, 8117.752
419.6473, 8118.471
420.1294, 8112.517
420.6115, 8096.271
421.0937, 8063.264
421.5758, 7994.327
422.0579, 7949.795
422.5400, 7961.502
423.0221, 7997.185
423.5042, 8004.125
423.9864, 7968.314
424.4685, 7917.221
424.9506, 7847.100
425.4327, 7755.214
425.9148, 7694.517
426.3969, 7685.083
426.8791, 7683.968
427.3612, 7651.896
427.8433, 7577.069
428.3254, 7509.521
428.8075, 7460.069
429.2896, 7421.187
429.7718, 7367.659
430.2539, 7297.619
430.7360, 7222.772
431.2181, 7147.460
431.7002, 7072.254
432.1823, 7006.857
432.6645, 6953.268
433.1466, 6904.199
433.6287, 6848.529
434.1108, 6788.373
434.5929, 6733.962
435.0750, 6688.476
435.5572, 6652.389
436.0393, 6631.384
436.5214, 6624.687
437.0035, 6615.822
437.4856, 6588.423
437.9677, 6552.004
438.4499, 6519.898
438.9320, 6496.429
439.4141, 6476.456
439.8962, 6453.998
440.3783, 6432.064
440.8604, 6417.754
441.3426, 6424.005
441.8247, 6431.569
442.3068, 6427.161
442.7889, 6405.445
443.2710, 6390.616
443.7531, 6391.346
444.2353, 6401.401
444.7174, 6413.904
445.1995, 6433.078
445.6816, 6448.812
446.1637, 6454.911
446.6458, 6453.120
447.1280, 6463.932
447.6101, 6496.214
448.0922, 6531.438
448.5743, 6558.691
449.0564, 6573.910
449.5385, 6592.354
450.0207, 6613.714
450.5028, 6638.996
450.9849, 6671.068
451.4670, 6710.753
451.9491, 6751.846
452.4312, 6795.219
452.9134, 6838.992
453.3955, 6867.544
453.8776, 6879.168
454.3597, 6887.221
454.8418, 6902.610
455.3239, 6924.974
455.8061, 6953.440
456.2882, 6991.910
456.7703, 7030.526
457.2524, 7056.515
457.7345, 7070.772
458.2166, 7077.345
458.6988, 7072.934
459.1809, 7064.804
459.6630, 7061.835
460.1451, 7065.809
460.6272, 7068.159
461.1093, 7065.340
461.5915, 7057.192
462.0736, 7043.498
462.5557, 7016.490
463.0378, 6991.467
463.5199, 6976.074
464.0020, 6969.032
464.4842, 6959.666
464.9663, 6940.255
465.4484, 6922.166
465.9305, 6911.604
466.4126, 6913.900
466.8947, 6914.412
467.3769, 6910.841
467.8590, 6906.485
468.3411, 6907.430
468.8232, 6917.741
469.3053, 6925.070
469.7874, 6924.824
470.2696, 6917.626
470.7517, 6915.707
471.2338, 6920.466
471.7159, 6926.193
472.1980, 6927.988
472.6801, 6925.917
473.1623, 6922.020
473.6444, 6914.665
474.1265, 6909.308
474.6086, 6921.971
475.0907, 6948.803
475.5728, 6964.898
476.0550, 6946.070
476.5371, 6911.878
477.0192, 6895.320
477.5013, 6897.564
477.9834, 6903.394
478.4655, 6906.755
478.9477, 6904.862
479.4298, 6893.433
479.9119, 6862.185
480.3940, 6832.371
480.8761, 6816.748
481.3582, 6811.624
481.8404, 6806.666
482.3225, 6803.750
482.8046, 6795.917
483.2867, 6778.787
483.7688, 6749.059
484.2509, 6720.251
484.7331, 6679.863
485.2152, 6648.182
485.6973, 6645.965
486.1794, 6698.205
486.6615, 6737.121
487.1436, 6751.098
487.6258, 6744.612
488.1079, 6736.875
488.5900, 6725.572
489.0721, 6719.631
489.5542, 6729.562
490.0363, 6755.701
490.5185, 6759.297
491.0006, 6733.647
491.4827, 6704.434
491.9648, 6707.451
492.4470, 6737.944
492.9291, 6771.240
493.4112, 6803.270
493.8933, 6829.155
494.3754, 6836.186
494.8575, 6827.042
495.3397, 6818.180
495.8218, 6826.035
496.3039, 6837.059
496.7860, 6835.351
497.2681, 6815.965
497.7502, 6794.210
498.2324, 6774.798
498.7145, 6758.793
499.1966, 6747.281
499.6787, 6748.103
500.1608, 6746.060
500.6429, 6734.507
501.1251, 6714.118
501.6072, 6697.136
502.0893, 6687.103
502.5714, 6678.057
503.0535, 6667.536
503.5356, 6656.441
504.0178, 6641.618
504.4999, 6621.967
504.9820, 6599.688
505.4641, 6578.253
505.9462, 6558.511
506.4283, 6535.463
506.9105, 6506.868
507.3926, 6474.217
507.8747, 6442.241
508.3568, 6410.663
508.8389, 6383.032
509.3210, 6357.640
509.8032, 6337.805
510.2853, 6333.268
510.7674, 6346.443
511.2495, 6369.783
511.7316, 6408.030
512.2137, 6450.207
512.6959, 6473.566
513.1780, 6451.000
513.6601, 6421.505
514.1422, 6411.581
514.6243, 6418.709
515.1064, 6423.701
515.5886, 6414.373
516.0707, 6403.854
516.5528, 6399.883
517.0349, 6403.562
517.5170, 6413.434
517.9991, 6438.877
518.4813, 6466.695
518.9634, 6478.835
519.4455, 6462.043
519.9276, 6452.430
520.4097, 6458.672
520.8918, 6478.429
521.3740, 6496.897
521.8561, 6513.052
522.3382, 6531.315
522.8203, 6558.371
523.3024, 6592.897
523.7845, 6614.888
524.2667, 6621.981
524.7488, 6621.563
525.2309, 6617.123
525.7130, 6611.864
526.1951, 6617.798
526.6772, 6649.467
527.1594, 6684.502
527.6415, 6693.993
528.1236, 6682.499
528.6057, 6670.133
529.0878, 6661.559
529.5699, 6661.039
530.0521, 6674.477
530.5342, 6706.290
531.0163, 6735.622
531.4984, 6754.002
531.9805, 6767.568
532.4626, 6782.951
532.9448, 6816.921
533.4269, 6832.687
533.9090, 6810.356
534.3911, 6765.111
534.8732, 6760.092
535.3553, 6816.669
535.8375, 6873.694
536.3196, 6904.000
536.8017, 6906.854
537.2838, 6904.662
537.7659, 6894.647
538.2480, 6888.723
538.7302, 6904.975
539.2123, 6939.646
539.6944, 6965.091
540.1765, 6973.100
540.6586, 6973.420
541.1407, 6980.606
541.6229, 6992.267
542.1050, 6999.952
542.5871, 6993.047
543.0692, 6984.117
543.5513, 6988.583
544.0334, 7006.974
544.5156, 7016.545
544.9977, 6994.409
545.4798, 6966.100
545.9619, 6952.817
546.4440, 6976.913
546.9261, 6988.770
547.4083, 6973.140
547.8904, 6942.613
548.3725, 6919.521
548.8546, 6902.443
549.3367, 6895.330
549.8188, 6903.082
550.3010, 6923.721
550.7831, 6931.648
551.2652, 6922.470
551.7473, 6915.254
552.2294, 6926.604
552.7115, 6954.334
553.1937, 6976.284
553.6758, 6990.356
554.1579, 7000.068
554.6400, 7005.355
555.1221, 7009.398
555.6042, 7021.856
556.0864, 7056.645
556.5685, 7090.900
557.0506, 7094.719
557.5327, 7076.936
558.0148, 7070.380
558.4969, 7101.271
558.9791, 7140.719
559.4612, 7168.781
559.9433, 7179.055
560.4254, 7200.051
560.9075, 7242.570
561.3896, 7294.962
561.8718, 7347.989
562.3539, 7408.998
562.8360, 7457.195
563.3181, 7484.089
563.8002, 7500.096
564.2823, 7530.347
564.7645, 7575.674
565.2466, 7630.685
565.7287, 7695.391
566.2108, 7767.904
566.6929, 7836.551
567.1750, 7900.431
567.6572, 7968.421
568.1393, 8045.333
568.6214, 8131.055
569.1035, 8223.414
569.5856, 8323.481
570.0677, 8427.849
570.5499, 8531.756
571.0320, 8639.680
571.5141, 8759.293
571.9962, 8897.460
572.4783, 9043.781
572.9604, 9196.174
573.4426, 9352.706
573.9247, 9508.445
574.4068, 9647.828
574.8889, 9798.801
575.3710, 9973.639
575.8531, 10175.06
576.3353, 10374.04
576.8174, 10566.79
577.2995, 10759.92
577.7816, 10962.78
578.2637, 11175.24
578.7458, 11388.74
579.2280, 11601.03
579.7101, 11815.70
580.1922, 12048.61
580.6743, 12294.01
581.1564, 12519.45
581.6385, 12706.21
582.1207, 12866.92
582.6028, 13017.16
583.0849, 13154.31
583.5670, 13268.41
584.0491, 13355.70
584.5313, 13415.77
585.0134, 13447.76
585.4955, 13450.40
585.9776, 13428.79
586.4597, 13392.94
586.9418, 13329.10
587.4240, 13219.88
587.9061, 13023.39
588.3882, 12847.68
588.8703, 12712.96
589.3524, 12604.03
589.8345, 12475.79
590.3167, 12324.69
590.7988, 12166.31
591.2809, 12005.31
591.7630, 11843.58
592.2451, 11699.10
592.7272, 11572.18
593.2094, 11455.00
593.6915, 11353.52
594.1736, 11254.64
594.6557, 11126.19
595.1378, 10957.63
595.6199, 10793.24
596.1021, 10668.81
596.5842, 10569.57
597.0663, 10474.08
597.5485, 10373.66
598.0306, 10278.85
598.5127, 10200.19
598.9948, 10132.06
599.4769, 10048.70
599.9590, 9936.399
600.4412, 9822.196
600.9233, 9713.057
601.4054, 9607.827
601.8875, 9520.847
602.3696, 9460.344
602.8517, 9399.278
603.3339, 9312.629
603.8160, 9202.187
604.2981, 9102.531
604.7802, 9021.630
605.2623, 8940.566
605.7444, 8828.758
606.2266, 8696.878
606.7087, 8579.124
607.1908, 8492.517
607.6729, 8417.232
608.1550, 8340.634
608.6371, 8262.545
609.1193, 8179.731
609.6014, 8080.403
610.0835, 7985.592
610.5656, 7909.312
611.0477, 7855.027
611.5298, 7797.711
612.0120, 7738.051
612.4941, 7674.155
612.9762, 7605.535
613.4583, 7532.760
613.9404, 7450.864
614.4225, 7352.568
614.9047, 7258.389
615.3868, 7202.859
615.8689, 7182.513
616.3510, 7156.923
616.8331, 7110.280
617.3152, 7057.660
617.7974, 7027.380
618.2795, 7012.886
618.7616, 6987.213
619.2437, 6920.971
619.7258, 6848.988
620.2079, 6794.057
620.6901, 6757.906
621.1722, 6735.947
621.6543, 6747.433
622.1364, 6757.953
622.6185, 6741.346
623.1006, 6668.586
623.5828, 6632.564
624.0649, 6656.403
624.5470, 6695.770
625.0291, 6694.199
625.5112, 6642.885
625.9933, 6596.989
626.4755, 6565.768
626.9576, 6546.780
627.4397, 6538.789
627.9218, 6540.575
628.4039, 6542.833
628.8860, 6539.880
629.3682, 6535.330
629.8503, 6536.454
630.3324, 6541.979
630.8145, 6542.170
631.2966, 6527.639
631.7787, 6508.351
632.2609, 6491.142
632.7430, 6477.369
633.2251, 6463.758
633.7072, 6443.624
634.1893, 6427.418
634.6714, 6425.255
635.1536, 6449.000
635.6357, 6459.104
636.1178, 6446.373
636.5999, 6425.329
637.0820, 6426.124
637.5641, 6449.911
638.0463, 6466.672
638.5284, 6463.644
639.0105, 6450.399
639.4926, 6445.140
639.9747, 6446.988
640.4568, 6450.896
