##NAMES=Lamprophyllite
##RRUFFID=R070284
##IDEAL CHEMISTRY=(SrNa)Ti^4+^_2_Na_3_Ti^4+^(Si_2_O_7_)_2_O_2_(OH)_2_
##LOCALITY=Lovozero Massif,  Kola Peninsula,  Murmanskaja Oblast',  Northern Region,  Russia
##OWNER=RRUFF
##SOURCE=Michael Scott
##DESCRIPTION=Stellate groups of transparent brown bladed crystals
##STATUS=The identification of this mineral has been confirmed by X-ray diffraction and chemical analysis
##URL=rruff.info/R070284
##MEASURED CHEMISTRY=(Na_2.35_Mn_0.36_Mg_0.17_Ca_0.12_)(Sr_1.08_Na_0.35_K_0.09_Ba_0.01_)(Ti_2.80_Fe_0.26_Al_0.02_)Si_3.87_O_16_[(OH)_1.14_F_0.86_]
151.8749, 4739.292
152.3570, 4764.998
152.8391, 4779.807
153.3212, 4813.626
153.8033, 4868.543
154.2855, 4938.030
154.7676, 5022.645
155.2497, 5119.724
155.7318, 5216.430
156.2139, 5309.874
156.6960, 5402.495
157.1782, 5494.638
157.6603, 5584.949
158.1424, 5682.641
158.6245, 5789.557
159.1066, 5908.644
159.5887, 6052.221
160.0709, 6233.322
160.5530, 6436.708
161.0351, 6635.735
161.5172, 6823.671
161.9993, 7027.189
162.4814, 7270.875
162.9636, 7542.266
163.4457, 7828.903
163.9278, 8119.450
164.4099, 8423.139
164.8920, 8757.549
165.3741, 9129.097
165.8563, 9511.909
166.3384, 9894.335
166.8205, 10276.10
167.3026, 10658.54
167.7847, 11058.52
168.2668, 11455.87
168.7490, 11821.12
169.2311, 12181.96
169.7132, 12443.54
170.1953, 12554.63
170.6774, 12546.33
171.1595, 12454.06
171.6417, 12286.80
172.1238, 12048.86
172.6059, 11746.20
173.0880, 11364.57
173.5701, 10940.85
174.0522, 10468.87
174.5344, 9972.099
175.0165, 9488.658
175.4986, 9028.654
175.9807, 8596.076
176.4628, 8195.466
176.9449, 7825.345
177.4271, 7494.465
177.9092, 7208.282
178.3913, 6956.255
178.8734, 6725.286
179.3555, 6505.439
179.8376, 6302.578
180.3197, 6133.912
180.8019, 6014.970
181.2840, 5905.215
181.7661, 5794.088
182.2482, 5681.835
182.7303, 5566.327
183.2124, 5442.447
183.6946, 5320.954
184.1767, 5235.242
184.6588, 5205.327
185.1409, 5179.229
185.6230, 5135.617
186.1051, 5089.905
186.5873, 5061.183
187.0694, 5059.978
187.5515, 5076.196
188.0336, 5082.962
188.5157, 5074.555
188.9978, 5065.901
189.4800, 5056.138
189.9621, 5049.481
190.4442, 5050.788
190.9263, 5062.513
191.4084, 5081.683
191.8905, 5101.152
192.3727, 5120.010
192.8548, 5141.178
193.3369, 5159.559
193.8190, 5182.546
194.3011, 5220.003
194.7832, 5276.077
195.2654, 5341.105
195.7475, 5391.768
196.2296, 5412.501
196.7117, 5449.508
197.1938, 5518.422
197.6759, 5597.989
198.1581, 5665.954
198.6402, 5715.541
199.1223, 5762.649
199.6044, 5839.815
200.0865, 5969.457
200.5686, 6085.149
201.0508, 6175.165
201.5329, 6255.673
202.0150, 6334.641
202.4971, 6415.706
202.9792, 6501.777
203.4613, 6597.607
203.9435, 6703.551
204.4256, 6819.184
204.9077, 6950.502
205.3898, 7085.818
205.8719, 7215.970
206.3540, 7339.836
206.8362, 7464.322
207.3183, 7601.600
207.8004, 7758.626
208.2825, 7908.054
208.7646, 8032.400
209.2467, 8163.319
209.7289, 8328.699
210.2110, 8525.497
210.6931, 8722.344
211.1752, 8878.458
211.6573, 8976.296
212.1395, 9094.864
212.6216, 9257.167
213.1037, 9418.443
213.5858, 9562.474
214.0679, 9685.175
214.5500, 9787.015
215.0322, 9868.308
215.5143, 9928.904
215.9964, 9966.942
216.4785, 9968.375
216.9606, 9960.855
217.4427, 9953.280
217.9249, 9945.521
218.4070, 9934.623
218.8891, 9920.504
219.3712, 9903.749
219.8533, 9861.982
220.3354, 9777.223
220.8176, 9683.100
221.2997, 9584.406
221.7818, 9483.082
222.2639, 9380.945
222.7460, 9280.656
223.2281, 9180.622
223.7103, 9072.744
224.1924, 8951.151
224.6745, 8826.742
225.1566, 8693.438
225.6387, 8560.047
226.1208, 8440.783
226.6030, 8345.821
227.0851, 8267.724
227.5672, 8174.150
228.0493, 8040.647
228.5314, 7924.542
229.0135, 7840.043
229.4957, 7775.484
229.9778, 7718.103
230.4599, 7662.244
230.9420, 7609.609
231.4241, 7565.325
231.9062, 7539.593
232.3884, 7504.528
232.8705, 7438.460
233.3526, 7372.715
233.8347, 7335.934
234.3168, 7337.361
234.7989, 7361.354
235.2811, 7380.292
235.7632, 7386.097
236.2453, 7407.012
236.7274, 7452.323
237.2095, 7506.729
237.6916, 7563.474
238.1738, 7619.927
238.6559, 7673.449
239.1380, 7718.212
239.6201, 7748.717
240.1022, 7791.520
240.5843, 7862.544
241.0665, 7933.726
241.5486, 7990.318
242.0307, 8033.055
242.5128, 8072.807
242.9949, 8116.761
243.4770, 8164.046
243.9592, 8227.824
244.4413, 8330.165
244.9234, 8429.487
245.4055, 8511.755
245.8876, 8578.457
246.3697, 8635.897
246.8519, 8687.865
247.3340, 8734.808
247.8161, 8778.054
248.2982, 8818.750
248.7803, 8853.659
249.2624, 8884.910
249.7446, 8910.027
250.2267, 8924.105
250.7088, 8922.693
251.1909, 8910.697
251.6730, 8904.614
252.1551, 8914.819
252.6373, 8908.756
253.1194, 8872.240
253.6015, 8817.927
254.0836, 8756.453
254.5657, 8690.025
255.0478, 8624.140
255.5300, 8569.145
256.0121, 8529.101
256.4942, 8485.020
256.9763, 8427.705
257.4584, 8366.470
257.9406, 8303.857
258.4227, 8240.098
258.9048, 8184.982
259.3869, 8157.462
259.8690, 8159.566
260.3511, 8138.726
260.8333, 8061.188
261.3154, 7978.060
261.7975, 7926.644
262.2796, 7907.312
262.7617, 7895.901
263.2438, 7875.326
263.7260, 7847.646
264.2081, 7825.050
264.6902, 7809.031
265.1723, 7798.305
265.6544, 7793.279
266.1365, 7792.513
266.6187, 7791.423
267.1008, 7783.464
267.5829, 7774.500
268.0650, 7777.129
268.5471, 7792.694
269.0292, 7816.327
269.5114, 7850.705
269.9935, 7890.401
270.4756, 7926.573
270.9577, 7956.716
271.4398, 7982.576
271.9219, 8002.935
272.4041, 8017.506
272.8862, 8039.144
273.3683, 8081.447
273.8504, 8131.404
274.3325, 8163.936
274.8146, 8171.944
275.2968, 8173.333
275.7789, 8181.243
276.2610, 8193.021
276.7431, 8198.242
277.2252, 8194.141
277.7073, 8180.115
278.1895, 8150.526
278.6716, 8099.372
279.1537, 8062.362
279.6358, 8068.495
280.1179, 8093.618
280.6000, 8094.746
281.0822, 8060.907
281.5643, 8011.837
282.0464, 7965.724
282.5285, 7921.886
283.0106, 7892.879
283.4927, 7899.378
283.9749, 7909.196
284.4570, 7888.570
284.9391, 7836.694
285.4212, 7781.492
285.9033, 7744.962
286.3854, 7727.510
286.8676, 7711.643
287.3497, 7705.960
287.8318, 7693.473
288.3139, 7659.851
288.7960, 7612.037
289.2781, 7568.659
289.7603, 7539.947
290.2424, 7523.514
290.7245, 7510.345
291.2066, 7494.853
291.6887, 7489.080
292.1708, 7500.002
292.6530, 7519.841
293.1351, 7538.465
293.6172, 7552.378
294.0993, 7566.278
294.5814, 7589.353
295.0635, 7634.964
295.5457, 7663.644
296.0278, 7654.714
296.5099, 7644.844
296.9920, 7663.292
297.4741, 7710.894
297.9562, 7765.140
298.4384, 7800.496
298.9205, 7810.674
299.4026, 7847.170
299.8847, 7932.579
300.3668, 8020.803
300.8489, 8092.573
301.3310, 8155.158
301.8131, 8227.565
302.2953, 8324.546
302.7774, 8439.190
303.2595, 8534.879
303.7416, 8593.414
304.2237, 8659.385
304.7058, 8744.266
305.1880, 8839.354
305.6701, 8935.131
306.1522, 9028.023
306.6343, 9121.622
307.1164, 9221.117
307.5985, 9325.407
308.0807, 9438.352
308.5628, 9562.595
309.0449, 9694.604
309.5270, 9840.100
310.0091, 9996.889
310.4912, 10140.67
310.9734, 10239.13
311.4555, 10298.12
311.9376, 10382.93
312.4197, 10514.20
312.9018, 10648.30
313.3839, 10754.62
313.8661, 10842.24
314.3482, 10933.63
314.8303, 11042.84
315.3124, 11160.35
315.7945, 11269.67
316.2766, 11369.89
316.7588, 11466.64
317.2409, 11563.09
317.7230, 11656.72
318.2051, 11742.92
318.6872, 11818.85
319.1693, 11890.38
319.6515, 11958.61
320.1336, 12024.64
320.6157, 12096.70
321.0978, 12181.17
321.5799, 12266.27
322.0620, 12335.69
322.5442, 12391.05
323.0263, 12429.77
323.5084, 12445.38
323.9905, 12446.52
324.4726, 12441.65
324.9547, 12432.24
325.4369, 12423.86
325.9190, 12423.45
326.4011, 12432.13
326.8832, 12430.44
327.3653, 12399.78
327.8474, 12376.07
328.3296, 12381.91
328.8117, 12412.16
329.2938, 12448.05
329.7759, 12478.11
330.2580, 12506.35
330.7401, 12550.00
331.2223, 12625.76
331.7044, 12696.61
332.1865, 12761.96
332.6686, 12819.27
333.1507, 12858.50
333.6328, 12878.80
334.1150, 12901.68
334.5971, 12963.34
335.0792, 13086.60
335.5613, 13186.03
336.0434, 13235.67
336.5255, 13287.11
337.0077, 13378.78
337.4898, 13498.49
337.9719, 13601.52
338.4540, 13646.55
338.9361, 13641.94
339.4182, 13664.35
339.9004, 13734.09
340.3825, 13801.56
340.8646, 13864.42
341.3467, 13912.98
341.8288, 13930.13
342.3109, 13905.64
342.7931, 13866.78
343.2752, 13860.46
343.7573, 13894.22
344.2394, 13905.73
344.7215, 13860.98
345.2036, 13803.28
345.6858, 13769.98
346.1679, 13762.18
346.6500, 13750.52
347.1321, 13718.03
347.6142, 13667.64
348.0963, 13602.52
348.5785, 13516.68
349.0606, 13435.30
349.5427, 13384.52
350.0248, 13354.89
350.5069, 13319.27
350.9890, 13283.23
351.4712, 13231.14
351.9533, 13134.73
352.4354, 13004.20
352.9175, 12892.65
353.3996, 12825.94
353.8817, 12792.61
354.3639, 12766.27
354.8460, 12751.79
355.3281, 12732.82
355.8102, 12697.99
356.2923, 12660.31
356.7744, 12633.57
357.2566, 12621.04
357.7387, 12622.70
358.2208, 12639.32
358.7029, 12673.11
359.1850, 12711.55
359.6671, 12761.00
360.1493, 12807.98
360.6314, 12837.06
361.1135, 12859.25
361.5956, 12899.19
362.0777, 12972.78
362.5598, 13071.00
363.0420, 13161.58
363.5241, 13240.91
364.0062, 13317.80
364.4883, 13380.40
364.9704, 13449.09
365.4525, 13542.26
365.9347, 13662.84
366.4168, 13799.53
366.8989, 13944.33
367.3810, 14099.68
367.8631, 14240.48
368.3452, 14363.16
368.8274, 14473.53
369.3095, 14572.33
369.7916, 14662.78
370.2737, 14752.25
370.7558, 14848.28
371.2379, 14942.06
371.7201, 15019.36
372.2022, 15080.13
372.6843, 15124.17
373.1664, 15150.85
373.6485, 15158.85
374.1306, 15152.33
374.6128, 15135.26
375.0949, 15089.65
375.5770, 15008.66
376.0591, 14892.35
376.5412, 14740.13
377.0233, 14551.50
377.5055, 14329.61
377.9876, 14076.81
378.4697, 13790.59
378.9518, 13472.14
379.4339, 13093.29
379.9160, 12708.42
380.3982, 12353.07
380.8803, 12020.65
381.3624, 11690.57
381.8445, 11350.34
382.3266, 11009.20
382.8087, 10689.21
383.2909, 10405.64
383.7730, 10128.40
384.2551, 9845.860
384.7372, 9576.940
385.2193, 9331.310
385.7014, 9113.602
386.1836, 8928.751
386.6657, 8787.682
387.1478, 8693.627
387.6299, 8591.391
388.1120, 8469.210
388.5941, 8351.579
389.0763, 8235.622
389.5584, 8131.837
390.0405, 8058.777
390.5226, 8026.485
391.0047, 8019.318
391.4868, 8021.046
391.9690, 8035.144
392.4511, 8023.140
392.9332, 7955.812
393.4153, 7874.961
393.8974, 7826.895
394.3795, 7811.371
394.8617, 7782.679
395.3438, 7714.119
395.8259, 7619.763
396.3080, 7519.451
396.7901, 7414.712
397.2722, 7309.813
397.7544, 7207.852
398.2365, 7108.489
398.7186, 7007.645
399.2007, 6904.476
399.6828, 6801.890
400.1649, 6693.337
400.6471, 6588.079
401.1292, 6502.956
401.6113, 6443.163
402.0934, 6397.380
402.5755, 6348.393
403.0576, 6293.996
403.5398, 6243.912
404.0219, 6199.885
404.5040, 6157.431
404.9861, 6109.309
405.4682, 6060.521
405.9503, 6023.413
406.4325, 6006.089
406.9146, 6005.358
407.3967, 6011.849
407.8788, 6031.890
408.3609, 6046.000
408.8430, 6051.515
409.3252, 6049.570
409.8073, 6036.589
410.2894, 6013.374
410.7715, 5993.625
411.2536, 5992.396
411.7357, 6005.794
412.2179, 6013.043
412.7000, 6010.057
413.1821, 6007.488
413.6642, 6011.496
414.1463, 6021.283
414.6284, 6037.173
415.1106, 6069.514
415.5927, 6095.489
416.0748, 6091.129
416.5569, 6065.916
417.0390, 6050.784
417.5211, 6057.877
418.0033, 6073.003
418.4854, 6075.999
418.9675, 6065.262
419.4496, 6045.563
419.9317, 6007.309
420.4138, 5968.154
420.8960, 5938.760
421.3781, 5918.980
421.8602, 5906.564
422.3423, 5901.565
422.8244, 5899.208
423.3065, 5878.387
423.7887, 5824.916
424.2708, 5774.270
424.7529, 5737.884
425.2350, 5700.388
425.7171, 5646.145
426.1992, 5574.560
426.6814, 5501.941
427.1635, 5448.960
427.6456, 5412.315
428.1277, 5355.667
428.6098, 5270.198
429.0919, 5181.615
429.5741, 5093.708
430.0562, 5013.156
430.5383, 4955.419
431.0204, 4935.887
431.5025, 4914.271
431.9846, 4853.278
432.4668, 4761.806
432.9489, 4670.163
433.4310, 4584.907
433.9131, 4505.456
434.3952, 4432.037
434.8773, 4365.612
435.3595, 4299.824
435.8416, 4231.127
436.3237, 4166.189
436.8058, 4107.309
437.2879, 4055.400
437.7701, 4012.510
438.2522, 3980.207
438.7343, 3954.433
439.2164, 3925.627
439.6985, 3896.436
440.1806, 3858.963
440.6628, 3793.083
441.1449, 3735.849
441.6270, 3719.417
442.1091, 3736.612
442.5912, 3751.477
443.0733, 3733.018
443.5555, 3692.743
444.0376, 3678.132
444.5197, 3699.405
445.0018, 3717.653
445.4839, 3709.036
445.9660, 3694.896
446.4482, 3697.147
446.9303, 3719.907
447.4124, 3747.399
447.8945, 3771.237
448.3766, 3792.770
448.8587, 3814.286
449.3409, 3836.115
449.8230, 3858.690
450.3051, 3882.183
450.7872, 3906.856
451.2693, 3933.924
451.7514, 3967.524
452.2336, 3998.514
452.7157, 4020.096
453.1978, 4038.558
453.6799, 4062.178
454.1620, 4093.426
454.6441, 4130.117
455.1263, 4170.850
455.6084, 4217.820
456.0905, 4256.097
456.5726, 4282.291
457.0547, 4302.320
457.5368, 4312.383
458.0190, 4318.644
458.5011, 4332.298
458.9832, 4359.739
459.4653, 4388.094
459.9474, 4397.812
460.4295, 4388.611
460.9117, 4376.382
461.3938, 4357.769
461.8759, 4345.874
462.3580, 4359.785
462.8401, 4393.424
463.3222, 4413.897
463.8044, 4407.924
464.2865, 4388.581
464.7686, 4362.666
465.2507, 4332.450
465.7328, 4304.351
466.2149, 4280.441
466.6971, 4262.773
467.1792, 4256.458
467.6613, 4270.682
468.1434, 4277.000
468.6255, 4270.811
469.1076, 4260.904
469.5898, 4250.300
470.0719, 4240.677
470.5540, 4235.059
471.0361, 4235.934
471.5182, 4240.397
472.0003, 4239.680
472.4825, 4232.063
472.9646, 4223.950
473.4467, 4210.151
473.9288, 4201.224
474.4109, 4208.209
474.8930, 4229.617
475.3752, 4248.634
475.8573, 4258.034
476.3394, 4257.987
476.8215, 4244.121
477.3036, 4216.255
477.7857, 4195.179
478.2679, 4195.217
478.7500, 4205.388
479.2321, 4197.612
479.7142, 4165.023
480.1963, 4135.142
480.6784, 4120.349
481.1606, 4105.684
481.6427, 4072.123
482.1248, 4022.529
482.6069, 3979.823
483.0890, 3962.620
483.5711, 3964.699
484.0533, 3950.161
484.5354, 3904.751
485.0175, 3865.845
485.4996, 3834.060
485.9817, 3813.177
486.4638, 3811.020
486.9460, 3825.925
487.4281, 3841.996
487.9102, 3845.831
488.3923, 3841.338
488.8744, 3840.037
489.3565, 3842.156
489.8387, 3846.764
490.3208, 3854.241
490.8029, 3863.603
491.2850, 3872.401
491.7671, 3879.991
492.2492, 3888.889
492.7314, 3901.624
493.2135, 3915.094
493.6956, 3926.017
494.1777, 3933.966
494.6598, 3939.450
495.1419, 3942.225
495.6241, 3943.267
496.1062, 3949.507
496.5883, 3974.499
497.0704, 3984.969
497.5525, 3966.472
498.0346, 3940.635
498.5168, 3926.026
498.9989, 3924.043
499.4810, 3922.978
499.9631, 3914.726
500.4452, 3899.602
500.9273, 3877.678
501.4095, 3847.346
501.8916, 3816.885
502.3737, 3790.452
502.8558, 3765.446
503.3379, 3737.560
503.8200, 3705.854
504.3022, 3675.398
504.7843, 3650.107
505.2664, 3625.988
505.7485, 3596.344
506.2306, 3562.098
506.7127, 3533.989
507.1949, 3520.381
507.6770, 3516.642
508.1591, 3502.493
508.6412, 3466.437
509.1233, 3436.496
509.6054, 3413.591
510.0876, 3397.391
510.5697, 3391.296
511.0518, 3392.791
511.5339, 3392.166
512.0161, 3379.748
512.4982, 3361.939
512.9803, 3358.434
513.4624, 3372.115
513.9445, 3382.747
514.4266, 3382.443
514.9088, 3376.308
515.3909, 3368.970
515.8730, 3359.634
516.3551, 3358.444
516.8372, 3374.923
517.3193, 3396.084
517.8015, 3410.884
518.2836, 3419.351
518.7657, 3424.906
519.2478, 3428.934
519.7299, 3432.890
520.2120, 3439.994
520.6942, 3448.986
521.1763, 3463.972
521.6584, 3490.783
522.1405, 3517.353
522.6226, 3539.233
523.1047, 3555.520
523.5869, 3564.183
524.0690, 3561.659
524.5511, 3556.765
525.0332, 3564.961
525.5153, 3586.170
525.9974, 3608.505
526.4796, 3631.691
526.9617, 3651.063
527.4438, 3658.329
527.9259, 3655.231
528.4080, 3656.677
528.8901, 3668.487
529.3723, 3681.697
529.8544, 3688.786
530.3365, 3693.882
530.8186, 3706.640
531.3007, 3730.176
531.7828, 3756.119
532.2650, 3772.033
532.7471, 3775.344
533.2292, 3785.232
533.7113, 3812.400
534.1934, 3833.841
534.6755, 3837.102
535.1577, 3832.698
535.6398, 3835.133
536.1219, 3848.856
536.6040, 3866.952
537.0861, 3886.543
537.5682, 3905.438
538.0504, 3914.653
538.5325, 3911.979
539.0146, 3907.792
539.4967, 3907.337
539.9788, 3911.601
540.4609, 3924.986
540.9431, 3963.009
541.4252, 3988.136
541.9073, 3982.526
542.3894, 3967.311
542.8715, 3966.234
543.3536, 3978.576
543.8358, 3983.328
544.3179, 3961.909
544.8000, 3921.220
545.2821, 3891.366
545.7642, 3874.588
546.2463, 3862.667
546.7285, 3859.357
547.2106, 3855.962
547.6926, 3844.602
548.1747, 3825.751
548.6569, 3807.657
549.1390, 3794.550
549.6211, 3783.654
550.1032, 3772.280
550.5853, 3760.495
551.0674, 3748.395
551.5496, 3735.423
552.0317, 3724.647
552.5138, 3721.251
552.9959, 3727.428
553.4780, 3733.772
553.9601, 3740.955
554.4423, 3747.593
554.9244, 3750.197
555.4065, 3752.800
555.8886, 3762.810
556.3707, 3783.189
556.8528, 3805.687
557.3350, 3816.402
557.8171, 3818.157
558.2992, 3837.461
558.7813, 3883.205
559.2634, 3925.513
559.7455, 3938.585
560.2277, 3933.966
560.7098, 3949.075
561.1919, 3994.746
561.6740, 4041.693
562.1561, 4076.780
562.6382, 4111.047
563.1204, 4156.759
563.6025, 4214.479
564.0846, 4278.826
564.5667, 4348.022
565.0488, 4418.356
565.5309, 4472.729
566.0131, 4496.738
566.4952, 4541.129
566.9773, 4631.716
567.4594, 4732.432
567.9415, 4821.405
568.4236, 4900.240
568.9058, 4981.479
569.3879, 5065.535
569.8700, 5159.184
570.3521, 5270.969
570.8342, 5398.805
571.3163, 5538.438
571.7985, 5689.538
572.2806, 5842.203
572.7627, 5981.653
573.2448, 6105.153
573.7269, 6246.264
574.2090, 6395.642
574.6912, 6574.716
575.1733, 6803.810
575.6554, 7057.444
576.1375, 7311.196
576.6196, 7559.073
577.1017, 7804.159
577.5839, 8043.116
578.0660, 8281.906
578.5481, 8541.033
579.0302, 8821.012
579.5123, 9117.229
579.9944, 9435.038
580.4766, 9760.323
580.9587, 10065.90
581.4408, 10356.15
581.9229, 10619.49
582.4050, 10844.58
582.8871, 11048.44
583.3693, 11255.12
583.8514, 11447.06
584.3335, 11592.30
584.8156, 11674.98
585.2977, 11699.07
585.7798, 11663.83
586.2620, 11565.84
586.7441, 11448.41
587.2262, 11312.36
587.7083, 11156.77
588.1904, 10974.06
588.6725, 10773.10
589.1547, 10567.94
589.6368, 10362.13
590.1189, 10145.12
590.6010, 9898.051
591.0831, 9643.745
591.5652, 9412.563
592.0474, 9205.940
592.5295, 9009.187
593.0116, 8812.938
593.4937, 8621.454
593.9758, 8447.282
594.4579, 8303.213
594.9401, 8148.016
595.4222, 7952.622
595.9043, 7770.211
596.3864, 7638.177
596.8685, 7540.928
597.3506, 7437.765
597.8328, 7313.431
598.3149, 7180.071
598.7970, 7043.851
599.2791, 6907.112
599.7612, 6772.840
600.2433, 6641.046
600.7255, 6522.394
601.2076, 6428.813
601.6897, 6356.061
602.1718, 6269.315
602.6539, 6151.916
603.1360, 6043.088
603.6182, 5954.408
604.1003, 5868.448
604.5824, 5773.065
605.0645, 5667.780
605.5466, 5557.845
606.0287, 5442.721
606.5109, 5328.477
606.9930, 5224.392
607.4751, 5129.285
607.9572, 5035.539
608.4393, 4940.745
608.9214, 4847.490
609.4036, 4760.681
609.8857, 4680.173
610.3678, 4585.608
610.8499, 4468.222
611.3320, 4349.816
611.8141, 4226.324
612.2963, 4109.624
612.7784, 4017.003
613.2605, 3946.732
613.7426, 3878.598
614.2247, 3793.833
614.7068, 3703.309
615.1890, 3638.433
615.6711, 3600.685
616.1532, 3554.456
616.6353, 3487.397
617.1174, 3412.348
617.5995, 3338.715
618.0817, 3266.378
618.5638, 3215.273
619.0459, 3210.628
619.5280, 3199.152
620.0101, 3152.596
620.4922, 3091.446
620.9744, 3038.949
621.4565, 3001.011
621.9386, 2974.710
622.4207, 2961.188
622.9028, 2955.581
623.3849, 2936.423
623.8671, 2900.168
624.3492, 2871.994
624.8313, 2865.109
625.3134, 2863.069
625.7955, 2844.765
626.2776, 2811.261
626.7598, 2780.844
627.2419, 2752.615
627.7240, 2731.795
628.2061, 2725.822
628.6882, 2727.224
629.1703, 2727.479
629.6525, 2723.524
630.1346, 2712.481
630.6167, 2688.429
631.0988, 2655.345
631.5809, 2636.290
632.0630, 2634.163
632.5452, 2635.035
633.0273, 2638.960
633.5094, 2639.971
633.9915, 2628.501
634.4736, 2605.455
634.9557, 2589.022
635.4379, 2586.110
635.9200, 2587.344
636.4021, 2591.052
636.8842, 2594.153
637.3663, 2591.218
637.8484, 2581.518
638.3306, 2570.235
638.8127, 2562.326
639.2948, 2557.377
639.7769, 2553.091
640.2590, 2549.415
640.7411, 2546.387
641.2233, 2542.487
641.7054, 2540.827
642.1875, 2545.926
642.6696, 2557.131
643.1517, 2566.191
643.6339, 2573.791
