##NAMES=Lamprophyllite
##RRUFFID=R070200
##IDEAL CHEMISTRY=(SrNa)Ti^4+^_2_Na_3_Ti^4+^(Si_2_O_7_)_2_O_2_(OH)_2_
##LOCALITY=Windy Boy Peak, Bearpaw Mountains, Hill County, Montana, USA
##OWNER=RRUFF
##SOURCE=James Shigley
##DESCRIPTION=Golden brown translucent platy massive associated with quartz
##STATUS=The identification of this mineral is confirmed by single-crystal X-ray diffraction and chemical analysis.
##URL=rruff.info/R070200
##MEASURED CHEMISTRY=(Na_2.64_Mn^2+^_0.22_Mg_0.15_)_Σ=3.01_(Sr_1.19_K_0.18_Ba_0.13_Ca_0.09_)(Ti_2.82_Fe_0.33_Al_0.01_)_Σ=3.16_(Si_1.95_O_7_)_2_O_2_[(OH)_1.34_F_0.66_]_Σ=2_
133.7897, 5746.177
134.2718, 5893.193
134.7539, 6036.646
135.2360, 6162.263
135.7182, 6267.266
136.2003, 6368.119
136.6824, 6485.376
137.1645, 6623.650
137.6466, 6753.022
138.1287, 6868.222
138.6109, 6969.646
139.0930, 7051.642
139.5751, 7105.614
140.0572, 7151.071
140.5393, 7216.883
141.0214, 7312.188
141.5036, 7407.859
141.9857, 7494.043
142.4678, 7565.739
142.9499, 7642.924
143.4320, 7727.245
143.9141, 7815.898
144.3963, 7896.939
144.8784, 7960.013
145.3605, 8029.165
145.8426, 8117.018
146.3247, 8233.140
146.8068, 8351.749
147.2890, 8472.897
147.7711, 8595.975
148.2532, 8716.453
148.7353, 8828.297
149.2174, 8941.856
149.6995, 9062.027
150.1817, 9210.540
150.6638, 9343.806
151.1459, 9451.335
151.6280, 9531.560
152.1101, 9618.486
152.5922, 9719.985
153.0744, 9825.881
153.5565, 9928.333
154.0386, 10028.43
154.5207, 10122.21
155.0028, 10207.58
155.4849, 10283.05
155.9671, 10356.50
156.4492, 10426.99
156.9313, 10496.75
157.4134, 10568.67
157.8955, 10639.43
158.3777, 10716.38
158.8598, 10803.73
159.3419, 10905.63
159.8240, 11010.41
160.3061, 11120.09
160.7882, 11230.97
161.2704, 11334.32
161.7525, 11411.20
162.2346, 11488.62
162.7167, 11585.22
163.1988, 11719.09
163.6809, 11855.64
164.1631, 11976.09
164.6452, 12084.78
165.1273, 12201.08
165.6094, 12350.81
166.0915, 12505.54
166.5736, 12637.15
167.0558, 12723.16
167.5379, 12794.79
168.0200, 12876.84
168.5021, 12967.79
168.9842, 13040.93
169.4663, 13077.11
169.9485, 13084.93
170.4306, 13076.68
170.9127, 13066.57
171.3948, 13037.36
171.8769, 12965.95
172.3590, 12849.51
172.8412, 12721.57
173.3233, 12600.41
173.8054, 12488.63
174.2875, 12393.07
174.7696, 12325.67
175.2517, 12273.44
175.7339, 12218.29
176.2160, 12157.26
176.6981, 12097.84
177.1802, 12045.39
177.6623, 11999.76
178.1444, 11961.50
178.6266, 11923.91
179.1087, 11894.18
179.5908, 11891.74
180.0729, 11927.15
180.5550, 11972.37
181.0371, 11987.14
181.5193, 11974.52
182.0014, 11957.15
182.4835, 11948.41
182.9656, 11946.93
183.4477, 11948.80
183.9298, 11954.40
184.4120, 11961.71
184.8941, 11965.66
185.3762, 11966.33
185.8583, 11969.39
186.3404, 11986.91
186.8225, 12014.07
187.3047, 12024.50
187.7868, 12003.91
188.2689, 11965.22
188.7510, 11942.26
189.2331, 11935.38
189.7152, 11940.99
190.1974, 11965.18
190.6795, 12005.51
191.1616, 12029.47
191.6437, 12016.23
192.1258, 11976.50
192.6080, 11968.75
193.0901, 11999.01
193.5722, 12037.03
194.0543, 12040.34
194.5364, 12008.07
195.0185, 11982.49
195.5007, 11980.24
195.9828, 12000.32
196.4649, 12028.98
196.9470, 12070.69
197.4291, 12112.04
197.9112, 12130.21
198.3934, 12122.58
198.8755, 12112.35
199.3576, 12107.63
199.8397, 12108.36
200.3218, 12117.45
200.8039, 12136.90
201.2861, 12162.15
201.7682, 12185.66
202.2503, 12207.90
202.7324, 12226.38
203.2145, 12238.19
203.6966, 12242.02
204.1788, 12248.48
204.6609, 12256.20
205.1430, 12268.16
205.6251, 12295.72
206.1072, 12345.24
206.5893, 12391.60
207.0715, 12415.90
207.5536, 12411.09
208.0357, 12419.70
208.5178, 12451.69
208.9999, 12497.88
209.4820, 12522.36
209.9642, 12515.72
210.4463, 12508.18
210.9284, 12524.35
211.4105, 12574.28
211.8926, 12610.73
212.3747, 12626.98
212.8569, 12624.85
213.3390, 12609.64
213.8211, 12565.60
214.3032, 12536.21
214.7853, 12567.97
215.2674, 12694.85
215.7496, 12780.80
216.2317, 12789.99
216.7138, 12729.67
217.1959, 12705.26
217.6780, 12725.83
218.1601, 12769.24
218.6423, 12818.79
219.1244, 12882.38
219.6065, 12935.05
220.0886, 12978.47
220.5707, 13013.07
221.0528, 13000.17
221.5350, 12911.70
222.0171, 12807.96
222.4992, 12751.80
222.9813, 12760.04
223.4634, 12781.69
223.9455, 12808.57
224.4277, 12841.79
224.9098, 12872.04
225.3919, 12902.84
225.8740, 12927.88
226.3561, 12938.30
226.8382, 12925.04
227.3204, 12914.15
227.8025, 12911.84
228.2846, 12918.49
228.7667, 12930.75
229.2488, 12947.80
229.7310, 12970.77
230.2131, 13002.82
230.6952, 13050.03
231.1773, 13095.21
231.6594, 13133.90
232.1415, 13164.90
232.6237, 13192.84
233.1058, 13212.68
233.5879, 13232.66
234.0700, 13266.82
234.5521, 13322.66
235.0342, 13379.93
235.5164, 13430.19
235.9985, 13468.18
236.4806, 13519.13
236.9627, 13587.94
237.4448, 13666.17
237.9269, 13740.31
238.4091, 13809.54
238.8912, 13875.00
239.3733, 13935.00
239.8554, 13983.41
240.3375, 14045.91
240.8196, 14132.00
241.3018, 14227.85
241.7839, 14305.11
242.2660, 14346.75
242.7481, 14396.65
243.2302, 14475.38
243.7123, 14601.74
244.1945, 14705.71
244.6766, 14780.41
245.1587, 14835.20
245.6408, 14890.44
246.1229, 14942.78
246.6050, 15000.86
247.0872, 15070.13
247.5693, 15159.40
248.0514, 15237.77
248.5335, 15303.69
249.0156, 15359.39
249.4977, 15408.41
249.9799, 15445.86
250.4620, 15484.28
250.9441, 15530.94
251.4262, 15595.03
251.9083, 15644.19
252.3904, 15671.99
252.8726, 15686.61
253.3547, 15711.32
253.8368, 15759.91
254.3189, 15795.73
254.8010, 15798.59
255.2831, 15751.37
255.7653, 15715.86
256.2474, 15694.63
256.7295, 15685.34
257.2116, 15683.49
257.6937, 15693.19
258.1758, 15702.71
258.6580, 15706.42
259.1401, 15703.19
259.6222, 15698.01
260.1043, 15692.89
260.5864, 15685.20
261.0685, 15663.17
261.5507, 15613.18
262.0328, 15576.88
262.5149, 15579.50
262.9970, 15636.35
263.4791, 15682.27
263.9612, 15717.37
264.4434, 15739.52
264.9255, 15738.78
265.4076, 15704.27
265.8897, 15672.63
266.3718, 15666.02
266.8539, 15693.15
267.3361, 15706.07
267.8182, 15693.02
268.3003, 15670.44
268.7824, 15685.77
269.2645, 15753.34
269.7466, 15819.86
270.2288, 15851.96
270.7109, 15838.74
271.1930, 15854.51
271.6751, 15912.73
272.1572, 15994.05
272.6393, 16050.82
273.1215, 16077.78
273.6036, 16099.16
274.0857, 16128.44
274.5678, 16167.04
275.0499, 16198.03
275.5320, 16215.08
276.0142, 16230.27
276.4963, 16276.79
276.9784, 16361.97
277.4605, 16443.41
277.9426, 16499.49
278.4247, 16529.55
278.9069, 16548.28
279.3890, 16553.14
279.8711, 16551.17
280.3532, 16552.40
280.8354, 16555.52
281.3175, 16572.74
281.7996, 16617.87
282.2817, 16689.52
282.7638, 16749.57
283.2459, 16795.61
283.7281, 16830.14
284.2102, 16848.75
284.6923, 16850.19
285.1744, 16867.65
285.6565, 16932.51
286.1386, 17036.53
286.6208, 17108.54
287.1029, 17138.00
287.5850, 17152.66
288.0671, 17199.07
288.5492, 17275.82
289.0313, 17351.75
289.5135, 17411.47
289.9956, 17457.03
290.4777, 17498.80
290.9598, 17537.80
291.4419, 17571.91
291.9240, 17590.06
292.4062, 17595.85
292.8883, 17615.74
293.3704, 17674.08
293.8525, 17756.19
294.3346, 17823.67
294.8167, 17873.68
295.2989, 17913.64
295.7810, 17945.64
296.2631, 17972.45
296.7452, 18006.94
297.2273, 18068.69
297.7094, 18138.73
298.1916, 18178.18
298.6737, 18183.05
299.1558, 18179.33
299.6379, 18189.13
300.1200, 18210.61
300.6021, 18239.26
301.0843, 18274.49
301.5664, 18314.96
302.0485, 18362.30
302.5306, 18417.51
303.0127, 18467.16
303.4948, 18493.47
303.9770, 18506.62
304.4591, 18526.81
304.9412, 18570.98
305.4233, 18621.09
305.9054, 18657.48
306.3875, 18680.13
306.8697, 18702.39
307.3518, 18740.36
307.8339, 18782.44
308.3160, 18811.51
308.7981, 18799.74
309.2802, 18788.23
309.7624, 18813.52
310.2445, 18872.61
310.7266, 18931.06
311.2087, 18971.48
311.6908, 19000.25
312.1729, 19024.33
312.6551, 19041.93
313.1372, 19059.49
313.6193, 19081.58
314.1014, 19107.35
314.5835, 19130.94
315.0656, 19149.02
315.5478, 19164.38
316.0299, 19179.49
316.5120, 19197.93
316.9941, 19212.93
317.4762, 19218.16
317.9583, 19216.55
318.4405, 19220.08
318.9226, 19237.98
319.4047, 19258.91
319.8868, 19276.08
320.3689, 19289.73
320.8510, 19297.44
321.3332, 19302.47
321.8153, 19301.76
322.2974, 19286.11
322.7795, 19224.15
323.2616, 19169.30
323.7437, 19147.58
324.2259, 19181.07
324.7080, 19214.52
325.1901, 19252.78
325.6722, 19287.35
326.1543, 19299.49
326.6364, 19255.32
327.1186, 19217.99
327.6007, 19208.01
328.0828, 19234.50
328.5649, 19267.63
329.0470, 19309.98
329.5291, 19358.27
330.0113, 19406.53
330.4934, 19443.75
330.9755, 19496.13
331.4576, 19579.57
331.9397, 19707.34
332.4218, 19795.71
332.9040, 19818.19
333.3861, 19821.75
333.8682, 19868.02
334.3503, 19978.10
334.8324, 20087.13
335.3145, 20180.42
335.7967, 20257.92
336.2788, 20334.68
336.7609, 20416.99
337.2430, 20490.02
337.7251, 20527.31
338.2072, 20515.33
338.6894, 20533.49
339.1715, 20612.18
339.6536, 20737.45
340.1357, 20813.80
340.6178, 20834.21
341.0999, 20831.94
341.5821, 20833.89
342.0642, 20840.24
342.5463, 20839.72
343.0284, 20826.65
343.5105, 20808.39
343.9926, 20807.37
344.4748, 20824.33
344.9569, 20844.10
345.4390, 20861.45
345.9211, 20874.10
346.4032, 20868.54
346.8853, 20840.58
347.3675, 20798.72
347.8496, 20747.89
348.3317, 20691.13
348.8138, 20649.21
349.2959, 20651.71
349.7780, 20676.38
350.2602, 20675.72
350.7423, 20643.08
351.2244, 20592.84
351.7065, 20533.90
352.1887, 20468.68
352.6708, 20405.74
353.1529, 20342.88
353.6350, 20287.71
354.1171, 20252.68
354.5992, 20239.69
355.0814, 20227.51
355.5635, 20198.44
356.0456, 20159.48
356.5277, 20121.63
357.0098, 20088.73
357.4919, 20059.02
357.9741, 20027.28
358.4562, 19994.24
358.9383, 19973.34
359.4204, 19999.20
359.9025, 20029.26
360.3846, 20022.29
360.8668, 19920.07
361.3489, 19822.61
361.8310, 19772.52
362.3131, 19762.31
362.7952, 19753.08
363.2773, 19744.13
363.7595, 19725.26
364.2416, 19689.08
364.7237, 19612.05
365.2058, 19548.60
365.6879, 19516.96
366.1700, 19506.22
366.6522, 19486.86
367.1343, 19464.21
367.6164, 19425.57
368.0985, 19359.09
368.5806, 19229.42
369.0627, 19150.46
369.5449, 19153.05
370.0270, 19195.69
370.5091, 19214.21
370.9912, 19200.63
371.4733, 19174.27
371.9554, 19138.53
372.4376, 19092.04
372.9197, 19043.75
373.4018, 18985.61
373.8839, 18935.87
374.3660, 18920.62
374.8481, 18954.58
375.3303, 18972.23
375.8124, 18954.76
376.2945, 18907.79
376.7766, 18871.46
377.2587, 18848.97
377.7408, 18827.26
378.2230, 18786.76
378.7051, 18727.48
379.1872, 18698.98
379.6693, 18716.83
380.1514, 18761.61
380.6335, 18791.07
381.1157, 18805.46
381.5978, 18811.47
382.0799, 18806.94
382.5620, 18796.78
383.0441, 18793.82
383.5262, 18795.79
384.0084, 18817.34
384.4905, 18891.99
384.9726, 19007.14
385.4547, 19113.58
385.9368, 19189.03
386.4189, 19242.83
386.9011, 19275.61
387.3832, 19285.54
387.8653, 19316.73
388.3474, 19416.12
388.8295, 19557.96
389.3116, 19701.74
389.7938, 19831.42
390.2759, 19956.04
390.7580, 20083.50
391.2401, 20212.52
391.7222, 20336.54
392.2043, 20444.66
392.6865, 20550.02
393.1686, 20664.70
393.6507, 20787.69
394.1328, 20922.40
394.6149, 21076.40
395.0970, 21243.75
395.5792, 21407.25
396.0613, 21566.12
396.5434, 21717.21
397.0255, 21860.00
397.5076, 21986.24
397.9897, 22116.44
398.4719, 22248.47
398.9540, 22386.07
399.4361, 22534.65
399.9182, 22697.04
400.4003, 22866.83
400.8824, 23041.89
401.3646, 23222.48
401.8467, 23416.79
402.3288, 23639.01
402.8109, 23857.12
403.2930, 24036.53
403.7751, 24163.75
404.2573, 24294.57
404.7394, 24436.51
405.2215, 24590.08
405.7036, 24761.17
406.1857, 24956.21
406.6678, 25138.34
407.1500, 25271.91
407.6321, 25358.73
408.1142, 25467.50
408.5963, 25609.47
409.0784, 25763.44
409.5605, 25894.90
410.0427, 26004.33
410.5248, 26103.56
411.0069, 26201.14
411.4890, 26293.57
411.9711, 26361.51
412.4532, 26401.57
412.9354, 26453.75
413.4175, 26580.24
413.8996, 26745.76
414.3817, 26877.90
414.8638, 26934.34
415.3459, 26956.11
415.8281, 26973.04
416.3102, 26985.77
416.7923, 26998.12
417.2744, 27026.33
417.7565, 27048.01
418.2386, 27038.13
418.7208, 26964.93
419.2029, 26905.28
419.6850, 26909.88
420.1671, 26951.44
420.6492, 26968.78
421.1313, 26936.68
421.6135, 26882.19
422.0956, 26815.59
422.5777, 26739.27
423.0598, 26647.17
423.5420, 26535.18
424.0241, 26409.34
424.5062, 26275.25
424.9883, 26145.30
425.4704, 25992.88
425.9525, 25807.02
426.4347, 25589.88
426.9168, 25368.32
427.3989, 25136.73
427.8810, 24905.08
428.3631, 24683.81
428.8452, 24482.92
429.3274, 24256.10
429.8095, 24002.59
430.2916, 23723.28
430.7737, 23409.09
431.2558, 23053.88
431.7379, 22718.93
432.2201, 22448.32
432.7022, 22233.98
433.1843, 22003.76
433.6664, 21755.80
434.1485, 21509.08
434.6306, 21282.62
435.1128, 21075.95
435.5949, 20886.91
436.0770, 20713.65
436.5591, 20557.67
437.0412, 20427.47
437.5233, 20321.66
438.0055, 20234.58
438.4876, 20160.65
438.9697, 20103.62
439.4518, 20071.27
439.9339, 20071.71
440.4160, 20080.76
440.8982, 20076.28
441.3803, 20069.44
441.8624, 20083.02
442.3445, 20125.80
442.8266, 20191.36
443.3087, 20278.38
443.7909, 20388.12
444.2730, 20511.51
444.7551, 20660.92
445.2372, 20816.60
445.7193, 20962.13
446.2014, 21051.18
446.6836, 21182.18
447.1657, 21376.81
447.6478, 21626.62
448.1299, 21883.21
448.6120, 22151.67
449.0941, 22417.56
449.5763, 22667.78
450.0584, 22895.14
450.5405, 23135.58
451.0226, 23390.70
451.5047, 23659.69
451.9868, 23953.94
452.4690, 24280.85
452.9511, 24591.90
453.4332, 24867.03
453.9153, 25113.79
454.3974, 25359.05
454.8795, 25606.30
455.3617, 25837.77
455.8438, 26052.31
456.3259, 26241.19
456.8080, 26383.91
457.2901, 26475.19
457.7722, 26514.21
458.2544, 26477.71
458.7365, 26380.41
459.2186, 26275.72
459.7007, 26216.37
460.1828, 26150.15
460.6649, 26022.59
461.1471, 25825.19
461.6292, 25598.51
462.1113, 25346.24
462.5934, 25081.77
463.0755, 24820.98
463.5576, 24563.80
464.0398, 24312.30
464.5219, 24066.72
465.0040, 23827.07
465.4861, 23593.35
465.9682, 23372.86
466.4503, 23153.69
466.9325, 22926.21
467.4146, 22679.58
467.8967, 22447.69
468.3788, 22227.28
468.8609, 22023.30
469.3430, 21844.82
469.8252, 21696.68
470.3073, 21563.71
470.7894, 21447.86
471.2715, 21346.77
471.7536, 21224.29
472.2357, 21074.25
472.7179, 20924.96
473.2000, 20804.60
473.6821, 20710.79
474.1642, 20609.23
474.6463, 20490.42
475.1284, 20370.39
475.6106, 20285.52
476.0927, 20227.87
476.5748, 20155.82
477.0569, 20027.26
477.5390, 19878.51
478.0211, 19756.77
478.5033, 19664.22
478.9854, 19597.68
479.4675, 19577.21
479.9496, 19574.50
480.4317, 19554.21
480.9138, 19481.12
481.3960, 19415.65
481.8781, 19394.24
482.3602, 19404.24
482.8423, 19403.60
483.3244, 19364.66
483.8065, 19325.25
484.2887, 19302.78
484.7708, 19303.99
485.2529, 19308.04
485.7350, 19306.75
486.2171, 19311.93
486.6992, 19339.35
487.1814, 19408.61
487.6635, 19461.81
488.1456, 19485.82
488.6277, 19485.15
489.1098, 19482.26
489.5919, 19473.07
490.0741, 19474.69
490.5562, 19495.99
491.0383, 19537.21
491.5204, 19605.54
492.0026, 19709.91
492.4847, 19816.17
492.9668, 19876.87
493.4489, 19898.23
493.9310, 19908.57
494.4131, 19906.42
494.8953, 19907.49
495.3774, 19944.16
495.8595, 20011.89
496.3416, 20069.37
496.8237, 20098.95
497.3058, 20101.25
497.7880, 20068.84
498.2701, 19981.36
498.7522, 19911.49
499.2343, 19917.79
499.7164, 19960.04
500.1985, 19974.66
500.6807, 19922.07
501.1628, 19861.13
501.6449, 19808.64
502.1270, 19765.95
502.6091, 19717.72
503.0912, 19652.59
503.5734, 19591.22
504.0555, 19548.32
504.5376, 19539.48
505.0197, 19509.22
505.5018, 19444.36
505.9839, 19367.31
506.4661, 19323.94
506.9482, 19320.01
507.4303, 19313.21
507.9124, 19284.99
508.3945, 19241.15
508.8766, 19209.68
509.3588, 19190.70
509.8409, 19178.16
510.3230, 19167.40
510.8051, 19159.07
511.2872, 19156.38
511.7693, 19162.25
512.2515, 19167.47
512.7336, 19167.08
513.2157, 19159.14
513.6978, 19139.35
514.1799, 19074.47
514.6620, 19022.09
515.1442, 19034.50
515.6263, 19111.91
516.1084, 19163.94
516.5905, 19128.71
517.0726, 19077.20
517.5547, 19058.96
518.0369, 19113.66
518.5190, 19155.01
519.0011, 19185.90
519.4832, 19200.06
519.9653, 19179.45
520.4474, 19089.66
520.9296, 19031.01
521.4117, 19041.72
521.8938, 19117.30
522.3759, 19167.54
522.8580, 19189.70
523.3401, 19195.79
523.8223, 19192.57
524.3044, 19180.72
524.7865, 19164.64
525.2686, 19142.23
525.7507, 19123.42
526.2328, 19126.34
526.7150, 19145.94
527.1971, 19164.51
527.6792, 19161.32
528.1613, 19160.64
528.6434, 19198.82
529.1255, 19271.18
529.6077, 19329.92
530.0898, 19344.33
530.5719, 19335.82
531.0540, 19321.55
531.5361, 19305.64
532.0182, 19282.38
532.5004, 19234.17
532.9825, 19181.16
533.4646, 19156.67
533.9467, 19185.85
534.4288, 19216.65
534.9109, 19243.44
535.3931, 19265.41
535.8752, 19271.44
536.3573, 19252.77
536.8394, 19235.54
537.3215, 19237.89
537.8036, 19261.68
538.2858, 19281.72
538.7679, 19297.12
539.2500, 19308.33
539.7321, 19315.73
540.2142, 19319.45
540.6964, 19319.07
541.1785, 19305.44
541.6606, 19295.62
542.1427, 19327.57
542.6248, 19392.45
543.1069, 19442.19
543.5891, 19424.22
544.0712, 19390.98
544.5533, 19392.49
545.0354, 19442.01
545.5175, 19491.97
545.9996, 19532.43
546.4818, 19559.32
546.9639, 19567.64
547.4460, 19512.56
547.9281, 19490.04
548.4102, 19534.44
548.8923, 19624.40
549.3745, 19681.89
549.8566, 19690.80
550.3387, 19693.55
550.8208, 19700.78
551.3029, 19710.93
551.7850, 19759.77
552.2672, 19857.59
552.7493, 19962.17
553.2314, 20025.89
553.7135, 20053.93
554.1956, 20089.71
554.6777, 20144.87
555.1599, 20204.75
555.6420, 20239.69
556.1241, 20258.99
556.6062, 20292.97
557.0883, 20366.27
557.5704, 20454.51
558.0526, 20542.82
558.5347, 20629.76
559.0168, 20702.71
559.4989, 20726.65
559.9810, 20750.92
560.4631, 20812.86
560.9453, 20944.91
561.4274, 21068.94
561.9095, 21163.06
562.3916, 21246.92
562.8737, 21349.22
563.3558, 21478.69
563.8380, 21605.41
564.3201, 21716.90
564.8022, 21819.05
565.2843, 21953.05
565.7664, 22122.98
566.2485, 22309.46
566.7307, 22500.68
567.2128, 22698.42
567.6949, 22918.93
568.1770, 23165.83
568.6591, 23428.78
569.1412, 23703.48
569.6234, 23987.30
570.1055, 24280.27
570.5876, 24570.44
571.0697, 24882.46
571.5518, 25244.48
572.0339, 25645.77
572.5161, 26048.96
572.9982, 26406.04
573.4803, 26791.29
573.9624, 27251.64
574.4445, 27807.47
574.9266, 28322.83
575.4088, 28748.30
575.8909, 29166.42
576.3730, 29629.71
576.8551, 30166.11
577.3372, 30672.55
577.8193, 31135.17
578.3015, 31570.72
578.7836, 32019.63
579.2657, 32478.43
579.7478, 32919.93
580.2299, 33357.05
580.7120, 33757.28
581.1942, 34019.29
581.6763, 34149.80
582.1584, 34216.84
582.6405, 34287.72
583.1226, 34311.51
583.6047, 34219.75
584.0869, 34001.73
584.5690, 33701.83
585.0511, 33308.14
585.5332, 32862.85
586.0153, 32409.45
586.4974, 31974.99
586.9796, 31514.15
587.4617, 30986.76
587.9438, 30427.82
588.4259, 29915.60
588.9080, 29465.37
589.3901, 29043.43
589.8723, 28648.24
590.3544, 28275.76
590.8365, 27908.33
591.3186, 27538.33
591.8007, 27195.03
592.2828, 26906.09
592.7650, 26665.87
593.2471, 26439.72
593.7292, 26224.08
594.2113, 26020.89
594.6934, 25826.10
595.1755, 25643.98
595.6577, 25480.13
596.1398, 25349.41
596.6219, 25223.26
597.1040, 25078.02
597.5862, 24921.43
598.0683, 24771.77
598.5504, 24649.42
599.0325, 24524.53
599.5146, 24377.96
599.9968, 24201.61
600.4789, 24058.68
600.9610, 23966.02
601.4431, 23891.36
601.9252, 23813.24
602.4073, 23730.64
602.8895, 23657.27
603.3716, 23599.18
603.8537, 23540.56
604.3358, 23452.25
604.8179, 23337.23
605.3000, 23223.31
605.7822, 23122.99
606.2643, 23024.54
606.7464, 22896.39
607.2285, 22747.68
607.7106, 22612.50
608.1927, 22525.13
608.6749, 22451.19
609.1570, 22366.08
609.6391, 22266.45
610.1212, 22160.57
610.6033, 22038.22
611.0854, 21917.90
611.5676, 21815.07
612.0497, 21743.25
612.5318, 21667.38
613.0139, 21578.26
613.4960, 21490.83
613.9781, 21437.80
614.4603, 21433.46
614.9424, 21399.72
615.4245, 21305.97
615.9066, 21179.64
616.3887, 21095.02
616.8708, 21051.76
617.3530, 21028.37
617.8351, 21029.68
618.3172, 21036.24
618.7993, 21013.42
619.2814, 20960.20
619.7635, 20902.01
620.2457, 20844.56
620.7278, 20796.45
621.2099, 20768.62
621.6920, 20776.60
622.1741, 20775.53
622.6563, 20739.52
623.1384, 20692.96
623.6205, 20671.00
624.1026, 20697.02
624.5847, 20710.37
625.0668, 20699.54
