##NAMES=Lanarkite
##RRUFFID=R080116
##IDEAL CHEMISTRY=Pb^2+^_2_O(S^6+^O_4_)
##LOCALITY=Leadhills, Lanarkshire,  Scotland
##OWNER=RRUFF
##SOURCE=William W. Pinch
##DESCRIPTION=Cream colored, elongated prismatic crystals
##STATUS=The identification of this mineral has been confirmed by single-crystal X-ray diffraction.
##URL=rruff.info/R080116
92.52344, 469.6149
93.00555, 460.9748
93.48767, 461.8581
93.96979, 484.4787
94.45190, 509.8145
94.93402, 536.5383
95.41614, 555.9189
95.89825, 568.8525
96.38037, 579.0978
96.86249, 587.4401
97.34460, 596.9421
97.82672, 607.1830
98.30884, 619.7522
98.79095, 633.8648
99.27307, 649.4397
99.75519, 667.9841
100.2373, 692.5370
100.7194, 723.4716
101.2015, 757.1606
101.6837, 798.7516
102.1658, 838.9449
102.6479, 873.6976
103.1300, 903.9083
103.6121, 922.7042
104.0942, 920.3984
104.5764, 903.5750
105.0585, 878.9073
105.5406, 844.5075
106.0227, 803.5177
106.5048, 765.4315
106.9869, 728.7919
107.4691, 697.2041
107.9512, 672.1234
108.4333, 652.5009
108.9154, 636.0260
109.3975, 621.2215
109.8796, 608.2862
110.3618, 595.5012
110.8439, 583.5968
111.3260, 571.1882
111.8081, 557.9852
112.2902, 543.8290
112.7723, 528.3367
113.2544, 510.8457
113.7366, 489.5376
114.2187, 469.5179
114.7008, 450.7902
115.1829, 433.1423
115.6650, 416.4439
116.1471, 400.5786
116.6293, 385.6798
117.1114, 372.1743
117.5935, 359.6743
118.0756, 348.8950
118.5577, 340.1788
119.0398, 333.3209
119.5220, 327.7498
120.0041, 323.2904
120.4862, 320.1356
120.9683, 318.0840
121.4504, 316.8579
121.9325, 317.0867
122.4147, 319.1158
122.8968, 322.9182
123.3789, 328.8192
123.8610, 336.7453
124.3431, 347.1066
124.8252, 360.5702
125.3074, 376.9983
125.7895, 397.0630
126.2716, 422.2812
126.7537, 453.0801
127.2358, 488.8580
127.7179, 530.9962
128.2001, 576.5560
128.6822, 622.8903
129.1643, 668.9055
129.6464, 714.2610
130.1285, 751.9866
130.6107, 780.1143
131.0928, 801.9030
131.5749, 815.3537
132.0570, 822.5045
132.5391, 827.0507
133.0212, 831.8171
133.5034, 836.5281
133.9855, 844.1927
134.4676, 853.2930
134.9497, 865.7527
135.4318, 882.3948
135.9139, 903.3395
136.3960, 928.6929
136.8782, 958.7007
137.3603, 994.0521
137.8424, 1033.004
138.3245, 1075.630
138.8066, 1121.674
139.2887, 1170.071
139.7709, 1219.974
140.2530, 1273.839
140.7351, 1333.705
141.2172, 1398.226
141.6993, 1472.237
142.1814, 1555.430
142.6636, 1648.656
143.1457, 1754.968
143.6278, 1868.886
144.1099, 2005.820
144.5920, 2168.509
145.0741, 2357.254
145.5563, 2582.838
146.0384, 2859.008
146.5205, 3188.254
147.0026, 3541.387
147.4847, 3995.308
147.9668, 4418.890
148.4490, 4775.729
148.9311, 5046.345
149.4132, 5176.732
149.8953, 5067.673
150.3774, 4619.460
150.8595, 4108.481
151.3417, 3495.191
151.8238, 2878.000
152.3059, 2325.413
152.7880, 1868.103
153.2701, 1495.993
153.7522, 1191.861
154.2344, 998.7811
154.7165, 838.1619
155.1986, 715.5579
155.6807, 621.2188
156.1628, 545.4884
156.6449, 484.5642
157.1271, 436.6369
157.6092, 395.8148
158.0913, 362.2748
158.5734, 333.5031
159.0555, 310.2460
159.5376, 291.5491
160.0198, 275.0208
160.5019, 259.4881
160.9840, 245.2854
161.4661, 233.0245
161.9482, 223.3120
162.4303, 214.7380
162.9125, 206.5255
163.3946, 198.6785
163.8767, 191.3557
164.3588, 184.7197
164.8409, 178.7587
165.3230, 173.3783
165.8052, 168.6714
166.2873, 164.4749
166.7694, 160.7323
167.2515, 157.5172
167.7336, 154.4677
168.2157, 151.2721
168.6979, 148.1498
169.1800, 145.3886
169.6621, 143.1913
170.1442, 141.3758
170.6263, 139.4040
171.1084, 137.1196
171.5906, 134.9358
172.0727, 133.1155
172.5548, 131.4346
173.0369, 129.5052
173.5190, 126.9827
174.0011, 124.0176
174.4833, 121.8947
174.9654, 121.7029
175.4475, 121.3247
175.9296, 120.2724
176.4117, 118.7075
176.8938, 116.9628
177.3760, 115.2627
177.8581, 113.6038
178.3402, 112.1335
178.8223, 110.8699
179.3044, 109.7513
179.7865, 108.8285
180.2687, 108.0528
180.7508, 107.3182
181.2329, 106.5520
181.7150, 105.7520
182.1971, 104.8387
182.6792, 103.5643
183.1614, 102.3958
183.6435, 101.7114
184.1256, 101.4826
184.6077, 101.2643
185.0898, 100.6219
185.5719, 99.52385
186.0541, 98.65266
186.5362, 98.17313
187.0183, 97.83923
187.5004, 97.42513
187.9825, 96.90171
188.4646, 96.38219
188.9468, 95.95809
189.4289, 95.62155
189.9110, 95.35277
190.3931, 95.34170
190.8752, 95.33886
191.3573, 94.83466
191.8395, 93.58308
192.3216, 92.42831
192.8037, 92.14929
193.2858, 92.46346
193.7679, 92.77434
194.2500, 92.83820
194.7322, 92.69722
195.2143, 92.47782
195.6964, 92.15672
196.1785, 91.79005
196.6606, 91.37634
197.1427, 90.94462
197.6249, 90.56135
198.1070, 90.25134
198.5891, 90.01852
199.0712, 89.90969
199.5533, 89.99931
200.0354, 90.14468
200.5176, 90.28840
200.9997, 90.44035
201.4818, 90.65776
201.9639, 91.08595
202.4460, 91.74798
202.9281, 91.77395
203.4103, 90.20168
203.8924, 88.83806
204.3745, 88.22334
204.8566, 88.28528
205.3387, 88.74317
205.8208, 89.42097
206.3030, 90.39377
206.7851, 90.88262
207.2672, 90.53319
207.7493, 90.09255
208.2314, 89.78852
208.7135, 89.64748
209.1957, 89.61765
209.6778, 89.65475
210.1599, 89.75929
210.6420, 89.94797
211.1241, 90.36450
211.6062, 90.72360
212.0884, 90.87707
212.5705, 90.82607
213.0526, 90.64117
213.5347, 90.34072
214.0168, 89.89968
214.4989, 89.74419
214.9811, 89.93021
215.4632, 90.32588
215.9453, 91.02238
216.4274, 91.96629
216.9095, 92.70966
217.3916, 92.81544
217.8737, 92.25095
218.3559, 91.78374
218.8380, 91.51215
219.3201, 91.28400
219.8022, 90.87393
220.2843, 90.26623
220.7664, 89.86015
221.2486, 90.17841
221.7307, 91.01466
222.2128, 91.46081
222.6949, 91.09423
223.1770, 90.43021
223.6591, 90.02897
224.1413, 89.92498
224.6234, 89.94595
225.1055, 90.01568
225.5876, 90.12267
226.0697, 90.25778
226.5518, 90.51051
227.0340, 90.74160
227.5161, 90.72188
227.9982, 90.40177
228.4803, 89.99760
228.9624, 89.53604
229.4445, 89.09156
229.9267, 88.78062
230.4088, 88.70293
230.8909, 88.73881
231.3730, 88.65066
231.8551, 88.38489
232.3372, 88.13111
232.8194, 88.06481
233.3015, 88.02451
233.7836, 87.78967
234.2657, 87.22004
234.7478, 86.48412
235.2299, 85.95071
235.7121, 85.63657
236.1942, 85.51306
236.6763, 85.67176
237.1584, 85.94183
237.6405, 86.15308
238.1227, 86.23464
238.6048, 86.21218
239.0869, 86.12873
239.5690, 85.86667
240.0511, 85.76223
240.5332, 86.02402
241.0154, 86.38428
241.4975, 86.53561
241.9796, 86.34277
242.4617, 85.98766
242.9438, 85.92609
243.4259, 86.28642
243.9081, 86.77625
244.3902, 87.54864
244.8723, 88.33006
245.3544, 88.82293
245.8365, 88.91938
246.3186, 88.79581
246.8008, 88.84542
247.2829, 89.04379
247.7650, 89.49535
248.2471, 90.49844
248.7292, 91.58713
249.2113, 92.21928
249.6935, 92.23721
250.1756, 92.06034
250.6577, 92.52706
251.1398, 94.31944
251.6219, 95.79719
252.1040, 96.79520
252.5862, 97.57255
253.0683, 98.28953
253.5504, 99.00638
254.0325, 99.79757
254.5146, 100.7787
254.9967, 101.9384
255.4789, 103.3686
255.9610, 105.2740
256.4431, 107.3200
256.9252, 109.1488
257.4073, 110.6989
257.8894, 112.2912
258.3716, 114.3940
258.8537, 117.3157
259.3358, 119.9573
259.8179, 121.8750
260.3000, 123.7872
260.7821, 126.3398
261.2643, 129.6440
261.7464, 133.3416
262.2285, 137.0770
262.7106, 140.8659
263.1927, 144.7859
263.6748, 148.8756
264.1570, 153.0627
264.6391, 157.1638
265.1212, 161.1820
265.6033, 165.4683
266.0854, 170.3872
266.5675, 175.9755
267.0497, 181.3989
267.5318, 186.6007
268.0139, 191.6327
268.4960, 196.3725
268.9781, 200.8404
269.4602, 205.5427
269.9424, 210.9381
270.4245, 216.9513
270.9066, 222.8195
271.3887, 228.4696
271.8708, 234.0341
272.3529, 239.4993
272.8351, 244.8999
273.3172, 250.4662
273.7993, 256.3949
274.2814, 262.6312
274.7635, 268.8941
275.2456, 274.8000
275.7278, 281.1178
276.2099, 288.5814
276.6920, 297.0737
277.1741, 305.6107
277.6562, 313.5164
278.1383, 321.3312
278.6205, 330.0180
279.1026, 340.0651
279.5847, 350.1075
280.0668, 359.1933
280.5489, 367.4824
281.0310, 375.7512
281.5132, 384.4942
281.9953, 393.0675
282.4774, 400.8501
282.9595, 407.9472
283.4416, 413.7324
283.9237, 418.0000
284.4059, 420.6893
284.8880, 421.5651
285.3701, 420.5612
285.8522, 417.4998
286.3343, 412.5182
286.8164, 405.6930
287.2986, 397.2353
287.7807, 386.9851
288.2628, 375.1327
288.7449, 362.3080
289.2270, 348.2777
289.7091, 333.7466
290.1913, 318.7541
290.6734, 303.5872
291.1555, 288.9725
291.6376, 275.2889
292.1197, 262.4943
292.6018, 250.3560
293.0840, 239.0683
293.5661, 228.1600
294.0482, 216.9213
294.5303, 205.8585
295.0124, 195.8711
295.4945, 187.5496
295.9767, 180.4792
296.4588, 174.0225
296.9409, 168.2475
297.4230, 162.8466
297.9051, 157.5788
298.3872, 152.5671
298.8694, 147.9871
299.3515, 143.8718
299.8336, 140.2309
300.3157, 137.1367
300.7978, 134.6358
301.2799, 132.2946
301.7621, 129.8389
302.2442, 127.5311
302.7263, 125.6383
303.2084, 124.2347
303.6905, 123.0827
304.1726, 121.8792
304.6548, 120.6112
305.1369, 119.6854
305.6190, 119.3160
306.1011, 119.2605
306.5832, 119.3468
307.0653, 119.5614
307.5475, 119.9120
308.0296, 120.4703
308.5117, 121.2139
308.9938, 121.8354
309.4759, 121.9659
309.9580, 122.3926
310.4402, 123.7659
310.9223, 125.8880
311.4044, 128.0004
311.8865, 129.4572
312.3686, 130.4606
312.8507, 131.9324
313.3329, 133.9851
313.8150, 136.3674
314.2971, 138.9981
314.7792, 141.8255
315.2613, 144.7803
315.7434, 147.8548
316.2256, 151.0376
316.7077, 154.2992
317.1898, 157.6548
317.6719, 161.1337
318.1540, 164.6580
318.6361, 168.3474
319.1183, 172.4359
319.6004, 177.1283
320.0825, 181.9176
320.5646, 185.9536
321.0467, 189.0462
321.5288, 192.5988
322.0110, 197.2609
322.4931, 202.4727
322.9752, 207.8335
323.4573, 213.2623
323.9394, 218.8765
324.4215, 224.9461
324.9037, 231.4212
325.3858, 237.5513
325.8679, 242.9322
326.3500, 248.1748
326.8321, 253.4949
327.3142, 258.9832
327.7964, 265.0065
328.2785, 272.1999
328.7606, 280.2492
329.2427, 287.7106
329.7248, 294.4740
330.2069, 300.6389
330.6891, 306.1225
331.1712, 311.1299
331.6533, 316.1517
332.1354, 321.8558
332.6175, 327.4878
333.0996, 331.5687
333.5818, 334.0639
334.0639, 335.1506
334.5460, 334.5567
335.0281, 332.7152
335.5102, 329.9094
335.9923, 326.1354
336.4745, 321.5483
336.9566, 316.4906
337.4387, 311.0404
337.9208, 304.0856
338.4029, 294.2899
338.8850, 283.4206
339.3671, 273.3390
339.8492, 264.2024
340.3314, 255.0095
340.8135, 244.8302
341.2956, 233.7870
341.7777, 223.1479
342.2598, 213.0703
342.7419, 203.5815
343.2241, 194.6909
343.7062, 186.3150
344.1883, 178.2791
344.6704, 170.3076
345.1525, 162.6405
345.6346, 155.9407
346.1168, 150.4764
346.5989, 145.2478
347.0810, 139.2249
347.5631, 132.9908
348.0452, 127.6315
348.5273, 123.7954
349.0095, 120.6180
349.4916, 117.0793
349.9737, 113.1787
350.4558, 109.5898
350.9379, 106.8007
351.4200, 104.4468
351.9022, 101.8929
352.3843, 99.03399
352.8664, 96.22114
353.3485, 93.69064
353.8306, 91.40891
354.3127, 89.24506
354.7949, 87.14568
355.2770, 85.17276
355.7591, 83.42491
356.2412, 81.89818
356.7233, 80.36295
357.2054, 78.70954
357.6876, 77.00526
358.1697, 75.26152
358.6518, 73.43368
359.1339, 71.90306
359.6160, 71.20428
360.0981, 71.16592
360.5803, 70.86698
361.0624, 70.11522
361.5445, 69.12744
362.0266, 67.92347
362.5087, 66.56078
362.9908, 65.48621
363.4730, 65.07159
363.9551, 65.04894
364.4372, 64.55133
364.9193, 63.24901
365.4014, 62.06523
365.8835, 61.52380
366.3657, 61.35823
366.8478, 61.01999
367.3299, 60.31822
367.8120, 59.43459
368.2941, 58.61955
368.7762, 57.85826
369.2584, 57.21975
369.7405, 56.75785
370.2226, 56.40048
370.7047, 56.10219
371.1868, 55.84893
371.6689, 55.60980
372.1511, 55.36419
372.6332, 55.11071
373.1153, 54.79718
373.5974, 54.28412
374.0795, 53.85026
374.5616, 53.68229
375.0438, 53.70447
375.5259, 53.71248
376.0080, 53.59363
376.4901, 53.38583
376.9722, 53.22299
377.4543, 53.10209
377.9365, 53.02824
378.4186, 53.08815
378.9007, 53.15630
379.3828, 53.05265
379.8649, 52.73956
380.3470, 52.38784
380.8292, 52.24322
381.3113, 52.39579
381.7934, 52.49590
382.2755, 52.60170
382.7576, 52.61433
383.2397, 52.34829
383.7219, 51.90942
384.2040, 51.64284
384.6861, 51.85006
385.1682, 52.49049
385.6503, 52.90774
386.1324, 52.92678
386.6146, 52.90148
387.0967, 52.79462
387.5788, 52.70797
388.0609, 52.84234
388.5430, 53.27893
389.0251, 53.75413
389.5073, 53.65582
389.9894, 52.44808
390.4715, 51.80469
390.9536, 52.11282
391.4357, 52.69348
391.9178, 53.21131
392.4000, 53.58400
392.8821, 53.82284
393.3642, 53.92818
393.8463, 53.89774
394.3284, 53.79137
394.8105, 53.48800
395.2927, 53.24837
395.7748, 53.13877
396.2569, 53.15334
396.7390, 53.29586
397.2211, 53.59730
397.7032, 53.96574
398.1854, 54.17196
398.6675, 54.14588
399.1496, 54.17356
399.6317, 54.51463
400.1138, 54.83095
400.5959, 54.78569
401.0781, 54.33120
401.5602, 53.86322
402.0423, 53.76762
402.5244, 54.01294
403.0065, 54.26405
403.4886, 54.53064
403.9708, 54.72239
404.4529, 54.61525
404.9350, 54.36779
405.4171, 54.44635
405.8992, 55.20039
406.3813, 56.31818
406.8635, 57.21787
407.3456, 57.83695
407.8277, 58.82259
408.3098, 60.45582
408.7919, 62.73613
409.2740, 65.60629
409.7562, 69.19552
410.2383, 73.04785
410.7204, 77.34580
411.2025, 81.74160
411.6846, 85.24779
412.1667, 87.58512
412.6489, 89.10711
413.1310, 90.07275
413.6131, 90.51516
414.0952, 90.77673
414.5773, 90.41227
415.0594, 90.23087
415.5416, 91.01090
416.0237, 92.74722
416.5058, 94.93711
416.9879, 97.21739
417.4700, 99.70042
417.9521, 102.9940
418.4343, 107.6265
418.9164, 112.2801
419.3985, 116.2336
419.8806, 120.1067
420.3627, 124.6958
420.8448, 130.2721
421.3270, 136.7459
421.8091, 143.8980
422.2912, 151.2415
422.7733, 160.9775
423.2554, 173.0835
423.7375, 187.3134
424.2197, 204.0620
424.7018, 222.8187
425.1839, 242.5405
425.6660, 262.7053
426.1481, 282.9040
426.6302, 300.9898
427.1124, 319.2481
427.5945, 331.8105
428.0766, 340.1772
428.5587, 341.5533
429.0408, 331.9550
429.5229, 310.6161
430.0051, 282.3433
430.4872, 252.1623
430.9693, 218.3300
431.4514, 190.4595
431.9335, 170.4780
432.4156, 155.3302
432.8978, 144.6518
433.3799, 137.9579
433.8620, 134.3459
434.3441, 133.5462
434.8262, 135.2532
435.3083, 138.4675
435.7905, 142.7484
436.2726, 149.7781
436.7547, 160.3520
437.2368, 173.9410
437.7189, 190.5315
438.2010, 210.1764
438.6832, 232.0508
439.1653, 256.8258
439.6474, 283.6649
440.1295, 309.5628
440.6116, 336.9700
441.0938, 357.3964
441.5759, 364.8910
442.0580, 360.3256
442.5401, 342.4076
443.0222, 302.2209
443.5043, 254.4271
443.9865, 210.7381
444.4686, 171.6400
444.9507, 139.1597
445.4328, 114.8568
445.9149, 97.34021
446.3970, 83.79256
446.8792, 74.51025
447.3613, 67.28632
447.8434, 62.24223
448.3255, 58.60974
448.8076, 55.60340
449.2897, 53.03712
449.7719, 50.78694
450.2540, 48.72435
450.7361, 46.84111
451.2182, 45.37731
451.7003, 44.60017
452.1824, 43.88096
452.6646, 42.99730
453.1467, 42.01052
453.6288, 41.01016
454.1109, 40.03243
454.5930, 39.15962
455.0751, 38.55684
455.5573, 38.33814
456.0394, 38.18480
456.5215, 38.27013
457.0036, 38.26409
457.4857, 37.83685
457.9678, 37.10986
458.4500, 36.53365
458.9321, 36.51115
459.4142, 36.90883
459.8963, 36.89854
460.3784, 36.15270
460.8605, 35.58290
461.3427, 35.54060
461.8248, 35.70342
462.3069, 35.73296
462.7890, 35.54538
463.2711, 35.37956
463.7532, 35.57282
464.2354, 36.08705
464.7175, 36.33699
465.1996, 36.12348
465.6817, 35.84741
466.1638, 35.74676
466.6459, 35.80221
467.1281, 35.99376
467.6102, 36.48095
468.0923, 36.95052
468.5744, 36.91810
469.0565, 36.45153
469.5386, 36.27269
470.0208, 36.75485
470.5029, 37.55554
470.9850, 38.07860
471.4671, 38.30946
471.9492, 38.46436
472.4313, 38.47987
472.9135, 38.51566
473.3956, 38.79243
473.8777, 39.30440
474.3598, 39.81382
474.8419, 40.12238
475.3240, 40.26344
475.8062, 40.56170
476.2883, 41.25758
476.7704, 41.79598
477.2525, 41.88068
477.7346, 41.82902
478.2167, 42.03535
478.6989, 42.59885
479.1810, 43.31365
479.6631, 43.95156
480.1452, 44.53210
480.6273, 44.90917
481.1094, 44.74163
481.5916, 44.71878
482.0737, 45.22254
482.5558, 45.99897
483.0379, 46.60151
483.5200, 46.81325
484.0021, 46.77262
484.4843, 46.72694
484.9664, 46.67716
485.4485, 46.61800
485.9306, 46.58395
486.4127, 46.50639
486.8948, 46.34798
487.3770, 46.10701
487.8591, 45.79144
488.3412, 45.42815
488.8233, 44.98803
489.3054, 44.33801
489.7875, 43.44542
490.2697, 42.71218
490.7518, 42.45679
491.2339, 42.43535
491.7160, 42.14521
492.1981, 41.53046
492.6802, 40.81786
493.1624, 39.96708
493.6445, 39.13081
494.1266, 38.59924
494.6087, 38.41112
495.0908, 38.26236
495.5729, 37.87853
496.0551, 37.26236
496.5372, 36.69309
497.0193, 36.09315
497.5014, 35.62134
497.9835, 35.38497
498.4656, 35.28404
498.9478, 35.20790
499.4299, 35.11237
499.9120, 34.95832
500.3941, 34.66973
500.8762, 34.17887
501.3583, 33.81617
501.8405, 33.71572
502.3226, 33.60810
502.8047, 33.32921
503.2868, 32.98479
503.7689, 32.81511
504.2510, 32.96955
504.7331, 33.21196
505.2152, 33.03690
505.6974, 32.34293
506.1795, 31.86544
506.6616, 31.91127
507.1437, 32.07713
507.6258, 32.07632
508.1079, 31.92376
508.5901, 31.74438
509.0722, 31.55280
509.5543, 31.39221
510.0364, 31.39270
510.5185, 31.54953
511.0006, 31.52912
511.4828, 31.06553
511.9649, 30.43020
512.4470, 30.25379
512.9291, 30.70184
513.4113, 30.96003
513.8934, 30.58879
514.3755, 30.06698
514.8576, 29.96641
515.3397, 30.28413
515.8218, 30.55235
516.3040, 30.40532
516.7861, 29.91377
517.2682, 29.59314
517.7503, 29.53834
518.2324, 29.54425
518.7145, 29.78518
519.1967, 29.96330
519.6788, 29.62802
520.1609, 28.80994
520.6430, 28.14296
521.1251, 28.38234
521.6072, 29.49006
522.0894, 30.04905
522.5715, 29.76038
523.0536, 29.38261
523.5357, 29.08676
524.0178, 28.89556
524.4999, 28.87767
524.9821, 29.06645
525.4642, 29.25589
525.9463, 29.21125
526.4284, 28.99449
526.9105, 28.91514
527.3926, 29.07125
527.8748, 29.19652
528.3569, 28.99787
528.8390, 28.59138
529.3211, 28.38254
529.8032, 28.59887
530.2853, 28.80735
530.7675, 28.75113
531.2496, 28.52422
531.7317, 28.29355
532.2138, 28.10620
532.6959, 27.96108
533.1780, 27.85258
533.6602, 27.77237
534.1423, 27.78744
534.6244, 28.00404
535.1065, 28.18458
535.5886, 28.21831
536.0707, 28.16379
536.5529, 28.10802
537.0350, 28.08694
537.5171, 28.09509
537.9992, 28.16196
538.4813, 28.33742
538.9634, 28.30363
539.4456, 27.76575
539.9277, 27.32931
540.4098, 27.35817
540.8919, 27.67698
541.3740, 27.92254
541.8561, 27.93356
542.3383, 27.85749
542.8204, 27.91281
543.3025, 28.07286
543.7846, 28.05035
544.2667, 27.70146
544.7488, 27.29488
545.2310, 27.15851
545.7131, 27.25872
546.1952, 27.29962
546.6773, 27.15249
547.1594, 27.01185
547.6415, 27.06209
548.1237, 27.21894
548.6058, 27.23267
549.0879, 26.99575
549.5700, 26.70056
550.0521, 26.68679
550.5342, 27.12135
551.0164, 27.32401
551.4985, 27.20871
551.9806, 26.98780
552.4627, 26.68936
552.9448, 26.36469
553.4269, 26.06839
553.9091, 25.82207
554.3912, 25.65904
554.8733, 25.69664
555.3554, 25.99150
555.8375, 26.07226
556.3196, 25.59035
556.8018, 25.22214
557.2839, 25.57435
557.7660, 26.37962
558.2481, 26.86650
558.7302, 26.57525
559.2123, 26.07381
559.6945, 25.95400
560.1766, 26.13461
560.6587, 26.24626
561.1408, 26.16495
561.6229, 26.02243
562.1050, 26.00540
562.5872, 26.15101
563.0693, 26.11853
563.5514, 25.70524
564.0335, 25.31356
564.5156, 25.18306
564.9977, 25.21400
565.4799, 25.17623
565.9620, 24.98261
566.4441, 24.80555
566.9262, 24.97482
567.4083, 25.65425
567.8904, 26.01299
568.3726, 25.77409
568.8547, 25.48418
569.3368, 25.26562
569.8189, 25.13544
570.3010, 25.12481
570.7831, 25.26288
571.2653, 25.42781
571.7474, 25.44560
572.2295, 25.34228
572.7116, 25.35214
573.1937, 25.56057
573.6758, 25.76571
574.1580, 25.76325
574.6401, 25.61050
575.1222, 25.53318
575.6043, 25.59655
576.0864, 25.68923
576.5685, 25.73030
577.0507, 25.77212
577.5328, 25.91001
578.0149, 26.16534
578.4970, 26.48123
578.9791, 26.80536
579.4612, 27.13988
579.9434, 27.42989
580.4255, 27.47227
580.9076, 27.71438
581.3897, 28.37239
581.8718, 29.20541
582.3539, 29.90438
582.8361, 30.42263
583.3182, 31.02305
583.8003, 32.02200
584.2824, 33.36672
584.7645, 34.61087
585.2466, 35.66219
585.7288, 36.89191
586.2108, 38.60389
586.6929, 40.55673
587.1750, 42.36811
587.6572, 43.97254
588.1393, 45.60913
588.6214, 47.61023
589.1035, 49.59413
589.5856, 50.91726
590.0677, 51.59505
590.5499, 52.20137
