##NAMES=Lanarkite
##RRUFFID=R080116
##IDEAL CHEMISTRY=Pb^2+^_2_O(S^6+^O_4_)
##LOCALITY=Leadhills, Lanarkshire,  Scotland
##OWNER=RRUFF
##SOURCE=William W. Pinch
##DESCRIPTION=Cream colored, elongated prismatic crystals
##STATUS=The identification of this mineral has been confirmed by single-crystal X-ray diffraction.
##URL=rruff.info/R080116
91.87140, 0.0000000E+00
92.35352, 207.6353
92.83563, 199.9521
93.31775, 196.6840
93.79987, 199.1369
94.28198, 206.1800
94.76410, 214.8028
95.24622, 224.7682
95.72833, 235.6024
96.21045, 245.5504
96.69257, 254.5257
97.17468, 264.6729
97.65680, 277.9173
98.13892, 294.2695
98.62103, 312.0153
99.10315, 330.1741
99.58527, 349.1086
100.0674, 370.2507
100.5495, 393.2202
101.0316, 418.8464
101.5137, 447.4120
101.9958, 478.7613
102.4780, 514.2418
102.9601, 554.1272
103.4422, 598.5088
103.9243, 646.3695
104.4064, 697.6377
104.8885, 752.6652
105.3707, 813.5422
105.8528, 880.7492
106.3349, 952.4268
106.8170, 1027.635
107.2991, 1107.707
107.7813, 1188.862
108.2634, 1271.896
108.7455, 1356.533
109.2276, 1438.789
109.7097, 1523.379
110.1918, 1602.856
110.6740, 1674.243
111.1561, 1734.557
111.6382, 1790.047
112.1203, 1838.421
112.6024, 1881.322
113.0845, 1925.913
113.5667, 1973.464
114.0488, 2022.820
114.5309, 2073.764
115.0130, 2120.334
115.4951, 2173.606
115.9772, 2236.417
116.4594, 2309.340
116.9415, 2391.128
117.4236, 2479.729
117.9057, 2577.545
118.3878, 2686.660
118.8699, 2814.284
119.3521, 2949.891
119.8342, 3086.916
120.3163, 3224.049
120.7984, 3372.419
121.2805, 3532.247
121.7626, 3708.309
122.2448, 3908.771
122.7269, 4134.389
123.2090, 4387.747
123.6911, 4664.501
124.1732, 4958.134
124.6553, 5300.592
125.1375, 5698.461
125.6196, 6163.399
126.1017, 6732.273
126.5838, 7407.866
127.0659, 8206.473
127.5480, 9164.047
128.0302, 10303.26
128.5123, 11577.57
128.9944, 12986.27
129.4765, 14513.21
129.9586, 16007.29
130.4407, 17424.66
130.9229, 18737.21
131.4050, 19826.08
131.8871, 20611.24
132.3692, 21184.03
132.8513, 21697.50
133.3334, 22112.47
133.8156, 22417.17
134.2977, 22664.68
134.7798, 22933.23
135.2619, 23253.81
135.7440, 23637.67
136.2261, 24074.45
136.7083, 24548.91
137.1904, 25058.18
137.6725, 25617.12
138.1546, 26243.27
138.6367, 26936.93
139.1188, 27704.21
139.6010, 28550.97
140.0831, 29473.00
140.5652, 30479.49
141.0473, 31564.94
141.5294, 32752.96
142.0115, 34035.74
142.4937, 35367.50
142.9758, 36912.63
143.4579, 38703.57
143.9400, 40691.72
144.4221, 43089.63
144.9042, 45860.99
145.3864, 49052.33
145.8685, 52711.59
146.3506, 57164.07
146.8327, 61688.41
147.3148, 66350.17
147.7969, 72239.55
148.2791, 75810.87
148.7612, 77294.91
149.2433, 76515.80
149.7254, 72937.93
150.2075, 64446.37
150.6896, 55054.73
151.1718, 46201.34
151.6539, 37222.74
152.1360, 29688.56
152.6181, 23860.63
153.1002, 19509.05
153.5823, 15987.36
154.0645, 13513.47
154.5466, 11608.53
155.0287, 10054.06
155.5108, 8944.265
155.9929, 8003.534
156.4750, 7233.593
156.9572, 6613.192
157.4393, 6078.442
157.9214, 5631.595
158.4035, 5249.487
158.8856, 4916.036
159.3677, 4644.053
159.8499, 4402.151
160.3320, 4188.083
160.8141, 4000.367
161.2962, 3830.824
161.7783, 3682.488
162.2604, 3549.929
162.7426, 3428.647
163.2247, 3320.550
163.7068, 3220.442
164.1889, 3125.285
164.6710, 3036.000
165.1531, 2954.550
165.6353, 2885.039
166.1174, 2822.887
166.5995, 2763.165
167.0816, 2700.892
167.5637, 2642.760
168.0458, 2593.460
168.5280, 2553.430
169.0101, 2517.701
169.4922, 2486.713
169.9743, 2457.762
170.4564, 2427.263
170.9385, 2390.865
171.4207, 2354.009
171.9028, 2322.070
172.3849, 2295.582
172.8670, 2269.924
173.3491, 2240.482
173.8312, 2209.174
174.3134, 2179.547
174.7955, 2155.294
175.2776, 2132.971
175.7597, 2107.856
176.2418, 2079.065
176.7239, 2051.523
177.2061, 2030.453
177.6882, 2013.848
178.1703, 1996.646
178.6524, 1975.080
179.1345, 1951.427
179.6166, 1929.661
180.0988, 1909.810
180.5809, 1891.678
181.0630, 1875.286
181.5451, 1860.345
182.0272, 1846.419
182.5093, 1833.183
182.9915, 1820.614
183.4736, 1808.720
183.9557, 1797.231
184.4378, 1786.945
184.9199, 1779.786
185.4020, 1775.353
185.8842, 1769.889
186.3663, 1760.253
186.8484, 1747.707
187.3305, 1737.553
187.8126, 1730.601
188.2947, 1724.761
188.7769, 1716.173
189.2590, 1704.999
189.7411, 1694.564
190.2232, 1686.890
190.7053, 1681.682
191.1874, 1676.714
191.6696, 1671.576
192.1517, 1666.955
192.6338, 1664.977
193.1159, 1665.791
193.5980, 1665.419
194.0801, 1660.344
194.5623, 1651.035
195.0444, 1643.941
195.5265, 1639.922
196.0086, 1638.022
196.4907, 1636.250
196.9728, 1634.512
197.4550, 1633.565
197.9371, 1634.046
198.4192, 1635.969
198.9013, 1638.361
199.3834, 1641.662
199.8655, 1644.839
200.3477, 1644.625
200.8298, 1640.157
201.3119, 1636.215
201.7940, 1636.013
202.2761, 1639.897
202.7582, 1643.742
203.2404, 1647.303
203.7225, 1650.548
204.2046, 1652.926
204.6867, 1653.885
205.1688, 1655.928
205.6509, 1661.632
206.1331, 1672.103
206.6152, 1678.843
207.0973, 1679.811
207.5794, 1677.280
208.0615, 1678.551
208.5436, 1684.705
209.0258, 1691.827
209.5079, 1697.303
209.9900, 1700.572
210.4721, 1704.739
210.9542, 1710.222
211.4363, 1716.690
211.9185, 1723.102
212.4006, 1729.464
212.8827, 1735.767
213.3648, 1742.172
213.8469, 1749.304
214.3290, 1754.412
214.8112, 1756.863
215.2933, 1757.205
215.7754, 1757.247
216.2575, 1756.469
216.7396, 1756.348
217.2217, 1758.284
217.7039, 1763.756
218.1860, 1766.558
218.6681, 1765.294
219.1502, 1761.210
219.6323, 1758.897
220.1144, 1759.009
220.5966, 1759.835
221.0787, 1760.463
221.5608, 1760.842
222.0429, 1761.317
222.5250, 1762.363
223.0071, 1763.500
223.4893, 1762.830
223.9714, 1759.839
224.4535, 1755.901
224.9356, 1751.324
225.4177, 1744.834
225.8998, 1741.108
226.3820, 1741.667
226.8641, 1744.982
227.3462, 1745.607
227.8283, 1742.173
228.3104, 1738.116
228.7925, 1735.214
229.2747, 1733.891
229.7568, 1732.736
230.2389, 1732.157
230.7210, 1731.616
231.2031, 1729.416
231.6852, 1725.229
232.1674, 1719.865
232.6495, 1713.479
233.1316, 1704.948
233.6137, 1697.893
234.0958, 1692.540
234.5779, 1688.765
235.0601, 1686.460
235.5422, 1686.402
236.0243, 1686.671
236.5064, 1686.508
236.9885, 1686.125
237.4706, 1684.695
237.9528, 1681.171
238.4349, 1676.902
238.9170, 1675.503
239.3991, 1678.628
239.8812, 1682.142
240.3633, 1684.225
240.8455, 1683.958
241.3276, 1684.391
241.8097, 1684.819
242.2918, 1686.205
242.7739, 1690.985
243.2560, 1701.174
243.7382, 1711.658
244.2203, 1720.619
244.7024, 1727.889
245.1845, 1733.870
245.6666, 1736.926
246.1487, 1739.471
246.6309, 1746.393
247.1130, 1759.350
247.5951, 1774.053
248.0772, 1789.221
248.5593, 1805.403
249.0414, 1820.154
249.5236, 1832.363
250.0057, 1843.801
250.4878, 1857.607
250.9699, 1874.243
251.4520, 1892.473
251.9341, 1911.679
252.4163, 1931.795
252.8984, 1953.734
253.3805, 1978.096
253.8626, 2004.022
254.3447, 2029.171
254.8268, 2052.200
255.3090, 2077.911
255.7911, 2107.440
256.2732, 2141.071
256.7553, 2177.321
257.2374, 2217.147
257.7195, 2258.827
258.2017, 2299.663
258.6838, 2337.728
259.1659, 2380.155
259.6480, 2429.485
260.1301, 2485.431
260.6122, 2544.050
261.0944, 2605.087
261.5765, 2669.481
262.0586, 2738.118
262.5407, 2809.944
263.0228, 2888.469
263.5049, 2974.381
263.9871, 3068.237
264.4692, 3164.035
264.9513, 3262.163
265.4334, 3362.956
265.9155, 3468.595
266.3976, 3576.998
266.8798, 3691.102
267.3619, 3811.667
267.8440, 3938.699
268.3261, 4063.138
268.8082, 4183.454
269.2903, 4303.831
269.7725, 4427.811
270.2546, 4555.460
270.7367, 4678.594
271.2188, 4792.918
271.7009, 4901.062
272.1830, 5017.920
272.6652, 5144.917
273.1473, 5274.341
273.6294, 5402.046
274.1115, 5527.200
274.5936, 5654.391
275.0757, 5783.635
275.5579, 5916.621
276.0400, 6054.831
276.5221, 6198.674
277.0042, 6345.798
277.4863, 6494.826
277.9684, 6645.652
278.4506, 6799.626
278.9327, 6957.838
279.4148, 7117.944
279.8969, 7276.747
280.3790, 7435.052
280.8611, 7586.669
281.3433, 7731.535
281.8254, 7870.126
282.3075, 7991.692
282.7896, 8100.176
283.2717, 8184.537
283.7538, 8225.579
284.2360, 8222.818
284.7181, 8191.691
285.2002, 8143.952
285.6823, 8076.781
286.1644, 7961.827
286.6465, 7797.923
287.1287, 7594.815
287.6108, 7357.394
288.0929, 7086.852
288.5750, 6805.212
289.0571, 6515.095
289.5392, 6218.985
290.0214, 5931.677
290.5035, 5654.212
290.9856, 5386.397
291.4677, 5128.584
291.9498, 4880.036
292.4319, 4644.125
292.9141, 4417.846
293.3962, 4204.642
293.8783, 4012.688
294.3604, 3842.983
294.8425, 3690.421
295.3246, 3552.940
295.8068, 3427.984
296.2889, 3309.635
296.7710, 3194.744
297.2531, 3085.771
297.7352, 2987.261
298.2173, 2899.567
298.6995, 2822.134
299.1816, 2759.494
299.6637, 2706.960
300.1458, 2656.126
300.6279, 2604.424
301.1100, 2555.006
301.5922, 2512.181
302.0743, 2475.448
302.5564, 2443.011
303.0385, 2413.943
303.5206, 2388.224
304.0027, 2364.731
304.4849, 2343.006
304.9670, 2325.691
305.4491, 2317.970
305.9312, 2317.063
306.4133, 2316.306
306.8954, 2309.556
307.3776, 2302.887
307.8597, 2302.441
308.3418, 2308.790
308.8239, 2319.635
309.3060, 2333.719
309.7881, 2351.261
310.2703, 2372.093
310.7524, 2396.553
311.2345, 2424.228
311.7166, 2454.277
312.1987, 2486.745
312.6808, 2522.772
313.1630, 2563.788
313.6451, 2608.730
314.1272, 2656.796
314.6093, 2705.068
315.0914, 2758.173
315.5735, 2819.348
316.0557, 2887.520
316.5378, 2957.100
317.0199, 3025.255
317.5020, 3093.855
317.9841, 3165.320
318.4662, 3239.036
318.9484, 3315.194
319.4305, 3395.903
319.9126, 3479.267
320.3947, 3560.298
320.8768, 3633.561
321.3589, 3707.170
321.8411, 3785.426
322.3232, 3868.805
322.8053, 3954.975
323.2874, 4045.011
323.7695, 4137.237
324.2516, 4228.997
324.7338, 4318.589
325.2159, 4408.813
325.6980, 4500.316
326.1801, 4593.397
326.6622, 4687.875
327.1443, 4787.534
327.6265, 4887.571
328.1086, 4983.491
328.5907, 5071.868
329.0728, 5158.850
329.5549, 5247.046
330.0370, 5336.907
330.5192, 5418.511
331.0013, 5495.071
331.4834, 5561.375
331.9655, 5614.793
332.4476, 5656.163
332.9297, 5683.272
333.4119, 5695.379
333.8940, 5692.954
334.3761, 5677.790
334.8582, 5652.158
335.3403, 5610.874
335.8224, 5551.700
336.3046, 5474.635
336.7867, 5377.966
337.2688, 5258.014
337.7509, 5120.678
338.2330, 4973.395
338.7151, 4815.428
339.1973, 4652.974
339.6794, 4484.773
340.1615, 4311.797
340.6436, 4144.042
341.1257, 3983.613
341.6078, 3827.754
342.0900, 3670.134
342.5721, 3512.479
343.0542, 3366.507
343.5363, 3239.014
344.0184, 3127.382
344.5005, 3016.128
344.9827, 2905.332
345.4648, 2800.997
345.9469, 2713.131
346.4290, 2638.770
346.9111, 2563.662
347.3932, 2482.624
347.8754, 2401.564
348.3575, 2334.871
348.8396, 2281.903
349.3217, 2232.417
349.8038, 2179.494
350.2859, 2125.391
350.7681, 2075.990
351.2502, 2032.454
351.7323, 1991.787
352.2144, 1950.214
352.6965, 1908.403
353.1786, 1869.594
353.6608, 1836.204
354.1429, 1806.306
354.6250, 1778.407
355.1071, 1752.542
355.5892, 1726.206
356.0714, 1695.731
356.5535, 1663.944
357.0356, 1635.028
357.5177, 1612.028
357.9998, 1591.045
358.4819, 1569.796
358.9641, 1548.433
359.4462, 1528.353
359.9283, 1510.885
360.4104, 1494.672
360.8925, 1478.530
361.3746, 1461.751
361.8568, 1445.728
362.3389, 1431.200
362.8210, 1417.892
363.3031, 1404.853
363.7852, 1391.830
364.2673, 1378.977
364.7495, 1365.916
365.2316, 1351.872
365.7137, 1340.311
366.1958, 1334.127
366.6779, 1330.128
367.1600, 1324.505
367.6422, 1314.194
368.1243, 1304.969
368.6064, 1298.369
369.0885, 1294.537
369.5706, 1290.476
370.0527, 1286.547
370.5349, 1282.108
371.0170, 1276.627
371.4991, 1269.478
371.9812, 1262.388
372.4633, 1254.773
372.9454, 1247.306
373.4276, 1242.725
373.9097, 1242.372
374.3918, 1242.502
374.8739, 1241.351
375.3560, 1238.498
375.8381, 1236.052
376.3203, 1233.664
376.8024, 1232.155
377.2845, 1233.735
377.7666, 1239.347
378.2487, 1242.605
378.7308, 1240.104
379.2130, 1233.079
379.6951, 1230.635
380.1772, 1233.368
380.6593, 1237.453
381.1414, 1239.114
381.6235, 1238.668
382.1057, 1239.264
382.5878, 1241.699
383.0699, 1245.288
383.5520, 1248.855
384.0341, 1252.444
384.5162, 1256.165
384.9984, 1260.846
385.4805, 1265.647
385.9626, 1268.467
386.4447, 1268.816
386.9268, 1268.703
387.4089, 1269.674
387.8911, 1271.732
388.3732, 1274.873
388.8553, 1280.179
389.3374, 1285.877
389.8195, 1290.248
390.3016, 1293.258
390.7838, 1295.694
391.2659, 1297.942
391.7480, 1299.870
392.2301, 1301.356
392.7122, 1302.495
393.1943, 1303.042
393.6765, 1302.058
394.1586, 1300.286
394.6407, 1299.816
395.1228, 1303.501
395.6049, 1307.001
396.0870, 1307.696
396.5692, 1303.966
397.0513, 1301.771
397.5334, 1303.159
398.0155, 1306.401
398.4976, 1309.307
398.9797, 1312.808
399.4619, 1314.717
399.9440, 1314.226
400.4261, 1311.338
400.9082, 1308.270
401.3903, 1303.925
401.8724, 1300.405
402.3546, 1299.426
402.8367, 1303.372
403.3188, 1304.463
403.8009, 1301.018
404.2830, 1295.012
404.7651, 1291.109
405.2473, 1289.085
405.7294, 1289.841
406.2115, 1292.926
406.6936, 1298.172
407.1757, 1309.833
407.6578, 1327.185
408.1400, 1353.130
408.6221, 1389.649
409.1042, 1436.839
409.5863, 1500.757
410.0684, 1588.357
410.5505, 1689.416
411.0327, 1788.842
411.5148, 1886.663
411.9969, 1971.902
412.4790, 2035.464
412.9611, 2081.796
413.4432, 2118.854
413.9254, 2146.585
414.4075, 2171.212
414.8896, 2197.743
415.3717, 2226.384
415.8538, 2257.517
416.3359, 2288.378
416.8181, 2323.494
417.3002, 2366.612
417.7823, 2418.297
418.2644, 2475.094
418.7465, 2531.860
419.2286, 2595.480
419.7108, 2671.077
420.1929, 2753.296
420.6750, 2858.055
421.1571, 2984.570
421.6392, 3138.121
422.1213, 3329.564
422.6035, 3571.685
423.0856, 3842.671
423.5677, 4141.646
424.0498, 4475.815
424.5319, 4804.065
425.0140, 5126.359
425.4962, 5442.751
425.9783, 5757.701
426.4604, 6123.841
426.9425, 6416.888
427.4246, 6660.971
427.9067, 6833.694
428.3889, 6748.138
428.8710, 6326.660
429.3531, 5786.538
429.8352, 5203.268
430.3173, 4550.409
430.7994, 4033.244
431.2816, 3667.495
431.7637, 3422.437
432.2458, 3267.463
432.7279, 3204.619
433.2100, 3197.034
433.6921, 3235.509
434.1743, 3319.031
434.6564, 3443.765
435.1385, 3611.313
435.6206, 3812.657
436.1027, 4045.083
436.5848, 4305.672
437.0670, 4586.688
437.5491, 4887.944
438.0312, 5207.949
438.5133, 5566.268
438.9954, 5948.052
439.4775, 6311.964
439.9597, 6754.624
440.4418, 7095.712
440.9239, 7186.538
441.4060, 7018.749
441.8881, 6617.815
442.3702, 5827.122
442.8524, 4893.645
443.3345, 4046.243
443.8166, 3315.908
444.2987, 2716.058
444.7808, 2278.685
445.2629, 1978.457
445.7451, 1739.393
446.2272, 1578.588
446.7093, 1454.170
447.1914, 1354.483
447.6735, 1283.104
448.1556, 1223.131
448.6378, 1178.172
449.1199, 1142.722
449.6020, 1111.916
450.0841, 1088.397
450.5662, 1065.109
451.0483, 1040.013
451.5305, 1014.335
452.0126, 994.5280
452.4947, 981.5121
452.9768, 971.0114
453.4589, 960.7297
453.9410, 950.5688
454.4232, 941.4432
454.9053, 933.2307
455.3874, 926.0443
455.8695, 920.3379
456.3516, 915.8810
456.8337, 911.1961
457.3159, 905.5534
457.7980, 899.5436
458.2801, 893.7606
458.7622, 888.3507
459.2443, 884.1631
459.7264, 882.5970
460.2086, 882.3497
460.6907, 881.6898
461.1728, 880.2552
461.6549, 879.0051
462.1370, 878.3942
462.6191, 878.4813
463.1013, 879.3732
463.5834, 881.4938
464.0655, 884.0625
464.5476, 886.4217
465.0297, 888.6978
465.5118, 892.1790
465.9940, 898.8337
466.4761, 905.5193
466.9582, 910.2045
467.4403, 909.7207
467.9224, 912.8019
468.4045, 921.9417
468.8867, 933.6744
469.3688, 943.1004
469.8509, 948.3671
470.3330, 954.4372
470.8151, 962.6820
471.2972, 972.8586
471.7794, 982.3342
472.2615, 991.1000
472.7436, 999.4720
473.2257, 1007.365
473.7078, 1014.793
474.1899, 1023.219
474.6721, 1032.765
475.1542, 1043.417
475.6363, 1055.883
476.1184, 1069.793
476.6005, 1082.724
477.0826, 1092.367
477.5648, 1101.221
478.0469, 1114.601
478.5290, 1131.993
479.0111, 1148.750
479.4932, 1161.471
479.9753, 1171.772
480.4575, 1181.680
480.9396, 1191.882
481.4217, 1200.697
481.9038, 1206.667
482.3859, 1210.553
482.8680, 1213.367
483.3502, 1214.751
483.8323, 1215.773
484.3144, 1218.377
484.7965, 1222.079
485.2786, 1220.602
485.7607, 1209.458
486.2429, 1195.652
486.7250, 1182.559
487.2071, 1170.707
487.6892, 1158.841
488.1713, 1147.637
488.6534, 1135.983
489.1356, 1121.498
489.6177, 1102.456
490.0998, 1085.704
490.5819, 1073.667
491.0640, 1064.948
491.5461, 1052.063
492.0283, 1034.362
492.5104, 1016.917
492.9925, 1003.620
493.4746, 993.6893
493.9567, 984.2935
494.4388, 975.1729
494.9210, 966.0365
495.4031, 956.1932
495.8852, 945.9761
496.3673, 935.9479
496.8494, 926.2263
497.3315, 916.9556
497.8137, 908.0179
498.2958, 899.5042
498.7779, 892.2031
499.2600, 887.7785
499.7421, 883.7357
500.2242, 878.0656
500.7064, 869.9648
501.1885, 862.5581
501.6706, 856.7740
502.1527, 852.2043
502.6348, 848.5496
503.1169, 848.3647
503.5991, 845.9769
504.0812, 839.5296
504.5633, 830.3683
505.0454, 823.2823
505.5275, 818.8362
506.0096, 815.7334
506.4918, 813.8558
506.9739, 813.3658
507.4560, 811.8044
507.9381, 808.9872
508.4202, 805.5861
508.9023, 802.0696
509.3845, 798.4666
509.8666, 795.3276
510.3487, 792.8143
510.8308, 790.7048
511.3129, 788.5593
511.7950, 786.4615
512.2772, 784.7906
512.7593, 784.6692
513.2414, 784.5995
513.7235, 781.9598
514.2056, 776.8810
514.6877, 772.9819
515.1699, 773.5756
515.6520, 775.8816
516.1341, 777.4849
516.6162, 778.2533
517.0983, 777.4758
517.5804, 772.8959
518.0626, 767.0131
518.5447, 763.9309
519.0268, 767.8802
519.5089, 770.8427
519.9910, 770.3423
520.4731, 766.6902
520.9553, 765.0300
521.4374, 766.9537
521.9195, 768.5303
522.4016, 766.7987
522.8837, 760.4374
523.3658, 758.4137
523.8480, 762.0450
524.3301, 767.4074
524.8122, 769.2255
525.2943, 767.6852
525.7764, 765.5775
526.2585, 763.4615
526.7407, 761.4349
527.2228, 759.1998
527.7049, 756.9635
528.1870, 755.9618
528.6691, 758.9412
529.1512, 762.5134
529.6334, 761.9479
530.1155, 756.7676
530.5976, 752.0560
531.0797, 751.1337
531.5618, 751.9891
532.0439, 752.6095
532.5261, 751.6932
533.0082, 751.6379
533.4903, 754.5516
533.9724, 758.6080
534.4545, 759.9391
534.9366, 755.4091
535.4188, 751.3234
535.9009, 749.2765
536.3830, 749.2209
536.8651, 748.9691
537.3472, 748.8506
537.8293, 747.9315
538.3115, 744.7651
538.7936, 738.9928
539.2757, 736.8021
539.7578, 739.3026
540.2399, 743.1649
540.7220, 744.2201
541.2042, 742.7056
541.6863, 739.9233
542.1684, 735.3665
542.6505, 730.7785
543.1326, 729.1022
543.6147, 729.6991
544.0969, 730.1161
544.5790, 728.6714
545.0611, 726.6016
545.5432, 724.8503
546.0253, 723.5074
546.5074, 722.3428
546.9896, 721.2875
547.4717, 720.3685
547.9538, 719.6459
548.4359, 720.5439
548.9180, 719.6722
549.4001, 714.9420
549.8823, 708.8585
550.3644, 705.8618
550.8465, 707.7874
551.3286, 709.3041
551.8107, 708.9965
552.2928, 707.1256
552.7750, 705.6637
553.2571, 704.7039
553.7392, 703.6694
554.2213, 701.9251
554.7034, 699.6921
555.1855, 698.3644
555.6677, 698.1157
556.1498, 697.9337
556.6319, 696.2352
557.1140, 693.8654
557.5961, 692.7294
558.0782, 694.1022
558.5604, 695.6270
559.0425, 695.3123
559.5246, 693.6964
560.0067, 691.9677
560.4888, 689.7328
560.9709, 688.3056
561.4531, 688.9012
561.9352, 691.5253
562.4173, 693.0099
562.8994, 692.3821
563.3815, 690.9427
563.8636, 689.2112
564.3458, 686.8694
564.8279, 685.1893
565.3100, 684.3924
565.7921, 683.9639
566.2742, 683.0021
566.7563, 681.3298
567.2385, 681.1070
567.7206, 683.5768
568.2027, 686.7812
568.6848, 685.1679
569.1669, 679.5018
569.6490, 675.6852
570.1312, 678.6373
570.6133, 684.5104
571.0954, 687.6021
571.5775, 687.9796
572.0596, 688.1229
572.5417, 690.1436
573.0239, 692.3622
573.5060, 693.1078
573.9881, 691.4196
574.4702, 690.1354
574.9523, 689.9026
575.4344, 690.6082
575.9166, 692.1107
576.3987, 694.9414
576.8808, 697.8370
577.3629, 700.4982
577.8450, 703.1645
578.3271, 706.7754
578.8093, 711.6307
579.2914, 716.4409
579.7735, 720.1418
580.2556, 723.0724
580.7377, 727.7383
581.2198, 733.9487
581.7020, 743.8580
582.1841, 760.6841
582.6662, 782.3389
583.1483, 803.8648
583.6304, 823.8940
584.1125, 845.9715
584.5947, 871.7197
585.0768, 901.8571
585.5589, 937.4210
586.0410, 977.9633
586.5231, 1024.870
587.0052, 1082.512
587.4874, 1147.226
587.9695, 1208.032
588.4516, 1267.312
588.9337, 1318.245
589.4158, 1356.635
589.8979, 1382.409
