##NAMES=Langbanite
##RRUFFID=R100037
##IDEAL CHEMISTRY=Mn^2+^_4_Mn^3+^_9_Sb^5+^O_16_(SiO_4_)_2_
##LOCALITY=Langban, Filipstad, Varmland, Sweden
##OWNER=RRUFF
##SOURCE=William W Pinch
##DESCRIPTION=Black metallic blocky crystals associated with pale red rhodonite R100038
##STATUS=The identification of this mineral has been confirmed by single-crystal X-ray diffraction.
##URL=rruff.info/R100037
92.01532, 256.8092
92.49744, 256.6392
92.97955, 258.3495
93.46167, 259.0300
93.94379, 257.0780
94.42590, 253.9804
94.90802, 250.3875
95.39014, 246.2590
95.87225, 241.4451
96.35437, 236.8213
96.83649, 233.0162
97.31860, 229.6629
97.80072, 226.3360
98.28284, 222.4880
98.76495, 218.1167
99.24707, 214.3853
99.72919, 211.6463
100.2113, 209.2285
100.6934, 207.0878
101.1755, 205.0803
101.6577, 202.9939
102.1398, 200.5363
102.6219, 197.4717
103.1040, 195.2852
103.5861, 194.3548
104.0682, 193.6822
104.5504, 192.7193
105.0325, 191.3813
105.5146, 189.9321
105.9967, 188.7499
106.4788, 188.0301
106.9609, 186.9962
107.4431, 185.4277
107.9252, 183.5517
108.4073, 181.5913
108.8894, 179.5218
109.3715, 177.6110
109.8536, 176.3848
110.3358, 175.9077
110.8179, 175.5440
111.3000, 174.9108
111.7821, 174.0460
112.2642, 173.3322
112.7463, 172.9965
113.2285, 172.8454
113.7106, 172.7551
114.1927, 172.7768
114.6748, 172.6582
115.1569, 171.9305
115.6390, 170.2300
116.1212, 168.8416
116.6033, 168.3833
117.0854, 168.2806
117.5675, 167.9322
118.0496, 166.9957
118.5317, 165.6532
119.0139, 164.7900
119.4960, 164.6780
119.9781, 164.8319
120.4602, 165.4662
120.9423, 166.2946
121.4244, 166.8646
121.9066, 166.8201
122.3887, 166.1235
122.8708, 165.2720
123.3529, 163.8027
123.8350, 162.6041
124.3171, 162.3696
124.7993, 162.9920
125.2814, 163.5906
125.7635, 163.2072
126.2456, 161.5458
126.7277, 160.3506
127.2098, 160.1088
127.6920, 160.1374
128.1741, 159.6018
128.6562, 158.2481
129.1383, 156.7803
129.6204, 156.1893
130.1025, 156.3631
130.5847, 156.5435
131.0668, 156.3858
131.5489, 155.9841
132.0310, 155.6816
132.5131, 155.6384
132.9952, 155.6115
133.4774, 155.3144
133.9595, 154.7496
134.4416, 154.2745
134.9237, 154.2855
135.4058, 154.8696
135.8879, 155.3435
136.3701, 155.7852
136.8522, 155.9469
137.3343, 155.4756
137.8164, 154.3134
138.2985, 152.9810
138.7806, 152.4366
139.2628, 153.3941
139.7449, 153.8437
140.2270, 153.0968
140.7091, 152.0710
141.1912, 151.7500
141.6733, 152.5747
142.1555, 154.0385
142.6376, 154.3851
143.1197, 152.0791
143.6018, 150.2915
144.0839, 149.4803
144.5660, 149.3880
145.0482, 149.6284
145.5303, 150.0181
146.0124, 150.5167
146.4945, 150.8286
146.9766, 151.0091
147.4587, 151.0014
147.9409, 150.7704
148.4230, 150.3251
148.9051, 149.6550
149.3872, 148.5399
149.8693, 147.1982
150.3514, 146.6231
150.8336, 147.4290
151.3157, 148.6418
151.7978, 149.4649
152.2799, 149.8734
152.7620, 149.9789
153.2441, 149.6275
153.7263, 149.0357
154.2084, 148.5594
154.6905, 148.5676
155.1726, 148.7392
155.6547, 148.2205
156.1368, 146.4778
156.6190, 145.0312
157.1011, 144.8851
157.5832, 145.5806
158.0653, 146.2352
158.5474, 146.2427
159.0295, 145.6584
159.5117, 145.2256
159.9938, 145.1184
160.4759, 144.9978
160.9580, 144.7090
161.4401, 144.2970
161.9222, 143.8940
162.4044, 143.6109
162.8865, 143.4506
163.3686, 143.3951
163.8507, 143.5002
164.3328, 143.6515
164.8149, 143.8330
165.2971, 144.0257
165.7792, 144.1855
166.2613, 144.2517
166.7434, 144.1563
167.2255, 144.1738
167.7076, 144.6228
168.1898, 144.9609
168.6719, 144.6371
169.1540, 143.5939
169.6361, 142.4218
170.1182, 141.9674
170.6003, 142.5687
171.0825, 143.1089
171.5646, 143.6889
172.0467, 144.1286
172.5288, 144.1883
173.0109, 143.7816
173.4930, 143.0944
173.9752, 142.2653
174.4573, 141.1734
174.9394, 140.5431
175.4215, 140.9566
175.9036, 141.9794
176.3857, 142.5960
176.8679, 142.3895
177.3500, 141.8762
177.8321, 141.8033
178.3142, 142.2101
178.7963, 142.5592
179.2784, 142.3776
179.7606, 141.7557
180.2427, 141.4881
180.7248, 142.1929
181.2069, 142.9682
181.6890, 142.8805
182.1711, 141.8284
182.6533, 140.7447
183.1354, 140.7407
183.6175, 142.0216
184.0996, 142.7573
184.5817, 141.8504
185.0638, 140.6704
185.5460, 140.0399
186.0281, 140.1279
186.5102, 140.4645
186.9923, 140.3528
187.4744, 139.5480
187.9565, 138.9447
188.4387, 138.8120
188.9208, 138.7956
189.4029, 138.5529
189.8850, 138.0002
190.3671, 137.4480
190.8492, 137.5764
191.3314, 139.3203
191.8135, 140.1795
192.2956, 139.4920
192.7777, 138.2245
193.2598, 137.1218
193.7419, 136.4920
194.2241, 136.2895
194.7062, 136.4048
195.1883, 137.1002
195.6704, 137.8545
196.1525, 138.9956
196.6346, 140.0788
197.1168, 140.5002
197.5989, 139.9785
198.0810, 138.8476
198.5631, 138.0627
199.0452, 137.6645
199.5273, 137.5188
200.0095, 137.9654
200.4916, 138.6063
200.9737, 138.6735
201.4558, 137.7044
201.9379, 136.1962
202.4200, 135.6335
202.9022, 136.4564
203.3843, 137.2263
203.8664, 137.3842
204.3485, 137.0930
204.8306, 136.7748
205.3127, 136.5644
205.7949, 136.4907
206.2770, 136.6237
206.7591, 137.1055
207.2412, 137.4783
207.7233, 137.3689
208.2054, 136.8595
208.6876, 136.4596
209.1697, 136.3788
209.6518, 136.5275
210.1339, 136.7536
210.6160, 137.0787
211.0981, 137.4004
211.5803, 137.6830
212.0624, 137.9272
212.5445, 137.9979
213.0266, 137.8103
213.5087, 137.4290
213.9908, 136.7797
214.4730, 135.7713
214.9551, 134.9514
215.4372, 135.1601
215.9193, 136.6333
216.4014, 137.6707
216.8836, 137.3244
217.3657, 136.6133
217.8478, 136.1872
218.3299, 136.2057
218.8120, 136.3971
219.2941, 136.3070
219.7763, 135.7167
220.2584, 135.5855
220.7405, 136.4706
221.2226, 137.6049
221.7047, 138.5532
222.1868, 139.1830
222.6690, 139.5017
223.1511, 139.4347
223.6332, 138.6647
224.1153, 138.2439
224.5974, 138.5721
225.0795, 139.0393
225.5617, 139.1229
226.0438, 138.7044
226.5259, 138.1577
227.0080, 138.1976
227.4901, 139.4451
227.9722, 140.1329
228.4544, 139.9089
228.9365, 139.3719
229.4186, 138.8781
229.9007, 138.5637
230.3828, 138.4756
230.8649, 138.7345
231.3471, 139.8503
231.8292, 140.4758
232.3113, 140.3763
232.7934, 139.9719
233.2755, 139.5214
233.7576, 139.1216
234.2398, 138.8252
234.7219, 138.7233
235.2040, 138.8647
235.6861, 139.1589
236.1682, 139.8832
236.6503, 140.6088
237.1325, 140.8224
237.6146, 140.4124
238.0967, 139.8693
238.5788, 139.9932
239.0609, 141.4018
239.5430, 141.9861
240.0252, 140.8447
240.5073, 139.2549
240.9894, 138.6037
241.4715, 139.2154
241.9536, 140.2296
242.4357, 140.4567
242.9179, 139.6511
243.4000, 139.1460
243.8821, 139.0367
244.3642, 139.3015
244.8463, 140.1613
245.3284, 141.7060
245.8106, 143.1202
246.2927, 143.2775
246.7748, 142.1293
247.2569, 141.1685
247.7390, 140.6211
248.2211, 140.3665
248.7033, 140.3149
249.1854, 140.4727
249.6675, 140.6875
250.1496, 140.9200
250.6317, 141.1375
251.1138, 140.9834
251.5960, 139.9430
252.0781, 138.6746
252.5602, 138.1072
253.0423, 138.4151
253.5244, 138.9093
254.0065, 139.0938
254.4887, 139.0124
254.9708, 138.7088
255.4529, 137.8053
255.9350, 136.8410
256.4171, 136.7252
256.8992, 137.6635
257.3813, 138.6241
257.8635, 138.8127
258.3456, 138.5230
258.8277, 138.1770
259.3098, 137.7391
259.7919, 137.3995
260.2740, 137.5730
260.7562, 138.4219
261.2383, 139.0788
261.7204, 138.6195
262.2025, 137.7729
262.6846, 137.5057
263.1667, 138.3978
263.6489, 139.6142
264.1310, 139.9151
264.6131, 139.1184
265.0952, 138.1975
265.5773, 137.4859
266.0594, 136.9135
266.5416, 136.4327
267.0237, 136.0353
267.5058, 135.7174
267.9879, 135.4083
268.4700, 135.0423
268.9521, 135.0035
269.4343, 135.6558
269.9164, 136.5803
270.3985, 137.6296
270.8806, 138.8120
271.3627, 139.6965
271.8448, 139.5750
272.3270, 138.2137
272.8091, 137.0619
273.2912, 136.4657
273.7733, 136.1944
274.2554, 136.1485
274.7375, 136.3073
275.2197, 136.6732
275.7018, 137.4325
276.1839, 138.7296
276.6660, 139.4554
277.1481, 138.7952
277.6302, 137.9764
278.1124, 137.5428
278.5945, 137.5515
279.0766, 137.8136
279.5587, 138.1976
280.0408, 138.7232
280.5229, 139.2095
281.0051, 139.8465
281.4872, 140.2547
281.9693, 140.1465
282.4514, 139.6255
282.9335, 139.0497
283.4156, 138.6830
283.8978, 138.5253
284.3799, 138.5792
284.8620, 139.1153
285.3441, 139.5993
285.8262, 139.8109
286.3083, 139.8246
286.7905, 139.8151
287.2726, 139.8868
287.7547, 140.0419
288.2368, 140.3252
288.7189, 140.9998
289.2010, 141.4784
289.6832, 141.4832
290.1653, 141.2206
290.6474, 141.0466
291.1295, 141.2095
291.6116, 141.5403
292.0938, 141.3029
292.5759, 139.9014
293.0580, 138.7774
293.5401, 138.2459
294.0222, 138.0994
294.5043, 138.1528
294.9865, 138.3307
295.4686, 138.5674
295.9507, 138.6773
296.4328, 138.4606
296.9149, 138.4899
297.3970, 139.1874
297.8792, 139.9279
298.3613, 140.1368
298.8434, 139.6515
299.3255, 138.7750
299.8076, 137.9296
300.2897, 136.8927
300.7719, 136.4362
301.2540, 137.2145
301.7361, 138.0384
302.2182, 138.0534
302.7003, 137.1804
303.1824, 136.0382
303.6646, 135.3747
304.1467, 135.3407
304.6288, 135.2558
305.1109, 135.0476
305.5930, 134.8537
306.0751, 134.8484
306.5573, 134.9494
307.0394, 134.8624
307.5215, 134.2517
308.0036, 133.0524
308.4857, 132.2359
308.9678, 132.2494
309.4500, 132.2196
309.9321, 131.8077
310.4142, 131.1591
310.8963, 130.6326
311.3784, 130.5046
311.8605, 130.6904
312.3427, 130.5188
312.8248, 129.5004
313.3069, 128.6808
313.7890, 128.4119
314.2711, 128.3999
314.7532, 128.2521
315.2354, 127.7736
315.7175, 127.0679
316.1996, 126.4241
316.6817, 125.7787
317.1638, 125.3150
317.6459, 125.1662
318.1281, 125.1233
318.6102, 125.0120
319.0923, 124.7748
319.5744, 124.4575
320.0565, 124.1341
320.5386, 123.8154
321.0208, 123.4633
321.5029, 122.8537
321.9850, 122.3788
322.4671, 122.4373
322.9492, 122.9824
323.4313, 123.5173
323.9135, 123.4883
324.3956, 122.7993
324.8777, 122.0123
325.3598, 120.7181
325.8419, 119.7018
326.3240, 119.3725
326.8062, 119.6017
327.2883, 120.0093
327.7704, 120.3766
328.2525, 120.6805
328.7346, 120.5111
329.2167, 119.2832
329.6989, 118.2240
330.1810, 117.6020
330.6631, 117.3399
331.1452, 117.3438
331.6273, 117.5873
332.1094, 117.9817
332.5916, 118.2534
333.0737, 118.3692
333.5558, 118.4059
334.0379, 118.4612
334.5200, 118.4172
335.0021, 118.0816
335.4843, 117.4038
335.9664, 116.6606
336.4485, 116.2905
336.9306, 116.3484
337.4127, 116.6253
337.8948, 117.3813
338.3770, 118.1268
338.8591, 118.6111
339.3412, 118.7958
339.8233, 118.7444
340.3055, 118.4188
340.7876, 117.7668
341.2697, 117.3880
341.7518, 117.6424
342.2339, 117.8287
342.7160, 117.6954
343.1982, 117.2768
343.6803, 116.6618
344.1624, 115.7701
344.6445, 114.7535
345.1266, 114.4655
345.6087, 115.5312
346.0909, 116.3099
346.5730, 116.0299
347.0551, 115.2787
347.5372, 114.8406
348.0193, 115.0871
348.5014, 115.5893
348.9836, 115.4649
349.4657, 114.4345
349.9478, 113.7212
350.4299, 113.7453
350.9120, 114.1463
351.3941, 114.8233
351.8763, 115.7389
352.3584, 116.5695
352.8405, 116.9227
353.3226, 116.7861
353.8047, 116.6868
354.2868, 116.8551
354.7690, 116.8913
355.2511, 116.4482
355.7332, 115.6244
356.2153, 114.8590
356.6974, 114.4808
357.1795, 114.3966
357.6617, 114.2007
358.1438, 113.7443
358.6259, 113.4894
359.1080, 114.0479
359.5901, 114.9078
360.0722, 115.1659
360.5544, 114.1428
361.0365, 112.7953
361.5186, 112.6070
362.0007, 113.7372
362.4828, 114.7952
362.9649, 115.3113
363.4471, 115.3911
363.9292, 115.0564
364.4113, 114.1987
364.8934, 113.4202
365.3755, 113.3324
365.8576, 113.7895
366.3398, 113.9425
366.8219, 113.4322
367.3040, 112.8081
367.7861, 112.6683
368.2682, 112.9673
368.7503, 113.3184
369.2325, 113.6377
369.7146, 113.8925
370.1967, 114.0139
370.6788, 113.9867
371.1609, 113.8858
371.6430, 113.7222
372.1252, 113.5266
372.6073, 113.4060
373.0894, 113.5451
373.5715, 113.6279
374.0536, 113.1899
374.5357, 112.3640
375.0179, 112.0003
375.5000, 112.6681
375.9821, 113.9192
376.4642, 114.7275
376.9463, 115.1332
377.4284, 115.1016
377.9106, 114.2868
378.3927, 113.0956
378.8748, 112.2462
379.3569, 111.9444
379.8390, 111.8980
380.3211, 111.7776
380.8033, 111.5894
381.2854, 111.2599
381.7675, 110.5025
382.2496, 109.8044
382.7317, 109.5827
383.2138, 109.8335
383.6960, 110.2935
384.1781, 110.8337
384.6602, 111.4214
385.1423, 111.6161
385.6244, 111.0373
386.1065, 110.5665
386.5887, 110.5110
387.0708, 110.7541
387.5529, 111.1661
388.0350, 111.7076
388.5171, 112.1955
388.9992, 112.2131
389.4814, 111.1281
389.9635, 110.5471
390.4456, 110.9138
390.9277, 111.4830
391.4098, 111.5887
391.8919, 111.1829
392.3741, 110.7457
392.8562, 110.8206
393.3383, 111.5261
393.8204, 111.8303
394.3025, 111.3478
394.7846, 110.8948
395.2668, 110.8363
395.7489, 111.0012
396.2310, 111.0020
396.7131, 110.5896
397.1952, 109.9403
397.6773, 109.7076
398.1595, 110.3799
398.6416, 110.6489
399.1237, 110.0458
399.6058, 109.2042
400.0879, 108.5687
400.5700, 108.2767
401.0522, 108.3418
401.5343, 109.0520
402.0164, 110.6788
402.4985, 111.2792
402.9806, 109.8148
403.4627, 108.1807
403.9449, 106.9712
404.4270, 106.2419
404.9091, 106.0003
405.3912, 106.4141
405.8733, 107.2387
406.3554, 107.6829
406.8376, 107.6124
407.3197, 107.5009
407.8018, 107.4470
408.2839, 107.4892
408.7660, 107.7062
409.2481, 108.1416
409.7303, 108.6259
410.2124, 109.0816
410.6945, 109.4915
411.1766, 109.5817
411.6587, 109.1941
412.1408, 108.5827
412.6230, 107.8599
413.1051, 107.0704
413.5872, 106.5908
414.0693, 106.9307
414.5514, 107.5472
415.0335, 107.4601
415.5157, 106.5509
415.9978, 105.6639
416.4799, 105.4202
416.9620, 105.6035
417.4441, 105.4878
417.9262, 104.6875
418.4084, 104.0628
418.8905, 104.1457
419.3726, 104.7828
419.8547, 105.7266
420.3368, 107.0185
420.8189, 108.1593
421.3011, 108.1891
421.7832, 106.7781
422.2653, 105.7352
422.7474, 105.3603
423.2295, 105.3578
423.7116, 105.5160
424.1938, 105.8013
424.6759, 106.2688
425.1580, 107.0450
425.6401, 108.0803
426.1222, 108.4486
426.6043, 107.7906
427.0865, 106.9957
427.5686, 105.9372
428.0507, 104.9782
428.5328, 104.7516
429.0149, 105.4785
429.4970, 106.5508
429.9792, 106.8847
430.4613, 106.0970
430.9434, 105.3745
431.4255, 104.4384
431.9076, 103.7880
432.3897, 103.9118
432.8719, 104.6202
433.3540, 105.2605
433.8361, 105.2966
434.3182, 104.8236
434.8003, 104.5255
435.2824, 104.4621
435.7646, 104.5010
436.2467, 104.7635
436.7288, 105.0258
437.2109, 104.9653
437.6930, 104.4756
438.1751, 103.9690
438.6573, 104.0145
439.1394, 104.6552
439.6215, 105.2881
440.1036, 106.1228
440.5857, 106.5814
441.0678, 105.9594
441.5500, 104.5879
442.0321, 103.7104
442.5142, 104.4551
442.9963, 105.8898
443.4784, 106.1676
443.9605, 105.1294
444.4427, 104.1761
444.9248, 104.0878
445.4069, 104.4808
445.8890, 104.6508
446.3711, 104.4827
446.8532, 104.3359
447.3354, 104.4044
447.8175, 104.6376
448.2996, 105.0000
448.7817, 105.5224
449.2638, 105.9123
449.7459, 105.7451
450.2281, 104.9769
450.7102, 104.5885
451.1923, 105.1305
451.6744, 105.6041
452.1565, 105.0385
452.6386, 103.8293
453.1208, 103.3228
453.6029, 104.3072
454.0850, 106.1442
454.5671, 107.0624
455.0492, 106.2446
455.5313, 105.5672
456.0135, 105.0471
456.4956, 104.6784
456.9777, 104.3805
457.4598, 104.1914
457.9419, 104.3239
458.4240, 105.0535
458.9062, 106.3923
459.3883, 107.3880
459.8704, 108.0849
460.3525, 108.3428
460.8346, 107.6634
461.3167, 106.7015
461.7989, 106.3832
462.2810, 107.0716
462.7631, 108.0597
463.2452, 108.1655
463.7273, 107.1991
464.2094, 106.4769
464.6916, 106.2957
465.1737, 106.2845
465.6558, 106.1921
466.1379, 106.0689
466.6200, 106.1374
467.1021, 106.7416
467.5843, 107.5162
468.0664, 107.5872
468.5485, 106.8291
469.0306, 106.2893
469.5127, 106.5620
469.9948, 107.2691
470.4770, 107.8207
470.9591, 108.1953
471.4412, 108.4248
471.9233, 108.4652
472.4054, 108.3870
472.8875, 108.2601
473.3697, 108.0848
473.8518, 108.0568
474.3339, 108.3858
474.8160, 109.0774
475.2981, 109.7294
475.7802, 110.5712
476.2624, 111.1338
476.7445, 110.9239
477.2266, 110.3310
477.7087, 110.1836
478.1908, 110.8182
478.6729, 111.7008
479.1551, 111.8188
479.6372, 110.5644
480.1193, 109.9778
480.6014, 110.3821
481.0835, 111.0649
481.5656, 111.7592
482.0478, 112.3930
482.5299, 112.9221
483.0120, 113.3084
483.4941, 113.5860
483.9762, 113.8308
484.4583, 113.8666
484.9405, 114.2472
485.4226, 115.4815
485.9047, 116.8046
486.3868, 117.4213
486.8689, 117.3153
487.3510, 117.4209
487.8332, 118.8950
488.3153, 121.3460
488.7974, 122.7394
489.2795, 122.5654
489.7616, 122.4074
490.2437, 123.4103
490.7259, 125.0148
491.2080, 126.4048
491.6901, 127.3331
492.1722, 128.2141
492.6543, 129.3336
493.1364, 130.6384
493.6186, 131.9761
494.1007, 133.3226
494.5828, 134.6812
495.0649, 136.0374
495.5470, 137.3857
496.0291, 138.8869
496.5113, 140.6193
496.9934, 142.4465
497.4755, 144.3548
497.9576, 146.2944
498.4397, 148.1705
498.9218, 149.9262
499.4040, 151.5911
499.8861, 153.2225
500.3682, 154.9769
500.8503, 156.3643
501.3324, 157.0804
501.8145, 157.7384
502.2967, 158.7100
502.7788, 159.9736
503.2609, 161.3232
503.7430, 162.6302
504.2251, 163.9065
504.7072, 165.2463
505.1894, 166.8800
505.6715, 168.0490
506.1536, 168.2995
506.6357, 168.1960
507.1178, 168.1608
507.5999, 168.2446
508.0821, 168.2174
508.5642, 167.7898
509.0463, 167.1242
509.5284, 166.7678
510.0105, 166.8459
510.4926, 166.8223
510.9748, 166.4016
511.4569, 165.6228
511.9390, 164.5624
512.4211, 162.9277
512.9032, 161.5678
513.3853, 161.4071
513.8674, 161.6655
514.3495, 160.9162
514.8317, 158.8345
515.3138, 156.2128
515.7959, 153.7804
516.2780, 151.5273
516.7601, 149.5640
517.2422, 148.1864
517.7244, 146.7081
518.2065, 144.8206
518.6886, 142.7137
519.1707, 140.5795
519.6528, 138.5120
520.1349, 136.6789
520.6171, 135.4081
521.0992, 134.8538
521.5813, 134.2397
522.0634, 133.9043
522.5455, 133.1466
523.0276, 131.3791
523.5098, 129.0500
523.9919, 127.0272
524.4740, 125.7378
524.9561, 124.7565
525.4382, 123.3481
525.9203, 121.5063
526.4025, 120.0499
526.8846, 119.2378
527.3667, 118.7991
527.8488, 118.6112
528.3309, 118.6129
528.8130, 118.3696
529.2952, 117.4273
529.7773, 116.4362
530.2594, 116.1134
530.7415, 116.3197
531.2236, 116.3461
531.7057, 115.8493
532.1879, 115.0967
532.6700, 114.6040
533.1521, 114.5097
533.6342, 114.3702
534.1163, 114.2499
534.5984, 114.0229
535.0806, 113.4962
535.5627, 112.7822
536.0448, 112.1796
536.5269, 111.8739
537.0090, 111.8118
537.4911, 111.8830
537.9733, 112.2891
538.4554, 112.3758
538.9375, 111.6096
539.4196, 110.8924
539.9017, 110.9422
540.3839, 111.6207
540.8660, 112.1461
541.3481, 111.9841
541.8302, 111.3512
542.3123, 110.6866
542.7944, 109.9864
543.2766, 109.2922
543.7587, 108.5438
544.2408, 107.8860
544.7229, 107.5153
545.2050, 107.4456
545.6871, 107.5006
546.1693, 107.8164
546.6514, 108.1073
547.1335, 107.9465
547.6156, 107.3904
548.0977, 106.9546
548.5798, 106.9696
549.0620, 107.3039
549.5441, 107.5138
550.0262, 107.4106
550.5083, 107.4312
550.9904, 107.6934
551.4725, 107.9906
551.9547, 108.1953
552.4368, 108.2874
552.9189, 108.2616
553.4010, 108.0696
553.8831, 107.8072
554.3652, 107.9590
554.8474, 108.8726
555.3295, 109.3206
555.8116, 108.4510
556.2937, 107.3719
556.7758, 106.8985
557.2579, 107.0611
557.7401, 107.3064
558.2222, 107.2738
558.7043, 107.1318
559.1864, 107.1926
559.6685, 107.4647
560.1506, 107.7776
560.6328, 108.1165
561.1149, 108.3788
561.5970, 108.2723
562.0791, 107.6461
562.5612, 107.2078
563.0433, 107.2524
563.5255, 107.4111
564.0076, 107.3277
564.4897, 107.0460
564.9718, 106.8760
565.4539, 107.0289
565.9360, 107.3947
566.4182, 107.5969
566.9003, 107.5349
567.3824, 107.4996
567.8645, 107.5496
568.3466, 107.5988
568.8287, 107.4947
569.3109, 107.3225
569.7930, 107.3827
570.2751, 107.9331
570.7572, 108.7585
571.2393, 109.4419
571.7214, 109.9836
572.2036, 110.3455
572.6857, 110.4110
573.1678, 110.3951
573.6499, 110.5924
574.1320, 110.9952
574.6141, 111.2817
575.0963, 111.3899
575.5784, 111.3243
576.0605, 110.9593
576.5426, 110.4059
577.0247, 109.9890
577.5068, 109.8502
577.9890, 109.9789
578.4711, 110.4108
578.9532, 111.4992
579.4353, 111.9658
579.9174, 111.1455
580.3995, 110.4480
580.8817, 110.8166
581.3638, 111.7685
581.8459, 112.2470
582.3280, 111.7152
582.8101, 110.8248
583.2922, 110.6376
583.7744, 111.1963
584.2565, 111.8926
584.7386, 112.8938
585.2207, 113.6730
585.7029, 113.6616
586.1850, 113.1560
586.6671, 112.9271
587.1492, 113.3761
587.6313, 113.8588
588.1135, 113.7687
588.5956, 113.3691
