##NAMES=Langbeinite
##RRUFFID=R070285
##IDEAL CHEMISTRY=K_2_Mg_2_(S^6+^O_4_)_3_
##LOCALITY=Carlsbad, New Mexico, USA
##OWNER=RRUFF
##SOURCE=Michael Scott
##DESCRIPTION=Colorless to gray granular massive
##STATUS=The identification of this mineral has been made only by X-ray diffraction.
##URL=rruff.info/R070285
174.9236, 134.1042
175.4057, 135.4809
175.8878, 137.3137
176.3699, 138.8895
176.8520, 139.3400
177.3341, 139.0965
177.8163, 139.0981
178.2984, 140.1449
178.7805, 141.5291
179.2626, 142.1566
179.7447, 141.9709
180.2268, 141.4291
180.7090, 140.7424
181.1911, 140.0170
181.6732, 139.6008
182.1553, 139.8705
182.6374, 140.5288
183.1195, 140.9389
183.6017, 141.0719
184.0838, 141.0726
184.5659, 141.0058
185.0480, 140.9110
185.5301, 140.9939
186.0123, 141.5273
186.4944, 142.3304
186.9765, 142.8116
187.4586, 142.9322
187.9407, 142.8188
188.4228, 142.4969
188.9050, 142.0017
189.3871, 141.7247
189.8692, 141.8710
190.3513, 142.4032
190.8334, 143.2582
191.3155, 144.5343
191.7977, 145.8572
192.2798, 146.4981
192.7619, 146.4606
193.2440, 146.5389
193.7261, 147.2648
194.2082, 148.5692
194.6904, 149.6711
195.1725, 150.5263
195.6546, 151.1861
196.1367, 151.6599
196.6188, 151.9363
197.1009, 152.2162
197.5831, 152.5493
198.0652, 152.9376
198.5473, 153.6640
199.0294, 154.9404
199.5115, 156.2827
199.9937, 156.4256
200.4758, 155.1365
200.9579, 154.1069
201.4400, 154.5101
201.9221, 156.4827
202.4042, 157.9525
202.8864, 158.8196
203.3685, 159.1094
203.8506, 158.7830
204.3327, 157.7487
204.8148, 156.4910
205.2969, 155.2365
205.7791, 153.9814
206.2612, 152.7010
206.7433, 151.2585
207.2254, 149.8889
207.7075, 149.4227
208.1896, 150.2802
208.6718, 150.8154
209.1539, 149.9330
209.6360, 147.2799
210.1181, 145.0527
210.6002, 143.3764
211.0823, 142.1901
211.5645, 141.3455
212.0466, 140.8700
212.5287, 140.6716
213.0108, 140.7618
213.4929, 141.2429
213.9750, 141.6326
214.4572, 141.9461
214.9393, 142.1375
215.4214, 142.0221
215.9035, 141.4416
216.3856, 140.8723
216.8678, 140.6268
217.3499, 140.8648
217.8320, 140.8826
218.3141, 140.6232
218.7962, 140.1266
219.2783, 139.4665
219.7605, 138.4866
220.2426, 137.6286
220.7247, 137.1173
221.2068, 136.9625
221.6889, 137.1424
222.1710, 137.7744
222.6532, 138.7140
223.1353, 139.5475
223.6174, 140.4653
224.0995, 140.9803
224.5816, 140.7880
225.0637, 139.5893
225.5459, 138.3948
226.0280, 137.0137
226.5101, 135.7018
226.9922, 135.3884
227.4743, 136.6712
227.9564, 138.0047
228.4386, 138.6140
228.9207, 138.1237
229.4028, 137.7783
229.8849, 137.5552
230.3670, 137.4956
230.8492, 137.8008
231.3313, 138.9032
231.8134, 139.7129
232.2955, 139.6248
232.7776, 137.9871
233.2597, 136.9895
233.7419, 136.8286
234.2240, 137.2666
234.7061, 137.7207
235.1882, 138.2891
235.6703, 138.7304
236.1524, 138.9405
236.6346, 138.8599
237.1167, 138.6512
237.5988, 138.1271
238.0809, 137.5393
238.5630, 137.5810
239.0451, 138.9180
239.5273, 139.8748
240.0094, 139.6016
240.4915, 137.2512
240.9736, 135.9098
241.4557, 135.9705
241.9378, 136.8490
242.4200, 137.3208
242.9021, 137.1206
243.3842, 136.9311
243.8663, 137.0486
244.3484, 137.6633
244.8306, 138.0043
245.3127, 137.9710
245.7948, 137.7160
246.2769, 137.4930
246.7590, 137.2310
247.2411, 137.1291
247.7233, 137.3145
248.2054, 137.9321
248.6875, 138.2808
249.1696, 138.2035
249.6517, 137.9621
250.1338, 138.0280
250.6160, 138.6900
251.0981, 139.1364
251.5802, 139.0211
252.0623, 138.1675
252.5444, 137.6904
253.0265, 137.7747
253.5087, 138.0884
253.9908, 138.1472
254.4729, 137.8235
254.9550, 137.5079
255.4371, 137.3128
255.9192, 137.2556
256.4014, 137.1839
256.8835, 137.0586
257.3656, 136.9573
257.8477, 136.9600
258.3298, 137.0443
258.8120, 137.2961
259.2941, 137.8414
259.7762, 138.7221
260.2583, 139.1602
260.7404, 139.0186
261.2225, 138.6052
261.7047, 138.1177
262.1868, 137.2680
262.6689, 137.1514
263.1510, 138.3704
263.6331, 140.8478
264.1152, 142.0066
264.5974, 141.3770
265.0795, 140.1371
265.5616, 139.3945
266.0437, 139.2372
266.5258, 139.2625
267.0079, 139.4584
267.4901, 139.7989
267.9722, 140.0278
268.4543, 140.1381
268.9364, 140.1636
269.4185, 140.1273
269.9006, 140.0267
270.3828, 139.8615
270.8649, 139.5414
271.3470, 139.1626
271.8291, 139.2238
272.3112, 139.8388
272.7933, 140.5899
273.2755, 141.1733
273.7576, 141.5640
274.2397, 141.9821
274.7218, 142.5487
275.2039, 143.0962
275.6860, 143.0658
276.1682, 142.3638
276.6503, 141.4359
277.1324, 140.3169
277.6145, 138.9371
278.0966, 138.5567
278.5787, 139.5570
279.0609, 141.2753
279.5430, 142.3478
280.0251, 142.7452
280.5072, 142.6646
280.9893, 141.9286
281.4715, 140.5509
281.9536, 139.8815
282.4357, 140.1196
282.9178, 140.8027
283.3999, 141.1317
283.8820, 141.0829
284.3642, 141.0660
284.8463, 141.2683
285.3284, 141.6756
285.8105, 142.1908
286.2926, 142.8633
286.7747, 143.4758
287.2569, 143.6535
287.7390, 143.4112
288.2211, 143.1892
288.7032, 142.9923
289.1853, 142.9346
289.6674, 143.7633
290.1496, 145.6256
290.6317, 147.4455
291.1138, 147.6932
291.5959, 146.6249
292.0780, 146.0214
292.5602, 146.6855
293.0423, 148.1276
293.5244, 149.2410
294.0065, 150.0256
294.4886, 150.3583
294.9707, 149.7740
295.4529, 148.5635
295.9350, 147.8254
296.4171, 148.0484
296.8992, 148.6962
297.3813, 148.7691
297.8634, 148.3144
298.3456, 147.8615
298.8277, 147.9369
299.3098, 148.3075
299.7919, 148.4563
300.2740, 148.2421
300.7561, 147.8234
301.2383, 147.2455
301.7204, 146.5769
302.2025, 146.1718
302.6846, 146.4292
303.1667, 147.0365
303.6488, 147.6098
304.1310, 148.1749
304.6131, 148.4199
305.0952, 147.7666
305.5773, 146.4977
306.0594, 145.3810
306.5415, 144.7009
307.0237, 144.4298
307.5058, 144.6418
307.9879, 145.4062
308.4700, 146.2112
308.9521, 146.7287
309.4343, 147.0142
309.9164, 147.1819
310.3985, 147.2141
310.8806, 147.1928
311.3627, 147.1636
311.8448, 147.1279
312.3270, 147.1215
312.8091, 147.1744
313.2912, 147.2662
313.7733, 147.3728
314.2554, 146.9349
314.7375, 146.9852
315.2197, 148.7287
315.7018, 151.8814
316.1839, 153.9368
316.6660, 152.6641
317.1481, 150.3887
317.6302, 149.0514
318.1124, 150.0232
318.5945, 150.8561
319.0766, 150.5236
319.5587, 149.3441
320.0408, 148.4212
320.5229, 148.3137
321.0051, 148.4081
321.4872, 148.3600
321.9693, 148.0226
322.4514, 147.7190
322.9335, 147.5912
323.4156, 147.5352
323.8978, 147.3501
324.3799, 146.2332
324.8620, 145.6488
325.3441, 146.4028
325.8262, 149.2843
326.3083, 151.1593
326.7905, 150.8459
327.2726, 149.7061
327.7547, 149.4197
328.2368, 151.5220
328.7189, 152.9356
329.2010, 152.7714
329.6832, 150.8299
330.1653, 149.5600
330.6474, 149.2331
331.1295, 149.3836
331.6116, 149.6775
332.0938, 150.4699
332.5759, 150.8150
333.0580, 150.3294
333.5401, 149.1855
334.0222, 148.7614
334.5043, 149.4899
334.9865, 150.3344
335.4686, 150.6794
335.9507, 150.3770
336.4328, 149.9330
336.9149, 149.2220
337.3970, 148.4532
337.8792, 148.2847
338.3613, 148.9409
338.8434, 149.5562
339.3255, 149.6479
339.8076, 149.0977
340.2898, 149.0394
340.7719, 149.6787
341.2540, 150.4601
341.7361, 150.4149
342.2182, 149.4332
342.7003, 148.7073
343.1825, 148.8347
343.6646, 149.6295
344.1467, 149.6956
344.6288, 148.8936
345.1109, 148.0677
345.5930, 148.2249
346.0752, 149.2563
346.5573, 150.0255
347.0394, 150.0535
347.5215, 149.8318
348.0036, 150.7894
348.4857, 152.8844
348.9679, 154.6245
349.4500, 154.5791
349.9321, 153.2903
350.4142, 152.3614
350.8963, 152.1098
351.3784, 152.0993
351.8606, 151.7794
352.3427, 151.2227
352.8248, 150.6870
353.3069, 150.1834
353.7890, 149.8462
354.2711, 150.0043
354.7533, 150.7519
355.2354, 151.3623
355.7175, 150.8152
356.1996, 149.7419
356.6817, 149.2427
357.1638, 150.7776
357.6460, 152.3356
358.1281, 152.0815
358.6102, 150.1476
359.0923, 148.3760
359.5744, 147.5293
360.0565, 147.4893
360.5387, 148.2223
361.0208, 150.7896
361.5029, 152.7912
361.9850, 152.6607
362.4671, 151.0206
362.9492, 149.7792
363.4314, 149.9204
363.9135, 150.4055
364.3956, 150.6579
364.8777, 150.4724
365.3598, 150.3581
365.8419, 150.7131
366.3241, 151.1425
366.8062, 151.0490
367.2883, 149.4024
367.7704, 148.1377
368.2526, 147.9424
368.7347, 149.0739
369.2168, 149.8550
369.6989, 149.9661
370.1810, 149.9001
370.6631, 150.1026
371.1453, 151.2611
371.6274, 151.6108
372.1095, 150.3385
372.5916, 147.8709
373.0737, 147.2085
373.5558, 149.3704
374.0380, 151.8127
374.5201, 153.1431
375.0022, 153.0541
375.4843, 152.8068
375.9664, 152.3739
376.4485, 151.8601
376.9307, 151.4252
377.4128, 151.0424
377.8949, 150.8782
378.3770, 151.1851
378.8591, 151.9112
379.3412, 151.9064
379.8234, 151.0402
380.3055, 149.9026
380.7876, 149.1021
381.2697, 148.6250
381.7518, 148.3286
382.2339, 148.1075
382.7161, 148.0938
383.1982, 148.8970
383.6803, 150.4735
384.1624, 151.7277
384.6445, 151.2408
385.1266, 149.8151
385.6088, 149.6694
386.0909, 151.4706
386.5730, 153.5510
387.0551, 153.8587
387.5372, 152.8280
388.0193, 151.6989
388.5015, 150.7701
388.9836, 150.2635
389.4657, 150.6829
389.9478, 152.0864
390.4299, 153.3053
390.9120, 153.3479
391.3942, 152.8046
391.8763, 152.4016
392.3584, 152.5494
392.8405, 152.7455
393.3226, 152.6819
393.8047, 152.4268
394.2869, 152.2906
394.7690, 152.5097
395.2511, 152.8074
395.7332, 153.0050
396.2154, 153.0035
396.6975, 153.0521
397.1796, 153.2632
397.6617, 153.5495
398.1438, 153.7591
398.6259, 153.7337
399.1081, 153.7652
399.5902, 153.9979
400.0723, 154.4943
400.5544, 154.7441
401.0365, 154.5260
401.5186, 154.2217
402.0008, 154.1173
402.4829, 154.1149
402.9650, 154.5439
403.4471, 155.8057
403.9292, 157.5251
404.4113, 158.0067
404.8935, 156.8527
405.3756, 155.3916
405.8577, 154.1964
406.3398, 153.2517
406.8219, 152.8371
407.3040, 153.0930
407.7862, 153.6216
408.2683, 153.8354
408.7504, 153.7261
409.2325, 153.6596
409.7146, 153.8394
410.1967, 154.1418
410.6789, 154.0143
411.1610, 153.4352
411.6431, 153.0359
412.1252, 153.7497
412.6073, 155.1070
413.0894, 155.6595
413.5716, 154.8882
414.0537, 153.7271
414.5358, 153.0781
415.0179, 152.9456
415.5000, 153.3266
415.9821, 154.8253
416.4643, 156.5024
416.9464, 157.2428
417.4285, 156.9014
417.9106, 156.5103
418.3927, 156.8662
418.8748, 157.5051
419.3570, 157.8709
419.8391, 157.4597
420.3212, 157.0484
420.8033, 157.0188
421.2854, 157.2906
421.7675, 157.4789
422.2497, 157.1933
422.7318, 157.0005
423.2139, 157.3057
423.6960, 158.6745
424.1781, 159.4019
424.6602, 158.5337
425.1424, 157.1270
425.6245, 156.7546
426.1066, 158.3664
426.5887, 159.8210
427.0709, 160.6485
427.5530, 160.8486
428.0351, 160.9850
428.5172, 160.9456
428.9993, 160.9948
429.4814, 161.3415
429.9636, 162.0504
430.4457, 162.8271
430.9278, 163.7134
431.4099, 164.5884
431.8920, 165.1564
432.3741, 165.3916
432.8563, 165.5536
433.3384, 165.6890
433.8205, 165.8298
434.3026, 166.2263
434.7847, 166.9036
435.2668, 167.6466
435.7490, 168.0605
436.2311, 168.3223
436.7132, 169.0761
437.1953, 170.6133
437.6774, 172.5492
438.1595, 174.6014
438.6417, 176.6885
439.1238, 178.4722
439.6059, 179.1120
440.0880, 179.6711
440.5701, 181.5556
441.0522, 185.1436
441.5344, 188.5023
442.0165, 189.9703
442.4986, 190.6564
442.9807, 191.9102
443.4628, 194.7275
443.9449, 197.6559
444.4271, 200.4129
444.9092, 202.9068
445.3913, 204.6926
445.8734, 204.5529
446.3555, 204.4818
446.8376, 205.5260
447.3198, 208.4360
447.8019, 211.1140
448.2840, 212.7755
448.7661, 214.4612
449.2482, 217.6455
449.7303, 222.8111
450.2125, 228.6224
450.6946, 234.9235
451.1767, 241.7250
451.6588, 248.8609
452.1409, 256.6992
452.6230, 264.1532
453.1052, 270.3578
453.5873, 275.3173
454.0694, 279.4580
454.5515, 282.4542
455.0337, 285.3734
455.5158, 290.1478
455.9979, 296.7004
456.4800, 303.2982
456.9621, 309.6590
457.4442, 315.4791
457.9264, 320.6774
458.4085, 325.1850
458.8906, 327.3392
459.3727, 324.3649
459.8548, 318.4557
460.3369, 312.9044
460.8191, 307.9172
461.3012, 304.4999
461.7833, 303.3603
462.2654, 304.3734
462.7475, 307.2648
463.2296, 313.1750
463.7118, 319.9322
464.1939, 326.4995
464.6760, 332.8649
465.1581, 338.9972
465.6402, 344.8499
466.1223, 350.4354
466.6045, 355.6856
467.0866, 362.7534
467.5687, 366.7742
468.0508, 367.2831
468.5329, 364.6219
469.0150, 359.2951
469.4972, 349.9606
469.9793, 340.1225
470.4614, 331.0704
470.9435, 322.9085
471.4256, 313.1320
471.9077, 300.7746
472.3899, 288.7429
472.8720, 279.9380
473.3541, 274.5200
473.8362, 269.2993
474.3183, 263.8987
474.8004, 258.2939
475.2826, 252.3303
475.7647, 246.0349
476.2468, 239.8017
476.7289, 233.7404
477.2110, 227.8744
477.6931, 222.2760
478.1753, 216.9206
478.6574, 212.0712
479.1395, 208.1157
479.6216, 204.7567
480.1037, 201.5238
480.5858, 198.1319
481.0680, 195.1325
481.5501, 193.1983
482.0322, 191.9178
482.5143, 190.4509
482.9964, 187.9201
483.4786, 185.6052
483.9607, 184.3617
484.4428, 184.3543
484.9249, 183.8088
485.4070, 181.7717
485.8892, 179.4729
486.3713, 177.7841
486.8534, 177.0383
487.3355, 176.4622
487.8176, 176.1682
488.2997, 175.9907
488.7819, 175.5293
489.2640, 174.5962
489.7461, 173.7970
490.2282, 173.3558
490.7103, 173.2465
491.1924, 173.1290
491.6746, 173.0148
492.1567, 172.8353
492.6388, 172.3117
493.1209, 171.5423
493.6030, 171.6155
494.0851, 172.9239
494.5673, 174.4164
495.0494, 174.3706
495.5315, 173.1492
496.0136, 172.0648
496.4957, 171.6935
496.9778, 171.7971
497.4600, 172.4347
497.9421, 173.4977
498.4242, 174.0078
498.9063, 172.7316
499.3884, 171.0199
499.8705, 170.0959
500.3527, 170.5397
500.8348, 170.9450
501.3169, 170.6031
501.7990, 169.9815
502.2811, 169.7390
502.7632, 170.7838
503.2454, 171.3697
503.7275, 170.6602
504.2096, 168.8604
504.6917, 168.3216
505.1738, 170.0672
505.6559, 171.6942
506.1381, 171.7149
506.6202, 169.4599
507.1023, 168.4312
507.5844, 168.9595
508.0665, 170.1203
508.5486, 170.7927
509.0308, 170.9749
509.5129, 170.6830
509.9950, 169.7107
510.4771, 168.4762
510.9592, 167.8091
511.4413, 167.6962
511.9235, 167.9857
512.4056, 169.0182
512.8877, 170.2241
513.3698, 170.6506
513.8519, 170.1810
514.3340, 169.6280
514.8162, 169.6224
515.2983, 169.8609
515.7804, 169.9730
516.2625, 169.6661
516.7446, 169.4508
517.2267, 169.7085
517.7089, 170.2203
518.1910, 170.4405
518.6731, 169.6627
519.1552, 169.1346
519.6373, 169.5387
520.1194, 171.0377
520.6016, 171.7393
521.0837, 171.2654
521.5658, 170.4078
522.0479, 169.6387
522.5300, 168.8565
523.0121, 168.6014
523.4943, 169.0557
523.9764, 169.8527
524.4585, 170.3951
524.9406, 170.6731
525.4227, 170.7542
525.9048, 170.6470
526.3870, 170.3659
526.8691, 169.7620
527.3513, 168.8746
527.8334, 168.3097
528.3155, 169.0378
528.7976, 170.1614
529.2797, 170.1963
529.7618, 168.7874
530.2440, 167.3899
530.7261, 166.8678
531.2082, 167.0241
531.6903, 167.6150
532.1724, 169.4039
532.6545, 170.7251
533.1367, 170.7372
533.6188, 169.8005
534.1009, 169.2114
534.5830, 169.4889
535.0651, 169.8320
535.5472, 169.9908
536.0294, 169.9466
536.5115, 169.8326
536.9936, 169.5050
537.4757, 169.3095
537.9578, 169.6974
538.4399, 170.8638
538.9221, 171.3056
539.4042, 170.6696
539.8863, 169.6035
540.3684, 169.3174
540.8505, 169.7457
541.3326, 170.0953
541.8148, 169.8480
542.2969, 169.4396
542.7790, 169.8640
543.2611, 170.9969
543.7432, 171.8603
544.2253, 171.5389
544.7075, 170.7471
545.1896, 170.1777
545.6717, 169.9247
546.1538, 169.8998
546.6359, 170.1120
547.1180, 170.5079
547.6002, 171.0288
548.0823, 171.7822
548.5644, 172.5210
549.0465, 173.4600
549.5286, 174.3667
550.0107, 174.5225
550.4929, 173.3298
550.9750, 172.2909
551.4571, 171.9972
551.9392, 172.4528
552.4213, 172.2942
552.9034, 171.3016
553.3856, 170.3770
553.8677, 170.3760
554.3498, 171.2127
554.8319, 171.8903
555.3140, 172.3377
555.7961, 172.5068
556.2783, 171.9720
556.7604, 171.0710
557.2425, 170.8059
557.7246, 172.0483
558.2067, 173.5655
558.6888, 174.2657
559.1710, 174.2517
559.6531, 173.8443
560.1352, 172.4994
560.6173, 171.3655
561.0994, 171.2634
561.5815, 172.3786
562.0637, 173.4225
562.5458, 174.3516
563.0279, 174.9783
563.5100, 175.1538
563.9921, 174.3643
564.4742, 174.0292
564.9564, 174.2550
565.4385, 174.8822
565.9206, 175.8912
566.4027, 177.5330
566.8848, 178.1336
567.3669, 176.7283
567.8491, 174.1877
568.3312, 173.6252
568.8133, 174.9653
569.2954, 176.2109
569.7775, 175.7955
570.2596, 174.4875
570.7418, 173.5290
571.2239, 172.9773
571.7060, 173.0526
572.1881, 174.7166
572.6702, 176.7419
573.1523, 177.7165
573.6345, 176.7347
574.1166, 175.6535
574.5987, 175.0630
575.0808, 174.8425
575.5629, 174.7851
576.0450, 174.7705
576.5272, 175.0356
577.0093, 175.7727
577.4914, 176.8755
577.9735, 177.6585
578.4556, 178.0415
578.9377, 178.2585
579.4199, 178.3792
579.9020, 178.4003
580.3841, 178.5678
580.8662, 178.9182
581.3483, 179.2305
581.8304, 179.1794
582.3126, 178.8900
582.7947, 178.7861
583.2768, 178.9441
583.7589, 179.3127
584.2410, 179.9267
584.7231, 180.7022
585.2053, 181.4730
585.6874, 182.0438
586.1696, 182.7014
586.6517, 183.8473
587.1338, 185.2867
587.6159, 186.1694
588.0980, 185.3663
588.5801, 184.7610
589.0623, 185.2259
589.5444, 186.9012
590.0265, 188.7030
590.5086, 190.8357
590.9907, 192.8353
591.4728, 194.2610
591.9550, 194.9801
592.4371, 195.9007
592.9192, 197.0529
593.4013, 198.4939
593.8834, 200.3316
594.3655, 202.5464
594.8477, 205.0197
595.3298, 207.7309
595.8119, 210.6236
596.2940, 213.6449
596.7761, 216.7639
597.2582, 219.9698
597.7404, 223.1428
598.2225, 226.4767
598.7046, 230.1347
599.1867, 234.1068
599.6688, 238.2246
600.1509, 242.2603
600.6331, 246.5963
601.1152, 251.5441
601.5973, 257.7848
602.0794, 263.0937
602.5615, 267.1021
603.0436, 270.4866
603.5258, 273.8826
604.0079, 277.2560
604.4900, 280.9006
604.9721, 285.1289
605.4542, 289.2091
605.9363, 291.6632
606.4185, 292.5448
606.9006, 292.4809
607.3827, 292.0928
607.8648, 290.7104
608.3469, 286.8466
608.8290, 280.8273
609.3112, 274.6961
609.7933, 269.0919
610.2754, 264.1814
610.7575, 260.1229
611.2396, 257.0887
611.7217, 254.2293
612.2039, 250.4923
612.6860, 247.4008
613.1681, 246.1616
613.6502, 248.0427
614.1323, 249.5703
614.6144, 250.5370
615.0966, 251.2748
615.5787, 252.1314
616.0608, 252.9915
616.5429, 254.7201
617.0250, 257.5626
617.5071, 261.3386
617.9893, 265.9958
618.4714, 271.3998
618.9535, 276.2887
619.4356, 279.6934
619.9177, 282.4896
620.3998, 285.7503
620.8820, 289.4658
621.3641, 293.3582
621.8462, 297.1268
622.3283, 301.1772
622.8104, 305.8678
623.2925, 311.4546
623.7747, 316.9068
624.2568, 322.5033
624.7389, 327.5776
625.2210, 331.5445
625.7031, 333.9108
626.1852, 336.3815
626.6674, 339.5216
627.1495, 342.2247
627.6316, 342.5371
628.1137, 340.4040
628.5958, 337.3024
629.0779, 333.8546
629.5601, 329.4656
630.0422, 322.1859
630.5243, 312.6477
631.0064, 303.5181
631.4885, 296.1857
631.9706, 290.0352
632.4528, 284.6041
632.9349, 279.8990
633.4170, 275.7068
633.8991, 271.6650
634.3812, 268.3289
634.8633, 265.9890
635.3455, 264.7860
635.8276, 264.4225
636.3097, 265.4299
636.7918, 266.7500
637.2739, 267.4615
637.7560, 267.3629
638.2382, 267.4011
638.7203, 267.6098
639.2024, 268.0404
639.6845, 269.3127
640.1666, 271.1766
640.6487, 271.5786
641.1309, 269.6707
641.6130, 266.3118
642.0951, 262.8589
642.5772, 258.9818
643.0594, 253.8897
643.5415, 245.5755
644.0236, 237.2983
644.5057, 231.0223
644.9879, 226.6231
645.4700, 222.5434
645.9521, 217.4909
646.4342, 213.5247
646.9163, 211.6737
647.3984, 212.2779
647.8806, 212.6226
648.3627, 212.5610
648.8448, 212.5347
649.3269, 212.9213
649.8090, 213.7256
650.2911, 214.5893
650.7733, 215.4821
651.2554, 216.5067
651.7375, 217.7655
652.2196, 219.2644
652.7017, 221.0617
653.1838, 223.3030
653.6660, 225.5847
654.1481, 227.7060
654.6302, 229.6211
655.1123, 231.2803
655.5944, 232.2984
656.0765, 233.4165
656.5587, 235.2781
657.0408, 237.5264
657.5229, 238.5803
658.0050, 238.1831
658.4871, 236.9631
658.9692, 235.0135
659.4514, 232.3795
659.9335, 229.5452
660.4156, 226.5201
660.8977, 223.3156
661.3798, 219.8418
661.8619, 216.2470
662.3441, 212.7158
662.8262, 209.2512
663.3083, 206.2634
663.7904, 204.5144
664.2725, 203.2117
664.7546, 201.4283
665.2368, 198.7345
665.7189, 196.2164
666.2010, 194.3451
666.6831, 192.7739
667.1652, 191.0885
667.6473, 188.7884
668.1295, 187.1838
668.6116, 186.5701
669.0937, 186.5342
669.5758, 186.2733
670.0579, 185.7512
670.5400, 185.3786
671.0222, 185.4181
671.5043, 185.5220
671.9864, 184.8546
672.4685, 183.5411
672.9506, 182.2088
673.4327, 180.8318
673.9149, 179.8739
