##NAMES=Langbeinite
##RRUFFID=R070285
##IDEAL CHEMISTRY=K_2_Mg_2_(S^6+^O_4_)_3_
##LOCALITY=Carlsbad, New Mexico, USA
##OWNER=RRUFF
##SOURCE=Michael Scott
##DESCRIPTION=Colorless to gray granular massive
##STATUS=The identification of this mineral has been made only by X-ray diffraction.
##URL=rruff.info/R070285
180.7612, 352.1281
181.2433, 350.7435
181.7255, 348.0703
182.2076, 346.5307
182.6897, 346.6123
183.1718, 347.0382
183.6539, 347.9023
184.1360, 348.7580
184.6181, 349.0137
185.1003, 348.3417
185.5824, 347.1343
186.0645, 346.8324
186.5466, 348.8702
187.0287, 350.0650
187.5108, 349.3200
187.9930, 347.6927
188.4751, 346.5671
188.9572, 346.7467
189.4393, 347.9530
189.9214, 348.6344
190.4035, 347.9370
190.8857, 347.6644
191.3678, 348.5875
191.8499, 350.1330
192.3320, 351.2500
192.8141, 351.2505
193.2962, 350.3298
193.7784, 350.0121
194.2605, 350.6919
194.7426, 351.3927
195.2247, 351.7188
195.7068, 351.7834
196.1889, 351.9645
196.6711, 352.5439
197.1532, 353.4018
197.6353, 353.9305
198.1174, 353.9166
198.5995, 353.8064
199.0816, 353.9602
199.5638, 354.3062
200.0459, 354.3394
200.5280, 353.6187
201.0101, 352.3880
201.4922, 351.4328
201.9743, 350.6974
202.4565, 350.3236
202.9386, 350.7974
203.4207, 352.1621
203.9028, 352.9116
204.3849, 351.5895
204.8670, 349.3463
205.3492, 347.8820
205.8313, 347.8319
206.3134, 348.2357
206.7955, 347.7274
207.2776, 346.0089
207.7597, 344.7725
208.2419, 345.4934
208.7240, 346.8327
209.2061, 347.5217
209.6882, 347.1058
210.1703, 345.9725
210.6524, 344.6806
211.1346, 343.0934
211.6167, 341.7288
212.0988, 340.5856
212.5809, 339.7823
213.0630, 339.4904
213.5451, 339.8075
214.0273, 340.5611
214.5094, 341.4549
214.9915, 342.8685
215.4736, 343.6783
215.9557, 343.2006
216.4378, 342.3307
216.9200, 342.0533
217.4021, 342.8278
217.8842, 344.1666
218.3663, 344.7051
218.8484, 344.0799
219.3305, 343.0672
219.8127, 341.3088
220.2948, 339.4267
220.7769, 338.0258
221.2590, 337.3815
221.7411, 337.3866
222.2232, 337.7333
222.7054, 338.7884
223.1875, 339.7775
223.6696, 341.0215
224.1517, 342.0541
224.6338, 342.1493
225.1159, 340.9765
225.5980, 339.0961
226.0802, 338.1406
226.5623, 339.4061
227.0444, 340.0755
227.5265, 339.3433
228.0086, 338.0742
228.4907, 337.4904
228.9729, 338.1367
229.4550, 339.4433
229.9371, 339.8872
230.4192, 338.5604
230.9013, 337.8359
231.3834, 338.9316
231.8656, 340.6598
232.3477, 341.0885
232.8298, 339.3581
233.3119, 336.5034
233.7940, 334.6970
234.2761, 333.9035
234.7583, 333.8627
235.2404, 335.0439
235.7225, 336.8596
236.2046, 338.3288
236.6867, 339.1493
237.1688, 339.4651
237.6510, 339.3723
238.1331, 338.7719
238.6152, 338.4034
239.0973, 339.1158
239.5794, 340.2013
240.0615, 339.8810
240.5437, 337.1982
241.0258, 333.9804
241.5079, 332.7192
241.9900, 333.3247
242.4721, 334.2808
242.9542, 335.2321
243.4364, 336.0695
243.9185, 336.3894
244.4006, 335.8290
244.8827, 335.2720
245.3648, 335.7634
245.8469, 337.1577
246.3290, 338.4277
246.8112, 339.0339
247.2933, 339.1250
247.7754, 339.1979
248.2575, 339.4364
248.7396, 339.4229
249.2217, 338.4950
249.7039, 336.9727
250.1860, 335.9941
250.6681, 336.8288
251.1502, 338.8111
251.6323, 339.3217
252.1144, 337.4520
252.5966, 335.3693
253.0787, 334.3028
253.5608, 334.0103
254.0429, 333.9602
254.5250, 333.9473
255.0071, 333.9512
255.4893, 333.8897
255.9714, 333.7492
256.4535, 333.5597
256.9356, 333.3467
257.4177, 333.1035
257.8998, 332.7881
258.3820, 332.2874
258.8641, 331.7411
259.3462, 331.7068
259.8283, 332.6052
260.3104, 333.3276
260.7925, 333.5987
261.2747, 333.4920
261.7568, 333.0253
262.2389, 332.1154
262.7210, 331.0175
263.2031, 330.5611
263.6852, 331.4277
264.1674, 331.7492
264.6495, 330.4653
265.1316, 328.7519
265.6137, 327.9128
266.0958, 328.5310
266.5779, 330.0861
267.0601, 331.4005
267.5422, 332.4927
268.0243, 333.2575
268.5064, 333.7258
268.9885, 333.9076
269.4706, 333.7740
269.9528, 333.3208
270.4349, 332.6324
270.9170, 331.7612
271.3991, 330.1733
271.8812, 329.5386
272.3633, 330.6331
272.8455, 332.1264
273.3276, 332.9079
273.8097, 332.7539
274.2918, 332.3333
274.7739, 332.8272
275.2560, 335.3754
275.7382, 336.3229
276.2202, 334.7069
276.7024, 332.5678
277.1845, 330.9620
277.6666, 330.1456
278.1487, 329.9954
278.6308, 330.4926
279.1129, 332.0687
279.5951, 332.7501
280.0772, 331.9523
280.5593, 330.9369
281.0414, 330.2542
281.5235, 329.9741
282.0056, 329.9735
282.4878, 330.1941
282.9699, 330.7309
283.4520, 330.7774
283.9341, 329.8001
284.4162, 328.9259
284.8983, 328.5596
285.3805, 328.6849
285.8626, 329.2019
286.3447, 330.1246
286.8268, 331.4319
287.3089, 331.8751
287.7910, 330.6672
288.2732, 329.5199
288.7553, 328.7955
289.2374, 328.4957
289.7195, 328.6920
290.2016, 329.5058
290.6837, 330.6831
291.1659, 330.7706
291.6480, 328.1348
292.1301, 326.3208
292.6122, 326.3927
293.0943, 327.5097
293.5764, 328.6113
294.0586, 329.2325
294.5407, 329.3399
295.0228, 328.8394
295.5049, 326.4853
295.9870, 325.0525
296.4691, 325.2281
296.9513, 326.1198
297.4334, 326.8492
297.9155, 327.1203
298.3976, 327.0921
298.8797, 327.0145
299.3618, 326.8216
299.8440, 326.7106
300.3261, 326.8783
300.8082, 327.0054
301.2903, 326.6477
301.7724, 325.7986
302.2545, 325.0985
302.7367, 325.4364
303.2188, 327.3931
303.7009, 327.9645
304.1830, 325.8453
304.6651, 323.5364
305.1472, 322.8518
305.6294, 323.6519
306.1115, 324.3585
306.5936, 323.4790
307.0757, 320.8632
307.5578, 319.7606
308.0399, 321.6063
308.5221, 323.2580
309.0042, 323.1152
309.4863, 321.6241
309.9684, 320.1172
310.4505, 319.4430
310.9326, 319.4818
311.4148, 319.4321
311.8969, 319.0888
312.3790, 318.9071
312.8611, 319.3683
313.3432, 319.9975
313.8253, 319.8695
314.3075, 318.5052
314.7896, 316.5422
315.2717, 315.6331
315.7538, 316.7794
316.2359, 317.5396
316.7180, 317.3610
317.2001, 316.8651
317.6823, 316.7494
318.1644, 317.2121
318.6465, 317.9608
319.1286, 318.6253
319.6107, 319.4662
320.0928, 319.4171
320.5750, 317.5414
321.0571, 315.4430
321.5392, 314.4834
322.0213, 314.7353
322.5034, 315.1839
322.9855, 314.7597
323.4677, 313.2456
323.9498, 312.4716
324.4319, 312.4223
324.9140, 312.9854
325.3961, 314.6622
325.8782, 317.0010
326.3604, 318.7601
326.8425, 318.9977
327.3246, 317.8719
327.8067, 317.1662
328.2888, 317.3507
328.7709, 317.3658
329.2531, 316.9198
329.7352, 316.1350
330.2173, 315.1753
330.6994, 314.1069
331.1815, 313.0136
331.6636, 312.1129
332.1458, 311.0034
332.6279, 310.6414
333.1100, 311.9985
333.5921, 313.6522
334.0742, 314.0034
334.5563, 312.6651
335.0385, 310.7079
335.5206, 309.7021
336.0027, 310.1066
336.4848, 310.3449
336.9669, 310.2883
337.4490, 310.1852
337.9312, 310.3141
338.4133, 310.6109
338.8954, 310.6501
339.3775, 309.9364
339.8596, 308.3306
340.3417, 307.7195
340.8239, 309.0954
341.3060, 310.2936
341.7881, 310.4590
342.2702, 309.8623
342.7523, 309.1595
343.2344, 308.7594
343.7166, 308.5700
344.1987, 308.1467
344.6808, 307.1523
345.1629, 306.2964
345.6450, 305.4200
346.1271, 304.8106
346.6093, 305.0634
347.0914, 306.3376
347.5735, 307.8211
348.0556, 307.8544
348.5377, 305.0747
349.0198, 303.3006
349.5020, 303.0474
349.9841, 303.2688
350.4662, 303.3496
350.9483, 303.1784
351.4304, 302.9382
351.9125, 302.8472
352.3947, 302.9608
352.8768, 302.8554
353.3589, 302.2490
353.8410, 301.7054
354.3231, 301.5169
354.8052, 301.5450
355.2874, 301.4661
355.7695, 301.0471
356.2516, 300.3560
356.7337, 299.7652
357.2158, 299.2091
357.6979, 298.8679
358.1800, 298.8360
358.6621, 298.9907
359.1443, 299.2398
359.6264, 299.5478
360.1085, 299.8409
360.5906, 300.0651
361.0727, 300.4373
361.5548, 300.1396
362.0370, 297.9643
362.5191, 295.9881
363.0012, 295.8552
363.4833, 297.5016
363.9654, 299.3194
364.4475, 299.5217
364.9297, 297.9750
365.4118, 297.0790
365.8939, 297.6016
366.3760, 297.9482
366.8581, 297.0819
367.3402, 295.5838
367.8224, 294.7243
368.3045, 295.4643
368.7866, 297.1747
369.2687, 297.9512
369.7508, 297.4138
370.2329, 296.7543
370.7151, 296.8232
371.1972, 296.7763
371.6793, 295.3524
372.1614, 292.0009
372.6435, 288.7525
373.1256, 288.6219
373.6078, 291.8895
374.0899, 294.2036
374.5720, 294.0736
375.0541, 293.1736
375.5362, 292.7225
376.0183, 292.7178
376.5005, 292.6331
376.9826, 291.8445
377.4647, 290.6557
377.9468, 290.4040
378.4289, 291.7556
378.9110, 292.7257
379.3932, 291.4485
379.8753, 288.8949
380.3574, 286.8759
380.8395, 286.0999
381.3216, 285.9678
381.8037, 285.7899
382.2859, 285.5615
382.7680, 285.5285
383.2501, 286.0581
383.7322, 286.6626
384.2143, 286.4913
384.6964, 285.2612
385.1786, 284.2143
385.6607, 284.3665
386.1428, 285.2591
386.6249, 285.6882
387.1070, 285.3712
387.5891, 284.5459
388.0713, 282.9926
388.5534, 280.8040
389.0355, 279.7817
389.5176, 281.4321
389.9997, 283.7043
390.4818, 284.3382
390.9640, 283.3048
391.4461, 282.3452
391.9282, 282.7568
392.4103, 284.2154
392.8924, 284.8858
393.3745, 284.3157
393.8567, 283.5274
394.3388, 282.6907
394.8209, 281.9391
395.3030, 281.6617
395.7851, 282.0546
396.2672, 282.6294
396.7494, 282.4733
397.2315, 281.1107
397.7136, 280.1412
398.1957, 279.7305
398.6778, 279.6623
399.1599, 279.9535
399.6420, 280.4959
400.1241, 280.8249
400.6063, 280.4613
401.0884, 279.3691
401.5705, 278.8101
402.0526, 279.1884
402.5347, 279.5738
403.0168, 279.8164
403.4990, 279.8543
403.9811, 279.5591
404.4632, 278.8660
404.9453, 277.9697
405.4274, 277.3678
405.9095, 277.4579
406.3917, 277.1706
406.8738, 276.0565
407.3559, 274.8999
407.8380, 274.3634
408.3201, 274.4496
408.8022, 274.5813
409.2844, 274.1024
409.7665, 272.9466
410.2486, 272.2571
410.7307, 272.1935
411.2128, 272.4707
411.6949, 273.7390
412.1771, 275.1378
412.6592, 275.0961
413.1413, 272.5987
413.6234, 269.0660
414.1055, 267.7033
414.5876, 269.2257
415.0698, 270.7354
415.5519, 271.7269
416.0340, 272.3465
416.5161, 272.5284
416.9982, 272.3095
417.4803, 272.0936
417.9625, 272.4152
418.4446, 273.1317
418.9267, 273.1422
419.4088, 271.9231
419.8909, 270.8124
420.3730, 271.0271
420.8552, 271.9494
421.3373, 272.2748
421.8194, 271.1357
422.3015, 269.6597
422.7836, 269.3943
423.2657, 270.3208
423.7479, 270.8439
424.2300, 269.9013
424.7121, 268.6198
425.1942, 268.9801
425.6763, 271.4104
426.1584, 273.2450
426.6406, 272.7024
427.1227, 271.0065
427.6048, 270.1774
428.0869, 270.5573
428.5690, 271.6570
429.0511, 273.2757
429.5333, 275.3860
430.0154, 276.8087
430.4975, 277.1473
430.9796, 277.1679
431.4617, 277.2513
431.9438, 277.3565
432.4260, 277.2684
432.9081, 276.8437
433.3902, 276.3303
433.8723, 276.3257
434.3544, 277.0973
434.8365, 277.9658
435.3187, 278.6745
435.8008, 279.6264
436.2829, 281.3409
436.7650, 283.7520
437.2471, 286.1724
437.7292, 287.8925
438.2114, 288.8850
438.6935, 290.5335
439.1756, 293.0482
439.6577, 296.0139
440.1398, 300.0425
440.6219, 304.2443
441.1040, 307.3958
441.5862, 308.9752
442.0683, 309.5464
442.5504, 310.0412
443.0325, 310.4243
443.5146, 310.8506
443.9967, 311.3150
444.4789, 311.8438
444.9610, 312.0590
445.4431, 312.2533
445.9252, 313.4269
446.4073, 316.7072
446.8894, 321.4702
447.3716, 325.1196
447.8537, 326.9763
448.3358, 329.4112
448.8179, 334.0264
449.3000, 339.5421
449.7821, 344.7499
450.2643, 349.4496
450.7464, 353.6050
451.2285, 357.0506
451.7106, 359.8817
452.1927, 362.3980
452.6748, 364.4926
453.1570, 366.5995
453.6391, 369.0092
454.1212, 371.7303
454.6033, 375.0977
455.0854, 380.2242
455.5675, 385.2477
456.0497, 389.0328
456.5318, 391.3852
457.0139, 391.4439
457.4960, 388.4456
457.9781, 383.2496
458.4602, 378.0304
458.9424, 372.7590
459.4245, 367.5305
459.9066, 361.6360
460.3887, 356.2193
460.8708, 352.2678
461.3529, 350.0042
461.8351, 349.5601
462.3172, 351.3737
462.7993, 355.5543
463.2814, 358.2039
463.7635, 357.8517
464.2456, 357.7684
464.7278, 359.2162
465.2099, 361.2822
465.6920, 362.8842
466.1741, 363.5775
466.6562, 363.1641
467.1383, 361.3408
467.6205, 358.0616
468.1026, 353.4180
468.5847, 345.5882
469.0668, 338.0200
469.5489, 332.8024
470.0310, 329.2174
470.5132, 325.0221
470.9953, 318.3524
471.4774, 310.6132
471.9595, 305.7740
472.4416, 304.7105
472.9237, 303.3180
473.4059, 300.0861
473.8880, 295.8950
474.3701, 291.2135
474.8522, 286.0813
475.3343, 281.3805
475.8164, 277.8741
476.2986, 275.2355
476.7807, 272.6432
477.2628, 270.0175
477.7449, 267.4414
478.2270, 264.9626
478.7091, 262.5875
479.1913, 260.3318
479.6734, 257.7587
480.1555, 255.7934
480.6376, 255.5463
481.1197, 256.1888
481.6018, 255.8680
482.0839, 253.9444
482.5660, 251.3692
483.0482, 249.4493
483.5303, 248.4338
484.0124, 247.2348
484.4945, 245.2370
484.9766, 243.6434
485.4587, 243.4026
485.9409, 244.0897
486.4230, 244.6928
486.9051, 244.6647
487.3872, 244.0563
487.8693, 242.9243
488.3514, 240.5465
488.8336, 239.0173
489.3157, 239.1191
489.7978, 239.4830
490.2799, 239.1317
490.7620, 238.1034
491.2441, 237.1073
491.7263, 236.7175
492.2084, 236.8328
492.6905, 237.0715
493.1726, 237.7019
493.6547, 237.8079
494.1368, 236.1703
494.6190, 234.2280
495.1011, 233.6587
495.5832, 234.9147
496.0653, 236.2451
496.5474, 236.2361
497.0295, 235.2463
497.5117, 234.3778
497.9938, 233.8355
498.4759, 233.1980
498.9580, 231.8443
499.4401, 230.0277
499.9222, 229.0735
500.4044, 229.6894
500.8865, 230.5301
501.3686, 231.2020
501.8507, 231.5603
502.3328, 231.0241
502.8149, 229.3483
503.2971, 227.7410
503.7792, 228.1365
504.2613, 231.6816
504.7434, 232.9959
505.2255, 229.9805
505.7076, 227.0618
506.1898, 226.8243
506.6719, 228.2573
507.1540, 229.0102
507.6361, 227.8316
508.1182, 225.4947
508.6003, 223.7095
509.0825, 222.4514
509.5646, 221.8135
510.0467, 222.3516
510.5288, 223.0459
511.0109, 223.4977
511.4930, 223.6341
511.9752, 223.4109
512.4573, 222.7145
512.9394, 221.6928
513.4215, 220.5414
513.9036, 219.1558
514.3857, 218.2958
514.8679, 218.5017
515.3500, 219.2195
515.8321, 219.8536
516.3142, 220.4403
516.7963, 220.4939
517.2784, 219.0509
517.7606, 217.3017
518.2427, 217.2926
518.7248, 219.0926
519.2069, 220.5835
519.6890, 220.2966
520.1711, 218.5812
520.6533, 217.1697
521.1354, 215.6412
521.6175, 214.8966
522.0996, 215.8084
522.5817, 217.1600
523.0638, 217.7460
523.5460, 217.3744
524.0281, 216.5392
524.5102, 215.6683
524.9923, 214.7681
525.4744, 213.9487
525.9565, 213.0893
526.4387, 212.5015
526.9208, 212.7416
527.4029, 213.0114
527.8850, 212.2325
528.3671, 210.1988
528.8492, 208.1658
529.3314, 207.4853
529.8135, 208.0447
530.2956, 208.8566
530.7777, 210.1788
531.2598, 211.1003
531.7419, 210.6295
532.2241, 209.4731
532.7062, 208.7959
533.1883, 209.0864
533.6704, 209.3190
534.1525, 208.5826
534.6346, 207.2847
535.1168, 206.3269
535.5989, 205.9032
536.0810, 205.9824
536.5631, 206.7798
537.0452, 208.3445
537.5273, 208.6187
538.0095, 206.2885
538.4916, 204.2564
538.9737, 203.8798
539.4558, 204.3760
539.9379, 204.5694
540.4200, 204.0697
540.9022, 203.2082
541.3843, 202.3386
541.8664, 201.3331
542.3485, 201.0579
542.8306, 202.3256
543.3127, 203.4693
543.7948, 204.0081
544.2769, 204.0759
544.7590, 203.8915
545.2411, 203.5278
545.7233, 202.9921
546.2054, 202.1226
546.6875, 200.9669
547.1696, 200.3443
547.6517, 200.5598
548.1339, 200.9810
548.6160, 201.2217
549.0981, 201.2630
549.5802, 200.9733
550.0623, 200.0060
550.5444, 199.0436
551.0266, 198.4614
551.5087, 198.2184
551.9908, 198.2903
552.4729, 198.6821
552.9550, 199.1683
553.4371, 199.5341
553.9193, 199.8622
554.4014, 199.5046
554.8835, 197.5028
555.3656, 195.9776
555.8477, 196.1921
556.3298, 197.2047
556.8120, 197.4803
557.2941, 196.4857
557.7762, 195.1459
558.2583, 194.8794
558.7404, 195.8627
559.2225, 196.4408
559.7047, 196.3697
560.1868, 196.1299
560.6689, 196.0167
561.1510, 195.8911
561.6331, 195.4324
562.1152, 194.3765
562.5974, 193.4466
563.0795, 193.3067
563.5616, 193.8484
564.0437, 194.9543
564.5258, 196.8442
565.0079, 198.1265
565.4901, 197.1170
565.9722, 193.9745
566.4543, 192.3003
566.9364, 193.5032
567.4185, 194.5519
567.9006, 194.0695
568.3828, 192.8192
568.8649, 191.7848
569.3470, 191.2703
569.8291, 191.2414
570.3112, 191.8348
570.7933, 193.1516
571.2755, 193.2655
571.7576, 190.8450
572.2397, 188.8700
572.7218, 188.2529
573.2039, 188.3314
573.6860, 188.3481
574.1682, 188.1140
574.6503, 187.9506
575.1324, 188.2589
575.6145, 188.9147
576.0966, 189.3322
576.5787, 189.4107
577.0609, 189.5087
577.5430, 189.9034
578.0251, 190.4469
578.5072, 190.8350
578.9893, 191.2131
579.4714, 191.0937
579.9536, 189.6012
580.4357, 187.8697
580.9178, 187.4741
581.3999, 188.4739
581.8820, 189.6533
582.3641, 190.0753
582.8463, 189.9017
583.3284, 190.0945
583.8105, 191.2641
584.2926, 191.9070
584.7747, 191.5593
585.2568, 190.9435
585.7390, 190.3932
586.2211, 190.0714
586.7032, 190.2459
587.1853, 191.1640
587.6674, 192.6735
588.1495, 194.4184
588.6317, 196.4412
589.1138, 198.5222
589.5959, 201.0901
590.0780, 203.1889
590.5601, 203.3284
591.0422, 201.5506
591.5244, 200.5530
592.0065, 201.4788
592.4886, 203.2791
592.9707, 205.4205
593.4528, 207.6549
593.9349, 209.3343
594.4171, 210.1486
594.8992, 210.3791
595.3813, 210.3997
595.8634, 209.6893
596.3455, 210.3828
596.8276, 213.9474
597.3098, 217.1705
597.7919, 218.0697
598.2740, 217.8727
598.7561, 218.8389
599.2382, 221.9223
599.7203, 225.8409
600.2025, 229.0229
600.6846, 231.4907
601.1667, 233.5300
601.6488, 234.8704
602.1309, 236.3756
602.6130, 239.1236
603.0952, 242.3967
603.5773, 244.5752
604.0594, 244.9125
604.5415, 245.1871
605.0236, 246.9758
605.5057, 249.0300
605.9879, 249.2254
606.4700, 247.3207
606.9521, 244.7100
607.4342, 242.4684
607.9163, 240.5755
608.3984, 238.8690
608.8806, 238.1077
609.3627, 236.4483
609.8448, 232.4253
610.3269, 228.4535
610.8090, 226.7098
611.2911, 227.0067
611.7733, 227.4234
612.2554, 226.5660
612.7375, 224.9890
613.2196, 223.8951
613.7017, 223.2830
614.1838, 223.1498
614.6660, 223.6021
615.1481, 224.4116
615.6302, 225.4646
616.1123, 226.7385
616.5944, 227.7086
617.0765, 227.9619
617.5587, 228.1695
618.0408, 228.8752
618.5229, 229.8703
619.0050, 230.5765
619.4871, 230.8024
619.9692, 231.0643
620.4514, 232.1318
620.9335, 234.1775
621.4156, 235.7269
621.8977, 235.9002
622.3798, 236.6304
622.8619, 238.8534
623.3441, 241.6597
623.8262, 244.0728
624.3083, 245.8434
624.7904, 247.1621
625.2725, 248.2149
625.7546, 248.9302
626.2367, 249.2746
626.7188, 249.3101
627.2009, 248.1138
627.6830, 244.8066
628.1652, 240.2777
628.6473, 236.5131
629.1294, 233.7120
629.6115, 230.8966
630.0936, 227.7833
630.5757, 224.7180
631.0579, 221.7254
631.5400, 218.9889
632.0221, 216.8709
632.5042, 215.5678
632.9863, 214.8999
633.4684, 214.6495
633.9506, 214.9441
634.4327, 214.9893
634.9148, 214.3597
635.3969, 213.9769
635.8790, 214.4897
636.3611, 215.4782
636.8433, 216.2233
637.3254, 216.5213
637.8075, 216.6244
638.2896, 216.9273
638.7717, 217.1031
639.2538, 216.6208
639.7360, 215.3902
640.2181, 213.1523
640.7002, 209.5630
641.1823, 204.9707
641.6644, 200.7506
642.1465, 197.2053
642.6287, 193.6572
643.1108, 189.7266
643.5929, 186.1186
644.0750, 183.2309
644.5571, 181.0742
645.0392, 179.5732
645.5214, 178.7881
646.0035, 178.3255
646.4856, 177.3711
646.9677, 175.9294
647.4498, 175.2429
647.9319, 175.8832
648.4141, 176.5835
648.8962, 176.1163
649.3783, 174.8191
649.8604, 173.9743
650.3425, 173.5777
650.8246, 173.7837
651.3068, 175.3160
651.7889, 177.1392
652.2710, 177.8838
652.7531, 177.4518
653.2352, 176.6595
653.7173, 176.0914
654.1995, 175.7609
654.6816, 175.7873
655.1637, 176.4421
655.6458, 176.8026
656.1279, 176.5866
656.6100, 176.1399
657.0922, 175.6125
657.5743, 175.0116
658.0564, 174.3644
658.5385, 173.9590
659.0206, 173.1195
659.5027, 170.4589
659.9849, 166.8575
660.4670, 165.2001
660.9491, 166.2151
661.4312, 167.2989
661.9133, 165.9283
662.3954, 162.3366
662.8776, 159.8972
663.3597, 159.9810
663.8418, 159.4309
664.3239, 157.2839
664.8060, 154.8838
665.2881, 153.2594
665.7703, 152.4532
666.2524, 152.0501
666.7345, 151.9607
667.2166, 151.8535
667.6987, 150.8870
668.1808, 149.0975
668.6630, 147.9234
669.1451, 147.8712
669.6272, 148.1272
670.1093, 147.9680
670.5914, 147.4071
671.0735, 146.7931
671.5557, 145.8130
672.0378, 145.1679
672.5199, 145.7723
673.0020, 146.4293
673.4841, 145.4125
673.9662, 142.8401
674.4484, 140.5823
674.9305, 140.1385
675.4126, 140.9905
675.8947, 141.4552
676.3768, 141.4891
676.8589, 141.2921
677.3411, 140.5262
677.8232, 139.9739
678.3053, 140.6109
678.7874, 142.0269
679.2695, 142.6815
679.7516, 141.6125
