##NAMES=Langite
##RRUFFID=R060090
##IDEAL CHEMISTRY=Cu^2+^_4_S^6+^O_4_(OH)_6_&#183;2H_2_O
##LOCALITY=Allihies mine, County Cork, Ireland
##OWNER=RRUFF
##SOURCE=University of Arizona Mineral Museum
##DESCRIPTION=Blue skeletal prismatic crystals in snowflake-like groupings, associated with brochantite
##STATUS=The identification of this mineral has been confirmed by X-ray diffraction and chemical analysis
##URL=rruff.info/R060090
##MEASURED CHEMISTRY=Cu_4.00_(S_1.00_O_4_)(OH)_6_Â·2H_2_O ; darker phase: Cu_4_SO_4_(OH)_6_ ; lighter phase
176.9449, 766.6440
177.4271, 752.1101
177.9092, 741.4521
178.3913, 734.3390
178.8734, 730.9769
179.3555, 732.5987
179.8376, 736.9401
180.3197, 736.3778
180.8019, 725.4758
181.2840, 719.5891
181.7661, 727.8264
182.2482, 741.7357
182.7303, 750.3864
183.2124, 747.6145
183.6946, 737.6526
184.1767, 732.4794
184.6588, 733.6429
185.1409, 737.4344
185.6230, 745.1159
186.1051, 753.5765
186.5873, 759.2530
187.0694, 760.3662
187.5515, 758.0875
188.0336, 755.6371
188.5157, 754.2627
188.9978, 750.3051
189.4800, 738.7953
189.9621, 726.4666
190.4442, 721.4147
190.9263, 727.8048
191.4084, 740.0291
191.8905, 743.5953
192.3727, 730.3412
192.8548, 723.0566
193.3369, 729.7731
193.8190, 741.2761
194.3011, 748.8029
194.7832, 748.8616
195.2654, 744.1837
195.7475, 740.5685
196.2296, 738.7767
196.7117, 736.5934
197.1938, 731.3868
197.6759, 726.9329
198.1581, 727.6629
198.6402, 734.8958
199.1223, 744.4591
199.6044, 748.5724
200.0865, 745.2008
200.5686, 739.9417
201.0508, 730.8403
201.5329, 721.9034
202.0150, 715.7484
202.4971, 713.2205
202.9792, 714.3366
203.4613, 720.8599
203.9435, 740.1445
204.4256, 747.5812
204.9077, 730.7226
205.3898, 711.4133
205.8719, 706.5140
206.3540, 718.3716
206.8362, 734.9702
207.3183, 738.5793
207.8004, 720.7323
208.2825, 711.5068
208.7646, 718.2822
209.2467, 727.0362
209.7289, 730.1531
210.2110, 726.5723
210.6931, 719.5565
211.1752, 712.2107
211.6573, 703.6790
212.1395, 698.2652
212.6216, 697.3494
213.1037, 698.1232
213.5858, 700.9258
214.0679, 704.6960
214.5500, 706.4645
215.0322, 702.0549
215.5143, 689.4578
215.9964, 684.3638
216.4785, 693.7155
216.9606, 703.9931
217.4427, 712.1846
217.9249, 717.1666
218.4070, 717.2778
218.8891, 709.1728
219.3712, 692.2813
219.8533, 688.1030
220.3354, 714.1215
220.8176, 736.4164
221.2997, 745.5918
221.7818, 743.9097
222.2639, 736.6215
222.7460, 726.2226
223.2281, 713.5496
223.7103, 708.6264
224.1924, 722.7405
224.6745, 732.5734
225.1566, 729.8694
225.6387, 720.5352
226.1208, 713.6309
226.6030, 714.5317
227.0851, 721.4362
227.5672, 726.8447
228.0493, 730.1544
228.5314, 732.6104
229.0135, 734.2780
229.4957, 735.3255
229.9778, 735.7273
230.4599, 735.4382
230.9420, 734.9338
231.4241, 735.7550
231.9062, 740.6308
232.3884, 741.8519
232.8705, 736.4527
233.3526, 728.6718
233.8347, 721.7742
234.3168, 716.9153
234.7989, 713.6639
235.2811, 710.9095
235.7632, 707.0612
236.2453, 707.7968
236.7274, 720.5223
237.2095, 732.6526
237.6916, 733.1013
238.1738, 720.9617
238.6559, 707.1513
239.1380, 706.7794
239.6201, 725.0369
240.1022, 737.4894
240.5843, 740.5046
241.0665, 739.8342
241.5486, 736.4892
242.0307, 731.4255
242.5128, 726.7675
242.9949, 724.6542
243.4770, 725.2762
243.9592, 726.1469
244.4413, 726.7231
244.9234, 728.1566
245.4055, 733.0697
245.8876, 739.4603
246.3697, 742.2294
246.8519, 736.2643
247.3340, 722.8900
247.8161, 714.2427
248.2982, 710.7997
248.7803, 712.1416
249.2624, 723.3310
249.7446, 737.8458
250.2267, 744.0505
250.7088, 732.8357
251.1909, 712.4839
251.6730, 708.7499
252.1551, 732.0383
252.6373, 750.8801
253.1194, 753.7065
253.6015, 748.0445
254.0836, 740.6351
254.5657, 733.1949
255.0478, 727.5912
255.5300, 728.5414
256.0121, 738.9634
256.4942, 744.7767
256.9763, 736.5782
257.4584, 725.2584
257.9406, 718.0706
258.4227, 716.5432
258.9048, 718.7586
259.3869, 723.9946
259.8690, 732.4617
260.3511, 739.2700
260.8333, 743.4428
261.3154, 745.5777
261.7975, 746.3051
262.2796, 745.6198
262.7617, 743.2228
263.2438, 736.5531
263.7260, 727.0326
264.2081, 723.5616
264.6902, 729.6918
265.1723, 738.1138
265.6544, 744.8857
266.1365, 749.7767
266.6187, 751.5674
267.1008, 745.8129
267.5829, 737.2659
268.0650, 737.2356
268.5471, 748.3384
269.0292, 760.2363
269.5114, 767.2456
269.9935, 770.0483
270.4756, 768.7462
270.9577, 761.3133
271.4398, 751.4584
271.9219, 742.3464
272.4041, 733.9138
272.8862, 728.2565
273.3683, 727.6039
273.8504, 730.0172
274.3325, 730.9913
274.8146, 728.0689
275.2968, 727.8422
275.7789, 740.0152
276.2610, 760.1974
276.7431, 768.0557
277.2252, 750.7038
277.7073, 725.6261
278.1895, 725.0124
278.6716, 754.4283
279.1537, 776.8836
279.6358, 773.1404
280.1179, 755.0909
280.6000, 743.1089
281.0822, 741.9698
281.5643, 745.1185
282.0464, 745.2193
282.5285, 742.0221
283.0106, 738.9880
283.4927, 733.9333
283.9749, 730.8322
284.4570, 736.5496
284.9391, 750.4919
285.4212, 760.4731
285.9033, 754.7278
286.3854, 733.6605
286.8676, 722.6091
287.3497, 727.7535
287.8318, 735.8822
288.3139, 742.7831
288.7960, 747.6900
289.2781, 748.9102
289.7603, 744.9448
290.2424, 737.5300
290.7245, 734.1135
291.2066, 738.4294
291.6887, 741.8235
292.1708, 742.0679
292.6530, 741.0281
293.1351, 741.2143
293.6172, 743.4874
294.0993, 746.6163
294.5814, 748.3995
295.0635, 747.9985
295.5457, 747.7419
296.0278, 747.4775
296.5099, 747.4528
296.9920, 748.3509
297.4741, 749.9398
297.9562, 750.9111
298.4384, 749.8740
298.9205, 746.6082
299.4026, 742.7581
299.8847, 734.4922
300.3668, 729.4566
300.8489, 731.7422
301.3310, 739.3613
301.8131, 748.0622
302.2953, 755.2587
302.7774, 761.0624
303.2595, 766.2720
303.7416, 773.1001
304.2237, 775.6407
304.7058, 769.8687
305.1880, 760.9319
305.6701, 753.3959
306.1522, 748.8430
306.6343, 748.2886
307.1164, 755.9202
307.5985, 776.1118
308.0807, 788.0008
308.5628, 779.2725
309.0449, 766.9437
309.5270, 760.0620
310.0091, 759.7055
310.4912, 762.8654
310.9734, 769.2714
311.4555, 778.2487
311.9376, 781.4406
312.4197, 774.2772
312.9018, 766.9505
313.3839, 766.3302
313.8661, 770.5338
314.3482, 774.7504
314.8303, 776.6880
315.3124, 777.3724
315.7945, 779.1055
316.2766, 782.3630
316.7588, 783.7691
317.2409, 779.3909
317.7230, 772.6788
318.2051, 769.4680
318.6872, 771.5768
319.1693, 775.2989
319.6515, 779.0664
320.1336, 782.4678
320.6157, 783.2847
321.0978, 779.8197
321.5799, 774.9185
322.0620, 773.4963
322.5442, 776.0826
323.0263, 777.9129
323.5084, 776.8630
323.9905, 774.6445
324.4726, 772.6769
324.9547, 771.2158
325.4369, 772.4825
325.9190, 780.2574
326.4011, 795.4691
326.8832, 801.5882
327.3653, 792.7181
327.8474, 780.6053
328.3296, 767.5928
328.8117, 756.3180
329.2938, 754.1303
329.7759, 766.5812
330.2580, 789.2207
330.7401, 801.4515
331.2223, 791.9595
331.7044, 786.0789
332.1865, 791.7780
332.6686, 799.9002
333.1507, 798.7285
333.6328, 785.2946
334.1150, 768.3170
334.5971, 760.9345
335.0792, 766.7813
335.5613, 772.7930
336.0434, 782.4127
336.5255, 789.1912
337.0077, 787.3349
337.4898, 779.0786
337.9719, 772.1098
338.4540, 773.4652
338.9361, 781.7174
339.4182, 783.3450
339.9004, 771.3137
340.3825, 763.0934
340.8646, 766.9419
341.3467, 775.9260
341.8288, 781.2997
342.3109, 779.6325
342.7931, 774.1156
343.2752, 767.8890
343.7573, 760.1291
344.2394, 757.9299
344.7215, 769.8118
345.2036, 782.4063
345.6858, 783.1541
346.1679, 771.8345
346.6500, 761.9574
347.1321, 763.6855
347.6142, 773.3222
348.0963, 780.9599
348.5785, 785.6470
349.0606, 788.2764
349.5427, 786.9238
350.0248, 783.7322
350.5069, 785.5770
350.9890, 801.7466
351.4712, 816.9975
351.9533, 816.2510
352.4354, 802.3242
352.9175, 790.6675
353.3996, 789.6102
353.8817, 794.0750
354.3639, 789.4088
354.8460, 768.3995
355.3281, 755.1888
355.8102, 761.6979
356.2923, 775.8712
356.7744, 784.1971
357.2566, 783.6852
357.7387, 777.5528
358.2208, 768.4772
358.7029, 754.9102
359.1850, 747.4669
359.6671, 749.7131
360.1493, 753.5582
360.6314, 755.8925
361.1135, 756.9625
361.5956, 757.8129
362.0777, 758.9513
362.5598, 760.7217
363.0420, 764.7189
363.5241, 774.5486
364.0062, 780.6285
364.4883, 780.3969
364.9704, 777.3307
365.4525, 773.8206
365.9347, 770.5782
366.4168, 767.6773
366.8989, 765.0567
367.3810, 762.6461
367.8631, 761.5292
368.3452, 763.3755
368.8274, 764.5427
369.3095, 760.1083
369.7916, 753.5476
370.2737, 753.7200
370.7558, 769.5628
371.2379, 790.5668
371.7201, 797.3354
372.2022, 788.3795
372.6843, 779.3896
373.1664, 776.2816
373.6485, 777.4263
374.1306, 780.6120
374.6128, 786.8531
375.0949, 791.2606
375.5770, 788.3317
376.0591, 782.2485
376.5412, 783.0892
377.0233, 793.7976
377.5055, 804.2865
377.9876, 802.7094
378.4697, 787.4077
378.9518, 779.6084
379.4339, 784.8002
379.9160, 792.8553
380.3982, 798.4089
380.8803, 801.8680
381.3624, 805.2970
381.8445, 809.7983
382.3266, 815.0866
382.8087, 820.4381
383.2909, 828.4890
383.7730, 832.8122
384.2551, 830.3820
384.7372, 826.1136
385.2193, 823.6086
385.7014, 823.6337
386.1836, 825.2703
386.6657, 827.6964
387.1478, 830.9205
387.6299, 834.5812
388.1120, 838.8933
388.5941, 843.4670
389.0763, 847.1814
389.5584, 851.2801
390.0405, 858.4112
390.5226, 870.7953
391.0047, 883.6481
391.4868, 888.4462
391.9690, 884.2152
392.4511, 881.0104
392.9332, 881.4699
393.4153, 884.0412
393.8974, 887.2579
394.3795, 891.0948
394.8617, 895.4155
395.3438, 901.2659
395.8259, 907.1777
396.3080, 909.9376
396.7901, 909.0549
397.2722, 908.7021
397.7544, 911.5576
398.2365, 917.5026
398.7186, 924.8245
399.2007, 937.4402
399.6828, 946.9823
400.1649, 948.0947
400.6471, 944.4796
401.1292, 941.1866
401.6113, 939.8514
402.0934, 942.3397
402.5755, 952.5936
403.0576, 976.6591
403.5398, 989.3450
404.0219, 979.5276
404.5040, 970.4023
404.9861, 974.6401
405.4682, 989.6931
405.9503, 1007.543
406.4325, 1023.880
406.9146, 1037.539
407.3967, 1042.973
407.8788, 1033.987
408.3609, 1029.548
408.8430, 1037.786
409.3252, 1048.662
409.8073, 1054.057
410.2894, 1052.860
410.7715, 1050.191
411.2536, 1048.928
411.7357, 1049.521
412.2179, 1054.891
412.7000, 1066.449
413.1821, 1079.823
413.6642, 1095.431
414.1463, 1110.482
414.6284, 1117.950
415.1106, 1112.347
415.5927, 1104.011
416.0748, 1098.098
416.5569, 1095.318
417.0390, 1099.385
417.5211, 1112.793
418.0033, 1128.872
418.4854, 1137.019
418.9675, 1133.438
419.4496, 1134.850
419.9317, 1146.530
420.4138, 1159.467
420.8960, 1167.702
421.3781, 1171.719
421.8602, 1174.589
422.3423, 1178.091
422.8244, 1182.511
423.3065, 1189.120
423.7887, 1199.436
424.2708, 1209.711
424.7529, 1219.842
425.2350, 1229.598
425.7171, 1239.084
426.1992, 1248.182
426.6814, 1256.020
427.1635, 1262.182
427.6456, 1266.605
428.1277, 1267.482
428.6098, 1262.757
429.0919, 1258.428
429.5741, 1257.825
430.0562, 1259.492
430.5383, 1261.641
431.0204, 1264.384
431.5025, 1266.375
431.9846, 1265.385
432.4668, 1262.523
432.9489, 1262.397
433.4310, 1266.927
433.9131, 1271.883
434.3952, 1271.558
434.8773, 1265.190
435.3595, 1261.809
435.8416, 1267.582
436.3237, 1271.346
436.8058, 1263.433
437.2879, 1247.813
437.7701, 1235.151
438.2522, 1231.006
438.7343, 1232.532
439.2164, 1233.009
439.6985, 1235.366
440.1806, 1230.987
440.6628, 1212.378
441.1449, 1193.838
441.6270, 1185.979
442.1091, 1187.427
442.5912, 1188.901
443.0733, 1182.647
443.5555, 1171.312
444.0376, 1166.404
444.5197, 1171.607
445.0018, 1172.864
445.4839, 1159.232
445.9660, 1141.810
446.4482, 1132.484
446.9303, 1133.829
447.4124, 1134.533
447.8945, 1126.053
448.3766, 1112.340
448.8587, 1101.632
449.3409, 1095.067
449.8230, 1090.295
450.3051, 1086.318
450.7872, 1082.697
451.2693, 1075.906
451.7514, 1061.530
452.2336, 1049.366
452.7157, 1044.357
453.1978, 1042.893
453.6799, 1039.920
454.1620, 1033.998
454.6441, 1027.293
455.1263, 1023.176
455.6084, 1023.026
456.0905, 1017.674
456.5726, 999.1955
457.0547, 983.5862
457.5368, 976.5925
458.0190, 975.4904
458.5011, 976.5203
458.9832, 978.7910
459.4653, 979.2655
459.9474, 970.9963
460.4295, 953.7898
460.9117, 944.1728
461.3938, 950.7726
461.8759, 958.3300
462.3580, 949.2399
462.8401, 927.4360
463.3222, 914.2200
463.8044, 924.1887
464.2865, 938.1753
464.7686, 936.6203
465.2507, 923.4446
465.7328, 916.4943
466.2149, 924.6527
466.6971, 938.9664
467.1792, 941.6089
467.6613, 924.1462
468.1434, 912.4170
468.6255, 908.2171
469.1076, 908.0244
469.5898, 912.9069
470.0719, 920.1046
470.5540, 922.9236
471.0361, 916.5089
471.5182, 904.6338
472.0003, 898.5576
472.4825, 900.5736
472.9646, 902.2498
473.4467, 898.2808
473.9288, 896.0660
474.4109, 902.9918
474.8930, 918.1028
475.3752, 930.4775
475.8573, 932.5071
476.3394, 928.3621
476.8215, 924.1206
477.3036, 919.9301
477.7857, 917.6543
478.2679, 918.8574
478.7500, 922.0528
479.2321, 923.7144
479.7142, 923.7678
480.1963, 922.8253
480.6784, 921.3206
481.1606, 918.6550
481.6427, 912.4151
482.1248, 903.7625
482.6069, 898.5997
483.0890, 902.0676
483.5711, 911.8764
484.0533, 914.9037
484.5354, 904.7533
485.0175, 898.3040
485.4996, 897.7809
485.9817, 901.4992
486.4638, 910.0740
486.9460, 922.5920
487.4281, 933.8093
487.9102, 938.7538
488.3923, 939.3012
488.8744, 941.6010
489.3565, 946.2907
489.8387, 949.1453
490.3208, 946.7902
490.8029, 941.8463
491.2850, 940.6308
491.7671, 945.9620
492.2492, 946.8948
492.7314, 933.1992
493.2135, 916.8405
493.6956, 912.0024
494.1777, 919.4881
494.6598, 932.0166
495.1419, 945.2675
495.6241, 957.9808
496.1062, 961.9996
496.5883, 948.5009
497.0704, 938.4277
497.5525, 933.2958
498.0346, 932.5490
498.5168, 937.5471
498.9989, 947.3147
499.4810, 956.8036
499.9631, 961.8976
500.4452, 963.3943
500.9273, 964.7407
501.4095, 966.7411
501.8916, 964.8605
502.3737, 953.7744
502.8558, 939.5715
503.3379, 932.6421
503.8200, 935.3087
504.3022, 936.2466
504.7843, 930.2495
505.2664, 920.8645
505.7485, 909.3641
506.2306, 897.3420
506.7127, 892.6704
507.1949, 901.8231
507.6770, 920.7531
508.1591, 931.6827
508.6412, 929.8816
509.1233, 926.5319
509.6054, 921.2034
510.0876, 915.4352
510.5697, 908.4923
511.0518, 901.7025
511.5339, 899.8412
512.0161, 909.2398
512.4982, 924.1715
512.9803, 927.5124
513.4624, 917.1258
513.9445, 908.2831
514.4266, 909.2419
514.9088, 911.6158
515.3909, 902.5316
515.8730, 880.6713
516.3551, 864.4966
516.8372, 861.2635
517.3193, 864.8474
517.8015, 872.7508
518.2836, 882.8548
518.7657, 889.8544
519.2478, 891.1403
519.7299, 886.5365
520.2120, 874.1072
520.6942, 839.5521
521.1763, 825.0778
521.6584, 847.9324
522.1405, 872.2567
522.6226, 877.7384
523.1047, 868.6741
523.5869, 859.7626
524.0690, 858.8653
524.5511, 861.6158
525.0332, 859.9923
525.5153, 854.0458
525.9974, 852.8830
526.4796, 862.0844
526.9617, 871.1359
527.4438, 866.4427
527.9259, 849.8579
528.4080, 836.8231
528.8901, 831.0032
529.3723, 827.7812
529.8544, 826.5750
530.3365, 825.5717
530.8186, 819.2969
531.3007, 806.1922
531.7828, 795.3484
532.2650, 801.4787
532.7471, 829.4871
533.2292, 843.8424
533.7113, 830.6959
534.1934, 819.4418
534.6755, 820.8425
535.1577, 828.6824
535.6398, 835.1646
536.1219, 838.3707
536.6040, 837.2492
537.0861, 827.0452
537.5682, 811.5999
538.0504, 804.6258
538.5325, 808.6606
539.0146, 813.8911
539.4967, 812.4641
539.9788, 806.6127
540.4609, 807.4617
540.9431, 823.4232
541.4252, 833.8315
541.9073, 832.8502
542.3894, 825.5665
542.8715, 813.2429
543.3536, 798.4727
543.8358, 788.8651
544.3179, 791.1700
544.8000, 802.8144
545.2821, 813.4657
545.7642, 824.8411
546.2463, 830.4734
546.7285, 825.7908
547.2106, 816.6499
547.6926, 804.1570
548.1747, 789.5326
548.6569, 782.3351
549.1390, 793.0504
549.6211, 808.9032
550.1032, 817.1281
550.5853, 818.1827
551.0674, 814.1680
551.5496, 805.1193
552.0317, 795.4643
552.5138, 792.8491
552.9959, 800.7286
553.4780, 803.9069
553.9601, 797.1393
554.4423, 791.9855
554.9244, 796.0599
555.4065, 803.8897
555.8886, 804.6334
556.3707, 794.0114
556.8528, 784.4241
557.3350, 795.8919
557.8171, 824.6344
558.2992, 838.5217
558.7813, 831.7072
559.2634, 818.9156
559.7455, 805.6155
560.2277, 794.3676
560.7098, 792.6074
561.1919, 807.3091
561.6740, 819.3354
562.1561, 820.7028
562.6382, 817.6667
563.1204, 816.9473
563.6025, 818.9457
564.0846, 820.1404
564.5667, 817.8536
565.0488, 812.9440
565.5309, 808.8022
566.0131, 805.8635
566.4952, 802.5919
566.9773, 797.2167
567.4594, 792.6725
567.9415, 791.4283
568.4236, 792.9018
568.9058, 794.0563
569.3879, 791.7414
569.8700, 790.2385
570.3521, 796.4375
570.8342, 807.4228
571.3163, 812.5359
571.7985, 808.1679
572.2806, 800.6671
572.7627, 797.8567
573.2448, 800.5246
573.7269, 800.3088
574.2090, 793.7409
574.6912, 788.5731
575.1733, 786.5997
575.6554, 787.1017
576.1375, 789.7631
576.6196, 794.2860
577.1017, 799.0247
577.5839, 802.1917
578.0660, 804.3871
578.5481, 808.3103
579.0302, 814.4216
579.5123, 818.3377
579.9944, 817.4458
580.4766, 813.7150
580.9587, 810.1368
581.4408, 805.5822
581.9229, 805.2985
582.4050, 816.0018
582.8871, 825.7832
583.3693, 823.8958
583.8514, 815.1122
584.3335, 811.4921
584.8156, 818.6180
585.2977, 829.4700
585.7798, 831.6330
586.2620, 823.8849
586.7441, 822.3398
587.2262, 831.5713
587.7083, 840.7834
588.1904, 843.8898
588.6725, 842.9358
589.1547, 840.3115
589.6368, 834.5846
590.1189, 831.8504
590.6010, 839.2558
591.0831, 849.0218
591.5652, 848.7361
592.0474, 839.3835
592.5295, 833.5143
593.0116, 839.8352
593.4937, 854.4175
593.9758, 865.7969
594.4579, 874.9982
594.9401, 878.4203
595.4222, 869.3187
595.9043, 860.1306
596.3864, 858.1444
596.8685, 861.0090
597.3506, 861.7007
597.8328, 855.6568
598.3149, 850.5291
598.7970, 855.2927
599.2791, 866.1962
599.7612, 872.5273
600.2433, 872.2272
600.7255, 873.5405
601.2076, 885.3113
601.6897, 904.8246
602.1718, 909.7266
602.6539, 883.2145
603.1360, 864.7813
603.6182, 861.1751
604.1003, 863.5454
604.5824, 867.3179
605.0645, 871.0500
605.5466, 873.2947
606.0287, 873.9527
606.5109, 871.7091
606.9930, 860.3239
607.4751, 842.0056
607.9572, 836.0775
608.4393, 849.3940
608.9214, 868.1417
609.4036, 878.9188
609.8857, 881.6791
610.3678, 884.7971
610.8499, 891.8521
611.3320, 894.7249
611.8141, 890.0043
612.2963, 881.1647
612.7784, 868.7461
613.2605, 854.8622
613.7426, 846.8231
614.2247, 852.4905
614.7068, 865.9749
615.1890, 872.4292
615.6711, 871.5423
616.1532, 870.5745
616.6353, 871.5298
617.1174, 873.2893
617.5995, 875.1898
618.0817, 877.2365
618.5638, 876.8370
619.0459, 872.6984
619.5280, 867.4863
620.0101, 859.6702
620.4922, 852.6267
620.9744, 850.6969
621.4565, 854.4893
621.9386, 861.7615
622.4207, 873.3641
622.9028, 885.6266
623.3849, 880.9285
623.8671, 855.4787
624.3492, 835.3810
624.8313, 830.1556
625.3134, 831.6852
625.7955, 829.9374
626.2776, 825.1577
626.7598, 825.3969
627.2419, 840.8516
627.7240, 851.7488
628.2061, 841.2600
628.6882, 822.6193
629.1703, 816.9372
629.6525, 828.0450
630.1346, 842.2432
630.6167, 846.1415
631.0988, 841.5914
631.5809, 839.7181
632.0630, 842.2094
632.5452, 840.2747
633.0273, 826.7291
633.5094, 811.9899
633.9915, 809.9530
634.4736, 819.7527
634.9557, 823.6621
635.4379, 814.2966
635.9200, 802.2688
636.4021, 790.1342
636.8842, 780.4943
637.3663, 778.2386
637.8484, 783.8533
638.3306, 791.6246
638.8127, 795.6850
639.2948, 796.9741
639.7769, 802.1435
640.2590, 813.5657
640.7411, 820.2649
641.2233, 816.2744
641.7054, 808.9211
642.1875, 806.8556
642.6696, 809.4155
643.1517, 808.0154
643.6339, 794.3216
644.1160, 783.2469
644.5981, 787.1252
645.0802, 797.2769
645.5623, 799.8282
646.0444, 792.2709
646.5266, 782.1070
647.0087, 775.4648
647.4908, 772.5450
647.9729, 775.1012
648.4550, 784.3715
648.9371, 794.4507
649.4193, 806.5072
649.9014, 815.9038
650.3835, 817.4370
650.8656, 812.0321
651.3477, 805.8203
651.8298, 799.3352
652.3120, 792.7938
652.7941, 784.0639
653.2762, 776.3854
653.7583, 775.1146
654.2404, 780.3191
654.7225, 787.2312
655.2047, 792.9449
655.6868, 796.1561
656.1689, 790.5894
656.6510, 774.0566
657.1331, 762.2512
657.6152, 759.0327
658.0974, 760.6074
658.5795, 765.7894
659.0616, 773.4796
659.5437, 778.5377
660.0258, 779.0513
660.5079, 778.7028
660.9901, 779.5141
661.4722, 779.5842
661.9543, 774.2469
662.4364, 765.4337
662.9185, 762.8776
663.4006, 774.7551
663.8828, 791.9105
664.3649, 792.2076
664.8470, 774.9467
665.3291, 764.3885
665.8112, 766.0875
666.2933, 770.5529
666.7755, 770.8929
667.2576, 768.2108
667.7397, 767.5694
668.2218, 771.4185
668.7039, 773.3214
669.1860, 768.6296
669.6682, 764.3373
670.1503, 769.2532
