##NAMES=Langbanite
##RRUFFID=R100037
##IDEAL CHEMISTRY=Mn^2+^_4_Mn^3+^_9_Sb^5+^O_16_(SiO_4_)_2_
##LOCALITY=Langban, Filipstad, Varmland, Sweden
##OWNER=RRUFF
##SOURCE=William W Pinch
##DESCRIPTION=Black metallic blocky crystals associated with pale red rhodonite R100038
##STATUS=The identification of this mineral has been confirmed by single-crystal X-ray diffraction.
##URL=rruff.info/R100037
90.49219, 14.37344
90.97430, 14.38390
91.45642, 14.38810
91.93854, 14.40069
92.42065, 14.40252
92.90277, 14.40030
93.38489, 14.41863
93.86700, 14.32688
94.34912, 13.80705
94.83124, 12.94685
95.31335, 12.26697
95.79547, 12.22499
96.27759, 12.66870
96.75970, 12.97246
97.24182, 13.04340
97.72394, 12.94340
98.20605, 12.74560
98.68817, 12.42961
99.17029, 12.17835
99.65240, 12.29447
100.1345, 12.83184
100.6166, 12.86819
101.0988, 11.99705
101.5809, 10.39106
102.0630, 9.558162
102.5451, 9.723780
103.0272, 10.24784
103.5093, 10.36871
103.9915, 9.840794
104.4736, 9.549469
104.9557, 9.805715
105.4378, 10.74338
105.9199, 11.49887
106.4020, 12.16853
106.8842, 12.61406
107.3663, 12.56987
107.8484, 11.63373
108.3305, 10.67254
108.8126, 9.969286
109.2947, 9.526242
109.7769, 9.338401
110.2590, 9.516444
110.7411, 9.970031
111.2232, 10.41321
111.7053, 10.84410
112.1874, 11.26225
112.6696, 11.66384
113.1517, 12.60595
113.6338, 12.93179
114.1159, 12.07272
114.5980, 10.23214
115.0801, 8.838491
115.5623, 8.541842
116.0444, 8.677136
116.5265, 8.730021
117.0086, 8.242492
117.4907, 7.934634
117.9728, 8.196208
118.4550, 9.053959
118.9371, 9.848958
119.4192, 10.44000
119.9013, 10.76821
120.3834, 10.74755
120.8655, 9.961271
121.3477, 9.054197
121.8298, 8.436814
122.3119, 8.129393
122.7940, 8.165526
123.2761, 8.978879
123.7582, 10.19043
124.2404, 10.95611
124.7225, 10.46296
125.2046, 9.396636
125.6867, 8.645556
126.1688, 8.437831
126.6509, 8.311664
127.1331, 7.522137
127.6152, 6.246550
128.0973, 5.365998
128.5794, 5.900190
129.0615, 7.289497
129.5436, 8.150793
130.0258, 7.984576
130.5079, 7.373102
130.9900, 7.466632
131.4721, 8.263671
131.9542, 9.003547
132.4363, 8.838138
132.9185, 7.915907
133.4006, 7.266740
133.8827, 7.222396
134.3648, 7.651755
134.8469, 8.141993
135.3290, 8.718369
135.8112, 9.246458
136.2933, 9.487116
136.7754, 9.414189
137.2575, 9.491638
137.7396, 10.02622
138.2217, 10.98454
138.7039, 11.27289
139.1860, 10.56523
139.6681, 9.702584
140.1502, 10.26559
140.6323, 12.84310
141.1144, 14.86155
141.5966, 15.05227
142.0787, 12.80567
142.5608, 11.46689
143.0429, 11.22906
143.5250, 11.78588
144.0071, 12.49205
144.4893, 13.39494
144.9714, 14.36069
145.4535, 15.33258
145.9356, 16.38305
146.4177, 17.32759
146.8998, 18.27476
147.3820, 19.13364
147.8641, 19.52668
148.3462, 18.97849
148.8283, 18.40674
149.3104, 18.29127
149.7925, 18.78378
150.2747, 19.54620
150.7568, 20.74292
151.2389, 22.31656
151.7210, 23.55295
152.2031, 24.20301
152.6852, 24.65741
153.1674, 25.16531
153.6495, 26.04338
154.1316, 26.64759
154.6137, 26.70405
155.0958, 26.19731
155.5779, 26.01266
156.0601, 26.58832
156.5422, 27.37904
157.0243, 27.91210
157.5064, 27.82071
157.9885, 27.72690
158.4706, 27.82646
158.9528, 28.15434
159.4349, 28.45465
159.9170, 28.56042
160.3991, 28.63389
160.8812, 28.86260
161.3633, 29.53373
161.8455, 30.18472
162.3276, 30.53807
162.8097, 30.47012
163.2918, 30.57543
163.7739, 31.28196
164.2560, 32.25293
164.7382, 32.81053
165.2203, 32.71115
165.7024, 32.53989
166.1845, 32.65369
166.6666, 33.19291
167.1487, 33.69507
167.6309, 33.78012
168.1130, 33.64417
168.5951, 33.70008
169.0772, 34.41855
169.5593, 35.26116
170.0414, 35.74775
170.5236, 35.70704
171.0057, 35.52218
171.4878, 35.58739
171.9699, 35.76717
172.4520, 35.64671
172.9341, 34.46786
173.4163, 33.05002
173.8984, 32.45150
174.3805, 33.27746
174.8626, 34.34204
175.3447, 34.45453
175.8268, 33.78141
176.3090, 33.08488
176.7911, 32.90070
177.2732, 33.03112
177.7553, 33.15717
178.2374, 33.16088
178.7195, 33.16686
179.2017, 33.43363
179.6838, 33.92636
180.1659, 34.28331
180.6480, 33.98102
181.1301, 33.32801
181.6122, 33.07589
182.0944, 33.69076
182.5765, 34.63469
183.0586, 34.97725
183.5407, 34.72034
184.0228, 34.28040
184.5049, 33.92056
184.9871, 33.65769
185.4692, 33.58128
185.9513, 33.82608
186.4334, 34.23254
186.9155, 34.47303
187.3976, 34.55054
187.8798, 34.42292
188.3619, 33.81130
188.8440, 32.82841
189.3261, 32.25950
189.8082, 32.57921
190.2903, 33.50753
190.7725, 34.00787
191.2546, 34.03664
191.7367, 33.90360
192.2188, 33.95113
192.7009, 34.17161
193.1830, 34.42168
193.6652, 34.66662
194.1473, 34.90317
194.6294, 35.10870
195.1115, 35.29410
195.5936, 35.41448
196.0757, 35.43236
196.5579, 35.35047
197.0400, 35.10739
197.5221, 34.51955
198.0042, 33.63667
198.4863, 33.27980
198.9684, 33.56078
199.4506, 34.12551
199.9327, 34.48002
200.4148, 34.61711
200.8969, 34.64061
201.3790, 34.58308
201.8611, 34.44391
202.3433, 34.20989
202.8254, 33.82795
203.3075, 33.43312
203.7896, 33.24278
204.2717, 33.25808
204.7538, 33.45373
205.2360, 33.99352
205.7181, 34.98544
206.2002, 35.24295
206.6823, 34.53538
207.1644, 33.37334
207.6465, 32.68176
208.1287, 32.53004
208.6108, 32.61929
209.0929, 32.87862
209.5750, 33.35999
210.0571, 33.73504
210.5392, 33.98574
211.0214, 34.15060
211.5035, 34.34356
211.9856, 34.63682
212.4677, 34.75962
212.9498, 34.54560
213.4319, 33.90583
213.9140, 33.29647
214.3962, 32.66431
214.8783, 32.09929
215.3604, 31.81778
215.8425, 31.84390
216.3246, 32.08868
216.8067, 32.60548
217.2889, 33.57997
217.7710, 34.12765
218.2531, 34.03603
218.7352, 33.61163
219.2173, 33.64674
219.6994, 34.41535
220.1816, 35.12000
220.6637, 35.38400
221.1458, 35.04121
221.6279, 34.72045
222.1100, 34.37283
222.5921, 34.07356
223.0743, 34.03914
223.5564, 34.39285
224.0385, 34.79707
224.5206, 35.10299
225.0027, 35.31894
225.4848, 35.42178
225.9670, 35.36164
226.4491, 35.20469
226.9312, 35.14514
227.4133, 35.30249
227.8954, 35.36357
228.3775, 35.10797
228.8597, 34.18764
229.3418, 33.82743
229.8239, 34.28419
230.3060, 35.24233
230.7881, 35.84252
231.2702, 36.09565
231.7524, 35.97858
232.2345, 35.37604
232.7166, 33.78278
233.1987, 32.89544
233.6808, 33.02116
234.1629, 33.77708
234.6451, 34.12587
235.1272, 33.80257
235.6093, 33.46441
236.0914, 33.41026
236.5735, 33.77995
237.0556, 34.13720
237.5378, 34.59422
238.0199, 35.00880
238.5020, 34.95425
238.9841, 34.02089
239.4662, 33.22451
239.9483, 33.04331
240.4305, 33.82862
240.9126, 34.41225
241.3947, 34.78631
241.8768, 34.96159
242.3589, 34.92535
242.8410, 34.48462
243.3232, 34.12684
243.8053, 34.09804
244.2874, 34.63156
244.7695, 34.91528
245.2516, 34.83820
245.7337, 34.55721
246.2159, 34.42345
246.6980, 34.49805
247.1801, 34.62457
247.6622, 34.74654
248.1443, 34.85996
248.6264, 34.99696
249.1086, 35.23950
249.5907, 35.46817
250.0728, 35.39762
250.5549, 34.81074
251.0370, 34.28949
251.5191, 34.05713
252.0013, 34.17799
252.4834, 34.40833
252.9655, 34.89237
253.4476, 35.39715
253.9297, 35.40803
254.4118, 34.54757
254.8940, 33.89883
255.3761, 33.90707
255.8582, 34.77598
256.3403, 35.51622
256.8224, 36.19076
257.3046, 36.69112
257.7867, 36.72264
258.2688, 35.91392
258.7509, 35.43625
259.2330, 35.89023
259.7151, 37.60035
260.1973, 38.24245
260.6794, 37.33149
261.1615, 35.81575
261.6436, 35.15540
262.1257, 35.71825
262.6078, 36.22584
263.0900, 36.27043
263.5721, 35.80145
264.0542, 35.34011
264.5363, 34.81011
265.0184, 34.37247
265.5005, 34.28691
265.9827, 34.72169
266.4648, 35.01017
266.9469, 34.88631
267.4290, 34.33574
267.9111, 34.06925
268.3932, 34.13197
268.8754, 34.41302
269.3575, 34.88000
269.8396, 35.67130
270.3217, 36.13915
270.8038, 36.02230
271.2859, 35.36039
271.7681, 34.96021
272.2502, 34.87357
272.7323, 34.94082
273.2144, 35.00061
273.6965, 35.03742
274.1786, 35.16663
274.6608, 35.49062
275.1429, 35.94685
275.6250, 36.00846
276.1071, 35.53881
276.5892, 35.06627
277.0714, 35.18878
277.5535, 35.99899
278.0356, 36.52339
278.5177, 36.47167
278.9998, 36.02588
279.4819, 36.00437
279.9641, 36.50743
280.4462, 37.01709
280.9283, 37.02407
281.4104, 36.50525
281.8925, 36.25267
282.3746, 36.47269
282.8568, 36.97045
283.3389, 37.15907
283.8210, 37.00088
284.3031, 36.82335
284.7852, 36.84325
285.2673, 37.05376
285.7495, 37.35755
286.2316, 37.76559
286.7137, 38.22693
287.1958, 38.66217
287.6779, 39.07248
288.1600, 39.40235
288.6422, 39.62469
289.1243, 39.73919
289.6064, 39.72133
290.0885, 39.54563
290.5706, 39.29937
291.0527, 39.09509
291.5349, 38.93476
292.0170, 38.84278
292.4991, 38.84742
292.9812, 38.93471
293.4633, 39.04702
293.9454, 39.17629
294.4276, 39.35566
294.9097, 39.64531
295.3918, 40.03124
295.8739, 40.43602
296.3560, 40.96466
296.8381, 41.46976
297.3203, 41.50702
297.8024, 41.02923
298.2845, 40.44764
298.7666, 40.10289
299.2487, 39.99364
299.7308, 40.10956
300.2130, 40.73648
300.6951, 41.47858
301.1772, 41.55666
301.6593, 40.97395
302.1414, 40.40868
302.6235, 40.61683
303.1057, 41.26811
303.5878, 41.68866
304.0699, 41.54282
304.5520, 41.15054
305.0341, 40.82875
305.5162, 40.57843
305.9984, 40.39746
306.4805, 40.23584
306.9626, 40.15731
307.4447, 40.27769
307.9268, 40.76955
308.4089, 41.28059
308.8911, 41.53365
309.3732, 41.54945
309.8553, 41.41436
310.3374, 41.16801
310.8195, 40.80058
311.3016, 40.24918
311.7838, 39.34471
312.2659, 38.59243
312.7480, 38.51183
313.2301, 38.86289
313.7122, 39.04651
314.1943, 38.68507
314.6765, 38.12050
315.1586, 37.52989
315.6407, 36.86668
316.1228, 36.43927
316.6049, 36.58397
317.0870, 37.04173
317.5692, 37.38322
318.0513, 37.44682
318.5334, 37.36737
319.0155, 37.20249
319.4976, 36.95536
319.9797, 36.62318
320.4619, 35.99907
320.9440, 35.35785
321.4261, 35.01379
321.9082, 35.50687
322.3903, 35.85391
322.8724, 35.62022
323.3546, 34.78159
323.8367, 34.17992
324.3188, 34.28191
324.8009, 34.51314
325.2830, 34.43459
325.7651, 33.41930
326.2473, 32.72937
326.7294, 32.80524
327.2115, 33.51217
327.6936, 33.77293
328.1757, 33.05950
328.6578, 32.22578
329.1400, 31.69224
329.6221, 31.70924
330.1042, 31.69578
330.5863, 31.63601
331.0684, 31.54240
331.5505, 31.45213
332.0327, 31.35374
332.5148, 31.27133
332.9969, 31.24600
333.4790, 31.39541
333.9611, 31.23981
334.4432, 30.48849
334.9254, 29.59870
335.4075, 29.42850
335.8896, 30.38745
336.3717, 31.23590
336.8538, 31.55413
337.3359, 31.29086
337.8180, 31.08392
338.3001, 30.96338
338.7823, 30.85429
339.2644, 30.61872
339.7465, 30.17370
340.2286, 29.97886
340.7107, 30.24831
341.1928, 30.88566
341.6750, 31.18513
342.1571, 31.11529
342.6392, 30.84535
343.1213, 30.43853
343.6034, 29.89413
344.0855, 29.47626
344.5677, 29.24528
345.0498, 29.15218
345.5319, 29.10065
346.0140, 29.09147
346.4961, 29.10155
346.9782, 29.22903
347.4604, 29.39937
347.9425, 29.15998
348.4246, 28.36527
348.9067, 27.46145
349.3888, 26.99909
349.8709, 26.96454
350.3531, 27.28331
350.8352, 28.32315
351.3173, 29.59961
351.7994, 30.05213
352.2815, 29.58758
352.7636, 28.97119
353.2458, 29.02164
353.7279, 29.47031
354.2100, 29.73545
354.6921, 29.49210
355.1742, 29.03033
355.6563, 28.52931
356.1385, 28.01604
356.6206, 27.73985
357.1027, 28.11667
357.5848, 28.73688
358.0669, 29.12490
358.5490, 29.12043
359.0312, 28.90634
359.5133, 28.42948
359.9954, 27.80226
360.4775, 27.36625
360.9596, 27.27681
361.4417, 27.44091
361.9239, 27.89165
362.4060, 28.83323
362.8881, 29.46945
363.3702, 29.26089
363.8523, 28.60509
364.3344, 28.11151
364.8166, 28.03041
365.2987, 28.06939
365.7808, 28.16849
366.2629, 28.34251
366.7450, 28.40670
367.2271, 28.09261
367.7093, 27.77419
368.1914, 27.78012
368.6735, 28.86629
369.1556, 29.47001
369.6377, 29.03679
370.1198, 27.73478
370.6020, 27.07320
371.0841, 27.57556
371.5662, 28.23225
372.0483, 28.48845
372.5304, 28.05476
373.0125, 27.76132
373.4947, 27.60661
373.9768, 27.60955
374.4589, 27.86326
374.9410, 28.53693
375.4231, 29.11599
375.9052, 29.40924
376.3874, 29.39610
376.8695, 29.22067
377.3516, 28.79598
377.8337, 28.35251
378.3158, 28.22949
378.7979, 28.48488
379.2801, 28.61585
379.7622, 28.44724
380.2443, 28.05172
380.7264, 27.71267
381.2085, 27.42255
381.6906, 27.25736
382.1728, 27.27559
382.6549, 27.47369
383.1370, 27.87477
383.6191, 28.57859
384.1012, 29.32053
384.5833, 29.65228
385.0655, 29.60579
385.5476, 29.43780
386.0297, 29.24971
386.5118, 29.05287
386.9939, 28.86190
387.4760, 28.67856
387.9582, 28.50570
388.4403, 28.26144
388.9224, 28.03034
389.4045, 27.98605
389.8866, 28.43833
390.3687, 28.94191
390.8509, 29.03156
391.3330, 28.74576
391.8151, 28.54362
392.2972, 28.74012
392.7793, 29.13260
393.2614, 29.54867
393.7436, 30.09517
394.2257, 30.43378
394.7078, 30.30697
395.1899, 29.84877
395.6720, 29.41097
396.1541, 28.93005
396.6363, 28.63433
397.1184, 28.73140
397.6005, 29.47828
398.0826, 29.87027
398.5647, 29.43427
399.0468, 28.67384
399.5290, 28.19927
400.0111, 28.09000
400.4932, 28.23823
400.9753, 28.85384
401.4574, 29.93379
401.9395, 30.33537
402.4217, 29.73651
402.9038, 28.80479
403.3859, 27.91085
403.8680, 26.85789
404.3501, 26.34701
404.8322, 26.60801
405.3144, 27.35714
405.7965, 27.83140
406.2786, 27.96586
406.7607, 28.05084
407.2428, 28.20374
407.7249, 28.42661
408.2071, 28.72497
408.6892, 29.15598
409.1713, 29.50126
409.6534, 29.35472
410.1355, 28.75052
410.6176, 28.39312
411.0998, 28.63920
411.5819, 29.16627
412.0640, 29.07621
412.5461, 28.39618
413.0282, 27.80125
413.5103, 27.95187
413.9925, 28.54683
414.4746, 28.98933
414.9567, 29.19679
415.4388, 29.18807
415.9209, 28.83934
416.4030, 28.28093
416.8852, 27.82675
417.3673, 27.56704
417.8494, 27.52771
418.3315, 27.87998
418.8136, 28.63662
419.2957, 29.18244
419.7779, 29.08178
420.2600, 28.63335
420.7421, 28.13772
421.2242, 27.42645
421.7063, 26.94502
422.1884, 26.86889
422.6706, 27.14177
423.1527, 27.54696
423.6348, 28.49533
424.1169, 29.19316
424.5990, 29.18521
425.0811, 27.91270
425.5633, 27.14549
426.0454, 27.35817
426.5275, 27.93056
427.0096, 28.04244
427.4917, 27.11047
427.9738, 26.62540
428.4560, 27.11579
428.9381, 28.51590
429.4202, 29.18859
429.9023, 28.92208
430.3844, 28.31030
430.8665, 27.66270
431.3487, 26.90339
431.8308, 26.63297
432.3129, 27.04357
432.7950, 27.78197
433.2771, 28.09176
433.7592, 27.95445
434.2414, 27.78896
434.7235, 27.83609
435.2056, 28.01851
435.6877, 28.00244
436.1698, 27.77746
436.6519, 27.48800
437.1341, 27.15601
437.6162, 26.87014
438.0983, 26.89436
438.5804, 27.47539
439.0625, 28.14451
439.5446, 28.38654
440.0268, 28.26050
440.5089, 27.98092
440.9910, 27.42141
441.4731, 26.91232
441.9552, 26.83120
442.4373, 27.31498
442.9195, 27.69635
443.4016, 27.50395
443.8837, 27.06088
444.3658, 26.75991
444.8479, 26.88473
445.3300, 27.00022
445.8122, 26.87156
446.2943, 26.54942
446.7764, 26.48705
447.2585, 27.31717
447.7406, 27.98749
448.2227, 27.89616
448.7049, 26.28765
449.1870, 25.38113
449.6691, 25.46626
450.1512, 26.11472
450.6333, 26.70599
451.1154, 27.36734
451.5976, 27.68207
452.0797, 27.35995
452.5618, 26.47930
453.0439, 26.34604
453.5260, 27.18702
454.0081, 28.07461
454.4903, 28.13355
454.9724, 27.37960
455.4545, 27.01638
455.9366, 27.28528
456.4187, 27.80541
456.9008, 27.90590
457.3830, 27.63590
457.8651, 27.37110
458.3472, 27.23131
458.8293, 27.23071
459.3114, 27.50884
459.7935, 28.05798
460.2757, 28.46708
460.7578, 28.13026
461.2399, 27.52713
461.7220, 27.38649
462.2041, 28.23797
462.6862, 29.00799
463.1684, 28.80717
463.6505, 27.98861
464.1326, 27.37352
464.6147, 27.48503
465.0968, 27.72128
465.5789, 27.69297
466.0611, 27.29406
466.5432, 27.24874
467.0253, 28.20078
467.5074, 29.29860
467.9895, 29.82296
468.4716, 29.00252
468.9538, 28.55584
469.4359, 28.74778
469.9180, 29.38310
470.4001, 29.87267
470.8822, 30.26674
471.3643, 30.41383
471.8465, 30.16551
472.3286, 29.45993
472.8107, 29.01037
473.2928, 28.83637
473.7749, 28.87921
474.2570, 29.14997
474.7392, 29.64670
475.2213, 30.09454
475.7034, 30.46770
476.1855, 30.71767
476.6676, 30.59020
477.1497, 30.14208
477.6319, 29.91113
478.1140, 30.56222
478.5961, 31.53040
479.0782, 31.80089
479.5603, 31.27092
480.0424, 30.55268
480.5246, 29.91628
481.0067, 29.46513
481.4888, 29.34926
481.9709, 29.81299
482.4530, 30.39260
482.9352, 31.00839
483.4173, 31.57620
483.8994, 31.83009
484.3815, 31.27333
484.8636, 30.71470
485.3457, 30.60715
485.8279, 31.15832
486.3100, 31.48663
486.7921, 31.04609
487.2742, 30.61202
487.7563, 30.92258
488.2384, 32.71517
488.7206, 33.97852
489.2027, 34.36457
489.6848, 34.08363
490.1669, 33.85651
490.6490, 33.71477
491.1311, 33.53508
491.6133, 33.15258
492.0954, 32.57469
492.5775, 32.50721
493.0596, 33.02206
493.5417, 33.74958
494.0238, 34.32285
494.5060, 34.76769
494.9881, 35.18605
495.4702, 35.58364
495.9523, 35.99092
496.4344, 36.44079
496.9165, 36.93101
497.3987, 37.45109
497.8808, 37.98885
498.3629, 38.56334
498.8450, 39.25725
499.3271, 40.09341
499.8092, 40.76567
500.2914, 40.85622
500.7735, 40.83233
501.2556, 41.14288
501.7377, 42.10472
502.2198, 43.15718
502.7019, 44.19367
503.1841, 45.23730
503.6662, 46.35838
504.1483, 47.69362
504.6304, 48.99025
505.1125, 50.17965
505.5946, 51.26379
506.0768, 52.23570
506.5589, 53.05101
507.0410, 53.81082
507.5231, 54.52678
508.0052, 55.13685
508.4873, 56.13222
508.9695, 57.63675
509.4516, 59.41049
509.9337, 61.02071
510.4158, 62.47363
510.8979, 63.87721
511.3800, 65.26733
511.8622, 66.65556
512.3443, 68.01913
512.8264, 69.35796
513.3085, 70.89408
513.7906, 73.18376
514.2728, 75.62164
514.7549, 77.42487
515.2370, 78.41064
515.7191, 78.85435
516.2012, 78.67512
516.6833, 78.11946
517.1655, 77.56416
517.6476, 77.31381
518.1297, 76.90328
518.6118, 76.08561
519.0939, 74.89867
519.5760, 73.79631
520.0582, 73.19551
520.5403, 72.37920
521.0224, 70.99262
521.5045, 68.73006
521.9866, 66.79122
522.4688, 65.33440
522.9509, 64.02480
523.4330, 62.40767
523.9151, 60.42377
524.3972, 58.42881
524.8793, 56.44927
525.3615, 54.57166
525.8436, 53.08467
526.3257, 51.97644
526.8078, 50.84991
527.2899, 49.22399
527.7720, 47.43772
528.2542, 46.44075
528.7363, 46.30098
529.2184, 46.15051
529.7005, 45.09624
530.1826, 43.63987
530.6647, 42.46638
531.1469, 41.86361
531.6290, 41.43630
532.1111, 40.97873
532.5932, 40.54478
533.0753, 40.24544
533.5574, 40.29520
534.0396, 40.30570
534.5217, 40.17779
535.0038, 39.90795
535.4859, 39.40436
535.9680, 38.27702
536.4501, 37.30232
536.9323, 37.00151
537.4144, 37.76597
537.8965, 38.08121
538.3786, 37.81418
538.8607, 37.23828
539.3428, 36.70546
539.8250, 36.20290
540.3071, 35.88582
540.7892, 35.90540
541.2713, 36.05693
541.7534, 35.77261
542.2355, 35.09114
542.7177, 34.42261
543.1998, 33.96666
543.6819, 33.70543
544.1640, 33.66468
544.6461, 33.85428
545.1282, 34.05292
545.6104, 34.03595
546.0925, 33.96939
546.5746, 34.05811
547.0567, 34.63817
547.5388, 34.98925
548.0209, 34.67669
548.5031, 33.97063
548.9852, 33.46031
549.4673, 33.40940
549.9494, 33.37597
550.4315, 33.20456
550.9136, 32.89665
551.3958, 32.85544
551.8779, 33.27575
552.3600, 33.63491
552.8421, 33.52596
553.3242, 32.87471
553.8063, 32.45300
554.2885, 32.29454
554.7706, 32.36292
555.2527, 32.80537
555.7348, 33.51988
556.2169, 33.83740
556.6990, 33.40914
557.1812, 32.67568
557.6633, 32.16131
558.1454, 31.85785
558.6275, 31.73467
559.1096, 31.87860
559.5917, 32.12612
560.0739, 32.37748
560.5560, 32.62743
561.0381, 32.79740
561.5202, 32.82696
562.0023, 32.78005
562.4844, 32.70528
562.9666, 32.66005
563.4487, 32.49821
563.9308, 31.95978
564.4129, 31.40907
564.8950, 31.50010
565.3771, 32.71394
565.8593, 33.43578
566.3414, 33.04820
566.8235, 31.92329
567.3056, 31.88768
567.7877, 33.08892
568.2698, 34.30908
568.7520, 34.86666
569.2341, 34.85420
569.7162, 34.49803
570.1983, 33.77813
570.6804, 33.19634
571.1625, 33.33332
571.6447, 33.89893
572.1268, 34.44968
572.6089, 34.93610
573.0910, 35.27296
573.5731, 35.23879
574.0552, 35.04763
574.5374, 35.07319
575.0195, 35.59066
575.5016, 36.18887
575.9837, 36.90509
576.4658, 37.68161
576.9479, 37.92030
577.4301, 37.12480
577.9122, 36.36705
578.3943, 36.11814
578.8764, 36.46947
579.3585, 36.86259
579.8406, 37.34422
580.3228, 37.76375
580.8049, 37.93283
581.2870, 37.86400
581.7691, 37.78503
582.2512, 37.72870
582.7333, 37.68979
583.2155, 37.59433
583.6975, 37.49804
584.1796, 37.57508
584.6617, 38.16589
585.1439, 38.77621
585.6260, 38.87437
586.1081, 38.55505
586.5902, 38.30272
587.0723, 38.27908
