##NAMES=Langbanite
##RRUFFID=R050664
##IDEAL CHEMISTRY=Mn^2+^_4_Mn^3+^_9_Sb^5+^O_16_(SiO_4_)_2_
##LOCALITY=Langban, Filipstad, Varmland, Sweden
##OWNER=RRUFF
##SOURCE=University of Arizona Mineral Museum
##DESCRIPTION=Black metallic crystals
##STATUS=The identification of this mineral has been confirmed by X-ray diffraction and chemical analysis
##URL=rruff.info/R050664
##MEASURED CHEMISTRY=(Mn^2+^_3.79_Ca_0.21_)_Σ=4_(Mn^3+^_6.45_Fe^3+^_2.55_)_Σ=9_Sb^5+^_1.00_O_16_(Si_1.00_O_4_)_2_
92.02539, 179.2526
92.50751, 185.4039
92.98962, 189.6117
93.47174, 186.9751
93.95386, 181.7303
94.43597, 176.6542
94.91809, 173.5693
95.40021, 171.6389
95.88232, 167.1668
96.36444, 158.2868
96.84656, 149.5271
97.32867, 141.8925
97.81078, 135.3290
98.29290, 129.7265
98.77502, 125.1028
99.25713, 121.5271
99.73925, 116.6552
100.2214, 109.7486
100.7035, 102.5742
101.1856, 95.34504
101.6677, 88.32410
102.1498, 82.26177
102.6320, 78.13008
103.1141, 76.65950
103.5962, 75.63760
104.0783, 75.16692
104.5604, 75.07360
105.0425, 75.39507
105.5247, 76.28767
106.0068, 77.04504
106.4889, 76.38046
106.9710, 74.34730
107.4531, 71.64893
107.9352, 68.17380
108.4173, 64.10243
108.8995, 60.39952
109.3816, 57.38300
109.8637, 54.95922
110.3458, 53.00928
110.8279, 51.55415
111.3100, 50.41681
111.7922, 49.33768
112.2743, 48.21408
112.7564, 47.52250
113.2385, 47.70712
113.7206, 48.19791
114.2027, 48.54242
114.6849, 48.54267
115.1670, 48.24831
115.6491, 47.82446
116.1312, 47.07852
116.6133, 46.41580
117.0954, 45.89322
117.5776, 45.49425
118.0597, 45.19971
118.5418, 45.00666
119.0239, 44.91715
119.5060, 44.72533
119.9881, 44.14835
120.4703, 43.74469
120.9524, 43.91711
121.4345, 44.56061
121.9166, 45.15565
122.3987, 45.20125
122.8808, 44.58294
123.3630, 44.04455
123.8451, 43.64658
124.3272, 43.29606
124.8093, 42.92238
125.2914, 42.51766
125.7735, 42.06368
126.2557, 41.43010
126.7378, 40.66680
127.2199, 40.10949
127.7020, 40.09803
128.1841, 40.42901
128.6662, 40.42480
129.1483, 39.78613
129.6305, 39.00674
130.1126, 38.52265
130.5947, 38.30435
131.0768, 38.04974
131.5589, 37.38671
132.0410, 36.22469
132.5232, 35.40059
133.0053, 35.19984
133.4874, 35.25019
133.9695, 35.49469
134.4516, 35.88313
134.9337, 36.24504
135.4159, 36.29526
135.8980, 35.79923
136.3801, 35.42034
136.8622, 35.23554
137.3443, 35.13762
137.8264, 35.05974
138.3086, 34.97258
138.7907, 34.86092
139.2728, 34.68418
139.7549, 34.49861
140.2370, 34.17318
140.7191, 33.53188
141.2013, 32.76919
141.6834, 32.21059
142.1655, 32.06448
142.6476, 32.19223
143.1297, 31.97427
143.6118, 30.99023
144.0939, 30.16990
144.5761, 30.03338
145.0582, 30.44963
145.5403, 30.81692
146.0224, 30.78898
146.5045, 30.42696
146.9866, 30.01707
147.4688, 29.49087
147.9509, 28.98538
148.4330, 28.65313
148.9151, 28.51664
149.3972, 28.41033
149.8793, 28.15471
150.3615, 27.88180
150.8436, 27.78574
151.3257, 28.03332
151.8078, 28.45297
152.2899, 28.51078
152.7720, 27.59755
153.2542, 26.83654
153.7363, 27.52134
154.2184, 27.85318
154.7005, 27.85102
155.1826, 26.51452
155.6647, 26.90105
156.1469, 26.59705
156.6290, 26.26475
157.1111, 26.89380
157.5932, 25.75138
158.0753, 26.36517
158.5574, 25.52682
159.0396, 25.86552
159.5217, 27.49088
160.0038, 28.24036
160.4859, 27.50744
160.9680, 26.58141
161.4501, 25.88519
161.9323, 25.48429
162.4144, 25.30103
162.8965, 25.27839
163.3786, 25.47266
163.8607, 25.59144
164.3428, 25.69647
164.8250, 25.69489
165.3071, 25.41610
165.7892, 24.85549
166.2713, 24.32724
166.7534, 24.26920
167.2355, 24.77025
167.7177, 25.08467
168.1998, 24.95888
168.6819, 24.66648
169.1640, 24.60141
169.6461, 24.89145
170.1282, 25.23323
170.6104, 25.20522
171.0925, 24.85568
171.5746, 24.52460
172.0567, 24.34882
172.5388, 24.29403
173.0209, 24.27108
173.5031, 24.29808
173.9852, 24.30369
174.4673, 24.21567
174.9494, 24.04310
175.4315, 23.86945
175.9136, 23.74225
176.3958, 23.66114
176.8779, 23.63278
177.3600, 23.72637
177.8421, 23.81711
178.3242, 23.81423
178.8063, 23.72284
179.2885, 23.63012
179.7706, 23.65208
180.2527, 23.83780
180.7348, 23.92140
181.2169, 23.79080
181.6990, 23.62599
182.1812, 23.51732
182.6633, 23.47944
183.1454, 23.47273
183.6275, 23.43457
184.1096, 23.31675
184.5917, 23.27526
185.0738, 23.39529
185.5560, 23.52167
186.0381, 23.53193
186.5202, 23.40071
187.0023, 23.20443
187.4844, 23.07088
187.9665, 23.01126
188.4487, 23.01116
188.9308, 23.09352
189.4129, 23.22060
189.8950, 23.38700
190.3771, 23.58797
190.8592, 23.76615
191.3414, 23.79951
191.8235, 23.60952
192.3056, 23.42218
192.7877, 23.24771
193.2698, 23.09270
193.7519, 22.95148
194.2341, 22.81373
194.7162, 22.71996
195.1983, 22.79642
195.6804, 23.10189
196.1625, 23.33348
196.6446, 23.42057
197.1268, 23.36822
197.6089, 23.14334
198.0910, 22.64562
198.5731, 22.11287
199.0552, 21.91384
199.5373, 22.06526
200.0195, 22.34694
200.5016, 22.74443
200.9837, 23.21332
201.4658, 23.52096
201.9479, 23.58099
202.4300, 23.44848
202.9122, 23.19334
203.3943, 22.80671
203.8764, 22.39414
204.3585, 21.99965
204.8406, 21.62280
205.3227, 21.36613
205.8048, 21.28856
206.2870, 21.33068
206.7691, 21.48732
207.2512, 21.75437
207.7333, 22.03265
208.2154, 22.20536
208.6975, 22.25126
209.1797, 22.31767
209.6618, 22.49946
210.1439, 22.66050
210.6260, 22.73167
211.1081, 22.69861
211.5902, 22.57776
212.0724, 22.36382
212.5545, 22.00245
213.0366, 21.71920
213.5187, 21.50830
214.0008, 21.38604
214.4829, 21.41570
214.9651, 21.58737
215.4472, 21.78159
215.9293, 21.79439
216.4114, 21.42499
216.8935, 21.30253
217.3756, 21.60812
217.8578, 21.98969
218.3399, 22.20777
218.8220, 22.20973
219.3041, 22.10514
219.7862, 22.06020
220.2683, 22.12402
220.7505, 22.15451
221.2326, 22.16867
221.7147, 22.14406
222.1968, 22.01792
222.6789, 21.79095
223.1610, 21.58085
223.6432, 21.57248
224.1253, 21.93060
224.6074, 22.15750
225.0895, 22.18342
225.5716, 22.11982
226.0537, 22.06940
226.5358, 22.05574
227.0180, 22.02654
227.5001, 21.89361
227.9822, 21.59831
228.4643, 21.39207
228.9464, 21.34428
229.4285, 21.36782
229.9107, 21.36862
230.3928, 21.32474
230.8749, 21.28405
231.3570, 21.31765
231.8391, 21.43293
232.3212, 21.53513
232.8034, 21.62778
233.2855, 21.69254
233.7676, 21.69513
234.2497, 21.62298
234.7318, 21.52761
235.2139, 21.47642
235.6961, 21.46255
236.1782, 21.41232
236.6603, 21.19854
237.1424, 20.96989
237.6245, 20.99290
238.1066, 21.35709
238.5888, 21.78286
239.0709, 22.03071
239.5530, 22.13576
240.0351, 22.16835
240.5172, 22.13034
240.9993, 22.03892
241.4815, 21.89968
241.9636, 21.66799
242.4457, 21.50794
242.9278, 21.66386
243.4099, 21.98291
243.8920, 22.13014
244.3742, 21.66739
244.8563, 20.98194
245.3384, 21.09514
245.8205, 22.41021
246.3026, 23.61560
246.7847, 23.97034
247.2668, 23.74499
247.7490, 23.31174
248.2311, 22.75240
248.7132, 22.13728
249.1953, 21.63297
249.6774, 21.27583
250.1595, 20.96558
250.6417, 20.65799
251.1238, 20.36591
251.6059, 20.09089
252.0880, 19.80167
252.5701, 19.56987
253.0522, 19.61977
253.5344, 20.16215
254.0165, 20.56933
254.4986, 20.59445
254.9807, 20.42984
255.4628, 20.28890
255.9449, 20.27179
256.4271, 20.29811
256.9092, 20.14786
257.3913, 19.63672
257.8734, 19.30976
258.3555, 19.37922
258.8376, 19.59783
259.3198, 19.73159
259.8019, 19.68833
260.2840, 19.55567
260.7661, 19.51962
261.2482, 19.63887
261.7303, 19.74743
262.2125, 19.84631
262.6946, 19.91752
263.1767, 19.94840
263.6588, 19.93456
264.1409, 19.87601
264.6230, 19.76772
265.1052, 19.58120
265.5873, 19.39700
266.0694, 19.16663
266.5515, 18.97269
267.0336, 18.89265
267.5157, 18.93656
267.9979, 19.03982
268.4800, 19.10841
268.9621, 19.12346
269.4442, 19.14246
269.9263, 19.17974
270.4084, 19.21007
270.8906, 19.21594
271.3727, 19.19582
271.8548, 19.16117
272.3369, 19.12693
272.8190, 19.10072
273.3011, 19.04822
273.7833, 18.84991
274.2654, 18.72701
274.7475, 18.87401
275.2296, 19.25080
275.7117, 19.63491
276.1938, 19.80724
276.6760, 19.74131
277.1581, 19.60958
277.6402, 19.19521
278.1223, 18.92575
278.6044, 19.13242
279.0865, 19.69715
279.5686, 20.20984
280.0508, 20.33388
280.5329, 20.06103
281.0150, 19.80028
281.4971, 19.43719
281.9792, 19.19522
282.4613, 19.21231
282.9435, 19.42105
283.4256, 19.66755
283.9077, 19.85938
284.3898, 19.99846
284.8719, 20.08821
285.3540, 20.03605
285.8362, 20.04553
286.3183, 20.23759
286.8004, 20.52175
287.2825, 20.73773
287.7646, 20.80304
288.2467, 20.74476
288.7289, 20.65232
289.2110, 20.44973
289.6931, 20.30883
290.1752, 20.25890
290.6573, 20.28641
291.1394, 20.39903
291.6216, 20.60567
292.1037, 20.83823
292.5858, 20.95243
293.0679, 20.88198
293.5500, 20.82029
294.0321, 20.72927
294.5143, 20.68051
294.9964, 20.78951
295.4785, 21.08664
295.9606, 21.43836
296.4427, 21.66422
296.9248, 21.74028
297.4070, 21.73140
297.8891, 21.57064
298.3712, 21.36657
298.8533, 21.17488
299.3354, 21.01554
299.8175, 20.96729
300.2997, 21.15012
300.7818, 21.62094
301.2639, 21.88781
301.7460, 21.86173
302.2281, 21.70589
302.7102, 21.49173
303.1924, 21.23790
303.6745, 20.97388
304.1566, 20.69803
304.6387, 20.42597
305.1208, 20.31789
305.6029, 20.60114
306.0851, 20.81320
306.5672, 20.65446
307.0493, 20.21538
307.5314, 19.79299
308.0135, 19.54377
308.4956, 19.44912
308.9778, 19.43274
309.4599, 19.63334
309.9420, 19.72970
310.4241, 19.55597
310.9062, 19.21151
311.3883, 18.86921
311.8705, 18.58810
312.3526, 18.38485
312.8347, 18.32925
313.3168, 18.50730
313.7989, 18.60559
314.2810, 18.42513
314.7632, 18.17811
315.2453, 18.21061
315.7274, 18.63027
316.2095, 19.11978
316.6916, 19.22223
317.1737, 18.82903
317.6559, 18.52038
318.1380, 18.37670
318.6201, 18.31566
319.1022, 18.25469
319.5843, 18.18496
320.0664, 18.17626
320.5485, 18.34490
321.0306, 18.70620
321.5128, 18.76654
321.9949, 18.25063
322.4770, 17.67582
322.9591, 17.36953
323.4412, 17.31338
323.9233, 17.33136
324.4055, 17.33740
324.8876, 17.31217
325.3697, 17.14060
325.8518, 16.61969
326.3339, 16.19358
326.8160, 16.04906
327.2982, 16.12022
327.7803, 16.31048
328.2624, 16.61808
328.7445, 16.91245
329.2266, 16.79266
329.7087, 15.92274
330.1909, 15.30255
330.6730, 15.31593
331.1551, 15.61201
331.6372, 15.71065
332.1193, 15.46981
332.6014, 15.12966
333.0836, 15.04915
333.5657, 15.36528
334.0478, 15.53858
334.5299, 15.43746
335.0120, 15.26193
335.4941, 15.20116
335.9763, 15.26525
336.4584, 15.29604
336.9405, 15.12783
337.4226, 14.73462
337.9047, 14.46899
338.3868, 14.37495
338.8690, 14.34725
339.3511, 14.37698
339.8332, 14.43388
340.3153, 14.43886
340.7974, 14.33254
341.2795, 14.13990
341.7617, 14.02451
342.2438, 14.01888
342.7259, 14.03908
343.2080, 14.10906
343.6901, 14.18338
344.1722, 14.16155
344.6544, 13.99785
345.1365, 13.80569
345.6186, 13.82640
346.1007, 14.31527
346.5828, 14.63391
347.0649, 14.73056
347.5471, 14.68195
348.0292, 14.51254
348.5113, 14.24583
348.9934, 13.96154
349.4755, 13.77345
349.9576, 13.74539
350.4398, 13.52673
350.9219, 12.77610
351.4040, 12.17011
351.8861, 12.11086
352.3682, 12.52748
352.8503, 13.15573
353.3325, 13.84393
353.8146, 14.56144
354.2967, 14.81000
354.7788, 14.04234
355.2609, 13.43304
355.7430, 13.36092
356.2252, 13.56157
356.7073, 13.61645
357.1894, 13.32419
357.6715, 12.86548
358.1536, 12.70199
358.6357, 13.10635
359.1179, 13.40535
359.5999, 13.62387
360.0821, 13.70751
360.5642, 13.51553
361.0463, 13.06831
361.5284, 12.63156
362.0105, 12.56143
362.4926, 12.98192
362.9748, 13.29309
363.4569, 13.39667
363.9390, 13.49000
364.4211, 13.71018
364.9032, 14.00053
365.3853, 14.19138
365.8675, 14.14430
366.3496, 13.88319
366.8317, 13.63051
367.3138, 13.30725
367.7959, 13.10400
368.2780, 13.15604
368.7602, 13.31224
369.2423, 13.36360
369.7244, 13.21426
370.2065, 13.00089
370.6886, 13.02492
371.1707, 13.43032
371.6529, 13.70783
372.1350, 13.76087
372.6171, 13.69180
373.0992, 13.49953
373.5813, 13.21399
374.0634, 12.97326
374.5456, 12.98293
375.0277, 13.26301
375.5098, 13.34490
375.9919, 13.00276
376.4740, 12.69348
376.9561, 12.67805
377.4383, 12.85710
377.9204, 12.98580
378.4025, 12.88692
378.8846, 12.66321
379.3667, 12.62420
379.8488, 12.85357
380.3310, 13.05110
380.8131, 13.07495
381.2952, 13.01542
381.7773, 12.94765
382.2594, 12.88410
382.7415, 12.84542
383.2237, 12.86440
383.7058, 12.94068
384.1879, 13.02490
384.6700, 13.17709
385.1521, 13.25034
385.6342, 13.05741
386.1164, 12.62315
386.5985, 12.27665
387.0806, 12.26225
387.5627, 12.46264
388.0448, 12.59932
388.5269, 12.63909
389.0091, 12.65249
389.4912, 12.70344
389.9733, 12.76660
390.4554, 12.78027
390.9375, 12.70527
391.4196, 12.60085
391.9018, 12.48693
392.3839, 12.37250
392.8660, 12.35668
393.3481, 12.52515
393.8302, 12.77887
394.3123, 12.93994
394.7945, 13.02719
395.2766, 12.98620
395.7587, 12.61231
396.2408, 12.14105
396.7229, 12.03780
397.2050, 12.43279
397.6872, 12.93844
398.1693, 13.13287
398.6514, 12.98291
399.1335, 12.82852
399.6156, 12.60367
400.0977, 12.44195
400.5798, 12.51465
401.0620, 12.76338
401.5441, 12.91266
402.0262, 12.76553
402.5083, 12.40465
402.9904, 12.25508
403.4725, 12.48624
403.9547, 12.68431
404.4368, 12.75945
404.9189, 12.76409
405.4010, 12.76167
405.8831, 12.77223
406.3652, 12.78037
406.8474, 12.76802
407.3295, 12.75225
407.8116, 12.65636
408.2937, 12.43625
408.7758, 12.18634
409.2579, 11.88780
409.7401, 11.59598
410.2222, 11.45206
410.7043, 11.57872
411.1864, 11.93659
411.6685, 12.18147
412.1506, 12.25583
412.6328, 12.27559
413.1149, 12.20449
413.5970, 12.11251
414.0791, 12.08731
414.5612, 12.15595
415.0433, 12.25047
415.5255, 12.26183
416.0076, 12.16640
416.4897, 12.06892
416.9718, 11.96061
417.4539, 11.86472
417.9360, 11.77143
418.4182, 11.69633
418.9003, 11.68675
419.3824, 11.80009
419.8645, 12.00347
420.3466, 12.15620
420.8287, 12.25870
421.3109, 12.30473
421.7930, 12.29932
422.2751, 12.23763
422.7572, 12.06442
423.2393, 11.72595
423.7214, 11.45787
424.2036, 11.62950
424.6857, 12.21565
425.1678, 12.55428
425.6499, 12.42527
426.1320, 12.08674
426.6141, 11.70967
427.0963, 11.31461
427.5784, 11.07672
428.0605, 11.15998
428.5426, 11.40849
429.0247, 11.59574
429.5068, 11.71035
429.9890, 11.78673
430.4711, 11.84883
430.9532, 11.88371
431.4353, 11.86283
431.9174, 11.74228
432.3995, 11.63104
432.8817, 11.58997
433.3638, 11.59711
433.8459, 11.61535
434.3280, 11.63732
434.8101, 11.63994
435.2922, 11.57787
435.7744, 11.41913
436.2565, 11.33418
436.7386, 11.37990
437.2207, 11.46006
437.7028, 11.51959
438.1849, 11.55307
438.6671, 11.56800
439.1492, 11.56870
439.6313, 11.55587
440.1134, 11.53333
440.5955, 11.37971
441.0776, 11.36936
441.5598, 11.70643
442.0418, 12.11304
442.5240, 12.28606
443.0061, 12.15602
443.4882, 11.89310
443.9703, 11.71493
444.4524, 11.64403
444.9345, 11.55038
445.4167, 11.34935
445.8988, 11.21007
446.3809, 11.23027
446.8630, 11.35479
447.3451, 11.46762
447.8272, 11.49439
448.3094, 11.48946
448.7915, 11.63282
449.2736, 12.04556
449.7557, 12.25751
450.2378, 11.95222
450.7199, 11.53787
451.2021, 11.27337
451.6842, 11.19445
452.1663, 11.23296
452.6484, 11.33730
453.1305, 11.51440
453.6126, 11.85115
454.0948, 12.47701
454.5769, 12.95904
455.0590, 12.90761
455.5411, 12.52103
456.0232, 12.09650
456.5053, 11.61818
456.9875, 11.23378
457.4696, 11.08978
457.9517, 11.15482
458.4338, 11.29469
458.9159, 11.48541
459.3980, 11.69426
459.8802, 11.88113
460.3623, 12.05191
460.8444, 12.17326
461.3265, 12.24329
461.8086, 12.25763
462.2907, 12.20311
462.7729, 12.08457
463.2550, 11.92118
463.7371, 11.71148
464.2192, 11.47538
464.7013, 11.32376
465.1834, 11.21386
465.6656, 11.23495
466.1477, 11.57936
466.6298, 11.97168
467.1119, 12.08148
467.5940, 11.84960
468.0761, 11.49528
468.5583, 11.26469
469.0404, 11.15643
469.5225, 11.17451
470.0046, 11.50630
470.4867, 11.77106
470.9688, 11.78779
471.4510, 11.67281
471.9331, 11.61538
472.4152, 11.70432
472.8973, 11.89764
473.3794, 12.16554
473.8615, 12.57288
474.3437, 12.77335
474.8258, 12.45516
475.3079, 12.10805
475.7900, 12.09290
476.2721, 12.36287
476.7542, 12.56954
477.2364, 12.39071
477.7185, 12.02132
478.2006, 11.94995
478.6827, 12.23384
479.1648, 12.48230
479.6469, 12.46627
480.1291, 12.29926
480.6112, 12.18706
481.0933, 12.14166
481.5754, 12.14146
482.0575, 12.18950
482.5396, 12.27246
483.0217, 12.35407
483.5038, 12.42496
483.9860, 12.54992
484.4681, 12.84364
484.9502, 13.31001
485.4323, 13.48089
485.9144, 13.04490
486.3965, 12.66298
486.8787, 12.62878
487.3608, 12.84258
487.8429, 13.14212
488.3250, 13.46236
488.8071, 13.74350
489.2892, 13.86630
489.7714, 13.73686
490.2535, 13.67970
490.7356, 13.70174
491.2177, 13.77631
491.6998, 13.96231
492.1819, 14.19018
492.6641, 14.26202
493.1462, 13.99528
493.6283, 13.61383
494.1104, 13.85149
494.5925, 14.99813
495.0746, 15.97376
495.5568, 16.39351
496.0389, 16.63930
496.5210, 16.97420
497.0031, 17.41263
497.4852, 17.79275
497.9673, 17.95276
498.4495, 17.96897
498.9316, 17.99057
499.4137, 17.97077
499.8958, 18.21421
500.3779, 19.07853
500.8600, 20.27679
501.3422, 21.21039
501.8243, 21.80713
502.3064, 22.23622
502.7885, 22.46874
503.2706, 22.62277
503.7527, 22.90854
504.2349, 23.37086
504.7170, 23.95667
505.1991, 24.61987
505.6812, 25.36946
506.1633, 26.17081
506.6454, 27.14216
507.1276, 28.02875
507.6097, 28.72136
508.0918, 29.27445
508.5739, 29.75300
509.0560, 30.18506
509.5381, 30.59750
510.0203, 31.01798
510.5024, 31.41709
510.9845, 31.92749
511.4666, 32.76112
511.9487, 33.49436
512.4308, 34.01765
512.9130, 34.31170
513.3951, 34.33526
513.8772, 34.02576
514.3593, 33.55991
514.8414, 33.29378
515.3235, 33.27007
515.8057, 33.11338
516.2878, 32.73054
516.7699, 32.18181
517.2520, 31.49990
517.7341, 30.70030
518.2162, 29.88529
518.6984, 29.07673
519.1805, 28.28414
519.6626, 27.51415
520.1447, 26.76765
520.6268, 26.05427
521.1089, 25.38293
521.5911, 24.74157
522.0732, 24.12822
522.5553, 23.57466
523.0374, 22.94954
523.5195, 22.09196
524.0016, 21.25333
524.4838, 20.69877
524.9659, 20.40780
525.4480, 20.16721
525.9301, 19.83738
526.4122, 19.41824
526.8943, 18.88714
527.3765, 18.05860
527.8586, 17.39478
528.3407, 16.99173
528.8228, 16.71555
529.3049, 16.46298
529.7870, 16.22124
530.2692, 16.04232
530.7513, 16.00994
531.2334, 16.08471
531.7155, 15.99861
532.1976, 15.64029
532.6797, 15.38241
533.1619, 15.63536
533.6440, 15.94424
534.1261, 15.74528
534.6082, 14.88424
535.0903, 14.09900
535.5724, 13.96606
536.0546, 14.22957
536.5367, 14.32330
537.0188, 14.16588
537.5009, 14.02601
537.9830, 14.12846
538.4651, 14.41584
538.9473, 14.55749
539.4294, 14.52948
539.9115, 14.40205
540.3936, 14.11699
540.8757, 13.77912
541.3578, 13.50609
541.8400, 13.32564
542.3221, 13.21463
542.8042, 13.15693
543.2863, 13.15347
543.7684, 13.14591
544.2505, 13.06273
544.7326, 13.06660
545.2147, 13.33700
545.6968, 13.63501
546.1790, 13.67575
546.6611, 13.39659
547.1432, 13.00274
547.6253, 12.67883
548.1074, 12.42519
548.5895, 12.26110
549.0717, 12.19308
549.5538, 12.20214
550.0359, 12.34408
550.5180, 12.53968
551.0001, 12.67540
551.4822, 12.73485
551.9644, 12.72686
552.4465, 12.62169
552.9286, 12.45961
553.4107, 12.29624
553.8928, 12.14022
554.3749, 12.08413
554.8571, 12.26031
555.3392, 12.65560
555.8213, 12.77147
556.3034, 12.25523
556.7855, 11.93134
557.2676, 12.20177
557.7498, 12.68743
558.2319, 12.93133
558.7140, 12.83208
559.1961, 12.59793
559.6782, 12.45188
560.1603, 12.39613
560.6425, 12.30414
561.1246, 12.18332
561.6067, 12.01192
562.0888, 11.66992
562.5709, 11.33494
563.0530, 11.23841
563.5352, 11.44235
564.0173, 11.70615
564.4994, 11.82966
564.9815, 11.84837
565.4636, 11.90345
565.9457, 12.03309
566.4279, 12.05002
566.9100, 11.68733
567.3921, 11.14003
567.8742, 11.09238
568.3563, 11.96872
568.8384, 12.63440
569.3206, 12.47889
569.8027, 12.01696
570.2848, 11.94344
570.7669, 12.31776
571.2490, 12.63385
571.7311, 12.41290
572.2133, 11.72847
572.6954, 11.40750
573.1775, 11.88603
573.6596, 12.13147
574.1417, 11.82058
574.6238, 11.36244
575.1060, 11.08874
575.5881, 11.04856
576.0702, 11.12485
576.5523, 11.28020
577.0344, 11.46929
577.5165, 11.47998
577.9987, 11.24860
578.4808, 11.12814
578.9629, 11.39485
579.4450, 11.76785
579.9271, 11.83130
580.4092, 11.53392
580.8914, 11.24931
581.3735, 11.13744
581.8556, 11.09732
582.3377, 11.01711
582.8198, 10.89602
583.3019, 10.77574
583.7841, 10.67227
584.2662, 10.60621
584.7483, 10.63719
585.2304, 10.86438
585.7125, 11.02723
586.1946, 11.12372
586.6768, 11.16300
