##NAMES=Langite
##RRUFFID=R060090
##IDEAL CHEMISTRY=Cu^2+^_4_S^6+^O_4_(OH)_6_&#183;2H_2_O
##LOCALITY=Allihies mine, County Cork, Ireland
##OWNER=RRUFF
##SOURCE=University of Arizona Mineral Museum
##DESCRIPTION=Blue skeletal prismatic crystals in snowflake-like groupings, associated with brochantite
##STATUS=The identification of this mineral has been confirmed by X-ray diffraction and chemical analysis
##URL=rruff.info/R060090
##MEASURED CHEMISTRY=Cu_4.00_(S_1.00_O_4_)(OH)_6_Â·2H_2_O ; darker phase: Cu_4_SO_4_(OH)_6_ ; lighter phase
171.8392, 3550.916
172.3213, 3548.341
172.8034, 3538.720
173.2856, 3535.612
173.7677, 3557.089
174.2498, 3597.523
174.7319, 3637.122
175.2140, 3663.042
175.6961, 3680.833
176.1783, 3700.028
176.6604, 3725.264
177.1425, 3746.740
177.6246, 3751.282
178.1067, 3740.191
178.5888, 3722.086
179.0710, 3694.111
179.5531, 3663.878
180.0352, 3650.815
180.5173, 3667.354
180.9994, 3695.347
181.4815, 3704.128
181.9637, 3694.231
182.4458, 3680.080
182.9279, 3670.168
183.4100, 3665.229
183.8921, 3668.776
184.3742, 3688.881
184.8564, 3715.023
185.3385, 3718.622
185.8206, 3698.201
186.3027, 3673.552
186.7848, 3664.444
187.2669, 3669.403
187.7491, 3676.773
188.2312, 3683.557
188.7133, 3689.616
189.1954, 3695.607
189.6775, 3702.190
190.1596, 3705.509
190.6418, 3696.067
191.1239, 3674.416
191.6060, 3660.724
192.0881, 3673.228
192.5702, 3706.566
193.0524, 3709.628
193.5345, 3676.508
194.0166, 3628.582
194.4987, 3602.166
194.9808, 3599.149
195.4629, 3589.032
195.9451, 3556.339
196.4272, 3501.056
196.9093, 3442.189
197.3914, 3379.866
197.8735, 3314.685
198.3556, 3244.919
198.8378, 3169.098
199.3199, 3099.440
199.8020, 3043.165
200.2841, 3001.175
200.7662, 2966.906
201.2483, 2941.346
201.7305, 2922.086
202.2126, 2902.367
202.6947, 2880.799
203.1768, 2863.969
203.6589, 2857.444
204.1410, 2862.896
204.6232, 2867.227
205.1053, 2869.182
205.5874, 2869.330
206.0695, 2869.254
206.5516, 2868.579
207.0337, 2868.658
207.5159, 2866.986
207.9980, 2859.450
208.4801, 2872.195
208.9622, 2918.354
209.4443, 2987.058
209.9264, 3020.760
210.4086, 3006.267
210.8907, 2983.235
211.3728, 2982.515
211.8549, 3009.563
212.3370, 3041.058
212.8191, 3077.265
213.3013, 3116.221
213.7834, 3143.806
214.2655, 3158.536
214.7476, 3164.284
215.2297, 3162.966
215.7118, 3151.776
216.1940, 3141.278
216.6761, 3133.682
217.1582, 3128.780
217.6403, 3123.130
218.1224, 3118.345
218.6045, 3110.771
219.0867, 3094.646
219.5688, 3062.700
220.0509, 3039.883
220.5330, 3033.264
221.0151, 3043.074
221.4972, 3053.468
221.9794, 3064.931
222.4615, 3076.534
222.9436, 3086.727
223.4257, 3092.702
223.9078, 3103.549
224.3899, 3123.446
224.8721, 3153.976
225.3542, 3174.761
225.8363, 3177.945
226.3184, 3178.989
226.8005, 3198.644
227.2827, 3249.876
227.7648, 3294.415
228.2469, 3319.131
228.7290, 3319.542
229.2111, 3334.572
229.6932, 3368.757
230.1754, 3413.680
230.6575, 3459.722
231.1396, 3508.222
231.6217, 3554.740
232.1038, 3596.132
232.5859, 3629.594
233.0681, 3673.983
233.5502, 3735.626
234.0323, 3803.417
234.5144, 3861.895
234.9965, 3906.489
235.4786, 3948.668
235.9608, 3991.072
236.4429, 4032.263
236.9250, 4079.913
237.4071, 4146.728
237.8892, 4211.691
238.3713, 4240.149
238.8535, 4218.695
239.3356, 4183.133
239.8177, 4145.144
240.2998, 4107.782
240.7819, 4055.420
241.2640, 3984.339
241.7462, 3899.599
242.2283, 3809.242
242.7104, 3713.595
243.1925, 3611.709
243.6746, 3501.966
244.1567, 3380.618
244.6389, 3261.335
245.1210, 3138.738
245.6031, 3021.585
246.0852, 2927.248
246.5673, 2862.752
247.0494, 2809.171
247.5316, 2760.565
248.0137, 2717.021
248.4958, 2678.568
248.9779, 2648.419
249.4600, 2621.747
249.9421, 2589.412
250.4243, 2546.025
250.9064, 2506.278
251.3885, 2477.013
251.8706, 2463.119
252.3527, 2441.538
252.8348, 2404.567
253.3170, 2364.706
253.7991, 2347.200
254.2812, 2360.199
254.7633, 2380.415
255.2454, 2403.285
255.7275, 2435.247
256.2097, 2442.687
256.6918, 2413.294
257.1739, 2367.766
257.6560, 2345.369
258.1381, 2355.272
258.6202, 2369.469
259.1024, 2378.293
259.5845, 2381.146
260.0666, 2380.218
260.5487, 2373.291
261.0308, 2364.275
261.5129, 2360.392
261.9951, 2363.266
262.4772, 2367.506
262.9593, 2371.833
263.4414, 2377.191
263.9235, 2377.677
264.4056, 2371.042
264.8878, 2361.628
265.3699, 2356.871
265.8520, 2357.502
266.3341, 2360.617
266.8162, 2366.007
267.2983, 2374.375
267.7805, 2380.290
268.2626, 2383.728
268.7447, 2384.654
269.2268, 2381.901
269.7089, 2373.895
270.1910, 2367.877
270.6732, 2367.239
271.1553, 2372.629
271.6374, 2377.450
272.1195, 2382.055
272.6016, 2385.580
273.0837, 2387.656
273.5659, 2389.246
274.0480, 2384.601
274.5301, 2368.537
275.0122, 2340.493
275.4943, 2319.406
275.9764, 2306.066
276.4586, 2298.198
276.9407, 2293.323
277.4228, 2291.781
277.9049, 2290.744
278.3870, 2288.960
278.8691, 2286.511
279.3513, 2285.063
279.8334, 2284.342
280.3155, 2285.323
280.7976, 2292.156
281.2798, 2305.316
281.7619, 2311.889
282.2440, 2304.496
282.7261, 2285.157
283.2082, 2268.250
283.6903, 2253.348
284.1725, 2242.454
284.6546, 2241.080
285.1367, 2248.753
285.6188, 2252.574
286.1009, 2246.376
286.5830, 2232.477
287.0652, 2220.599
287.5473, 2211.010
288.0294, 2202.484
288.5115, 2192.270
288.9936, 2181.023
289.4757, 2174.843
289.9579, 2180.643
290.4400, 2191.746
290.9221, 2186.649
291.4042, 2164.156
291.8863, 2140.406
292.3684, 2135.144
292.8506, 2143.804
293.3327, 2146.258
293.8148, 2133.041
294.2969, 2111.541
294.7790, 2095.242
295.2611, 2084.101
295.7433, 2075.829
296.2254, 2066.663
296.7075, 2058.445
297.1896, 2056.889
297.6717, 2066.354
298.1538, 2080.859
298.6360, 2092.688
299.1181, 2101.893
299.6002, 2107.833
300.0823, 2105.072
300.5644, 2099.315
301.0465, 2102.341
301.5287, 2122.622
302.0108, 2146.137
302.4929, 2158.238
302.9750, 2159.723
303.4571, 2154.509
303.9392, 2132.872
304.4214, 2109.833
304.9035, 2107.730
305.3856, 2142.190
305.8677, 2182.384
306.3498, 2195.868
306.8319, 2190.399
307.3141, 2193.746
307.7962, 2233.740
308.2783, 2285.022
308.7604, 2322.361
309.2425, 2335.532
309.7246, 2343.774
310.2068, 2356.130
310.6889, 2372.795
311.1710, 2394.323
311.6531, 2426.973
312.1352, 2460.966
312.6173, 2487.621
313.0995, 2502.095
313.5816, 2518.511
314.0637, 2544.011
314.5458, 2576.124
315.0279, 2610.342
315.5100, 2657.717
315.9922, 2697.118
316.4743, 2712.789
316.9564, 2695.781
317.4385, 2684.741
317.9206, 2697.365
318.4027, 2722.459
318.8849, 2744.383
319.3670, 2762.251
319.8491, 2773.331
320.3312, 2774.252
320.8133, 2762.703
321.2954, 2753.839
321.7776, 2748.707
322.2597, 2748.336
322.7418, 2753.823
323.2239, 2775.872
323.7060, 2793.268
324.1881, 2800.088
324.6703, 2795.438
325.1524, 2789.398
325.6345, 2781.677
326.1166, 2773.393
326.5987, 2765.270
327.0808, 2749.282
327.5630, 2743.155
328.0451, 2758.394
328.5272, 2792.984
329.0093, 2801.467
329.4914, 2759.746
329.9735, 2713.666
330.4557, 2694.992
330.9378, 2729.959
331.4199, 2746.065
331.9020, 2731.163
332.3841, 2692.049
332.8662, 2660.719
333.3484, 2635.757
333.8305, 2621.196
334.3126, 2624.632
334.7947, 2660.666
335.2768, 2666.963
335.7589, 2628.504
336.2411, 2565.208
336.7232, 2527.406
337.2053, 2521.782
337.6874, 2522.979
338.1695, 2520.194
338.6516, 2513.215
339.1338, 2504.048
339.6159, 2492.322
340.0980, 2479.168
340.5801, 2465.410
341.0622, 2450.360
341.5443, 2439.786
342.0265, 2437.539
342.5086, 2442.642
342.9907, 2445.917
343.4728, 2447.250
343.9549, 2447.092
344.4370, 2443.699
344.9192, 2437.850
345.4013, 2437.202
345.8834, 2446.323
346.3655, 2462.072
346.8476, 2476.550
347.3297, 2489.701
347.8119, 2501.688
348.2940, 2508.989
348.7761, 2514.683
349.2582, 2528.671
349.7403, 2559.845
350.2225, 2594.692
350.7046, 2611.038
351.1867, 2611.243
351.6688, 2612.396
352.1509, 2627.362
352.6331, 2651.017
353.1152, 2677.253
353.5973, 2708.945
354.0794, 2734.907
354.5615, 2738.061
355.0436, 2725.744
355.5258, 2720.291
356.0079, 2737.972
356.4900, 2765.670
356.9721, 2794.075
357.4542, 2824.072
357.9363, 2846.937
358.4185, 2851.657
358.9006, 2846.574
359.3827, 2846.123
359.8648, 2861.932
360.3469, 2879.064
360.8290, 2891.286
361.3112, 2898.441
361.7933, 2897.631
362.2754, 2878.374
362.7575, 2854.299
363.2396, 2840.160
363.7217, 2845.901
364.2039, 2855.476
364.6860, 2867.993
365.1681, 2883.401
365.6502, 2891.122
366.1323, 2881.496
366.6144, 2869.015
367.0966, 2863.617
367.5787, 2866.461
368.0608, 2875.600
368.5429, 2895.653
369.0250, 2923.499
369.5071, 2942.381
369.9893, 2946.362
370.4714, 2948.251
370.9535, 2953.217
371.4356, 2958.169
371.9177, 2974.021
372.3998, 3006.264
372.8820, 3046.881
373.3641, 3077.011
373.8462, 3092.952
374.3283, 3107.759
374.8104, 3124.804
375.2925, 3143.773
375.7747, 3172.451
376.2568, 3214.558
376.7389, 3259.485
377.2210, 3291.442
377.7031, 3309.567
378.1852, 3326.735
378.6674, 3344.747
379.1495, 3365.079
379.6316, 3397.725
380.1137, 3443.634
380.5958, 3490.785
381.0779, 3527.055
381.5601, 3554.528
382.0422, 3580.686
382.5243, 3607.520
383.0064, 3634.339
383.4885, 3660.577
383.9706, 3686.309
384.4528, 3710.255
384.9349, 3732.731
385.4170, 3752.756
385.8991, 3769.580
386.3812, 3783.647
386.8633, 3793.198
387.3455, 3792.641
387.8276, 3786.154
388.3097, 3783.318
388.7918, 3790.342
389.2739, 3802.122
389.7560, 3815.188
390.2382, 3829.352
390.7203, 3843.851
391.2024, 3864.379
391.6845, 3882.918
392.1666, 3890.412
392.6487, 3869.888
393.1309, 3850.670
393.6130, 3844.790
394.0951, 3851.537
394.5772, 3860.838
395.0593, 3868.245
395.5414, 3878.593
396.0236, 3894.875
396.5057, 3927.850
396.9878, 3954.580
397.4699, 3961.030
397.9520, 3958.048
398.4341, 3980.011
398.9163, 4055.143
399.3984, 4125.854
399.8805, 4168.046
400.3626, 4165.080
400.8447, 4183.136
401.3268, 4226.842
401.8090, 4288.164
402.2911, 4357.686
402.7732, 4435.646
403.2553, 4519.884
403.7374, 4613.312
404.2195, 4714.804
404.7017, 4797.922
405.1838, 4853.146
405.6659, 4916.849
406.1480, 5030.731
406.6301, 5196.143
407.1122, 5346.435
407.5944, 5460.601
408.0765, 5562.750
408.5586, 5712.086
409.0407, 5908.429
409.5228, 6115.567
410.0049, 6301.938
410.4871, 6478.375
410.9692, 6675.812
411.4513, 6896.658
411.9334, 7144.271
412.4155, 7431.072
412.8976, 7753.929
413.3798, 8091.012
413.8619, 8431.180
414.3440, 8787.253
414.8261, 9176.688
415.3082, 9601.661
415.7903, 10052.43
416.2725, 10521.68
416.7546, 11016.82
417.2367, 11557.80
417.7188, 12161.94
418.2009, 12786.51
418.6830, 13400.31
419.1652, 14014.95
419.6473, 14649.12
420.1294, 15324.24
420.6115, 16014.86
421.0937, 16719.29
421.5758, 17427.22
422.0579, 18140.82
422.5400, 18871.05
423.0221, 19606.09
423.5042, 20342.50
423.9864, 21085.80
424.4685, 21816.26
424.9506, 22552.74
425.4327, 23291.86
425.9148, 23956.49
426.3969, 24544.89
426.8791, 25060.76
427.3612, 25500.21
427.8433, 25860.52
428.3254, 26156.41
428.8075, 26410.14
429.2896, 26590.39
429.7718, 26586.60
430.2539, 26392.69
430.7360, 26056.63
431.2181, 25588.07
431.7002, 24991.53
432.1823, 24329.43
432.6645, 23602.11
433.1466, 22815.02
433.6287, 21973.17
434.1108, 21083.75
434.5929, 20172.48
435.0750, 19225.19
435.5572, 18282.01
436.0393, 17404.83
436.5214, 16593.81
437.0035, 15848.83
437.4856, 15188.77
437.9677, 14596.10
438.4499, 14051.42
438.9320, 13550.82
439.4141, 13095.34
439.8962, 12691.52
440.3783, 12335.93
440.8604, 12007.80
441.3426, 11702.02
441.8247, 11422.91
442.3068, 11176.28
442.7889, 10965.97
443.2710, 10772.48
443.7531, 10588.39
444.2353, 10419.84
444.7174, 10270.43
445.1995, 10168.55
445.6816, 10057.75
446.1637, 9928.394
446.6458, 9782.436
447.1280, 9626.225
447.6101, 9455.705
448.0922, 9278.667
448.5743, 9098.884
449.0564, 8907.318
449.5385, 8733.321
450.0207, 8582.264
450.5028, 8445.373
450.9849, 8312.524
451.4670, 8189.401
451.9491, 8046.951
452.4312, 7863.442
452.9134, 7647.165
453.3955, 7455.713
453.8776, 7290.357
454.3597, 7144.743
454.8418, 7023.744
455.3239, 6920.825
455.8061, 6813.493
456.2882, 6693.271
456.7703, 6569.412
457.2524, 6449.570
457.7345, 6335.864
458.2166, 6234.269
458.6988, 6150.359
459.1809, 6080.502
459.6630, 6023.911
460.1451, 5980.838
460.6272, 5943.950
461.1093, 5907.478
461.5915, 5874.933
462.0736, 5851.493
462.5557, 5836.054
463.0378, 5832.667
463.5199, 5842.494
464.0020, 5865.528
464.4842, 5902.382
464.9663, 5965.790
465.4484, 6033.550
465.9305, 6092.690
466.4126, 6123.477
466.8947, 6181.107
467.3769, 6275.530
467.8590, 6391.996
468.3411, 6508.119
468.8232, 6620.161
469.3053, 6738.400
469.7874, 6866.140
470.2696, 7003.262
470.7517, 7147.634
471.2338, 7298.639
471.7159, 7457.416
472.1980, 7622.578
472.6801, 7794.938
473.1623, 7976.614
473.6444, 8169.738
474.1265, 8371.291
474.6086, 8579.893
475.0907, 8794.130
475.5728, 9004.856
476.0550, 9201.915
476.5371, 9395.066
477.0192, 9601.592
477.5013, 9823.262
477.9834, 10037.86
478.4655, 10227.00
478.9477, 10399.90
479.4298, 10566.93
479.9119, 10743.74
480.3940, 10902.52
480.8761, 11018.27
481.3582, 11102.43
481.8404, 11186.30
482.3225, 11305.90
482.8046, 11406.09
483.2867, 11458.52
483.7688, 11448.14
484.2509, 11433.88
484.7331, 11425.48
485.2152, 11412.80
485.6973, 11387.19
486.1794, 11357.02
486.6615, 11299.65
487.1436, 11213.07
487.6258, 11096.78
488.1079, 10940.93
488.5900, 10732.64
489.0721, 10522.69
489.5542, 10342.06
490.0363, 10190.23
490.5185, 10032.89
491.0006, 9870.807
491.4827, 9702.237
491.9648, 9520.205
492.4470, 9328.559
492.9291, 9151.451
493.4112, 9002.076
493.8933, 8871.323
494.3754, 8748.409
494.8575, 8633.514
495.3397, 8535.149
495.8218, 8462.084
496.3039, 8405.305
496.7860, 8356.431
497.2681, 8313.870
497.7502, 8277.000
498.2324, 8239.710
498.7145, 8209.203
499.1966, 8194.575
499.6787, 8211.463
500.1608, 8231.921
500.6429, 8251.248
501.1251, 8268.696
501.6072, 8276.439
502.0893, 8262.546
502.5714, 8249.061
503.0535, 8247.089
503.5356, 8264.054
504.0178, 8274.991
504.4999, 8279.637
504.9820, 8278.339
505.4641, 8273.716
505.9462, 8268.077
506.4283, 8246.660
506.9105, 8200.762
507.3926, 8136.948
507.8747, 8083.056
508.3568, 8039.574
508.8389, 7993.040
509.3210, 7924.714
509.8032, 7844.837
510.2853, 7784.162
510.7674, 7750.363
511.2495, 7719.313
511.7316, 7664.313
512.2137, 7593.626
512.6959, 7525.061
513.1780, 7467.047
513.6601, 7412.074
514.1422, 7353.148
514.6243, 7291.666
515.1064, 7237.382
515.5886, 7198.453
516.0707, 7164.698
516.5528, 7130.787
517.0349, 7096.772
517.5170, 7060.431
517.9991, 7025.690
518.4813, 6987.130
518.9634, 6937.329
519.4455, 6870.683
519.9276, 6802.741
520.4097, 6738.481
520.8918, 6676.650
521.3740, 6602.286
521.8561, 6516.179
522.3382, 6414.913
522.8203, 6296.971
523.3024, 6163.117
523.7845, 6003.384
524.2667, 5810.413
524.7488, 5613.692
525.2309, 5445.210
525.7130, 5298.431
526.1951, 5154.616
526.6772, 5008.699
527.1594, 4858.721
527.6415, 4699.085
528.1236, 4533.548
528.6057, 4374.531
529.0878, 4232.045
529.5699, 4098.560
530.0521, 3970.346
530.5342, 3845.110
531.0163, 3727.792
531.4984, 3620.740
531.9805, 3520.868
532.4626, 3424.385
532.9448, 3328.188
533.4269, 3238.752
533.9090, 3158.239
534.3911, 3085.177
534.8732, 3017.928
535.3553, 2959.679
535.8375, 2899.487
536.3196, 2829.557
536.8017, 2747.644
537.2838, 2686.393
537.7659, 2648.291
538.2480, 2620.814
538.7302, 2592.547
539.2123, 2563.291
539.6944, 2533.726
540.1765, 2504.611
540.6586, 2474.094
541.1407, 2435.889
541.6229, 2392.615
542.1050, 2353.103
542.5871, 2319.021
543.0692, 2292.766
543.5513, 2283.333
544.0334, 2290.914
544.5156, 2287.776
544.9977, 2247.807
545.4798, 2199.318
545.9619, 2165.392
546.4440, 2162.059
546.9261, 2155.970
547.4083, 2141.440
547.8904, 2121.487
548.3725, 2101.509
548.8546, 2079.295
549.3367, 2060.414
549.8188, 2046.079
550.3010, 2036.239
550.7831, 2031.000
551.2652, 2031.372
551.7473, 2032.974
552.2294, 2033.587
552.7115, 2033.059
553.1937, 2029.604
553.6758, 2022.926
554.1579, 2013.963
554.6400, 2001.933
555.1221, 1988.312
555.6042, 1977.835
556.0864, 1976.224
556.5685, 1974.220
557.0506, 1960.771
557.5327, 1938.762
558.0148, 1919.114
558.4969, 1901.868
558.9791, 1892.586
559.4612, 1897.538
559.9433, 1920.711
560.4254, 1940.183
560.9075, 1953.127
561.3896, 1959.854
561.8718, 1960.639
562.3539, 1949.438
562.8360, 1942.398
563.3181, 1940.338
563.8002, 1943.358
564.2823, 1953.254
564.7645, 1971.709
565.2466, 1989.155
565.7287, 2001.848
566.2108, 2010.363
566.6929, 2017.782
567.1750, 2024.164
567.6572, 2026.777
568.1393, 2016.682
568.6214, 2002.205
569.1035, 2001.841
569.5856, 2020.792
570.0677, 2044.403
570.5499, 2063.589
571.0320, 2078.955
571.5141, 2091.619
571.9962, 2096.508
572.4783, 2104.227
572.9604, 2118.824
573.4426, 2139.765
573.9247, 2164.497
574.4068, 2193.956
574.8889, 2225.870
575.3710, 2260.184
575.8531, 2297.676
576.3353, 2330.787
576.8174, 2356.858
577.2995, 2382.019
577.7816, 2412.917
578.2637, 2449.986
578.7458, 2486.594
579.2280, 2521.409
579.7101, 2556.037
580.1922, 2588.177
580.6743, 2620.419
581.1564, 2667.372
581.6385, 2743.210
582.1207, 2833.713
582.6028, 2919.296
583.0849, 3000.446
583.5670, 3086.792
584.0491, 3175.305
584.5313, 3276.652
585.0134, 3405.270
585.4955, 3576.433
585.9776, 3730.293
586.4597, 3831.363
586.9418, 3915.162
587.4240, 4021.163
587.9061, 4167.765
588.3882, 4309.855
588.8703, 4436.506
589.3524, 4557.230
589.8345, 4701.692
590.3167, 4874.263
590.7988, 5055.337
591.2809, 5233.945
591.7630, 5412.187
592.2451, 5595.548
592.7272, 5784.387
593.2094, 5969.553
593.6915, 6149.530
594.1736, 6319.185
594.6557, 6470.476
595.1378, 6599.733
595.6199, 6708.076
596.1021, 6791.960
596.5842, 6855.717
597.0663, 6905.716
597.5485, 6934.212
598.0306, 6958.979
598.5127, 6984.897
598.9948, 7011.465
599.4769, 7036.843
599.9590, 7069.339
600.4412, 7091.379
600.9233, 7099.482
601.4054, 7094.422
601.8875, 7064.106
602.3696, 7006.618
602.8517, 6928.778
603.3339, 6827.095
603.8160, 6704.098
604.2981, 6610.558
604.7802, 6559.952
605.2623, 6514.814
605.7444, 6427.994
606.2266, 6307.852
606.7087, 6180.605
607.1908, 6040.614
607.6729, 5910.323
608.1550, 5818.216
608.6371, 5752.067
609.1193, 5668.938
609.6014, 5529.141
610.0835, 5388.141
610.5656, 5277.396
611.0477, 5203.386
611.5298, 5122.578
612.0120, 5030.517
612.4941, 4934.994
612.9762, 4840.250
613.4583, 4743.535
613.9404, 4660.036
614.4225, 4594.419
614.9047, 4535.821
615.3868, 4468.215
615.8689, 4391.575
616.3510, 4313.801
616.8331, 4239.473
617.3152, 4162.416
617.7974, 4065.502
618.2795, 3955.381
618.7616, 3852.858
619.2437, 3776.203
619.7258, 3707.032
620.2079, 3630.510
620.6901, 3546.221
621.1722, 3463.513
621.6543, 3388.752
622.1364, 3314.116
622.6185, 3233.476
623.1006, 3133.283
623.5828, 3056.323
624.0649, 3014.360
624.5470, 2984.840
625.0291, 2941.052
625.5112, 2880.878
625.9933, 2816.519
626.4755, 2748.395
626.9576, 2680.692
627.4397, 2623.703
627.9218, 2576.447
628.4039, 2531.424
628.8860, 2484.771
629.3682, 2438.137
629.8503, 2394.208
630.3324, 2352.734
630.8145, 2313.023
631.2966, 2277.274
631.7787, 2241.820
632.2609, 2202.512
632.7430, 2155.833
633.2251, 2117.122
633.7072, 2094.741
634.1893, 2078.741
634.6714, 2060.908
635.1536, 2040.314
635.6357, 2019.788
636.1178, 1999.554
636.5999, 1979.716
637.0820, 1960.918
637.5641, 1943.312
638.0463, 1924.830
638.5284, 1903.779
639.0105, 1882.165
639.4926, 1863.891
639.9747, 1848.463
640.4568, 1833.541
640.9390, 1820.455
641.4211, 1805.188
641.9032, 1779.740
642.3853, 1743.715
642.8674, 1717.544
643.3495, 1721.693
643.8317, 1730.391
644.3138, 1724.791
644.7959, 1689.441
645.2780, 1666.165
645.7601, 1662.049
646.2422, 1663.841
646.7244, 1653.251
647.2065, 1625.675
647.6886, 1611.641
648.1707, 1621.007
648.6528, 1640.331
649.1349, 1644.192
649.6171, 1633.567
650.0992, 1615.772
650.5813, 1584.330
651.0634, 1553.718
651.5455, 1547.909
652.0276, 1561.817
652.5098, 1568.398
652.9919, 1541.168
653.4740, 1511.463
653.9561, 1501.019
654.4382, 1515.960
654.9203, 1525.502
655.4025, 1524.676
655.8846, 1518.302
656.3667, 1508.439
656.8488, 1492.248
657.3309, 1481.487
657.8130, 1477.763
658.2952, 1477.214
658.7773, 1474.940
659.2594, 1470.995
659.7415, 1466.808
660.2236, 1464.398
660.7057, 1459.116
661.1879, 1436.462
661.6700, 1404.630
662.1521, 1386.852
662.6342, 1407.798
663.1163, 1434.809
663.5984, 1450.347
664.0806, 1454.321
664.5627, 1451.083
665.0448, 1435.533
