##NAMES=Langbanite
##RRUFFID=R050664
##IDEAL CHEMISTRY=Mn^2+^_4_Mn^3+^_9_Sb^5+^O_16_(SiO_4_)_2_
##LOCALITY=Langban, Filipstad, Varmland, Sweden
##OWNER=RRUFF
##SOURCE=University of Arizona Mineral Museum
##DESCRIPTION=Black metallic crystals
##STATUS=The identification of this mineral has been confirmed by X-ray diffraction and chemical analysis
##URL=rruff.info/R050664
##MEASURED CHEMISTRY=(Mn^2+^_3.79_Ca_0.21_)_Σ=4_(Mn^3+^_6.45_Fe^3+^_2.55_)_Σ=9_Sb^5+^_1.00_O_16_(Si_1.00_O_4_)_2_
89.78156, 0.0000000E+00
90.26367, 12.34553
90.74579, 12.48970
91.22791, 12.43428
91.71002, 12.20035
92.19214, 11.97191
92.67426, 12.03830
93.15638, 12.24579
93.63850, 12.17146
94.12061, 11.43692
94.60273, 10.38896
95.08485, 9.846247
95.56696, 9.843934
96.04908, 10.14184
96.53120, 10.64860
97.01331, 11.33281
97.49543, 11.73327
97.97755, 11.46597
98.45966, 10.58336
98.94178, 10.06409
99.42390, 9.999118
99.90602, 10.17662
100.3881, 10.16845
100.8703, 9.909504
101.3524, 9.696626
101.8345, 9.767252
102.3166, 10.26961
102.7987, 10.38418
103.2808, 9.911480
103.7630, 9.013510
104.2451, 8.419961
104.7272, 8.191674
105.2093, 8.180370
105.6914, 8.320697
106.1735, 8.809716
106.6557, 9.105159
107.1378, 9.064307
107.6199, 8.672761
108.1020, 8.423982
108.5841, 8.459711
109.0662, 8.562349
109.5484, 8.537298
110.0305, 8.169080
110.5126, 7.886748
110.9947, 7.777388
111.4768, 7.870646
111.9590, 7.998772
112.4411, 8.229676
112.9232, 8.468540
113.4053, 8.586714
113.8874, 8.377987
114.3695, 8.195227
114.8517, 8.188908
115.3338, 8.443962
115.8159, 8.703050
116.2980, 8.944445
116.7801, 9.141021
117.2622, 9.234324
117.7444, 9.067951
118.2265, 8.872513
118.7086, 8.818665
119.1907, 9.059586
119.6728, 9.268599
120.1549, 9.169759
120.6371, 8.848522
121.1192, 8.650681
121.6013, 8.782007
122.0834, 9.142016
122.5655, 9.635496
123.0476, 10.41302
123.5298, 11.15564
124.0119, 11.44824
124.4940, 11.32709
124.9761, 11.30508
125.4582, 12.01487
125.9404, 13.11289
126.4225, 13.91773
126.9046, 13.82947
127.3867, 13.38834
127.8688, 13.52685
128.3509, 14.28921
128.8331, 15.20045
129.3152, 15.73477
129.7973, 15.95762
130.2794, 16.18531
130.7615, 16.59239
131.2436, 17.12491
131.7258, 17.58151
132.2079, 17.93773
132.6900, 18.26776
133.1721, 18.60816
133.6542, 18.95574
134.1364, 19.53659
134.6185, 20.59248
135.1006, 22.10626
135.5827, 23.47528
136.0648, 24.65213
136.5469, 25.68052
137.0291, 26.68789
137.5112, 27.69400
137.9933, 28.56815
138.4754, 29.26178
138.9575, 29.78275
139.4396, 30.02845
139.9218, 29.95131
140.4039, 29.59042
140.8860, 29.03442
141.3681, 28.06236
141.8502, 27.29752
142.3323, 27.34817
142.8145, 28.62558
143.2966, 29.65243
143.7787, 30.13584
144.2608, 30.08953
144.7429, 30.11797
145.2250, 30.19366
145.7072, 30.36989
146.1893, 30.71724
146.6714, 31.41467
147.1535, 32.00766
147.6356, 32.28814
148.1178, 32.13495
148.5999, 32.48697
149.0820, 33.69430
149.5641, 35.26007
150.0462, 36.59520
150.5283, 37.80390
151.0105, 38.66200
151.4926, 38.67138
151.9747, 37.91400
152.4568, 37.39128
152.9389, 37.22188
153.4210, 37.27344
153.9032, 37.36135
154.3853, 37.88256
154.8674, 38.08229
155.3495, 37.59285
155.8316, 35.87116
156.3137, 34.68447
156.7959, 34.58292
157.2780, 35.16170
157.7601, 35.66309
158.2422, 36.10966
158.7243, 36.30811
159.2065, 36.10876
159.6886, 35.11729
160.1707, 34.38689
160.6528, 33.99900
161.1349, 34.45016
161.6170, 34.71125
162.0992, 34.79246
162.5813, 34.15506
163.0634, 34.44559
163.5455, 34.36425
164.0276, 34.26766
164.5097, 34.68880
164.9919, 34.15592
165.4740, 34.56884
165.9561, 34.60422
166.4382, 34.81239
166.9203, 34.64640
167.4024, 34.59001
167.8846, 34.48829
168.3667, 34.29564
168.8488, 34.04815
169.3309, 33.98621
169.8130, 34.13997
170.2952, 34.56675
170.7773, 34.80344
171.2594, 34.86026
171.7415, 34.19846
172.2236, 34.46461
172.7057, 34.35888
173.1879, 34.23789
173.6700, 34.63464
174.1521, 34.07736
174.6342, 34.46589
175.1163, 34.47688
175.5984, 34.30803
176.0806, 34.16694
176.5627, 34.00510
177.0448, 33.94934
177.5269, 34.25879
178.0090, 34.77167
178.4911, 35.11119
178.9733, 34.91940
179.4554, 34.51467
179.9375, 34.44661
180.4196, 34.74910
180.9017, 35.11796
181.3838, 35.23936
181.8660, 35.16067
182.3481, 35.05222
182.8302, 34.95020
183.3123, 34.87833
183.7944, 34.90619
184.2766, 35.04683
184.7587, 35.22886
185.2408, 35.39955
185.7229, 35.55055
186.2050, 35.63741
186.6871, 35.56552
187.1693, 35.39790
187.6514, 35.38872
188.1335, 35.57212
188.6156, 35.82899
189.0977, 35.99903
189.5798, 36.08405
190.0620, 36.14266
190.5441, 36.16231
191.0262, 36.16278
191.5083, 36.29378
191.9904, 36.59214
192.4725, 36.95928
192.9547, 37.18956
193.4368, 37.27809
193.9189, 37.45141
194.4010, 37.91425
194.8831, 38.63987
195.3652, 39.22371
195.8474, 39.67004
196.3295, 39.91749
196.8116, 39.75377
197.2937, 39.13908
197.7758, 38.50396
198.2579, 38.09336
198.7401, 37.91003
199.2222, 37.81763
199.7043, 37.85132
200.1864, 37.92169
200.6685, 37.81238
201.1507, 37.50123
201.6328, 37.11426
202.1149, 36.72191
202.5970, 36.32692
203.0791, 35.64356
203.5612, 35.98421
204.0434, 36.13476
204.5255, 36.10545
205.0076, 35.35754
205.4897, 35.53756
205.9718, 35.60950
206.4539, 35.49371
206.9361, 35.41227
207.4182, 35.39798
207.9003, 35.43913
208.3824, 35.52655
208.8645, 35.70880
209.3466, 35.81182
209.8288, 35.68341
210.3109, 35.24118
210.7930, 34.92843
211.2751, 34.79417
211.7572, 34.49094
212.2393, 34.93578
212.7215, 35.19054
213.2036, 35.26542
213.6857, 34.62170
214.1678, 34.90591
214.6499, 34.81825
215.1320, 34.71534
215.6142, 35.13015
216.0963, 34.59095
216.5784, 34.99755
217.0605, 35.02661
217.5426, 35.09227
218.0247, 35.79311
218.5069, 36.23872
218.9890, 36.75174
219.4711, 37.07467
219.9532, 37.21772
220.4353, 36.64217
220.9175, 36.99457
221.3996, 36.97508
221.8817, 36.94034
222.3638, 37.40503
222.8459, 37.43549
223.3280, 37.29456
223.8102, 37.15330
224.2923, 36.98262
224.7744, 36.85130
225.2565, 36.81163
225.7386, 36.90380
226.2207, 36.99064
226.7029, 37.06829
227.1850, 37.13233
227.6671, 37.15581
228.1492, 37.12999
228.6313, 37.07612
229.1134, 37.00213
229.5956, 36.88797
230.0777, 36.79711
230.5598, 36.73285
231.0419, 36.69545
231.5240, 36.69199
232.0062, 36.76504
232.4883, 36.81524
232.9704, 36.77404
233.4525, 36.58438
233.9346, 36.43106
234.4167, 36.33781
234.8989, 36.29303
235.3810, 36.24841
235.8631, 36.22878
236.3452, 36.17498
236.8273, 36.03133
237.3094, 35.68674
237.7916, 35.49768
238.2737, 35.53799
238.7558, 35.75071
239.2379, 35.89326
239.7200, 35.91392
240.2021, 35.93375
240.6843, 36.03654
241.1664, 36.32906
241.6485, 36.45544
242.1306, 36.28706
242.6127, 35.94224
243.0948, 35.91538
243.5770, 36.48686
244.0591, 36.98984
244.5412, 37.03035
245.0233, 36.26375
245.5054, 35.81819
245.9876, 35.83403
246.4697, 36.18150
246.9518, 36.46391
247.4339, 36.69066
247.9160, 36.83948
248.3981, 36.89431
248.8803, 36.83457
249.3624, 36.70893
249.8445, 36.39349
250.3266, 36.04413
250.8087, 36.14454
251.2908, 36.99198
251.7730, 37.80693
252.2551, 38.19779
252.7372, 37.93753
253.2193, 37.85786
253.7014, 38.06436
254.1835, 38.40512
254.6657, 38.51158
255.1478, 38.25592
255.6299, 37.99031
256.1120, 37.85390
256.5941, 37.87169
257.0763, 37.94802
257.5584, 38.10028
258.0405, 38.30160
258.5226, 38.50185
259.0047, 38.71586
259.4868, 38.90218
259.9690, 39.03750
260.4511, 39.10826
260.9332, 39.18786
261.4153, 39.27086
261.8974, 39.36836
262.3795, 39.50714
262.8617, 39.71690
263.3438, 39.90012
263.8259, 40.03690
264.3080, 40.13311
264.7901, 40.11261
265.2722, 39.91520
265.7544, 39.67208
266.2365, 39.57794
266.7186, 39.66195
267.2007, 39.80914
267.6828, 40.02643
268.1649, 40.33001
268.6471, 40.42612
269.1292, 40.24150
269.6113, 39.96825
270.0934, 39.85135
270.5755, 39.92707
271.0576, 40.01647
271.5398, 40.07209
272.0219, 40.09555
272.5040, 40.12183
272.9861, 40.14502
273.4682, 40.18277
273.9503, 40.25922
274.4325, 40.38035
274.9146, 40.50505
275.3967, 40.62542
275.8788, 40.74190
276.3610, 40.84736
276.8431, 40.93641
277.3252, 41.02757
277.8073, 41.16822
278.2894, 41.37241
278.7715, 41.44881
279.2537, 41.28680
279.7358, 40.98564
280.2179, 41.02596
280.7000, 41.48529
281.1821, 41.93982
281.6642, 42.00591
282.1464, 41.68126
282.6285, 41.38423
283.1106, 41.13964
283.5927, 40.99971
284.0748, 41.18717
284.5569, 41.74077
285.0391, 42.27484
285.5212, 42.50069
286.0033, 42.44075
286.4854, 42.35067
286.9675, 42.23863
287.4496, 42.14640
287.9318, 42.18218
288.4139, 42.34829
288.8960, 42.51767
289.3781, 42.62103
289.8602, 42.66587
290.3423, 42.68201
290.8245, 42.66405
291.3066, 42.64010
291.7887, 42.64214
292.2708, 42.67197
292.7529, 42.74700
293.2350, 42.90606
293.7172, 43.12032
294.1993, 43.32495
294.6814, 43.53613
295.1635, 43.65115
295.6456, 43.40379
296.1277, 42.89604
296.6099, 42.56936
297.0920, 42.78910
297.5741, 43.29784
298.0562, 43.59458
298.5383, 43.66179
299.0204, 43.62299
299.5026, 43.59255
299.9847, 43.55149
300.4668, 43.44412
300.9489, 43.13667
301.4311, 42.81031
301.9132, 42.77629
302.3953, 43.02383
302.8774, 43.28768
303.3595, 43.37918
303.8416, 43.33862
304.3238, 43.23205
304.8059, 43.03922
305.2880, 42.83210
305.7701, 42.69505
306.2522, 42.61732
306.7343, 42.54208
307.2165, 42.49361
307.6986, 42.40331
308.1807, 42.16775
308.6628, 41.67357
309.1449, 41.16576
309.6270, 40.74374
310.1092, 40.43659
310.5913, 40.35321
311.0734, 40.83262
311.5555, 41.41066
312.0376, 41.64339
312.5197, 41.34260
313.0019, 40.98863
313.4840, 40.89936
313.9661, 40.94906
314.4482, 40.88017
314.9303, 40.43228
315.4124, 39.93964
315.8946, 39.59589
316.3767, 39.42670
316.8588, 39.38788
317.3409, 39.62200
317.8230, 39.93310
318.3051, 40.06238
318.7873, 39.82450
319.2694, 39.48423
319.7515, 39.13246
320.2336, 38.77478
320.7157, 38.41438
321.1978, 37.98994
321.6800, 37.59441
322.1621, 37.31364
322.6442, 37.46049
323.1263, 37.41849
323.6084, 36.85384
324.0905, 35.81976
324.5727, 35.15777
325.0548, 35.30979
325.5369, 35.67004
326.0190, 35.87317
326.5012, 35.84671
326.9833, 35.71393
327.4654, 35.37830
327.9475, 34.91451
328.4296, 34.62849
328.9117, 34.74224
329.3939, 34.83798
329.8760, 34.73222
330.3581, 34.22727
330.8402, 33.88236
331.3223, 33.73381
331.8044, 33.73188
332.2866, 33.78627
332.7687, 33.95025
333.2508, 34.09337
333.7329, 34.21548
334.2150, 34.37202
334.6971, 34.18598
335.1793, 33.41862
335.6614, 32.53678
336.1435, 32.20158
336.6256, 32.63237
337.1077, 33.02618
337.5898, 33.18257
338.0720, 33.11452
338.5541, 33.01427
339.0362, 32.88123
339.5183, 32.71853
340.0004, 32.49083
340.4825, 32.16605
340.9647, 32.01032
341.4468, 32.12940
341.9289, 32.41561
342.4110, 32.50881
342.8931, 32.38794
343.3752, 32.20529
343.8574, 32.03070
344.3395, 31.86714
344.8216, 31.80938
345.3037, 31.89404
345.7858, 32.03129
346.2679, 32.00673
346.7501, 31.83672
347.2322, 31.79438
347.7143, 32.03693
348.1964, 32.31946
348.6785, 32.41191
349.1607, 31.98918
349.6428, 32.40319
350.1249, 32.62711
350.6070, 32.67115
351.0891, 31.99659
351.5713, 32.24997
352.0534, 32.13146
352.5355, 31.99771
353.0176, 32.38169
353.4997, 31.81165
353.9818, 32.18742
354.4640, 32.18563
354.9461, 32.35664
355.4282, 31.81144
355.9103, 32.29462
356.3924, 32.58772
356.8745, 32.70095
357.3567, 32.09558
357.8388, 32.41813
358.3209, 32.36881
358.8030, 32.30424
359.2851, 32.75739
359.7672, 32.25653
360.2494, 32.70148
360.7315, 32.76888
361.2136, 33.00907
361.6957, 32.87510
362.1778, 32.85668
362.6599, 33.21256
363.1421, 33.36120
363.6242, 33.18415
364.1063, 33.43532
364.5884, 32.92139
365.0705, 33.07885
365.5526, 33.52599
366.0348, 33.36775
366.5169, 33.62577
366.9990, 33.72525
367.4811, 33.64919
367.9632, 33.88455
368.4453, 34.04728
368.9275, 34.13977
369.4096, 34.08706
369.8917, 34.07042
370.3738, 34.14224
370.8559, 34.25043
371.3380, 34.23519
371.8202, 33.94560
372.3023, 33.73838
372.7844, 33.78606
373.2665, 34.18755
373.7487, 34.42079
374.2308, 34.38591
374.7129, 34.28370
375.1950, 34.41233
375.6771, 34.85960
376.1592, 35.26242
376.6414, 35.53245
377.1235, 35.67628
377.6056, 35.75254
378.0877, 35.73928
378.5698, 35.73327
379.0519, 35.81179
379.5341, 35.97424
380.0162, 36.20763
380.4983, 36.51408
380.9804, 36.88453
381.4625, 37.35386
381.9446, 37.92333
382.4268, 38.34534
382.9089, 38.41176
383.3910, 38.20737
383.8731, 37.96294
384.3552, 37.66882
384.8373, 37.47450
385.3195, 37.65275
385.8016, 38.09017
386.2837, 38.45603
386.7658, 38.47288
387.2479, 38.39775
387.7300, 38.59782
388.2122, 39.06242
388.6943, 39.53509
389.1764, 39.87539
389.6585, 40.09424
390.1406, 40.17796
390.6227, 40.00385
391.1049, 39.86622
391.5870, 40.01773
392.0691, 40.37430
392.5512, 40.68275
393.0333, 40.88605
393.5154, 40.96311
393.9976, 40.81873
394.4797, 40.29942
394.9618, 40.05349
395.4439, 40.56611
395.9260, 41.39295
396.4081, 41.94111
396.8903, 41.97402
397.3724, 41.83234
397.8545, 41.53877
398.3366, 41.08780
398.8188, 40.74713
399.3009, 40.60810
399.7830, 40.53664
400.2651, 40.44638
400.7472, 40.26402
401.2293, 40.17714
401.7115, 40.25029
402.1936, 40.41916
402.6757, 40.49160
403.1578, 40.45414
403.6399, 40.34110
404.1220, 40.14430
404.6042, 39.83496
405.0863, 39.62561
405.5684, 39.57947
406.0505, 39.53540
406.5326, 39.20255
407.0147, 38.51311
407.4969, 38.06450
407.9790, 38.10509
408.4611, 38.48674
408.9432, 38.57195
409.4253, 38.33273
409.9074, 38.08661
410.3896, 38.13560
410.8717, 38.40538
411.3538, 38.55321
411.8359, 38.50518
412.3180, 38.37606
412.8001, 38.34781
413.2823, 38.38634
413.7644, 38.35296
414.2465, 38.10933
414.7286, 37.78025
415.2107, 37.51109
415.6928, 37.31045
416.1750, 37.17920
416.6571, 37.16103
417.1392, 37.20170
417.6213, 37.23004
418.1034, 37.26921
418.5855, 37.23912
419.0677, 37.00120
419.5498, 36.62767
420.0319, 36.39828
420.5140, 36.65690
420.9961, 36.92855
421.4782, 36.87018
421.9604, 36.23660
422.4425, 35.81101
422.9246, 35.89412
423.4067, 36.24713
423.8889, 36.54469
424.3710, 36.93031
424.8531, 37.06112
425.3352, 36.68996
425.8173, 35.81245
426.2994, 35.39277
426.7816, 35.71532
427.2637, 36.21201
427.7458, 36.51567
428.2279, 36.54660
428.7100, 36.58678
429.1921, 36.66813
429.6743, 36.75904
430.1564, 36.75297
430.6385, 36.60303
431.1206, 36.54029
431.6027, 36.72190
432.0848, 37.13168
432.5670, 37.29887
433.0491, 37.16969
433.5312, 37.02115
434.0133, 37.23748
434.4954, 37.74759
434.9775, 38.04692
435.4597, 37.92958
435.9418, 37.64189
436.4239, 37.64787
436.9060, 37.90425
437.3881, 38.13319
437.8702, 38.09234
438.3524, 37.93871
438.8345, 37.88939
439.3166, 37.96906
439.7987, 38.13854
440.2808, 38.48553
440.7629, 38.88038
441.2451, 39.11794
441.7272, 38.97354
442.2093, 38.78039
442.6914, 38.69212
443.1735, 38.70491
443.6556, 38.77703
444.1378, 38.90985
444.6199, 39.08703
445.1020, 39.30925
445.5841, 39.64042
446.0662, 39.89195
446.5483, 39.94257
447.0305, 39.91888
447.5126, 40.03839
447.9947, 40.54522
448.4768, 40.89819
448.9590, 40.90993
449.4411, 40.56969
449.9232, 40.42113
450.4053, 40.54731
450.8874, 40.74218
451.3695, 40.84065
451.8517, 40.80343
452.3338, 40.84057
452.8159, 40.96660
453.2980, 41.17897
453.7801, 41.55657
454.2622, 42.11917
454.7444, 42.50295
455.2265, 42.42898
455.7086, 42.02557
456.1907, 41.84681
456.6728, 41.90112
457.1549, 42.05371
457.6371, 42.21032
458.1192, 42.36832
458.6013, 42.53758
459.0834, 42.75259
459.5655, 42.91674
460.0476, 42.87805
460.5298, 42.69194
461.0119, 42.52509
461.4940, 42.52803
461.9761, 42.53818
462.4582, 42.34481
462.9403, 41.90144
463.4225, 41.68043
463.9046, 42.11930
464.3867, 42.78157
464.8688, 43.24398
465.3509, 43.19899
465.8330, 43.18790
466.3152, 43.36440
466.7973, 43.66848
467.2794, 43.88004
467.7615, 43.84675
468.2436, 43.85926
468.7257, 44.04145
469.2079, 44.45234
469.6900, 44.74452
470.1721, 44.86902
470.6542, 44.92498
471.1363, 44.98419
471.6184, 45.00540
472.1006, 45.20332
472.5827, 45.65421
473.0648, 46.28203
473.5469, 46.90180
474.0291, 47.52417
474.5112, 48.01610
474.9933, 48.22298
475.4754, 48.21922
475.9575, 48.30078
476.4396, 48.47193
476.9218, 48.77839
477.4039, 49.36426
477.8860, 50.11953
478.3681, 50.77862
478.8502, 51.21342
479.3323, 51.57125
479.8145, 51.98267
480.2966, 52.44020
480.7787, 52.89714
481.2608, 53.30068
481.7429, 53.72390
482.2250, 54.24074
482.7072, 54.88311
483.1893, 55.47593
483.6714, 55.87098
484.1535, 56.22647
484.6356, 56.70180
485.1177, 57.34354
485.5999, 58.08702
486.0820, 59.03893
486.5641, 60.10598
487.0462, 60.95374
487.5283, 61.41820
488.0104, 61.88282
488.4926, 62.46716
488.9747, 63.14387
489.4568, 64.11985
489.9389, 65.47639
490.4210, 66.97239
490.9031, 68.33340
491.3853, 69.56091
491.8674, 70.68372
492.3495, 71.55832
492.8316, 72.49709
493.3137, 74.38680
493.7958, 77.14617
494.2780, 79.79176
494.7601, 81.39507
495.2422, 82.57034
495.7243, 84.55106
496.2064, 87.44582
496.6885, 90.41071
497.1707, 92.71355
497.6528, 94.74589
498.1349, 97.04660
498.6170, 99.85117
499.0992, 102.8674
499.5813, 106.1140
500.0634, 109.4775
500.5455, 112.7128
501.0276, 115.5479
501.5097, 118.3974
501.9919, 121.4171
502.4740, 124.5902
502.9561, 128.0190
503.4382, 131.9981
503.9203, 136.0696
504.4024, 139.9379
504.8846, 143.3902
505.3667, 146.9740
505.8488, 150.6876
506.3309, 154.5440
506.8130, 158.6732
507.2951, 163.1861
507.7773, 167.4182
508.2594, 171.0330
508.7415, 174.1057
509.2236, 177.2778
509.7057, 180.5684
510.1878, 183.7132
510.6700, 186.6455
511.1521, 189.2843
511.6342, 191.4924
512.1163, 193.2883
512.5984, 194.4307
513.0806, 194.6324
513.5627, 193.9839
514.0448, 192.6735
514.5269, 190.6137
515.0090, 188.0586
515.4911, 185.2774
515.9733, 182.1924
516.4554, 178.4068
516.9375, 173.4743
517.4196, 167.9763
517.9017, 162.1576
518.3839, 155.7667
518.8660, 149.7300
519.3481, 144.5237
519.8302, 139.5715
520.3123, 134.3516
520.7944, 128.6081
521.2766, 122.9859
521.7587, 117.4498
522.2408, 112.1447
522.7229, 107.4884
523.2050, 103.5774
523.6871, 99.96275
524.1693, 96.37278
524.6514, 92.88467
525.1335, 89.74068
525.6156, 86.95068
526.0977, 84.37365
526.5798, 81.79198
527.0620, 79.26254
527.5441, 76.99821
528.0262, 75.06850
528.5083, 73.37875
528.9904, 71.96794
529.4725, 70.74447
529.9547, 69.49619
530.4368, 68.03912
530.9189, 66.59624
531.4010, 65.28831
531.8831, 64.10826
532.3652, 63.14471
532.8474, 62.64445
533.3295, 62.19806
533.8116, 61.51539
534.2937, 60.23659
534.7758, 59.30846
535.2579, 59.07055
535.7401, 59.03843
536.2222, 58.46749
536.7043, 56.98597
537.1864, 55.83820
537.6685, 55.40766
538.1506, 55.49834
538.6328, 55.20053
539.1149, 54.46301
539.5970, 53.64158
540.0791, 52.92998
540.5612, 52.31136
541.0433, 51.77206
541.5255, 51.31767
542.0076, 50.87873
542.4897, 50.36424
542.9718, 49.81316
543.4539, 49.28797
543.9360, 48.77658
544.4182, 48.35775
544.9003, 48.21207
545.3824, 48.21057
545.8645, 48.06728
546.3466, 47.66772
546.8287, 47.09914
547.3109, 46.28874
547.7930, 45.23855
548.2751, 44.42941
548.7572, 44.04748
549.2393, 43.84144
549.7214, 43.68613
550.2036, 43.60793
550.6857, 43.54075
551.1678, 43.56767
551.6499, 43.52098
552.1320, 43.09830
552.6141, 42.21867
553.0963, 41.48741
553.5784, 41.06886
554.0605, 40.86777
554.5426, 40.63873
555.0247, 40.38620
555.5068, 40.18948
555.9890, 40.14916
556.4711, 40.18035
556.9532, 40.14008
557.4353, 40.02239
557.9174, 39.85272
558.3995, 39.65668
558.8817, 39.41737
559.3638, 39.09098
559.8459, 38.56514
560.3281, 38.16790
560.8102, 38.18072
561.2923, 38.37577
561.7744, 38.39499
562.2565, 37.97021
562.7386, 37.58599
563.2208, 37.31400
563.7029, 37.15705
564.1850, 37.13757
564.6671, 37.33065
565.1492, 37.52946
565.6313, 37.65754
566.1135, 37.71964
566.5956, 37.58292
567.0777, 37.18520
567.5598, 36.81115
568.0419, 36.86863
568.5240, 37.25016
569.0062, 37.36963
569.4883, 37.03613
569.9704, 36.58167
570.4525, 36.44128
570.9346, 36.51862
571.4167, 36.57078
571.8989, 36.45731
572.3810, 36.30366
572.8631, 36.26955
573.3452, 36.31179
573.8273, 36.13798
574.3094, 35.26111
574.7916, 34.43581
575.2737, 34.11613
575.7558, 34.54452
576.2379, 34.84246
576.7200, 34.99945
577.2021, 35.00935
577.6843, 34.81427
578.1664, 34.26371
578.6485, 33.99173
579.1306, 34.16394
579.6127, 34.53141
580.0948, 34.52304
580.5770, 34.13774
581.0591, 33.92629
581.5412, 34.27613
582.0233, 34.84891
582.5054, 34.86031
582.9875, 34.36408
583.4697, 33.76112
583.9518, 33.13869
