##NAMES=Lannonite
##RRUFFID=R090036
##IDEAL CHEMISTRY=HCa_4_Mg_2_Al_4_(S^6+^O_4_)_8_F_9_&#183;32H_2_O
##LOCALITY=Lone Pine mine, Catron County, New Mexico, USA
##OWNER=RRUFF
##SOURCE=Bob Jenkins
##DESCRIPTION=Transparent colorless thin square tabular crystals on matrix
##STATUS=The identification of this mineral has been confirmed by single-crystal X-ray diffraction.
##URL=rruff.info/R090036
91.11523, 46.91578
91.59735, 47.43839
92.07947, 46.96128
92.56158, 45.80075
93.04370, 44.95322
93.52582, 45.15941
94.00793, 46.06288
94.49006, 46.97794
94.97218, 47.91545
95.45429, 48.66576
95.93641, 48.77335
96.41853, 48.25298
96.90064, 47.70869
97.38276, 47.52964
97.86488, 47.69934
98.34699, 48.08449
98.82911, 48.76502
99.31123, 49.59302
99.79334, 50.04516
100.2755, 50.06328
100.7576, 49.89300
101.2397, 49.64288
101.7218, 49.21922
102.2039, 49.18616
102.6861, 49.82182
103.1682, 51.12024
103.6503, 51.86027
104.1324, 51.77990
104.6145, 51.43829
105.0966, 51.50210
105.5788, 52.09214
106.0609, 52.88764
106.5430, 53.86344
107.0251, 55.14056
107.5072, 56.16523
107.9893, 56.46618
108.4715, 56.63840
108.9536, 57.74733
109.4357, 60.41811
109.9178, 63.48090
110.3999, 66.58310
110.8820, 69.30779
111.3642, 72.70992
111.8463, 77.02386
112.3284, 82.07776
112.8105, 87.41166
113.2926, 92.59920
113.7747, 98.38457
114.2569, 105.0875
114.7390, 112.8469
115.2211, 121.4755
115.7032, 130.7882
116.1853, 140.8485
116.6674, 151.9296
117.1496, 163.8470
117.6317, 177.1161
118.1138, 192.0351
118.5959, 208.6626
119.0780, 227.1164
119.5602, 247.4014
120.0423, 269.6816
120.5244, 293.7116
121.0065, 319.2789
121.4886, 346.5672
121.9707, 375.9474
122.4529, 408.9600
122.9350, 442.9732
123.4171, 475.8310
123.8992, 507.4185
124.3813, 538.1453
124.8634, 568.6813
125.3456, 598.6413
125.8277, 627.2707
126.3098, 653.6950
126.7919, 678.4600
127.2740, 701.6360
127.7561, 722.8040
128.2383, 744.1125
128.7204, 767.7068
129.2025, 793.5360
129.6846, 821.3304
130.1667, 850.6784
130.6488, 881.5568
131.1310, 915.6638
131.6131, 953.1828
132.0952, 993.9753
132.5773, 1038.570
133.0594, 1087.218
133.5415, 1136.956
134.0237, 1186.756
134.5058, 1236.774
134.9879, 1285.759
135.4700, 1334.068
135.9521, 1381.230
136.4343, 1427.611
136.9164, 1473.688
137.3985, 1517.596
137.8806, 1558.425
138.3627, 1596.462
138.8448, 1631.132
139.3270, 1662.432
139.8091, 1690.686
140.2912, 1717.418
140.7733, 1742.519
141.2554, 1766.724
141.7375, 1790.523
142.2197, 1814.355
142.7018, 1837.180
143.1839, 1858.316
143.6660, 1877.453
144.1481, 1898.150
144.6302, 1919.812
145.1124, 1943.398
145.5945, 1969.828
146.0766, 2000.789
146.5587, 2032.490
147.0408, 2063.813
147.5230, 2094.051
148.0051, 2125.657
148.4872, 2149.620
148.9693, 2162.019
149.4514, 2174.584
149.9335, 2187.148
150.4157, 2200.306
150.8978, 2214.211
151.3799, 2230.231
151.8620, 2244.834
152.3441, 2257.881
152.8262, 2269.752
153.3084, 2280.805
153.7905, 2291.267
154.2726, 2300.795
154.7547, 2309.552
155.2368, 2318.476
155.7189, 2324.802
156.2011, 2326.399
156.6832, 2325.048
157.1653, 2325.128
157.6474, 2327.928
158.1295, 2331.921
158.6116, 2336.446
159.0938, 2342.667
159.5759, 2347.546
160.0580, 2349.247
160.5401, 2348.703
161.0222, 2349.151
161.5044, 2352.655
161.9865, 2356.875
162.4686, 2360.174
162.9507, 2360.666
163.4328, 2361.824
163.9149, 2365.531
164.3971, 2371.336
164.8792, 2376.859
165.3613, 2381.459
165.8434, 2385.111
166.3255, 2387.781
166.8076, 2388.133
167.2898, 2388.671
167.7719, 2391.375
168.2540, 2395.971
168.7361, 2399.966
169.2182, 2401.344
169.7003, 2401.481
170.1825, 2402.014
170.6646, 2403.693
171.1467, 2405.869
171.6288, 2408.183
172.1109, 2410.587
172.5931, 2412.830
173.0752, 2414.853
173.5573, 2416.535
174.0394, 2417.706
174.5215, 2417.556
175.0036, 2417.180
175.4858, 2418.090
175.9679, 2420.331
176.4500, 2422.351
176.9321, 2422.104
177.4142, 2420.599
177.8963, 2420.149
178.3785, 2422.704
178.8606, 2426.621
179.3427, 2429.407
179.8248, 2431.044
180.3069, 2431.840
180.7890, 2431.405
181.2712, 2430.214
181.7533, 2429.789
182.2354, 2431.313
182.7175, 2434.036
183.1996, 2436.487
183.6818, 2438.703
184.1639, 2440.300
184.6460, 2440.219
185.1281, 2438.849
185.6102, 2438.275
186.0923, 2440.660
186.5745, 2444.776
187.0566, 2446.365
187.5387, 2444.949
188.0208, 2442.288
188.5029, 2440.239
188.9850, 2438.863
189.4672, 2438.555
189.9493, 2440.193
190.4314, 2443.326
190.9135, 2445.426
191.3956, 2446.134
191.8777, 2446.425
192.3599, 2448.290
192.8420, 2451.733
193.3241, 2454.307
193.8062, 2453.744
194.2883, 2450.445
194.7704, 2449.492
195.2526, 2451.500
195.7347, 2455.113
196.2168, 2457.875
196.6989, 2459.653
197.1810, 2461.608
197.6632, 2464.772
198.1453, 2469.140
198.6274, 2471.965
199.1095, 2472.787
199.5916, 2472.435
200.0737, 2472.570
200.5559, 2473.275
201.0380, 2474.100
201.5201, 2474.870
202.0022, 2475.634
202.4843, 2476.347
202.9664, 2477.027
203.4486, 2477.743
203.9307, 2478.604
204.4128, 2479.632
204.8949, 2480.829
205.3770, 2482.415
205.8591, 2484.559
206.3413, 2485.583
206.8234, 2484.670
207.3055, 2483.059
207.7876, 2484.372
208.2697, 2489.448
208.7519, 2494.708
209.2340, 2498.292
209.7161, 2499.948
210.1982, 2500.931
210.6803, 2501.054
211.1624, 2500.674
211.6446, 2500.641
212.1267, 2500.791
212.6088, 2501.780
213.0909, 2504.547
213.5730, 2510.190
214.0551, 2513.402
214.5373, 2513.234
215.0194, 2510.843
215.5015, 2509.347
215.9836, 2508.755
216.4657, 2509.114
216.9478, 2510.787
217.4300, 2514.598
217.9121, 2516.816
218.3942, 2516.349
218.8763, 2514.423
219.3584, 2515.015
219.8405, 2519.490
220.3227, 2523.794
220.8048, 2525.637
221.2869, 2523.857
221.7690, 2522.841
222.2511, 2522.760
222.7333, 2523.513
223.2154, 2525.042
223.6975, 2528.247
224.1796, 2530.817
224.6617, 2531.365
225.1438, 2528.639
225.6260, 2527.458
226.1081, 2528.542
226.5902, 2531.179
227.0723, 2533.277
227.5544, 2534.816
228.0365, 2535.974
228.5187, 2536.751
229.0008, 2536.816
229.4829, 2537.248
229.9650, 2538.077
230.4471, 2539.196
230.9292, 2540.341
231.4114, 2541.264
231.8935, 2542.445
232.3756, 2544.137
232.8577, 2546.765
233.3398, 2548.791
233.8220, 2550.184
234.3041, 2550.942
234.7862, 2550.870
235.2683, 2548.976
235.7504, 2547.826
236.2325, 2548.807
236.7147, 2553.397
237.1968, 2556.444
237.6789, 2557.616
238.1610, 2557.522
238.6431, 2557.366
239.1252, 2557.102
239.6074, 2557.012
240.0895, 2557.194
240.5716, 2557.606
241.0537, 2558.478
241.5358, 2559.751
242.0179, 2561.499
242.5001, 2564.028
242.9822, 2568.132
243.4643, 2571.584
243.9464, 2573.220
244.4285, 2571.906
244.9106, 2572.365
245.3928, 2575.419
245.8749, 2579.625
246.3570, 2582.501
246.8391, 2583.529
247.3212, 2583.982
247.8034, 2584.017
248.2855, 2583.257
248.7676, 2583.843
249.2497, 2586.652
249.7318, 2590.230
250.2139, 2592.219
250.6961, 2591.552
251.1782, 2591.403
251.6603, 2593.061
252.1424, 2597.137
252.6245, 2599.609
253.1066, 2599.937
253.5888, 2599.235
254.0709, 2598.890
254.5530, 2598.933
255.0351, 2599.237
255.5172, 2599.497
255.9993, 2599.532
256.4815, 2601.641
256.9636, 2607.426
257.4457, 2613.499
257.9278, 2615.479
258.4099, 2610.871
258.8921, 2607.941
259.3742, 2609.353
259.8563, 2615.198
260.3384, 2618.259
260.8205, 2617.140
261.3026, 2615.069
261.7848, 2615.470
262.2669, 2619.433
262.7490, 2622.790
263.2311, 2624.270
263.7132, 2624.084
264.1953, 2625.844
264.6775, 2630.530
265.1596, 2635.534
265.6417, 2638.308
266.1238, 2638.000
266.6059, 2638.360
267.0880, 2640.031
267.5702, 2642.910
268.0523, 2646.613
268.5344, 2652.171
269.0165, 2656.519
269.4986, 2656.476
269.9807, 2650.476
270.4629, 2647.198
270.9450, 2648.432
271.4271, 2653.040
271.9092, 2656.515
272.3913, 2658.684
272.8734, 2660.177
273.3556, 2661.094
273.8377, 2661.205
274.3198, 2662.330
274.8019, 2664.999
275.2840, 2668.513
275.7661, 2670.809
276.2483, 2671.562
276.7304, 2672.395
277.2125, 2674.245
277.6946, 2677.174
278.1768, 2680.566
278.6589, 2684.744
279.1410, 2688.938
279.6231, 2691.201
280.1052, 2691.254
280.5873, 2691.526
281.0695, 2694.060
281.5516, 2698.819
282.0337, 2700.411
282.5158, 2697.917
282.9979, 2693.929
283.4800, 2692.368
283.9622, 2693.268
284.4443, 2695.418
284.9264, 2699.067
285.4085, 2703.845
285.8906, 2706.450
286.3727, 2706.355
286.8549, 2705.840
287.3370, 2708.366
287.8191, 2713.748
288.3012, 2718.408
288.7833, 2720.945
289.2654, 2721.719
289.7476, 2721.796
290.2297, 2721.112
290.7118, 2720.417
291.1939, 2720.746
291.6760, 2721.924
292.1581, 2722.772
292.6403, 2723.052
293.1224, 2722.769
293.6045, 2721.748
294.0866, 2720.011
294.5687, 2718.057
295.0508, 2716.003
295.5330, 2714.015
296.0151, 2712.716
296.4972, 2712.313
296.9793, 2712.565
297.4614, 2713.102
297.9435, 2713.924
298.4257, 2715.073
298.9078, 2716.938
299.3899, 2719.118
299.8720, 2720.574
300.3541, 2720.864
300.8362, 2720.986
301.3184, 2722.405
301.8005, 2724.839
302.2826, 2727.061
302.7647, 2727.884
303.2469, 2728.192
303.7290, 2729.547
304.2111, 2732.409
304.6932, 2735.126
305.1753, 2735.150
305.6574, 2733.651
306.1396, 2733.417
306.6217, 2738.001
307.1038, 2743.405
307.5859, 2744.716
308.0680, 2741.236
308.5501, 2737.820
309.0323, 2738.699
309.5144, 2741.979
309.9965, 2744.637
310.4786, 2744.854
310.9607, 2744.440
311.4428, 2744.534
311.9250, 2745.181
312.4071, 2746.436
312.8892, 2748.914
313.3713, 2751.800
313.8534, 2754.256
314.3355, 2755.444
314.8177, 2756.629
315.2998, 2758.651
315.7819, 2761.313
316.2640, 2763.636
316.7461, 2764.376
317.2282, 2765.002
317.7104, 2766.794
318.1925, 2771.599
318.6746, 2775.221
319.1567, 2775.882
319.6388, 2774.228
320.1209, 2771.968
320.6031, 2767.844
321.0852, 2764.577
321.5673, 2763.831
322.0494, 2767.162
322.5315, 2769.931
323.0136, 2770.722
323.4958, 2770.483
323.9779, 2770.743
324.4600, 2772.627
324.9421, 2774.343
325.4242, 2775.227
325.9064, 2775.066
326.3885, 2775.069
326.8706, 2775.535
327.3527, 2776.161
327.8348, 2776.628
328.3170, 2775.800
328.7991, 2776.013
329.2812, 2778.011
329.7633, 2781.837
330.2454, 2784.973
330.7275, 2787.124
331.2097, 2788.678
331.6918, 2789.798
332.1739, 2789.690
332.6560, 2790.306
333.1381, 2791.963
333.6202, 2794.434
334.1024, 2796.822
334.5845, 2799.333
335.0666, 2801.360
335.5487, 2802.680
336.0308, 2803.484
336.5129, 2802.976
336.9951, 2800.681
337.4772, 2797.503
337.9593, 2795.023
338.4414, 2793.194
338.9235, 2792.498
339.4056, 2793.770
339.8878, 2797.337
340.3699, 2798.693
340.8520, 2797.190
341.3341, 2794.800
341.8162, 2794.118
342.2983, 2795.289
342.7805, 2796.485
343.2626, 2796.974
343.7447, 2796.948
344.2268, 2797.630
344.7089, 2799.054
345.1910, 2800.606
345.6732, 2801.614
346.1553, 2802.129
346.6374, 2802.801
347.1195, 2803.955
347.6016, 2805.094
348.0837, 2804.780
348.5659, 2803.146
349.0480, 2802.131
349.5301, 2803.514
350.0122, 2806.594
350.4944, 2809.476
350.9765, 2811.902
351.4586, 2814.376
351.9407, 2818.426
352.4228, 2823.274
352.9049, 2826.256
353.3871, 2824.500
353.8692, 2820.758
354.3513, 2818.513
354.8334, 2817.950
355.3155, 2818.125
355.7976, 2817.882
356.2798, 2817.877
356.7619, 2819.192
357.2440, 2823.143
357.7261, 2827.739
358.2082, 2831.980
358.6903, 2835.739
359.1725, 2838.344
359.6546, 2838.722
360.1367, 2838.104
360.6188, 2837.516
361.1009, 2837.052
361.5830, 2836.910
362.0652, 2837.491
362.5473, 2838.501
363.0294, 2839.200
363.5115, 2839.170
363.9936, 2838.952
364.4757, 2838.932
364.9579, 2839.420
365.4400, 2839.378
365.9221, 2837.283
366.4042, 2835.006
366.8863, 2834.910
367.3684, 2840.795
367.8506, 2845.450
368.3327, 2847.011
368.8148, 2845.226
369.2969, 2842.969
369.7790, 2839.458
370.2611, 2836.062
370.7433, 2833.699
371.2254, 2832.472
371.7075, 2832.129
372.1896, 2832.945
372.6717, 2834.627
373.1538, 2835.998
373.6360, 2836.858
374.1181, 2837.642
374.6002, 2838.495
375.0823, 2839.357
375.5645, 2840.505
376.0466, 2842.137
376.5287, 2843.812
377.0108, 2844.773
377.4929, 2844.933
377.9750, 2844.766
378.4572, 2844.057
378.9393, 2843.028
379.4214, 2844.182
379.9035, 2848.046
380.3856, 2851.947
380.8677, 2852.301
381.3499, 2849.494
381.8320, 2848.807
382.3141, 2852.058
382.7962, 2857.238
383.2783, 2860.146
383.7604, 2860.851
384.2426, 2861.178
384.7247, 2862.169
385.2068, 2863.648
385.6889, 2865.392
386.1710, 2867.436
386.6531, 2869.361
387.1353, 2870.911
387.6174, 2872.028
388.0995, 2872.583
388.5816, 2871.752
389.0637, 2870.838
389.5458, 2871.794
390.0280, 2874.610
390.5101, 2876.485
390.9922, 2873.532
391.4743, 2869.460
391.9564, 2868.586
392.4385, 2875.665
392.9207, 2881.991
393.4028, 2881.918
393.8849, 2877.267
394.3670, 2873.480
394.8491, 2872.492
395.3312, 2873.020
395.8134, 2874.639
396.2955, 2877.920
396.7776, 2880.458
397.2597, 2880.953
397.7418, 2880.618
398.2239, 2881.049
398.7061, 2883.594
399.1882, 2885.768
399.6703, 2887.076
400.1524, 2887.522
400.6346, 2887.295
401.1167, 2885.230
401.5988, 2883.519
402.0809, 2883.759
402.5630, 2887.328
403.0451, 2890.113
403.5273, 2891.616
404.0094, 2892.166
404.4915, 2892.662
404.9736, 2893.060
405.4557, 2893.391
405.9378, 2893.616
406.4200, 2893.699
406.9021, 2894.048
407.3842, 2894.881
407.8663, 2895.497
408.3484, 2894.708
408.8305, 2892.509
409.3127, 2890.870
409.7948, 2890.618
410.2769, 2891.237
410.7590, 2891.072
411.2411, 2890.163
411.7232, 2889.631
412.2054, 2890.716
412.6875, 2892.881
413.1696, 2894.487
413.6517, 2895.198
414.1338, 2895.687
414.6159, 2896.574
415.0981, 2897.804
415.5802, 2899.279
416.0623, 2900.558
416.5444, 2902.191
417.0265, 2905.018
417.5086, 2909.022
417.9908, 2912.650
418.4729, 2914.574
418.9550, 2915.678
419.4371, 2916.884
419.9192, 2918.702
420.4013, 2920.376
420.8835, 2920.979
421.3656, 2921.108
421.8477, 2922.560
422.3298, 2927.978
422.8119, 2933.176
423.2940, 2936.198
423.7762, 2936.289
424.2583, 2935.968
424.7404, 2934.949
425.2225, 2933.915
425.7047, 2933.578
426.1868, 2933.568
426.6689, 2934.808
427.1510, 2937.907
427.6331, 2942.661
428.1152, 2946.867
428.5974, 2950.648
429.0795, 2953.766
429.5616, 2955.831
430.0437, 2956.317
430.5258, 2958.081
431.0079, 2961.793
431.4901, 2966.070
431.9722, 2967.948
432.4543, 2967.076
432.9364, 2967.155
433.4185, 2970.091
433.9006, 2975.145
434.3828, 2978.822
434.8649, 2981.030
435.3470, 2983.047
435.8291, 2986.983
436.3112, 2991.848
436.7933, 2993.869
437.2755, 2991.271
437.7576, 2987.953
438.2397, 2989.634
438.7218, 2995.016
439.2039, 2999.690
439.6860, 2999.442
440.1682, 2998.318
440.6503, 3001.113
441.1324, 3008.271
441.6145, 3014.981
442.0966, 3017.672
442.5787, 3018.574
443.0609, 3020.095
443.5430, 3024.192
444.0251, 3027.583
444.5072, 3028.247
444.9893, 3027.015
445.4714, 3026.984
445.9536, 3029.656
446.4357, 3033.022
446.9178, 3036.258
447.3999, 3039.215
447.8820, 3042.539
448.3641, 3047.019
448.8463, 3051.585
449.3284, 3055.097
449.8105, 3056.973
450.2926, 3058.946
450.7747, 3061.198
451.2569, 3063.786
451.7390, 3067.052
452.2211, 3071.261
452.7032, 3075.412
453.1853, 3078.948
453.6674, 3081.842
454.1496, 3084.219
454.6317, 3086.220
455.1138, 3087.196
455.5959, 3085.636
456.0780, 3081.744
456.5602, 3078.275
457.0423, 3077.147
457.5244, 3076.496
458.0065, 3072.231
458.4886, 3064.638
458.9707, 3056.031
459.4529, 3048.102
459.9350, 3040.352
460.4171, 3032.103
460.8992, 3022.886
461.3813, 3014.194
461.8634, 3007.143
462.3456, 3001.368
462.8277, 2996.389
463.3098, 2991.608
463.7919, 2987.815
464.2740, 2985.867
464.7561, 2985.595
465.2383, 2984.911
465.7204, 2982.709
466.2025, 2980.129
466.6846, 2977.852
467.1667, 2975.844
467.6488, 2974.218
468.1310, 2972.520
468.6131, 2971.283
469.0952, 2971.401
469.5773, 2973.515
470.0594, 2975.987
470.5415, 2978.790
471.0237, 2981.870
471.5058, 2983.723
471.9879, 2984.547
472.4700, 2983.765
472.9521, 2979.953
473.4342, 2972.825
473.9164, 2968.683
474.3985, 2968.599
474.8806, 2970.621
475.3627, 2971.927
475.8448, 2972.519
476.3270, 2972.322
476.8091, 2970.776
477.2912, 2968.638
477.7733, 2967.392
478.2554, 2967.009
478.7375, 2967.032
479.2197, 2967.429
479.7018, 2967.910
480.1839, 2968.033
480.6660, 2967.591
481.1481, 2967.113
481.6302, 2967.183
482.1124, 2967.419
482.5945, 2967.172
483.0766, 2965.873
483.5587, 2964.343
484.0408, 2962.714
484.5229, 2961.031
485.0051, 2959.952
485.4872, 2961.010
485.9693, 2961.691
486.4514, 2960.270
486.9335, 2953.256
487.4156, 2950.355
487.8978, 2954.243
488.3799, 2960.852
488.8620, 2963.653
489.3441, 2961.143
489.8262, 2958.627
490.3083, 2957.484
490.7905, 2957.528
491.2726, 2957.387
491.7547, 2957.071
492.2368, 2956.563
492.7189, 2955.452
493.2010, 2953.941
493.6832, 2953.570
494.1653, 2954.456
494.6474, 2956.465
495.1295, 2960.146
495.6116, 2964.904
496.0938, 2969.045
496.5759, 2972.652
497.0580, 2974.673
497.5401, 2972.778
498.0222, 2967.718
498.5044, 2963.450
498.9865, 2961.942
499.4686, 2962.304
499.9507, 2964.358
500.4328, 2968.816
500.9149, 2972.085
501.3971, 2972.475
501.8792, 2971.256
502.3613, 2969.908
502.8434, 2967.907
503.3255, 2966.648
503.8076, 2966.805
504.2898, 2967.978
504.7719, 2968.311
505.2540, 2967.017
505.7361, 2965.952
506.2182, 2965.913
506.7003, 2967.024
507.1825, 2968.437
507.6646, 2970.493
508.1467, 2972.146
508.6288, 2971.911
509.1109, 2969.824
509.5930, 2968.136
510.0752, 2967.306
510.5573, 2967.188
511.0394, 2967.799
511.5215, 2969.028
512.0037, 2970.040
512.4858, 2970.086
512.9679, 2969.778
513.4500, 2969.963
513.9321, 2970.661
514.4142, 2971.563
514.8964, 2973.248
515.3785, 2974.633
515.8606, 2974.326
516.3427, 2970.530
516.8248, 2967.550
517.3069, 2967.574
517.7891, 2969.465
518.2712, 2971.132
518.7533, 2972.393
519.2354, 2973.085
519.7175, 2972.784
520.1996, 2971.528
520.6818, 2971.136
521.1639, 2971.981
521.6460, 2973.253
522.1281, 2974.531
522.6102, 2975.870
523.0923, 2977.107
523.5745, 2978.372
524.0566, 2979.309
524.5387, 2979.080
525.0208, 2977.684
525.5029, 2976.826
525.9850, 2976.913
526.4672, 2977.915
526.9493, 2980.731
527.4314, 2985.026
527.9135, 2987.719
528.3956, 2986.109
528.8777, 2982.142
529.3599, 2977.890
529.8420, 2973.382
530.3241, 2970.402
530.8062, 2971.586
531.2883, 2974.343
531.7704, 2975.704
532.2526, 2973.470
532.7347, 2971.652
533.2168, 2971.889
533.6989, 2973.435
534.1810, 2974.534
534.6631, 2973.422
535.1453, 2973.473
535.6274, 2976.327
536.1095, 2982.171
536.5916, 2985.333
537.0737, 2984.735
537.5558, 2983.173
538.0380, 2982.207
538.5201, 2981.690
539.0022, 2982.933
539.4843, 2986.427
539.9664, 2990.609
540.4485, 2993.156
540.9307, 2994.167
541.4128, 2994.663
541.8949, 2994.784
542.3770, 2994.675
542.8591, 2994.294
543.3412, 2993.749
543.8234, 2993.723
544.3055, 2995.200
544.7876, 2997.003
545.2697, 2997.915
545.7518, 2997.752
546.2339, 2997.465
546.7161, 2997.589
547.1982, 2997.790
547.6803, 2997.780
548.1624, 2997.344
548.6445, 2996.998
549.1266, 2996.915
549.6088, 2997.063
550.0909, 2997.441
550.5730, 2999.075
551.0551, 2999.403
551.5372, 2997.060
552.0193, 2992.558
552.5015, 2991.156
552.9836, 2993.557
553.4657, 2996.623
553.9478, 2998.353
554.4299, 2998.817
554.9120, 2998.781
555.3942, 2998.145
555.8763, 2997.501
556.3584, 2996.854
556.8405, 2996.671
557.3226, 2998.517
557.8047, 3004.404
558.2869, 3010.107
558.7690, 3011.128
559.2511, 3008.843
559.7332, 3006.713
560.2154, 3005.366
560.6975, 3005.438
561.1796, 3008.081
561.6617, 3013.418
562.1439, 3017.462
562.6260, 3019.623
563.1081, 3020.142
563.5902, 3019.099
564.0723, 3015.104
564.5544, 3012.564
565.0366, 3011.896
565.5187, 3012.218
566.0008, 3012.185
566.4829, 3011.520
566.9650, 3012.101
567.4471, 3015.031
567.9293, 3018.698
568.4114, 3018.347
568.8935, 3014.237
569.3756, 3010.319
569.8577, 3009.246
570.3398, 3009.673
570.8220, 3009.254
571.3041, 3007.970
571.7862, 3006.808
572.2683, 3006.811
572.7504, 3007.118
573.2325, 3006.885
573.7147, 3005.923
574.1968, 3004.569
574.6789, 3002.563
575.1610, 3000.421
575.6431, 2998.782
576.1252, 2998.166
576.6074, 2997.660
577.0895, 2997.216
577.5716, 2996.828
578.0537, 2996.316
578.5358, 2995.387
579.0179, 2995.061
579.5001, 2995.979
579.9822, 2998.029
580.4643, 2999.238
580.9464, 2999.462
581.4285, 2999.701
581.9106, 3000.884
582.3928, 3002.786
582.8749, 3004.745
583.3570, 3006.733
583.8391, 3008.474
584.3212, 3009.788
584.8033, 3010.659
585.2855, 3011.055
585.7676, 3010.043
586.2497, 3009.552
586.7318, 3011.087
587.2139, 3013.948
587.6960, 3016.121
