##NAMES=Lannonite
##RRUFFID=R090036
##IDEAL CHEMISTRY=HCa_4_Mg_2_Al_4_(S^6+^O_4_)_8_F_9_&#183;32H_2_O
##LOCALITY=Lone Pine mine, Catron County, New Mexico, USA
##OWNER=RRUFF
##SOURCE=Bob Jenkins
##DESCRIPTION=Transparent colorless thin square tabular crystals on matrix
##STATUS=The identification of this mineral has been confirmed by single-crystal X-ray diffraction.
##URL=rruff.info/R090036
92.06543, 202.8261
92.54755, 202.6145
93.02966, 203.5401
93.51178, 204.1128
93.99390, 203.5367
94.47601, 202.2020
94.95813, 200.3769
95.44025, 198.1781
95.92236, 195.6605
96.40448, 192.7320
96.88660, 190.0301
97.36871, 187.6868
97.85082, 185.5691
98.33294, 183.6372
98.81506, 181.7739
99.29717, 179.5853
99.77929, 177.3720
100.2614, 175.1840
100.7435, 173.2881
101.2256, 171.8415
101.7078, 170.6763
102.1899, 169.4161
102.6720, 167.7845
103.1541, 166.3039
103.6362, 165.3666
104.1183, 164.9524
104.6005, 164.8421
105.0826, 164.9851
105.5647, 165.4382
106.0468, 165.6474
106.5289, 165.2587
107.0110, 164.6796
107.4931, 164.1425
107.9753, 163.7090
108.4574, 163.2833
108.9395, 162.6596
109.4216, 161.6240
109.9037, 160.7039
110.3858, 159.9706
110.8680, 159.3536
111.3501, 158.7896
111.8322, 158.2427
112.3143, 157.7144
112.7964, 157.2106
113.2785, 156.7226
113.7607, 156.2615
114.2428, 155.8262
114.7249, 155.4190
115.2070, 155.0376
115.6891, 154.6764
116.1712, 154.3420
116.6534, 154.0913
117.1355, 153.8987
117.6176, 153.7974
118.0997, 153.8728
118.5818, 154.1430
119.0639, 154.3890
119.5461, 154.3542
120.0282, 154.1187
120.5103, 153.9031
120.9924, 153.5908
121.4745, 153.3479
121.9566, 153.6865
122.4388, 155.1301
122.9209, 156.4049
123.4030, 156.5749
123.8851, 155.8542
124.3672, 154.9849
124.8493, 154.4572
125.3315, 154.2741
125.8136, 154.3482
126.2957, 155.1991
126.7778, 155.9221
127.2599, 155.9552
127.7420, 155.3285
128.2242, 154.6113
128.7063, 154.6344
129.1884, 155.9649
129.6705, 156.8824
130.1526, 157.3168
130.6347, 157.4555
131.1169, 157.3783
131.5990, 157.1261
132.0811, 156.7655
132.5632, 156.4419
133.0453, 156.1216
133.5274, 155.8851
134.0096, 155.6044
134.4917, 155.4374
134.9738, 155.6713
135.4559, 156.4904
135.9380, 157.6933
136.4201, 158.5720
136.9023, 158.9508
137.3844, 159.3212
137.8665, 159.8773
138.3486, 160.5972
138.8307, 161.4410
139.3128, 162.6459
139.7950, 163.8074
140.2771, 164.0733
140.7592, 162.8628
141.2413, 161.2915
141.7234, 160.6111
142.2055, 161.0253
142.6877, 161.2895
143.1698, 160.5704
143.6519, 159.3473
144.1340, 158.1153
144.6161, 157.0902
145.0982, 156.1588
145.5803, 154.9759
146.0625, 153.2653
146.5446, 151.7554
147.0267, 150.7290
147.5088, 150.0318
147.9909, 149.4533
148.4730, 148.9158
148.9552, 148.3994
149.4373, 147.5446
149.9194, 145.5204
150.4015, 143.9075
150.8836, 143.3116
151.3657, 143.5060
151.8479, 143.8936
152.3300, 143.9663
152.8121, 143.6978
153.2942, 143.2354
153.7763, 142.3858
154.2584, 141.5496
154.7406, 140.8971
155.2227, 140.4541
155.7048, 140.1868
156.1869, 140.1180
156.6690, 140.4034
157.1511, 140.1875
157.6333, 139.0208
158.1154, 137.6153
158.5975, 136.6102
159.0796, 136.1441
159.5617, 135.9381
160.0438, 135.6568
160.5260, 135.2929
161.0081, 134.9866
161.4902, 134.8323
161.9723, 134.7493
162.4544, 134.6026
162.9365, 134.3784
163.4187, 134.0465
163.9008, 133.5571
164.3829, 132.9218
164.8650, 132.2624
165.3471, 131.5666
165.8292, 130.8661
166.3113, 130.3996
166.7935, 130.3618
167.2756, 130.4541
167.7577, 130.4751
168.2398, 130.4112
168.7219, 130.2702
169.2040, 130.0963
169.6862, 129.9173
170.1683, 129.5120
170.6504, 128.5589
171.1325, 127.5559
171.6146, 126.7198
172.0967, 126.1093
172.5789, 125.7084
173.0610, 125.5407
173.5431, 125.7725
174.0252, 125.8570
174.5073, 125.7031
174.9894, 125.4518
175.4716, 125.2001
175.9537, 124.9813
176.4358, 124.7668
176.9179, 124.5050
177.4000, 124.2665
177.8821, 123.8607
178.3643, 122.8354
178.8464, 120.7249
179.3285, 122.1544
179.8106, 122.9535
180.2927, 123.1559
180.7748, 120.9748
181.2570, 121.8716
181.7391, 121.5349
182.2212, 121.1476
182.7033, 122.4775
183.1854, 120.6431
183.6675, 121.9458
184.1497, 121.9963
184.6318, 122.6199
185.1139, 122.0024
185.5960, 121.9500
186.0781, 121.9381
186.5602, 121.7208
187.0423, 121.4436
187.5245, 121.1072
188.0066, 120.8244
188.4887, 120.8447
188.9708, 121.3397
189.4529, 121.8275
189.9350, 121.9009
190.4172, 121.6075
190.8993, 121.4941
191.3814, 121.9760
191.8635, 122.6878
192.3456, 123.1069
192.8277, 123.1279
193.3099, 122.9556
193.7920, 122.7147
194.2741, 122.3755
194.7562, 122.1915
195.2383, 122.5621
195.7204, 123.0128
196.2026, 123.1041
196.6847, 122.6698
197.1668, 122.0049
197.6489, 121.4968
198.1310, 121.0948
198.6131, 121.0226
199.0953, 121.6849
199.5774, 122.5159
200.0595, 123.0039
200.5416, 122.9461
201.0237, 122.5345
201.5058, 122.1690
201.9880, 121.8068
202.4701, 121.5831
202.9522, 121.5157
203.4343, 121.5739
203.9164, 121.7593
204.3985, 122.0756
204.8807, 122.4622
205.3628, 122.7212
205.8449, 121.4528
206.3270, 122.8503
206.8091, 123.6172
207.2912, 123.7876
207.7733, 121.5744
208.2555, 122.4391
208.7376, 122.0703
209.2197, 121.6509
209.7018, 122.9488
210.1839, 121.0823
210.6660, 122.3529
211.1482, 122.3713
211.6303, 121.7189
212.1124, 121.7711
212.5945, 122.1207
213.0766, 122.3266
213.5587, 122.3191
214.0409, 122.2664
214.5230, 122.1921
215.0051, 122.0953
215.4872, 121.9641
215.9693, 121.7859
216.4514, 121.5796
216.9336, 121.4179
217.4157, 121.2179
217.8978, 121.1466
218.3799, 121.3656
218.8620, 121.7655
219.3441, 122.0866
219.8263, 122.2213
220.3084, 122.1698
220.7905, 121.9676
221.2726, 121.6293
221.7547, 121.1496
222.2368, 120.3758
222.7190, 119.4076
223.2011, 118.6550
223.6832, 118.3143
224.1653, 118.2987
224.6474, 118.4030
225.1295, 118.7110
225.6117, 118.9404
226.0938, 118.8424
226.5759, 118.4554
227.0580, 118.1027
227.5401, 117.9073
228.0222, 117.8066
228.5043, 117.6815
228.9865, 117.4962
229.4686, 117.4128
229.9507, 117.7264
230.4328, 118.4312
230.9149, 118.7824
231.3970, 118.3350
231.8792, 117.5723
232.3613, 116.8185
232.8434, 116.0969
233.3255, 115.5739
233.8076, 115.5333
234.2897, 116.0327
234.7719, 116.3432
235.2540, 116.1020
235.7361, 115.7454
236.2182, 115.5311
236.7003, 115.4958
237.1824, 115.5359
237.6646, 115.5610
238.1467, 115.5790
238.6288, 115.5349
239.1109, 115.4733
239.5930, 115.3030
240.0751, 114.8680
240.5573, 114.1918
241.0394, 113.5471
241.5215, 113.2861
242.0036, 113.5126
242.4857, 113.6979
242.9678, 113.7490
243.4500, 113.8035
243.9321, 114.0388
244.4142, 114.4084
244.8963, 114.6297
245.3784, 114.2624
245.8605, 112.9951
246.3427, 112.3011
246.8248, 112.6384
247.3069, 113.1232
247.7890, 113.4197
248.2711, 113.4630
248.7532, 113.3035
249.2354, 112.9621
249.7175, 112.3710
250.1996, 111.8967
250.6817, 111.4240
251.1638, 111.1480
251.6459, 111.3650
252.1281, 111.9400
252.6102, 112.3763
253.0923, 112.1437
253.5744, 111.0779
254.0565, 110.3663
254.5386, 110.1209
255.0208, 110.0495
255.5029, 110.1255
255.9850, 110.2795
256.4671, 110.3618
256.9492, 110.2255
257.4313, 109.8402
257.9135, 109.5958
258.3956, 109.5096
258.8777, 109.5099
259.3598, 109.6053
259.8419, 109.7685
260.3240, 109.9403
260.8062, 110.0807
261.2883, 110.1898
261.7704, 110.2521
262.2525, 110.3316
262.7346, 110.3168
263.2167, 110.1226
263.6989, 109.7920
264.1810, 109.4071
264.6631, 108.9781
265.1452, 108.5509
265.6273, 108.5381
266.1094, 109.4676
266.5916, 110.1622
267.0737, 110.0205
267.5558, 109.3095
268.0379, 108.6550
268.5200, 108.3817
269.0021, 108.4363
269.4843, 108.6057
269.9664, 109.0434
270.4485, 109.3861
270.9306, 109.4343
271.4127, 109.3048
271.8948, 109.2630
272.3770, 109.4488
272.8591, 109.7467
273.3412, 109.8565
273.8233, 109.7764
274.3054, 109.5790
274.7875, 109.1130
275.2697, 108.5626
275.7518, 108.3391
276.2339, 108.6530
276.7160, 109.1753
277.1981, 109.1898
277.6802, 108.5571
278.1623, 108.1929
278.6444, 108.5643
279.1266, 109.3250
279.6087, 109.9051
280.0908, 110.1593
280.5729, 110.2122
281.0550, 110.1782
281.5371, 110.0581
282.0193, 109.9575
282.5014, 109.8936
282.9835, 109.8681
283.4656, 109.9034
283.9477, 110.0150
284.4298, 110.1185
284.9120, 110.0602
285.3941, 109.8726
285.8762, 109.8503
286.3583, 110.2472
286.8404, 110.7512
287.3225, 110.9573
287.8047, 110.8085
288.2868, 110.5589
288.7689, 110.3658
289.2510, 110.2323
289.7331, 110.1683
290.2152, 110.2877
290.6974, 110.4110
291.1795, 110.2909
291.6616, 109.9138
292.1437, 109.6122
292.6258, 109.6109
293.1079, 109.8370
293.5901, 110.1127
294.0722, 110.5764
294.5543, 110.9127
295.0364, 110.7744
295.5185, 110.1857
296.0006, 109.5865
296.4828, 109.1431
296.9649, 108.8404
297.4470, 108.6332
297.9291, 108.5546
298.4112, 108.4904
298.8933, 108.3684
299.3755, 108.1934
299.8576, 107.9880
300.3397, 107.7449
300.8218, 107.4889
301.3039, 107.2437
301.7860, 107.0057
302.2682, 106.8060
302.7503, 106.6254
303.2324, 106.4899
303.7145, 106.5558
304.1966, 107.0376
304.6787, 107.4125
305.1609, 106.9573
305.6430, 105.7794
306.1251, 104.8429
306.6072, 104.6770
307.0893, 105.0312
307.5714, 105.4343
308.0536, 105.9104
308.5357, 106.2217
309.0178, 105.9672
309.4999, 105.3559
309.9820, 104.9579
310.4641, 105.0700
310.9463, 105.4567
311.4284, 105.8261
311.9105, 106.1904
312.3926, 106.4293
312.8747, 106.4532
313.3568, 106.2918
313.8390, 105.9573
314.3211, 105.2718
314.8032, 104.6010
315.2853, 104.3184
315.7674, 104.4287
316.2495, 104.7485
316.7317, 105.3746
317.2138, 106.0686
317.6959, 106.4796
318.1780, 106.5488
318.6601, 106.4215
319.1422, 106.1102
319.6243, 105.6493
320.1064, 105.2837
320.5886, 105.0800
321.0707, 105.0237
321.5528, 105.1590
322.0349, 105.5161
322.5170, 105.6795
322.9991, 105.2598
323.4813, 104.4677
323.9634, 103.9250
324.4455, 103.8205
324.9276, 103.8231
325.4097, 103.6136
325.8918, 103.2275
326.3740, 102.8031
326.8561, 102.2616
327.3382, 101.7531
327.8203, 101.5867
328.3024, 101.8534
328.7845, 102.1098
329.2667, 101.9562
329.7488, 101.5350
330.2309, 101.1911
330.7130, 101.0439
331.1951, 100.9619
331.6772, 100.7580
332.1594, 100.4363
332.6415, 100.2983
333.1236, 100.6618
333.6057, 101.2384
334.0878, 101.4056
334.5699, 100.9697
335.0521, 100.4433
335.5342, 100.1133
336.0163, 99.95937
336.4984, 99.90331
336.9805, 99.96461
337.4626, 100.0496
337.9448, 100.0135
338.4269, 99.85230
338.9090, 99.64895
339.3911, 99.39473
339.8732, 99.12801
340.3553, 98.92824
340.8375, 98.81738
341.3196, 98.75083
341.8017, 98.70432
342.2838, 98.67416
342.7659, 98.59399
343.2480, 98.36575
343.7302, 98.12917
344.2123, 98.06193
344.6944, 98.17497
345.1765, 98.30029
345.6586, 98.30849
346.1407, 98.21901
346.6229, 98.18287
347.1050, 98.35997
347.5871, 98.44770
348.0692, 98.13278
348.5513, 97.53521
349.0334, 97.12617
349.5156, 97.18085
349.9977, 97.52973
350.4798, 97.70494
350.9619, 97.63100
351.4440, 97.57275
351.9261, 97.63433
352.4083, 97.76089
352.8904, 97.87904
353.3725, 97.97221
353.8546, 98.01234
354.3367, 97.95870
354.8188, 97.81101
355.3010, 97.56358
355.7831, 96.98755
356.2652, 96.45336
356.7473, 96.38882
357.2294, 96.80588
357.7115, 97.24443
358.1937, 97.26067
358.6758, 96.83155
359.1579, 96.75791
359.6400, 97.56735
360.1221, 98.18607
360.6042, 97.91063
361.0863, 96.99694
361.5685, 96.17012
362.0506, 95.84082
362.5327, 95.89341
363.0148, 95.85933
363.4969, 95.52498
363.9790, 95.37614
364.4612, 95.56813
364.9433, 95.94988
365.4254, 96.43621
365.9075, 96.98544
366.3896, 97.38147
366.8717, 97.24631
367.3539, 96.22134
367.8360, 95.45974
368.3181, 94.97825
368.8002, 94.72571
369.2823, 94.76340
369.7644, 95.03268
370.2466, 95.31457
370.7287, 95.38596
371.2108, 95.21959
371.6929, 95.33404
372.1750, 96.28945
372.6571, 96.90819
373.1393, 96.59499
373.6214, 95.74036
374.1035, 95.01348
374.5856, 94.78315
375.0677, 94.93997
375.5498, 95.14811
376.0320, 95.57768
376.5141, 95.78939
376.9962, 95.61658
377.4783, 95.30594
377.9604, 95.05925
378.4425, 94.93008
378.9247, 94.85783
379.4068, 94.74111
379.8889, 94.52502
380.3710, 94.46081
380.8531, 94.62826
381.3352, 94.87659
381.8174, 95.20486
382.2995, 95.56788
382.7816, 95.87634
383.2637, 96.07018
383.7458, 96.15090
384.2279, 96.10483
384.7101, 95.78790
385.1922, 95.56676
385.6743, 95.56946
386.1564, 95.70821
386.6385, 95.89148
387.1206, 96.09041
387.6028, 96.28320
388.0849, 96.47098
388.5670, 96.69003
389.0491, 96.72342
389.5312, 96.27682
390.0133, 95.79668
390.4955, 95.60092
390.9776, 95.70115
391.4597, 95.85091
391.9418, 95.83469
392.4239, 95.69133
392.9060, 95.67461
393.3882, 95.89763
393.8703, 96.07629
394.3524, 95.98698
394.8345, 95.72275
395.3166, 95.46507
395.7987, 95.17456
396.2809, 95.00925
396.7630, 95.37092
397.2451, 96.31963
397.7272, 96.87919
398.2093, 96.34016
398.6914, 95.30765
399.1736, 94.76709
399.6557, 94.85467
400.1378, 95.07834
400.6199, 95.16030
401.1020, 95.15427
401.5841, 95.23625
402.0662, 95.48614
402.5483, 95.71094
403.0305, 95.64401
403.5126, 95.30676
403.9947, 94.96971
404.4768, 94.62771
404.9589, 94.34046
405.4410, 94.15617
405.9232, 94.07966
406.4053, 94.10758
406.8874, 94.23190
407.3695, 94.46465
407.8516, 94.85738
408.3337, 95.66177
408.8159, 96.31129
409.2980, 96.58073
409.7801, 96.59644
410.2622, 96.56543
410.7443, 96.55939
411.2264, 96.49901
411.7086, 96.22415
412.1907, 95.49655
412.6728, 95.18523
413.1549, 95.46524
413.6370, 96.00510
414.1191, 96.76146
414.6013, 97.61105
415.0834, 98.23956
415.5655, 98.37804
416.0476, 98.05453
416.5297, 97.74891
417.0118, 97.14223
417.4940, 96.93192
417.9761, 97.59314
418.4582, 98.58704
418.9403, 99.16934
419.4224, 99.07150
419.9045, 98.74825
420.3867, 99.05257
420.8688, 100.3175
421.3509, 101.3195
421.8330, 101.9116
422.3151, 102.3245
422.7972, 102.5899
423.2794, 102.7636
423.7615, 102.9733
424.2436, 103.3557
424.7257, 103.8654
425.2078, 104.1781
425.6899, 104.1478
426.1721, 104.1747
426.6542, 104.5000
427.1363, 104.9174
427.6184, 105.0888
428.1005, 104.8336
428.5826, 104.6949
429.0648, 105.5340
429.5469, 107.3740
430.0290, 108.7997
430.5111, 109.3511
430.9932, 109.5343
431.4753, 109.7260
431.9575, 109.9445
432.4396, 110.3328
432.9217, 111.0988
433.4038, 112.0284
433.8859, 112.7410
434.3680, 113.1969
434.8502, 113.6119
435.3323, 114.0426
435.8144, 114.5573
436.2965, 115.3294
436.7786, 116.6178
437.2607, 117.7804
437.7429, 118.4115
438.2250, 118.6600
438.7071, 118.8257
439.1892, 118.9785
439.6713, 119.1879
440.1534, 119.5888
440.6356, 120.2630
441.1177, 120.7426
441.5998, 120.7571
442.0819, 120.7620
442.5640, 121.2153
443.0461, 122.0056
443.5282, 122.5906
444.0103, 122.5743
444.4925, 122.0832
444.9746, 121.8243
445.4567, 121.9354
445.9388, 122.1161
446.4209, 122.3018
446.9030, 122.5596
447.3852, 122.9926
447.8673, 123.6120
448.3494, 124.3092
448.8315, 124.9840
449.3136, 125.6889
449.7957, 126.0988
450.2779, 125.8862
450.7600, 125.6969
451.2421, 125.7064
451.7242, 125.9064
452.2063, 126.3057
452.6884, 126.9707
453.1706, 127.6655
453.6527, 127.7282
454.1348, 126.8915
454.6169, 126.2699
455.0990, 126.5723
455.5811, 126.9004
456.0633, 126.6138
456.5454, 125.6624
457.0275, 124.4664
457.5096, 123.2565
457.9917, 122.0421
458.4738, 120.8826
458.9560, 119.8578
459.4381, 118.6621
459.9202, 116.9085
460.4023, 114.8639
460.8844, 113.0130
461.3665, 111.4987
461.8487, 110.1184
462.3308, 108.7638
462.8129, 107.4244
463.2950, 106.0436
463.7771, 104.5642
464.2592, 103.1177
464.7414, 101.8975
465.2235, 100.9227
465.7056, 99.98821
466.1877, 98.85316
466.6698, 97.90539
467.1519, 97.61924
467.6341, 97.86858
468.1162, 98.03010
468.5983, 97.68303
469.0804, 96.96468
469.5625, 96.51954
470.0446, 96.79012
470.5268, 96.77363
471.0089, 96.11002
471.4910, 95.29274
471.9731, 94.79095
472.4552, 94.68713
472.9373, 94.76904
473.4195, 94.87294
473.9016, 95.03321
474.3837, 94.73991
474.8658, 93.31213
475.3479, 92.17893
475.8300, 91.90134
476.3122, 92.11191
476.7943, 92.27576
477.2764, 92.17172
477.7585, 91.95384
478.2406, 91.83639
478.7227, 91.82055
479.2049, 91.90695
479.6870, 92.21090
480.1691, 92.50016
480.6512, 92.64300
481.1333, 92.63657
481.6154, 92.48633
482.0976, 92.04467
482.5797, 91.52676
483.0618, 91.33218
483.5439, 91.47440
484.0260, 91.54008
484.5081, 91.30782
484.9902, 90.88329
485.4724, 90.46391
485.9545, 89.96455
486.4366, 89.70542
486.9187, 90.13926
487.4008, 90.72459
487.8829, 90.62951
488.3651, 89.75968
488.8472, 88.78224
489.3293, 88.29504
489.8114, 88.29038
490.2935, 88.14211
490.7756, 87.60656
491.2578, 87.23793
491.7399, 87.39048
492.2220, 87.72811
492.7041, 87.77332
493.1862, 87.37516
493.6683, 86.79221
494.1505, 86.40359
494.6326, 86.27135
495.1147, 86.09237
495.5968, 85.23772
496.0789, 85.68997
496.5610, 85.89402
497.0432, 85.86340
497.5253, 84.88342
498.0074, 85.13858
498.4895, 84.90437
498.9716, 84.65394
499.4537, 85.09441
499.9359, 84.27313
500.4180, 84.71075
500.9001, 84.65146
501.3822, 84.82543
501.8643, 84.50698
502.3464, 84.34588
502.8286, 84.68537
503.3107, 84.75392
503.7928, 84.39438
504.2749, 84.60699
504.7570, 83.80852
505.2391, 83.90482
505.7213, 84.38947
506.2034, 84.07494
506.6855, 84.31670
507.1676, 84.35214
507.6497, 83.43570
508.1318, 84.18566
508.6140, 84.22070
509.0961, 83.52158
509.5782, 84.22661
510.0603, 83.63728
510.5424, 83.51540
511.0245, 83.74630
511.5067, 83.61763
511.9888, 84.06621
512.4709, 83.96656
512.9530, 83.82159
513.4351, 83.81164
513.9172, 83.78349
514.3994, 83.75021
514.8815, 83.76436
515.3636, 83.83546
515.8457, 83.83150
516.3278, 83.75164
516.8099, 83.59032
517.2921, 83.19148
517.7742, 82.76181
518.2563, 82.69191
518.7384, 83.22318
519.2205, 83.76172
519.7026, 83.44917
520.1848, 82.43696
520.6669, 81.97494
521.1490, 82.49907
521.6311, 83.27649
522.1132, 83.61008
522.5953, 83.56165
523.0775, 83.35572
523.5596, 82.82546
524.0417, 82.33251
524.5238, 82.20164
525.0059, 82.32268
525.4880, 82.34363
525.9702, 82.10654
526.4523, 81.81065
526.9344, 81.81551
527.4165, 82.31862
527.8986, 82.60826
528.3807, 82.58913
528.8629, 82.46618
529.3450, 82.26481
529.8271, 82.05577
530.3092, 81.98089
530.7913, 82.13221
531.2734, 82.39631
531.7556, 82.47218
532.2377, 82.25600
532.7198, 82.14602
533.2019, 82.28132
533.6840, 82.47130
534.1661, 82.63230
534.6483, 82.75792
535.1304, 82.85818
535.6125, 82.89414
536.0946, 82.93641
536.5767, 83.13798
537.0588, 83.50631
537.5410, 83.87717
538.0231, 84.20316
538.5052, 84.47949
538.9873, 84.75262
539.4694, 85.06828
539.9515, 85.09673
540.4337, 84.43324
540.9158, 83.65044
541.3979, 83.33826
541.8800, 83.47903
542.3621, 83.74850
542.8442, 83.97546
543.3264, 84.13416
543.8085, 84.13086
544.2906, 83.63878
544.7726, 83.44808
545.2548, 83.65285
545.7369, 84.09224
546.2190, 84.82438
546.7011, 85.71177
547.1832, 86.36765
547.6653, 86.44498
548.1475, 86.10342
548.6296, 85.96951
549.1117, 86.08286
549.5938, 86.29822
550.0759, 86.80286
550.5580, 87.24271
551.0402, 87.23946
551.5223, 86.79698
552.0044, 86.46326
552.4865, 86.55703
552.9686, 86.96478
553.4507, 87.58665
553.9329, 88.41911
554.4150, 89.10800
554.8971, 89.46847
555.3792, 89.56163
555.8613, 89.51124
556.3434, 89.26297
556.8256, 89.03835
557.3077, 88.88663
557.7898, 88.77044
558.2719, 88.62057
558.7540, 88.46176
559.2361, 88.40737
559.7183, 88.53460
560.2004, 88.83066
560.6825, 89.29158
561.1646, 90.32986
561.6467, 90.79324
562.1288, 90.09232
562.6110, 89.23540
563.0931, 88.98316
563.5752, 89.30539
564.0573, 89.64068
564.5394, 89.62529
565.0215, 89.33094
565.5037, 88.86146
565.9858, 88.15900
566.4679, 87.66279
566.9500, 87.65238
567.4321, 87.83472
567.9142, 87.82845
568.3964, 87.62717
568.8785, 87.34605
569.3606, 86.85397
569.8427, 86.41520
570.3248, 86.44135
570.8069, 86.82781
571.2891, 86.97622
571.7712, 86.52600
572.2533, 85.74205
572.7354, 85.29984
573.2175, 85.58942
573.6996, 85.52477
574.1818, 84.69445
574.6639, 83.89564
575.1460, 83.59725
575.6281, 83.74731
576.1102, 84.12399
576.5923, 84.63548
577.0745, 85.16641
577.5566, 85.46620
578.0387, 85.52003
578.5208, 85.41188
579.0029, 85.01508
579.4850, 84.60812
579.9672, 84.37869
580.4493, 84.31399
580.9314, 84.34873
581.4135, 84.37417
581.8956, 84.55956
582.3777, 85.37224
582.8599, 86.54992
583.3420, 86.96713
583.8241, 86.13447
584.3062, 84.91658
584.7883, 84.49718
585.2704, 85.09000
585.7526, 85.46799
586.2347, 85.62849
586.7168, 85.59673
587.1989, 85.13831
587.6810, 84.56882
588.1631, 84.42566
588.6453, 84.89133
