##NAMES=Lanthanite-(Nd)
##RRUFFID=R060993
##IDEAL CHEMISTRY=Nd_2_(CO_3_)_3_&#183;8H_2_O
##LOCALITY=Mitsukoshi, Hizen-cho, Karatsu City, Saga Prefecture, Japan
##OWNER=RRUFF
##SOURCE=Marcus Origlieri
##DESCRIPTION=Pink platy crystals and cleavages on rock. This sample was used in the structural study by Morrison et al (2013)
##STATUS=The identification of this mineral is confirmed by single-crystal X-ray diffraction and chemical analysis.
##URL=rruff.info/R060993
##MEASURED CHEMISTRY=(Nd_0.95_La_0.61_Pr_0.17_Sm_0.12_Gd_0.08_Y_0.04_Eu_0.03_)_Σ=2_(CO_3_)_3_·7.97H_2_O
88.74414, 86.01163
89.22626, 97.20847
89.70837, 101.4289
90.19049, 99.38332
90.67261, 97.27293
91.15472, 99.11063
91.63684, 101.7047
92.11896, 99.92300
92.60107, 91.07578
93.08319, 80.88125
93.56531, 76.49323
94.04742, 79.27863
94.52954, 80.76991
95.01165, 72.86802
95.49377, 62.54118
95.97588, 57.77616
96.45800, 63.27652
96.94012, 74.57639
97.42223, 81.81660
97.90435, 83.16449
98.38647, 83.57318
98.86858, 85.85917
99.35070, 88.53010
99.83282, 89.00945
100.3149, 84.40924
100.7971, 76.08891
101.2792, 74.14425
101.7613, 87.40130
102.2434, 97.68210
102.7255, 96.98715
103.2076, 88.82076
103.6898, 81.16306
104.1719, 81.02330
104.6540, 89.40295
105.1361, 94.12533
105.6182, 94.48187
106.1003, 91.91712
106.5825, 82.87621
107.0646, 69.94137
107.5467, 60.81473
108.0288, 64.54859
108.5109, 86.32040
108.9930, 103.0811
109.4751, 114.0714
109.9573, 121.9769
110.4394, 127.0840
110.9215, 130.0383
111.4036, 132.9032
111.8857, 138.3869
112.3678, 147.6654
112.8500, 157.6852
113.3321, 172.2648
113.8142, 185.5192
114.2963, 190.0979
114.7784, 184.1507
115.2605, 175.1509
115.7427, 176.6989
116.2248, 195.3809
116.7069, 210.9046
117.1890, 220.4623
117.6711, 225.9188
118.1532, 228.7657
118.6354, 228.9713
119.1175, 228.6528
119.5996, 232.0293
120.0817, 236.7818
120.5638, 248.2556
121.0459, 270.5816
121.5281, 300.9183
122.0102, 332.9410
122.4923, 364.4391
122.9744, 396.0249
123.4565, 427.4794
123.9386, 453.2434
124.4208, 489.3166
124.9029, 546.8289
125.3850, 623.5884
125.8671, 706.5974
126.3492, 792.3396
126.8313, 881.7766
127.3135, 975.3167
127.7956, 1075.291
128.2777, 1176.232
128.7598, 1275.466
129.2419, 1373.897
129.7240, 1465.850
130.2061, 1544.961
130.6883, 1617.680
131.1704, 1691.340
131.6525, 1768.712
132.1346, 1845.775
132.6167, 1922.814
133.0988, 2004.044
133.5810, 2065.048
134.0631, 2085.252
134.5452, 2082.437
135.0273, 2069.500
135.5094, 2046.671
135.9915, 2021.159
136.4737, 2005.903
136.9558, 2003.044
137.4379, 2005.910
137.9200, 2005.742
138.4021, 2010.737
138.8842, 2031.244
139.3664, 2072.248
139.8485, 2131.114
140.3306, 2201.053
140.8127, 2283.137
141.2948, 2376.387
141.7769, 2477.034
142.2591, 2587.322
142.7412, 2709.821
143.2233, 2845.898
143.7054, 2995.457
144.1875, 3156.337
144.6696, 3337.739
145.1518, 3519.214
145.6339, 3702.026
146.1160, 3879.829
146.5981, 4043.635
147.0802, 4187.314
147.5623, 4311.784
148.0445, 4427.775
148.5266, 4534.423
149.0087, 4630.902
149.4908, 4720.514
149.9729, 4799.954
150.4550, 4862.407
150.9371, 4902.782
151.4193, 4921.316
151.9014, 4934.656
152.3835, 4945.587
152.8656, 4948.288
153.3477, 4934.965
153.8298, 4911.592
154.3120, 4890.185
154.7941, 4879.978
155.2762, 4881.222
155.7583, 4885.408
156.2404, 4894.724
156.7225, 4904.544
157.2047, 4908.136
157.6868, 4910.048
158.1689, 4920.877
158.6510, 4948.931
159.1331, 4994.701
159.6152, 5054.675
160.0974, 5140.064
160.5795, 5226.294
161.0616, 5301.104
161.5437, 5366.863
162.0258, 5433.495
162.5079, 5508.849
162.9901, 5592.532
163.4722, 5688.056
163.9543, 5802.028
164.4364, 5918.774
164.9185, 6030.378
165.4007, 6137.133
165.8828, 6242.054
166.3649, 6349.041
166.8470, 6458.323
167.3291, 6560.234
167.8112, 6649.698
168.2934, 6737.059
168.7755, 6831.223
169.2576, 6930.258
169.7397, 7021.937
170.2218, 7094.845
170.7039, 7146.341
171.1861, 7203.561
171.6682, 7275.152
172.1503, 7345.018
172.6324, 7406.991
173.1145, 7459.299
173.5966, 7499.059
174.0788, 7521.291
174.5609, 7524.017
175.0430, 7533.555
175.5251, 7547.591
176.0072, 7569.639
176.4893, 7607.466
176.9714, 7659.077
177.4536, 7708.749
177.9357, 7742.034
178.4178, 7757.531
178.8999, 7780.072
179.3820, 7815.084
179.8641, 7852.681
180.3463, 7881.212
180.8284, 7901.600
181.3105, 7932.288
181.7926, 7993.957
182.2747, 8086.277
182.7568, 8152.633
183.2390, 8177.424
183.7211, 8187.810
184.2032, 8201.019
184.6853, 8218.231
185.1674, 8236.491
185.6495, 8249.645
186.1317, 8260.644
186.6138, 8292.999
187.0959, 8371.721
187.5780, 8454.011
188.0601, 8505.815
188.5422, 8527.006
189.0244, 8542.386
189.5065, 8573.886
189.9886, 8615.806
190.4707, 8630.626
190.9528, 8584.183
191.4349, 8535.139
191.9171, 8531.698
192.3992, 8572.782
192.8813, 8625.262
193.3634, 8673.449
193.8455, 8714.104
194.3276, 8739.378
194.8098, 8737.238
195.2919, 8728.636
195.7740, 8725.170
196.2561, 8727.419
196.7382, 8740.643
197.2203, 8775.986
197.7025, 8824.234
198.1846, 8850.228
198.6667, 8837.559
199.1488, 8815.525
199.6309, 8803.805
200.1130, 8801.353
200.5951, 8798.929
201.0773, 8790.791
201.5594, 8778.903
202.0415, 8770.331
202.5236, 8770.605
203.0057, 8768.310
203.4878, 8753.244
203.9700, 8727.122
204.4521, 8702.320
204.9342, 8686.010
205.4163, 8674.663
205.8984, 8658.524
206.3805, 8633.909
206.8627, 8609.513
207.3448, 8589.198
207.8269, 8573.125
208.3090, 8562.197
208.7911, 8557.370
209.2732, 8558.097
209.7554, 8562.670
210.2375, 8574.543
210.7196, 8583.678
211.2017, 8585.118
211.6838, 8579.374
212.1659, 8564.892
212.6481, 8532.775
213.1302, 8501.647
213.6123, 8507.819
214.0944, 8561.647
214.5765, 8619.575
215.0586, 8666.441
215.5408, 8702.141
216.0229, 8724.077
216.5050, 8725.966
216.9871, 8722.096
217.4692, 8737.676
217.9513, 8776.163
218.4335, 8814.385
218.9156, 8836.537
219.3977, 8852.084
219.8798, 8885.034
220.3619, 8946.754
220.8440, 9016.936
221.3262, 9066.026
221.8083, 9094.439
222.2904, 9115.460
222.7725, 9120.867
223.2546, 9124.245
223.7367, 9151.764
224.2189, 9212.523
224.7010, 9285.856
225.1831, 9344.794
225.6652, 9389.482
226.1473, 9437.623
226.6294, 9507.305
227.1115, 9577.404
227.5937, 9613.394
228.0758, 9606.850
228.5579, 9591.722
229.0400, 9602.138
229.5221, 9637.970
230.0042, 9682.176
230.4864, 9744.318
230.9685, 9807.346
231.4506, 9853.094
231.9327, 9879.636
232.4148, 9898.021
232.8969, 9916.827
233.3791, 9935.791
233.8612, 9950.992
234.3433, 9945.113
234.8254, 9947.810
235.3075, 9991.743
235.7896, 10074.15
236.2718, 10153.78
236.7539, 10201.76
237.2360, 10218.82
237.7181, 10235.09
238.2002, 10251.47
238.6823, 10266.23
239.1645, 10278.03
239.6466, 10287.24
240.1287, 10294.62
240.6108, 10299.54
241.0929, 10303.59
241.5750, 10314.61
242.0572, 10334.19
242.5393, 10357.91
243.0214, 10396.91
243.5035, 10439.36
243.9856, 10455.37
244.4677, 10427.39
244.9499, 10369.78
245.4320, 10327.22
245.9141, 10302.20
246.3962, 10285.58
246.8783, 10281.99
247.3604, 10284.17
247.8426, 10282.90
248.3247, 10275.06
248.8068, 10259.08
249.2889, 10229.87
249.7710, 10169.10
250.2531, 10127.70
250.7352, 10125.68
251.2174, 10136.75
251.6995, 10134.26
252.1816, 10111.22
252.6637, 10075.84
253.1458, 10038.97
253.6279, 9996.882
254.1101, 9962.616
254.5922, 9942.030
255.0743, 9924.695
255.5564, 9904.094
256.0385, 9879.060
256.5207, 9850.990
257.0028, 9822.124
257.4849, 9794.191
257.9670, 9755.696
258.4491, 9698.248
258.9312, 9640.128
259.4134, 9585.464
259.8955, 9537.365
260.3776, 9503.527
260.8597, 9493.085
261.3418, 9506.312
261.8239, 9493.911
262.3060, 9425.486
262.7881, 9364.818
263.2703, 9334.715
263.7524, 9324.591
264.2345, 9314.766
264.7166, 9293.849
265.1987, 9263.026
265.6808, 9227.934
266.1630, 9184.495
266.6451, 9141.302
267.1272, 9096.619
267.6093, 9053.698
268.0914, 9017.309
268.5735, 8989.482
269.0557, 8965.773
269.5378, 8933.788
270.0199, 8876.890
270.5020, 8844.723
270.9841, 8866.208
271.4662, 8894.508
271.9484, 8889.229
272.4305, 8842.271
272.9126, 8781.560
273.3947, 8744.085
273.8768, 8735.724
274.3589, 8728.710
274.8411, 8728.836
275.3232, 8723.861
275.8053, 8701.705
276.2874, 8665.433
276.7695, 8632.571
277.2516, 8621.453
277.7338, 8632.352
278.2159, 8637.362
278.6980, 8630.865
279.1801, 8624.651
279.6622, 8630.550
280.1443, 8641.286
280.6265, 8639.016
281.1086, 8605.951
281.5907, 8553.382
282.0728, 8520.490
282.5549, 8515.933
283.0370, 8512.130
283.5192, 8490.552
284.0013, 8463.308
284.4834, 8448.413
284.9655, 8457.799
285.4476, 8473.577
285.9297, 8471.535
286.4119, 8450.481
286.8940, 8421.064
287.3761, 8381.380
287.8582, 8338.503
288.3403, 8300.653
288.8224, 8269.994
289.3046, 8240.821
289.7867, 8207.552
290.2688, 8171.515
290.7509, 8139.265
291.2330, 8109.994
291.7151, 8089.153
292.1973, 8088.428
292.6794, 8109.729
293.1615, 8119.889
293.6436, 8100.435
294.1257, 8062.221
294.6078, 8021.777
295.0900, 7980.521
295.5721, 7943.955
296.0542, 7921.683
296.5363, 7912.560
297.0184, 7895.073
297.5005, 7857.229
297.9827, 7816.064
298.4648, 7783.966
298.9469, 7761.934
299.4290, 7749.518
299.9111, 7749.314
300.3932, 7759.212
300.8754, 7759.191
301.3575, 7747.739
301.8396, 7729.307
302.3217, 7702.980
302.8038, 7671.134
303.2859, 7637.292
303.7681, 7602.447
304.2502, 7569.238
304.7323, 7545.059
305.2144, 7542.205
305.6965, 7532.634
306.1786, 7510.583
306.6608, 7482.998
307.1429, 7457.030
307.6250, 7434.721
308.1071, 7412.396
308.5892, 7384.417
309.0714, 7346.291
309.5535, 7314.645
310.0356, 7297.514
310.5177, 7278.999
310.9998, 7249.214
311.4819, 7208.996
311.9640, 7165.088
312.4461, 7121.558
312.9283, 7078.581
313.4104, 7043.938
313.8925, 7026.426
314.3746, 7008.582
314.8567, 6984.510
315.3388, 6957.622
315.8210, 6935.135
316.3031, 6922.362
316.7852, 6912.104
317.2673, 6883.152
317.7494, 6823.681
318.2315, 6772.043
318.7137, 6741.476
319.1958, 6719.783
319.6779, 6697.162
320.1600, 6671.124
320.6421, 6646.039
321.1242, 6624.982
321.6064, 6607.678
322.0885, 6601.409
322.5706, 6620.004
323.0527, 6636.369
323.5348, 6628.159
324.0169, 6597.521
324.4991, 6564.354
324.9812, 6536.445
325.4633, 6514.266
325.9454, 6500.120
326.4275, 6495.835
326.9096, 6493.793
327.3918, 6489.033
327.8739, 6482.318
328.3560, 6475.428
328.8381, 6475.942
329.3202, 6470.879
329.8023, 6441.199
330.2845, 6391.749
330.7666, 6354.907
331.2487, 6350.081
331.7308, 6364.700
332.2129, 6365.141
332.6950, 6349.850
333.1772, 6326.675
333.6593, 6294.887
334.1414, 6257.528
334.6235, 6215.376
335.1056, 6168.236
335.5877, 6127.290
336.0699, 6110.143
336.5520, 6132.043
337.0341, 6130.695
337.5162, 6089.112
337.9983, 6038.875
338.4804, 5998.031
338.9626, 5967.659
339.4447, 5941.706
339.9268, 5914.875
340.4089, 5887.553
340.8910, 5869.577
341.3731, 5875.666
341.8553, 5874.936
342.3374, 5851.408
342.8195, 5820.506
343.3016, 5806.344
343.7837, 5819.724
344.2658, 5844.316
344.7480, 5843.410
345.2301, 5800.583
345.7122, 5773.059
346.1943, 5782.785
346.6764, 5797.991
347.1585, 5799.220
347.6407, 5784.185
348.1228, 5761.950
348.6049, 5734.355
349.0870, 5702.916
349.5691, 5691.321
350.0512, 5715.422
350.5334, 5737.058
351.0155, 5730.772
351.4976, 5706.533
351.9797, 5685.738
352.4618, 5681.364
352.9439, 5681.375
353.4261, 5666.359
353.9082, 5635.518
354.3903, 5607.630
354.8724, 5593.249
355.3545, 5585.875
355.8366, 5572.638
356.3188, 5551.913
356.8009, 5529.514
357.2830, 5506.589
357.7651, 5484.270
358.2472, 5464.619
358.7293, 5448.278
359.2115, 5434.687
359.6936, 5424.645
360.1757, 5420.167
360.6578, 5407.252
361.1399, 5374.393
361.6220, 5341.808
362.1041, 5326.489
362.5862, 5325.417
363.0684, 5322.884
363.5505, 5307.692
364.0326, 5281.858
364.5147, 5260.395
364.9968, 5245.315
365.4789, 5232.300
365.9611, 5225.435
366.4432, 5218.438
366.9253, 5201.673
367.4074, 5172.641
367.8895, 5141.387
368.3716, 5124.124
368.8538, 5124.926
369.3359, 5127.076
369.8180, 5133.457
370.3001, 5138.049
370.7822, 5136.828
371.2643, 5130.892
371.7465, 5124.542
372.2286, 5120.040
372.7107, 5117.621
373.1928, 5121.536
373.6749, 5140.289
374.1570, 5144.574
374.6392, 5100.880
375.1213, 5041.971
375.6034, 5010.020
376.0855, 5022.937
376.5676, 5043.269
377.0497, 5036.468
377.5319, 5007.112
378.0140, 4979.596
378.4961, 4960.786
378.9782, 4945.729
379.4603, 4928.828
379.9424, 4910.463
380.4246, 4889.145
380.9067, 4854.921
381.3888, 4823.624
381.8709, 4815.313
382.3530, 4828.999
382.8351, 4844.318
383.3173, 4848.331
383.7994, 4841.053
384.2815, 4821.558
384.7636, 4775.164
385.2457, 4736.036
385.7278, 4716.262
386.2100, 4706.971
386.6921, 4698.062
387.1742, 4685.695
387.6563, 4669.395
388.1384, 4645.658
388.6205, 4604.061
389.1027, 4583.601
389.5848, 4610.045
390.0669, 4633.165
390.5490, 4622.094
391.0311, 4584.911
391.5132, 4551.181
391.9954, 4541.681
392.4775, 4551.270
392.9596, 4563.706
393.4417, 4585.901
393.9238, 4593.850
394.4059, 4564.775
394.8881, 4522.891
395.3702, 4492.191
395.8523, 4478.180
396.3344, 4471.692
396.8165, 4469.265
397.2986, 4468.967
397.7808, 4461.987
398.2629, 4444.907
398.7450, 4424.826
399.2271, 4409.872
399.7092, 4399.424
400.1913, 4385.959
400.6735, 4368.011
401.1556, 4346.893
401.6377, 4323.090
402.1198, 4297.034
402.6019, 4268.738
403.0840, 4237.870
403.5662, 4206.006
404.0483, 4179.014
404.5304, 4158.290
405.0125, 4140.747
405.4946, 4131.786
405.9767, 4122.787
406.4589, 4103.596
406.9410, 4073.904
407.4231, 4043.777
407.9052, 4023.494
408.3873, 4013.540
408.8694, 4008.321
409.3516, 4019.195
409.8336, 4021.448
410.3158, 4000.010
410.7979, 3966.959
411.2800, 3941.244
411.7621, 3931.442
412.2442, 3930.175
412.7263, 3930.226
413.2085, 3932.450
413.6906, 3920.780
414.1727, 3877.883
414.6548, 3832.983
415.1369, 3817.343
415.6190, 3830.377
416.1012, 3844.184
416.5833, 3853.190
417.0654, 3853.600
417.5475, 3834.550
418.0296, 3796.204
418.5117, 3761.819
418.9939, 3747.385
419.4760, 3749.368
419.9581, 3747.933
420.4402, 3739.477
420.9223, 3732.641
421.4044, 3732.760
421.8866, 3734.389
422.3687, 3729.427
422.8508, 3716.268
423.3329, 3701.230
423.8150, 3692.314
424.2971, 3690.388
424.7793, 3690.491
425.2614, 3701.737
425.7435, 3705.671
426.2256, 3690.448
426.7077, 3664.084
427.1898, 3641.064
427.6720, 3628.811
428.1541, 3623.431
428.6362, 3618.949
429.1183, 3616.112
429.6004, 3609.725
430.0826, 3595.182
430.5647, 3579.370
431.0468, 3568.981
431.5289, 3563.999
432.0110, 3557.647
432.4931, 3543.507
432.9753, 3527.269
433.4574, 3517.389
433.9395, 3514.411
434.4216, 3516.659
434.9037, 3524.449
435.3858, 3536.368
435.8680, 3546.005
436.3501, 3560.911
436.8322, 3564.425
437.3143, 3541.913
437.7964, 3510.386
438.2785, 3489.141
438.7607, 3483.163
439.2428, 3488.026
439.7249, 3500.290
440.2070, 3521.749
440.6891, 3536.791
441.1712, 3546.721
441.6534, 3548.536
442.1355, 3530.827
442.6176, 3506.961
443.0997, 3499.948
443.5818, 3521.703
444.0639, 3551.456
444.5461, 3552.755
445.0282, 3522.479
445.5103, 3503.986
445.9924, 3512.641
446.4745, 3527.521
446.9566, 3529.109
447.4388, 3519.533
447.9209, 3513.785
448.4030, 3517.903
448.8851, 3528.207
449.3672, 3544.784
449.8493, 3565.968
450.3315, 3580.064
450.8136, 3581.913
451.2957, 3572.000
451.7778, 3549.237
452.2599, 3493.639
452.7420, 3461.446
453.2242, 3471.450
453.7063, 3497.973
454.1884, 3525.064
454.6705, 3547.938
455.1526, 3562.515
455.6347, 3563.431
456.1169, 3552.905
456.5990, 3553.827
457.0811, 3577.321
457.5632, 3595.152
458.0453, 3595.276
458.5274, 3590.084
459.0095, 3594.322
459.4916, 3611.369
459.9738, 3625.610
460.4559, 3617.463
460.9380, 3592.718
461.4201, 3578.753
461.9022, 3578.737
462.3843, 3588.561
462.8665, 3613.563
463.3486, 3646.788
463.8307, 3663.799
464.3128, 3644.588
464.7949, 3627.945
465.2770, 3638.247
465.7592, 3664.554
466.2413, 3687.621
466.7234, 3701.483
467.2055, 3707.523
467.6876, 3706.105
468.1697, 3693.002
468.6519, 3690.491
469.1340, 3707.887
469.6161, 3724.721
470.0982, 3734.793
470.5803, 3738.320
471.0624, 3734.278
471.5446, 3720.770
472.0267, 3708.680
472.5088, 3724.152
472.9909, 3773.942
473.4730, 3797.726
473.9551, 3764.577
474.4373, 3725.293
474.9194, 3724.659
475.4015, 3754.797
475.8836, 3774.023
476.3657, 3756.039
476.8478, 3727.536
477.3300, 3714.477
477.8121, 3715.878
478.2942, 3725.854
478.7763, 3743.799
479.2584, 3764.279
479.7405, 3776.046
480.2227, 3772.160
480.7048, 3774.429
481.1869, 3792.249
481.6690, 3808.954
482.1511, 3808.891
482.6332, 3797.104
483.1154, 3791.500
483.5975, 3804.544
484.0796, 3830.430
484.5617, 3851.500
485.0438, 3869.205
485.5259, 3878.391
486.0081, 3869.563
486.4902, 3857.472
486.9723, 3850.919
487.4544, 3850.574
487.9365, 3854.016
488.4186, 3856.568
488.9008, 3863.350
489.3829, 3889.066
489.8650, 3933.612
490.3471, 3967.631
490.8292, 3973.124
491.3113, 3960.641
491.7935, 3958.449
492.2756, 3971.268
492.7577, 3982.637
493.2398, 3982.788
493.7219, 3985.773
494.2040, 4010.158
494.6862, 4051.925
495.1683, 4087.987
495.6504, 4101.025
496.1325, 4094.276
496.6146, 4082.447
497.0967, 4057.473
497.5789, 4043.507
498.0610, 4052.374
498.5431, 4068.606
499.0252, 4077.764
499.5073, 4079.360
499.9894, 4089.107
500.4716, 4124.466
500.9537, 4173.229
501.4358, 4213.181
501.9179, 4243.532
502.4000, 4258.697
502.8821, 4247.102
503.3643, 4223.500
503.8464, 4231.177
504.3285, 4287.106
504.8106, 4334.864
505.2927, 4364.715
505.7748, 4381.151
506.2570, 4380.256
506.7391, 4367.222
507.2212, 4361.324
507.7033, 4378.832
508.1854, 4414.191
508.6675, 4438.024
509.1496, 4443.206
509.6317, 4450.464
510.1139, 4470.922
510.5960, 4490.030
511.0781, 4491.183
511.5602, 4474.980
512.0424, 4466.482
512.5245, 4489.777
513.0066, 4528.667
513.4887, 4552.938
513.9708, 4561.584
514.4529, 4563.896
514.9351, 4562.173
515.4172, 4559.364
515.8993, 4564.994
516.3814, 4591.136
516.8635, 4598.309
517.3456, 4561.927
517.8278, 4519.239
518.3099, 4498.618
518.7920, 4500.294
519.2741, 4513.045
519.7562, 4531.492
520.2383, 4550.433
520.7205, 4550.175
521.2026, 4521.908
521.6847, 4498.100
522.1668, 4485.898
522.6489, 4480.201
523.1310, 4481.469
523.6132, 4488.014
524.0953, 4490.190
524.5774, 4479.327
525.0595, 4463.748
525.5416, 4451.855
526.0237, 4444.350
526.5059, 4447.002
526.9880, 4465.056
527.4701, 4488.208
527.9522, 4497.856
528.4343, 4488.930
528.9164, 4477.324
529.3986, 4454.104
529.8807, 4436.584
530.3628, 4440.756
530.8449, 4458.140
531.3270, 4469.135
531.8091, 4463.406
532.2913, 4448.146
532.7734, 4436.186
533.2554, 4427.963
533.7375, 4418.762
534.2197, 4400.735
534.7018, 4390.968
535.1839, 4405.567
535.6660, 4439.020
536.1481, 4472.267
536.6302, 4505.351
537.1124, 4531.404
537.5945, 4538.884
538.0766, 4535.812
538.5587, 4543.707
539.0408, 4569.158
539.5229, 4596.063
540.0051, 4603.183
540.4872, 4587.147
540.9693, 4575.314
541.4514, 4567.450
541.9335, 4564.145
542.4156, 4567.205
542.8978, 4574.424
543.3799, 4585.512
543.8620, 4600.259
544.3441, 4610.454
544.8262, 4607.147
545.3083, 4591.883
545.7905, 4569.751
546.2726, 4538.932
546.7547, 4511.097
547.2368, 4493.778
547.7189, 4485.180
548.2010, 4478.243
548.6832, 4477.329
549.1653, 4470.784
549.6474, 4450.363
550.1295, 4425.924
550.6116, 4407.944
551.0938, 4396.864
551.5759, 4386.955
552.0580, 4374.906
552.5401, 4359.234
553.0222, 4331.060
553.5043, 4279.285
553.9865, 4240.997
554.4686, 4241.970
554.9507, 4246.528
555.4328, 4225.191
555.9149, 4180.316
556.3970, 4144.524
556.8792, 4143.530
557.3613, 4152.310
557.8434, 4143.413
558.3255, 4118.352
558.8076, 4083.653
559.2897, 4039.950
559.7719, 3996.951
560.2540, 3971.053
560.7361, 3970.101
561.2182, 3960.463
561.7003, 3938.488
562.1824, 3912.898
562.6646, 3884.487
563.1467, 3855.469
563.6288, 3829.088
564.1109, 3806.813
564.5930, 3784.645
565.0751, 3758.199
565.5573, 3727.535
566.0394, 3691.476
566.5215, 3646.421
567.0036, 3607.991
567.4857, 3590.823
567.9678, 3588.860
568.4500, 3576.953
568.9321, 3541.277
569.4142, 3516.851
569.8963, 3524.728
570.3784, 3541.834
570.8605, 3544.078
571.3427, 3529.718
571.8248, 3510.862
572.3069, 3496.583
572.7890, 3485.483
573.2711, 3471.616
573.7532, 3453.934
574.2354, 3436.527
574.7175, 3414.449
575.1996, 3398.230
575.6817, 3402.010
576.1638, 3422.377
576.6459, 3433.030
577.1281, 3418.769
577.6102, 3395.054
578.0923, 3371.697
578.5744, 3350.325
579.0565, 3336.432
579.5386, 3332.129
580.0208, 3330.000
580.5029, 3319.295
580.9850, 3297.632
