##NAMES=Lanthanite-(Nd)
##RRUFFID=R060993
##IDEAL CHEMISTRY=Nd_2_(CO_3_)_3_&#183;8H_2_O
##LOCALITY=Mitsukoshi, Hizen-cho, Karatsu City, Saga Prefecture, Japan
##OWNER=RRUFF
##SOURCE=Marcus Origlieri
##DESCRIPTION=Pink platy crystals and cleavages on rock. This sample was used in the structural study by Morrison et al (2013)
##STATUS=The identification of this mineral is confirmed by single-crystal X-ray diffraction and chemical analysis.
##URL=rruff.info/R060993
##MEASURED CHEMISTRY=(Nd_0.95_La_0.61_Pr_0.17_Sm_0.12_Gd_0.08_Y_0.04_Eu_0.03_)_Σ=2_(CO_3_)_3_·7.97H_2_O
83.43524, 51.44451
83.91736, 52.18118
84.39948, 50.69393
84.88159, 49.51609
85.36371, 50.34082
85.84583, 51.18575
86.32794, 50.82188
86.81006, 48.85435
87.29218, 46.57801
87.77429, 44.68308
88.25641, 43.08160
88.73853, 41.56640
89.22064, 39.86992
89.70276, 38.23592
90.18488, 37.02578
90.66699, 36.62998
91.14911, 36.37165
91.63122, 35.23623
92.11333, 33.27644
92.59545, 31.47171
93.07757, 30.76138
93.55968, 30.94312
94.04180, 31.32499
94.52392, 31.60119
95.00603, 31.86790
95.48815, 32.48637
95.97027, 33.53769
96.45238, 34.70444
96.93450, 35.91914
97.41662, 37.22979
97.89874, 37.43813
98.38085, 35.07587
98.86297, 30.06573
99.34509, 26.89675
99.82720, 26.46639
100.3093, 27.94122
100.7914, 28.00724
101.2736, 25.87561
101.7557, 24.14183
102.2378, 25.23560
102.7199, 30.13060
103.2020, 34.94338
103.6841, 39.39552
104.1663, 43.70915
104.6484, 44.70046
105.1305, 39.83567
105.6126, 33.32285
106.0947, 31.32922
106.5768, 37.18900
107.0589, 43.30367
107.5411, 47.19954
108.0232, 47.10203
108.5053, 48.10998
108.9874, 50.60175
109.4695, 54.30678
109.9516, 58.10446
110.4338, 61.30737
110.9159, 65.14175
111.3980, 70.15809
111.8801, 76.74036
112.3622, 84.20179
112.8443, 92.85054
113.3265, 102.5728
113.8086, 112.1320
114.2907, 119.9933
114.7728, 127.9592
115.2549, 137.5778
115.7370, 148.6017
116.2192, 162.0059
116.7013, 179.1137
117.1834, 200.7074
117.6655, 221.8495
118.1476, 239.1265
118.6297, 254.3264
119.1119, 270.3961
119.5940, 288.8634
120.0761, 308.5603
120.5582, 328.3448
121.0403, 347.0549
121.5224, 367.6074
122.0046, 394.4936
122.4867, 425.7897
122.9688, 453.4816
123.4509, 467.8068
123.9330, 476.4113
124.4151, 490.0536
124.8973, 513.7062
125.3794, 542.6735
125.8615, 572.5262
126.3436, 603.0145
126.8257, 633.1607
127.3078, 663.6071
127.7900, 693.4019
128.2721, 719.0397
128.7542, 736.7596
129.2363, 749.6011
129.7184, 764.9257
130.2005, 783.4273
130.6826, 802.8799
131.1648, 821.6891
131.6469, 839.7787
132.1290, 854.8050
132.6111, 863.4550
133.0932, 866.7940
133.5753, 873.6159
134.0575, 885.9421
134.5396, 901.1707
135.0217, 912.5478
135.5038, 919.5518
135.9859, 926.1922
136.4680, 934.8256
136.9502, 945.3734
137.4323, 959.4261
137.9144, 978.1232
138.3965, 1000.986
138.8786, 1021.770
139.3607, 1039.153
139.8429, 1056.844
140.3250, 1079.358
140.8071, 1107.798
141.2892, 1137.452
141.7713, 1167.635
142.2534, 1199.545
142.7356, 1226.187
143.2177, 1245.364
143.6998, 1261.142
144.1819, 1280.200
144.6640, 1301.866
145.1461, 1327.937
145.6283, 1360.809
146.1104, 1409.881
146.5925, 1446.880
147.0746, 1465.654
147.5567, 1471.383
148.0388, 1484.031
148.5210, 1507.755
149.0031, 1534.790
149.4852, 1560.899
149.9673, 1581.735
150.4494, 1606.957
150.9315, 1639.789
151.4137, 1679.709
151.8958, 1714.873
152.3779, 1741.704
152.8600, 1765.319
153.3421, 1789.864
153.8242, 1814.929
154.3064, 1841.547
154.7885, 1870.896
155.2706, 1903.138
155.7527, 1935.101
156.2348, 1967.177
156.7169, 1998.363
157.1991, 2027.858
157.6812, 2050.664
158.1633, 2075.204
158.6454, 2106.870
159.1275, 2150.813
159.6096, 2187.280
160.0918, 2208.113
160.5739, 2217.561
161.0560, 2224.582
161.5381, 2229.906
162.0202, 2235.052
162.5023, 2241.696
162.9845, 2254.755
163.4666, 2262.126
163.9487, 2257.631
164.4308, 2242.866
164.9129, 2223.725
165.3950, 2197.467
165.8772, 2170.635
166.3593, 2149.271
166.8414, 2141.500
167.3235, 2134.179
167.8056, 2119.461
168.2877, 2097.799
168.7699, 2073.114
169.2520, 2046.558
169.7341, 2018.646
170.2162, 1990.444
170.6983, 1957.188
171.1804, 1926.716
171.6626, 1906.744
172.1447, 1897.865
172.6268, 1891.972
173.1089, 1886.724
173.5910, 1879.910
174.0731, 1867.108
174.5553, 1839.280
175.0374, 1806.829
175.5195, 1783.146
176.0016, 1769.993
176.4837, 1761.384
176.9658, 1752.452
177.4480, 1743.341
177.9301, 1734.642
178.4122, 1726.978
178.8943, 1719.946
179.3764, 1713.337
179.8585, 1707.706
180.3407, 1701.251
180.8228, 1689.626
181.3049, 1673.809
181.7870, 1660.258
182.2691, 1656.073
182.7512, 1658.092
183.2334, 1657.218
183.7155, 1650.098
184.1976, 1640.651
184.6797, 1635.473
185.1618, 1634.581
185.6439, 1636.023
186.1261, 1637.441
186.6082, 1639.457
187.0903, 1645.188
187.5724, 1656.403
188.0545, 1671.538
188.5366, 1688.285
189.0188, 1706.973
189.5009, 1724.045
189.9830, 1734.092
190.4651, 1737.739
190.9472, 1743.707
191.4293, 1756.933
191.9114, 1775.409
192.3936, 1789.694
192.8757, 1799.648
193.3578, 1806.484
193.8399, 1810.906
194.3220, 1812.896
194.8041, 1815.331
195.2863, 1823.030
195.7684, 1835.233
196.2505, 1833.342
196.7326, 1814.145
197.2147, 1786.908
197.6968, 1768.298
198.1790, 1759.602
198.6611, 1749.117
199.1432, 1730.058
199.6253, 1701.930
200.1074, 1673.661
200.5895, 1644.320
201.0717, 1616.151
201.5538, 1596.033
202.0359, 1586.002
202.5180, 1575.113
203.0001, 1556.823
203.4822, 1530.515
203.9644, 1500.618
204.4465, 1466.241
204.9286, 1429.332
205.4107, 1396.079
205.8928, 1366.017
206.3749, 1340.923
206.8571, 1324.192
207.3392, 1318.467
207.8213, 1307.770
208.3034, 1288.174
208.7855, 1261.876
209.2676, 1241.054
209.7498, 1225.922
210.2319, 1215.926
210.7140, 1212.296
211.1961, 1217.666
211.6782, 1219.848
212.1603, 1215.584
212.6425, 1205.486
213.1246, 1198.008
213.6067, 1193.165
214.0888, 1191.009
214.5709, 1192.086
215.0530, 1197.526
215.5352, 1202.957
216.0173, 1206.567
216.4994, 1208.104
216.9815, 1215.167
217.4636, 1231.469
217.9457, 1248.935
218.4279, 1257.012
218.9100, 1251.905
219.3921, 1246.276
219.8742, 1244.049
220.3563, 1246.062
220.8384, 1244.127
221.3206, 1235.688
221.8027, 1225.640
222.2848, 1221.410
222.7669, 1225.417
223.2490, 1230.486
223.7311, 1234.254
224.2132, 1235.908
224.6954, 1240.572
225.1775, 1251.474
225.6596, 1263.294
226.1417, 1265.845
226.6238, 1254.218
227.1059, 1241.815
227.5881, 1233.892
228.0702, 1233.544
228.5523, 1227.809
229.0344, 1213.188
229.5165, 1194.704
229.9986, 1183.464
230.4808, 1184.130
230.9629, 1184.959
231.4450, 1181.081
231.9271, 1170.571
232.4092, 1159.868
232.8913, 1148.942
233.3735, 1137.849
233.8556, 1126.846
234.3377, 1116.587
234.8198, 1105.528
235.3019, 1092.504
235.7840, 1074.626
236.2662, 1061.414
236.7483, 1055.859
237.2304, 1054.919
237.7125, 1047.788
238.1946, 1030.124
238.6767, 1012.198
239.1589, 999.8499
239.6410, 997.6730
240.1231, 991.1439
240.6052, 977.2956
241.0873, 958.4460
241.5694, 945.3698
242.0516, 944.0917
242.5337, 940.7401
243.0158, 925.8193
243.4979, 888.9043
243.9800, 862.1367
244.4621, 851.3738
244.9443, 853.3936
245.4264, 850.4819
245.9085, 839.9521
246.3906, 827.8425
246.8727, 818.1248
247.3548, 812.7207
247.8370, 805.6516
248.3191, 795.8255
248.8012, 783.7057
249.2833, 772.2181
249.7654, 761.2220
250.2475, 750.9908
250.7297, 741.7564
251.2118, 733.7376
251.6939, 726.4117
252.1760, 720.3879
252.6581, 715.3196
253.1402, 708.0823
253.6223, 696.6519
254.1045, 685.6573
254.5866, 679.3879
255.0687, 681.2552
255.5508, 679.5333
256.0329, 670.6797
256.5150, 655.8075
256.9972, 647.4751
257.4793, 648.2997
257.9614, 651.8971
258.4435, 653.5029
258.9256, 652.8195
259.4077, 650.6785
259.8899, 646.5776
260.3720, 640.7739
260.8541, 636.3107
261.3362, 633.5034
261.8183, 631.5375
262.3004, 630.0536
262.7826, 629.6955
263.2647, 627.9921
263.7468, 624.4281
264.2289, 619.0676
264.7110, 612.7352
265.1931, 604.4902
265.6753, 596.8764
266.1574, 592.8793
266.6395, 594.2992
267.1216, 592.9457
267.6037, 585.9576
268.0858, 574.3568
268.5680, 567.7957
269.0501, 567.9668
269.5322, 570.1210
270.0143, 570.0249
270.4964, 567.0765
270.9785, 564.5840
271.4607, 563.8342
271.9428, 564.2794
272.4249, 560.7737
272.9070, 551.6044
273.3891, 542.2478
273.8712, 538.4481
274.3534, 541.4437
274.8355, 542.3683
275.3176, 538.6708
275.7997, 531.3005
276.2818, 526.3701
276.7639, 524.4559
277.2461, 523.2465
277.7282, 520.8778
278.2103, 517.3274
278.6924, 512.7091
279.1745, 506.8828
279.6566, 500.0096
280.1388, 492.5247
280.6209, 484.1203
281.1030, 476.2364
281.5851, 470.6468
282.0672, 467.3940
282.5493, 462.7877
283.0315, 455.0320
283.5136, 445.6986
283.9957, 441.6501
284.4778, 443.7765
284.9599, 445.8921
285.4420, 441.8208
285.9242, 431.9858
286.4063, 422.4689
286.8884, 414.0253
287.3705, 407.0665
287.8526, 403.3282
288.3347, 403.0008
288.8169, 403.5645
289.2990, 402.9398
289.7811, 401.2876
290.2632, 399.9440
290.7453, 399.7729
291.2274, 399.5262
291.7096, 395.4905
292.1917, 387.5945
292.6738, 380.1552
293.1559, 377.3046
293.6380, 377.9473
294.1201, 377.4966
294.6023, 374.1946
295.0844, 370.3481
295.5665, 371.6416
296.0486, 377.6513
296.5307, 381.5890
297.0128, 375.2691
297.4950, 362.8949
297.9771, 355.9322
298.4592, 358.3968
298.9413, 364.3436
299.4234, 365.6612
299.9055, 362.8292
300.3876, 359.2152
300.8698, 355.9279
301.3519, 353.6146
301.8340, 353.6158
302.3161, 356.9147
302.7982, 361.1855
303.2803, 364.0281
303.7625, 365.6140
304.2446, 366.5786
304.7267, 366.4974
305.2088, 366.3076
305.6909, 367.7713
306.1730, 372.3095
306.6552, 375.8817
307.1373, 373.0346
307.6194, 365.9065
308.1015, 360.6024
308.5836, 362.7694
309.0657, 367.4036
309.5479, 369.4630
310.0300, 367.3675
310.5121, 364.9449
310.9942, 366.0454
311.4763, 368.8133
311.9584, 369.1026
312.4406, 360.7595
312.9227, 351.7676
313.4048, 348.6529
313.8869, 353.2597
314.3690, 359.3989
314.8511, 365.6516
315.3333, 371.1088
315.8154, 374.2266
316.2975, 372.4628
316.7796, 369.6660
317.2617, 367.9351
317.7438, 367.6490
318.2260, 367.5481
318.7081, 367.5282
319.1902, 367.3487
319.6723, 366.6865
320.1544, 362.8853
320.6365, 360.8228
321.1187, 363.2845
321.6008, 371.2942
322.0829, 377.9756
322.5650, 380.5851
323.0471, 381.6072
323.5292, 383.6737
324.0114, 390.6797
324.4935, 395.3617
324.9756, 394.4711
325.4577, 387.1657
325.9398, 382.8040
326.4219, 383.1908
326.9041, 386.3080
327.3862, 390.4380
327.8683, 397.2043
328.3504, 403.1538
328.8325, 407.6435
329.3146, 410.6827
329.7968, 413.6033
330.2789, 417.1471
330.7610, 420.0058
331.2431, 421.1532
331.7252, 419.2265
332.2073, 417.7653
332.6895, 417.1479
333.1716, 417.3138
333.6537, 417.8616
334.1358, 419.2561
334.6179, 420.4319
335.1000, 420.7509
335.5822, 420.1604
336.0643, 418.8283
336.5464, 416.6328
337.0285, 413.7243
337.5106, 410.8543
337.9927, 408.4121
338.4749, 405.0289
338.9570, 399.2458
339.4391, 390.2412
339.9212, 383.9389
340.4033, 381.1750
340.8854, 380.7179
341.3676, 380.3998
341.8497, 380.3340
342.3318, 379.7278
342.8139, 378.3321
343.2960, 376.1571
343.7781, 372.9963
344.2603, 369.0677
344.7424, 363.6967
345.2245, 354.3015
345.7066, 341.3008
346.1887, 330.7509
346.6708, 327.0493
347.1530, 328.3042
347.6351, 327.3292
348.1172, 323.9298
348.5993, 319.5914
349.0814, 316.2564
349.5635, 313.5375
350.0457, 309.6897
350.5278, 301.8581
351.0099, 293.4727
351.4920, 292.2424
351.9741, 298.0698
352.4562, 302.7675
352.9384, 296.3726
353.4205, 284.3197
353.9026, 276.4789
354.3847, 278.7761
354.8668, 284.0068
355.3489, 285.5093
355.8311, 283.6169
356.3132, 280.3324
356.7953, 275.4413
357.2774, 270.4165
357.7595, 266.8252
358.2416, 265.3882
358.7238, 264.9420
359.2059, 266.8826
359.6880, 269.6469
360.1701, 268.5468
360.6522, 256.5458
361.1343, 243.0374
361.6164, 234.5840
362.0985, 233.5246
362.5807, 234.3530
363.0628, 236.9541
363.5449, 240.0240
364.0270, 241.1460
364.5091, 238.1037
364.9912, 234.3029
365.4734, 231.2924
365.9555, 229.6552
366.4376, 227.0610
366.9197, 220.8116
367.4018, 214.2426
367.8839, 211.4116
368.3661, 217.4841
368.8482, 222.3162
369.3303, 223.9788
369.8124, 222.3123
370.2945, 218.9271
370.7766, 211.7170
371.2588, 204.3591
371.7409, 200.1313
372.2230, 200.4352
372.7051, 201.4072
373.1872, 203.5148
373.6693, 206.1723
374.1515, 204.6796
374.6336, 196.3343
375.1157, 188.5209
375.5978, 186.6152
376.0799, 192.1639
376.5620, 197.1174
377.0442, 201.1389
377.5263, 203.8871
378.0084, 204.6698
378.4905, 203.4216
378.9726, 200.5564
379.4547, 194.3708
379.9369, 185.3274
380.4190, 182.8164
380.9011, 188.7323
381.3832, 197.3044
381.8653, 199.5313
382.3474, 195.9743
382.8296, 191.7528
383.3117, 188.3319
383.7938, 185.9571
384.2759, 185.8316
384.7580, 188.1407
385.2401, 190.4658
385.7223, 191.0139
386.2044, 189.8111
386.6865, 186.7951
387.1686, 179.3052
387.6507, 172.0247
388.1328, 172.2551
388.6150, 178.9738
389.0971, 184.0090
389.5792, 179.1770
390.0613, 170.6767
390.5434, 165.4795
391.0255, 166.9125
391.5077, 169.5162
391.9898, 169.6707
392.4719, 168.3333
392.9540, 168.1970
393.4361, 173.3015
393.9182, 177.9666
394.4004, 177.9465
394.8825, 170.2200
395.3646, 164.7840
395.8467, 166.9188
396.3288, 172.6183
396.8109, 175.7901
397.2931, 172.6232
397.7752, 169.2101
398.2573, 167.2663
398.7394, 167.0581
399.2215, 167.1907
399.7036, 169.1087
400.1858, 170.4708
400.6679, 169.1074
401.1500, 161.9031
401.6321, 156.6765
402.1142, 154.8574
402.5963, 156.0520
403.0785, 157.2706
403.5606, 159.1860
404.0427, 160.0619
404.5248, 157.8875
405.0069, 150.8642
405.4890, 148.4777
405.9712, 152.9986
406.4533, 160.8865
406.9354, 163.7162
407.4175, 160.7248
407.8996, 157.6165
408.3817, 157.2473
408.8639, 159.4043
409.3460, 162.4052
409.8281, 166.6556
410.3102, 169.9683
410.7923, 168.2093
411.2744, 162.4144
411.7566, 158.2424
412.2387, 158.6755
412.7208, 161.6411
413.2029, 164.0343
413.6850, 165.8001
414.1671, 165.9403
414.6493, 162.1120
415.1314, 156.4662
415.6135, 152.3631
416.0956, 150.9539
416.5777, 150.9444
417.0598, 151.8597
417.5420, 153.4216
418.0241, 154.7995
418.5062, 155.2404
418.9883, 155.5349
419.4704, 156.4409
419.9525, 158.4490
420.4347, 159.7377
420.9168, 158.8522
421.3989, 157.0269
421.8810, 155.9895
422.3631, 157.3871
422.8452, 158.4738
423.3273, 158.5730
423.8094, 157.6512
424.2916, 155.7067
424.7737, 151.4463
425.2558, 146.9849
425.7379, 143.7510
426.2200, 142.5988
426.7021, 141.3385
427.1843, 138.8999
427.6664, 136.1376
428.1485, 136.9353
428.6306, 142.9430
429.1127, 149.4949
429.5948, 154.8244
430.0770, 159.5247
430.5591, 159.4082
431.0412, 152.9044
431.5233, 143.9345
432.0054, 137.9028
432.4875, 134.7642
432.9697, 135.5384
433.4518, 143.5742
433.9339, 155.8732
434.4160, 158.2873
434.8981, 150.1770
435.3802, 140.4613
435.8624, 137.3312
436.3445, 139.2699
436.8266, 141.9529
437.3087, 144.6969
437.7908, 147.1105
438.2729, 149.0558
438.7551, 150.3595
439.2372, 150.3197
439.7193, 146.5052
440.2014, 142.1721
440.6835, 141.1292
441.1656, 144.7414
441.6478, 147.9682
442.1299, 146.7882
442.6120, 143.6728
443.0941, 142.2099
443.5762, 146.5313
444.0583, 150.0663
444.5405, 148.9179
445.0226, 143.0351
445.5047, 140.1321
445.9868, 144.8307
446.4689, 151.0551
446.9510, 154.7337
447.4332, 154.1093
447.9153, 152.8057
448.3974, 150.4700
448.8795, 147.5370
449.3616, 145.0100
449.8438, 141.7139
450.3259, 140.7412
450.8080, 144.4016
451.2901, 154.2052
451.7722, 158.9771
452.2543, 157.5237
452.7365, 153.1507
453.2186, 149.9190
453.7007, 147.8671
454.1828, 145.9036
454.6649, 143.8819
455.1470, 141.6855
455.6292, 138.3351
456.1113, 133.7572
456.5934, 130.6166
457.0755, 131.8400
457.5576, 136.0181
458.0397, 139.9286
458.5219, 143.3976
459.0040, 145.3940
459.4861, 142.8906
459.9682, 137.7915
460.4503, 135.0057
460.9324, 139.8116
461.4146, 145.9960
461.8967, 148.5154
462.3788, 147.1196
462.8609, 144.3236
463.3430, 137.5599
463.8251, 131.7732
464.3073, 131.5762
464.7894, 147.1485
465.2715, 158.6250
465.7536, 158.9580
466.2357, 150.9938
466.7178, 145.0239
467.2000, 143.0519
467.6821, 142.6729
468.1642, 143.3225
468.6463, 145.8890
469.1284, 146.7592
469.6105, 144.6572
470.0927, 141.9152
470.5748, 141.6029
471.0569, 144.5857
471.5390, 147.5804
472.0211, 150.1612
472.5032, 152.1820
472.9854, 152.2316
473.4675, 149.8704
473.9496, 148.0036
474.4317, 150.0199
474.9138, 155.0393
475.3959, 156.1972
475.8781, 151.7688
476.3602, 146.3260
476.8423, 147.0495
477.3244, 152.3949
477.8065, 156.7566
478.2886, 157.8859
478.7708, 156.4201
479.2529, 150.6719
479.7350, 141.0218
480.2171, 135.6936
480.6992, 146.2992
481.1813, 161.2977
481.6635, 168.4815
482.1456, 159.1622
482.6277, 149.9100
483.1098, 147.9759
483.5919, 150.9139
484.0740, 152.8420
484.5562, 151.7527
485.0382, 149.8926
485.5204, 147.4315
486.0025, 143.4989
486.4846, 142.9057
486.9667, 149.2068
487.4488, 156.2368
487.9309, 158.0088
488.4131, 151.2155
488.8952, 146.5377
489.3773, 145.4630
489.8594, 147.3896
490.3415, 150.5694
490.8236, 155.3891
491.3058, 159.8236
491.7879, 163.1007
492.2700, 165.1764
492.7521, 164.2952
493.2342, 159.7531
493.7163, 155.3911
494.1985, 157.8598
494.6806, 164.7647
495.1627, 167.2403
495.6448, 158.6779
496.1269, 147.5943
496.6090, 145.3703
497.0912, 150.5853
497.5733, 156.0130
498.0554, 157.8501
498.5375, 157.7362
499.0196, 156.5831
499.5017, 153.7764
499.9839, 152.5869
500.4660, 156.1602
500.9481, 161.6413
501.4302, 165.3492
501.9123, 164.3852
502.3944, 163.7032
502.8766, 164.8741
503.3587, 167.7822
503.8408, 169.5570
504.3229, 169.1564
504.8050, 168.7551
505.2871, 169.8638
505.7693, 173.8929
506.2514, 174.8261
506.7335, 171.3043
507.2156, 166.1874
507.6977, 164.3773
508.1798, 166.2297
508.6620, 167.8096
509.1441, 167.8226
509.6262, 166.6564
510.1083, 165.1073
510.5904, 163.1800
511.0725, 162.2599
511.5547, 164.3862
512.0368, 168.1288
512.5189, 170.8006
513.0010, 171.9724
513.4832, 172.0087
513.9653, 171.0849
514.4474, 169.2620
514.9295, 166.6552
515.4116, 160.8975
515.8937, 156.4404
516.3758, 156.5601
516.8579, 160.9937
517.3400, 164.8602
517.8221, 165.6060
518.3043, 166.1794
518.7864, 168.4949
519.2685, 175.4853
519.7506, 179.8921
520.2327, 181.3697
520.7148, 180.3500
521.1970, 176.9916
521.6791, 169.4689
522.1612, 163.7797
522.6433, 161.6687
523.1254, 162.8618
523.6075, 165.7518
524.0897, 171.0625
524.5718, 174.7565
525.0539, 171.5444
525.5360, 163.1316
526.0181, 160.3361
526.5002, 165.5730
526.9824, 172.7995
527.4645, 174.6056
527.9466, 172.2331
528.4287, 169.2692
528.9108, 166.0531
529.3929, 163.7846
529.8751, 163.9571
530.3572, 166.3255
530.8393, 168.8550
531.3214, 171.3436
531.8035, 173.0843
532.2856, 173.6089
532.7678, 172.6668
533.2499, 170.8803
533.7320, 167.1365
534.2141, 162.9769
534.6962, 160.7404
535.1783, 162.1105
535.6605, 163.0860
536.1426, 162.7461
536.6247, 161.3150
537.1068, 160.5032
537.5889, 160.3170
538.0710, 160.7529
538.5532, 162.2710
539.0353, 164.9042
539.5174, 165.9299
539.9995, 164.9089
540.4816, 163.3611
540.9637, 163.3939
541.4459, 164.6511
541.9280, 165.5633
542.4101, 165.0117
542.8922, 164.4583
543.3743, 166.3725
543.8564, 170.1627
544.3386, 173.2126
544.8207, 174.0031
545.3028, 173.4552
545.7849, 171.7286
546.2670, 168.3735
546.7491, 166.4726
547.2313, 168.7066
547.7134, 172.2011
548.1955, 174.0497
548.6776, 172.7868
549.1597, 171.1047
549.6418, 168.0139
550.1240, 164.6649
550.6061, 165.5650
551.0882, 173.5670
551.5703, 180.1460
552.0524, 181.0386
552.5345, 176.1225
553.0167, 174.9227
553.4988, 178.2242
553.9809, 182.1179
554.4630, 181.4680
554.9451, 177.4998
555.4272, 177.5617
555.9094, 184.7651
556.3915, 192.6238
556.8736, 191.6765
557.3557, 184.4833
557.8378, 178.3194
558.3199, 178.8251
558.8021, 180.3213
559.2842, 177.0394
559.7663, 169.2316
560.2484, 164.5013
560.7305, 169.3231
561.2126, 176.0751
561.6948, 179.3378
562.1769, 175.2706
562.6590, 173.2224
563.1411, 175.4305
563.6232, 179.1915
564.1053, 180.5863
564.5875, 178.0310
565.0696, 176.5723
565.5517, 177.6079
566.0338, 180.6212
566.5159, 182.9438
566.9980, 184.5632
567.4802, 185.7171
567.9623, 186.4579
568.4444, 186.8663
568.9265, 187.3021
569.4086, 187.8117
569.8907, 188.1698
570.3729, 188.2139
570.8550, 187.9418
571.3371, 187.2839
571.8192, 185.6480
572.3013, 184.3992
572.7834, 183.9061
573.2656, 184.4684
573.7477, 186.8723
574.2298, 195.7137
574.7119, 202.6261
575.1940, 202.8035
575.6761, 194.8676
