##NAMES=Lanthanite-(Nd)
##RRUFFID=R060467
##IDEAL CHEMISTRY=Nd_2_(CO_3_)_3_&#183;8H_2_O
##LOCALITY=Curitiba, Parana, Brazil
##OWNER=RRUFF
##SOURCE=Michael Scott
##DESCRIPTION=Pink tabular crystals
##STATUS=The identification of this mineral is confirmed by single-crystal X-ray diffraction and chemical analysis.
##URL=rruff.info/R060467
##MEASURED CHEMISTRY=(Nd_0.85_La_0.78_Pr_0.22_Sm_0.09_)_Σ=1.94_(CO_3_)_3.04_·8H_2_O
163.9042, 2636.171
164.3863, 2657.181
164.8684, 2674.688
165.3506, 2675.556
165.8327, 2670.096
166.3148, 2666.762
166.7969, 2672.003
167.2790, 2675.818
167.7611, 2669.661
168.2433, 2654.943
168.7254, 2644.047
169.2075, 2646.127
169.6896, 2655.389
170.1717, 2665.054
170.6538, 2675.366
171.1360, 2683.336
171.6181, 2684.858
172.1002, 2679.647
172.5823, 2675.344
173.0644, 2679.634
173.5465, 2688.576
174.0287, 2695.172
174.5108, 2695.356
174.9929, 2691.982
175.4750, 2686.871
175.9571, 2679.471
176.4392, 2674.267
176.9214, 2678.789
177.4035, 2689.600
177.8856, 2697.205
178.3677, 2695.269
178.8498, 2687.133
179.3319, 2677.570
179.8141, 2666.711
180.2962, 2655.605
180.7783, 2647.468
181.2604, 2641.242
181.7425, 2630.563
182.2246, 2606.644
182.7068, 2575.289
183.1889, 2549.194
183.6710, 2530.789
184.1531, 2518.818
184.6352, 2514.021
185.1173, 2515.999
185.5995, 2518.242
186.0816, 2513.046
186.5637, 2503.183
187.0458, 2499.341
187.5279, 2506.623
188.0100, 2519.920
188.4922, 2528.344
188.9743, 2531.927
189.4564, 2531.177
189.9385, 2525.029
190.4206, 2514.108
190.9027, 2503.064
191.3849, 2491.596
191.8670, 2481.095
192.3491, 2477.674
192.8312, 2482.203
193.3133, 2489.382
193.7955, 2494.875
194.2776, 2498.618
194.7597, 2497.334
195.2418, 2488.055
195.7239, 2471.877
196.2060, 2457.765
196.6882, 2446.836
197.1703, 2435.341
197.6524, 2417.083
198.1345, 2391.972
198.6166, 2365.316
199.0987, 2338.531
199.5809, 2311.614
200.0630, 2288.774
200.5451, 2271.567
201.0272, 2256.180
201.5093, 2233.409
201.9914, 2201.146
202.4736, 2172.578
202.9557, 2158.192
203.4378, 2160.161
203.9199, 2148.430
204.4020, 2116.453
204.8841, 2074.306
205.3663, 2048.579
205.8484, 2043.100
206.3305, 2040.854
206.8126, 2030.532
207.2947, 2009.952
207.7768, 1995.339
208.2590, 1989.808
208.7411, 1990.617
209.2232, 1988.592
209.7053, 1983.754
210.1874, 1975.915
210.6695, 1963.429
211.1517, 1944.302
211.6338, 1929.195
212.1159, 1920.230
212.5980, 1916.482
213.0801, 1912.192
213.5622, 1906.313
214.0444, 1901.936
214.5265, 1902.909
215.0086, 1912.284
215.4907, 1916.539
215.9728, 1910.223
216.4549, 1894.908
216.9371, 1893.041
217.4192, 1910.030
217.9013, 1932.537
218.3834, 1947.872
218.8655, 1953.784
219.3476, 1958.616
219.8298, 1964.553
220.3119, 1971.594
220.7940, 1974.227
221.2761, 1970.184
221.7582, 1964.333
222.2403, 1961.758
222.7225, 1962.872
223.2046, 1966.760
223.6867, 1975.813
224.1688, 1991.594
224.6509, 1993.861
225.1330, 1975.159
225.6152, 1949.935
226.0973, 1938.147
226.5794, 1947.555
227.0615, 1954.712
227.5436, 1952.794
228.0257, 1940.150
228.5079, 1928.300
228.9900, 1918.185
229.4721, 1908.022
229.9542, 1894.861
230.4363, 1876.988
230.9185, 1859.280
231.4006, 1842.740
231.8827, 1827.192
232.3648, 1813.902
232.8469, 1802.195
233.3290, 1793.038
233.8112, 1789.042
234.2933, 1795.522
234.7754, 1798.271
235.2575, 1791.718
235.7396, 1772.592
236.2217, 1754.743
236.7039, 1738.472
237.1860, 1723.197
237.6681, 1707.683
238.1502, 1692.011
238.6323, 1675.976
239.1144, 1658.465
239.5966, 1636.928
240.0787, 1621.480
240.5608, 1614.789
241.0429, 1613.208
241.5250, 1608.634
242.0071, 1600.048
242.4893, 1589.968
242.9714, 1579.356
243.4535, 1567.406
243.9356, 1556.422
244.4177, 1546.626
244.8998, 1537.742
245.3820, 1529.401
245.8641, 1523.366
246.3462, 1515.228
246.8283, 1502.460
247.3104, 1482.119
247.7925, 1464.245
248.2747, 1449.030
248.7568, 1436.351
249.2389, 1425.453
249.7210, 1414.407
250.2031, 1408.065
250.6852, 1410.658
251.1674, 1430.315
251.6495, 1438.814
252.1316, 1431.068
252.6137, 1412.364
253.0958, 1398.921
253.5779, 1390.737
254.0601, 1387.826
254.5422, 1392.304
255.0243, 1411.177
255.5064, 1418.473
255.9885, 1408.053
256.4706, 1386.140
256.9528, 1373.792
257.4349, 1375.310
257.9170, 1379.290
258.3991, 1380.025
258.8812, 1377.209
259.3633, 1371.430
259.8455, 1360.303
260.3276, 1346.619
260.8097, 1341.254
261.2918, 1348.275
261.7739, 1356.084
262.2560, 1357.997
262.7382, 1352.087
263.2203, 1345.712
263.7024, 1338.193
264.1845, 1330.737
264.6666, 1328.348
265.1487, 1334.016
265.6309, 1338.603
266.1130, 1335.366
266.5951, 1320.716
267.0772, 1311.524
267.5593, 1310.961
268.0414, 1315.901
268.5236, 1315.331
269.0057, 1307.358
269.4878, 1298.442
269.9699, 1292.212
270.4520, 1289.017
270.9341, 1287.352
271.4163, 1287.790
271.8984, 1289.345
272.3805, 1289.083
272.8626, 1286.890
273.3447, 1283.188
273.8268, 1276.858
274.3090, 1266.833
274.7911, 1262.600
275.2732, 1267.740
275.7553, 1277.353
276.2374, 1276.470
276.7195, 1262.510
277.2017, 1248.025
277.6838, 1241.552
278.1659, 1243.860
278.6480, 1244.792
279.1301, 1243.713
279.6122, 1240.524
280.0944, 1233.287
280.5765, 1220.906
281.0586, 1210.939
281.5407, 1208.898
282.0229, 1214.844
282.5050, 1221.765
282.9871, 1230.522
283.4692, 1238.061
283.9513, 1237.016
284.4334, 1226.861
284.9156, 1214.253
285.3977, 1201.589
285.8798, 1189.132
286.3619, 1180.795
286.8440, 1177.668
287.3261, 1177.525
287.8083, 1176.591
288.2904, 1174.865
288.7725, 1172.516
289.2546, 1169.114
289.7367, 1164.982
290.2188, 1162.181
290.7010, 1161.414
291.1831, 1160.798
291.6652, 1156.733
292.1473, 1149.420
292.6294, 1142.194
293.1115, 1135.078
293.5937, 1129.243
294.0758, 1130.204
294.5579, 1140.066
295.0400, 1151.694
295.5221, 1155.359
296.0042, 1151.866
296.4864, 1145.813
296.9685, 1137.155
297.4506, 1127.843
297.9327, 1123.320
298.4148, 1124.633
298.8969, 1127.562
299.3791, 1125.390
299.8612, 1120.034
300.3433, 1118.255
300.8254, 1127.682
301.3075, 1141.804
301.7896, 1149.274
302.2718, 1148.920
302.7539, 1145.904
303.2360, 1144.873
303.7181, 1145.149
304.2002, 1145.073
304.6823, 1143.396
305.1645, 1141.153
305.6466, 1139.254
306.1287, 1137.652
306.6108, 1137.281
307.0929, 1139.742
307.5750, 1143.894
308.0572, 1147.747
308.5393, 1150.279
309.0214, 1152.181
309.5035, 1154.218
309.9856, 1156.422
310.4677, 1157.969
310.9499, 1156.883
311.4320, 1155.136
311.9141, 1155.430
312.3962, 1161.475
312.8783, 1167.849
313.3604, 1171.141
313.8426, 1171.341
314.3247, 1170.144
314.8068, 1165.631
315.2889, 1161.238
315.7710, 1160.504
316.2531, 1167.719
316.7353, 1176.016
317.2174, 1184.084
317.6995, 1191.486
318.1816, 1194.319
318.6637, 1187.432
319.1458, 1177.184
319.6280, 1168.680
320.1101, 1161.853
320.5922, 1158.321
321.0743, 1159.678
321.5564, 1165.247
322.0385, 1171.244
322.5207, 1177.472
323.0028, 1183.360
323.4849, 1188.492
323.9670, 1192.566
324.4491, 1196.228
324.9312, 1202.192
325.4134, 1208.513
325.8955, 1207.877
326.3776, 1184.089
326.8597, 1164.610
327.3418, 1162.813
327.8239, 1200.259
328.3061, 1226.089
328.7882, 1236.142
329.2703, 1233.834
329.7524, 1227.545
330.2345, 1209.222
330.7166, 1194.827
331.1988, 1191.293
331.6809, 1206.281
332.1630, 1214.444
332.6451, 1212.172
333.1272, 1204.357
333.6093, 1200.029
334.0915, 1200.041
334.5736, 1202.238
335.0557, 1207.319
335.5378, 1217.329
336.0199, 1219.460
336.5020, 1209.303
336.9842, 1195.550
337.4663, 1190.899
337.9484, 1198.734
338.4305, 1206.745
338.9126, 1213.234
339.3947, 1218.187
339.8769, 1211.665
340.3590, 1188.510
340.8411, 1164.248
341.3232, 1157.879
341.8053, 1171.958
342.2874, 1184.826
342.7696, 1191.465
343.2517, 1192.411
343.7338, 1189.016
344.2159, 1180.495
344.6980, 1171.588
345.1801, 1167.044
345.6623, 1166.570
346.1444, 1165.174
346.6265, 1161.512
347.1086, 1156.606
347.5907, 1152.362
348.0728, 1148.851
348.5550, 1146.509
349.0371, 1146.904
349.5192, 1148.945
350.0013, 1148.837
350.4834, 1145.348
350.9655, 1140.620
351.4477, 1138.193
351.9298, 1137.516
352.4119, 1136.018
352.8940, 1130.844
353.3762, 1124.148
353.8583, 1120.433
354.3404, 1121.365
354.8225, 1120.963
355.3046, 1107.577
355.7867, 1087.900
356.2689, 1077.997
356.7510, 1099.524
357.2331, 1126.622
357.7152, 1132.962
358.1973, 1114.768
358.6794, 1094.686
359.1616, 1086.241
359.6437, 1085.131
360.1258, 1085.337
360.6079, 1086.560
361.0900, 1086.817
361.5721, 1083.878
362.0543, 1077.789
362.5364, 1073.737
363.0185, 1077.662
363.5006, 1082.818
363.9827, 1083.131
364.4648, 1069.825
364.9470, 1058.996
365.4291, 1055.509
365.9112, 1058.713
366.3933, 1063.324
366.8754, 1073.206
367.3575, 1080.971
367.8397, 1082.306
368.3218, 1068.348
368.8039, 1058.483
369.2860, 1057.270
369.7681, 1061.321
370.2502, 1060.220
370.7324, 1045.383
371.2145, 1033.999
371.6966, 1033.658
372.1787, 1050.963
372.6608, 1062.606
373.1429, 1066.148
373.6251, 1065.338
374.1072, 1066.380
374.5893, 1069.914
375.0714, 1074.052
375.5535, 1078.346
376.0356, 1082.815
376.5178, 1087.152
376.9999, 1091.786
377.4820, 1095.487
377.9641, 1097.307
378.4462, 1097.570
378.9283, 1093.213
379.4105, 1080.128
379.8926, 1062.113
380.3747, 1059.211
380.8568, 1073.519
381.3389, 1089.794
381.8210, 1094.719
382.3032, 1089.473
382.7853, 1083.683
383.2674, 1078.367
383.7495, 1074.465
384.2316, 1075.242
384.7137, 1080.183
385.1959, 1084.234
385.6780, 1083.180
386.1601, 1079.011
386.6422, 1075.870
387.1243, 1074.270
387.6064, 1073.574
388.0886, 1073.428
388.5707, 1073.658
389.0528, 1073.824
389.5349, 1072.929
390.0170, 1072.307
390.4991, 1074.127
390.9813, 1078.743
391.4634, 1081.846
391.9455, 1078.649
392.4276, 1072.866
392.9097, 1069.212
393.3918, 1071.486
393.8740, 1074.373
394.3561, 1075.087
394.8382, 1073.877
395.3203, 1073.434
395.8024, 1078.639
396.2845, 1082.613
396.7667, 1080.292
397.2488, 1058.410
397.7309, 1045.690
398.2130, 1054.126
398.6951, 1076.643
399.1772, 1090.972
399.6594, 1090.312
400.1415, 1084.733
400.6236, 1076.533
401.1057, 1060.619
401.5878, 1054.781
402.0699, 1067.672
402.5521, 1086.419
403.0342, 1090.748
403.5163, 1069.462
403.9984, 1053.978
404.4805, 1055.142
404.9626, 1073.355
405.4448, 1081.050
405.9269, 1074.302
406.4090, 1064.239
406.8911, 1062.604
407.3732, 1071.126
407.8553, 1076.053
408.3375, 1073.681
408.8196, 1066.769
409.3017, 1063.769
409.7838, 1064.870
410.2659, 1067.775
410.7480, 1073.103
411.2302, 1079.587
411.7123, 1079.087
412.1944, 1068.615
412.6765, 1057.025
413.1586, 1058.333
413.6407, 1069.888
414.1229, 1079.954
414.6050, 1081.370
415.0871, 1078.256
415.5692, 1076.708
416.0513, 1077.010
416.5334, 1077.335
417.0156, 1074.259
417.4977, 1070.679
417.9798, 1070.974
418.4619, 1082.321
418.9440, 1093.190
419.4261, 1094.514
419.9083, 1087.964
420.3904, 1083.574
420.8725, 1089.261
421.3546, 1096.672
421.8367, 1099.776
422.3188, 1095.822
422.8010, 1090.419
423.2831, 1081.947
423.7652, 1073.108
424.2473, 1069.399
424.7295, 1076.423
425.2116, 1084.200
425.6937, 1089.403
426.1758, 1091.017
426.6579, 1093.825
427.1400, 1099.946
427.6222, 1105.865
428.1043, 1107.497
428.5864, 1101.026
429.0685, 1098.138
429.5506, 1102.420
430.0327, 1112.506
430.5149, 1117.789
430.9970, 1116.306
431.4791, 1114.647
431.9612, 1118.956
432.4433, 1129.937
432.9254, 1135.103
433.4076, 1132.695
433.8897, 1124.878
434.3718, 1113.144
434.8539, 1097.708
435.3360, 1086.087
435.8181, 1083.395
436.3003, 1087.369
436.7824, 1092.856
437.2645, 1099.947
437.7466, 1106.266
438.2287, 1108.586
438.7108, 1108.401
439.1930, 1109.148
439.6751, 1113.721
440.1572, 1118.003
440.6393, 1116.547
441.1214, 1110.599
441.6035, 1106.309
442.0857, 1108.708
442.5678, 1113.462
443.0499, 1117.302
443.5320, 1120.129
444.0141, 1120.640
444.4962, 1113.672
444.9784, 1104.751
445.4605, 1103.133
445.9426, 1118.399
446.4247, 1134.609
446.9068, 1147.552
447.3889, 1157.002
447.8711, 1162.002
448.3532, 1159.691
448.8353, 1154.734
449.3174, 1150.751
449.7995, 1150.958
450.2816, 1146.181
450.7638, 1131.562
451.2459, 1111.414
451.7280, 1104.411
452.2101, 1115.478
452.6922, 1127.883
453.1743, 1132.395
453.6565, 1127.901
454.1386, 1127.193
454.6207, 1131.704
455.1028, 1137.172
455.5849, 1136.060
456.0670, 1128.896
456.5492, 1125.132
457.0313, 1130.653
457.5134, 1140.686
457.9955, 1141.936
458.4776, 1134.777
458.9597, 1129.025
459.4419, 1134.562
459.9240, 1146.287
460.4061, 1156.308
460.8882, 1163.983
461.3703, 1167.008
461.8524, 1158.336
462.3346, 1143.143
462.8167, 1133.625
463.2988, 1139.587
463.7809, 1150.086
464.2630, 1160.279
464.7451, 1170.135
465.2273, 1174.673
465.7094, 1166.247
466.1915, 1154.541
466.6736, 1148.170
467.1557, 1155.635
467.6378, 1160.771
468.1200, 1160.515
468.6021, 1155.799
469.0842, 1150.584
469.5663, 1142.221
470.0484, 1136.460
470.5305, 1135.919
471.0127, 1141.824
471.4948, 1149.673
471.9769, 1161.614
472.4590, 1172.912
472.9411, 1175.652
473.4232, 1168.258
473.9054, 1162.496
474.3875, 1162.058
474.8696, 1165.713
475.3517, 1169.026
475.8338, 1172.051
476.3159, 1174.052
476.7981, 1173.528
477.2802, 1171.448
477.7623, 1171.212
478.2444, 1173.956
478.7265, 1176.624
479.2086, 1174.449
479.6908, 1169.288
480.1729, 1165.821
480.6550, 1169.332
481.1371, 1173.417
481.6192, 1169.691
482.1013, 1158.421
482.5835, 1153.789
483.0656, 1172.233
483.5477, 1195.496
484.0298, 1207.922
484.5119, 1195.345
484.9940, 1185.976
485.4762, 1188.264
485.9583, 1198.206
486.4404, 1205.486
486.9225, 1210.625
487.4046, 1211.381
487.8867, 1205.441
488.3689, 1190.705
488.8510, 1182.067
489.3331, 1181.917
489.8152, 1184.883
490.2973, 1185.927
490.7794, 1184.702
491.2616, 1182.997
491.7437, 1181.148
492.2258, 1178.962
492.7079, 1175.689
493.1900, 1171.307
493.6722, 1166.860
494.1543, 1160.322
494.6364, 1153.999
495.1185, 1158.083
495.6006, 1174.021
496.0828, 1191.191
496.5649, 1199.605
497.0470, 1201.184
497.5291, 1199.385
498.0112, 1191.775
498.4933, 1185.015
498.9755, 1188.025
499.4576, 1197.675
499.9397, 1201.908
500.4218, 1185.341
500.9039, 1168.456
501.3860, 1166.706
501.8682, 1189.159
502.3503, 1203.606
502.8324, 1196.091
503.3145, 1179.204
503.7966, 1167.947
504.2787, 1165.924
504.7609, 1166.191
505.2430, 1168.157
505.7251, 1171.728
506.2072, 1176.927
506.6893, 1185.626
507.1714, 1192.540
507.6536, 1193.348
508.1357, 1186.655
508.6178, 1186.222
509.0999, 1194.057
509.5820, 1204.362
510.0641, 1209.265
510.5463, 1209.068
511.0284, 1207.295
511.5105, 1203.907
511.9926, 1200.501
512.4747, 1200.674
512.9568, 1204.070
513.4390, 1207.710
513.9211, 1210.483
514.4032, 1211.918
514.8853, 1211.124
515.3674, 1207.600
515.8495, 1203.478
516.3317, 1197.277
516.8138, 1192.005
517.2959, 1191.818
517.7780, 1205.826
518.2601, 1217.356
518.7422, 1219.526
519.2244, 1213.177
519.7065, 1207.381
520.1886, 1199.066
520.6707, 1195.085
521.1528, 1199.932
521.6349, 1220.709
522.1171, 1231.529
522.5992, 1228.951
523.0813, 1219.818
523.5634, 1212.384
524.0455, 1206.378
524.5276, 1203.624
525.0098, 1205.112
525.4919, 1209.961
525.9740, 1217.227
526.4561, 1227.111
526.9382, 1232.714
527.4203, 1225.695
527.9025, 1211.389
528.3846, 1202.081
528.8667, 1198.906
529.3488, 1200.504
529.8309, 1209.122
530.3130, 1220.994
530.7952, 1230.125
531.2773, 1231.240
531.7594, 1231.582
532.2415, 1236.580
532.7236, 1244.656
533.2057, 1248.783
533.6879, 1243.481
534.1700, 1236.341
534.6521, 1230.868
535.1342, 1227.457
535.6163, 1225.461
536.0984, 1224.243
536.5806, 1224.854
537.0627, 1228.922
537.5448, 1238.797
538.0269, 1246.445
538.5090, 1249.983
538.9911, 1250.713
539.4733, 1253.694
539.9554, 1259.720
540.4375, 1262.343
540.9196, 1254.047
541.4017, 1238.414
541.8839, 1234.756
542.3660, 1244.583
542.8481, 1254.901
543.3302, 1250.692
543.8123, 1238.387
544.2944, 1231.025
544.7766, 1234.589
545.2587, 1240.359
545.7408, 1240.318
546.2229, 1237.074
546.7050, 1237.074
547.1871, 1248.120
547.6693, 1258.585
548.1514, 1260.671
548.6335, 1252.595
549.1156, 1250.558
549.5977, 1264.869
550.0798, 1280.689
550.5620, 1287.620
551.0441, 1280.341
551.5262, 1274.582
552.0083, 1270.701
552.4904, 1268.843
552.9725, 1270.730
553.4547, 1277.854
553.9368, 1280.546
554.4189, 1272.985
554.9010, 1258.747
555.3831, 1252.292
555.8652, 1253.716
556.3474, 1258.033
556.8295, 1261.732
557.3116, 1265.461
557.7937, 1271.629
558.2758, 1281.799
558.7579, 1289.084
559.2401, 1282.622
559.7222, 1270.411
560.2043, 1264.872
560.6864, 1278.956
561.1685, 1292.686
561.6506, 1297.023
562.1328, 1293.211
562.6149, 1288.622
563.0970, 1278.698
563.5791, 1273.682
564.0612, 1280.033
564.5433, 1304.065
565.0255, 1314.433
565.5076, 1304.836
565.9897, 1288.938
566.4718, 1280.422
566.9539, 1280.426
567.4360, 1280.734
567.9182, 1279.173
568.4003, 1278.311
568.8824, 1286.029
569.3645, 1301.398
569.8466, 1313.879
570.3287, 1314.213
570.8109, 1309.328
571.2930, 1311.748
571.7751, 1321.321
572.2572, 1330.262
572.7393, 1333.732
573.2214, 1333.597
573.7036, 1331.332
574.1857, 1325.849
574.6678, 1321.545
575.1499, 1323.302
575.6320, 1326.402
576.1141, 1323.932
576.5963, 1303.163
577.0784, 1290.159
577.5605, 1292.920
578.0426, 1308.488
578.5247, 1318.439
579.0068, 1321.790
579.4890, 1321.359
579.9711, 1317.158
580.4532, 1308.819
580.9353, 1303.548
581.4174, 1301.187
581.8995, 1302.567
582.3817, 1313.027
582.8638, 1328.874
583.3459, 1335.385
583.8280, 1325.677
584.3101, 1311.804
584.7922, 1306.767
585.2744, 1308.514
585.7565, 1311.615
586.2386, 1313.966
586.7207, 1316.519
587.2028, 1319.161
587.6849, 1321.980
588.1671, 1327.376
588.6492, 1342.434
589.1313, 1355.568
589.6134, 1358.868
590.0955, 1345.731
590.5776, 1337.476
591.0598, 1336.057
591.5419, 1337.765
592.0240, 1337.279
592.5061, 1333.630
592.9882, 1333.094
593.4703, 1338.353
593.9525, 1346.267
594.4346, 1348.467
594.9167, 1345.318
595.3988, 1341.939
595.8809, 1341.848
596.3630, 1343.190
596.8452, 1342.106
597.3273, 1338.553
597.8094, 1336.814
598.2915, 1343.591
598.7736, 1351.635
599.2557, 1353.314
599.7379, 1343.118
600.2200, 1334.416
600.7021, 1329.841
601.1843, 1329.398
601.6664, 1333.400
602.1485, 1348.920
602.6306, 1358.889
603.1127, 1359.491
603.5948, 1352.207
604.0770, 1342.840
604.5591, 1329.380
605.0412, 1320.746
605.5233, 1325.175
606.0054, 1340.554
606.4875, 1346.535
606.9697, 1342.246
607.4518, 1336.787
607.9339, 1340.057
608.4160, 1348.374
608.8981, 1353.596
609.3802, 1352.761
609.8624, 1352.189
610.3445, 1359.064
610.8266, 1369.011
611.3087, 1374.831
611.7908, 1373.561
612.2729, 1368.114
612.7551, 1354.833
613.2372, 1336.038
613.7193, 1328.264
614.2014, 1339.361
614.6835, 1352.394
615.1656, 1361.228
615.6478, 1365.711
616.1299, 1366.667
616.6120, 1362.959
617.0941, 1358.649
617.5762, 1359.120
618.0583, 1363.347
618.5405, 1360.847
619.0226, 1347.443
619.5047, 1334.923
619.9868, 1344.544
620.4689, 1366.755
620.9510, 1378.669
621.4332, 1358.388
621.9153, 1335.227
622.3974, 1328.814
622.8795, 1336.006
623.3616, 1343.359
623.8438, 1344.542
624.3259, 1346.557
624.8080, 1355.922
625.2901, 1376.350
625.7722, 1378.974
626.2543, 1349.880
626.7365, 1320.278
627.2186, 1317.865
627.7007, 1349.297
628.1828, 1363.226
628.6649, 1352.084
629.1470, 1331.965
629.6292, 1325.758
630.1113, 1331.360
630.5934, 1338.303
631.0755, 1344.704
631.5576, 1348.981
632.0397, 1347.847
632.5219, 1342.689
633.0040, 1337.827
633.4861, 1332.714
633.9682, 1330.867
634.4503, 1336.148
634.9324, 1348.904
635.4146, 1359.141
635.8967, 1366.672
636.3788, 1369.479
636.8609, 1365.551
637.3430, 1350.412
637.8251, 1341.450
638.3073, 1341.047
638.7894, 1343.325
639.2715, 1339.564
639.7536, 1329.688
640.2357, 1326.255
640.7178, 1333.697
641.2000, 1345.085
641.6821, 1350.053
642.1642, 1349.648
642.6463, 1347.563
643.1284, 1344.793
643.6105, 1341.697
644.0927, 1336.765
644.5748, 1330.941
645.0569, 1329.837
645.5390, 1343.127
646.0211, 1355.634
646.5032, 1358.521
646.9854, 1347.611
647.4675, 1339.912
647.9496, 1336.861
648.4317, 1335.408
648.9138, 1332.547
649.3959, 1327.439
649.8781, 1326.369
650.3602, 1330.551
650.8423, 1337.423
651.3244, 1346.205
651.8065, 1355.361
652.2886, 1356.162
652.7708, 1338.609
653.2529, 1320.392
653.7350, 1327.549
654.2171, 1351.584
654.6992, 1367.379
655.1813, 1354.695
655.6635, 1337.957
656.1456, 1330.148
656.6277, 1331.912
657.1098, 1332.541
657.5919, 1327.441
658.0740, 1324.104
658.5562, 1327.390
659.0383, 1340.405
659.5204, 1345.127
660.0025, 1338.787
