##NAMES=Larisaite
##RRUFFID=R060879
##IDEAL CHEMISTRY=Na(H_3_O)(U^6+^O_2_)_3_(Se^4+^O_3_)_2_O_2_&#183;4H_2_O
##LOCALITY=Repete mine, San Juan County, Utah, USA
##OWNER=RRUFF
##SOURCE=Michael Scott
##DESCRIPTION=Flattened aggregate of greenish yellow platy crystals
##STATUS=The identification of this mineral has been made only by X-ray diffraction.
##URL=rruff.info/R060879
194.8047, 79737.76
195.2868, 79735.65
195.7689, 79744.06
196.2511, 79764.88
196.7332, 79797.87
197.2153, 79839.20
197.6974, 79888.87
198.1795, 79954.67
198.6616, 80060.02
199.1437, 80211.48
199.6259, 80308.98
200.1080, 80323.68
200.5901, 80281.95
201.0722, 80275.54
201.5543, 80306.13
202.0364, 80361.60
202.5186, 80433.91
203.0007, 80522.23
203.4828, 80619.96
203.9649, 80728.28
204.4470, 80842.15
204.9291, 80933.30
205.4113, 80991.75
205.8934, 81044.41
206.3755, 81115.02
206.8576, 81203.80
207.3397, 81305.73
207.8218, 81436.56
208.3040, 81590.54
208.7861, 81660.93
209.2682, 81620.76
209.7503, 81549.34
210.2324, 81542.82
210.7145, 81634.34
211.1967, 81690.30
211.6788, 81665.10
212.1609, 81556.84
212.6430, 81502.29
213.1251, 81520.13
213.6072, 81573.25
214.0894, 81616.27
214.5715, 81645.22
215.0536, 81672.74
215.5357, 81689.66
216.0178, 81685.40
216.4999, 81748.87
216.9820, 81906.34
217.4642, 82098.24
217.9463, 82242.37
218.4284, 82324.81
218.9105, 82377.35
219.3926, 82405.47
219.8747, 82404.20
220.3569, 82391.54
220.8390, 82352.77
221.3211, 82314.18
221.8032, 82329.55
222.2853, 82442.05
222.7674, 82531.34
223.2496, 82545.26
223.7317, 82450.74
224.2138, 82403.11
224.6959, 82421.27
225.1780, 82479.81
225.6601, 82526.45
226.1423, 82552.20
226.6244, 82581.77
227.1065, 82625.73
227.5886, 82692.44
228.0707, 82747.74
228.5528, 82782.14
229.0350, 82805.30
229.5171, 82843.49
229.9992, 82901.37
230.4813, 82963.99
230.9634, 83025.09
231.4455, 83086.05
231.9276, 83144.31
232.4098, 83211.37
232.8919, 83274.39
233.3740, 83286.73
233.8561, 83212.19
234.3382, 83141.63
234.8203, 83119.71
235.3025, 83170.56
235.7846, 83223.14
236.2667, 83280.45
236.7488, 83339.70
237.2309, 83383.56
237.7130, 83387.82
238.1952, 83411.16
238.6773, 83495.48
239.1594, 83708.23
239.6415, 83838.07
240.1236, 83844.07
240.6057, 83759.03
241.0879, 83718.56
241.5700, 83729.63
242.0521, 83777.13
242.5342, 83858.91
243.0163, 84003.39
243.4984, 84119.07
243.9806, 84186.57
244.4627, 84216.27
244.9448, 84262.42
245.4269, 84324.17
245.9090, 84396.61
246.3911, 84478.77
246.8732, 84579.14
247.3554, 84661.62
247.8375, 84714.23
248.3196, 84742.68
248.8017, 84788.30
249.2838, 84886.19
249.7659, 84954.16
250.2481, 84932.13
250.7302, 84760.13
251.2123, 84642.88
251.6944, 84624.73
252.1765, 84685.37
252.6586, 84695.34
253.1408, 84625.98
253.6229, 84555.33
254.1050, 84537.92
254.5871, 84604.80
255.0692, 84658.48
255.5513, 84685.31
256.0334, 84692.25
256.5156, 84720.13
256.9977, 84787.75
257.4798, 84847.23
257.9619, 84853.61
258.4440, 84758.75
258.9261, 84730.78
259.4083, 84802.13
259.8904, 84952.91
260.3725, 85074.83
260.8546, 85147.98
261.3367, 85220.40
261.8188, 85331.58
262.3010, 85507.49
262.7831, 85639.69
263.2652, 85701.48
263.7473, 85708.64
264.2294, 85750.50
264.7115, 85845.84
265.1937, 85938.79
265.6758, 85991.41
266.1579, 85999.05
266.6400, 85978.65
267.1221, 85911.85
267.6042, 85821.67
268.0864, 85827.82
268.5685, 85978.42
269.0506, 86124.88
269.5327, 86154.31
270.0148, 86038.08
270.4969, 85941.70
270.9791, 85887.40
271.4612, 85867.49
271.9433, 85848.75
272.4254, 85827.34
272.9075, 85822.05
273.3896, 85849.55
273.8718, 85914.11
274.3539, 85985.16
274.8360, 86061.23
275.3181, 86140.63
275.8002, 86223.51
276.2823, 86313.72
276.7645, 86388.41
277.2466, 86425.46
277.7287, 86419.03
278.2108, 86419.99
278.6929, 86434.14
279.1750, 86456.09
279.6572, 86469.38
280.1393, 86469.76
280.6214, 86476.66
281.1035, 86500.73
281.5856, 86541.20
282.0677, 86601.40
282.5499, 86690.98
283.0320, 86788.88
283.5141, 86847.52
283.9962, 86865.71
284.4783, 86860.36
284.9604, 86841.78
285.4425, 86810.45
285.9247, 86755.08
286.4068, 86661.98
286.8889, 86568.72
287.3710, 86558.77
287.8531, 86633.61
288.3352, 86720.41
288.8174, 86783.45
289.2995, 86823.37
289.7816, 86842.62
290.2637, 86840.26
290.7458, 86817.33
291.2279, 86774.87
291.7101, 86712.24
292.1922, 86629.30
292.6743, 86490.77
293.1564, 86326.63
293.6385, 86257.50
294.1206, 86312.97
294.6028, 86407.87
295.0849, 86426.88
295.5670, 86381.67
296.0491, 86333.85
296.5312, 86326.16
297.0133, 86343.12
297.4955, 86348.70
297.9776, 86342.65
298.4597, 86327.41
298.9418, 86286.09
299.4239, 86233.06
299.9060, 86216.05
300.3882, 86268.90
300.8703, 86368.66
301.3524, 86479.82
301.8345, 86598.37
302.3166, 86720.66
302.7987, 86841.65
303.2809, 86959.95
303.7630, 87079.92
304.2451, 87209.42
304.7272, 87332.35
305.2093, 87427.73
305.6914, 87493.50
306.1736, 87535.70
306.6557, 87557.98
307.1378, 87561.88
307.6199, 87551.02
308.1020, 87495.16
308.5841, 87449.20
309.0663, 87481.41
309.5484, 87595.04
310.0305, 87695.38
310.5126, 87733.47
310.9947, 87722.09
311.4768, 87675.73
311.9590, 87545.32
312.4411, 87425.40
312.9232, 87390.63
313.4053, 87435.16
313.8874, 87474.93
314.3695, 87489.44
314.8516, 87469.80
315.3337, 87407.80
315.8159, 87211.16
316.2980, 87056.12
316.7801, 87044.91
317.2622, 87156.81
317.7443, 87253.68
318.2264, 87287.23
318.7086, 87283.43
319.1907, 87259.13
319.6728, 87173.85
320.1549, 87123.13
320.6370, 87143.49
321.1191, 87222.77
321.6013, 87313.86
322.0834, 87442.76
322.5655, 87550.31
323.0476, 87599.38
323.5297, 87516.25
324.0118, 87471.21
324.4940, 87500.42
324.9761, 87584.38
325.4582, 87671.84
325.9403, 87760.76
326.4224, 87847.43
326.9045, 87932.34
327.3867, 88026.46
327.8688, 88096.57
328.3509, 88130.30
328.8330, 88140.73
329.3151, 88152.82
329.7972, 88182.55
330.2794, 88197.88
330.7615, 88183.77
331.2436, 88121.84
331.7257, 88095.09
332.2078, 88126.29
332.6899, 88181.34
333.1721, 88210.46
333.6542, 88197.44
334.1363, 88188.69
334.6184, 88202.78
335.1005, 88245.27
335.5826, 88253.24
336.0648, 88196.34
336.5469, 88142.41
337.0290, 88176.19
337.5111, 88334.56
337.9932, 88463.86
338.4753, 88516.84
338.9575, 88502.04
339.4396, 88528.82
339.9217, 88616.34
340.4038, 88692.77
340.8859, 88683.27
341.3680, 88578.20
341.8502, 88479.77
342.3323, 88403.99
342.8144, 88352.30
343.2965, 88345.61
343.7786, 88392.94
344.2607, 88433.08
344.7429, 88406.77
345.2250, 88324.97
345.7071, 88281.54
346.1892, 88293.98
346.6713, 88347.84
347.1534, 88421.98
347.6355, 88515.27
348.1176, 88616.95
348.5998, 88714.76
349.0819, 88812.72
349.5640, 88933.53
350.0461, 89085.66
350.5282, 89229.73
351.0103, 89308.76
351.4925, 89335.27
351.9746, 89360.67
352.4567, 89427.63
352.9388, 89501.07
353.4209, 89530.99
353.9030, 89513.66
354.3852, 89469.05
354.8673, 89396.87
355.3494, 89313.88
355.8315, 89249.17
356.3136, 89220.15
356.7957, 89216.20
357.2779, 89242.24
357.7600, 89298.78
358.2421, 89345.81
358.7242, 89335.56
359.2063, 89313.52
359.6884, 89327.98
360.1706, 89428.43
360.6527, 89534.70
361.1348, 89624.61
361.6169, 89693.37
362.0990, 89717.31
362.5811, 89622.39
363.0633, 89518.04
363.5454, 89482.38
364.0275, 89615.28
364.5096, 89690.60
364.9917, 89600.05
365.4738, 89408.38
365.9560, 89285.24
366.4381, 89350.87
366.9202, 89421.13
367.4023, 89414.01
367.8844, 89262.80
368.3665, 89174.95
368.8487, 89207.73
369.3308, 89299.10
369.8129, 89353.14
370.2950, 89329.94
370.7771, 89319.43
371.2592, 89351.15
371.7414, 89434.23
372.2235, 89489.07
372.7056, 89501.84
373.1877, 89495.82
373.6698, 89492.23
374.1519, 89484.02
374.6341, 89489.80
375.1162, 89520.74
375.5983, 89569.42
376.0804, 89572.22
376.5625, 89508.07
377.0446, 89446.92
377.5267, 89454.02
378.0089, 89539.13
378.4910, 89607.55
378.9731, 89653.12
379.4552, 89672.84
379.9373, 89645.98
380.4194, 89571.09
380.9016, 89498.96
381.3837, 89457.76
381.8658, 89447.75
382.3479, 89463.62
382.8300, 89510.37
383.3121, 89570.88
383.7943, 89616.15
384.2764, 89650.88
384.7585, 89699.07
385.2406, 89759.66
385.7227, 89841.83
386.2048, 89980.46
386.6870, 90176.44
387.1691, 90349.19
387.6512, 90381.02
388.1333, 90340.25
388.6154, 90351.16
389.0975, 90534.55
389.5797, 90719.10
390.0618, 90721.08
390.5439, 90570.33
391.0260, 90448.73
391.5081, 90504.09
391.9902, 90616.96
392.4724, 90683.39
392.9545, 90665.63
393.4366, 90627.55
393.9187, 90592.17
394.4008, 90561.02
394.8829, 90532.84
395.3651, 90487.45
395.8472, 90463.79
396.3293, 90483.49
396.8114, 90559.05
397.2935, 90645.18
397.7756, 90775.25
398.2578, 90897.22
398.7399, 90944.30
399.2220, 90762.84
399.7041, 90659.14
400.1862, 90725.41
400.6683, 90975.70
401.1505, 91142.91
401.6326, 91184.67
402.1147, 91182.96
402.5968, 91200.61
403.0789, 91244.72
403.5610, 91294.01
404.0432, 91339.52
404.5253, 91390.62
405.0074, 91494.12
405.4895, 91675.90
405.9716, 91844.16
406.4537, 91934.74
406.9359, 91940.84
407.4180, 91973.92
407.9001, 92041.98
408.3822, 92131.80
408.8643, 92224.50
409.3464, 92319.67
409.8285, 92422.43
410.3106, 92534.95
410.7928, 92656.08
411.2749, 92793.17
411.7570, 92949.86
412.2391, 93090.51
412.7212, 93147.42
413.2033, 93159.81
413.6855, 93238.48
414.1676, 93462.05
414.6497, 93717.14
415.1318, 93853.13
415.6139, 93889.01
416.0960, 93921.55
416.5782, 94017.79
417.0603, 94138.52
417.5424, 94244.88
418.0245, 94332.55
418.5066, 94393.70
418.9887, 94407.89
419.4709, 94393.59
419.9530, 94386.28
420.4351, 94459.13
420.9172, 94494.13
421.3993, 94407.92
421.8814, 94175.80
422.3636, 94000.93
422.8457, 93962.06
423.3278, 93987.88
423.8099, 94015.31
424.2920, 94098.33
424.7741, 94116.42
425.2563, 94024.31
425.7384, 93839.61
426.2205, 93694.41
426.7026, 93610.71
427.1847, 93539.34
427.6668, 93452.91
428.1490, 93333.67
428.6311, 93240.80
429.1132, 93178.61
429.5953, 93136.00
430.0774, 93092.99
430.5595, 93046.82
431.0417, 93005.75
431.5238, 92980.29
432.0059, 92967.13
432.4880, 92919.91
432.9701, 92834.08
433.4522, 92735.80
433.9344, 92656.66
434.4165, 92593.41
434.8986, 92503.96
435.3807, 92357.67
435.8628, 92206.55
436.3449, 92168.49
436.8271, 92228.42
437.3092, 92269.48
437.7913, 92176.26
438.2734, 92027.22
438.7555, 91944.90
439.2376, 91956.99
439.7197, 91982.80
440.2018, 91965.10
440.6840, 91912.95
441.1661, 91842.98
441.6482, 91718.61
442.1303, 91612.53
442.6124, 91581.55
443.0945, 91625.23
443.5767, 91657.26
444.0588, 91635.70
444.5409, 91595.71
445.0230, 91564.20
445.5051, 91603.20
445.9872, 91586.66
446.4694, 91443.06
446.9515, 91224.55
447.4336, 91099.94
447.9157, 91186.20
448.3978, 91250.18
448.8799, 91192.11
449.3621, 90951.20
449.8442, 90826.38
450.3263, 90863.83
450.8084, 90968.74
451.2905, 91028.31
451.7726, 91030.80
452.2548, 91022.16
452.7369, 91004.28
453.2190, 90982.34
453.7011, 90993.11
454.1832, 91043.03
454.6653, 91080.70
455.1475, 91051.55
455.6296, 90969.74
456.1117, 90928.99
456.5938, 90950.34
457.0759, 90987.43
457.5580, 90968.41
458.0402, 90907.79
458.5223, 90858.52
459.0044, 90868.27
459.4865, 90893.31
459.9686, 90870.60
460.4507, 90800.59
460.9329, 90735.05
461.4150, 90710.87
461.8971, 90712.32
462.3792, 90724.68
462.8613, 90767.16
463.3434, 90788.07
463.8256, 90725.02
464.3077, 90617.84
464.7898, 90574.55
465.2719, 90689.50
465.7540, 90824.39
466.2361, 90918.43
466.7183, 90956.02
467.2004, 90991.28
467.6825, 91033.66
468.1646, 91071.20
468.6467, 91089.50
469.1288, 91059.79
469.6109, 91056.69
470.0930, 91106.73
470.5752, 91193.62
471.0573, 91218.06
471.5394, 91150.98
472.0215, 91085.58
472.5036, 91095.64
472.9857, 91188.92
473.4679, 91212.52
473.9500, 91151.09
474.4321, 91040.50
474.9142, 90921.84
475.3963, 90797.91
475.8784, 90683.69
476.3606, 90589.50
476.8427, 90510.75
477.3248, 90437.34
477.8069, 90371.82
478.2890, 90322.33
478.7711, 90309.91
479.2533, 90315.16
479.7354, 90305.03
480.2175, 90257.98
480.6996, 90230.82
481.1817, 90286.71
481.6638, 90386.61
482.1460, 90456.95
482.6281, 90426.05
483.1102, 90388.81
483.5923, 90386.41
484.0744, 90420.14
484.5565, 90453.33
485.0387, 90469.62
485.5208, 90481.41
486.0029, 90498.77
486.4850, 90553.61
486.9671, 90565.03
487.4492, 90511.27
487.9314, 90417.02
488.4135, 90347.71
488.8956, 90318.43
489.3777, 90293.66
489.8598, 90273.58
490.3419, 90262.72
490.8241, 90183.63
491.3062, 90017.81
491.7883, 89849.34
492.2704, 89774.12
492.7525, 89785.56
493.2346, 89794.34
493.7168, 89779.35
494.1989, 89752.20
494.6810, 89736.66
495.1631, 89727.67
495.6452, 89702.84
496.1273, 89621.59
496.6095, 89526.08
497.0916, 89481.62
497.5737, 89496.33
498.0558, 89508.17
498.5379, 89468.63
499.0201, 89406.73
499.5022, 89357.00
499.9843, 89331.06
500.4664, 89320.35
500.9485, 89335.98
501.4306, 89369.50
501.9127, 89386.13
502.3948, 89356.12
502.8770, 89329.05
503.3591, 89324.05
503.8412, 89341.43
504.3233, 89378.18
504.8054, 89451.16
505.2875, 89524.92
505.7697, 89555.27
506.2518, 89518.60
506.7339, 89507.62
507.2160, 89552.42
507.6981, 89627.30
508.1802, 89631.61
508.6624, 89556.59
509.1445, 89493.91
509.6266, 89534.99
510.1087, 89643.94
510.5908, 89646.51
511.0729, 89523.27
511.5551, 89381.26
512.0372, 89333.64
512.5193, 89354.46
513.0014, 89386.10
513.4835, 89420.70
513.9656, 89447.29
514.4478, 89446.05
514.9299, 89425.26
515.4120, 89416.46
515.8941, 89418.40
516.3762, 89446.36
516.8583, 89517.90
517.3405, 89647.73
517.8226, 89760.77
518.3047, 89866.98
518.7868, 89935.62
519.2689, 89930.52
519.7510, 89731.20
520.2332, 89623.97
520.7153, 89687.24
521.1974, 89867.34
521.6795, 89947.55
522.1616, 89894.52
522.6437, 89819.74
523.1259, 89766.88
523.6080, 89735.77
524.0901, 89757.49
524.5722, 89848.48
525.0543, 89937.69
525.5364, 89927.63
526.0186, 89838.77
526.5007, 89784.09
526.9828, 89803.04
527.4649, 89853.17
527.9470, 89879.37
528.4291, 89885.09
528.9113, 89887.09
529.3934, 89900.92
529.8755, 89910.83
530.3576, 89905.17
530.8397, 89883.10
531.3218, 89841.04
531.8040, 89773.52
532.2861, 89687.62
532.7682, 89592.24
533.2503, 89462.87
533.7324, 89356.22
534.2145, 89273.91
534.6967, 89222.30
535.1788, 89218.97
535.6609, 89327.77
536.1430, 89396.01
536.6251, 89356.93
537.1072, 89204.34
537.5894, 89119.16
538.0715, 89112.17
538.5536, 89146.77
539.0357, 89201.19
539.5178, 89273.95
539.9999, 89333.48
540.4821, 89370.88
540.9642, 89397.07
541.4463, 89433.90
541.9284, 89474.91
542.4105, 89497.45
542.8926, 89460.13
543.3748, 89413.11
543.8569, 89427.45
544.3390, 89497.04
544.8211, 89555.68
545.3032, 89552.59
545.7853, 89528.43
546.2675, 89519.73
546.7495, 89546.08
547.2316, 89560.43
547.7137, 89538.44
548.1959, 89501.85
548.6780, 89481.73
549.1601, 89503.30
549.6422, 89517.36
550.1243, 89517.86
550.6064, 89505.41
551.0886, 89476.34
551.5707, 89413.97
552.0528, 89371.74
552.5349, 89395.03
553.0170, 89487.98
553.4991, 89535.88
553.9813, 89532.82
554.4634, 89497.55
554.9455, 89443.31
555.4276, 89373.55
555.9097, 89302.73
556.3918, 89225.98
556.8740, 89164.22
557.3561, 89150.63
557.8382, 89176.81
558.3203, 89213.11
558.8024, 89260.27
559.2845, 89301.00
559.7667, 89320.95
560.2488, 89317.92
560.7309, 89311.94
561.2130, 89302.70
561.6951, 89296.45
562.1772, 89297.58
562.6594, 89297.41
563.1415, 89314.35
563.6236, 89343.95
564.1057, 89389.38
564.5878, 89463.74
565.0699, 89580.46
565.5521, 89687.14
566.0342, 89782.84
566.5163, 89856.34
566.9984, 89815.52
567.4805, 89644.95
567.9626, 89488.55
568.4448, 89466.89
568.9269, 89545.63
569.4090, 89626.76
569.8911, 89706.30
570.3732, 89752.54
570.8553, 89708.20
571.3375, 89611.33
571.8196, 89530.51
572.3017, 89492.13
572.7838, 89472.20
573.2659, 89454.57
573.7480, 89443.52
574.2302, 89452.94
574.7123, 89544.13
575.1944, 89606.02
575.6765, 89577.96
576.1586, 89436.19
576.6407, 89338.16
577.1229, 89315.95
577.6050, 89305.57
578.0871, 89252.19
578.5692, 89139.50
579.0513, 89057.28
579.5334, 89021.97
580.0156, 89009.55
580.4977, 88952.82
580.9798, 88858.10
581.4619, 88842.37
581.9440, 89002.23
582.4261, 89234.61
582.9083, 89348.89
583.3904, 89353.30
583.8725, 89318.77
584.3546, 89252.75
584.8367, 89189.45
585.3188, 89164.18
585.8010, 89186.17
586.2831, 89215.38
586.7652, 89253.66
587.2473, 89280.84
587.7294, 89277.35
588.2115, 89183.48
588.6937, 89129.99
589.1758, 89156.12
589.6579, 89225.41
590.1400, 89245.75
590.6221, 89200.25
591.1042, 89144.37
591.5864, 89092.98
592.0685, 89046.91
592.5506, 89011.95
593.0327, 88988.58
593.5148, 88978.09
593.9969, 89003.02
594.4791, 89042.85
594.9612, 89023.65
595.4433, 88928.98
595.9254, 88828.45
596.4075, 88783.60
596.8896, 88778.70
597.3718, 88788.66
597.8539, 88816.56
598.3360, 88844.62
598.8181, 88866.07
599.3002, 88881.39
599.7823, 88891.84
600.2645, 88908.61
600.7466, 88908.34
601.2287, 88870.02
601.7108, 88787.80
602.1929, 88753.51
602.6750, 88785.28
603.1572, 88836.12
603.6393, 88875.84
604.1214, 88903.27
604.6035, 88923.90
605.0856, 88933.27
605.5677, 88948.08
606.0499, 89014.23
606.5320, 89112.45
607.0141, 89156.16
607.4962, 89086.95
607.9783, 88989.76
608.4604, 88958.47
608.9425, 88979.88
609.4246, 89014.25
609.9067, 89064.20
610.3889, 89102.30
610.8710, 89103.24
611.3531, 89063.23
611.8352, 89038.76
612.3173, 89054.19
612.7994, 89079.80
613.2816, 89101.65
613.7637, 89137.47
614.2458, 89128.17
614.7279, 89049.86
615.2100, 88958.67
615.6921, 88953.32
616.1743, 89046.66
616.6564, 89054.96
617.1385, 88893.15
617.6206, 88679.52
618.1027, 88672.38
618.5848, 88839.36
619.0670, 88996.23
619.5491, 89036.92
620.0312, 89017.84
620.5133, 88971.82
620.9954, 88904.18
621.4775, 88881.63
621.9597, 88991.52
622.4418, 89120.54
622.9239, 89187.02
623.4060, 89151.29
623.8881, 89119.19
624.3702, 89105.00
624.8524, 89096.03
625.3345, 89081.28
625.8166, 89064.42
626.2987, 89029.61
626.7808, 88964.79
627.2629, 88890.74
627.7451, 88860.42
628.2272, 88874.74
628.7093, 88895.48
629.1914, 88935.63
629.6735, 88958.93
630.1556, 88858.43
630.6378, 88651.55
631.1199, 88464.09
631.6020, 88372.50
632.0841, 88344.26
632.5662, 88363.77
633.0483, 88439.31
633.5305, 88501.32
634.0126, 88511.26
634.4947, 88502.43
634.9768, 88503.52
635.4589, 88537.55
635.9410, 88550.47
636.4232, 88534.54
636.9053, 88499.44
637.3874, 88457.89
637.8695, 88404.91
638.3516, 88363.58
638.8337, 88341.80
639.3159, 88332.44
639.7980, 88313.34
640.2801, 88285.95
640.7622, 88269.69
641.2443, 88282.66
641.7264, 88312.12
642.2086, 88347.97
642.6907, 88390.55
643.1728, 88419.98
643.6549, 88417.71
644.1370, 88405.79
644.6191, 88397.34
645.1013, 88378.91
645.5834, 88403.38
646.0655, 88541.09
646.5476, 88691.04
647.0297, 88734.98
647.5118, 88593.66
647.9940, 88538.60
648.4761, 88625.80
648.9582, 88793.30
649.4403, 88912.13
649.9224, 88978.03
650.4045, 89014.95
650.8867, 89025.27
651.3688, 89014.70
651.8509, 88986.27
652.3330, 88943.80
652.8151, 88913.91
653.2972, 88935.61
653.7794, 88965.20
654.2615, 88967.43
654.7436, 88938.94
655.2257, 88902.40
655.7078, 88847.82
656.1899, 88801.33
656.6721, 88785.73
657.1542, 88846.98
657.6363, 88849.55
658.1184, 88760.85
658.6005, 88647.31
659.0826, 88610.61
659.5648, 88657.93
660.0469, 88691.05
660.5290, 88692.81
661.0111, 88661.77
661.4932, 88574.20
661.9753, 88446.53
662.4575, 88345.56
662.9396, 88316.67
663.4217, 88325.23
663.9038, 88357.34
664.3859, 88408.20
664.8680, 88440.77
665.3502, 88429.63
665.8323, 88406.91
666.3144, 88386.66
666.7965, 88368.13
667.2786, 88351.64
667.7607, 88315.86
668.2429, 88299.41
668.7250, 88339.99
669.2071, 88447.48
669.6892, 88509.02
670.1713, 88506.22
670.6534, 88477.93
671.1355, 88484.81
671.6176, 88512.41
672.0997, 88507.05
672.5818, 88452.58
673.0640, 88368.72
673.5461, 88254.76
674.0282, 88131.98
674.5103, 88040.24
674.9924, 88034.38
675.4745, 88033.36
675.9567, 88013.58
676.4388, 87977.13
676.9209, 87928.44
677.4030, 87870.10
677.8851, 87801.35
678.3672, 87707.99
678.8494, 87588.91
679.3315, 87541.39
679.8136, 87568.23
680.2957, 87640.13
680.7778, 87761.20
681.2599, 87905.66
681.7421, 87969.97
682.2242, 87934.37
682.7063, 87902.23
683.1884, 88002.90
683.6705, 88146.00
684.1526, 88207.98
684.6348, 88103.89
685.1169, 88015.03
685.5990, 88032.91
686.0811, 88099.66
686.5632, 88123.44
687.0453, 88073.03
687.5275, 88030.03
688.0096, 88009.24
688.4917, 88006.23
688.9738, 88003.79
689.4559, 88001.66
689.9380, 88011.37
690.4202, 88046.09
690.9023, 88090.20
691.3844, 88087.83
691.8665, 88047.25
