##NAMES=Larnite
##RRUFFID=R070530
##IDEAL CHEMISTRY=Ca_2_SiO_4_
##LOCALITY=Larne, County Antrim, Northern Ireland, UK
##OWNER=RRUFF
##SOURCE=Michael Scott
##DESCRIPTION=Light gray massive
##STATUS=The identification of this mineral has been confirmed by single-crystal X-ray diffraction.
##URL=rruff.info/R070530
158.4330, 2292.804
158.9151, 2307.543
159.3972, 2322.688
159.8794, 2336.850
160.3615, 2348.988
160.8436, 2356.329
161.3257, 2356.811
161.8078, 2354.167
162.2899, 2364.933
162.7721, 2400.565
163.2542, 2438.299
163.7363, 2487.090
164.2184, 2533.948
164.7005, 2558.237
165.1826, 2548.103
165.6648, 2512.280
166.1469, 2490.776
166.6290, 2486.821
167.1111, 2493.393
167.5932, 2520.578
168.0753, 2555.838
168.5575, 2579.503
169.0396, 2580.736
169.5217, 2565.671
170.0038, 2560.090
170.4859, 2573.402
170.9680, 2584.479
171.4502, 2584.083
171.9323, 2579.808
172.4144, 2587.858
172.8965, 2618.488
173.3786, 2660.323
173.8607, 2670.337
174.3429, 2610.571
174.8250, 2568.197
175.3071, 2579.221
175.7892, 2616.868
176.2713, 2631.501
176.7534, 2596.923
177.2356, 2533.472
177.7177, 2506.626
178.1998, 2543.678
178.6819, 2571.133
179.1640, 2562.079
179.6461, 2532.329
180.1283, 2511.148
180.6104, 2511.822
181.0925, 2525.335
181.5746, 2528.252
182.0567, 2519.951
182.5388, 2505.951
183.0210, 2477.922
183.5031, 2446.049
183.9852, 2433.843
184.4673, 2454.411
184.9494, 2488.478
185.4315, 2489.885
185.9137, 2447.271
186.3958, 2412.400
186.8779, 2406.026
187.3600, 2417.213
187.8421, 2426.961
188.3242, 2430.758
188.8064, 2426.445
189.2885, 2403.353
189.7706, 2353.758
190.2527, 2321.243
190.7348, 2332.687
191.2169, 2368.702
191.6991, 2393.268
192.1812, 2395.868
192.6633, 2385.723
193.1454, 2376.001
193.6275, 2367.790
194.1096, 2353.589
194.5918, 2318.063
195.0739, 2277.389
195.5560, 2263.970
196.0381, 2290.389
196.5202, 2330.221
197.0023, 2349.740
197.4845, 2350.703
197.9666, 2348.960
198.4487, 2351.751
198.9308, 2354.287
199.4129, 2347.749
199.8950, 2329.542
200.3772, 2305.948
200.8593, 2280.260
201.3414, 2253.191
201.8235, 2231.272
202.3056, 2217.494
202.7877, 2209.703
203.2699, 2206.731
203.7520, 2209.949
204.2341, 2211.264
204.7162, 2198.799
205.1983, 2176.520
205.6804, 2160.567
206.1626, 2161.752
206.6447, 2168.534
207.1268, 2164.708
207.6089, 2148.067
208.0910, 2127.729
208.5731, 2106.991
209.0553, 2087.671
209.5374, 2076.510
210.0195, 2085.823
210.5016, 2098.331
210.9837, 2090.659
211.4658, 2060.292
211.9480, 2030.313
212.4301, 2015.098
212.9122, 2011.888
213.3943, 2014.790
213.8764, 2029.869
214.3585, 2045.347
214.8407, 2049.273
215.3228, 2041.490
215.8049, 2028.866
216.2870, 2012.758
216.7691, 1994.796
217.2512, 1977.816
217.7334, 1959.081
218.2155, 1945.399
218.6976, 1945.789
219.1797, 1959.274
219.6618, 1971.114
220.1439, 1974.217
220.6261, 1972.016
221.1082, 1970.835
221.5903, 1970.686
222.0724, 1971.921
222.5545, 1975.883
223.0366, 1981.999
223.5188, 1987.685
224.0009, 1996.136
224.4830, 1998.844
224.9651, 1983.515
225.4472, 1946.980
225.9293, 1908.489
226.4115, 1872.951
226.8936, 1842.984
227.3757, 1830.597
227.8578, 1845.059
228.3399, 1868.806
228.8220, 1879.798
229.3041, 1877.958
229.7863, 1875.646
230.2684, 1882.232
230.7505, 1891.909
231.2326, 1888.976
231.7147, 1866.355
232.1968, 1841.500
232.6790, 1835.172
233.1611, 1844.412
233.6432, 1853.216
234.1253, 1858.443
234.6074, 1859.567
235.0895, 1854.940
235.5717, 1843.777
236.0538, 1829.915
236.5359, 1812.005
237.0180, 1792.844
237.5001, 1785.365
237.9822, 1806.102
238.4644, 1832.045
238.9465, 1833.458
239.4286, 1808.273
239.9107, 1784.954
240.3928, 1786.175
240.8749, 1804.949
241.3571, 1815.349
241.8392, 1811.018
242.3213, 1801.151
242.8034, 1790.598
243.2855, 1779.708
243.7676, 1771.188
244.2498, 1765.317
244.7319, 1763.884
245.2140, 1771.003
245.6961, 1798.087
246.1782, 1816.708
246.6603, 1802.325
247.1425, 1765.033
247.6246, 1739.739
248.1067, 1741.811
248.5888, 1760.929
249.0709, 1778.247
249.5530, 1797.391
250.0352, 1806.132
250.5173, 1783.702
250.9994, 1750.495
251.4815, 1724.142
251.9636, 1757.540
252.4457, 1776.779
252.9279, 1782.620
253.4100, 1734.934
253.8921, 1756.366
254.3742, 1750.100
254.8563, 1742.697
255.3384, 1773.858
255.8206, 1763.245
256.3027, 1773.059
256.7848, 1772.659
257.2669, 1760.448
257.7490, 1748.710
258.2311, 1730.684
258.7133, 1718.406
259.1954, 1726.582
259.6775, 1752.947
260.1596, 1777.218
260.6417, 1784.532
261.1238, 1774.668
261.6060, 1758.948
262.0881, 1729.102
262.5702, 1702.239
263.0523, 1684.031
263.5344, 1675.120
264.0165, 1676.530
264.4987, 1689.393
264.9808, 1712.290
265.4629, 1740.034
265.9450, 1786.397
266.4271, 1820.484
266.9092, 1835.045
267.3914, 1833.941
267.8735, 1817.104
268.3556, 1783.722
268.8377, 1747.800
269.3198, 1737.876
269.8019, 1778.154
270.2841, 1809.452
270.7662, 1824.834
271.2483, 1835.303
271.7304, 1854.814
272.2125, 1884.586
272.6946, 1908.898
273.1768, 1905.667
273.6589, 1859.767
274.1410, 1838.566
274.6231, 1856.338
275.1052, 1882.431
275.5873, 1906.066
276.0695, 1923.606
276.5516, 1930.807
277.0337, 1922.475
277.5158, 1898.197
277.9979, 1882.949
278.4800, 1879.916
278.9622, 1882.415
279.4443, 1891.272
279.9264, 1904.234
280.4085, 1919.213
280.8906, 1935.570
281.3727, 1951.084
281.8549, 1956.534
282.3370, 1938.531
282.8191, 1929.468
283.3012, 1937.999
283.7833, 1954.347
284.2654, 1971.286
284.7476, 1985.839
285.2297, 1995.560
285.7118, 1994.349
286.1939, 1975.601
286.6760, 1963.742
287.1581, 1964.757
287.6403, 1969.380
288.1224, 1975.404
288.6045, 1980.932
289.0866, 1981.130
289.5687, 1966.923
290.0508, 1936.490
290.5330, 1919.381
291.0151, 1921.296
291.4972, 1931.873
291.9793, 1952.232
292.4614, 1977.617
292.9435, 1997.576
293.4257, 2002.982
293.9078, 1999.278
294.3899, 2008.355
294.8720, 2043.159
295.3541, 2061.947
295.8362, 2025.088
296.3184, 1971.486
296.8005, 1950.255
297.2826, 1982.535
297.7647, 2036.804
298.2468, 2076.274
298.7289, 2100.537
299.2111, 2112.116
299.6932, 2097.953
300.1753, 2081.414
300.6574, 2090.979
301.1395, 2131.342
301.6216, 2164.128
302.1038, 2155.124
302.5859, 2115.319
303.0680, 2086.198
303.5501, 2075.540
304.0322, 2076.533
304.5143, 2086.115
304.9964, 2102.663
305.4785, 2118.275
305.9607, 2128.183
306.4428, 2136.675
306.9249, 2150.990
307.4070, 2171.863
307.8891, 2190.188
308.3712, 2197.021
308.8534, 2195.790
309.3355, 2202.791
309.8176, 2236.926
310.2997, 2262.084
310.7818, 2243.251
311.2639, 2195.492
311.7461, 2171.240
312.2282, 2198.370
312.7103, 2254.344
313.1924, 2283.259
313.6745, 2273.400
314.1566, 2266.585
314.6388, 2277.814
315.1209, 2293.695
315.6030, 2295.244
316.0851, 2278.452
316.5672, 2258.333
317.0493, 2253.631
317.5315, 2269.445
318.0136, 2282.193
318.4957, 2299.823
318.9778, 2307.905
319.4599, 2286.922
319.9420, 2246.294
320.4242, 2218.552
320.9063, 2230.711
321.3884, 2277.268
321.8705, 2295.198
322.3526, 2239.669
322.8347, 2205.883
323.3169, 2228.602
323.7990, 2275.467
324.2811, 2308.074
324.7632, 2310.445
325.2453, 2289.135
325.7274, 2252.444
326.2096, 2180.466
326.6917, 2138.465
327.1738, 2152.362
327.6559, 2176.574
328.1380, 2180.944
328.6201, 2164.081
329.1023, 2145.614
329.5844, 2144.545
330.0665, 2161.134
330.5486, 2179.256
331.0307, 2211.909
331.5128, 2228.531
331.9950, 2208.452
332.4771, 2165.795
332.9592, 2125.569
333.4413, 2097.535
333.9234, 2081.528
334.4055, 2084.071
334.8877, 2112.547
335.3698, 2125.545
335.8519, 2090.326
336.3340, 2040.228
336.8161, 2007.600
337.2982, 1998.012
337.7804, 1997.903
338.2625, 2000.131
338.7446, 2004.025
339.2267, 2007.465
339.7088, 2011.638
340.1909, 2012.028
340.6731, 2002.437
341.1552, 1984.138
341.6373, 1963.582
342.1194, 1937.879
342.6015, 1913.295
343.0836, 1897.601
343.5658, 1890.948
344.0479, 1888.159
344.5300, 1885.828
345.0121, 1884.714
345.4942, 1887.960
345.9763, 1898.263
346.4585, 1909.438
346.9406, 1930.880
347.4227, 1949.699
347.9048, 1936.816
348.3869, 1880.080
348.8690, 1807.148
349.3512, 1765.795
349.8333, 1773.070
350.3154, 1779.605
350.7975, 1787.392
351.2796, 1792.999
351.7617, 1794.913
352.2439, 1792.527
352.7260, 1784.154
353.2081, 1766.918
353.6902, 1741.057
354.1723, 1726.001
354.6544, 1741.210
355.1366, 1746.571
355.6187, 1730.131
356.1008, 1700.816
356.5829, 1668.358
357.0650, 1636.709
357.5471, 1609.495
358.0293, 1594.172
358.5114, 1593.730
358.9935, 1595.751
359.4756, 1601.377
359.9577, 1606.866
360.4398, 1609.806
360.9220, 1610.254
361.4041, 1610.119
361.8862, 1610.334
362.3683, 1611.063
362.8504, 1615.620
363.3326, 1630.684
363.8147, 1634.732
364.2968, 1604.190
364.7789, 1556.290
365.2610, 1517.933
365.7431, 1495.600
366.2253, 1485.740
366.7074, 1491.779
367.1895, 1510.876
367.6716, 1520.027
368.1537, 1505.760
368.6358, 1485.072
369.1180, 1489.708
369.6001, 1524.578
370.0822, 1548.354
370.5643, 1542.106
371.0464, 1522.722
371.5285, 1507.141
372.0107, 1498.047
372.4928, 1496.213
372.9749, 1505.727
373.4570, 1526.086
373.9391, 1525.038
374.4212, 1481.397
374.9034, 1443.367
375.3855, 1430.468
375.8676, 1433.428
376.3497, 1438.177
376.8318, 1438.790
377.3139, 1434.620
377.7961, 1422.695
378.2782, 1390.490
378.7603, 1375.571
379.2424, 1393.569
379.7245, 1413.207
380.2066, 1409.764
380.6888, 1387.816
381.1709, 1374.128
381.6530, 1396.886
382.1351, 1448.071
382.6172, 1461.319
383.0993, 1411.491
383.5815, 1365.334
384.0636, 1343.671
384.5457, 1337.888
385.0278, 1340.671
385.5099, 1351.175
385.9920, 1362.613
386.4742, 1364.346
386.9563, 1357.412
387.4384, 1362.698
387.9205, 1396.490
388.4026, 1426.770
388.8847, 1412.735
389.3669, 1361.914
389.8490, 1329.607
390.3311, 1353.418
390.8132, 1393.688
391.2953, 1402.166
391.7774, 1378.532
392.2596, 1348.305
392.7417, 1321.535
393.2238, 1301.732
393.7059, 1303.494
394.1880, 1344.648
394.6701, 1377.126
395.1523, 1385.367
395.6344, 1380.019
396.1165, 1371.091
396.5986, 1361.856
397.0807, 1356.266
397.5628, 1359.753
398.0450, 1374.489
398.5271, 1385.746
399.0092, 1393.529
399.4913, 1398.280
399.9734, 1400.930
400.4555, 1400.513
400.9377, 1393.941
401.4197, 1378.942
401.9019, 1360.876
402.3840, 1352.788
402.8661, 1358.511
403.3482, 1363.798
403.8303, 1373.639
404.3124, 1376.821
404.7946, 1357.231
405.2767, 1318.609
405.7588, 1291.134
406.2409, 1309.805
406.7230, 1357.385
407.2051, 1368.887
407.6873, 1330.647
408.1694, 1299.391
408.6515, 1322.990
409.1336, 1371.745
409.6157, 1389.349
410.0978, 1352.195
410.5800, 1314.165
411.0621, 1312.272
411.5442, 1334.471
412.0263, 1353.767
412.5084, 1363.335
412.9905, 1364.093
413.4727, 1354.724
413.9548, 1331.436
414.4369, 1318.435
414.9190, 1321.927
415.4011, 1330.172
415.8832, 1338.248
416.3654, 1345.586
416.8475, 1354.516
417.3296, 1342.127
417.8117, 1377.508
418.2938, 1398.729
418.7759, 1406.553
419.2581, 1360.850
419.7402, 1384.265
420.2223, 1379.981
420.7044, 1374.561
421.1865, 1407.704
421.6686, 1369.786
422.1508, 1402.319
422.6329, 1406.729
423.1150, 1399.482
423.5971, 1402.422
424.0792, 1406.338
424.5613, 1414.096
425.0435, 1420.349
425.5256, 1417.457
426.0077, 1375.652
426.4898, 1412.107
426.9719, 1434.403
427.4540, 1443.301
427.9362, 1398.673
428.4183, 1423.163
428.9004, 1419.954
429.3825, 1415.609
429.8646, 1449.827
430.3467, 1459.116
430.8289, 1461.277
431.3110, 1456.138
431.7931, 1442.702
432.2752, 1428.797
432.7573, 1436.485
433.2394, 1477.158
433.7216, 1529.736
434.2037, 1548.930
434.6858, 1501.642
435.1679, 1486.416
435.6500, 1533.822
436.1321, 1583.254
436.6143, 1596.857
437.0964, 1579.706
437.5785, 1557.730
438.0606, 1547.225
438.5427, 1547.401
439.0248, 1557.565
439.5070, 1583.310
439.9891, 1604.949
440.4712, 1617.988
440.9533, 1623.803
441.4354, 1619.304
441.9175, 1604.354
442.3997, 1593.567
442.8818, 1605.510
443.3639, 1627.832
443.8460, 1621.894
444.3281, 1578.823
444.8102, 1551.374
445.2924, 1589.598
445.7745, 1672.606
446.2566, 1706.952
446.7387, 1658.881
447.2208, 1606.107
447.7029, 1574.275
448.1851, 1556.705
448.6672, 1545.216
449.1493, 1537.394
449.6314, 1531.644
450.1135, 1525.931
450.5956, 1519.717
451.0778, 1517.634
451.5599, 1530.404
452.0420, 1535.393
452.5241, 1519.799
453.0062, 1493.707
453.4883, 1472.477
453.9705, 1462.523
454.4526, 1456.855
454.9347, 1443.481
455.4168, 1421.135
455.8989, 1403.586
456.3810, 1398.545
456.8632, 1391.308
457.3453, 1366.168
457.8274, 1330.312
458.3095, 1306.914
458.7916, 1315.520
459.2737, 1331.452
459.7559, 1324.130
460.2380, 1297.383
460.7201, 1275.808
461.2022, 1268.802
461.6843, 1271.327
462.1664, 1276.837
462.6486, 1287.764
463.1307, 1292.203
463.6128, 1286.841
464.0949, 1276.498
464.5770, 1263.046
465.0591, 1247.532
465.5413, 1230.470
466.0234, 1211.483
466.5055, 1193.799
466.9876, 1162.785
467.4697, 1191.872
467.9518, 1206.800
468.4340, 1208.329
468.9161, 1156.333
469.3982, 1173.455
469.8803, 1162.877
470.3624, 1151.163
470.8445, 1178.013
471.3267, 1133.801
471.8088, 1160.039
472.2909, 1158.155
472.7730, 1169.142
473.2551, 1152.259
473.7372, 1143.983
474.2194, 1163.587
474.7015, 1167.754
475.1836, 1147.662
475.6657, 1159.467
476.1478, 1128.547
476.6299, 1135.599
477.1121, 1148.707
477.5942, 1161.653
478.0763, 1170.456
478.5584, 1175.116
479.0405, 1175.591
479.5226, 1167.700
480.0048, 1160.758
480.4869, 1155.600
480.9690, 1151.531
481.4511, 1147.632
481.9332, 1143.969
482.4153, 1119.053
482.8975, 1149.633
483.3796, 1166.054
483.8617, 1169.078
484.3438, 1118.574
484.8259, 1137.190
485.3080, 1128.105
485.7902, 1117.885
486.2723, 1146.228
486.7544, 1103.510
487.2365, 1131.242
487.7186, 1130.852
488.2007, 1143.332
488.6829, 1127.942
489.1650, 1110.738
489.6471, 1102.298
490.1292, 1092.131
490.6113, 1081.300
491.0934, 1076.859
491.5756, 1087.744
492.0577, 1092.472
492.5398, 1085.071
493.0219, 1071.344
493.5040, 1052.501
493.9861, 1031.587
494.4683, 1019.027
494.9504, 1027.650
495.4325, 1054.602
495.9146, 1066.574
496.3967, 1059.763
496.8788, 1044.444
497.3610, 1013.977
497.8431, 982.5591
498.3252, 968.6640
498.8073, 976.0154
499.2894, 977.3436
499.7715, 938.4765
500.2536, 883.5153
500.7357, 871.0236
501.2179, 907.8333
501.7000, 947.8101
502.1821, 962.1294
502.6642, 956.5048
503.1463, 954.1944
503.6284, 961.7473
504.1106, 962.3093
504.5927, 948.0080
505.0748, 928.3841
505.5569, 913.5930
506.0390, 903.7780
506.5211, 889.5530
507.0033, 860.6348
507.4854, 822.0758
507.9675, 806.4764
508.4496, 824.7924
508.9317, 845.5749
509.4138, 867.3941
509.8960, 884.8032
510.3781, 893.7145
510.8602, 893.5232
511.3423, 885.0905
511.8244, 862.8497
512.3066, 834.7599
512.7887, 813.5175
513.2708, 799.4622
513.7529, 800.2637
514.2350, 827.0172
514.7172, 864.3535
515.1993, 873.0038
515.6814, 843.3644
516.1635, 813.0800
516.6456, 772.2697
517.1277, 744.0425
517.6099, 762.0891
518.0920, 812.1414
518.5741, 842.9024
519.0562, 818.6713
519.5383, 761.1618
520.0204, 735.6445
520.5026, 754.9993
520.9847, 770.9578
521.4668, 766.1771
521.9489, 764.1432
522.4310, 786.2873
522.9131, 825.8894
523.3953, 852.8034
523.8774, 847.2035
524.3595, 825.7146
524.8416, 803.8455
525.3237, 782.8065
525.8058, 772.3569
526.2880, 778.1141
526.7701, 788.8749
527.2522, 786.5226
527.7343, 763.6496
528.2164, 759.4990
528.6985, 798.6106
529.1807, 831.1821
529.6628, 833.5328
530.1449, 811.7963
530.6270, 773.6714
531.1091, 722.6336
531.5912, 675.2870
532.0734, 659.2305
532.5555, 677.2368
533.0376, 702.5600
533.5197, 750.7634
534.0018, 781.1655
534.4839, 752.1772
534.9661, 695.1982
535.4482, 670.8414
535.9303, 707.5456
536.4124, 746.5351
536.8945, 737.3420
537.3766, 703.0795
537.8588, 697.5967
538.3409, 730.3302
538.8230, 755.8803
539.3051, 730.6519
539.7872, 659.3139
540.2693, 614.5341
540.7515, 606.9910
541.2336, 612.4562
541.7157, 641.7405
542.1978, 673.9101
542.6799, 688.2208
543.1620, 683.5092
543.6442, 675.0807
544.1263, 674.5624
544.6084, 680.5126
545.0905, 691.5255
545.5726, 711.2960
546.0547, 715.5406
546.5369, 685.1666
547.0190, 642.8416
547.5011, 623.8976
547.9832, 631.6368
548.4653, 629.3963
548.9474, 590.6159
549.4296, 551.3338
549.9116, 544.2898
550.3937, 563.8458
550.8759, 592.7484
551.3580, 623.9421
551.8401, 645.4230
552.3222, 626.9992
552.8043, 540.4713
553.2864, 495.2387
553.7686, 529.8298
554.2507, 569.3517
554.7328, 589.6115
555.2149, 594.2648
555.6970, 591.9174
556.1791, 584.5695
556.6613, 574.6189
557.1434, 563.0078
557.6255, 550.6639
558.1076, 540.0549
558.5897, 531.2201
559.0718, 527.0065
559.5540, 529.9932
560.0361, 539.7521
560.5182, 552.2828
561.0003, 589.3660
561.4824, 600.6277
561.9645, 543.2308
562.4467, 477.8328
562.9288, 469.8056
563.4109, 518.2734
563.8930, 572.3983
564.3751, 594.3325
564.8572, 589.3168
565.3394, 570.4507
565.8215, 532.1511
566.3036, 504.4452
566.7857, 498.1416
567.2678, 503.8424
567.7499, 514.9406
568.2321, 530.7363
568.7142, 539.6108
569.1963, 529.7024
569.6784, 519.4023
570.1605, 527.6057
570.6426, 546.2247
571.1248, 555.0959
571.6069, 547.0482
572.0890, 529.0051
572.5711, 507.7343
573.0532, 480.2738
573.5353, 472.4981
574.0175, 508.7271
574.4996, 534.5336
574.9817, 523.1674
575.4638, 499.2732
575.9459, 492.6647
576.4280, 510.1668
576.9102, 536.7559
577.3923, 573.4267
577.8744, 608.1111
578.3565, 608.4453
578.8386, 573.4131
579.3207, 545.2209
579.8029, 549.5939
580.2850, 570.9144
580.7671, 570.4778
581.2492, 520.2867
581.7313, 502.7372
582.2134, 556.7048
582.6956, 607.0302
583.1777, 603.9425
583.6598, 563.7601
584.1419, 526.5213
584.6240, 510.6914
585.1061, 506.7087
585.5883, 497.7883
586.0704, 485.1494
586.5525, 496.4068
587.0346, 546.3867
587.5167, 589.6182
587.9988, 586.4076
588.4810, 551.1865
588.9631, 537.1618
589.4452, 563.9547
589.9273, 581.9913
590.4094, 565.1774
590.8915, 539.4324
591.3737, 530.0532
591.8558, 539.1165
592.3379, 558.6315
592.8200, 585.0172
593.3021, 613.1420
593.7842, 626.3901
594.2664, 620.0007
594.7485, 616.9161
595.2306, 625.6923
595.7127, 633.4136
596.1948, 628.3614
596.6769, 614.4762
597.1591, 606.1191
597.6412, 613.8862
598.1233, 619.7341
598.6054, 603.7388
599.0875, 579.4693
599.5696, 572.6386
600.0518, 588.0089
600.5339, 614.4084
601.0160, 644.7823
601.4981, 676.3334
601.9802, 680.4805
602.4623, 626.5118
602.9445, 598.9006
603.4266, 632.7323
603.9087, 678.6686
604.3908, 705.2395
604.8729, 710.2985
605.3550, 700.6018
605.8372, 658.1073
606.3193, 621.7747
606.8014, 657.9038
607.2835, 742.3298
607.7656, 780.2018
608.2477, 741.5104
608.7299, 681.0397
609.2120, 658.6194
609.6941, 675.9191
610.1762, 685.6365
610.6583, 678.0192
611.1404, 674.9235
611.6226, 684.3328
612.1047, 697.0001
612.5868, 700.3902
613.0689, 695.6129
613.5510, 699.9861
614.0331, 735.6597
614.5153, 782.3976
614.9974, 799.6270
615.4795, 789.8784
615.9616, 781.9293
616.4437, 785.5401
616.9258, 793.4611
617.4080, 796.2245
617.8901, 792.5663
618.3722, 794.8571
618.8543, 808.0758
619.3364, 820.7440
619.8185, 827.1586
620.3007, 832.4393
620.7828, 846.7476
621.2649, 869.5145
621.7470, 883.3654
622.2291, 861.5411
622.7112, 823.9449
623.1934, 831.0565
623.6755, 884.8580
624.1576, 936.4109
624.6397, 973.3228
625.1218, 992.4269
625.6039, 983.3259
626.0861, 939.2554
626.5682, 917.8179
627.0503, 922.5271
627.5324, 947.0590
628.0145, 1013.345
628.4966, 1086.474
628.9788, 1116.885
629.4609, 1097.138
629.9430, 1065.502
630.4251, 1055.732
630.9072, 1062.825
631.3893, 1066.173
631.8715, 1063.562
632.3536, 1078.941
632.8357, 1129.506
633.3178, 1189.246
633.7999, 1218.324
634.2820, 1213.493
634.7642, 1231.669
635.2463, 1305.153
635.7284, 1370.525
636.2105, 1394.315
636.6926, 1395.562
637.1747, 1396.637
637.6569, 1404.848
638.1390, 1422.574
638.6211, 1453.678
639.1032, 1495.765
639.5853, 1540.525
640.0674, 1589.082
640.5496, 1634.185
641.0317, 1676.648
641.5138, 1710.858
641.9959, 1721.563
642.4780, 1708.379
642.9601, 1719.115
643.4423, 1774.852
643.9244, 1835.656
644.4065, 1875.826
644.8886, 1915.119
645.3707, 1990.229
645.8528, 2101.803
646.3350, 2202.510
646.8171, 2248.779
647.2992, 2253.940
647.7813, 2257.330
648.2634, 2256.864
648.7455, 2272.897
649.2277, 2310.586
649.7098, 2368.135
650.1919, 2453.049
650.6740, 2563.454
651.1561, 2655.890
651.6382, 2720.447
652.1204, 2774.899
652.6025, 2814.060
653.0846, 2853.294
653.5667, 2913.057
654.0488, 2993.123
654.5309, 3076.212
655.0131, 3150.804
655.4952, 3216.328
655.9773, 3270.057
656.4594, 3311.961
656.9415, 3347.350
657.4236, 3373.156
