##NAMES=Larnite
##RRUFFID=R070530
##IDEAL CHEMISTRY=Ca_2_SiO_4_
##LOCALITY=Larne, County Antrim, Northern Ireland, UK
##OWNER=RRUFF
##SOURCE=Michael Scott
##DESCRIPTION=Light gray massive
##STATUS=The identification of this mineral has been confirmed by single-crystal X-ray diffraction.
##URL=rruff.info/R070530
128.9685, 3520.745
129.4506, 3711.607
129.9328, 3885.725
130.4149, 4032.305
130.8970, 4167.238
131.3791, 4325.284
131.8612, 4509.211
132.3433, 4686.055
132.8255, 4823.539
133.3076, 4923.984
133.7897, 5036.189
134.2718, 5181.254
134.7539, 5346.416
135.2360, 5468.984
135.7182, 5542.605
136.2003, 5596.275
136.6824, 5663.857
137.1645, 5749.227
137.6466, 5827.647
138.1287, 5889.423
138.6109, 5933.300
139.0930, 5988.499
139.5751, 6065.417
140.0572, 6142.258
140.5393, 6175.589
141.0214, 6145.939
141.5036, 6116.445
141.9857, 6110.762
142.4678, 6131.744
142.9499, 6171.336
143.4320, 6239.145
143.9141, 6324.198
144.3963, 6386.485
144.8784, 6405.654
145.3605, 6426.642
145.8426, 6474.263
146.3247, 6564.947
146.8068, 6656.627
147.2890, 6751.674
147.7711, 6848.654
148.2532, 6927.455
148.7353, 6970.267
149.2174, 7006.406
149.6995, 7055.701
150.1817, 7145.254
150.6638, 7220.217
151.1459, 7272.082
151.6280, 7299.120
152.1101, 7318.812
152.5922, 7324.287
153.0744, 7325.750
153.5565, 7333.532
154.0386, 7360.641
154.5207, 7383.500
155.0028, 7395.120
155.4849, 7393.013
155.9671, 7386.918
156.4492, 7374.147
156.9313, 7359.083
157.4134, 7348.661
157.8955, 7352.842
158.3777, 7355.802
158.8598, 7347.985
159.3419, 7318.101
159.8240, 7297.504
160.3061, 7302.511
160.7882, 7324.872
161.2704, 7343.830
161.7525, 7350.384
162.2346, 7351.498
162.7167, 7352.263
163.1988, 7357.849
163.6809, 7358.207
164.1631, 7345.847
164.6452, 7322.926
165.1273, 7299.647
165.6094, 7273.574
166.0915, 7252.837
166.5736, 7245.685
167.0558, 7269.981
167.5379, 7297.153
168.0200, 7309.490
168.5021, 7307.455
168.9842, 7296.373
169.4663, 7266.246
169.9485, 7231.457
170.4306, 7212.887
170.9127, 7238.610
171.3948, 7273.856
171.8769, 7284.756
172.3590, 7269.276
172.8412, 7244.113
173.3233, 7224.456
173.8054, 7205.768
174.2875, 7178.333
174.7696, 7123.131
175.2517, 7061.255
175.7339, 7022.652
176.2160, 7011.917
176.6981, 7013.048
177.1802, 7012.139
177.6623, 7009.677
178.1444, 7007.501
178.6266, 7016.327
179.1087, 7025.059
179.5908, 7006.997
180.0729, 6950.995
180.5550, 6885.534
181.0371, 6853.681
181.5193, 6851.268
182.0014, 6849.422
182.4835, 6820.792
182.9656, 6776.260
183.4477, 6749.479
183.9298, 6753.447
184.4120, 6770.406
184.8941, 6768.312
185.3762, 6747.332
185.8583, 6719.818
186.3404, 6692.036
186.8225, 6664.977
187.3047, 6641.740
187.7868, 6620.723
188.2689, 6605.536
188.7510, 6613.673
189.2331, 6647.824
189.7152, 6676.772
190.1974, 6662.500
190.6795, 6608.706
191.1616, 6559.713
191.6437, 6529.355
192.1258, 6514.289
192.6080, 6501.131
193.0901, 6489.963
193.5722, 6479.479
194.0543, 6468.747
194.5364, 6457.849
195.0185, 6445.144
195.5007, 6431.960
195.9828, 6417.501
196.4649, 6388.969
196.9470, 6339.585
197.4291, 6291.831
197.9112, 6285.756
198.3934, 6327.300
198.8755, 6359.625
199.3576, 6355.089
199.8397, 6312.164
200.3218, 6278.465
200.8039, 6256.732
201.2861, 6240.128
201.7682, 6215.854
202.2503, 6182.210
202.7324, 6148.703
203.2145, 6115.087
203.6966, 6078.557
204.1788, 6068.802
204.6609, 6097.715
205.1430, 6143.480
205.6251, 6154.647
206.1072, 6122.931
206.5893, 6082.542
207.0715, 6049.770
207.5536, 6025.348
208.0357, 6007.248
208.5178, 5998.393
208.9999, 5994.416
209.4820, 5981.140
209.9642, 5955.724
210.4463, 5927.713
210.9284, 5900.355
211.4105, 5870.642
211.8926, 5855.648
212.3747, 5864.272
212.8569, 5888.116
213.3390, 5889.002
213.8211, 5857.242
214.3032, 5820.843
214.7853, 5800.214
215.2674, 5802.022
215.7496, 5800.435
216.2317, 5794.070
216.7138, 5782.152
217.1959, 5755.518
217.6780, 5700.800
218.1601, 5651.514
218.6423, 5640.459
219.1244, 5691.761
219.6065, 5718.564
220.0886, 5697.597
220.5707, 5632.868
221.0528, 5603.353
221.5350, 5626.438
222.0171, 5661.321
222.4992, 5671.243
222.9813, 5642.728
223.4634, 5619.368
223.9455, 5611.449
224.4277, 5618.961
224.9098, 5617.667
225.3919, 5602.479
225.8740, 5584.149
226.3561, 5572.330
226.8382, 5566.976
227.3204, 5569.167
227.8025, 5584.880
228.2846, 5616.148
228.7667, 5622.436
229.2488, 5588.220
229.7310, 5543.780
230.2131, 5523.137
230.6952, 5541.121
231.1773, 5555.680
231.6594, 5556.599
232.1415, 5542.112
232.6237, 5530.210
233.1058, 5526.462
233.5879, 5520.647
234.0700, 5496.489
234.5521, 5431.901
235.0342, 5389.159
235.5164, 5392.780
235.9985, 5454.541
236.4806, 5486.744
236.9627, 5478.885
237.4448, 5449.438
237.9269, 5420.116
238.4091, 5385.425
238.8912, 5360.674
239.3733, 5351.676
239.8554, 5361.633
240.3375, 5371.677
240.8196, 5383.158
241.3018, 5393.790
241.7839, 5400.962
242.2660, 5406.676
242.7481, 5405.266
243.2302, 5392.069
243.7123, 5361.719
244.1945, 5344.102
244.6766, 5343.651
245.1587, 5353.095
245.6408, 5362.284
246.1229, 5374.413
246.6050, 5380.689
247.0872, 5376.817
247.5693, 5359.258
248.0514, 5345.879
248.5335, 5337.736
249.0156, 5333.117
249.4977, 5329.096
249.9799, 5324.775
250.4620, 5322.672
250.9441, 5323.805
251.4262, 5328.750
251.9083, 5335.714
252.3904, 5349.238
252.8726, 5361.815
253.3547, 5357.183
253.8368, 5320.944
254.3189, 5294.498
254.8010, 5296.228
255.2831, 5337.691
255.7653, 5361.658
256.2474, 5363.655
256.7295, 5350.992
257.2116, 5333.542
257.6937, 5303.300
258.1758, 5285.077
258.6580, 5292.951
259.1401, 5337.752
259.6222, 5361.158
260.1043, 5354.612
260.5864, 5332.934
261.0685, 5322.363
261.5507, 5324.839
262.0328, 5333.966
262.5149, 5348.472
262.9970, 5369.622
263.4791, 5391.712
263.9612, 5418.837
264.4434, 5443.506
264.9255, 5451.631
265.4076, 5439.340
265.8897, 5420.827
266.3718, 5397.749
266.8539, 5367.209
267.3361, 5352.398
267.8182, 5358.186
268.3003, 5374.678
268.7824, 5385.067
269.2645, 5387.110
269.7466, 5389.770
270.2288, 5393.354
270.7109, 5396.055
271.1930, 5420.302
271.6751, 5476.059
272.1572, 5540.441
272.6393, 5575.207
273.1215, 5575.408
273.6036, 5567.133
274.0857, 5560.123
274.5678, 5554.741
275.0499, 5541.166
275.5320, 5514.313
276.0142, 5487.669
276.4963, 5484.346
276.9784, 5507.798
277.4605, 5533.332
277.9426, 5550.037
278.4247, 5558.200
278.9069, 5577.211
279.3890, 5611.233
279.8711, 5646.698
280.3532, 5659.145
280.8354, 5646.054
281.3175, 5641.836
281.7996, 5668.503
282.2817, 5721.198
282.7638, 5743.953
283.2459, 5731.309
283.7281, 5705.759
284.2102, 5694.756
284.6923, 5698.300
285.1744, 5707.152
285.6565, 5719.125
286.1386, 5733.763
286.6208, 5748.735
287.1029, 5764.250
287.5850, 5779.383
288.0671, 5793.198
288.5492, 5805.766
289.0313, 5817.856
289.5135, 5829.735
289.9956, 5841.350
290.4777, 5851.803
290.9598, 5860.800
291.4419, 5871.457
291.9240, 5890.137
292.4062, 5914.870
292.8883, 5934.001
293.3704, 5937.616
293.8525, 5935.050
294.3346, 5953.484
294.8167, 5993.821
295.2989, 6030.855
295.7810, 6030.134
296.2631, 6004.317
296.7452, 5994.344
297.2273, 6022.995
297.7094, 6069.404
298.1916, 6100.793
298.6737, 6117.231
299.1558, 6128.001
299.6379, 6130.621
300.1200, 6133.372
300.6021, 6156.065
301.0843, 6218.597
301.5664, 6290.891
302.0485, 6336.674
302.5306, 6357.730
303.0127, 6366.066
303.4948, 6357.206
303.9770, 6344.365
304.4591, 6350.167
304.9412, 6395.675
305.4233, 6443.518
305.9054, 6452.167
306.3875, 6428.570
306.8697, 6406.509
307.3518, 6403.201
307.8339, 6414.906
308.3160, 6440.496
308.7981, 6492.253
309.2802, 6537.701
309.7624, 6541.587
310.2445, 6515.920
310.7266, 6499.645
311.2087, 6533.272
311.6908, 6574.484
312.1729, 6582.016
312.6551, 6527.438
313.1372, 6480.211
313.6193, 6485.623
314.1014, 6527.692
314.5835, 6568.919
315.0656, 6600.126
315.5478, 6621.461
316.0299, 6632.031
316.5120, 6629.037
316.9941, 6622.330
317.4762, 6612.233
317.9583, 6601.290
318.4405, 6593.904
318.9226, 6598.104
319.4047, 6600.985
319.8868, 6594.009
320.3689, 6570.568
320.8510, 6556.864
321.3332, 6571.188
321.8153, 6595.998
322.2974, 6606.618
322.7795, 6575.599
323.2616, 6550.755
323.7437, 6554.274
324.2259, 6598.413
324.7080, 6617.730
325.1901, 6590.260
325.6722, 6540.316
326.1543, 6494.915
326.6364, 6456.120
327.1186, 6420.833
327.6007, 6383.423
328.0828, 6341.448
328.5649, 6324.658
329.0470, 6358.407
329.5291, 6401.019
330.0113, 6418.521
330.4934, 6406.680
330.9755, 6375.088
331.4576, 6309.660
331.9397, 6215.026
332.4218, 6166.522
332.9040, 6190.806
333.3861, 6230.531
333.8682, 6245.934
334.3503, 6230.077
334.8324, 6206.329
335.3145, 6173.779
335.7967, 6134.940
336.2788, 6102.362
336.7609, 6077.210
337.2430, 6055.115
337.7251, 6036.575
338.2072, 6024.084
338.6894, 5999.536
339.1715, 5959.517
339.6536, 5908.225
340.1357, 5850.482
340.6178, 5781.062
341.0999, 5729.366
341.5821, 5720.400
342.0642, 5753.592
342.5463, 5767.251
343.0284, 5754.358
343.5105, 5730.999
343.9926, 5729.971
344.4748, 5750.551
344.9569, 5755.780
345.4390, 5709.645
345.9211, 5629.614
346.4032, 5598.344
346.8853, 5622.336
347.3675, 5660.242
347.8496, 5665.437
348.3317, 5643.174
348.8138, 5615.148
349.2959, 5589.054
349.7780, 5563.250
350.2602, 5532.911
350.7423, 5498.125
351.2244, 5463.047
351.7065, 5429.037
352.1887, 5397.344
352.6708, 5370.894
353.1529, 5348.094
353.6350, 5333.349
354.1171, 5339.557
354.5992, 5362.505
355.0814, 5375.228
355.5635, 5344.678
356.0456, 5300.172
356.5277, 5277.334
357.0098, 5299.449
357.4919, 5321.136
357.9741, 5307.125
358.4562, 5268.634
358.9383, 5236.630
359.4204, 5239.296
359.9025, 5245.211
360.3846, 5229.256
360.8668, 5175.866
361.3489, 5130.937
361.8310, 5121.411
362.3131, 5131.089
362.7952, 5132.313
363.2773, 5095.589
363.7595, 5067.459
364.2416, 5076.686
364.7237, 5140.717
365.2058, 5170.637
365.6879, 5115.158
366.1700, 5032.212
366.6522, 4984.349
367.1343, 5009.563
367.6164, 5036.699
368.0985, 5059.800
368.5806, 5079.834
369.0627, 5071.892
369.5449, 5004.813
370.0270, 4933.623
370.5091, 4898.591
370.9912, 4924.293
371.4733, 4943.876
371.9554, 4949.595
372.4376, 4943.585
372.9197, 4936.740
373.4018, 4929.225
373.8839, 4920.689
374.3660, 4913.371
374.8481, 4911.500
375.3303, 4889.417
375.8124, 4833.294
376.2945, 4767.551
376.7766, 4753.929
377.2587, 4804.071
377.7408, 4846.345
378.2230, 4837.283
378.7051, 4779.394
379.1872, 4750.892
379.6693, 4757.019
380.1514, 4778.299
380.6335, 4792.837
381.1157, 4800.712
381.5978, 4801.283
382.0799, 4791.942
382.5620, 4775.772
383.0441, 4756.793
383.5262, 4734.556
384.0084, 4720.822
384.4905, 4739.044
384.9726, 4774.167
385.4547, 4786.892
385.9368, 4754.740
386.4189, 4710.303
386.9011, 4693.105
387.3832, 4698.671
387.8653, 4705.471
388.3474, 4692.304
388.8295, 4676.136
389.3116, 4678.814
389.7938, 4712.313
390.2759, 4744.527
390.7580, 4748.487
391.2401, 4736.474
391.7222, 4734.414
392.2043, 4767.414
392.6865, 4802.694
393.1686, 4820.906
393.6507, 4817.132
394.1328, 4811.595
394.6149, 4810.891
395.0970, 4811.731
395.5792, 4810.431
396.0613, 4792.487
396.5434, 4786.309
397.0255, 4810.402
397.5076, 4865.242
397.9897, 4892.143
398.4719, 4856.277
398.9540, 4811.938
399.4361, 4791.908
399.9182, 4808.463
400.4003, 4832.190
400.8824, 4871.893
401.3646, 4917.934
401.8467, 4933.538
402.3288, 4904.268
402.8109, 4869.312
403.2930, 4843.692
403.7751, 4826.011
404.2573, 4826.678
404.7394, 4854.588
405.2215, 4889.601
405.7036, 4897.263
406.1857, 4874.455
406.6678, 4846.761
407.1500, 4819.428
407.6321, 4793.875
408.1142, 4778.711
408.5963, 4773.966
409.0784, 4780.165
409.5605, 4806.762
410.0427, 4848.409
410.5248, 4875.170
411.0069, 4875.302
411.4890, 4862.842
411.9711, 4860.771
412.4532, 4867.939
412.9354, 4876.748
413.4175, 4886.381
413.8996, 4892.949
414.3817, 4890.003
414.8638, 4875.686
415.3459, 4854.979
415.8281, 4819.600
416.3102, 4781.316
416.7923, 4763.963
417.2744, 4796.124
417.7565, 4840.601
418.2386, 4873.785
418.7208, 4894.105
419.2029, 4910.976
419.6850, 4927.756
420.1671, 4943.486
420.6492, 4957.523
421.1313, 4963.378
421.6135, 4974.013
422.0956, 4996.834
422.5777, 5029.090
423.0598, 5054.751
423.5420, 5064.142
424.0241, 5072.247
424.5062, 5086.638
424.9883, 5114.875
425.4704, 5135.614
425.9525, 5144.858
426.4347, 5148.492
426.9168, 5156.337
427.3989, 5166.166
427.8810, 5184.955
428.3631, 5217.407
428.8452, 5264.019
429.3274, 5305.152
429.8095, 5338.143
430.2916, 5369.864
430.7737, 5407.725
431.2558, 5451.925
431.7379, 5497.279
432.2201, 5546.665
432.7022, 5592.890
433.1843, 5608.282
433.6664, 5592.807
434.1485, 5585.185
434.6306, 5623.399
435.1128, 5689.915
435.5949, 5732.208
436.0770, 5739.964
436.5591, 5741.504
437.0412, 5769.786
437.5233, 5817.300
438.0055, 5864.873
438.4876, 5914.543
438.9697, 5953.391
439.4518, 5956.159
439.9339, 5924.350
440.4160, 5909.348
440.8982, 5967.333
441.3803, 6045.471
441.8624, 6092.032
442.3445, 6071.997
442.8266, 6044.045
443.3087, 6023.922
443.7909, 6011.100
444.2730, 6004.209
444.7551, 6003.701
445.2372, 6008.276
445.7193, 6022.110
446.2014, 6062.380
446.6836, 6067.983
447.1657, 6011.845
447.6478, 5933.680
448.1299, 5881.950
448.6120, 5875.104
449.0941, 5863.710
449.5763, 5835.405
450.0584, 5791.950
450.5405, 5762.593
451.0226, 5755.792
451.5047, 5743.490
451.9868, 5699.779
452.4690, 5620.631
452.9511, 5554.501
453.4332, 5507.121
453.9153, 5473.134
454.3974, 5448.764
454.8795, 5433.125
455.3617, 5411.557
455.8438, 5369.036
456.3259, 5315.934
456.8080, 5283.244
457.2901, 5273.262
457.7722, 5258.092
458.2544, 5192.812
458.7365, 5107.155
459.2186, 5059.913
459.7007, 5099.624
460.1828, 5146.049
460.6649, 5118.640
461.1471, 5037.690
461.6292, 4975.673
462.1113, 4987.362
462.5934, 5016.422
463.0755, 5024.891
463.5576, 5003.296
464.0398, 4976.245
464.5219, 4946.440
465.0040, 4916.695
465.4861, 4890.617
465.9682, 4866.914
466.4503, 4849.004
466.9325, 4838.702
467.4146, 4835.775
467.8967, 4834.052
468.3788, 4835.136
468.8609, 4835.612
469.3430, 4832.463
469.8252, 4822.307
470.3073, 4819.405
470.7894, 4827.539
471.2715, 4840.135
471.7536, 4842.482
472.2357, 4832.605
472.7179, 4826.407
473.2000, 4832.920
473.6821, 4848.984
474.1642, 4856.083
474.6463, 4853.416
475.1284, 4850.178
475.6106, 4860.350
476.0927, 4877.426
476.5748, 4880.262
477.0569, 4858.725
477.5390, 4831.062
478.0211, 4817.696
478.5033, 4815.756
478.9854, 4816.045
479.4675, 4808.375
479.9496, 4804.153
480.4317, 4818.243
480.9138, 4854.812
481.3960, 4880.582
481.8781, 4874.259
482.3602, 4852.052
482.8423, 4830.653
483.3244, 4793.867
483.8065, 4780.027
484.2887, 4820.066
484.7708, 4898.863
485.2529, 4934.494
485.7350, 4885.879
486.2171, 4834.512
486.6992, 4816.073
487.1814, 4847.197
487.6635, 4854.521
488.1456, 4829.075
488.6277, 4789.348
489.1098, 4757.480
489.5919, 4733.055
490.0741, 4717.962
490.5562, 4715.211
491.0383, 4721.006
491.5204, 4723.933
492.0026, 4724.303
492.4847, 4716.261
492.9668, 4687.368
493.4489, 4646.677
493.9310, 4623.876
494.4131, 4626.292
494.8953, 4628.939
495.3774, 4589.285
495.8595, 4529.556
496.3416, 4499.739
496.8237, 4566.292
497.3058, 4634.317
497.7880, 4621.802
498.2701, 4538.505
498.7522, 4463.254
499.2343, 4436.858
499.7164, 4429.251
500.1985, 4419.465
500.6807, 4398.808
501.1628, 4386.519
501.6449, 4393.044
502.1270, 4408.242
502.6091, 4415.366
503.0912, 4414.572
503.5734, 4404.827
504.0555, 4381.618
504.5376, 4346.289
505.0197, 4322.745
505.5018, 4316.299
505.9839, 4311.753
506.4661, 4295.562
506.9482, 4265.362
507.4303, 4249.515
507.9124, 4253.948
508.3945, 4265.994
508.8766, 4264.335
509.3588, 4250.365
509.8409, 4235.786
510.3230, 4223.258
510.8051, 4214.242
511.2872, 4214.372
511.7693, 4222.985
512.2515, 4230.015
512.7336, 4222.216
513.2157, 4211.255
513.6978, 4213.620
514.1799, 4240.822
514.6620, 4261.079
515.1442, 4250.222
515.6263, 4221.789
516.1084, 4198.982
516.5905, 4195.006
517.0726, 4191.324
517.5547, 4177.089
518.0369, 4151.496
518.5190, 4143.413
519.0011, 4171.371
519.4832, 4201.071
519.9653, 4213.046
520.4474, 4200.437
520.9296, 4184.138
521.4117, 4157.745
521.8938, 4134.294
522.3759, 4142.332
522.8580, 4187.930
523.3401, 4225.923
523.8223, 4240.968
524.3044, 4237.363
524.7865, 4229.399
525.2686, 4217.112
525.7507, 4203.113
526.2328, 4185.802
526.7150, 4168.849
527.1971, 4160.070
527.6792, 4161.532
528.1613, 4167.939
528.6434, 4180.190
529.1255, 4193.331
529.6077, 4198.926
530.0898, 4188.367
530.5719, 4174.032
531.0540, 4164.125
531.5361, 4157.404
532.0182, 4142.716
532.5004, 4099.551
532.9825, 4060.947
533.4646, 4046.465
533.9467, 4071.607
534.4288, 4089.708
534.9109, 4102.405
535.3931, 4107.098
535.8752, 4096.701
536.3573, 4060.724
536.8394, 4042.445
537.3215, 4060.775
537.8036, 4100.643
538.2858, 4096.304
538.7679, 4043.466
539.2500, 3987.043
539.7321, 3956.643
540.2142, 3946.128
540.6964, 3933.187
541.1785, 3915.972
541.6606, 3901.432
542.1427, 3896.674
542.6248, 3899.749
543.1069, 3908.095
543.5891, 3931.388
544.0712, 3946.731
544.5533, 3932.265
545.0354, 3896.157
545.5175, 3863.208
545.9996, 3836.677
546.4818, 3820.667
546.9639, 3820.998
547.4460, 3842.475
547.9281, 3857.463
548.4102, 3873.159
548.8923, 3875.078
549.3745, 3847.600
549.8566, 3765.158
550.3387, 3712.297
550.8208, 3707.361
551.3029, 3728.115
551.7850, 3716.486
552.2672, 3666.042
552.7493, 3632.060
553.2314, 3645.004
553.7135, 3692.400
554.1956, 3728.552
554.6777, 3753.462
555.1599, 3767.045
555.6420, 3763.726
556.1241, 3750.177
556.6062, 3738.366
557.0883, 3731.656
557.5704, 3723.487
558.0526, 3705.266
558.5347, 3682.869
559.0168, 3665.864
559.4989, 3660.505
559.9810, 3659.020
560.4631, 3659.195
560.9453, 3660.927
561.4274, 3664.058
561.9095, 3663.181
562.3916, 3668.627
562.8737, 3688.886
563.3558, 3735.127
563.8380, 3754.540
564.3201, 3737.581
564.8022, 3706.287
565.2843, 3682.270
565.7664, 3664.678
566.2485, 3665.026
566.7307, 3693.342
567.2128, 3731.593
567.6949, 3736.843
568.1770, 3712.620
568.6591, 3688.323
569.1412, 3677.423
569.6234, 3677.427
570.1055, 3689.621
570.5876, 3713.693
571.0697, 3731.831
571.5518, 3722.236
572.0339, 3705.986
572.5161, 3704.002
572.9982, 3726.708
573.4803, 3753.366
573.9624, 3773.298
574.4445, 3794.230
574.9266, 3829.912
575.4088, 3912.471
575.8909, 3970.760
576.3730, 3985.993
576.8551, 3962.551
577.3372, 3933.956
577.8193, 3893.170
578.3015, 3864.955
578.7836, 3868.600
579.2657, 3903.645
579.7478, 3934.051
580.2299, 3958.732
580.7120, 3979.293
581.1942, 3995.021
581.6763, 4007.608
582.1584, 4024.818
582.6405, 4059.122
583.1226, 4081.940
583.6047, 4047.145
584.0869, 3975.969
584.5690, 3924.602
585.0511, 3920.727
585.5332, 3942.387
586.0153, 3993.514
586.4974, 4075.189
586.9796, 4121.549
587.4617, 4067.789
587.9438, 4015.303
588.4259, 4027.155
588.9080, 4163.756
589.3901, 4235.050
589.8723, 4212.015
590.3544, 4152.958
590.8365, 4149.947
591.3186, 4212.120
591.8007, 4247.249
592.2828, 4220.877
592.7650, 4163.169
593.2471, 4141.223
593.7292, 4153.989
594.2113, 4190.175
594.6934, 4260.914
595.1755, 4342.714
595.6577, 4406.542
596.1398, 4450.767
596.6219, 4482.275
597.1040, 4495.720
597.5862, 4503.472
598.0683, 4517.688
598.5504, 4546.567
599.0325, 4572.228
599.5146, 4589.287
599.9968, 4600.966
600.4789, 4612.809
600.9610, 4628.015
601.4431, 4637.341
601.9252, 4633.066
602.4073, 4621.119
602.8895, 4632.591
603.3716, 4670.546
603.8537, 4718.984
604.3358, 4784.257
604.8179, 4856.749
605.3000, 4873.555
605.7822, 4828.316
606.2643, 4784.409
606.7464, 4805.485
607.2285, 4866.418
607.7106, 4927.066
608.1927, 4981.024
608.6749, 5024.434
609.1570, 5049.844
609.6391, 5063.444
610.1212, 5075.061
610.6033, 5077.391
611.0854, 5089.057
611.5676, 5122.188
612.0497, 5173.595
612.5318, 5211.010
613.0139, 5222.714
613.4960, 5237.498
613.9781, 5271.834
614.4603, 5328.692
614.9424, 5362.313
615.4245, 5366.345
615.9066, 5367.659
616.3887, 5394.680
616.8708, 5443.299
617.3530, 5493.299
617.8351, 5542.178
618.3172, 5586.767
618.7993, 5623.998
619.2814, 5654.314
619.7635, 5679.086
620.2457, 5683.590
620.7278, 5696.671
621.2099, 5743.838
621.6920, 5817.006
622.1741, 5877.229
622.6563, 5896.615
623.1384, 5917.186
623.6205, 5959.437
624.1026, 6028.630
624.5847, 6084.503
625.0668, 6122.538
625.5490, 6154.096
626.0311, 6182.122
626.5132, 6204.699
626.9953, 6256.874
627.4774, 6349.383
627.9595, 6451.407
