##NAMES=Lasalite
##RRUFFID=R070476
##IDEAL CHEMISTRY=Na_2_Mg_2_(V^5+^_10_O_28_)&#183;20H_2_O
##LOCALITY=Vanadium Queen mine, Paradox Valley, San Juan County, Utah, USA
##OWNER=RRUFF
##SOURCE=Dakota Matrix Minerals
##DESCRIPTION=Orange massive
##STATUS=The identification of this mineral has been confirmed by single-crystal X-ray diffraction.
##URL=rruff.info/R070476
138.5845, 6350.496
139.0667, 6696.608
139.5488, 7063.459
140.0309, 7453.425
140.5130, 7852.203
140.9951, 8267.295
141.4772, 8688.227
141.9594, 9096.729
142.4415, 9509.699
142.9236, 9882.141
143.4057, 10205.21
143.8878, 10474.96
144.3699, 10702.14
144.8521, 10903.58
145.3342, 11058.69
145.8163, 11096.75
146.2984, 10973.19
146.7805, 10786.45
147.2626, 10580.33
147.7448, 10355.12
148.2269, 10111.65
148.7090, 9834.017
149.1911, 9527.363
149.6732, 9265.346
150.1554, 9051.815
150.6375, 8879.381
151.1196, 8747.199
151.6017, 8682.551
152.0838, 8626.690
152.5659, 8564.734
153.0481, 8492.884
153.5302, 8461.796
154.0123, 8488.037
154.4944, 8550.491
154.9765, 8629.216
155.4586, 8720.634
155.9408, 8829.462
156.4229, 8956.093
156.9050, 9064.152
157.3871, 9148.324
157.8692, 9251.367
158.3513, 9370.359
158.8335, 9494.927
159.3156, 9630.715
159.7977, 9766.261
160.2798, 9892.487
160.7619, 9995.504
161.2440, 10122.34
161.7262, 10304.65
162.2083, 10521.52
162.6904, 10728.84
163.1725, 10882.70
163.6546, 11037.31
164.1367, 11226.43
164.6189, 11470.66
165.1010, 11732.23
165.5831, 11990.55
166.0652, 12250.11
166.5473, 12531.44
167.0294, 12831.59
167.5116, 13157.44
167.9937, 13514.47
168.4758, 13930.97
168.9579, 14352.74
169.4400, 14745.42
169.9221, 15110.76
170.4043, 15466.03
170.8864, 15824.60
171.3685, 16177.64
171.8506, 16520.50
172.3327, 16889.33
172.8148, 17220.40
173.2970, 17452.06
173.7791, 17583.65
174.2612, 17654.48
174.7433, 17702.73
175.2254, 17713.30
175.7076, 17656.10
176.1897, 17519.97
176.6718, 17309.70
177.1539, 17021.21
177.6360, 16649.46
178.1181, 16229.23
178.6003, 15769.62
179.0824, 15276.62
179.5645, 14790.66
180.0466, 14318.58
180.5287, 13859.24
181.0108, 13416.87
181.4930, 12988.01
181.9751, 12575.68
182.4572, 12182.39
182.9393, 11807.10
183.4214, 11467.45
183.9035, 11188.23
184.3857, 10953.56
184.8678, 10716.56
185.3499, 10471.70
185.8320, 10223.76
186.3141, 9987.281
186.7962, 9759.693
187.2784, 9533.667
187.7605, 9300.080
188.2426, 9062.731
188.7247, 8833.673
189.2068, 8619.855
189.6889, 8414.580
190.1711, 8196.238
190.6532, 7965.793
191.1353, 7737.452
191.6174, 7522.686
192.0995, 7324.121
192.5816, 7140.142
193.0638, 6975.442
193.5459, 6825.277
194.0280, 6670.061
194.5101, 6505.429
194.9922, 6352.638
195.4743, 6237.026
195.9565, 6159.615
196.4386, 6085.000
196.9207, 6000.295
197.4028, 5909.771
197.8849, 5841.386
198.3671, 5796.855
198.8492, 5767.109
199.3313, 5738.569
199.8134, 5709.572
200.2955, 5698.001
200.7776, 5712.854
201.2598, 5753.079
201.7419, 5794.313
202.2240, 5834.663
202.7061, 5880.266
203.1882, 5942.043
203.6703, 6022.545
204.1525, 6106.262
204.6346, 6183.572
205.1167, 6252.354
205.5988, 6345.962
206.0809, 6468.917
206.5630, 6610.359
207.0452, 6755.142
207.5273, 6906.903
208.0094, 7050.792
208.4915, 7180.314
208.9736, 7291.739
209.4557, 7405.269
209.9379, 7522.880
210.4200, 7641.255
210.9021, 7757.990
211.3842, 7881.439
211.8663, 7982.018
212.3484, 8041.976
212.8306, 8054.668
213.3127, 8056.609
213.7948, 8049.947
214.2769, 8032.897
214.7590, 7997.082
215.2411, 7934.726
215.7233, 7870.887
216.2054, 7820.195
216.6875, 7786.501
217.1696, 7752.713
217.6517, 7716.629
218.1338, 7679.657
218.6160, 7651.033
219.0981, 7640.791
219.5802, 7620.479
220.0623, 7568.015
220.5444, 7465.809
221.0265, 7380.831
221.5087, 7320.107
221.9908, 7280.333
222.4729, 7244.257
222.9550, 7202.709
223.4371, 7178.261
223.9192, 7188.681
224.4014, 7246.457
224.8835, 7307.812
225.3656, 7367.015
225.8477, 7425.707
226.3298, 7492.374
226.8119, 7572.333
227.2941, 7653.773
227.7762, 7725.255
228.2583, 7766.997
228.7404, 7840.515
229.2225, 7963.810
229.7046, 8130.547
230.1868, 8277.653
230.6689, 8393.658
231.1510, 8501.238
231.6331, 8618.604
232.1152, 8745.937
232.5974, 8881.447
233.0795, 9029.285
233.5616, 9188.516
234.0437, 9344.779
234.5258, 9493.729
235.0079, 9647.447
235.4901, 9816.479
235.9722, 10001.47
236.4543, 10203.10
236.9364, 10432.91
237.4185, 10691.33
237.9006, 10908.11
238.3828, 11054.31
238.8649, 11188.36
239.3470, 11368.86
239.8291, 11624.73
240.3112, 11871.90
240.7933, 12091.94
241.2755, 12284.98
241.7576, 12473.37
242.2397, 12658.51
242.7218, 12836.83
243.2039, 13002.27
243.6860, 13141.45
244.1682, 13294.64
244.6503, 13480.94
245.1324, 13704.82
245.6145, 13872.24
246.0966, 13956.05
246.5787, 14010.30
247.0609, 14094.34
247.5430, 14234.89
248.0251, 14354.61
248.5072, 14438.01
248.9893, 14483.68
249.4714, 14508.80
249.9536, 14517.11
250.4357, 14501.20
250.9178, 14453.01
251.3999, 14372.64
251.8820, 14261.51
252.3641, 14120.47
252.8463, 13951.43
253.3284, 13739.51
253.8105, 13461.24
254.2926, 13167.57
254.7747, 12918.27
255.2568, 12731.37
255.7390, 12550.05
256.2211, 12356.16
256.7032, 12149.35
257.1853, 11964.32
257.6674, 11803.37
258.1495, 11663.94
258.6317, 11544.81
259.1138, 11450.32
259.5959, 11368.26
260.0780, 11298.08
260.5601, 11239.43
261.0422, 11186.62
261.5244, 11145.38
262.0065, 11102.70
262.4886, 11040.32
262.9707, 10943.98
263.4528, 10865.00
263.9349, 10821.29
264.4171, 10814.25
264.8992, 10790.38
265.3813, 10748.78
265.8634, 10691.09
266.3455, 10613.87
266.8276, 10505.94
267.3098, 10412.81
267.7919, 10353.82
268.2740, 10328.77
268.7561, 10262.97
269.2382, 10143.49
269.7203, 10007.59
270.2025, 9893.098
270.6846, 9803.742
271.1667, 9725.482
271.6488, 9662.841
272.1309, 9613.567
272.6130, 9525.546
273.0952, 9388.208
273.5773, 9234.756
274.0594, 9099.525
274.5415, 8986.076
275.0236, 8872.908
275.5057, 8753.317
275.9879, 8629.379
276.4700, 8520.849
276.9521, 8431.242
277.4342, 8347.740
277.9163, 8256.094
278.3984, 8154.858
278.8806, 8059.708
279.3627, 7976.251
279.8448, 7902.395
280.3269, 7823.081
280.8090, 7736.896
281.2911, 7650.450
281.7733, 7566.999
282.2554, 7486.237
282.7375, 7413.138
283.2196, 7348.223
283.7017, 7291.695
284.1838, 7245.836
284.6660, 7211.188
285.1481, 7182.973
285.6302, 7159.034
286.1123, 7139.061
286.5944, 7115.543
287.0765, 7084.232
287.5587, 7049.925
288.0408, 7027.035
288.5229, 7016.127
289.0050, 7010.905
289.4871, 7007.223
289.9692, 7005.055
290.4514, 7003.269
290.9335, 6999.695
291.4156, 6998.334
291.8977, 7006.963
292.3798, 7025.523
292.8619, 7054.204
293.3441, 7099.212
293.8262, 7155.959
294.3083, 7201.876
294.7904, 7224.874
295.2726, 7247.209
295.7547, 7311.646
296.2368, 7415.007
296.7189, 7528.332
297.2010, 7632.872
297.6831, 7730.636
298.1653, 7827.250
298.6474, 7922.865
299.1295, 8019.595
299.6116, 8112.285
300.0937, 8204.832
300.5758, 8323.273
301.0580, 8496.772
301.5401, 8703.099
302.0222, 8908.234
302.5043, 9105.514
302.9864, 9299.539
303.4685, 9481.771
303.9507, 9660.570
304.4328, 9858.229
304.9149, 10101.06
305.3970, 10364.29
305.8791, 10621.91
306.3612, 10868.28
306.8434, 11108.93
307.3255, 11339.04
307.8076, 11563.21
308.2897, 11796.30
308.7718, 12054.01
309.2539, 12317.13
309.7361, 12567.90
310.2182, 12802.67
310.7003, 13030.48
311.1824, 13256.42
311.6645, 13477.28
312.1466, 13686.83
312.6288, 13891.55
313.1109, 14079.54
313.5930, 14239.03
314.0751, 14368.41
314.5572, 14496.84
315.0393, 14664.16
315.5215, 14833.61
316.0036, 14957.86
316.4857, 14989.46
316.9678, 14999.39
317.4499, 15018.47
317.9320, 15048.50
318.4142, 15084.88
318.8963, 15155.32
319.3784, 15218.88
319.8605, 15236.80
320.3426, 15153.98
320.8247, 15065.44
321.3069, 15013.31
321.7890, 14994.16
322.2711, 14942.63
322.7532, 14837.37
323.2353, 14696.59
323.7174, 14533.44
324.1996, 14349.12
324.6817, 14142.40
325.1638, 13909.24
325.6459, 13651.54
326.1280, 13388.42
326.6101, 13121.84
327.0923, 12849.61
327.5744, 12573.55
328.0565, 12285.37
328.5386, 12001.81
329.0207, 11725.76
329.5028, 11456.93
329.9850, 11183.50
330.4671, 10902.61
330.9492, 10620.60
331.4313, 10335.34
331.9134, 10025.38
332.3955, 9753.497
332.8777, 9536.693
333.3598, 9354.687
333.8419, 9150.219
334.3240, 8900.285
334.8061, 8662.711
335.2882, 8459.688
335.7704, 8300.995
336.2525, 8135.518
336.7346, 7954.118
337.2167, 7771.832
337.6988, 7615.134
338.1809, 7492.716
338.6631, 7366.082
339.1452, 7218.968
339.6273, 7048.776
340.1094, 6904.995
340.5915, 6793.005
341.0736, 6693.777
341.5558, 6585.796
342.0379, 6465.826
342.5200, 6355.041
343.0021, 6260.796
343.4842, 6180.437
343.9663, 6093.899
344.4485, 6000.780
344.9306, 5907.635
345.4127, 5823.213
345.8948, 5746.979
346.3769, 5672.522
346.8590, 5598.498
347.3412, 5526.271
347.8233, 5456.453
348.3054, 5389.514
348.7875, 5337.444
349.2696, 5328.105
349.7517, 5343.235
350.2339, 5322.942
350.7160, 5245.202
351.1981, 5152.424
351.6802, 5104.757
352.1623, 5094.961
352.6444, 5085.785
353.1266, 5048.083
353.6087, 4998.499
354.0908, 4964.979
354.5729, 4954.058
355.0550, 4945.601
355.5371, 4919.419
356.0193, 4881.598
356.5014, 4846.289
356.9835, 4822.245
357.4656, 4803.242
357.9477, 4785.309
358.4298, 4768.505
358.9120, 4750.306
359.3941, 4724.596
359.8762, 4698.134
360.3583, 4679.152
360.8404, 4684.122
361.3225, 4686.211
361.8047, 4667.852
362.2868, 4629.764
362.7689, 4596.181
363.2510, 4584.408
363.7331, 4576.611
364.2152, 4558.299
364.6974, 4514.396
365.1795, 4472.068
365.6616, 4440.053
366.1437, 4415.547
366.6258, 4384.975
367.1079, 4317.369
367.5901, 4264.373
368.0722, 4253.147
368.5543, 4322.566
369.0364, 4379.984
369.5185, 4444.900
370.0006, 4494.873
370.4828, 4475.076
370.9649, 4317.544
371.4470, 4166.996
371.9291, 4070.760
372.4112, 4043.603
372.8933, 4020.803
373.3755, 4005.768
373.8576, 3992.701
374.3397, 3972.789
374.8218, 3941.488
375.3039, 3914.424
375.7861, 3898.209
376.2682, 3892.443
376.7503, 3873.785
377.2324, 3836.841
377.7145, 3798.891
378.1967, 3779.202
378.6788, 3780.613
379.1609, 3773.512
379.6430, 3748.679
380.1251, 3713.630
380.6072, 3693.083
381.0894, 3688.574
381.5715, 3685.707
382.0536, 3673.800
382.5357, 3654.294
383.0178, 3635.493
383.4999, 3617.994
383.9821, 3602.179
384.4642, 3585.366
384.9463, 3568.827
385.4284, 3561.830
385.9105, 3579.393
386.3926, 3607.018
386.8748, 3616.797
387.3569, 3605.478
387.8390, 3588.612
388.3211, 3579.628
388.8032, 3575.730
389.2853, 3571.687
389.7675, 3560.155
390.2496, 3550.958
390.7317, 3557.618
391.2138, 3578.967
391.6959, 3593.582
392.1780, 3581.062
392.6602, 3559.108
393.1423, 3546.067
393.6244, 3552.896
394.1065, 3562.201
394.5886, 3565.795
395.0707, 3565.852
395.5529, 3570.148
396.0350, 3587.115
396.5171, 3604.586
396.9992, 3615.623
397.4813, 3615.208
397.9634, 3616.349
398.4456, 3616.494
398.9277, 3619.892
399.4098, 3633.895
399.8919, 3681.289
400.3740, 3716.989
400.8561, 3725.029
401.3383, 3698.646
401.8204, 3686.720
402.3025, 3693.932
402.7846, 3711.767
403.2667, 3734.210
403.7488, 3767.652
404.2310, 3790.424
404.7131, 3795.079
405.1952, 3785.687
405.6773, 3786.484
406.1594, 3800.106
406.6415, 3817.029
407.1237, 3829.937
407.6058, 3837.985
408.0879, 3851.945
408.5700, 3873.660
409.0521, 3900.167
409.5342, 3928.402
410.0164, 3958.156
410.4985, 3980.915
410.9806, 3990.005
411.4627, 3988.246
411.9448, 3984.180
412.4269, 3977.265
412.9091, 3973.210
413.3912, 3976.526
413.8733, 3987.446
414.3554, 4007.682
414.8375, 4048.104
415.3196, 4089.837
415.8018, 4107.820
416.2839, 4104.207
416.7660, 4096.362
417.2481, 4090.552
417.7302, 4089.098
418.2123, 4095.809
418.6945, 4115.995
419.1766, 4135.677
419.6587, 4146.663
420.1408, 4151.188
420.6229, 4153.937
421.1050, 4147.412
421.5872, 4147.125
422.0693, 4163.956
422.5514, 4203.663
423.0335, 4237.987
423.5156, 4255.707
423.9977, 4267.276
424.4799, 4284.247
424.9620, 4312.200
425.4441, 4340.313
425.9262, 4365.697
426.4083, 4388.634
426.8904, 4417.052
427.3726, 4454.885
427.8547, 4494.271
428.3368, 4530.425
428.8189, 4562.148
429.3010, 4594.227
429.7831, 4625.167
430.2653, 4657.966
430.7474, 4701.353
431.2295, 4757.979
431.7116, 4814.933
432.1937, 4865.677
432.6758, 4910.769
433.1580, 4960.500
433.6401, 5014.177
434.1222, 5075.296
434.6043, 5152.226
435.0864, 5242.551
435.5685, 5328.702
436.0507, 5405.050
436.5328, 5474.744
437.0149, 5538.309
437.4970, 5596.920
437.9791, 5662.056
438.4612, 5755.597
438.9434, 5856.131
439.4255, 5924.310
439.9076, 5942.976
440.3897, 5965.059
440.8718, 6042.971
441.3539, 6155.138
441.8361, 6259.905
442.3182, 6332.473
442.8003, 6397.748
443.2824, 6470.972
443.7645, 6553.342
444.2466, 6634.278
444.7288, 6716.795
445.2109, 6792.252
445.6930, 6852.245
446.1751, 6885.985
446.6572, 6915.354
447.1393, 6936.867
447.6215, 6954.704
448.1036, 6986.596
448.5857, 7058.287
449.0678, 7117.804
449.5499, 7144.129
450.0320, 7127.250
450.5142, 7109.141
450.9963, 7089.953
451.4784, 7069.533
451.9605, 7047.481
452.4426, 7022.757
452.9247, 6999.963
453.4069, 6982.003
453.8890, 6966.596
454.3711, 6942.913
454.8532, 6911.089
455.3353, 6868.818
455.8174, 6808.983
456.2996, 6734.311
456.7817, 6667.681
457.2638, 6613.848
457.7459, 6563.998
458.2281, 6507.184
458.7102, 6443.935
459.1923, 6374.257
459.6744, 6286.105
460.1565, 6197.585
460.6386, 6142.663
461.1208, 6121.770
461.6029, 6093.954
462.0850, 6019.906
462.5671, 5927.373
463.0492, 5849.655
463.5313, 5804.052
464.0135, 5765.178
464.4956, 5724.308
464.9777, 5681.565
465.4598, 5638.818
465.9419, 5592.475
466.4240, 5549.420
466.9062, 5514.057
467.3883, 5489.793
467.8704, 5463.464
468.3525, 5435.303
468.8346, 5403.517
469.3167, 5364.672
469.7989, 5309.907
470.2810, 5262.826
470.7631, 5228.418
471.2452, 5205.256
471.7273, 5183.559
472.2094, 5166.492
472.6916, 5143.394
473.1737, 5104.419
473.6558, 5048.792
474.1379, 4999.853
474.6200, 4960.031
475.1021, 4924.158
475.5843, 4882.686
476.0664, 4836.610
476.5485, 4794.309
477.0306, 4760.901
477.5127, 4733.140
477.9948, 4704.017
478.4770, 4673.766
478.9591, 4647.548
479.4412, 4633.841
479.9233, 4624.923
480.4054, 4609.182
480.8875, 4580.717
481.3697, 4552.336
481.8518, 4532.270
482.3339, 4518.296
482.8160, 4506.010
483.2981, 4489.137
483.7802, 4477.342
484.2624, 4481.794
484.7445, 4505.303
485.2266, 4511.313
485.7087, 4479.591
486.1908, 4435.849
486.6729, 4399.543
487.1551, 4365.005
487.6372, 4347.088
488.1193, 4356.655
488.6014, 4381.713
489.0835, 4387.790
489.5656, 4363.996
490.0478, 4345.402
490.5299, 4350.825
491.0120, 4381.894
491.4941, 4387.404
491.9762, 4360.836
492.4583, 4329.674
492.9405, 4327.842
493.4226, 4351.866
493.9047, 4364.597
494.3868, 4351.408
494.8689, 4331.918
495.3510, 4348.029
495.8332, 4392.422
496.3153, 4424.836
496.7974, 4404.797
497.2795, 4366.779
497.7616, 4354.307
498.2437, 4372.120
498.7259, 4398.016
499.2080, 4423.188
499.6901, 4446.225
500.1722, 4465.629
500.6543, 4480.118
501.1364, 4491.802
501.6186, 4497.122
502.1007, 4499.211
502.5828, 4510.404
503.0649, 4544.129
503.5470, 4578.101
504.0291, 4602.421
504.5113, 4614.060
504.9934, 4626.949
505.4755, 4635.839
505.9576, 4650.666
506.4397, 4685.918
506.9218, 4751.273
507.4040, 4805.695
507.8861, 4839.621
508.3682, 4858.389
508.8503, 4876.719
509.3324, 4893.604
509.8145, 4918.813
510.2967, 4967.161
510.7788, 5030.218
511.2609, 5069.897
511.7430, 5081.797
512.2252, 5089.569
512.7073, 5118.561
513.1894, 5161.785
513.6715, 5203.804
514.1536, 5233.589
514.6357, 5266.755
515.1179, 5322.037
515.6000, 5393.612
516.0821, 5459.050
516.5642, 5504.035
517.0463, 5543.400
517.5284, 5584.552
518.0106, 5627.388
518.4927, 5676.708
518.9748, 5745.238
519.4569, 5815.162
519.9390, 5866.777
520.4211, 5881.035
520.9033, 5904.388
521.3854, 5943.611
521.8675, 5995.560
522.3496, 6047.553
522.8317, 6100.182
523.3138, 6152.538
523.7960, 6204.641
524.2781, 6257.069
524.7602, 6302.990
525.2423, 6341.273
525.7244, 6379.065
526.2065, 6425.104
526.6887, 6477.767
527.1708, 6532.191
527.6529, 6590.521
528.1350, 6643.713
528.6171, 6675.699
529.0992, 6691.300
529.5814, 6707.621
530.0635, 6733.461
530.5456, 6764.566
531.0277, 6801.026
531.5098, 6843.051
531.9919, 6876.619
532.4741, 6889.021
532.9562, 6893.348
533.4383, 6901.144
533.9204, 6916.346
534.4025, 6933.029
534.8846, 6956.028
535.3668, 6979.885
535.8489, 6990.024
536.3310, 6977.853
536.8131, 6965.540
537.2952, 6960.516
537.7773, 6963.157
538.2595, 6960.974
538.7416, 6951.944
539.2237, 6944.002
539.7058, 6946.307
540.1879, 6958.305
540.6700, 6964.887
541.1522, 6964.271
541.6343, 6957.275
542.1164, 6943.829
542.5985, 6924.542
543.0806, 6902.154
543.5627, 6870.039
544.0449, 6839.903
544.5270, 6826.388
545.0091, 6827.947
545.4912, 6833.945
545.9733, 6844.334
546.4554, 6852.719
546.9376, 6854.633
547.4197, 6850.467
547.9018, 6836.798
548.3839, 6803.125
548.8660, 6762.596
549.3481, 6733.125
549.8303, 6725.689
550.3124, 6717.147
550.7945, 6700.543
551.2766, 6679.450
551.7587, 6674.400
552.2408, 6690.989
552.7230, 6710.512
553.2051, 6721.434
553.6872, 6723.250
554.1693, 6735.760
554.6514, 6760.208
555.1335, 6790.225
555.6157, 6823.196
556.0978, 6856.440
556.5799, 6878.200
557.0620, 6881.788
557.5441, 6878.418
558.0262, 6875.485
558.5084, 6875.819
558.9905, 6887.871
559.4726, 6920.930
559.9547, 6963.383
560.4368, 7010.698
560.9189, 7062.283
561.4011, 7109.214
561.8832, 7141.595
562.3653, 7172.779
562.8474, 7212.466
563.3295, 7264.042
563.8116, 7320.258
564.2938, 7382.550
564.7759, 7448.717
565.2580, 7516.115
565.7401, 7584.467
566.2222, 7655.791
566.7043, 7733.941
567.1865, 7815.709
567.6686, 7881.995
568.1507, 7931.347
568.6328, 7986.458
569.1149, 8065.513
569.5970, 8163.483
570.0792, 8265.580
570.5613, 8371.308
571.0434, 8474.980
571.5255, 8568.451
572.0076, 8657.383
572.4897, 8753.296
572.9719, 8865.422
573.4540, 8977.280
573.9361, 9080.107
574.4182, 9174.867
574.9003, 9264.243
575.3824, 9329.966
575.8646, 9408.071
576.3467, 9522.762
576.8288, 9681.123
577.3109, 9801.690
577.7930, 9863.909
578.2751, 9911.161
578.7573, 9972.428
579.2394, 10050.36
579.7215, 10130.53
580.2036, 10212.88
580.6857, 10297.73
581.1678, 10390.86
581.6500, 10490.56
582.1321, 10578.78
582.6142, 10646.62
583.0963, 10700.78
583.5784, 10752.22
584.0605, 10800.74
584.5427, 10846.20
585.0248, 10886.91
585.5069, 10925.01
585.9890, 10966.51
586.4711, 11013.68
586.9532, 11044.60
587.4354, 11030.26
587.9175, 11006.23
588.3996, 11003.12
588.8817, 11046.94
589.3638, 11084.92
589.8459, 11119.50
590.3281, 11144.83
590.8102, 11147.64
591.2923, 11117.42
591.7744, 11090.48
592.2565, 11079.96
592.7386, 11081.40
593.2208, 11069.83
593.7029, 11044.61
594.1850, 11011.94
594.6671, 10979.62
595.1492, 10943.54
595.6313, 10891.16
596.1135, 10820.43
596.5956, 10741.33
597.0777, 10655.33
597.5598, 10567.92
598.0419, 10488.36
598.5240, 10420.59
599.0062, 10358.79
599.4883, 10309.58
599.9704, 10263.80
600.4525, 10200.28
600.9346, 10102.36
601.4167, 9998.654
601.8989, 9888.514
602.3810, 9774.134
602.8631, 9692.182
603.3452, 9665.159
603.8273, 9630.870
604.3094, 9543.340
604.7916, 9396.463
605.2737, 9266.510
605.7558, 9153.915
606.2379, 9060.544
606.7200, 8998.633
607.2021, 8957.747
607.6843, 8897.454
608.1664, 8798.464
608.6485, 8689.695
609.1306, 8596.188
609.6127, 8517.477
610.0948, 8447.150
610.5770, 8401.732
611.0591, 8348.180
611.5412, 8259.993
612.0233, 8138.493
612.5054, 8033.725
612.9875, 7971.907
613.4697, 7916.747
613.9518, 7850.854
614.4339, 7770.506
614.9160, 7689.782
615.3981, 7606.252
615.8802, 7526.844
616.3624, 7459.693
616.8445, 7405.704
617.3266, 7354.910
617.8087, 7307.441
618.2908, 7258.862
618.7729, 7193.487
619.2551, 7117.391
619.7372, 7057.406
620.2193, 7044.571
620.7014, 7041.766
621.1835, 7007.433
621.6656, 6945.580
622.1478, 6884.609
622.6299, 6840.894
623.1120, 6800.468
623.5941, 6754.375
624.0762, 6698.787
624.5583, 6647.734
625.0405, 6603.427
625.5226, 6563.594
626.0047, 6526.749
626.4868, 6495.170
626.9689, 6458.499
627.4510, 6411.226
627.9332, 6363.765
628.4153, 6341.404
628.8974, 6343.555
629.3795, 6336.834
629.8616, 6304.979
630.3438, 6260.162
630.8259, 6223.129
631.3080, 6192.950
631.7901, 6164.907
632.2722, 6145.151
632.7543, 6120.221
633.2365, 6071.350
633.7186, 5994.989
634.2007, 5934.311
634.6828, 5914.858
635.1649, 5910.586
635.6470, 5902.753
636.1292, 5888.108
