##NAMES=Lasalite
##RRUFFID=R070476
##IDEAL CHEMISTRY=Na_2_Mg_2_(V^5+^_10_O_28_)&#183;20H_2_O
##LOCALITY=Vanadium Queen mine, Paradox Valley, San Juan County, Utah, USA
##OWNER=RRUFF
##SOURCE=Dakota Matrix Minerals
##DESCRIPTION=Orange massive
##STATUS=The identification of this mineral has been confirmed by single-crystal X-ray diffraction.
##URL=rruff.info/R070476
140.2025, 8054.048
140.6847, 8654.676
141.1668, 9312.794
141.6489, 10028.18
142.1310, 10793.56
142.6131, 11596.53
143.0952, 12446.98
143.5774, 13376.91
144.0595, 14211.41
144.5416, 15014.60
145.0237, 15677.14
145.5058, 16147.73
145.9879, 16421.06
146.4701, 16524.54
146.9522, 16482.34
147.4343, 16278.35
147.9164, 15962.41
148.3985, 15482.62
148.8806, 14949.83
149.3628, 14401.27
149.8449, 13854.61
150.3270, 13336.19
150.8091, 12878.29
151.2912, 12480.57
151.7733, 12158.38
152.2555, 11908.77
152.7376, 11720.83
153.2197, 11583.11
153.7018, 11494.59
154.1839, 11465.28
154.6660, 11508.03
155.1481, 11625.65
155.6303, 11829.51
156.1124, 12145.75
156.5945, 12523.64
157.0766, 12922.96
157.5587, 13334.07
158.0408, 13774.52
158.5230, 14270.80
159.0051, 14848.10
159.4872, 15453.11
159.9693, 16077.89
160.4514, 16657.00
160.9335, 17209.31
161.4157, 17776.86
161.8978, 18348.25
162.3799, 18906.23
162.8620, 19451.65
163.3441, 19982.25
163.8262, 20477.23
164.3084, 20970.09
164.7905, 21498.07
165.2726, 22071.14
165.7547, 22671.24
166.2368, 23271.87
166.7189, 23854.90
167.2011, 24481.88
167.6832, 25165.63
168.1653, 25893.88
168.6474, 26657.73
169.1295, 27457.86
169.6116, 28270.79
170.0938, 29060.13
170.5759, 29817.09
171.0580, 30580.80
171.5401, 31404.97
172.0222, 32225.16
172.5043, 32972.53
172.9865, 33634.59
173.4686, 34198.53
173.9507, 34636.30
174.4328, 34984.20
174.9149, 35152.48
175.3970, 35116.58
175.8792, 34891.40
176.3613, 34492.23
176.8434, 33916.64
177.3255, 33187.20
177.8076, 32310.24
178.2897, 31268.81
178.7719, 30177.12
179.2540, 29022.85
179.7361, 27841.05
180.2182, 26693.93
180.7003, 25597.98
181.1824, 24546.56
181.6646, 23544.16
182.1467, 22580.31
182.6288, 21668.83
183.1109, 20804.34
183.5930, 19997.25
184.0751, 19266.75
184.5573, 18626.31
185.0394, 18046.13
185.5215, 17477.71
186.0036, 16907.48
186.4857, 16390.01
186.9678, 15960.61
187.4500, 15588.21
187.9321, 15217.31
188.4142, 14828.86
188.8963, 14450.05
189.3784, 14127.54
189.8605, 13861.61
190.3427, 13595.27
190.8248, 13302.51
191.3069, 12998.65
191.7890, 12705.94
192.2711, 12428.40
192.7532, 12168.89
193.2354, 11932.87
193.7175, 11718.83
194.1996, 11517.21
194.6817, 11317.45
195.1638, 11130.30
195.6459, 10978.36
196.1281, 10871.29
196.6102, 10785.94
197.0923, 10693.09
197.5744, 10593.06
198.0565, 10513.21
198.5386, 10466.48
199.0208, 10443.56
199.5029, 10425.31
199.9850, 10404.10
200.4671, 10402.21
200.9492, 10453.19
201.4313, 10548.55
201.9135, 10659.09
202.3956, 10769.06
202.8777, 10891.33
203.3598, 11048.90
203.8419, 11247.05
204.3240, 11469.28
204.8061, 11708.21
205.2883, 11961.11
205.7704, 12212.72
206.2525, 12429.59
206.7346, 12653.24
207.2167, 12960.91
207.6988, 13371.88
208.1810, 13785.50
208.6631, 14098.86
209.1452, 14331.65
209.6273, 14564.25
210.1094, 14833.93
210.5915, 15101.70
211.0737, 15333.02
211.5558, 15527.70
212.0379, 15657.34
212.5200, 15683.00
213.0021, 15618.17
213.4842, 15515.30
213.9664, 15373.10
214.4485, 15201.73
214.9306, 15004.89
215.4127, 14782.64
215.8948, 14551.68
216.3769, 14322.40
216.8591, 14092.99
217.3412, 13854.02
217.8233, 13612.28
218.3054, 13356.34
218.7875, 13074.54
219.2696, 12766.25
219.7518, 12443.77
220.2339, 12103.07
220.7160, 11755.94
221.1981, 11434.81
221.6802, 11133.57
222.1623, 10862.55
222.6445, 10628.24
223.1266, 10430.13
223.6087, 10271.11
224.0908, 10159.56
224.5729, 10088.71
225.0550, 10025.96
225.5372, 9958.237
226.0193, 9914.215
226.5014, 9916.462
226.9835, 9958.332
227.4656, 10012.21
227.9477, 10067.29
228.4298, 10126.11
228.9120, 10192.28
229.3941, 10261.88
229.8762, 10344.56
230.3583, 10453.56
230.8404, 10579.58
231.3225, 10692.18
231.8047, 10769.91
232.2868, 10845.89
232.7689, 10995.25
233.2510, 11237.71
233.7331, 11477.70
234.2152, 11681.70
234.6974, 11864.87
235.1795, 12050.24
235.6616, 12245.08
236.1437, 12446.13
236.6258, 12651.18
237.1079, 12868.30
237.5901, 13062.28
238.0722, 13205.60
238.5543, 13329.78
239.0364, 13480.67
239.5185, 13670.77
240.0006, 13866.85
240.4828, 14028.06
240.9649, 14147.48
241.4470, 14262.08
241.9291, 14364.08
242.4112, 14468.78
242.8933, 14596.99
243.3755, 14750.85
243.8576, 14900.37
244.3397, 15013.39
244.8218, 15080.79
245.3039, 15170.53
245.7860, 15306.86
246.2682, 15446.49
246.7503, 15563.04
247.2324, 15654.91
247.7145, 15728.52
248.1966, 15786.70
248.6787, 15829.21
249.1609, 15869.87
249.6430, 15940.45
250.1251, 15979.83
250.6072, 15966.97
251.0893, 15900.73
251.5714, 15780.96
252.0535, 15605.76
252.5357, 15377.85
253.0178, 15124.05
253.4999, 14816.64
253.9820, 14518.02
254.4641, 14249.16
254.9462, 13999.76
255.4284, 13747.57
255.9105, 13479.90
256.3926, 13210.48
256.8747, 12982.72
257.3568, 12831.47
257.8390, 12683.85
258.3211, 12529.30
258.8032, 12377.90
259.2853, 12242.83
259.7674, 12128.54
260.2495, 12026.42
260.7317, 11921.02
261.2138, 11810.93
261.6959, 11698.74
262.1780, 11586.64
262.6601, 11471.78
263.1422, 11352.45
263.6244, 11228.64
264.1065, 11101.01
264.5886, 10968.62
265.0707, 10825.49
265.5528, 10697.86
266.0349, 10598.76
266.5170, 10502.03
266.9991, 10396.41
267.4813, 10280.49
267.9634, 10155.72
268.4455, 10019.79
268.9276, 9870.669
269.4097, 9740.736
269.8918, 9647.762
270.3740, 9557.683
270.8561, 9462.463
271.3382, 9361.892
271.8203, 9258.476
272.3024, 9153.266
272.7845, 9046.112
273.2667, 8936.754
273.7488, 8828.341
274.2309, 8712.750
274.7130, 8583.706
275.1951, 8448.845
275.6772, 8319.179
276.1594, 8201.529
276.6415, 8087.517
277.1236, 7958.213
277.6057, 7806.574
278.0878, 7658.079
278.5699, 7514.723
279.0521, 7380.468
279.5342, 7262.547
280.0163, 7163.676
280.4984, 7069.649
280.9805, 6959.875
281.4626, 6832.167
281.9448, 6719.701
282.4269, 6638.241
282.9090, 6568.252
283.3911, 6493.862
283.8732, 6414.373
284.3553, 6337.986
284.8375, 6269.139
285.3196, 6207.852
285.8017, 6155.188
286.2838, 6118.421
286.7659, 6078.077
287.2480, 6006.286
287.7302, 5913.239
288.2123, 5843.136
288.6944, 5830.354
289.1765, 5845.676
289.6586, 5836.420
290.1407, 5795.240
290.6229, 5757.714
291.1050, 5754.020
291.5871, 5773.819
292.0692, 5787.149
292.5513, 5789.599
293.0334, 5784.365
293.5156, 5763.172
293.9977, 5730.448
294.4798, 5719.453
294.9619, 5749.644
295.4440, 5812.988
295.9261, 5884.378
296.4083, 5978.814
296.8904, 6056.897
297.3725, 6086.010
297.8546, 6088.758
298.3367, 6110.134
298.8188, 6166.076
299.3010, 6243.728
299.7831, 6319.858
300.2652, 6390.748
300.7473, 6469.699
301.2294, 6564.811
301.7115, 6664.701
302.1937, 6752.660
302.6758, 6827.568
303.1579, 6911.131
303.6400, 7029.317
304.1221, 7190.162
304.6042, 7342.272
305.0864, 7481.059
305.5685, 7616.163
306.0506, 7742.695
306.5327, 7868.195
307.0148, 8013.717
307.4969, 8198.085
307.9791, 8416.026
308.4612, 8619.113
308.9433, 8796.082
309.4254, 8968.870
309.9075, 9139.252
310.3896, 9307.749
310.8718, 9478.948
311.3539, 9654.639
311.8360, 9826.235
312.3181, 9973.396
312.8002, 10081.90
313.2823, 10194.30
313.7644, 10327.97
314.2466, 10458.20
314.7287, 10566.75
315.2108, 10650.89
315.6929, 10719.43
316.1750, 10778.33
316.6571, 10826.03
317.1393, 10881.34
317.6214, 10969.38
318.1035, 11039.58
318.5856, 11059.92
319.0677, 11039.58
319.5498, 11011.19
320.0320, 10992.08
320.5141, 10980.48
320.9962, 10975.81
321.4783, 10987.83
321.9604, 10981.87
322.4425, 10935.79
322.9247, 10861.15
323.4068, 10770.06
323.8889, 10663.47
324.3710, 10544.33
324.8531, 10413.09
325.3352, 10270.14
325.8174, 10125.29
326.2995, 9988.444
326.7816, 9844.346
327.2637, 9667.312
327.7458, 9449.673
328.2279, 9230.606
328.7101, 9028.379
329.1922, 8836.126
329.6743, 8637.681
330.1564, 8429.106
330.6385, 8216.466
331.1206, 8007.788
331.6028, 7801.564
332.0849, 7598.372
332.5670, 7393.088
333.0491, 7194.122
333.5312, 7004.845
334.0133, 6826.866
334.4955, 6661.501
334.9776, 6510.449
335.4597, 6373.338
335.9418, 6242.346
336.4239, 6126.606
336.9060, 6004.668
337.3882, 5863.707
337.8703, 5715.322
338.3524, 5577.250
338.8345, 5457.208
339.3166, 5347.265
339.7987, 5231.577
340.2809, 5097.733
340.7630, 4980.458
341.2451, 4888.213
341.7272, 4804.427
342.2093, 4717.381
342.6914, 4626.415
343.1736, 4540.549
343.6557, 4472.995
344.1378, 4425.267
344.6199, 4363.265
345.1020, 4269.145
345.5841, 4180.528
346.0663, 4111.721
346.5484, 4058.245
347.0305, 4011.584
347.5126, 3969.044
347.9947, 3929.121
348.4768, 3888.432
348.9590, 3846.176
349.4411, 3805.994
349.9232, 3771.003
350.4053, 3737.814
350.8874, 3701.175
351.3695, 3658.446
351.8517, 3621.941
352.3338, 3607.549
352.8159, 3608.564
353.2980, 3595.049
353.7801, 3555.723
354.2622, 3510.934
354.7444, 3486.207
355.2265, 3479.159
355.7086, 3469.244
356.1907, 3443.749
356.6728, 3418.306
357.1549, 3414.368
357.6371, 3430.421
358.1192, 3440.441
358.6013, 3425.402
359.0834, 3388.696
359.5655, 3356.554
360.0476, 3326.462
360.5298, 3302.976
361.0119, 3289.543
361.4940, 3283.093
361.9761, 3280.935
362.4582, 3282.011
362.9403, 3282.290
363.4224, 3273.823
363.9045, 3248.106
364.3867, 3231.037
364.8688, 3231.031
365.3509, 3231.722
365.8330, 3222.661
366.3151, 3204.255
366.7972, 3183.468
367.2794, 3166.637
367.7615, 3153.165
368.2436, 3135.274
368.7257, 3111.399
369.2078, 3084.611
369.6899, 3050.006
370.1721, 3015.283
370.6542, 2991.999
371.1363, 2986.506
371.6184, 2985.998
372.1005, 2971.338
372.5826, 2941.352
373.0648, 2911.796
373.5469, 2884.774
374.0290, 2861.178
374.5111, 2841.995
374.9932, 2827.165
375.4753, 2813.579
375.9575, 2802.105
376.4396, 2790.095
376.9217, 2769.542
377.4038, 2738.360
377.8859, 2711.917
378.3680, 2705.109
378.8502, 2714.469
379.3323, 2713.731
379.8144, 2694.354
380.2965, 2672.871
380.7786, 2657.314
381.2607, 2646.033
381.7429, 2635.715
382.2250, 2625.239
382.7071, 2613.691
383.1892, 2598.809
383.6713, 2572.603
384.1534, 2557.856
384.6356, 2567.235
385.1177, 2578.625
385.5998, 2572.991
386.0819, 2551.580
386.5640, 2530.786
387.0461, 2525.946
387.5283, 2536.313
388.0104, 2539.544
388.4925, 2528.846
388.9746, 2519.071
389.4567, 2511.560
389.9388, 2507.663
390.4210, 2510.459
390.9031, 2521.760
391.3852, 2534.485
391.8673, 2535.383
392.3494, 2522.281
392.8315, 2520.682
393.3137, 2548.702
393.7958, 2576.416
394.2779, 2576.132
394.7600, 2551.061
395.2421, 2530.528
395.7242, 2533.926
396.2064, 2548.966
396.6885, 2554.824
397.1706, 2550.038
397.6527, 2544.555
398.1348, 2544.530
398.6169, 2548.769
399.0991, 2551.914
399.5812, 2554.011
400.0633, 2555.080
400.5454, 2553.789
401.0275, 2551.799
401.5096, 2551.158
401.9918, 2552.490
402.4739, 2557.015
402.9560, 2566.933
403.4381, 2584.358
403.9202, 2600.194
404.4023, 2609.500
404.8845, 2621.991
405.3666, 2650.962
405.8487, 2687.429
406.3308, 2707.995
406.8129, 2695.603
407.2950, 2661.860
407.7772, 2648.167
408.2593, 2664.620
408.7414, 2681.338
409.2235, 2693.551
409.7056, 2702.887
410.1877, 2709.350
410.6699, 2713.233
411.1520, 2718.256
411.6341, 2726.990
412.1162, 2739.477
412.5983, 2757.255
413.0804, 2783.491
413.5625, 2808.081
414.0446, 2822.144
414.5268, 2828.933
415.0089, 2835.006
415.4910, 2845.745
415.9731, 2852.184
416.4552, 2843.257
416.9373, 2823.742
417.4195, 2809.104
417.9016, 2804.911
418.3837, 2809.128
418.8658, 2819.766
419.3479, 2843.426
419.8300, 2856.578
420.3122, 2849.996
420.7943, 2839.285
421.2764, 2833.123
421.7585, 2833.079
422.2406, 2838.832
422.7227, 2850.150
423.2049, 2867.072
423.6870, 2890.667
424.1691, 2932.323
424.6512, 2963.552
425.1333, 2974.213
425.6154, 2976.625
426.0976, 2979.327
426.5797, 2985.042
427.0618, 2998.075
427.5439, 3029.588
428.0260, 3077.390
428.5081, 3106.171
428.9903, 3103.625
429.4724, 3098.713
429.9545, 3110.574
430.4366, 3134.628
430.9187, 3161.555
431.4008, 3191.158
431.8830, 3220.605
432.3651, 3248.098
432.8472, 3273.542
433.3293, 3294.176
433.8114, 3306.625
434.2935, 3320.663
434.7757, 3354.982
435.2578, 3420.138
435.7399, 3473.072
436.2220, 3504.644
436.7041, 3528.792
437.1862, 3553.339
437.6684, 3579.404
438.1505, 3606.532
438.6326, 3634.242
439.1147, 3662.706
439.5968, 3693.462
440.0789, 3727.755
440.5611, 3762.238
441.0432, 3800.040
441.5253, 3835.489
442.0074, 3859.821
442.4895, 3873.222
442.9716, 3890.876
443.4538, 3928.384
443.9359, 3982.964
444.4180, 4040.217
444.9001, 4103.847
445.3822, 4159.817
445.8643, 4197.409
446.3465, 4221.704
446.8286, 4239.850
447.3107, 4248.561
447.7928, 4257.908
448.2749, 4274.047
448.7570, 4295.778
449.2392, 4322.348
449.7213, 4354.652
450.2034, 4384.346
450.6855, 4401.823
451.1676, 4405.675
451.6497, 4400.911
452.1319, 4384.230
452.6140, 4363.043
453.0961, 4338.657
453.5782, 4312.789
454.0603, 4288.713
454.5424, 4268.302
455.0246, 4248.241
455.5067, 4220.694
455.9888, 4182.421
456.4709, 4145.818
456.9530, 4112.512
457.4352, 4080.813
457.9173, 4054.973
458.3994, 4031.568
458.8815, 3997.070
459.3636, 3932.154
459.8457, 3856.513
460.3279, 3809.176
460.8100, 3792.044
461.2921, 3776.007
461.7742, 3749.095
462.2563, 3715.396
462.7384, 3682.811
463.2205, 3652.916
463.7026, 3619.800
464.1848, 3577.875
464.6669, 3534.460
465.1490, 3495.548
465.6311, 3462.499
466.1132, 3436.193
466.5953, 3418.551
467.0775, 3408.069
467.5596, 3390.580
468.0417, 3362.669
468.5238, 3331.355
469.0059, 3291.518
469.4880, 3252.207
469.9702, 3223.380
470.4523, 3206.090
470.9344, 3191.208
471.4165, 3167.114
471.8986, 3135.395
472.3807, 3114.377
472.8629, 3110.808
473.3450, 3104.237
473.8271, 3076.989
474.3092, 3040.497
474.7913, 3012.459
475.2734, 2997.976
475.7556, 2987.446
476.2377, 2977.185
476.7198, 2966.097
477.2019, 2951.886
477.6840, 2934.002
478.1661, 2912.719
478.6483, 2886.406
479.1304, 2853.695
479.6125, 2833.622
480.0946, 2838.296
480.5767, 2840.199
481.0588, 2827.375
481.5410, 2807.082
482.0231, 2790.623
482.5052, 2781.950
482.9873, 2775.307
483.4694, 2760.057
483.9515, 2733.807
484.4337, 2718.669
484.9158, 2724.816
485.3979, 2730.727
485.8800, 2724.330
486.3621, 2709.643
486.8442, 2695.103
487.3264, 2682.569
487.8085, 2672.575
488.2906, 2667.328
488.7727, 2665.449
489.2548, 2660.562
489.7369, 2650.176
490.2191, 2638.986
490.7012, 2632.746
491.1833, 2632.489
491.6654, 2632.273
492.1475, 2631.537
492.6296, 2631.417
493.1118, 2632.538
493.5939, 2634.675
494.0760, 2636.574
494.5581, 2637.654
495.0402, 2640.609
495.5223, 2653.760
496.0045, 2684.025
496.4866, 2695.585
496.9687, 2668.857
497.4508, 2640.195
497.9329, 2626.670
498.4150, 2625.213
498.8972, 2627.025
499.3793, 2629.106
499.8614, 2632.139
500.3435, 2639.058
500.8256, 2648.529
501.3077, 2651.698
501.7899, 2644.431
502.2720, 2633.924
502.7541, 2628.815
503.2362, 2629.796
503.7183, 2633.260
504.2004, 2641.832
504.6826, 2650.225
505.1647, 2659.299
505.6468, 2665.474
506.1289, 2660.347
506.6110, 2640.159
507.0931, 2614.061
507.5753, 2597.803
508.0574, 2592.356
508.5395, 2593.388
509.0216, 2606.195
509.5037, 2619.949
509.9858, 2632.360
510.4680, 2641.496
510.9501, 2642.330
511.4322, 2627.534
511.9143, 2612.167
512.3964, 2616.169
512.8785, 2635.081
513.3607, 2647.654
513.8428, 2647.745
514.3249, 2641.140
514.8070, 2633.993
515.2891, 2626.389
515.7712, 2616.847
516.2534, 2599.091
516.7355, 2585.991
517.2176, 2584.208
517.6997, 2590.708
518.1818, 2601.304
518.6639, 2614.214
519.1461, 2627.427
519.6282, 2638.437
520.1103, 2647.215
520.5924, 2653.401
521.0745, 2655.828
521.5566, 2657.054
522.0388, 2656.615
522.5209, 2656.286
523.0030, 2659.575
523.4851, 2668.303
523.9672, 2678.961
524.4493, 2688.203
524.9315, 2697.298
525.4136, 2710.050
525.8957, 2727.448
526.3778, 2746.559
526.8599, 2765.278
527.3420, 2783.766
527.8242, 2798.411
528.3063, 2802.669
528.7884, 2811.620
529.2705, 2836.787
529.7526, 2864.829
530.2347, 2878.167
530.7169, 2873.832
531.1990, 2865.763
531.6811, 2867.713
532.1632, 2879.186
532.6453, 2896.005
533.1274, 2921.289
533.6096, 2943.807
534.0917, 2944.391
534.5738, 2944.766
535.0559, 2982.317
535.5380, 3074.656
536.0201, 3153.372
536.5022, 3186.712
536.9843, 3188.977
537.4664, 3169.205
537.9485, 3132.834
538.4307, 3101.139
538.9128, 3088.827
539.3949, 3093.956
539.8770, 3108.377
540.3591, 3144.463
540.8412, 3170.687
541.3234, 3178.194
541.8055, 3181.246
542.2876, 3188.490
542.7697, 3200.954
543.2518, 3217.072
543.7339, 3237.888
544.2161, 3260.126
544.6982, 3278.155
545.1803, 3291.978
545.6624, 3298.513
546.1445, 3291.528
546.6266, 3283.972
547.1088, 3298.022
547.5909, 3336.854
548.0730, 3365.954
548.5551, 3369.023
549.0372, 3372.856
549.5193, 3402.424
550.0015, 3444.491
550.4836, 3465.245
550.9657, 3450.232
551.4478, 3424.855
551.9299, 3436.111
552.4120, 3494.594
552.8942, 3529.794
553.3763, 3524.437
553.8584, 3514.497
554.3405, 3514.246
554.8226, 3522.599
555.3047, 3538.824
555.7869, 3566.116
556.2690, 3593.049
556.7511, 3607.399
557.2332, 3616.222
557.7153, 3635.358
558.1974, 3667.570
558.6796, 3703.575
559.1617, 3737.643
559.6438, 3768.692
560.1259, 3785.757
560.6080, 3772.270
561.0901, 3765.659
561.5723, 3767.560
562.0544, 3779.253
562.5365, 3803.809
563.0186, 3840.060
563.5007, 3881.839
563.9828, 3929.512
564.4650, 3976.809
564.9471, 4002.150
565.4292, 4002.823
565.9113, 4017.711
566.3934, 4066.507
566.8755, 4129.717
567.3577, 4178.620
567.8398, 4212.453
568.3219, 4244.202
568.8040, 4270.568
569.2861, 4299.796
569.7682, 4336.938
570.2504, 4380.793
570.7325, 4428.929
571.2146, 4480.248
571.6967, 4535.307
572.1788, 4597.612
572.6609, 4669.274
573.1431, 4731.517
573.6252, 4777.455
574.1073, 4824.368
574.5894, 4882.661
575.0715, 4947.234
575.5536, 5009.943
576.0358, 5069.914
576.5179, 5126.815
577.0000, 5175.752
577.4821, 5223.243
577.9642, 5279.350
578.4464, 5344.965
578.9285, 5417.613
579.4106, 5497.445
579.8927, 5579.852
580.3748, 5643.520
580.8569, 5677.662
581.3391, 5710.835
581.8212, 5741.813
582.3033, 5775.481
582.7854, 5814.433
583.2675, 5858.701
583.7496, 5907.808
584.2318, 5962.284
584.7139, 6019.861
585.1960, 6083.000
585.6781, 6148.137
586.1602, 6195.126
586.6423, 6216.588
587.1245, 6224.809
587.6066, 6231.159
588.0887, 6235.351
588.5708, 6242.786
589.0529, 6257.407
589.5350, 6270.190
590.0172, 6278.183
590.4993, 6283.307
590.9814, 6290.221
591.4635, 6298.604
591.9456, 6299.780
592.4277, 6283.876
592.9099, 6254.463
593.3920, 6224.450
593.8741, 6193.671
594.3562, 6163.948
594.8383, 6140.376
595.3204, 6114.135
595.8026, 6066.054
596.2847, 5990.839
596.7668, 5931.423
597.2489, 5904.931
597.7310, 5885.525
598.2131, 5861.012
598.6953, 5830.133
599.1774, 5793.472
599.6595, 5751.096
600.1416, 5702.968
600.6237, 5645.585
601.1058, 5578.202
601.5880, 5525.200
602.0701, 5502.124
602.5522, 5464.169
603.0343, 5371.325
603.5164, 5255.000
603.9985, 5160.518
604.4807, 5093.673
604.9628, 5044.052
605.4449, 5029.328
605.9270, 5015.394
606.4091, 4960.974
606.8912, 4871.336
607.3734, 4777.634
607.8555, 4697.120
608.3376, 4628.543
608.8197, 4569.687
609.3018, 4522.415
609.7839, 4478.011
610.2661, 4438.103
610.7482, 4398.674
611.2303, 4361.729
611.7124, 4323.018
612.1945, 4272.672
612.6766, 4203.452
613.1588, 4133.769
613.6409, 4061.132
614.1230, 4001.145
614.6051, 3999.353
615.0872, 4051.800
615.5693, 4078.356
616.0515, 4018.020
616.5336, 3893.167
617.0157, 3786.088
617.4978, 3695.409
617.9799, 3626.253
618.4620, 3591.622
618.9442, 3567.160
619.4263, 3545.776
619.9084, 3523.865
620.3905, 3493.087
620.8726, 3445.677
621.3547, 3396.189
621.8369, 3358.240
622.3190, 3328.314
622.8011, 3298.978
623.2832, 3268.673
623.7653, 3236.582
624.2474, 3201.380
624.7296, 3163.808
625.2117, 3128.740
625.6938, 3094.859
626.1759, 3066.270
626.6580, 3051.510
627.1401, 3034.872
627.6223, 3002.489
628.1044, 2957.413
628.5865, 2915.196
629.0686, 2883.877
629.5507, 2857.239
630.0328, 2827.365
630.5150, 2796.098
630.9971, 2771.065
631.4792, 2754.299
631.9613, 2738.486
632.4434, 2716.131
632.9255, 2687.882
633.4077, 2664.323
633.8898, 2647.894
634.3719, 2632.998
634.8539, 2620.480
635.3361, 2608.081
635.8182, 2594.769
636.3003, 2580.081
636.7824, 2562.882
637.2645, 2541.025
637.7466, 2518.048
