##NAMES=Laueite
##RRUFFID=R060013
##IDEAL CHEMISTRY=Mn^2+^Fe^3+^_2_(PO_4_)_2_(OH)_2_&#183;8H_2_O
##LOCALITY=Hagendorf, Germany
##OWNER=RRUFF
##SOURCE=University of Arizona Mineral Museum
##DESCRIPTION=Orange prismatic crystals associated with what appears to be accicular ferristrunzite
##STATUS=The identification of this mineral is confirmed by single-crystal X-ray diffraction and chemical analysis.
##URL=rruff.info/R060013
##MEASURED CHEMISTRY=(Mn^2+^_0.54_Fe^2+^_0.35_Mg_0.11_)_Σ=1_Fe^3+^_2.00_(P_1.00_O_4_)_2_(OH)_2_·8H_2_O
112.6909, 90.97337
113.1730, 91.20924
113.6551, 91.88864
114.1373, 93.91342
114.6194, 95.92744
115.1015, 96.85287
115.5836, 94.99874
116.0657, 93.30293
116.5478, 92.86697
117.0300, 93.82511
117.5121, 94.85583
117.9942, 95.62374
118.4763, 96.15993
118.9584, 96.50330
119.4405, 96.00790
119.9227, 95.77597
120.4048, 96.71240
120.8869, 99.19596
121.3690, 101.5977
121.8511, 102.5926
122.3332, 102.7617
122.8154, 103.3281
123.2975, 105.7158
123.7796, 108.4673
124.2617, 109.8982
124.7438, 109.1493
125.2259, 108.2458
125.7081, 109.1433
126.1902, 111.5326
126.6723, 113.8186
127.1544, 115.7750
127.6365, 117.6649
128.1186, 119.2367
128.6008, 120.4221
129.0829, 121.2837
129.5650, 122.0159
130.0471, 122.6056
130.5292, 122.6770
131.0113, 121.8106
131.4935, 120.1384
131.9756, 118.1434
132.4577, 115.8226
132.9398, 113.3241
133.4219, 111.1573
133.9040, 109.3265
134.3862, 107.6425
134.8683, 105.8270
135.3504, 103.8755
135.8325, 102.3052
136.3146, 101.3691
136.7967, 101.0062
137.2789, 100.5837
137.7610, 100.0694
138.2431, 99.55987
138.7252, 99.16984
139.2073, 98.89991
139.6894, 98.73257
140.1716, 98.66685
140.6537, 98.70859
141.1358, 98.80843
141.6179, 98.97256
142.1000, 99.19022
142.5821, 99.43309
143.0643, 99.68880
143.5464, 99.99972
144.0285, 100.3107
144.5106, 100.3577
144.9927, 101.1548
145.4748, 103.1858
145.9570, 105.8729
146.4391, 107.3912
146.9212, 106.9486
147.4033, 106.3229
147.8854, 106.3484
148.3675, 107.5484
148.8497, 108.5770
149.3318, 109.3536
149.8139, 109.9095
150.2960, 110.3868
150.7781, 110.3185
151.2602, 110.5055
151.7424, 111.3787
152.2245, 114.0416
152.7066, 116.1242
153.1887, 117.1287
153.6708, 117.1588
154.1529, 117.6322
154.6351, 119.2018
155.1172, 120.9173
155.5993, 122.1419
156.0814, 122.3504
156.5635, 122.5462
157.0456, 122.7450
157.5278, 122.9534
158.0099, 123.7392
158.4920, 125.7736
158.9741, 128.1921
159.4562, 130.2333
159.9383, 131.6367
160.4205, 132.7187
160.9026, 133.6154
161.3847, 134.3462
161.8668, 134.7146
162.3489, 134.2429
162.8310, 133.4952
163.3132, 133.1282
163.7953, 133.7499
164.2774, 134.5060
164.7595, 135.0020
165.2416, 135.2005
165.7237, 135.1752
166.2059, 134.7566
166.6880, 134.1668
167.1701, 133.7444
167.6522, 133.8979
168.1343, 134.1007
168.6164, 133.8024
169.0985, 132.7554
169.5807, 132.0882
170.0628, 132.8679
170.5449, 134.5630
171.0270, 136.1324
171.5091, 137.0596
171.9912, 137.6195
172.4734, 138.0715
172.9555, 138.4628
173.4376, 138.7181
173.9197, 138.7298
174.4018, 138.5489
174.8839, 138.3086
175.3661, 138.1114
175.8482, 137.8926
176.3303, 137.5526
176.8124, 137.0411
177.2945, 136.4835
177.7766, 135.9508
178.2588, 135.4596
178.7409, 135.1063
179.2230, 134.8513
179.7051, 134.7825
180.1872, 135.1017
180.6693, 135.9276
181.1515, 136.9975
181.6336, 138.0163
182.1157, 138.9794
182.5978, 139.8488
183.0799, 140.5395
183.5620, 141.1199
184.0442, 141.7716
184.5263, 142.5643
185.0084, 143.4059
185.4905, 144.2215
185.9726, 145.0017
186.4547, 145.6078
186.9369, 145.9586
187.4190, 146.0564
187.9011, 145.8464
188.3832, 145.1780
188.8653, 144.3264
189.3474, 144.0446
189.8296, 144.3573
190.3117, 144.5310
190.7938, 143.6607
191.2759, 141.9247
191.7580, 140.7639
192.2401, 140.6521
192.7223, 141.2321
193.2044, 141.4673
193.6865, 141.3329
194.1686, 141.0606
194.6507, 140.8404
195.1328, 140.6685
195.6150, 140.4893
196.0971, 140.2573
196.5792, 140.0134
197.0613, 139.8691
197.5434, 139.7905
198.0255, 139.9600
198.5077, 140.7207
198.9898, 142.1089
199.4719, 143.2072
199.9540, 143.7042
200.4361, 143.7269
200.9182, 144.0195
201.4004, 144.6574
201.8825, 145.3347
202.3646, 145.7967
202.8467, 146.0504
203.3288, 146.0249
203.8109, 145.7346
204.2931, 145.1638
204.7752, 144.0672
205.2573, 142.2909
205.7394, 140.3600
206.2215, 138.8560
206.7036, 137.8860
207.1858, 136.8542
207.6679, 135.6400
208.1500, 134.2449
208.6321, 132.6137
209.1142, 130.5868
209.5963, 128.6214
210.0785, 127.2410
210.5606, 126.5726
211.0427, 126.0550
211.5248, 125.5805
212.0069, 125.1486
212.4890, 124.7063
212.9712, 124.2208
213.4533, 123.7755
213.9354, 123.5093
214.4175, 123.5196
214.8996, 123.3865
215.3817, 122.8738
215.8639, 121.9826
216.3460, 121.7132
216.8281, 122.2510
217.3102, 123.1647
217.7923, 124.0393
218.2744, 124.9933
218.7565, 125.5942
219.2387, 125.5545
219.7208, 124.8448
220.2029, 124.8043
220.6850, 125.7068
221.1671, 126.9530
221.6492, 127.8706
222.1314, 128.3498
222.6135, 128.7717
223.0956, 129.2158
223.5777, 129.6922
224.0598, 130.0746
224.5419, 130.2792
225.0241, 130.4866
225.5062, 130.9285
225.9883, 131.7681
226.4704, 132.4899
226.9525, 132.9542
227.4346, 133.1576
227.9168, 133.3246
228.3989, 133.4157
228.8810, 133.5123
229.3631, 133.7074
229.8452, 134.0693
230.3273, 134.3958
230.8095, 134.6116
231.2916, 134.7078
231.7737, 134.9880
232.2558, 135.6469
232.7379, 136.2893
233.2200, 136.4426
233.7022, 135.7000
234.1843, 135.2651
234.6664, 135.3876
235.1485, 136.0692
235.6306, 137.0042
236.1127, 138.3249
236.5949, 139.7758
237.0770, 141.0896
237.5591, 142.0514
238.0412, 143.2985
238.5233, 145.0598
239.0054, 147.3425
239.4876, 149.2519
239.9697, 150.4833
240.4518, 151.6894
240.9339, 153.4662
241.4160, 156.0545
241.8981, 158.7214
242.3803, 161.2601
242.8624, 163.6984
243.3445, 166.6361
243.8266, 170.5513
244.3087, 174.4525
244.7908, 177.4273
245.2730, 178.8079
245.7551, 180.6234
246.2372, 183.3888
246.7193, 186.9933
247.2014, 189.8869
247.6835, 191.6282
248.1657, 193.1553
248.6478, 195.1593
249.1299, 197.8710
249.6120, 200.5834
250.0941, 203.2347
250.5762, 205.8229
251.0584, 208.4102
251.5405, 211.2855
252.0226, 213.7475
252.5047, 215.0852
252.9868, 214.4400
253.4689, 214.7072
253.9511, 216.2218
254.4332, 218.9063
254.9153, 222.4077
255.3974, 227.3445
255.8795, 232.1464
256.3616, 235.6543
256.8438, 237.2548
257.3259, 239.2884
257.8080, 242.2528
258.2901, 245.7502
258.7722, 248.3573
259.2543, 250.0407
259.7365, 250.8868
260.2186, 250.9847
260.7007, 250.3883
261.1828, 248.8774
261.6649, 246.4305
262.1470, 243.0615
262.6292, 238.5815
263.1113, 232.6155
263.5934, 226.3397
264.0755, 220.3149
264.5576, 214.4873
265.0397, 208.9103
265.5219, 203.5153
266.0040, 198.3859
266.4861, 193.6104
266.9682, 189.3333
267.4503, 185.1422
267.9324, 180.8995
268.4146, 176.4539
268.8967, 172.3553
269.3788, 168.5632
269.8609, 165.1618
270.3430, 162.4482
270.8251, 160.5531
271.3073, 158.9229
271.7894, 157.3972
272.2715, 155.9759
272.7536, 154.6784
273.2357, 153.6257
273.7178, 152.5338
274.2000, 150.8379
274.6821, 148.3786
275.1642, 146.0527
275.6463, 144.1677
276.1284, 142.7233
276.6105, 141.5337
277.0927, 140.7203
277.5748, 139.8978
278.0569, 138.4501
278.5390, 136.2824
279.0211, 134.3360
279.5032, 132.9880
279.9854, 132.1737
280.4675, 131.1226
280.9496, 129.7390
281.4317, 128.4431
281.9138, 127.8586
282.3959, 128.0249
282.8781, 127.8332
283.3602, 126.8447
283.8423, 125.2963
284.3244, 124.2596
284.8065, 123.7798
285.2886, 123.4820
285.7708, 123.0183
286.2529, 122.4014
286.7350, 121.8955
287.2171, 121.5811
287.6992, 121.3920
288.1813, 121.0985
288.6635, 120.6847
289.1456, 120.4073
289.6277, 120.4793
290.1098, 120.8750
290.5919, 121.4493
291.0740, 122.2466
291.5562, 123.1156
292.0383, 123.7528
292.5204, 124.1695
293.0025, 124.4897
293.4846, 124.7716
293.9667, 125.0236
294.4489, 125.2299
294.9310, 125.3317
295.4131, 125.5350
295.8952, 126.3407
296.3773, 127.6332
296.8594, 128.6835
297.3416, 128.9407
297.8237, 128.6837
298.3058, 128.4764
298.7879, 128.3275
299.2700, 128.3837
299.7521, 129.0154
300.2343, 130.0446
300.7164, 130.8707
301.1985, 131.2508
301.6806, 131.2422
302.1627, 130.8606
302.6448, 130.0862
303.1270, 129.1766
303.6091, 128.1074
304.0912, 127.0809
304.5733, 126.4682
305.0554, 126.8934
305.5375, 127.5607
306.0197, 127.4560
306.5018, 126.6239
306.9839, 125.8409
307.4660, 125.8723
307.9481, 126.2747
308.4302, 126.4115
308.9124, 125.8895
309.3945, 125.2243
309.8766, 124.7785
310.3587, 124.5381
310.8408, 124.4512
311.3229, 124.5984
311.8051, 124.8350
312.2872, 125.0057
312.7693, 125.0339
313.2514, 125.0609
313.7335, 125.1913
314.2156, 125.3912
314.6978, 125.5629
315.1799, 125.5819
315.6620, 125.6050
316.1441, 125.7257
316.6262, 125.9351
317.1083, 126.3061
317.5905, 126.9585
318.0726, 127.7793
318.5547, 128.5833
319.0368, 129.3619
319.5189, 130.0571
320.0010, 130.6305
320.4832, 131.0761
320.9653, 131.4348
321.4474, 131.5027
321.9295, 131.5618
322.4116, 131.9424
322.8937, 133.0372
323.3759, 134.1558
323.8580, 135.0302
324.3401, 135.6234
324.8222, 136.4572
325.3043, 137.6504
325.7864, 139.0901
326.2686, 140.6891
326.7507, 143.0216
327.2328, 144.8691
327.7149, 145.8308
328.1970, 145.9947
328.6791, 146.4429
329.1613, 146.9926
329.6434, 147.9716
330.1255, 149.5958
330.6076, 153.1611
331.0897, 155.4694
331.5718, 155.8002
332.0540, 154.8537
332.5361, 154.6438
333.0182, 155.5318
333.5003, 156.6794
333.9824, 157.7095
334.4645, 158.4342
334.9467, 159.7085
335.4288, 161.9244
335.9109, 164.4049
336.3930, 165.9615
336.8751, 166.3186
337.3572, 166.4250
337.8394, 166.5334
338.3215, 166.6448
338.8036, 166.7627
339.2857, 166.9958
339.7678, 167.0452
340.2499, 166.5141
340.7320, 165.3243
341.2141, 164.0669
341.6963, 162.8474
342.1784, 161.6729
342.6605, 160.6043
343.1426, 159.6546
343.6247, 158.7874
344.1068, 157.9752
344.5890, 157.2282
345.0711, 156.6350
345.5532, 156.3337
346.0353, 156.0237
346.5174, 155.0255
346.9995, 153.3380
347.4817, 151.4662
347.9638, 149.5336
348.4459, 147.6366
348.9280, 146.2209
349.4101, 145.4082
349.8922, 144.7164
350.3744, 143.3930
350.8565, 141.6292
351.3386, 140.1387
351.8207, 139.6027
352.3028, 139.4553
352.7849, 138.6194
353.2671, 137.0651
353.7492, 135.5826
354.2313, 135.1027
354.7134, 135.1341
355.1955, 134.8017
355.6776, 133.6718
356.1598, 132.1941
356.6419, 130.6107
357.1240, 128.9711
357.6061, 127.5385
358.0882, 126.6829
358.5703, 126.0117
359.0525, 125.0984
359.5346, 123.6389
360.0167, 122.3491
360.4988, 121.8361
360.9809, 121.8090
361.4630, 121.6367
361.9452, 120.8244
362.4273, 119.9659
362.9094, 119.3698
363.3915, 119.0777
363.8736, 119.0103
364.3557, 119.5040
364.8379, 120.0879
365.3200, 120.2080
365.8021, 119.2816
366.2842, 118.3254
366.7663, 117.6503
367.2484, 117.2652
367.7306, 116.8544
368.2127, 116.2079
368.6948, 115.6360
369.1769, 115.3411
369.6590, 116.0189
370.1411, 116.1232
370.6233, 115.3612
371.1054, 113.9407
371.5875, 112.6207
372.0696, 111.3085
372.5517, 110.2280
373.0338, 109.5315
373.5160, 109.4681
373.9981, 109.0404
374.4802, 108.0579
374.9623, 106.8573
375.4444, 106.0138
375.9265, 105.6455
376.4087, 105.2840
376.8908, 104.7965
377.3729, 104.1847
377.8550, 103.5696
378.3371, 102.9796
378.8192, 102.3234
379.3014, 101.4155
379.7835, 100.2233
380.2656, 99.37846
380.7477, 99.11467
381.2298, 99.16614
381.7119, 98.81587
382.1941, 98.05820
382.6762, 97.28670
383.1583, 96.75183
383.6404, 96.42020
384.1225, 96.21741
384.6046, 96.16689
385.0868, 96.12999
385.5689, 95.87415
386.0510, 95.46411
386.5331, 95.13924
387.0152, 95.11367
387.4973, 95.19685
387.9795, 95.13600
388.4616, 94.92805
388.9437, 94.59378
389.4258, 93.81997
389.9079, 93.01305
390.3900, 92.81278
390.8722, 93.91360
391.3543, 95.08546
391.8364, 95.20956
392.3185, 94.58360
392.8006, 94.31279
393.2827, 95.53207
393.7649, 96.91101
394.2470, 97.35658
394.7291, 96.21389
395.2112, 95.48324
395.6933, 96.30363
396.1754, 97.87879
396.6576, 99.01783
397.1397, 98.81965
397.6218, 98.72327
398.1039, 99.33401
398.5860, 100.7636
399.0681, 101.8288
399.5503, 102.2042
400.0324, 102.3008
400.5145, 102.4176
400.9966, 102.5569
401.4787, 102.7301
401.9608, 103.0802
402.4430, 103.4810
402.9251, 103.3517
403.4072, 102.1267
403.8893, 101.2357
404.3714, 101.5516
404.8535, 103.6388
405.3357, 104.5094
405.8178, 103.8314
406.2999, 102.3696
406.7820, 101.0726
407.2641, 99.89043
407.7462, 99.19253
408.2284, 99.30275
408.7105, 99.99055
409.1926, 100.0282
409.6747, 99.34875
410.1568, 98.51665
410.6389, 97.96514
411.1211, 97.67318
411.6032, 97.54153
412.0853, 97.64406
412.5674, 97.71822
413.0495, 97.31113
413.5316, 96.48959
414.0138, 95.60957
414.4959, 94.75113
414.9780, 93.98772
415.4601, 93.45296
415.9422, 93.15345
416.4243, 93.00014
416.9065, 93.16747
417.3886, 93.37679
417.8707, 93.19692
418.3528, 91.88899
418.8349, 90.70862
419.3170, 90.56274
419.7992, 91.27635
420.2813, 92.02171
420.7634, 92.58797
421.2455, 92.96804
421.7276, 93.15498
422.2097, 93.13632
422.6919, 92.95821
423.1740, 92.37491
423.6561, 91.69679
424.1382, 91.38673
424.6203, 92.00358
425.1024, 92.51399
425.5846, 92.59063
426.0667, 92.19884
426.5488, 91.97742
427.0309, 91.75849
427.5130, 91.85636
427.9951, 92.60770
428.4773, 94.70678
428.9594, 95.87137
429.4415, 95.51367
429.9236, 94.33077
430.4057, 94.29176
430.8878, 95.89553
431.3700, 97.09474
431.8521, 96.67981
432.3342, 94.65183
432.8163, 93.81943
433.2984, 94.42275
433.7805, 95.38795
434.2627, 95.34769
434.7448, 94.42843
435.2269, 93.94131
435.7090, 94.38123
436.1911, 95.27534
436.6732, 95.57957
437.1554, 95.37671
437.6375, 95.33267
438.1196, 96.10155
438.6017, 97.25657
439.0838, 98.06333
439.5659, 98.38630
440.0480, 98.65137
440.5302, 99.19746
441.0123, 99.93906
441.4944, 100.7331
441.9765, 101.6987
442.4586, 102.5515
442.9407, 103.0715
443.4229, 103.2851
443.9050, 103.4637
444.3871, 103.5543
444.8692, 103.7523
445.3513, 104.1853
445.8334, 104.9019
446.3156, 105.8082
446.7977, 107.2295
447.2798, 108.7725
447.7619, 109.7289
448.2440, 109.3111
448.7261, 109.0989
449.2083, 109.4549
449.6904, 110.4017
450.1725, 111.4766
450.6546, 112.7702
451.1367, 114.0633
451.6188, 115.1725
452.1010, 116.0463
452.5831, 116.9206
453.0652, 117.7971
453.5473, 118.7201
454.0294, 119.8531
454.5115, 121.2308
454.9937, 122.5773
455.4758, 123.7916
455.9579, 124.8790
456.4400, 125.8078
456.9221, 126.5521
457.4042, 127.4479
457.8864, 128.9914
458.3685, 130.9683
458.8506, 132.7977
459.3327, 134.2805
459.8148, 135.6186
460.2969, 137.0342
460.7791, 138.5105
461.2612, 139.9483
461.7433, 141.3321
462.2254, 142.6352
462.7075, 143.7713
463.1896, 144.7285
463.6718, 145.7310
464.1539, 147.2264
464.6360, 148.6797
465.1181, 149.5302
465.6002, 148.9807
466.0823, 148.5229
466.5645, 148.6483
467.0466, 149.1936
467.5287, 149.5242
468.0108, 149.4961
468.4929, 149.3043
468.9750, 149.0950
469.4572, 149.0514
469.9393, 148.2720
470.4214, 146.3843
470.9035, 144.1023
471.3856, 142.2078
471.8677, 140.8248
472.3499, 139.4461
472.8320, 138.0293
473.3141, 136.5127
473.7962, 134.5485
474.2783, 132.0598
474.7604, 129.6879
475.2426, 127.8691
475.7247, 126.5151
476.2068, 125.1640
476.6889, 123.7984
477.1710, 122.4000
477.6531, 120.8427
478.1353, 119.2268
478.6174, 117.8531
479.0995, 116.9981
479.5816, 116.2176
480.0637, 114.9755
480.5458, 113.3694
481.0280, 111.7836
481.5101, 110.2293
481.9922, 108.9055
482.4743, 108.0353
482.9564, 107.6902
483.4385, 107.4727
483.9207, 107.5456
484.4028, 107.5338
484.8849, 107.0406
485.3670, 105.5089
485.8491, 104.0280
486.3312, 102.5794
486.8134, 101.2831
487.2955, 100.7011
487.7776, 101.4582
488.2597, 102.1964
488.7418, 102.3474
489.2239, 101.7628
489.7061, 101.3364
490.1882, 101.1790
490.6703, 101.0157
491.1524, 100.4334
491.6345, 99.33382
492.1166, 98.54466
492.5988, 98.24045
493.0809, 98.30709
493.5630, 98.54679
494.0451, 98.95330
494.5272, 99.30431
495.0093, 99.35355
495.4915, 99.27104
495.9736, 99.51479
496.4557, 100.1222
496.9378, 100.7130
497.4199, 100.8351
497.9020, 100.7468
498.3842, 100.8461
498.8663, 101.3329
499.3484, 101.9270
499.8305, 102.5419
500.3126, 103.1342
500.7947, 103.5903
501.2769, 103.7328
501.7590, 103.8539
502.2411, 104.0567
502.7232, 104.3402
503.2053, 104.7911
503.6874, 105.6003
504.1696, 106.4637
504.6517, 107.1458
505.1338, 107.5128
505.6159, 107.9146
506.0980, 108.2903
506.5801, 108.7423
507.0623, 109.5677
507.5444, 110.9194
508.0265, 112.1875
508.5086, 113.1587
508.9907, 113.8573
509.4728, 114.3906
509.9550, 114.7137
510.4371, 115.2009
510.9192, 116.4333
511.4013, 118.1555
511.8834, 119.2726
512.3655, 119.4870
512.8477, 119.5263
513.3298, 120.2534
513.8119, 121.4686
514.2940, 122.6948
514.7761, 123.7937
515.2582, 124.7617
515.7404, 125.5459
516.2225, 126.1750
516.7046, 126.8467
517.1867, 127.8187
517.6688, 128.7453
518.1509, 129.3884
518.6331, 129.6239
519.1152, 129.7976
519.5973, 130.0618
520.0794, 130.2460
520.5615, 130.1249
521.0436, 129.3935
521.5258, 128.8227
522.0079, 128.5452
522.4900, 128.5202
522.9721, 128.6058
523.4542, 128.8861
523.9363, 129.0248
524.4185, 128.8346
524.9006, 128.3153
525.3827, 127.6421
525.8648, 126.7840
526.3469, 125.9221
526.8290, 125.3959
527.3112, 125.0674
527.7933, 124.3709
528.2754, 123.0727
528.7575, 121.5288
529.2396, 119.9987
529.7217, 118.5311
530.2039, 117.2953
530.6860, 116.6882
531.1681, 116.0959
531.6502, 114.9502
532.1323, 113.2342
532.6144, 111.6650
533.0966, 110.3074
533.5787, 109.3202
534.0608, 108.8545
534.5429, 109.6462
535.0250, 109.7987
535.5071, 108.5871
535.9893, 106.8703
536.4714, 105.9711
536.9535, 106.5165
537.4356, 106.6463
537.9177, 105.7878
538.3998, 104.1509
538.8820, 103.0969
539.3641, 102.7179
539.8462, 102.5474
540.3283, 102.2292
540.8104, 101.8336
541.2925, 101.9896
541.7747, 102.8032
542.2568, 103.6337
542.7389, 103.7286
543.2210, 103.3135
543.7031, 102.9057
544.1852, 102.6192
544.6674, 102.4428
545.1495, 102.3657
545.6316, 102.3942
546.1137, 102.5440
546.5958, 103.0605
547.0779, 103.4979
547.5601, 103.6239
548.0422, 103.4220
548.5243, 103.0497
549.0064, 102.1954
549.4885, 101.4269
549.9706, 101.1187
550.4528, 101.6426
550.9349, 101.9105
551.4170, 101.7764
551.8991, 101.5042
552.3812, 101.5252
552.8633, 101.9447
553.3455, 102.2233
553.8276, 102.2166
554.3097, 101.9886
554.7918, 101.7312
555.2739, 101.4495
555.7560, 101.1193
556.2382, 100.7976
556.7203, 100.4062
557.2024, 99.67966
557.6845, 98.59606
558.1666, 97.56684
558.6487, 96.83733
559.1309, 96.40641
559.6130, 96.37261
560.0951, 97.14005
560.5772, 97.55336
561.0593, 96.62737
561.5414, 95.03576
562.0236, 93.98238
562.5057, 94.22482
562.9878, 94.53748
563.4699, 94.69883
563.9520, 94.69078
564.4341, 94.28716
564.9163, 93.15417
565.3984, 92.09276
565.8805, 91.50937
566.3626, 91.47952
566.8447, 91.46994
567.3268, 91.48851
567.8090, 91.50417
568.2911, 91.55214
568.7732, 91.60487
569.2553, 91.33001
569.7374, 90.48006
570.2195, 89.64433
570.7017, 89.84443
571.1838, 90.77829
571.6659, 91.48345
572.1480, 91.37579
572.6301, 90.92772
573.1122, 90.43238
573.5944, 89.91264
574.0765, 89.51196
574.5586, 89.38232
575.0407, 89.32549
575.5228, 89.25048
576.0049, 89.21403
576.4871, 88.96255
576.9692, 88.19863
577.4513, 87.38696
577.9334, 86.95670
578.4155, 87.03142
578.8976, 87.23093
579.3798, 87.56719
579.8619, 87.96049
580.3440, 88.25779
580.8261, 88.47100
581.3082, 88.43642
581.7903, 87.96278
582.2725, 87.22328
582.7546, 86.68125
583.2367, 86.33512
583.7188, 86.19442
584.2009, 86.41911
584.6830, 86.79233
585.1652, 87.11800
585.6473, 87.41923
586.1294, 87.32988
586.6115, 86.21430
587.0936, 84.78019
587.5757, 83.78629
588.0578, 83.85450
588.5399, 83.86854
589.0220, 83.59266
589.5042, 83.12789
589.9863, 82.72600
590.4684, 82.53743
590.9505, 82.16667
591.4326, 81.44721
591.9147, 80.43217
592.3969, 79.57948
592.8790, 78.89357
593.3611, 78.35316
593.8432, 78.02697
594.3253, 77.86446
594.8074, 77.52552
595.2896, 76.98314
595.7717, 76.41173
596.2538, 76.07838
596.7359, 75.81921
597.2180, 75.29405
597.7001, 74.28472
598.1823, 73.30708
598.6644, 72.58678
599.1465, 72.15575
599.6286, 72.06879
600.1107, 72.93552
600.5928, 73.53703
601.0750, 73.31100
601.5571, 72.36855
602.0392, 71.75136
602.5213, 71.56577
603.0034, 71.57268
603.4855, 71.73096
603.9677, 72.06234
604.4498, 72.26284
604.9319, 72.35075
605.4140, 72.25245
605.8961, 71.68123
