##NAMES=Laueite
##RRUFFID=R060013
##IDEAL CHEMISTRY=Mn^2+^Fe^3+^_2_(PO_4_)_2_(OH)_2_&#183;8H_2_O
##LOCALITY=Hagendorf, Germany
##OWNER=RRUFF
##SOURCE=University of Arizona Mineral Museum
##DESCRIPTION=Orange prismatic crystals associated with what appears to be accicular ferristrunzite
##STATUS=The identification of this mineral is confirmed by single-crystal X-ray diffraction and chemical analysis.
##URL=rruff.info/R060013
##MEASURED CHEMISTRY=(Mn^2+^_0.54_Fe^2+^_0.35_Mg_0.11_)_Σ=1_Fe^3+^_2.00_(P_1.00_O_4_)_2_(OH)_2_·8H_2_O
125.3655, 31.60313
125.8476, 31.69331
126.3298, 31.92351
126.8119, 32.30671
127.2940, 32.65264
127.7761, 32.92419
128.2582, 33.12939
128.7404, 33.29723
129.2225, 33.43569
129.7046, 33.46476
130.1867, 33.23845
130.6688, 32.66327
131.1509, 31.97502
131.6331, 31.15073
132.1152, 30.27822
132.5973, 29.43093
133.0794, 28.64947
133.5615, 27.91607
134.0436, 27.17186
134.5258, 26.31713
135.0079, 25.56205
135.4900, 24.92467
135.9721, 24.40572
136.4542, 24.00552
136.9363, 23.73063
137.4184, 23.57780
137.9006, 23.46870
138.3827, 23.45568
138.8648, 23.42800
139.3469, 23.31682
139.8290, 23.13210
140.3111, 22.94447
140.7933, 22.80184
141.2754, 22.70844
141.7575, 22.65087
142.2396, 22.62746
142.7217, 22.64070
143.2038, 22.70827
143.6860, 22.84313
144.1681, 22.97857
144.6502, 23.01942
145.1323, 23.01207
145.6144, 23.07004
146.0965, 23.29477
146.5787, 23.62600
147.0608, 23.86077
147.5429, 23.89781
148.0250, 23.96749
148.5071, 24.23090
148.9892, 24.63514
149.4714, 25.03186
149.9535, 25.27792
150.4356, 25.35623
150.9177, 25.51203
151.3998, 25.77575
151.8819, 26.10071
152.3641, 26.49729
152.8462, 26.95326
153.3283, 27.43106
153.8104, 27.89614
154.2925, 28.35317
154.7746, 28.77398
155.2568, 29.11732
155.7389, 29.46284
156.2210, 29.87490
156.7031, 30.35879
157.1852, 30.85910
157.6673, 31.28928
158.1495, 31.61088
158.6316, 31.91049
159.1137, 32.22672
159.5958, 32.50625
160.0779, 32.68269
160.5600, 32.73182
161.0422, 32.70607
161.5243, 32.72038
162.0064, 32.83757
162.4885, 32.85207
162.9706, 32.63909
163.4527, 32.29559
163.9349, 32.01531
164.4170, 31.88312
164.8991, 31.83559
165.3812, 31.75043
165.8633, 31.62481
166.3454, 31.47870
166.8276, 31.31545
167.3097, 31.13775
167.7918, 30.95749
168.2739, 30.76344
168.7560, 30.58388
169.2381, 30.45378
169.7203, 30.38589
170.2024, 30.33955
170.6845, 30.26620
171.1666, 30.15684
171.6487, 30.07573
172.1308, 30.07588
172.6130, 30.09916
173.0951, 30.09620
173.5772, 30.04775
174.0593, 29.99082
174.5414, 29.99693
175.0235, 30.10348
175.5057, 30.19630
175.9878, 30.24220
176.4699, 30.26914
176.9520, 30.29549
177.4341, 30.32776
177.9162, 30.37695
178.3984, 30.47937
178.8805, 30.67453
179.3626, 30.87884
179.8447, 31.07641
180.3268, 31.27828
180.8089, 31.50998
181.2911, 31.78779
181.7732, 32.09505
182.2553, 32.33751
182.7374, 32.42788
183.2195, 32.55095
183.7016, 32.74551
184.1838, 32.99751
184.6659, 33.30043
185.1480, 33.67069
185.6301, 34.08233
186.1122, 34.25781
186.5943, 34.04007
187.0765, 33.80618
187.5586, 33.74491
188.0407, 33.80258
188.5228, 33.78117
189.0049, 33.53328
189.4870, 33.08751
189.9692, 32.69336
190.4513, 32.38108
190.9334, 32.09153
191.4155, 31.78012
191.8976, 31.45011
192.3797, 31.13818
192.8619, 30.85750
193.3440, 30.62090
193.8261, 30.45413
194.3082, 30.41206
194.7903, 30.40755
195.2724, 30.33986
195.7546, 30.19771
196.2367, 30.06808
196.7188, 30.02476
197.2009, 30.02622
197.6830, 30.01534
198.1651, 29.93338
198.6473, 29.85814
199.1294, 29.95910
199.6115, 30.32876
200.0936, 30.64149
200.5757, 30.70293
201.0578, 30.63459
201.5400, 30.58598
202.0221, 30.63875
202.5042, 30.74735
202.9863, 30.77568
203.4684, 30.68321
203.9505, 30.56923
204.4327, 30.47065
204.9148, 30.37341
205.3969, 30.26215
205.8790, 30.13293
206.3611, 29.97895
206.8432, 29.75839
207.3254, 29.39063
207.8075, 29.04849
208.2896, 28.78052
208.7717, 28.56058
209.2538, 28.34173
209.7359, 28.09190
210.2181, 27.81996
210.7002, 27.61809
211.1823, 27.58990
211.6644, 27.52785
212.1465, 27.34391
212.6286, 27.10143
213.1108, 26.90870
213.5929, 26.83763
214.0750, 26.88289
214.5571, 26.97130
215.0392, 27.21179
215.5213, 27.37812
216.0035, 27.31877
216.4856, 27.13041
216.9677, 27.03532
217.4498, 27.19652
217.9319, 27.58632
218.4140, 27.83033
218.8961, 27.78785
219.3783, 27.77515
219.8604, 27.93708
220.3425, 28.23556
220.8246, 28.54582
221.3067, 28.79569
221.7888, 28.98699
222.2710, 29.15867
222.7531, 29.28264
223.2352, 29.41522
223.7173, 29.58422
224.1994, 29.78683
224.6815, 30.01063
225.1637, 30.25511
225.6458, 30.51384
226.1279, 30.76276
226.6100, 31.04332
227.0921, 31.27457
227.5742, 31.35776
228.0564, 31.30929
228.5385, 31.30829
229.0206, 31.48380
229.5027, 31.76054
229.9848, 31.96246
230.4669, 32.05399
230.9491, 32.10467
231.4312, 32.17471
231.9133, 32.26453
232.3954, 32.33349
232.8775, 32.33486
233.3596, 32.31754
233.8418, 32.33976
234.3239, 32.40535
234.8060, 32.52112
235.2881, 32.70465
235.7702, 32.96119
236.2523, 33.23616
236.7345, 33.47967
237.2166, 33.74937
237.6987, 34.11512
238.1808, 34.60738
238.6629, 35.12632
239.1451, 35.51890
239.6272, 35.74529
240.1093, 36.06098
240.5914, 36.60704
241.0735, 37.23512
241.5556, 37.85173
242.0378, 38.43740
242.5199, 39.01060
243.0020, 39.61026
243.4841, 40.24719
243.9662, 40.85635
244.4483, 41.41418
244.9305, 41.95043
245.4126, 42.47752
245.8947, 42.99885
246.3768, 43.52963
246.8589, 44.10304
247.3410, 44.75030
247.8232, 45.33866
248.3053, 45.91010
248.7874, 46.39058
249.2695, 46.70020
249.7516, 46.83945
250.2337, 46.90613
250.7159, 47.02373
251.1980, 47.20325
251.6801, 47.40857
252.1622, 47.63892
252.6443, 47.89154
253.1264, 48.17230
253.6086, 48.47873
254.0907, 48.79770
254.5728, 49.10146
255.0549, 49.35448
255.5370, 49.71291
256.0191, 50.27432
256.5013, 50.84350
256.9834, 51.34323
257.4655, 51.74905
257.9476, 52.05079
258.4297, 52.23788
258.9118, 52.31110
259.3940, 52.24963
259.8761, 52.13414
260.3582, 51.85060
260.8403, 51.28442
261.3224, 50.47308
261.8045, 49.55968
262.2867, 48.66302
262.7688, 47.77619
263.2509, 46.98053
263.7330, 46.56328
264.2151, 45.96564
264.6972, 44.78772
265.1794, 43.15125
265.6615, 41.48673
266.1436, 40.14261
266.6257, 39.12375
267.1078, 38.29148
267.5899, 37.75904
268.0721, 37.24979
268.5542, 36.61629
269.0363, 35.89969
269.5184, 35.20796
270.0005, 34.53277
270.4826, 34.21634
270.9648, 33.86677
271.4469, 33.48599
271.9290, 32.98018
272.4111, 32.63580
272.8932, 32.22674
273.3753, 31.81500
273.8575, 31.49327
274.3396, 31.00564
274.8217, 30.68258
275.3038, 30.29381
275.7859, 29.93512
276.2680, 29.51130
276.7502, 29.03604
277.2323, 28.58222
277.7144, 28.14471
278.1965, 27.72074
278.6786, 27.30179
279.1607, 26.88682
279.6429, 26.48007
280.1250, 26.08550
280.6071, 25.69787
281.0892, 25.30588
281.5713, 24.89949
282.0534, 24.49789
282.5356, 24.13952
283.0177, 23.82191
283.4998, 23.53570
283.9819, 23.27489
284.4640, 23.04621
284.9461, 22.87055
285.4283, 22.75978
285.9104, 22.67169
286.3925, 22.54039
286.8746, 22.36060
287.3567, 22.20067
287.8388, 22.08678
288.3210, 21.99463
288.8031, 21.89001
289.2852, 21.76428
289.7673, 21.64360
290.2494, 21.56253
290.7315, 21.51834
291.2137, 21.46757
291.6958, 21.36476
292.1779, 21.27286
292.6600, 21.26845
293.1421, 21.35996
293.6242, 21.48994
294.1064, 21.63975
294.5885, 21.79412
295.0706, 21.87727
295.5527, 21.84375
296.0348, 21.76220
296.5169, 21.66998
296.9991, 21.57043
297.4812, 21.50921
297.9633, 21.53095
298.4454, 21.61222
298.9275, 21.67114
299.4096, 21.70377
299.8918, 21.71497
300.3739, 21.68223
300.8560, 21.61675
301.3381, 21.60478
301.8202, 21.71488
302.3023, 21.88005
302.7845, 21.96563
303.2666, 21.95227
303.7487, 21.90770
304.2308, 21.85945
304.7129, 21.80899
305.1950, 21.75264
305.6772, 21.66861
306.1593, 21.61066
306.6414, 21.67341
307.1235, 21.86980
307.6056, 22.04212
308.0877, 22.08980
308.5699, 22.06617
309.0520, 22.10506
309.5341, 22.25347
310.0162, 22.42013
310.4983, 22.49771
310.9804, 22.49999
311.4626, 22.48800
311.9447, 22.43999
312.4268, 22.40295
312.9089, 22.45732
313.3910, 22.62137
313.8731, 22.82678
314.3553, 23.04116
314.8374, 23.25524
315.3195, 23.43795
315.8016, 23.56683
316.2837, 23.67099
316.7658, 23.76242
317.2480, 23.83976
317.7301, 23.96600
318.2122, 24.22538
318.6943, 24.55072
319.1764, 24.77514
319.6585, 24.82878
320.1407, 24.85180
320.6228, 24.93466
321.1049, 25.07527
321.5870, 25.26793
322.0691, 25.53774
322.5512, 25.83537
323.0334, 26.06563
323.5155, 26.20217
323.9976, 26.35317
324.4797, 26.58026
324.9618, 26.86761
325.4439, 27.16436
325.9261, 27.45676
326.4082, 27.75643
326.8903, 28.09498
327.3724, 28.47086
327.8545, 28.82511
328.3366, 29.11434
328.8188, 29.37281
329.3009, 29.66260
329.7830, 29.99822
330.2651, 30.34234
330.7472, 30.66809
331.2293, 30.97442
331.7115, 31.24951
332.1936, 31.48560
332.6757, 31.69261
333.1578, 31.85985
333.6399, 31.98790
334.1220, 32.15575
334.6042, 32.45405
335.0863, 32.83105
335.5684, 33.09079
336.0505, 33.16776
336.5326, 33.18773
337.0147, 33.23410
337.4969, 33.29541
337.9790, 33.31142
338.4611, 33.23534
338.9432, 33.11841
339.4253, 33.08416
339.9074, 33.17753
340.3896, 33.22923
340.8717, 33.16319
341.3538, 33.01036
341.8359, 32.82605
342.3180, 32.62017
342.8001, 32.40424
343.2822, 32.19148
343.7643, 31.98225
344.2465, 31.77344
344.7286, 31.59638
345.2107, 31.40327
345.6928, 31.13213
346.1749, 30.77380
346.6570, 30.37934
347.1392, 29.97687
347.6213, 29.57021
348.1034, 29.24455
348.5855, 29.07567
349.0676, 28.92274
349.5497, 28.70371
350.0319, 28.41867
350.5140, 28.08876
350.9961, 27.71693
351.4782, 27.31251
351.9603, 26.92437
352.4424, 26.54162
352.9246, 26.18289
353.4067, 25.87717
353.8888, 25.59423
354.3709, 25.27866
354.8530, 24.90743
355.3351, 24.50483
355.8173, 24.11366
356.2994, 23.71971
356.7815, 23.36648
357.2636, 23.07006
357.7457, 22.80929
358.2278, 22.48581
358.7100, 22.34460
359.1921, 22.17669
359.6742, 21.98365
360.1563, 21.68159
360.6384, 21.52689
361.1205, 21.31714
361.6027, 21.10787
362.0848, 20.98209
362.5669, 20.71066
363.0490, 20.58935
363.5311, 20.41213
364.0132, 20.26468
364.4954, 20.06181
364.9775, 19.87983
365.4596, 19.75901
365.9417, 19.60877
366.4238, 19.41072
366.9059, 19.28218
367.3881, 19.03739
367.8702, 18.90000
368.3523, 18.81060
368.8344, 18.62981
369.3165, 18.51670
369.7986, 18.38177
370.2808, 18.13752
370.7629, 18.09123
371.2450, 17.96346
371.7271, 17.75192
372.2092, 17.70757
372.6913, 17.51371
373.1735, 17.37710
373.6556, 17.28429
374.1377, 17.15170
374.6198, 17.08923
375.1019, 16.96484
375.5840, 16.83752
376.0662, 16.73833
376.5483, 16.57042
377.0304, 16.49537
377.5125, 16.39480
377.9946, 16.29746
378.4767, 16.20367
378.9589, 16.10971
379.4410, 16.00393
379.9231, 15.88402
380.4052, 15.77473
380.8873, 15.72447
381.3694, 15.76313
381.8516, 15.76237
382.3337, 15.64562
382.8158, 15.54225
383.2979, 15.54263
383.7800, 15.63028
384.2621, 15.70857
384.7443, 15.68490
385.2264, 15.56994
385.7085, 15.49554
386.1906, 15.46997
386.6727, 15.47796
387.1548, 15.51247
387.6370, 15.57144
388.1191, 15.65532
388.6012, 15.77059
389.0833, 15.89861
389.5654, 16.00456
390.0475, 16.08403
390.5297, 16.16126
391.0118, 16.23256
391.4939, 16.31256
391.9760, 16.42465
392.4581, 16.57277
392.9402, 16.70564
393.4224, 16.75832
393.9045, 16.74890
394.3866, 16.79527
394.8687, 16.93739
395.3508, 17.09910
395.8329, 17.21348
396.3151, 17.29477
396.7972, 17.38982
397.2793, 17.51537
397.7614, 17.66504
398.2435, 17.84910
398.7256, 18.07166
399.2078, 18.25451
399.6899, 18.31978
400.1720, 18.32627
400.6541, 18.41229
401.1362, 18.64042
401.6183, 18.84006
402.1005, 18.89478
402.5826, 18.84059
403.0647, 18.77113
403.5468, 18.70820
404.0289, 18.65696
404.5110, 18.64081
404.9932, 18.66879
405.4753, 18.64090
405.9574, 18.50724
406.4395, 18.32952
406.9216, 18.12952
407.4037, 17.92166
407.8859, 17.81955
408.3680, 17.97373
408.8501, 18.33472
409.3322, 18.30080
409.8143, 17.55163
410.2964, 16.82739
410.7786, 16.37749
411.2607, 16.13070
411.7428, 15.96748
412.2249, 15.84296
412.7070, 15.73154
413.1891, 15.58276
413.6713, 15.37246
414.1534, 15.16593
414.6355, 14.94649
415.1176, 14.74282
415.5997, 14.57763
416.0818, 14.45140
416.5640, 14.35339
417.0461, 14.27948
417.5282, 14.23060
418.0103, 14.14632
418.4924, 13.96146
418.9745, 13.81213
419.4567, 13.73902
419.9388, 13.71603
420.4209, 13.71268
420.9030, 13.71598
421.3851, 13.71454
421.8672, 13.67674
422.3494, 13.57005
422.8315, 13.51130
423.3136, 13.57013
423.7957, 13.63141
424.2778, 13.60938
424.7599, 13.51157
425.2421, 13.42072
425.7242, 13.41818
426.2063, 13.49244
426.6884, 13.53078
427.1705, 13.51821
427.6526, 13.49331
428.1348, 13.46174
428.6169, 13.43305
429.0990, 13.42119
429.5811, 13.43158
430.0632, 13.45872
430.5453, 13.51035
431.0275, 13.58779
431.5096, 13.62235
431.9917, 13.56012
432.4738, 13.48154
432.9559, 13.47890
433.4380, 13.55120
433.9202, 13.61796
434.4023, 13.63005
434.8844, 13.61484
435.3665, 13.62551
435.8486, 13.67017
436.3307, 13.70599
436.8129, 13.67791
437.2950, 13.61600
437.7771, 13.64045
438.2592, 13.86729
438.7413, 14.05953
439.2234, 14.04239
439.7056, 13.89278
440.1877, 13.79656
440.6698, 13.82285
441.1519, 13.92164
441.6340, 14.01822
442.1161, 14.11609
442.5983, 14.19929
443.0804, 14.23944
443.5625, 14.28521
444.0446, 14.39411
444.5267, 14.55253
445.0089, 14.68317
445.4910, 14.71984
445.9731, 14.67786
446.4552, 14.70711
446.9373, 14.85088
447.4194, 15.01678
447.9016, 15.23482
448.3837, 15.44904
448.8658, 15.58539
449.3479, 15.62632
449.8300, 15.63223
450.3121, 15.68468
450.7943, 15.78778
451.2764, 15.92259
451.7585, 16.12442
452.2406, 16.32569
452.7227, 16.49367
453.2048, 16.63983
453.6870, 16.78645
454.1691, 16.93356
454.6512, 17.10803
455.1333, 17.42674
455.6154, 17.98947
456.0975, 18.39435
456.5797, 18.35407
457.0618, 18.19900
457.5439, 18.17875
458.0260, 18.32803
458.5081, 18.51328
458.9902, 18.62068
459.4724, 18.67970
459.9545, 18.80926
460.4366, 19.04530
460.9187, 19.28722
461.4008, 19.44683
461.8829, 19.55387
462.3651, 19.67791
462.8472, 19.82638
463.3293, 20.00075
463.8114, 20.22701
464.2935, 20.48566
464.7756, 20.70823
465.2578, 20.87117
465.7399, 20.98303
466.2220, 21.05392
466.7041, 21.08769
467.1862, 21.07112
467.6683, 20.95289
468.1505, 20.81917
468.6326, 20.75459
469.1147, 20.75018
469.5968, 20.73121
470.0789, 20.64308
470.5610, 20.49589
471.0432, 20.35972
471.5253, 20.26073
472.0074, 20.13902
472.4895, 19.99341
472.9716, 19.81916
473.4537, 19.59790
473.9359, 19.33311
474.4180, 19.06654
474.9001, 18.85585
475.3822, 18.71263
475.8643, 18.53829
476.3464, 18.27888
476.8286, 18.04752
477.3107, 17.91520
477.7928, 17.82730
478.2749, 17.68641
478.7570, 17.43988
479.2391, 17.15780
479.7213, 16.95963
480.2034, 16.85341
480.6855, 16.75430
481.1676, 16.62558
481.6497, 16.51652
482.1318, 16.47494
482.6140, 16.49341
483.0961, 16.51249
483.5782, 16.52202
484.0603, 16.50726
484.5424, 16.42179
485.0245, 16.26127
485.5067, 16.13500
485.9888, 16.11057
486.4709, 16.15797
486.9530, 16.19439
487.4351, 16.21791
487.9172, 16.23589
488.3994, 16.24759
488.8815, 16.25673
489.3636, 16.26449
489.8457, 16.27205
490.3278, 16.29104
490.8099, 16.33684
491.2921, 16.41135
491.7742, 16.45914
492.2563, 16.42241
492.7384, 16.42877
493.2205, 16.55367
493.7026, 16.73306
494.1848, 16.87349
494.6669, 16.94053
495.1490, 16.97562
495.6311, 17.04861
496.1132, 17.18034
496.5953, 17.28149
497.0775, 17.33318
497.5596, 17.37177
498.0417, 17.36947
498.5238, 17.36759
499.0059, 17.45852
499.4880, 17.71603
499.9702, 18.04645
500.4523, 18.24321
500.9344, 18.27795
501.4165, 18.36603
501.8986, 18.61810
502.3807, 18.90168
502.8629, 19.08729
503.3450, 19.17524
503.8271, 19.26211
504.3092, 19.39868
504.7913, 19.56018
505.2734, 19.69849
505.7556, 19.81152
506.2377, 19.95357
506.7198, 20.16288
507.2019, 20.42155
507.6840, 20.67434
508.1661, 20.94046
508.6482, 21.16672
509.1303, 21.29346
509.6125, 21.39688
510.0946, 21.58033
510.5767, 21.85161
511.0588, 22.11820
511.5409, 22.28691
512.0231, 22.35876
512.5052, 22.50062
512.9873, 22.79318
513.4694, 23.06078
513.9515, 23.27318
514.4337, 23.44086
514.9158, 23.56754
515.3979, 23.65795
515.8800, 23.73565
516.3621, 23.82817
516.8442, 23.93558
517.3264, 24.05523
517.8085, 24.19051
518.2906, 24.33649
518.7727, 24.57665
519.2548, 24.80659
519.7369, 24.81948
520.2191, 24.47546
520.7012, 24.07581
521.1833, 24.00010
521.6654, 24.20097
522.1475, 24.30154
522.6296, 24.19333
523.1118, 24.00344
523.5939, 23.87161
524.0760, 23.78719
524.5581, 23.65585
525.0402, 23.48744
525.5223, 23.24502
526.0045, 22.85857
526.4866, 22.37339
526.9687, 21.90910
527.4508, 21.51882
527.9329, 21.18027
528.4150, 20.85520
528.8972, 20.55289
529.3793, 20.24626
529.8614, 19.96431
530.3435, 19.65403
530.8256, 19.25324
531.3077, 18.79854
531.7899, 18.38271
532.2720, 18.06445
532.7541, 17.80160
533.2362, 17.47728
533.7183, 17.05352
534.2004, 16.67218
534.6826, 16.36400
535.1647, 16.10015
535.6468, 15.87743
536.1289, 15.68877
536.6110, 15.51697
537.0931, 15.36450
537.5753, 15.21667
538.0574, 15.03977
538.5395, 14.83137
539.0216, 14.64352
539.5037, 14.51356
539.9858, 14.40124
540.4680, 14.21966
540.9501, 13.94252
541.4322, 13.74562
541.9143, 13.75046
542.3964, 13.81054
542.8785, 13.77311
543.3607, 13.64170
543.8428, 13.50634
544.3249, 13.42222
544.8070, 13.38193
545.2891, 13.35880
545.7712, 13.38571
546.2534, 13.38384
546.7355, 13.33191
547.2176, 13.26574
547.6997, 13.20186
548.1818, 13.14822
548.6639, 13.11839
549.1461, 13.13373
549.6282, 13.17409
550.1103, 13.14237
550.5924, 12.99351
551.0745, 12.88920
551.5566, 12.93459
552.0388, 13.00892
552.5209, 13.01932
553.0030, 12.95794
553.4851, 12.87194
553.9672, 12.75218
554.4493, 12.63795
554.9315, 12.62195
555.4136, 12.70931
555.8957, 12.77260
556.3778, 12.73400
556.8599, 12.63150
557.3420, 12.56437
557.8242, 12.52715
558.3063, 12.52834
558.7884, 12.62185
559.2705, 12.71885
559.7526, 12.72162
560.2347, 12.63933
560.7169, 12.55822
561.1990, 12.54066
561.6811, 12.57394
562.1632, 12.60301
562.6453, 12.64017
563.1274, 12.64965
563.6096, 12.59356
564.0917, 12.53821
564.5738, 12.54813
565.0559, 12.61283
565.5380, 12.65357
566.0201, 12.58670
566.5023, 12.46931
566.9844, 12.46803
567.4665, 12.60389
567.9486, 12.72111
568.4307, 12.76315
568.9128, 12.75350
569.3950, 12.72214
569.8771, 12.66690
570.3592, 12.61653
570.8413, 12.56112
571.3234, 12.52806
571.8055, 12.55160
572.2877, 12.62688
572.7698, 12.73645
573.2519, 12.88191
573.7340, 13.01997
574.2161, 13.03387
574.6982, 12.80414
575.1804, 12.65593
575.6625, 12.61958
576.1446, 12.63321
576.6267, 12.66889
577.1088, 12.72179
577.5909, 12.80076
578.0731, 12.91805
578.5552, 13.04091
579.0373, 13.09116
579.5194, 13.05682
580.0015, 13.01570
580.4836, 12.98065
580.9658, 12.94486
581.4479, 12.90980
581.9300, 12.87156
582.4121, 12.81320
582.8942, 12.70379
583.3763, 12.59186
583.8585, 12.54324
584.3406, 12.53687
584.8227, 12.48607
585.3048, 12.35569
585.7869, 12.19891
586.2690, 12.09144
586.7512, 12.04924
587.2333, 11.97870
587.7154, 11.86058
588.1975, 11.73686
588.6796, 11.62896
589.1617, 11.52575
589.6438, 11.39816
590.1259, 11.23834
590.6080, 11.08384
591.0901, 11.00748
591.5723, 11.02453
592.0544, 10.96492
592.5365, 10.77645
593.0186, 10.58420
593.5007, 10.44752
593.9828, 10.34444
594.4650, 10.24497
594.9471, 10.14656
595.4292, 10.03618
595.9113, 9.878648
596.3934, 9.706152
596.8755, 9.617452
597.3577, 9.631191
597.8398, 9.622162
598.3219, 9.474507
598.8040, 9.220347
599.2861, 9.081143
599.7682, 9.144711
600.2504, 9.187905
600.7325, 9.178329
601.2146, 9.132154
601.6967, 9.047947
602.1788, 8.937873
602.6609, 8.840682
603.1431, 8.791040
603.6252, 8.776117
604.1073, 8.737301
604.5894, 8.656971
605.0715, 8.598854
605.5536, 8.597025
606.0358, 8.609797
606.5179, 8.613480
607.0000, 8.605569
607.4821, 8.583697
607.9642, 8.536393
608.4464, 8.481211
608.9285, 8.435170
609.4106, 8.399349
609.8927, 8.381848
610.3748, 8.388147
610.8569, 8.406025
611.3391, 8.418631
611.8212, 8.426097
612.3033, 8.425970
612.7854, 8.420576
613.2675, 8.405677
613.7496, 8.380624
614.2318, 8.344308
614.7139, 8.285914
615.1960, 8.203393
615.6781, 8.129536
616.1602, 8.116045
616.6423, 8.166085
617.1245, 8.208124
617.6066, 8.257425
618.0887, 8.269316
618.5708, 8.173443
