##NAMES=Laumontite
##RRUFFID=R060114
##IDEAL CHEMISTRY=Ca(Si_4_Al_2_)O_12_&#183;4H_2_O
##LOCALITY=Pine Creek, Tungsten mine, Bishop, California, USA
##OWNER=RRUFF
##SOURCE=University of Arizona Mineral Museum
##DESCRIPTION=White colored elongated prismatic single-crystals
##STATUS=The identification of this mineral has been confirmed by X-ray diffraction and chemical analysis
##URL=rruff.info/R060114
##MEASURED CHEMISTRY=Ca_1.00_(Si_4.00_Al_2.00_)O_12_Â·4H_2_O
92.02539, 254.6871
92.50751, 267.9904
92.98962, 276.1273
93.47174, 270.2353
93.95386, 258.5805
94.43597, 246.9446
94.91809, 238.1160
95.40021, 231.4764
95.88232, 224.1002
96.36444, 215.5685
96.84656, 206.9305
97.32867, 198.3248
97.81078, 189.9773
98.29290, 182.2654
98.77502, 175.4847
99.25713, 169.5558
99.73925, 162.8516
100.2214, 154.3374
100.7035, 146.1408
101.1856, 138.9697
101.6677, 132.9375
102.1498, 128.0006
102.6320, 124.1638
103.1141, 121.7575
103.5962, 119.8233
104.0783, 118.7299
104.5604, 117.9285
105.0425, 116.8720
105.5247, 115.4089
106.0068, 113.5670
106.4889, 111.2452
106.9710, 108.3556
107.4531, 105.5785
107.9352, 103.2587
108.4173, 101.3260
108.8995, 99.37473
109.3816, 97.14259
109.8637, 94.92404
110.3458, 93.01051
110.8279, 91.43559
111.3100, 90.11170
111.7922, 88.91306
112.2743, 87.80022
112.7564, 86.97535
113.2385, 86.71246
113.7206, 86.63355
114.2027, 86.41575
114.6849, 85.90878
115.1670, 85.18954
115.6491, 84.54465
116.1312, 84.14946
116.6133, 83.60720
117.0954, 82.77911
117.5776, 81.77152
118.0597, 80.70738
118.5418, 79.64074
119.0239, 78.56396
119.5060, 77.94272
119.9881, 77.97209
120.4703, 78.16401
120.9524, 78.38551
121.4345, 78.60612
121.9166, 78.82812
122.3987, 79.10770
122.8808, 79.46106
123.3630, 79.37051
123.8451, 78.37532
124.3272, 77.16926
124.8093, 76.51143
125.2914, 76.57920
125.7735, 76.81250
126.2557, 76.40073
126.7378, 75.49952
127.2199, 74.93783
127.7020, 75.33897
128.1841, 76.37697
128.6662, 76.99598
129.1483, 76.89669
129.6305, 76.46178
130.1126, 75.97254
130.5947, 75.44142
131.0768, 74.92842
131.5589, 74.41731
132.0410, 73.87304
132.5232, 73.62377
133.0053, 74.00497
133.4874, 74.49999
133.9695, 74.89249
134.4516, 75.12730
134.9337, 75.23421
135.4159, 75.24410
135.8980, 75.07728
136.3801, 74.96093
136.8622, 74.97258
137.3443, 74.99685
137.8264, 74.92948
138.3086, 74.73198
138.7907, 74.44856
139.2728, 74.20495
139.7549, 74.13803
140.2370, 73.95006
140.7191, 73.57573
141.2013, 73.07326
141.6834, 72.53121
142.1655, 72.00217
142.6476, 71.46067
143.1297, 70.80184
143.6118, 69.93742
144.0939, 69.07762
144.5761, 68.30730
145.0582, 67.61620
145.5403, 66.95663
146.0224, 66.33379
146.5045, 65.70938
146.9866, 64.98270
147.4688, 64.05767
147.9509, 63.10758
148.4330, 62.28590
148.9151, 61.59627
149.3972, 61.00692
149.8793, 60.49214
150.3615, 60.06292
150.8436, 59.77108
151.3257, 59.73106
151.8078, 59.79369
152.2899, 59.61159
152.7720, 59.08919
153.2542, 58.46340
153.7363, 57.77224
154.2184, 57.06902
154.7005, 56.42136
155.1826, 55.86029
155.6647, 55.38980
156.1469, 55.07450
156.6290, 55.22858
157.1111, 55.23016
157.5932, 54.76887
158.0753, 54.01207
158.5574, 53.32367
159.0396, 53.01633
159.5217, 53.13093
160.0038, 53.26762
160.4859, 53.62338
160.9680, 53.82808
161.4501, 53.59724
161.9323, 53.00724
162.4144, 52.41488
162.8965, 52.20758
163.3786, 52.52103
163.8607, 52.64217
164.3428, 52.51295
164.8250, 52.25325
165.3071, 51.91353
165.7892, 51.50889
166.2713, 51.08694
166.7534, 50.66211
167.2355, 50.20727
167.7177, 50.01231
168.1998, 50.45742
168.6819, 51.05832
169.1640, 51.14461
169.6461, 50.51942
170.1282, 49.60034
170.6104, 48.85662
171.0925, 48.26673
171.5746, 47.70020
172.0567, 47.07458
172.5388, 46.43143
173.0209, 45.90380
173.5031, 45.56161
173.9852, 45.28434
174.4673, 44.98474
174.9494, 44.65992
175.4315, 44.26730
175.9136, 43.72252
176.3958, 43.03283
176.8779, 42.45550
177.3600, 42.11549
177.8421, 41.82991
178.3242, 41.49279
178.8063, 41.10083
179.2885, 40.71809
179.7706, 40.43597
180.2527, 40.30056
180.7348, 40.05877
181.2169, 39.54712
181.6990, 39.03469
182.1812, 38.71019
182.6633, 38.58018
183.1454, 38.47826
183.6275, 38.13255
184.1096, 37.29499
184.5917, 36.75227
185.0738, 36.65571
185.5560, 36.69566
186.0381, 36.67871
186.5202, 36.54840
187.0023, 36.35180
187.4844, 36.16236
187.9665, 35.89620
188.4487, 35.79095
188.9308, 35.90374
189.4129, 36.14049
189.8950, 36.50797
190.3771, 36.99973
190.8592, 37.42083
191.3414, 37.33980
191.8235, 36.31845
192.3056, 35.62736
192.7877, 35.58579
193.2698, 35.89843
193.7519, 36.20073
194.2341, 36.37609
194.7162, 36.45321
195.1983, 36.45542
195.6804, 36.34203
196.1625, 36.29944
196.6446, 36.40371
197.1268, 36.61970
197.6089, 36.88752
198.0910, 37.22330
198.5731, 37.54387
199.0552, 37.72303
199.5373, 37.75603
200.0195, 37.72611
200.5016, 37.65664
200.9837, 37.55424
201.4658, 37.45369
201.9479, 37.36573
202.4300, 37.28262
202.9122, 37.23657
203.3943, 37.24189
203.8764, 37.14097
204.3585, 36.72997
204.8406, 36.01077
205.3227, 35.40461
205.8048, 35.00614
206.2870, 34.78053
206.7691, 34.78244
207.2512, 35.01097
207.7333, 35.22803
208.2154, 35.10735
208.6975, 34.55629
209.1797, 34.22022
209.6618, 34.47185
210.1439, 34.79425
210.6260, 34.90031
211.1081, 34.74487
211.5902, 34.48291
212.0724, 34.32367
212.5545, 34.32977
213.0366, 34.24834
213.5187, 33.92473
214.0008, 33.61222
214.4829, 33.52659
214.9651, 33.68299
215.4472, 33.86966
215.9293, 33.74498
216.4114, 33.05184
216.8935, 32.57976
217.3756, 32.40081
217.8578, 32.34961
218.3399, 32.36506
218.8220, 32.41106
219.3041, 32.42239
219.7862, 32.29442
220.2683, 31.94499
220.7505, 31.60194
221.2326, 31.19831
221.7147, 30.83896
222.1968, 30.65685
222.6789, 30.66518
223.1610, 30.69873
223.6432, 30.49288
224.1253, 29.78186
224.6074, 29.40360
225.0895, 29.65526
225.5716, 30.06958
226.0537, 30.20945
226.5358, 29.97603
227.0180, 29.59464
227.5001, 29.38672
227.9822, 29.44470
228.4643, 29.37972
228.9464, 28.98607
229.4285, 28.54282
229.9107, 28.37964
230.3928, 28.57488
230.8749, 28.91272
231.3570, 29.14585
231.8391, 29.27551
232.3212, 29.31586
232.8034, 29.14449
233.2855, 28.93151
233.7676, 28.94860
234.2497, 29.28061
234.7318, 29.62632
235.2139, 29.55759
235.6961, 29.13366
236.1782, 28.84475
236.6603, 28.88468
237.1424, 29.11179
237.6245, 29.35040
238.1066, 29.61296
238.5888, 29.77316
239.0709, 29.58540
239.5530, 29.16529
240.0351, 28.88755
240.5172, 28.98579
240.9993, 29.28744
241.4815, 29.43461
241.9636, 29.33273
242.4457, 29.27218
242.9278, 29.54523
243.4099, 30.01719
243.8920, 30.41251
244.3742, 30.58360
244.8563, 30.60365
245.3384, 30.64355
245.8205, 30.72775
246.3026, 30.77430
246.7847, 30.76748
247.2668, 30.69484
247.7490, 30.51396
248.2311, 30.13557
248.7132, 29.67174
249.1953, 29.40822
249.6774, 29.43340
250.1595, 29.48892
250.6417, 29.52403
251.1238, 29.50658
251.6059, 29.37189
252.0880, 29.05339
252.5701, 28.64651
253.0522, 28.40189
253.5344, 28.41636
254.0165, 28.40910
254.4986, 28.23242
254.9807, 28.01513
255.4628, 27.91040
255.9449, 27.99652
256.4271, 28.18773
256.9092, 28.27390
257.3913, 28.16547
257.8734, 28.12315
258.3555, 28.29606
258.8376, 28.50195
259.3198, 28.51571
259.8019, 28.24574
260.2840, 27.89731
260.7661, 27.93747
261.2482, 28.67171
261.7303, 29.21683
262.2125, 29.48991
262.6946, 29.56185
263.1767, 29.41902
263.6588, 29.07493
264.1409, 28.68572
264.6230, 28.53786
265.1052, 28.77568
265.5873, 28.98649
266.0694, 29.14441
266.5515, 29.27634
267.0336, 29.42774
267.5157, 29.59716
267.9979, 29.71406
268.4800, 29.64514
268.9621, 29.20609
269.4442, 28.99242
269.9263, 29.08946
270.4084, 29.30085
270.8906, 29.57121
271.3727, 29.85526
271.8548, 30.05258
272.3369, 30.01229
272.8190, 29.59649
273.3011, 29.41236
273.7833, 29.59869
274.2654, 29.85215
274.7475, 30.04490
275.2296, 30.14832
275.7117, 30.15243
276.1938, 30.01987
276.6760, 29.68851
277.1581, 29.62207
277.6402, 29.95071
278.1223, 30.35644
278.6044, 30.73458
279.0865, 31.06573
279.5686, 31.33619
280.0508, 31.51722
280.5329, 31.60273
281.0150, 31.87264
281.4971, 32.53596
281.9792, 33.13387
282.4613, 33.44574
282.9435, 33.55170
283.4256, 33.66940
283.9077, 33.94684
284.3898, 34.35622
284.8719, 34.62948
285.3540, 34.69570
285.8362, 34.73090
286.3183, 34.70592
286.8004, 34.68837
287.2825, 34.81548
287.7646, 35.17254
288.2467, 35.67904
288.7289, 36.05650
289.2110, 36.10371
289.6931, 36.27776
290.1752, 36.75745
290.6573, 37.37648
291.1394, 37.87502
291.6216, 38.14648
292.1037, 38.32571
292.5858, 38.71077
293.0679, 39.48376
293.5500, 40.10658
294.0321, 40.30833
294.5143, 40.42880
294.9964, 40.92418
295.4785, 41.91700
295.9606, 43.03020
296.4427, 43.71920
296.9248, 43.80157
297.4070, 43.98018
297.8891, 44.28612
298.3712, 44.69279
298.8533, 45.21178
299.3354, 45.83307
299.8175, 46.47121
300.2997, 47.03420
300.7818, 47.50459
301.2639, 48.01862
301.7460, 48.48261
302.2281, 49.05608
302.7102, 49.93322
303.1924, 51.07567
303.6745, 52.20407
304.1566, 53.10064
304.6387, 53.77373
305.1208, 54.52819
305.6029, 55.52592
306.0851, 56.44590
306.5672, 57.07891
307.0493, 57.48916
307.5314, 57.88617
308.0135, 58.37801
308.4956, 58.95509
308.9778, 59.57002
309.4599, 60.38923
309.9420, 61.04174
310.4241, 61.38146
310.9062, 61.47403
311.3883, 61.46801
311.8705, 61.44706
312.3526, 61.28680
312.8347, 60.62794
313.3168, 59.20119
313.7989, 57.99186
314.2810, 57.32814
314.7632, 56.94357
315.2453, 56.50908
315.7274, 55.94041
316.2095, 55.26229
316.6916, 54.45396
317.1737, 53.43217
317.6559, 52.66707
318.1380, 52.29105
318.6201, 52.13142
319.1022, 52.07659
319.5843, 52.10052
320.0664, 52.13018
320.5485, 52.07229
321.0306, 51.91956
321.5128, 51.94906
321.9949, 52.17441
322.4770, 52.56185
322.9591, 53.23854
323.4412, 54.11410
323.9233, 54.81914
324.4055, 55.09650
324.8876, 54.98404
325.3697, 54.80336
325.8518, 54.63246
326.3339, 54.32470
326.8160, 53.87966
327.2982, 53.25766
327.7803, 52.33780
328.2624, 51.03311
328.7445, 49.46836
329.2266, 47.96839
329.7087, 46.63270
330.1909, 45.17733
330.6730, 43.34153
331.1551, 41.43447
331.6372, 39.91083
332.1193, 38.90688
332.6014, 38.11737
333.0836, 37.09035
333.5657, 35.69459
334.0478, 34.45636
334.5299, 33.44716
335.0120, 32.57235
335.4941, 31.78129
335.9763, 31.06095
336.4584, 30.35177
336.9405, 29.58055
337.4226, 28.72994
337.9047, 28.11258
338.3868, 27.87033
338.8690, 27.69206
339.3511, 27.40775
339.8332, 27.04652
340.3153, 26.74114
340.7974, 26.58718
341.2795, 26.55015
341.7617, 26.40685
342.2438, 26.01871
342.7259, 25.70430
343.2080, 25.56851
343.6901, 25.54229
344.1722, 25.52391
344.6544, 25.47156
345.1365, 25.40964
345.6186, 25.39008
346.1007, 25.46743
346.5828, 25.50468
347.0649, 25.53389
347.5471, 25.50340
348.0292, 25.34886
348.5113, 25.06752
348.9934, 24.71980
349.4755, 24.36744
349.9576, 23.97749
350.4398, 23.73406
350.9219, 23.74751
351.4040, 23.78258
351.8861, 23.73489
352.3682, 23.60179
352.8503, 23.41037
353.3325, 23.17182
353.8146, 22.89359
354.2967, 22.69088
354.7788, 22.55564
355.2609, 22.50416
355.7430, 22.60312
356.2252, 22.77226
356.7073, 22.91513
357.1894, 22.98644
357.6715, 22.98424
358.1536, 22.89768
358.6357, 22.62986
359.1179, 22.42435
359.5999, 22.31626
360.0821, 22.25164
360.5642, 22.17867
361.0463, 22.09121
361.5284, 22.03246
362.0105, 22.06489
362.4926, 22.22082
362.9748, 22.34391
363.4569, 22.43942
363.9390, 22.50012
364.4211, 22.47662
364.9032, 22.40994
365.3853, 22.40351
365.8675, 22.54738
366.3496, 22.82138
366.8317, 23.03396
367.3138, 23.17976
367.7959, 23.26082
368.2780, 23.09799
368.7602, 22.93574
369.2423, 23.15508
369.7244, 23.93700
370.2065, 24.91671
370.6886, 25.33483
371.1707, 24.94130
371.6529, 24.60409
372.1350, 24.35321
372.6171, 24.25801
373.0992, 24.43554
373.5813, 24.87015
374.0634, 25.35665
374.5456, 25.66447
375.0277, 25.78134
375.5098, 25.98222
375.9919, 26.37648
376.4740, 26.74304
376.9561, 27.01128
377.4383, 27.17659
377.9204, 27.23193
378.4025, 27.15407
378.8846, 26.97503
379.3667, 26.72586
379.8488, 26.27817
380.3310, 26.10184
380.8131, 26.73431
381.2952, 27.57474
381.7773, 27.98116
382.2594, 27.74451
382.7415, 27.27002
383.2237, 27.01668
383.7058, 26.98190
384.1879, 26.81486
384.6700, 26.44876
385.1521, 25.88575
385.6342, 25.04447
386.1164, 23.96026
386.5985, 23.02381
387.0806, 22.53161
387.5627, 22.34267
388.0448, 22.10983
388.5269, 21.78169
389.0091, 21.49593
389.4912, 21.44674
389.9733, 21.51522
390.4554, 21.42393
390.9375, 20.97392
391.4196, 20.47540
391.9018, 20.23384
392.3839, 20.22287
392.8660, 20.19846
393.3481, 20.01586
393.8302, 19.79853
394.3123, 19.81239
394.7945, 20.14625
395.2766, 20.40174
395.7587, 20.38960
396.2408, 20.20579
396.7229, 19.96734
397.2050, 19.68393
397.6872, 19.48164
398.1693, 19.53504
398.6514, 19.87367
399.1335, 20.12186
399.6156, 20.20562
400.0977, 20.24293
400.5798, 20.34152
401.0620, 20.47985
401.5441, 20.54398
402.0262, 20.45776
402.5083, 20.24595
402.9904, 20.03098
403.4725, 19.67837
403.9547, 19.48646
404.4368, 19.62113
404.9189, 19.90596
405.4010, 20.10245
405.8831, 20.13994
406.3652, 20.15499
406.8474, 20.37641
407.3295, 20.98927
407.8116, 21.24350
408.2937, 20.86467
408.7758, 20.41558
409.2579, 20.20731
409.7401, 20.21756
410.2222, 20.26309
410.7043, 20.20942
411.1864, 20.07000
411.6685, 19.96316
412.1506, 19.93231
412.6328, 19.88181
413.1149, 19.82533
413.5970, 19.73042
414.0791, 19.53842
414.5612, 19.23443
415.0433, 18.90310
415.5255, 18.66751
416.0076, 18.52850
416.4897, 18.48122
416.9718, 18.62870
417.4539, 18.78149
417.9360, 18.88614
418.4182, 18.92283
418.9003, 18.85639
419.3824, 18.61521
419.8645, 18.25563
420.3466, 18.02718
420.8287, 17.95905
421.3109, 17.96842
421.7930, 18.12355
422.2751, 18.29109
422.7572, 18.29763
423.2393, 18.07400
423.7214, 17.78817
424.2036, 17.63525
424.6857, 17.60879
425.1678, 17.51358
425.6499, 17.21710
426.1320, 16.95693
426.6141, 17.01536
427.0963, 17.34502
427.5784, 17.57002
428.0605, 17.42538
428.5426, 17.12423
429.0247, 17.01681
429.5068, 17.13156
429.9890, 17.24044
430.4711, 17.17198
430.9532, 16.99755
431.4353, 16.96108
431.9174, 17.21354
432.3995, 17.38064
432.8817, 17.14720
433.3638, 16.70534
433.8459, 16.47911
434.3280, 16.61328
434.8101, 16.91341
435.2922, 17.12897
435.7744, 17.24966
436.2565, 17.30166
436.7386, 17.16886
437.2207, 17.06057
437.7028, 17.19817
438.1849, 17.51887
438.6671, 17.74041
439.1492, 17.65924
439.6313, 17.33612
440.1134, 17.12908
440.5955, 17.04495
441.0776, 17.07329
441.5598, 17.35023
442.0418, 17.67067
442.5240, 17.81029
443.0061, 17.71841
443.4882, 17.52313
443.9703, 17.37632
444.4524, 17.27036
444.9345, 17.24860
445.4167, 17.39714
445.8988, 17.54609
446.3809, 17.65030
446.8630, 17.70808
447.3451, 17.71352
447.8272, 17.64656
448.3094, 17.56491
448.7915, 17.63167
449.2736, 17.90734
449.7557, 18.15819
450.2378, 18.33930
450.7199, 18.46728
451.2021, 18.51492
451.6842, 18.49034
452.1663, 18.50745
452.6484, 18.66035
453.1305, 18.93146
453.6126, 19.27662
454.0948, 19.76605
454.5769, 20.14958
455.0590, 20.13596
455.5411, 19.91360
456.0232, 19.81042
456.5053, 19.95652
456.9875, 20.16132
457.4696, 20.24088
457.9517, 20.23176
458.4338, 20.32866
458.9159, 20.64238
459.3980, 20.99735
459.8802, 21.06562
460.3623, 20.80534
460.8444, 20.72793
461.3265, 21.04449
461.8086, 21.49981
462.2907, 21.88256
462.7729, 22.18051
463.2550, 22.45663
463.7371, 22.75012
464.2192, 23.06083
464.7013, 23.39949
465.1834, 23.95060
465.6656, 24.29464
466.1477, 24.18137
466.6298, 23.92972
467.1119, 23.89065
467.5940, 24.14081
468.0761, 24.51451
468.5583, 24.82806
469.0404, 25.08846
469.5225, 25.25657
470.0046, 25.15562
470.4867, 25.14632
470.9688, 25.48354
471.4510, 25.95567
471.9331, 26.18545
472.4152, 25.97539
472.8973, 25.56445
473.3794, 25.36886
473.8615, 25.38159
474.3437, 25.64495
474.8258, 26.51347
475.3079, 27.35596
475.7900, 27.71159
476.2721, 27.63607
476.7542, 27.56748
477.2364, 27.77728
477.7185, 28.17899
478.2006, 28.60201
478.6827, 29.05382
479.1648, 29.46130
479.6469, 29.71492
480.1291, 29.93672
480.6112, 30.33446
481.0933, 30.94116
481.5754, 31.65298
482.0575, 32.46619
482.5396, 33.33828
483.0217, 34.19177
483.5038, 35.01070
483.9860, 35.82202
484.4681, 36.64270
484.9502, 37.47291
485.4323, 38.39216
485.9144, 39.34670
486.3965, 40.43665
486.8787, 41.83377
487.3608, 43.37850
487.8429, 44.75106
488.3250, 45.82832
488.8071, 46.80001
489.2892, 48.02312
489.7714, 49.76350
490.2535, 51.11141
490.7356, 52.02409
491.2177, 52.65372
491.6998, 53.02861
492.1819, 53.18205
492.6641, 53.17482
493.1462, 53.06054
493.6283, 52.77671
494.1104, 52.12786
494.5925, 51.06340
495.0746, 49.77523
495.5568, 47.92448
496.0389, 46.14120
496.5210, 44.87830
497.0031, 44.16423
497.4852, 43.72112
497.9673, 43.43585
498.4495, 43.27378
498.9316, 43.15636
499.4137, 43.09198
499.8958, 43.01606
500.3779, 42.84124
500.8600, 42.64856
501.3422, 42.58230
501.8243, 42.61365
502.3064, 42.84987
502.7885, 43.44188
503.2706, 44.25115
503.7527, 45.06903
504.2349, 45.85012
504.7170, 46.55555
505.1991, 47.13363
505.6812, 47.58010
506.1633, 48.03838
506.6454, 48.47557
507.1276, 48.95874
507.6097, 49.49929
508.0918, 50.10621
508.5739, 50.80174
509.0560, 51.59179
509.5381, 52.43385
510.0203, 53.30298
510.5024, 54.33147
510.9845, 54.93408
511.4666, 54.72355
511.9487, 54.46799
512.4308, 54.53987
512.9130, 54.77858
513.3951, 54.84388
513.8772, 54.56657
514.3593, 54.02071
514.8414, 53.31774
515.3235, 52.44462
515.8057, 51.48537
516.2878, 50.38891
516.7699, 49.27259
517.2520, 48.29828
517.7341, 47.43021
518.2162, 46.41479
518.6984, 45.08053
519.1805, 43.57267
519.6626, 42.03388
520.1447, 40.47363
520.6268, 38.95653
521.1089, 37.51293
521.5911, 36.12937
522.0732, 34.81258
522.5553, 33.57210
523.0374, 32.33946
523.5195, 30.97358
524.0016, 29.70624
524.4838, 28.81976
524.9659, 28.27424
525.4480, 27.76630
525.9301, 27.07815
526.4122, 26.25628
526.8943, 25.52130
527.3765, 24.89902
527.8586, 24.34504
528.3407, 23.91992
528.8228, 23.50994
529.3049, 22.98537
529.7870, 22.35883
530.2692, 21.78955
530.7513, 21.43258
531.2334, 21.25568
531.7155, 21.07900
532.1976, 20.93598
532.6797, 20.71550
533.1619, 20.27407
533.6440, 19.77856
534.1261, 19.38774
534.6082, 19.12820
535.0903, 18.95076
535.5724, 18.92135
536.0546, 18.93097
536.5367, 18.68804
537.0188, 18.13679
537.5009, 17.61168
537.9830, 17.35117
538.4651, 17.32954
538.9473, 17.36496
539.4294, 17.53367
539.9115, 17.65826
540.3936, 17.77984
540.8757, 17.78840
541.3578, 17.44198
541.8400, 16.74575
542.3221, 16.07569
542.8042, 15.83360
543.2863, 16.02702
543.7684, 16.17916
544.2505, 16.23540
544.7326, 16.31434
545.2147, 16.53292
545.6968, 16.73781
546.1790, 16.72434
546.6611, 16.45328
547.1432, 16.12834
547.6253, 15.94939
548.1074, 15.91073
548.5895, 15.99160
549.0717, 16.29830
549.5538, 16.49335
550.0359, 16.28029
550.5180, 15.84891
551.0001, 15.45592
551.4822, 15.12943
551.9644, 14.87973
552.4465, 14.71049
552.9286, 14.62231
553.4107, 14.63745
553.8928, 14.76219
554.3749, 14.91413
554.8571, 15.03681
555.3392, 15.12756
555.8213, 15.10347
556.3034, 14.81576
556.7855, 14.61164
557.2676, 14.62400
557.7498, 14.74651
558.2319, 14.87216
558.7140, 14.96650
559.1961, 15.01990
559.6782, 15.00055
560.1603, 14.90617
560.6425, 14.94947
561.1246, 15.31814
561.6067, 15.54354
562.0888, 15.34465
562.5709, 15.01149
563.0530, 14.87905
563.5352, 15.03097
564.0173, 15.27830
564.4994, 15.54772
564.9815, 15.78705
565.4636, 15.77054
565.9457, 15.42465
566.4279, 15.09705
566.9100, 15.01556
567.3921, 15.14147
567.8742, 15.29981
568.3563, 15.53664
568.8384, 15.72915
569.3206, 15.81467
569.8027, 15.84363
570.2848, 15.85295
570.7669, 15.86062
571.2490, 15.91749
571.7311, 16.07336
572.2133, 16.31885
572.6954, 16.54604
573.1775, 16.78729
573.6596, 16.96177
574.1417, 16.95691
574.6238, 16.95303
575.1060, 17.11147
575.5881, 17.44644
576.0702, 17.86035
576.5523, 18.36456
577.0344, 18.87607
577.5165, 18.99680
577.9987, 18.59773
578.4808, 18.38421
578.9629, 18.80383
579.4450, 19.47494
579.9271, 19.82487
580.4092, 19.79026
580.8914, 19.82725
581.3735, 20.13818
581.8556, 20.58814
582.3377, 21.09953
582.8198, 21.62935
583.3019, 22.01911
583.7841, 22.15742
584.2662, 22.14342
584.7483, 22.25147
585.2304, 22.57054
585.7125, 22.87195
586.1946, 23.17937
586.6768, 23.45094
587.1589, 23.62946
