##NAMES=Laumontite
##RRUFFID=R040020
##IDEAL CHEMISTRY=Ca(Si_4_Al_2_)O_12_&#183;4H_2_O
##LOCALITY=Pine Creek Tungsten mine, Bishop, Inyo County, California, USA
##OWNER=RRUFF
##SOURCE=University of Arizona Mineral Museum
##DESCRIPTION=Pale gray long prism coated with smaller crystals
##STATUS=The identification of this mineral has been confirmed by X-ray diffraction and chemical analysis
##URL=rruff.info/R040020
##MEASURED CHEMISTRY=(Ca_0.99_K_0.01_)_Σ=1_(Si_4.01_Al_1.99_)O_12_·4H_2_O; H_2_O estimated by difference
194.6507, 3100.000
195.1328, 3101.504
195.6150, 3103.924
196.0971, 3107.970
196.5792, 3113.185
197.0613, 3117.906
197.5434, 3122.045
198.0255, 3125.871
198.5077, 3129.700
198.9898, 3133.572
199.4719, 3136.586
199.9540, 3138.377
200.4361, 3139.126
200.9182, 3139.973
201.4004, 3141.112
201.8825, 3141.811
202.3646, 3141.531
202.8467, 3140.367
203.3288, 3137.600
203.8109, 3132.296
204.2931, 3124.991
204.7752, 3120.247
205.2573, 3118.432
205.7394, 3118.310
206.2215, 3119.027
206.7036, 3120.871
207.1858, 3121.952
207.6679, 3121.490
208.1500, 3119.631
208.6321, 3118.784
209.1142, 3119.171
209.5963, 3120.139
210.0785, 3121.171
210.5606, 3122.441
211.0427, 3122.991
211.5248, 3121.977
212.0069, 3119.500
212.4890, 3120.258
212.9712, 3125.922
213.4533, 3132.309
213.9354, 3134.436
214.4175, 3131.000
214.8996, 3127.322
215.3817, 3124.513
215.8639, 3122.590
216.3460, 3121.004
216.8281, 3120.155
217.3102, 3119.054
217.7923, 3116.065
218.2744, 3109.487
218.7565, 3105.401
219.2387, 3106.243
219.7208, 3112.177
220.2029, 3114.950
220.6850, 3113.226
221.1671, 3109.875
221.6492, 3108.202
222.1314, 3109.165
222.6135, 3109.537
223.0956, 3108.262
223.5777, 3105.212
224.0598, 3103.420
224.5419, 3102.803
225.0241, 3103.522
225.5062, 3106.254
225.9883, 3112.888
226.4704, 3117.392
226.9525, 3117.593
227.4346, 3113.222
227.9168, 3111.251
228.3989, 3112.687
228.8810, 3115.445
229.3631, 3117.168
229.8452, 3116.632
230.3273, 3117.610
230.8095, 3121.419
231.2916, 3128.217
231.7737, 3133.788
232.2558, 3138.519
232.7379, 3141.647
233.2200, 3141.884
233.7022, 3136.882
234.1843, 3133.685
234.6664, 3134.445
235.1485, 3139.226
235.6306, 3141.839
236.1127, 3141.125
236.5949, 3139.437
237.0770, 3138.803
237.5591, 3138.849
238.0412, 3140.772
238.5233, 3145.929
239.0054, 3154.339
239.4876, 3158.625
239.9697, 3155.948
240.4518, 3152.299
240.9339, 3153.282
241.4160, 3161.854
241.8981, 3169.219
242.3803, 3173.521
242.8624, 3174.880
243.3445, 3177.083
243.8266, 3180.677
244.3087, 3184.492
244.7908, 3187.488
245.2730, 3189.070
245.7551, 3190.986
246.2372, 3193.787
246.7193, 3197.303
247.2014, 3199.410
247.6835, 3199.140
248.1657, 3198.522
248.6478, 3199.060
249.1299, 3201.019
249.6120, 3203.500
250.0941, 3206.381
250.5762, 3209.694
251.0584, 3213.829
251.5405, 3219.495
252.0226, 3225.052
252.5047, 3229.355
252.9868, 3232.374
253.4689, 3234.364
253.9511, 3234.884
254.4332, 3234.377
254.9153, 3235.198
255.3974, 3237.785
255.8795, 3241.152
256.3616, 3244.741
256.8438, 3248.720
257.3259, 3252.627
257.8080, 3256.380
258.2901, 3260.033
258.7722, 3263.885
259.2543, 3267.831
259.7365, 3272.105
260.2186, 3277.118
260.7007, 3283.376
261.1828, 3288.367
261.6649, 3291.152
262.1470, 3292.727
262.6292, 3296.490
263.1113, 3303.322
263.5934, 3310.350
264.0755, 3315.924
264.5576, 3319.447
265.0397, 3323.819
265.5219, 3329.613
266.0040, 3335.999
266.4861, 3341.082
266.9682, 3344.374
267.4503, 3347.612
267.9324, 3351.636
268.4146, 3356.827
268.8967, 3361.560
269.3788, 3365.738
269.8609, 3369.648
270.3430, 3373.717
270.8251, 3377.987
271.3073, 3382.315
271.7894, 3387.118
272.2715, 3392.712
272.7536, 3394.892
273.2357, 3392.333
273.7178, 3388.161
274.2000, 3387.032
274.6821, 3389.272
275.1642, 3392.990
275.6463, 3397.963
276.1284, 3404.172
276.6105, 3409.330
277.0927, 3413.082
277.5748, 3416.528
278.0569, 3421.087
278.5390, 3426.851
279.0211, 3433.070
279.5032, 3439.927
279.9854, 3447.192
280.4675, 3452.762
280.9496, 3456.245
281.4317, 3459.475
281.9138, 3464.679
282.3959, 3471.962
282.8781, 3478.821
283.3602, 3484.152
283.8423, 3488.672
284.3244, 3495.562
284.8065, 3505.114
285.2886, 3515.332
285.7708, 3524.387
286.2529, 3532.325
286.7350, 3540.288
287.2171, 3548.273
287.6992, 3556.578
288.1813, 3565.778
288.6635, 3575.872
289.1456, 3586.988
289.6277, 3600.022
290.1098, 3614.578
290.5919, 3627.435
291.0740, 3637.610
291.5562, 3646.726
292.0383, 3657.781
292.5204, 3670.797
293.0025, 3684.316
293.4846, 3698.385
293.9667, 3712.477
294.4489, 3724.229
294.9310, 3732.602
295.4131, 3740.407
295.8952, 3752.159
296.3773, 3767.339
296.8594, 3782.615
297.3416, 3795.592
297.8237, 3807.573
298.3058, 3821.430
298.7879, 3837.651
299.2700, 3854.934
299.7521, 3870.644
300.2343, 3885.768
300.7164, 3902.703
301.1985, 3923.676
301.6806, 3947.015
302.1627, 3969.387
302.6448, 3990.708
303.1270, 4013.095
303.6091, 4039.542
304.0912, 4068.454
304.5733, 4097.799
305.0554, 4127.332
305.5375, 4156.254
306.0197, 4183.185
306.5018, 4208.049
306.9839, 4231.859
307.4660, 4255.775
307.9481, 4278.735
308.4302, 4299.208
308.9124, 4317.432
309.3945, 4332.602
309.8766, 4344.582
310.3587, 4353.299
310.8408, 4357.669
311.3229, 4355.053
311.8051, 4348.694
312.2872, 4342.081
312.7693, 4336.964
313.2514, 4330.194
313.7335, 4318.965
314.2156, 4304.399
314.6978, 4289.670
315.1799, 4277.148
315.6620, 4264.352
316.1441, 4248.981
316.6262, 4228.513
317.1083, 4210.931
317.5905, 4200.140
318.0726, 4194.436
318.5547, 4190.750
319.0368, 4187.789
319.5189, 4186.813
320.0010, 4188.421
320.4832, 4192.695
320.9653, 4199.317
321.4474, 4208.355
321.9295, 4219.670
322.4116, 4233.105
322.8937, 4250.989
323.3759, 4268.801
323.8580, 4285.929
324.3401, 4302.284
324.8222, 4316.283
325.3043, 4331.477
325.7864, 4342.251
326.2686, 4344.272
326.7507, 4334.583
327.2328, 4318.959
327.7149, 4296.952
328.1970, 4269.031
328.6791, 4238.290
329.1613, 4206.458
329.6434, 4170.799
330.1255, 4129.643
330.6076, 4074.375
331.0897, 4026.088
331.5718, 3987.620
332.0540, 3956.300
332.5361, 3923.987
333.0182, 3887.922
333.5003, 3854.051
333.9824, 3825.237
334.4645, 3802.542
334.9467, 3780.957
335.4288, 3759.887
335.9109, 3740.514
336.3930, 3725.647
336.8751, 3716.902
337.3572, 3708.570
337.8394, 3698.368
338.3215, 3686.179
338.8036, 3676.992
339.2857, 3671.270
339.7678, 3667.735
340.2499, 3665.331
340.7320, 3664.359
341.2141, 3662.956
341.6963, 3660.561
342.1784, 3657.425
342.6605, 3654.651
343.1426, 3652.191
343.6247, 3650.322
344.1068, 3649.224
344.5890, 3648.888
345.0711, 3649.587
345.5532, 3651.772
346.0353, 3654.387
346.5174, 3655.031
346.9995, 3653.727
347.4817, 3652.017
347.9638, 3651.154
348.4459, 3650.703
348.9280, 3649.228
349.4101, 3646.730
349.8922, 3642.851
350.3744, 3635.698
350.8565, 3626.370
351.3386, 3618.975
351.8207, 3617.282
352.3028, 3618.250
352.7849, 3616.526
353.2671, 3612.007
353.7492, 3607.377
354.2313, 3605.649
354.7134, 3605.342
355.1955, 3603.726
355.6776, 3598.574
356.1598, 3593.056
356.6419, 3589.621
357.1240, 3588.255
357.6061, 3588.800
358.0882, 3593.722
358.5703, 3599.337
359.0525, 3601.461
359.5346, 3597.195
360.0167, 3593.371
360.4988, 3594.221
360.9809, 3598.410
361.4630, 3603.051
361.9452, 3606.810
362.4273, 3610.686
362.9094, 3615.353
363.3915, 3621.054
363.8736, 3626.518
364.3557, 3631.176
364.8379, 3635.324
365.3200, 3639.292
365.8021, 3644.201
366.2842, 3647.910
366.7663, 3649.022
367.2484, 3647.525
367.7306, 3647.410
368.2127, 3649.957
368.6948, 3653.625
369.1769, 3657.428
369.6590, 3661.548
370.1411, 3665.687
370.6233, 3670.055
371.1054, 3674.525
371.5875, 3678.577
372.0696, 3682.041
372.5517, 3685.231
373.0338, 3688.138
373.5160, 3690.287
373.9981, 3693.594
374.4802, 3698.568
374.9623, 3704.313
375.4444, 3709.102
375.9265, 3712.252
376.4087, 3716.434
376.8908, 3722.441
377.3729, 3730.253
377.8550, 3739.099
378.3371, 3749.207
378.8192, 3759.536
379.3014, 3769.683
379.7835, 3779.865
380.2656, 3786.626
380.7477, 3788.684
381.2298, 3787.479
381.7119, 3786.906
382.1941, 3786.992
382.6762, 3785.499
383.1583, 3780.845
383.6404, 3773.305
384.1225, 3763.476
384.6046, 3750.758
385.0868, 3738.175
385.5689, 3730.598
386.0510, 3726.713
386.5331, 3721.479
387.0152, 3710.661
387.4973, 3697.841
387.9795, 3688.002
388.4616, 3681.248
388.9437, 3676.177
389.4258, 3671.635
389.9079, 3668.151
390.3900, 3666.619
390.8722, 3668.158
391.3543, 3670.781
391.8364, 3674.012
392.3185, 3677.381
392.8006, 3679.241
393.2827, 3676.269
393.7649, 3673.082
394.2470, 3673.243
394.7291, 3678.493
395.2112, 3683.625
395.6933, 3686.558
396.1754, 3688.199
396.6576, 3689.931
397.1397, 3690.821
397.6218, 3692.968
398.1039, 3697.935
398.5860, 3706.162
399.0681, 3712.251
399.5503, 3713.504
400.0324, 3713.769
400.5145, 3715.892
400.9966, 3721.671
401.4787, 3726.944
401.9608, 3731.750
402.4430, 3735.933
402.9251, 3738.526
403.4072, 3737.845
403.8893, 3738.213
404.3714, 3742.251
404.8535, 3751.709
405.3357, 3757.069
405.8178, 3756.391
406.2999, 3754.063
406.7820, 3757.299
407.2641, 3767.401
407.7462, 3775.440
408.2284, 3778.472
408.7105, 3777.260
409.1926, 3775.659
409.6747, 3773.680
410.1568, 3771.353
410.6389, 3769.062
411.1211, 3766.634
411.6032, 3762.428
412.0853, 3755.374
412.5674, 3748.108
413.0495, 3745.096
413.5316, 3745.594
414.0138, 3745.820
414.4959, 3743.759
414.9780, 3740.087
415.4601, 3735.466
415.9422, 3729.811
416.4243, 3724.365
416.9065, 3719.196
417.3886, 3715.027
417.8707, 3713.069
418.3528, 3715.099
418.8349, 3718.070
419.3170, 3719.986
419.7992, 3721.129
420.2813, 3722.804
420.7634, 3726.810
421.2455, 3730.729
421.7276, 3732.857
422.2097, 3732.349
422.6919, 3731.475
423.1740, 3730.244
423.6561, 3729.114
424.1382, 3728.765
424.6203, 3729.869
425.1024, 3731.219
425.5846, 3732.815
426.0667, 3734.710
426.5488, 3735.672
427.0309, 3734.769
427.5130, 3733.760
427.9951, 3733.977
428.4773, 3736.363
428.9594, 3737.863
429.4415, 3737.767
429.9236, 3736.925
430.4057, 3737.724
430.8878, 3740.775
431.3700, 3743.703
431.8521, 3745.569
432.3342, 3746.402
432.8163, 3746.647
433.2984, 3746.268
433.7805, 3745.564
434.2627, 3744.421
434.7448, 3742.992
435.2269, 3742.701
435.7090, 3743.781
436.1911, 3746.331
436.6732, 3751.723
437.1554, 3759.482
437.6375, 3765.723
438.1196, 3765.900
438.6017, 3763.369
439.0838, 3764.016
439.5659, 3768.984
440.0480, 3774.404
440.5302, 3776.825
441.0123, 3777.520
441.4944, 3778.637
441.9765, 3781.662
442.4586, 3784.907
442.9407, 3787.427
443.4229, 3789.257
443.9050, 3790.866
444.3871, 3791.007
444.8692, 3791.960
445.3513, 3795.672
445.8334, 3805.738
446.3156, 3812.670
446.7977, 3812.474
447.2798, 3808.413
447.7619, 3806.180
448.2440, 3805.940
448.7261, 3807.838
449.2083, 3812.739
449.6904, 3820.903
450.1725, 3826.862
450.6546, 3828.894
451.1367, 3830.786
451.6188, 3836.045
452.1010, 3846.662
452.5831, 3853.716
453.0652, 3855.500
453.5473, 3854.364
454.0294, 3855.433
454.5115, 3858.847
454.9937, 3863.573
455.4758, 3870.505
455.9579, 3878.722
456.4400, 3882.133
456.9221, 3880.226
457.4042, 3878.333
457.8864, 3881.705
458.3685, 3889.258
458.8506, 3898.424
459.3327, 3909.635
459.8148, 3920.202
460.2969, 3925.823
460.7791, 3927.871
461.2612, 3930.725
461.7433, 3938.016
462.2254, 3946.484
462.7075, 3952.963
463.1896, 3957.082
463.6718, 3961.550
464.1539, 3968.835
464.6360, 3976.754
465.1181, 3983.005
465.6002, 3983.823
466.0823, 3986.407
466.5645, 3994.195
467.0466, 4005.595
467.5287, 4014.449
468.0108, 4019.277
468.4929, 4022.058
468.9750, 4023.017
469.4572, 4021.233
469.9393, 4020.987
470.4214, 4023.376
470.9035, 4026.215
471.3856, 4026.816
471.8677, 4024.067
472.3499, 4022.447
472.8320, 4022.616
473.3141, 4024.491
473.7962, 4028.185
474.2783, 4033.962
474.7604, 4039.891
475.2426, 4043.881
475.7247, 4046.740
476.2068, 4053.578
476.6889, 4065.057
477.1710, 4077.874
477.6531, 4088.413
478.1353, 4097.355
478.6174, 4106.339
479.0995, 4114.630
479.5816, 4124.643
480.0637, 4140.024
480.5458, 4159.655
481.0280, 4179.253
481.5101, 4195.342
481.9922, 4211.071
482.4743, 4228.681
482.9564, 4248.596
483.4385, 4269.802
483.9207, 4291.654
484.4028, 4314.482
484.8849, 4338.665
485.3670, 4363.650
485.8491, 4390.421
486.3312, 4419.072
486.8134, 4449.737
487.2955, 4483.032
487.7776, 4519.491
488.2597, 4557.195
488.7418, 4596.042
489.2239, 4636.557
489.7061, 4674.397
490.1882, 4709.823
490.6703, 4742.313
491.1524, 4773.142
491.6345, 4803.419
492.1166, 4824.144
492.5988, 4833.596
493.0809, 4832.845
493.5630, 4824.027
494.0451, 4807.050
494.5272, 4783.562
495.0093, 4749.925
495.4915, 4710.937
495.9736, 4676.908
496.4557, 4648.477
496.9378, 4623.916
497.4199, 4601.869
497.9020, 4582.977
498.3842, 4568.733
498.8663, 4560.128
499.3484, 4555.297
499.8305, 4552.651
500.3126, 4552.859
500.7947, 4557.540
501.2769, 4569.670
501.7590, 4584.483
502.2411, 4600.009
502.7232, 4616.247
503.2053, 4633.233
503.6874, 4649.995
504.1696, 4668.005
504.6517, 4688.120
505.1338, 4711.179
505.6159, 4734.687
506.0980, 4758.281
506.5801, 4782.099
507.0623, 4806.757
507.5444, 4833.247
508.0265, 4858.171
508.5086, 4880.069
508.9907, 4899.333
509.4728, 4920.081
509.9550, 4942.706
510.4371, 4963.329
510.9192, 4977.655
511.4013, 4986.869
511.8834, 4995.731
512.3655, 5005.929
512.8477, 5013.303
513.3298, 5012.857
513.8119, 5005.875
514.2940, 4995.315
514.7761, 4983.344
515.2582, 4967.777
515.7404, 4945.998
516.2225, 4918.505
516.7046, 4888.986
517.1867, 4861.297
517.6688, 4830.562
518.1509, 4792.626
518.6331, 4742.898
519.1152, 4695.538
519.5973, 4652.159
520.0794, 4612.721
520.5615, 4577.912
521.0436, 4551.195
521.5258, 4523.007
522.0079, 4490.397
522.4900, 4454.935
522.9721, 4424.998
523.4542, 4402.941
523.9363, 4381.084
524.4185, 4353.932
524.9006, 4321.482
525.3827, 4297.252
525.8648, 4282.310
526.3469, 4269.838
526.8290, 4251.347
527.3112, 4228.863
527.7933, 4210.036
528.2754, 4197.528
528.7575, 4187.704
529.2396, 4176.293
529.7217, 4163.803
530.2039, 4151.903
530.6860, 4140.989
531.1681, 4131.165
531.6502, 4122.106
532.1323, 4113.747
532.6144, 4106.744
533.0966, 4102.710
533.5787, 4099.074
534.0608, 4093.692
534.5429, 4082.694
535.0250, 4075.733
535.5071, 4077.090
535.9893, 4081.604
536.4714, 4081.712
536.9535, 4075.077
537.4356, 4068.630
537.9177, 4064.133
538.3998, 4061.157
538.8820, 4056.645
539.3641, 4050.054
539.8462, 4044.782
540.3283, 4044.311
540.8104, 4047.694
541.2925, 4047.907
541.7747, 4044.417
542.2568, 4039.383
542.7389, 4034.103
543.2210, 4029.102
543.7031, 4025.766
544.1852, 4025.210
544.6674, 4025.308
545.1495, 4024.126
545.6316, 4022.111
546.1137, 4020.348
546.5958, 4019.603
547.0779, 4019.041
547.5601, 4017.921
548.0422, 4016.183
548.5243, 4015.545
549.0064, 4017.690
549.4885, 4020.081
549.9706, 4021.009
550.4528, 4018.706
550.9349, 4018.225
551.4170, 4020.519
551.8991, 4023.783
552.3812, 4025.240
552.8633, 4024.363
553.3455, 4023.706
553.8276, 4023.917
554.3097, 4024.746
554.7918, 4025.547
555.2739, 4026.327
555.7560, 4026.796
556.2382, 4026.417
556.7203, 4025.712
557.2024, 4026.146
557.6845, 4027.855
558.1666, 4029.164
558.6487, 4027.435
559.1309, 4024.968
559.6130, 4024.980
560.0951, 4029.707
560.5772, 4034.176
561.0593, 4035.042
561.5414, 4034.175
562.0236, 4034.871
562.5057, 4038.986
562.9878, 4043.590
563.4699, 4048.467
563.9520, 4053.405
564.4341, 4056.573
564.9163, 4056.429
565.3984, 4056.632
565.8805, 4059.178
566.3626, 4064.561
566.8447, 4069.502
567.3268, 4074.258
567.8090, 4078.012
568.2911, 4078.510
568.7732, 4076.381
569.2553, 4077.589
569.7374, 4084.337
570.2195, 4092.968
570.7017, 4098.558
571.1838, 4101.891
571.6659, 4105.320
572.1480, 4110.305
572.6301, 4115.737
573.1122, 4120.705
573.5944, 4125.283
574.0765, 4129.867
574.5586, 4134.396
575.0407, 4139.159
575.5228, 4144.290
576.0049, 4149.551
576.4871, 4155.812
576.9692, 4162.905
577.4513, 4171.200
577.9334, 4181.563
578.4155, 4195.401
578.8976, 4207.678
579.3798, 4217.769
579.8619, 4226.057
580.3440, 4232.510
580.8261, 4236.890
581.3082, 4242.402
581.7903, 4250.337
582.2725, 4260.422
582.7546, 4272.193
583.2367, 4285.528
583.7188, 4298.953
584.2009, 4311.522
584.6830, 4323.291
585.1652, 4334.133
585.6473, 4343.917
586.1294, 4353.593
586.6115, 4364.084
587.0936, 4374.657
587.5757, 4384.402
588.0578, 4391.974
588.5399, 4399.924
589.0220, 4410.416
589.5042, 4421.368
589.9863, 4428.151
590.4684, 4429.590
590.9505, 4428.625
591.4326, 4426.043
591.9147, 4421.743
592.3969, 4414.099
592.8790, 4402.401
593.3611, 4390.583
593.8432, 4381.924
594.3253, 4375.735
594.8074, 4366.831
595.2896, 4354.852
595.7717, 4342.240
596.2538, 4331.190
596.7359, 4321.292
597.2180, 4311.894
597.7001, 4303.617
598.1823, 4294.667
598.6644, 4283.140
599.1465, 4270.290
599.6286, 4258.205
600.1107, 4246.730
600.5928, 4237.107
601.0750, 4230.488
601.5571, 4226.512
602.0392, 4221.674
602.5213, 4214.341
603.0034, 4208.179
603.4855, 4205.255
603.9677, 4205.893
604.4498, 4203.905
604.9319, 4198.490
605.4140, 4192.725
605.8961, 4190.058
606.3782, 4189.860
606.8604, 4188.144
607.3425, 4184.159
607.8246, 4179.510
608.3067, 4175.803
608.7888, 4172.915
609.2709, 4170.738
609.7531, 4170.167
610.2352, 4169.212
610.7173, 4165.917
611.1994, 4161.176
611.6815, 4157.368
612.1636, 4156.687
612.6458, 4155.748
613.1279, 4152.714
613.6100, 4147.508
614.0921, 4144.318
614.5742, 4144.592
615.0563, 4145.005
615.5385, 4143.221
616.0206, 4138.339
616.5027, 4137.343
616.9848, 4141.437
617.4669, 4145.853
617.9490, 4142.778
618.4312, 4134.342
618.9133, 4132.597
619.3954, 4141.880
619.8775, 4153.482
620.3596, 4157.369
620.8417, 4155.574
621.3239, 4152.639
621.8060, 4147.605
622.2881, 4144.566
622.7702, 4147.074
623.2523, 4153.867
623.7344, 4159.782
624.2166, 4164.007
624.6987, 4166.512
625.1808, 4166.588
625.6629, 4163.946
626.1450, 4162.845
626.6271, 4163.473
627.1093, 4165.204
627.5914, 4168.243
628.0735, 4172.817
628.5556, 4175.021
629.0377, 4174.476
629.5198, 4172.283
630.0020, 4168.527
630.4841, 4164.108
630.9662, 4162.117
631.4483, 4164.325
631.9304, 4167.287
632.4125, 4168.019
632.8947, 4167.100
633.3768, 4165.638
633.8589, 4162.711
634.3410, 4160.867
634.8231, 4162.227
635.3052, 4166.104
635.7874, 4168.163
636.2695, 4166.027
636.7516, 4164.047
637.2337, 4163.294
637.7158, 4163.659
638.1979, 4166.358
638.6801, 4171.833
639.1622, 4178.006
639.6443, 4183.758
640.1264, 4188.839
640.6085, 4192.003
641.0906, 4192.946
641.5728, 4192.632
642.0549, 4191.373
642.5370, 4189.727
643.0191, 4188.779
643.5012, 4189.118
643.9833, 4189.747
644.4655, 4189.976
644.9476, 4190.178
645.4297, 4190.956
645.9118, 4193.578
646.3939, 4195.738
646.8760, 4196.950
647.3582, 4197.330
647.8403, 4197.008
648.3224, 4195.596
648.8045, 4194.257
649.2866, 4193.158
649.7687, 4192.401
650.2509, 4193.490
650.7330, 4196.608
651.2151, 4199.580
651.6972, 4200.337
652.1793, 4199.800
652.6614, 4199.736
653.1436, 4200.211
653.6257, 4202.336
654.1078, 4209.583
654.5899, 4217.713
655.0720, 4221.699
655.5541, 4217.665
656.0363, 4215.137
656.5184, 4218.335
657.0005, 4224.184
657.4826, 4228.682
657.9647, 4230.572
658.4468, 4232.891
658.9290, 4235.902
659.4111, 4239.561
659.8932, 4243.746
660.3753, 4248.410
660.8574, 4253.771
661.3395, 4260.250
661.8217, 4267.186
662.3038, 4272.890
662.7859, 4277.465
663.2680, 4281.813
663.7501, 4287.914
664.2322, 4293.098
664.7144, 4293.160
665.1965, 4288.216
665.6786, 4286.242
666.1607, 4292.930
666.6428, 4302.030
667.1249, 4310.182
667.6071, 4318.064
668.0892, 4321.878
668.5713, 4318.738
669.0534, 4314.865
669.5355, 4316.213
670.0176, 4323.677
670.4998, 4330.739
670.9819, 4337.189
671.4640, 4342.168
671.9461, 4344.306
672.4282, 4343.830
672.9103, 4341.658
673.3925, 4337.572
673.8746, 4332.614
674.3567, 4326.807
674.8388, 4320.946
675.3209, 4316.840
675.8030, 4318.045
676.2852, 4318.267
676.7673, 4314.381
677.2494, 4306.966
677.7315, 4300.243
678.2136, 4294.476
678.6957, 4289.194
679.1779, 4284.448
679.6600, 4280.139
680.1421, 4275.098
680.6242, 4268.967
681.1063, 4263.896
681.5884, 4262.874
682.0706, 4264.110
682.5527, 4260.776
683.0348, 4252.383
683.5169, 4244.772
683.9990, 4244.330
684.4811, 4246.288
684.9633, 4244.721
685.4454, 4236.870
685.9275, 4230.979
686.4096, 4231.374
686.8917, 4234.449
687.3738, 4236.243
687.8560, 4235.155
688.3381, 4235.268
