##NAMES=Laumontite
##RRUFFID=R040020
##IDEAL CHEMISTRY=Ca(Si_4_Al_2_)O_12_&#183;4H_2_O
##LOCALITY=Pine Creek Tungsten mine, Bishop, Inyo County, California, USA
##OWNER=RRUFF
##SOURCE=University of Arizona Mineral Museum
##DESCRIPTION=Pale gray long prism coated with smaller crystals
##STATUS=The identification of this mineral has been confirmed by X-ray diffraction and chemical analysis
##URL=rruff.info/R040020
##MEASURED CHEMISTRY=(Ca_0.99_K_0.01_)_Σ=1_(Si_4.01_Al_1.99_)O_12_·4H_2_O; H_2_O estimated by difference
181.2911, 327.2739
181.7732, 324.9742
182.2553, 323.5759
182.7374, 323.9575
183.2195, 324.2696
183.7016, 324.1783
184.1838, 323.7759
184.6659, 323.2083
185.1480, 322.5107
185.6301, 321.7463
186.1122, 321.5800
186.5943, 322.0481
187.0764, 322.9048
187.5586, 324.2267
188.0407, 325.9005
188.5228, 327.5885
189.0049, 329.0284
189.4870, 330.2892
189.9691, 331.8388
190.4513, 333.7139
190.9334, 335.8171
191.4155, 338.1672
191.8976, 340.7388
192.3797, 343.3508
192.8618, 345.9430
193.3440, 348.4580
193.8261, 350.7339
194.3082, 352.1932
194.7903, 353.7762
195.2724, 356.6099
195.7545, 360.8376
196.2367, 365.3378
196.7188, 370.0479
197.2009, 374.4737
197.6830, 377.7700
198.1651, 379.3914
198.6472, 379.9456
199.1294, 380.5245
199.6115, 381.3468
200.0936, 381.5953
200.5757, 381.3696
201.0578, 380.3169
201.5399, 377.7623
202.0221, 373.0800
202.5042, 366.9136
202.9863, 361.0499
203.4684, 355.6654
203.9505, 350.3772
204.4326, 344.7455
204.9148, 339.1628
205.3969, 334.1385
205.8790, 329.9431
206.3611, 326.5182
206.8432, 323.4730
207.3253, 320.7385
207.8075, 318.5568
208.2896, 317.1978
208.7717, 316.3608
209.2538, 315.6360
209.7359, 314.7809
210.2180, 313.8058
210.7002, 312.8339
211.1823, 311.6293
211.6644, 310.6835
212.1465, 310.5808
212.6286, 310.7733
213.1107, 310.2857
213.5929, 308.4119
214.0750, 305.2667
214.5571, 302.5928
215.0392, 300.8815
215.5213, 299.0540
216.0034, 296.8038
216.4856, 294.2101
216.9677, 291.5213
217.4498, 288.8905
217.9319, 286.3160
218.4140, 283.5065
218.8961, 280.1568
219.3783, 276.9610
219.8604, 274.0954
220.3425, 271.5826
220.8246, 269.4599
221.3067, 267.8005
221.7888, 266.5528
222.2710, 265.2278
222.7531, 263.8166
223.2352, 262.3510
223.7173, 260.6727
224.1994, 258.8778
224.6815, 257.4567
225.1637, 256.9114
225.6458, 256.9111
226.1279, 256.1559
226.6100, 253.8496
227.0921, 251.5878
227.5742, 250.6146
228.0564, 250.8166
228.5385, 250.9531
229.0206, 250.2130
229.5027, 249.0275
229.9848, 248.4101
230.4669, 248.8196
230.9491, 249.2659
231.4312, 248.5409
231.9133, 246.6298
232.3954, 245.5057
232.8775, 247.0112
233.3596, 249.4087
233.8418, 250.4040
234.3239, 249.4408
234.8060, 247.5708
235.2881, 245.3727
235.7702, 242.6703
236.2523, 241.3290
236.7345, 243.6023
237.2166, 246.8408
237.6987, 248.7147
238.1808, 248.6443
238.6629, 247.6524
239.1451, 246.7385
239.6272, 245.8086
240.1093, 245.4499
240.5914, 246.5963
241.0735, 247.9704
241.5556, 248.6082
242.0378, 248.2707
242.5199, 247.5925
243.0020, 247.2847
243.4841, 247.2968
243.9662, 247.9081
244.4483, 249.7637
244.9305, 251.8342
245.4126, 253.5555
245.8947, 254.7785
246.3768, 255.5945
246.8589, 256.0444
247.3410, 255.9675
247.8231, 256.0219
248.3053, 255.7601
248.7874, 255.9873
249.2695, 257.5990
249.7516, 260.5789
250.2337, 263.7818
250.7158, 265.5911
251.1980, 265.3737
251.6801, 265.4571
252.1622, 265.8610
252.6443, 266.5504
253.1264, 267.6135
253.6085, 269.0065
254.0907, 270.5295
254.5728, 271.9902
255.0549, 273.5586
255.5370, 274.5121
256.0191, 273.8591
256.5013, 273.4930
256.9834, 274.6261
257.4655, 277.2223
257.9476, 280.3506
258.4297, 283.0555
258.9118, 285.3676
259.3940, 287.0805
259.8761, 287.5352
260.3582, 288.0795
260.8403, 289.4566
261.3224, 291.6260
261.8045, 294.0733
262.2867, 296.3112
262.7688, 298.2561
263.2509, 300.5546
263.7330, 303.8122
264.2151, 306.7783
264.6972, 308.5919
265.1794, 309.4942
265.6615, 310.5366
266.1436, 312.6606
266.6257, 315.9591
267.1078, 318.2509
267.5899, 319.1269
268.0721, 319.6726
268.5542, 320.2210
269.0363, 320.8177
269.5184, 321.4404
270.0005, 322.0388
270.4826, 322.6429
270.9648, 323.6534
271.4469, 325.2782
271.9290, 326.9900
272.4111, 328.6172
272.8932, 330.1766
273.3753, 331.7431
273.8575, 333.3503
274.3396, 334.9935
274.8217, 336.6590
275.3038, 338.0450
275.7859, 339.7688
276.2680, 342.1064
276.7502, 344.9109
277.2323, 347.8869
277.7144, 350.8785
278.1965, 353.9842
278.6786, 357.5805
279.1607, 361.8155
279.6428, 366.1044
280.1249, 370.4098
280.6071, 374.6680
281.0892, 378.6843
281.5713, 382.3689
282.0534, 385.9168
282.5355, 389.6271
283.0176, 393.2580
283.4998, 397.6516
283.9819, 403.4262
284.4640, 409.9755
284.9461, 416.4317
285.4282, 422.5822
285.9103, 428.4910
286.3925, 434.1327
286.8746, 439.4358
287.3567, 445.1525
287.8388, 451.7888
288.3209, 458.8163
288.8030, 465.4582
289.2852, 471.5970
289.7673, 477.6522
290.2494, 484.1334
290.7315, 491.0375
291.2136, 497.6273
291.6957, 503.8697
292.1779, 509.7414
292.6600, 514.9977
293.1421, 519.5893
293.6242, 524.2634
294.1063, 529.6933
294.5884, 535.7581
295.0706, 541.6024
295.5527, 547.1069
296.0348, 552.3855
296.5169, 557.3510
296.9990, 562.0190
297.4811, 566.9525
297.9633, 572.3287
298.4454, 578.3202
298.9275, 585.1036
299.4096, 592.5517
299.8917, 600.9393
300.3738, 610.7867
300.8560, 621.9515
301.3381, 633.1956
301.8202, 643.7769
302.3023, 654.3328
302.7844, 666.2965
303.2665, 679.9872
303.7487, 694.0740
304.2308, 707.7458
304.7129, 721.1238
305.1950, 734.9019
305.6771, 749.6974
306.1592, 764.4147
306.6414, 777.8839
307.1235, 790.3733
307.6056, 800.8832
308.0877, 809.1511
308.5698, 815.1588
309.0519, 818.7727
309.5341, 819.7603
310.0162, 818.8204
310.4983, 816.9756
310.9804, 814.2498
311.4625, 808.8895
311.9446, 799.7672
312.4268, 787.8698
312.9089, 774.5540
313.3910, 759.8480
313.8731, 743.7834
314.3552, 725.3726
314.8373, 705.3900
315.3195, 686.0908
315.8016, 667.8079
316.2837, 650.4422
316.7658, 633.8892
317.2479, 618.1387
317.7300, 603.4788
318.2122, 589.7737
318.6943, 577.4560
319.1764, 567.3412
319.6585, 560.1229
320.1406, 554.3393
320.6227, 548.7244
321.1049, 543.4474
321.5870, 539.7825
322.0691, 538.7186
322.5512, 539.3400
323.0333, 539.7343
323.5154, 539.7267
323.9976, 540.0386
324.4797, 541.8280
324.9618, 544.3424
325.4439, 545.4430
325.9260, 544.7982
326.4081, 542.0140
326.8903, 536.3626
327.3724, 528.0787
327.8545, 518.0427
328.3366, 506.0342
328.8187, 492.6565
329.3008, 478.4932
329.7830, 463.3796
330.2651, 448.5714
330.7472, 435.3952
331.2293, 423.6415
331.7114, 412.2978
332.1935, 401.3471
332.6757, 390.6246
333.1578, 379.5382
333.6399, 368.0537
334.1220, 357.7778
334.6041, 349.9706
335.0862, 344.2780
335.5684, 338.8368
336.0505, 333.2581
336.5326, 328.2703
337.0147, 324.5302
337.4968, 321.8465
337.9789, 319.2776
338.4611, 316.2184
338.9432, 313.2496
339.4253, 311.6650
339.9074, 311.8875
340.3895, 312.1873
340.8716, 311.5727
341.3538, 310.6011
341.8359, 310.5083
342.3180, 311.7654
342.8001, 313.5349
343.2822, 314.5796
343.7643, 314.8170
344.2465, 315.3381
344.7286, 316.7951
345.2107, 318.4076
345.6928, 319.4466
346.1749, 319.8066
346.6570, 319.3864
347.1392, 318.0360
347.6213, 315.6543
348.1034, 312.8966
348.5855, 310.0414
349.0676, 306.5642
349.5497, 301.6888
350.0319, 295.6961
350.5140, 289.9082
350.9961, 285.0587
351.4782, 281.0332
351.9603, 277.3018
352.4424, 274.3586
352.9246, 271.0581
353.4067, 266.4476
353.8888, 261.3126
354.3709, 257.0392
354.8530, 254.1474
355.3351, 252.3750
355.8173, 251.3942
356.2994, 251.8494
356.7815, 251.5748
357.2636, 249.5838
357.7457, 247.2269
358.2278, 245.8633
358.7100, 245.7068
359.1921, 246.0004
359.6742, 245.8833
360.1563, 245.1838
360.6384, 245.2584
361.1205, 246.7878
361.6027, 248.3878
362.0848, 249.1937
362.5669, 249.3812
363.0490, 249.6806
363.5311, 250.5910
364.0132, 252.0425
364.4954, 253.4748
364.9775, 254.7117
365.4596, 256.1303
365.9417, 257.9748
366.4238, 259.9901
366.9059, 261.8532
367.3881, 263.4400
367.8702, 264.7842
368.3523, 265.9133
368.8344, 266.1367
369.3165, 267.3392
369.7986, 270.2783
370.2808, 273.5869
370.7629, 276.1471
371.2450, 277.8846
371.7271, 279.5750
372.2092, 282.0496
372.6913, 285.4409
373.1735, 288.8858
373.6556, 292.0176
374.1377, 295.5549
374.6198, 299.8341
375.1019, 304.7285
375.5840, 309.8822
376.0662, 315.0761
376.5483, 320.3494
377.0304, 325.8047
377.5125, 331.7106
377.9946, 337.3920
378.4767, 342.8132
378.9589, 347.9079
379.4410, 352.8984
379.9231, 357.8036
380.4052, 361.8331
380.8873, 363.8144
381.3694, 363.6036
381.8516, 361.7067
382.3337, 357.5618
382.8158, 352.2236
383.2979, 346.0731
383.7800, 339.1685
384.2621, 331.4409
384.7443, 322.5917
385.2264, 312.7543
385.7085, 303.0868
386.1906, 293.2470
386.6727, 284.1350
387.1548, 276.0517
387.6370, 268.8382
388.1191, 262.3596
388.6012, 256.5765
389.0833, 251.3761
389.5654, 246.5599
390.0475, 242.0798
390.5297, 238.2128
391.0118, 235.3124
391.4939, 232.9221
391.9760, 230.6972
392.4581, 228.5870
392.9402, 226.8393
393.4224, 225.7968
393.9045, 225.3542
394.3866, 224.8385
394.8687, 224.0413
395.3508, 223.3584
395.8329, 223.1789
396.3151, 223.3773
396.7972, 223.5637
397.2793, 223.3965
397.7614, 223.2242
398.2435, 223.6578
398.7256, 224.7465
399.2078, 225.7846
399.6899, 226.2866
400.1720, 226.4999
400.6541, 226.9427
401.1362, 227.5714
401.6183, 228.5503
402.1004, 230.1826
402.5826, 232.2514
403.0647, 234.1407
403.5468, 235.6207
404.0289, 236.9610
404.5110, 238.6430
404.9931, 240.7292
405.4753, 242.4501
405.9574, 243.4276
406.4395, 244.1173
406.9216, 244.9969
407.4037, 246.0865
407.8858, 247.0608
408.3680, 247.7092
408.8501, 248.0122
409.3322, 247.8660
409.8143, 247.3428
410.2964, 246.3747
410.7785, 244.7336
411.2607, 242.6699
411.7428, 240.6040
412.2249, 238.7226
412.7070, 236.8677
413.1891, 234.7005
413.6712, 231.7083
414.1534, 229.3825
414.6355, 228.5092
415.1176, 227.6971
415.5997, 225.8219
416.0818, 222.9092
416.5639, 219.7709
417.0461, 217.0826
417.5282, 214.8462
418.0103, 213.1253
418.4924, 212.3822
418.9745, 211.6760
419.4566, 210.8814
419.9388, 209.9752
420.4209, 208.8428
420.9030, 207.4326
421.3851, 206.0437
421.8672, 205.3822
422.3493, 205.8298
422.8315, 206.0232
423.3136, 205.7421
423.7957, 205.2523
424.2778, 204.6380
424.7599, 203.9425
425.2420, 203.2594
425.7242, 202.6936
426.2063, 202.2237
426.6884, 201.6400
427.1705, 200.7999
427.6526, 200.0928
428.1347, 199.7579
428.6169, 199.6226
429.0990, 199.4585
429.5811, 199.2078
430.0632, 198.8542
430.5453, 198.2479
431.0274, 197.3767
431.5096, 196.8807
431.9917, 197.1473
432.4738, 197.6703
432.9559, 197.9371
433.4380, 197.9492
433.9201, 197.8066
434.4023, 197.4970
434.8844, 197.0808
435.3665, 196.5918
435.8486, 196.0024
436.3307, 195.6250
436.8128, 195.7892
437.2950, 196.3707
437.7771, 196.7840
438.2592, 197.1367
438.7413, 197.1851
439.2234, 196.5112
439.7055, 195.4308
440.1877, 194.7386
440.6698, 194.7491
441.1519, 195.1403
441.6340, 195.4099
442.1161, 195.5200
442.5982, 195.6094
443.0804, 195.6281
443.5625, 195.6710
444.0446, 195.7267
444.5267, 195.8498
445.0088, 196.2572
445.4909, 197.1699
445.9731, 198.5018
446.4552, 199.4207
446.9373, 199.5016
447.4194, 199.6835
447.9015, 200.0343
448.3836, 200.5852
448.8658, 201.4342
449.3479, 202.5822
449.8300, 203.8131
450.3121, 204.7571
450.7942, 205.2485
451.2763, 206.0776
451.7585, 207.6928
452.2406, 209.2316
452.7227, 210.1343
453.2048, 210.6928
453.6869, 211.6374
454.1690, 213.5135
454.6512, 215.8889
455.1333, 217.6313
455.6154, 218.5143
456.0975, 219.4324
456.5796, 220.5415
457.0617, 221.8811
457.5439, 223.5940
458.0260, 225.6856
458.5081, 227.8393
458.9902, 229.7738
459.4723, 231.5594
459.9544, 233.4512
460.4366, 235.4611
460.9187, 237.6305
461.4008, 240.1369
461.8829, 242.8352
462.3650, 245.3433
462.8471, 247.3488
463.3293, 249.4228
463.8114, 251.8864
464.2935, 254.7589
464.7756, 258.2598
465.2577, 262.6394
465.7398, 267.2386
466.2220, 270.8054
466.7041, 273.0992
467.1862, 275.4947
467.6683, 278.0796
468.1504, 280.8709
468.6325, 283.8983
469.1147, 287.1528
469.5968, 290.5204
470.0789, 293.9179
470.5610, 297.3904
471.0431, 301.1880
471.5252, 305.6167
472.0074, 310.0316
472.4895, 313.9081
472.9716, 317.9889
473.4537, 322.9909
473.9358, 329.0642
474.4179, 335.9161
474.9001, 343.2759
475.3822, 351.1738
475.8643, 358.9799
476.3464, 366.3976
476.8285, 374.0229
477.3106, 382.2335
477.7928, 390.7311
478.2749, 398.8935
478.7570, 406.3089
479.2391, 413.8016
479.7212, 422.5897
480.2033, 432.7397
480.6855, 443.8773
481.1676, 456.0736
481.6497, 469.3411
482.1318, 483.8240
482.6139, 499.4532
483.0960, 515.2881
483.5782, 529.9461
484.0603, 544.9739
484.5424, 563.2617
485.0245, 584.9329
485.5066, 607.6469
485.9887, 629.8111
486.4709, 652.4438
486.9530, 677.7786
487.4351, 706.5768
487.9172, 736.1813
488.3993, 766.7119
488.8814, 797.2419
489.3636, 827.1014
489.8457, 856.0355
490.3278, 882.1672
490.8099, 904.3754
491.2920, 922.7179
491.7741, 932.8342
492.2563, 936.8054
492.7384, 931.7881
493.2205, 914.3820
493.7026, 888.3039
494.1847, 857.5285
494.6668, 823.8184
495.1490, 788.5892
495.6311, 753.2377
496.1132, 716.5663
496.5953, 684.0731
497.0774, 655.9942
497.5595, 631.8544
498.0417, 612.0427
498.5238, 596.0803
499.0059, 583.1596
499.4880, 572.9692
499.9701, 565.1944
500.4522, 559.3544
500.9344, 555.5107
501.4165, 553.0632
501.8986, 551.6288
502.3807, 551.8938
502.8628, 554.7814
503.3449, 560.1922
503.8271, 565.9741
504.3092, 570.7570
504.7913, 575.4446
505.2734, 581.2773
505.7555, 588.3255
506.2376, 596.6824
506.7198, 606.9582
507.2019, 618.3426
507.6840, 628.2267
508.1661, 636.1132
508.6482, 643.6899
509.1303, 651.5959
509.6125, 659.3311
510.0946, 666.4437
510.5767, 672.7905
511.0588, 678.2097
511.5409, 682.6735
512.0230, 686.1735
512.5051, 687.3475
512.9872, 685.5767
513.4694, 682.1674
513.9515, 677.5701
514.4336, 671.3516
514.9157, 662.9727
515.3978, 652.2736
515.8799, 639.6403
516.3621, 625.1531
516.8442, 608.6904
517.3263, 592.0498
517.8084, 575.5379
518.2905, 558.1732
518.7726, 539.0297
519.2548, 518.9435
519.7369, 499.2488
520.2190, 480.1774
520.7011, 461.9474
521.1832, 444.7382
521.6653, 428.5435
522.1475, 413.4072
522.6296, 399.5589
523.1117, 386.3559
523.5938, 372.9573
524.0759, 359.5114
524.5580, 347.3556
525.0402, 337.4966
525.5223, 328.3100
526.0044, 318.4672
526.4865, 308.3361
526.9686, 298.8875
527.4507, 290.5750
527.9329, 283.2625
528.4150, 276.7545
528.8971, 271.3233
529.3792, 266.2182
529.8613, 261.4316
530.3434, 256.9802
530.8256, 253.0762
531.3077, 249.5004
531.7898, 245.6740
532.2719, 241.2036
532.7540, 236.4971
533.2361, 232.6978
533.7183, 230.1428
534.2004, 227.4929
534.6825, 224.2231
535.1646, 221.0313
535.6467, 218.3487
536.1288, 216.1385
536.6110, 214.1600
537.0931, 212.4839
537.5752, 210.8499
538.0573, 208.5888
538.5394, 205.6463
539.0215, 203.2115
539.5037, 201.9581
539.9858, 201.3279
540.4679, 200.4074
540.9500, 199.1770
541.4321, 197.8171
541.9142, 196.1870
542.3964, 194.5774
542.8785, 193.2760
543.3606, 192.2876
543.8427, 191.5041
544.3248, 190.8975
544.8069, 190.3835
545.2891, 189.6459
545.7712, 188.3798
546.2533, 187.3060
546.7354, 186.4880
547.2175, 185.8375
547.6996, 185.5023
548.1818, 185.3268
548.6639, 184.7462
549.1460, 183.1663
549.6281, 180.9497
550.1102, 179.7301
550.5923, 179.9012
551.0745, 180.0328
551.5566, 179.5202
552.0387, 178.9019
552.5208, 178.6569
553.0029, 178.8126
553.4850, 178.9115
553.9672, 178.6594
554.4493, 178.1892
554.9314, 177.6072
555.4135, 176.9183
555.8956, 176.6419
556.3777, 177.2232
556.8599, 178.2861
557.3420, 178.7586
557.8241, 178.3560
558.3062, 178.1564
558.7883, 178.4903
559.2704, 179.0287
559.7526, 179.5555
560.2347, 180.0051
560.7168, 180.3162
561.1989, 180.4405
561.6810, 180.3906
562.1631, 180.1558
562.6453, 179.0750
563.1274, 178.9920
563.6095, 180.7521
564.0916, 182.9348
564.5737, 184.6100
565.0558, 185.7110
565.5380, 186.6168
566.0201, 187.6004
566.5022, 188.5821
566.9843, 189.1441
567.4664, 189.1133
567.9485, 189.8723
568.4307, 192.4193
568.9128, 195.6346
569.3949, 197.8836
569.8770, 199.0861
570.3591, 200.4907
570.8412, 202.5240
571.3234, 204.9627
571.8055, 207.7374
572.2876, 210.7469
572.7697, 213.4955
573.2518, 215.6046
573.7339, 217.5646
574.2161, 220.6415
574.6982, 226.0115
575.1803, 230.4738
575.6624, 233.4443
576.1445, 236.0563
576.6266, 238.6755
577.1088, 241.5231
577.5909, 244.9831
578.0730, 249.3420
578.5551, 254.2063
579.0372, 258.7311
579.5193, 262.8679
580.0015, 266.8720
580.4836, 270.5580
580.9657, 274.3568
581.4478, 278.6166
581.9299, 283.2763
582.4120, 288.0589
582.8942, 292.9330
583.3763, 297.8421
583.8584, 302.6657
584.3405, 307.4431
584.8226, 312.4354
585.3047, 317.7837
585.7869, 323.1221
586.2690, 327.9240
586.7511, 332.0941
587.2332, 336.1128
587.7153, 340.3805
588.1974, 344.1024
588.6796, 346.9957
589.1617, 349.1202
589.6438, 350.6987
590.1259, 351.7883
590.6080, 352.0909
591.0901, 351.1552
591.5723, 348.9415
592.0544, 345.8190
592.5365, 341.5854
593.0186, 336.7213
593.5007, 331.4899
593.9828, 325.8487
594.4650, 319.6581
594.9471, 312.8985
595.4292, 305.6718
595.9113, 297.6380
596.3934, 289.3028
596.8755, 282.1587
597.3577, 276.4816
597.8398, 270.8390
598.3219, 264.0170
598.8040, 256.2856
599.2861, 249.4263
599.7682, 243.9357
600.2504, 238.5205
600.7325, 232.6820
601.2146, 227.0045
601.6967, 222.1062
602.1788, 217.9710
602.6609, 214.0826
603.1431, 210.0449
603.6252, 205.9375
604.1073, 202.1871
604.5894, 198.7468
605.0715, 195.7783
605.5536, 193.6915
606.0358, 191.8166
606.5179, 189.6280
607.0000, 187.1611
607.4821, 184.8496
607.9642, 182.9413
608.4464, 181.2800
608.9285, 179.8058
609.4106, 178.4586
609.8927, 176.8767
610.3748, 174.8530
610.8569, 172.7715
611.3391, 171.2143
611.8212, 170.3488
612.3033, 169.4092
612.7854, 168.1581
613.2675, 167.0891
613.7496, 166.6808
614.2318, 166.5226
614.7139, 165.7817
615.1960, 164.1923
615.6781, 162.6010
616.1602, 162.5006
616.6423, 164.0115
617.1245, 164.0483
617.6066, 161.5956
618.0887, 159.3670
618.5708, 158.9181
619.0529, 159.4166
619.5350, 159.8452
620.0172, 160.1097
620.4993, 160.0447
620.9814, 159.4204
621.4635, 158.4643
621.9456, 157.4617
622.4277, 156.4629
622.9099, 155.5260
623.3920, 154.6395
623.8741, 153.9111
624.3562, 153.7395
624.8383, 154.7107
625.3204, 155.3996
625.8026, 155.7152
626.2847, 155.8301
626.7668, 155.8244
627.2489, 155.7148
627.7310, 155.4776
628.2131, 155.0659
628.6953, 154.6247
629.1774, 154.4115
629.6595, 154.4330
630.1416, 154.5794
630.6237, 155.0073
631.1058, 155.2667
631.5880, 154.8857
632.0701, 154.0075
632.5522, 153.0115
633.0343, 151.5767
633.5164, 150.4842
633.9985, 150.2154
634.4807, 150.5014
634.9628, 151.1147
635.4449, 151.9293
635.9270, 152.4956
636.4091, 152.3699
636.8912, 151.6152
637.3734, 150.8966
637.8555, 150.2486
638.3376, 149.5814
638.8197, 148.6502
639.3018, 147.8673
639.7839, 147.5842
640.2661, 147.7851
640.7482, 148.1930
641.2303, 148.8639
641.7124, 149.4765
642.1945, 149.4110
642.6766, 148.7242
643.1588, 148.0376
643.6409, 147.4950
644.1230, 147.1759
644.6051, 147.2502
645.0872, 147.7891
645.5693, 148.1150
646.0515, 148.1361
646.5336, 148.0506
647.0157, 147.6375
647.4978, 147.2952
647.9799, 147.7498
648.4620, 149.0722
648.9442, 150.3429
649.4263, 150.4840
649.9084, 149.6596
650.3905, 149.4223
650.8726, 149.8686
651.3547, 150.6554
651.8369, 151.9841
652.3190, 153.3881
652.8011, 154.2912
653.2832, 154.6702
653.7653, 155.2269
654.2474, 156.5810
654.7296, 157.9525
655.2117, 158.3557
655.6938, 158.1162
656.1759, 158.3466
656.6580, 159.4897
657.1401, 161.0686
657.6223, 162.3552
658.1044, 163.2100
658.5865, 164.6100
659.0686, 167.0941
659.5507, 169.5351
660.0328, 171.7296
660.5150, 173.6852
660.9971, 175.3222
661.4792, 176.6403
661.9613, 178.0368
662.4434, 179.8833
662.9255, 182.0106
663.4077, 183.9680
663.8898, 185.7393
664.3719, 187.6944
664.8540, 190.0591
665.3361, 192.6045
665.8182, 194.9402
666.3004, 197.0113
666.7825, 199.0571
667.2646, 200.9274
667.7467, 202.9462
668.2288, 205.5261
668.7109, 208.2843
669.1931, 210.5480
669.6752, 212.1244
670.1573, 213.4951
670.6394, 215.4777
671.1215, 217.9591
671.6036, 219.2466
672.0858, 219.0573
672.5679, 218.5441
673.0500, 218.4349
673.5321, 218.1257
674.0142, 216.6863
674.4963, 213.9730
674.9785, 211.1369
