##NAMES=Laurite
##RRUFFID=R060309
##IDEAL CHEMISTRY=Ru^2+^(S_2_)^2-^
##LOCALITY=Verkhneivinsk, Ural Mountains, Russia
##OWNER=RRUFF
##SOURCE=Michael Scott
##DESCRIPTION=Black colored metallic single crystal in the shape of a distorted pyritohedron
##STATUS=The identification of this mineral has been confirmed by single-crystal X-ray diffraction.
##URL=rruff.info/R060309
101.761, 204.599
102.243, 204.877
102.725, 202.264
103.207, 194.609
103.690, 186.441
104.172, 184.555
104.654, 190.891
105.136, 196.976
105.618, 199.802
106.100, 200.301
106.582, 198.898
107.064, 194.964
107.547, 189.924
108.029, 187.893
108.511, 191.488
108.993, 193.735
109.475, 190.320
109.957, 184.576
110.439, 181.850
110.921, 186.815
111.404, 197.766
111.886, 201.133
112.368, 184.688
112.850, 173.427
113.332, 176.867
113.814, 190.797
114.296, 206.326
114.778, 217.151
115.260, 223.245
115.743, 224.847
116.225, 216.107
116.707, 208.245
117.189, 205.740
117.671, 207.952
118.153, 211.435
118.635, 212.698
119.117, 210.759
119.600, 210.909
120.082, 215.125
120.564, 219.357
121.046, 221.501
121.528, 221.326
122.010, 219.671
122.492, 217.171
122.974, 212.283
123.456, 211.491
123.938, 215.392
124.421, 222.557
124.903, 233.172
125.385, 246.982
125.867, 261.296
126.349, 272.388
126.831, 278.109
127.313, 285.060
127.796, 293.342
128.278, 302.982
128.760, 313.820
129.242, 325.892
129.724, 339.474
130.206, 355.815
130.688, 376.606
131.170, 395.018
131.652, 409.195
132.135, 420.313
132.617, 429.630
133.099, 436.939
133.581, 444.169
134.063, 440.255
134.545, 446.415
135.027, 450.129
135.509, 451.530
135.991, 443.685
136.474, 447.779
136.956, 447.088
137.438, 446.201
137.920, 451.975
138.402, 445.475
138.884, 451.143
139.366, 451.954
139.848, 454.988
140.331, 453.208
140.813, 452.915
141.295, 457.437
141.777, 459.293
142.259, 454.512
142.741, 466.952
143.223, 475.277
143.705, 479.726
144.187, 489.232
144.669, 511.434
145.152, 537.985
145.634, 559.036
146.116, 571.967
146.598, 582.971
147.080, 598.657
147.562, 619.474
148.044, 639.921
148.527, 657.084
149.009, 673.372
149.491, 691.772
149.973, 714.014
150.455, 735.321
150.937, 748.479
151.419, 751.560
151.901, 754.466
152.383, 762.635
152.865, 771.330
153.348, 776.351
153.830, 776.149
154.312, 772.447
154.794, 767.187
155.276, 758.875
155.758, 753.244
156.240, 754.323
156.722, 757.606
157.205, 759.056
157.687, 757.151
158.169, 752.636
158.651, 746.214
159.133, 735.008
159.615, 728.013
160.097, 726.547
160.579, 729.973
161.061, 739.413
161.544, 756.439
162.026, 776.193
162.508, 785.461
162.990, 777.588
163.472, 769.958
163.954, 765.653
164.436, 763.773
164.918, 763.690
165.400, 765.238
165.883, 767.815
166.365, 769.288
166.847, 766.553
167.329, 767.638
167.811, 776.141
168.293, 788.059
168.775, 799.854
169.258, 810.040
169.740, 817.521
170.222, 818.036
170.704, 803.804
171.186, 792.609
171.668, 786.769
172.150, 785.409
172.632, 788.010
173.114, 794.545
173.596, 803.774
174.079, 810.977
174.561, 815.712
175.043, 818.595
175.525, 821.843
176.007, 822.808
176.489, 816.525
176.971, 799.909
177.454, 777.125
177.936, 765.036
178.418, 775.672
178.900, 783.953
179.382, 785.052
179.864, 782.761
180.346, 783.065
180.828, 789.332
181.310, 798.602
181.792, 799.098
182.275, 780.401
182.757, 763.624
183.239, 747.385
183.721, 735.029
184.203, 732.376
184.685, 742.768
185.167, 761.771
185.649, 772.826
186.132, 768.314
186.614, 763.581
187.096, 758.098
187.578, 753.610
188.060, 752.041
188.542, 754.317
189.024, 760.163
189.506, 768.723
189.988, 787.860
190.471, 800.641
190.953, 803.911
191.435, 800.649
191.917, 793.259
192.399, 782.713
192.881, 770.894
193.363, 763.347
193.845, 765.120
194.327, 765.531
194.810, 760.926
195.292, 755.635
195.774, 756.068
196.256, 765.053
196.738, 778.182
197.220, 784.479
197.702, 772.121
198.184, 766.707
198.667, 774.460
199.149, 787.525
199.631, 798.205
200.113, 803.531
200.595, 803.906
201.077, 800.193
201.559, 782.386
202.041, 772.950
202.523, 778.489
203.006, 789.459
203.488, 796.508
203.970, 796.461
204.452, 791.301
204.934, 784.591
205.416, 772.469
205.898, 764.654
206.380, 763.025
206.863, 764.636
207.345, 767.223
207.827, 770.028
208.309, 772.847
208.791, 775.333
209.273, 777.070
209.755, 779.213
210.237, 782.983
210.719, 786.433
211.202, 788.045
211.684, 787.443
212.166, 784.880
212.648, 780.350
213.130, 771.496
213.612, 766.516
214.094, 767.608
214.576, 770.773
215.059, 773.425
215.541, 775.044
216.023, 776.250
216.505, 777.839
216.987, 780.148
217.469, 781.677
217.951, 784.435
218.433, 785.060
218.915, 778.802
219.398, 766.832
219.880, 757.145
220.362, 759.574
220.844, 779.716
221.326, 782.596
221.808, 747.898
222.290, 717.078
222.772, 716.763
223.255, 742.645
223.737, 770.499
224.219, 778.417
224.701, 763.729
225.183, 757.912
225.665, 769.027
226.147, 779.586
226.629, 781.090
227.111, 775.867
227.594, 771.839
228.076, 775.612
228.558, 786.859
229.040, 789.971
229.522, 766.777
230.004, 754.963
230.486, 749.003
230.968, 738.993
231.451, 752.459
231.933, 760.227
232.415, 762.602
232.897, 743.433
233.379, 752.084
233.861, 749.586
234.343, 746.631
234.825, 759.197
235.307, 753.509
235.790, 752.587
236.272, 757.919
236.754, 761.284
237.236, 761.868
237.718, 761.206
238.200, 758.417
238.682, 754.903
239.164, 751.488
239.646, 748.560
240.129, 747.223
240.611, 750.594
241.093, 765.392
241.575, 773.570
242.057, 771.174
242.539, 764.435
243.021, 757.373
243.503, 751.445
243.986, 746.913
244.468, 744.346
244.950, 744.416
245.432, 744.998
245.914, 746.715
246.396, 748.367
246.878, 749.284
247.360, 749.349
247.842, 748.741
248.325, 746.156
248.807, 738.971
249.289, 741.051
249.771, 766.801
250.253, 789.402
250.735, 794.814
251.217, 785.248
251.699, 772.499
252.182, 766.639
252.664, 767.816
253.146, 769.500
253.628, 773.430
254.110, 775.960
254.592, 774.769
255.074, 771.185
255.556, 768.025
256.039, 767.031
256.521, 768.001
257.003, 770.262
257.485, 776.240
257.967, 779.687
258.449, 775.382
258.931, 768.353
259.413, 766.172
259.895, 773.667
260.378, 786.234
260.860, 792.923
261.342, 791.178
261.824, 789.847
262.306, 790.363
262.788, 793.315
263.270, 801.148
263.752, 815.943
264.234, 829.962
264.717, 831.253
265.199, 817.624
265.681, 805.399
266.163, 797.252
266.645, 793.801
267.127, 797.982
267.609, 810.729
268.091, 822.330
268.573, 821.742
269.056, 810.184
269.538, 804.323
270.020, 811.076
270.502, 820.499
270.984, 822.605
271.466, 817.859
271.948, 814.430
272.430, 818.417
272.913, 827.297
273.395, 833.122
273.877, 833.562
274.359, 834.164
274.841, 842.001
275.323, 854.757
275.805, 863.475
276.287, 864.831
276.770, 860.811
277.252, 851.209
277.734, 835.101
278.216, 823.776
278.698, 828.181
279.180, 844.329
279.662, 857.264
280.144, 866.116
280.626, 870.919
281.108, 868.184
281.591, 859.572
282.073, 856.199
282.555, 866.102
283.037, 883.884
283.519, 892.594
284.001, 887.650
284.483, 881.475
284.966, 876.938
285.448, 874.793
285.930, 878.008
286.412, 888.732
286.894, 901.712
287.376, 906.292
287.858, 899.261
288.340, 892.114
288.822, 884.486
289.305, 878.321
289.787, 877.738
290.269, 883.195
290.751, 887.554
291.233, 881.171
291.715, 858.537
292.197, 845.592
292.679, 847.987
293.161, 854.582
293.644, 860.469
294.126, 864.509
294.608, 865.799
295.090, 862.991
295.572, 856.003
296.054, 853.008
296.536, 859.001
297.018, 863.358
297.500, 862.996
297.983, 858.899
298.465, 852.127
298.947, 842.797
299.429, 833.053
299.911, 830.719
300.393, 842.935
300.875, 852.621
301.357, 859.376
301.840, 862.096
302.322, 857.938
302.804, 846.361
303.286, 833.073
303.768, 827.643
304.250, 833.201
304.732, 836.648
305.214, 833.540
305.696, 830.731
306.179, 833.544
306.661, 841.346
307.143, 847.988
307.625, 846.013
308.107, 835.781
308.589, 831.283
309.071, 835.785
309.553, 842.291
310.035, 847.410
310.518, 851.644
311.000, 854.661
311.482, 842.826
311.964, 836.861
312.446, 826.217
312.928, 841.098
313.410, 849.782
313.892, 852.604
314.375, 832.003
314.857, 841.648
315.339, 839.171
315.821, 836.198
316.303, 850.100
316.785, 844.155
317.267, 851.711
317.749, 859.261
318.232, 865.155
318.714, 866.251
319.196, 861.606
319.678, 858.107
320.160, 858.498
320.642, 861.701
321.124, 866.479
321.606, 872.740
322.088, 878.969
322.570, 882.798
323.053, 883.787
323.535, 888.619
324.017, 899.048
324.499, 912.288
324.981, 927.419
325.463, 943.820
325.945, 959.716
326.427, 973.990
326.910, 986.704
327.392, 998.741
327.874, 1007.490
328.356, 1018.621
328.838, 1036.106
329.320, 1056.200
329.802, 1072.274
330.284, 1081.659
330.767, 1088.960
331.249, 1103.977
331.731, 1131.766
332.213, 1159.335
332.695, 1180.924
333.177, 1206.118
333.659, 1241.794
334.141, 1288.718
334.623, 1342.283
335.106, 1397.750
335.588, 1455.052
336.070, 1517.227
336.552, 1575.618
337.034, 1649.068
337.516, 1731.887
337.998, 1835.119
338.480, 1984.546
338.962, 2209.998
339.445, 2474.090
339.927, 2654.066
340.409, 2677.844
340.891, 2816.600
341.373, 3338.173
341.855, 3940.415
342.337, 4316.932
342.819, 4366.771
343.302, 4356.999
343.784, 4505.186
344.266, 4804.402
344.748, 5214.676
345.230, 5775.040
345.712, 6380.234
346.194, 6903.378
346.676, 7348.572
347.159, 7826.318
347.641, 8398.538
348.123, 9012.067
348.605, 9600.494
349.087, 10156.480
349.569, 10689.590
350.051, 11214.790
350.533, 11721.510
351.015, 12163.520
351.497, 12552.670
351.980, 12867.690
352.462, 13114.160
352.944, 13278.570
353.426, 13341.010
353.908, 13296.500
354.390, 13125.300
354.872, 12781.660
355.354, 12208.730
355.837, 11515.750
356.319, 10644.260
356.801, 9689.861
357.283, 8684.427
357.765, 7661.453
358.247, 6678.325
358.729, 5804.834
359.211, 5042.799
359.694, 4377.398
360.176, 3823.165
360.658, 3352.022
361.140, 2974.555
361.622, 2675.386
362.104, 2433.039
362.586, 2238.973
363.068, 2087.243
363.550, 1966.246
364.033, 1885.664
364.515, 1811.174
364.997, 1729.471
365.479, 1652.904
365.961, 1592.456
366.443, 1550.335
366.925, 1515.230
367.407, 1478.116
367.889, 1439.712
368.372, 1402.835
368.854, 1366.716
369.336, 1334.402
369.818, 1310.527
370.300, 1293.056
370.782, 1275.396
371.264, 1250.653
371.746, 1228.129
372.228, 1218.379
372.711, 1220.859
373.193, 1227.587
373.675, 1235.720
374.157, 1244.077
374.639, 1248.501
375.121, 1248.454
375.603, 1246.093
376.086, 1236.443
376.568, 1226.895
377.050, 1228.733
377.532, 1244.627
378.014, 1266.012
378.496, 1281.950
378.978, 1290.202
379.460, 1301.365
379.942, 1319.958
380.424, 1336.650
380.907, 1347.741
381.389, 1353.338
381.871, 1354.928
382.353, 1353.424
382.835, 1348.634
383.317, 1339.770
383.799, 1326.455
384.281, 1309.492
384.763, 1282.949
385.246, 1256.989
385.728, 1242.101
386.210, 1240.422
386.692, 1242.140
387.174, 1236.274
387.656, 1223.596
388.138, 1215.193
388.621, 1212.507
389.103, 1214.153
389.585, 1222.264
390.067, 1234.189
390.549, 1241.270
391.031, 1234.781
391.513, 1225.650
391.995, 1229.091
392.477, 1243.872
392.960, 1252.751
393.442, 1245.307
393.924, 1228.228
394.406, 1219.130
394.888, 1220.342
395.370, 1222.955
395.852, 1225.553
396.334, 1227.946
396.816, 1231.070
397.299, 1234.719
397.781, 1235.216
398.263, 1227.632
398.745, 1210.031
399.227, 1199.018
399.709, 1201.312
400.191, 1202.268
400.673, 1195.211
401.155, 1183.502
401.638, 1174.387
402.120, 1171.792
402.602, 1171.001
403.084, 1159.971
403.566, 1133.117
404.048, 1110.957
404.530, 1098.501
405.013, 1090.287
405.495, 1084.709
405.977, 1080.987
406.459, 1076.305
406.941, 1069.270
407.423, 1059.714
407.905, 1046.366
408.387, 1028.064
408.869, 1009.524
409.352, 993.675
409.834, 979.626
410.316, 965.858
410.798, 953.934
411.280, 939.652
411.762, 915.822
412.244, 887.565
412.726, 869.501
413.208, 867.248
413.691, 870.949
414.173, 866.756
414.655, 851.558
415.137, 837.393
415.619, 825.785
416.101, 813.935
416.583, 797.696
417.065, 779.460
417.547, 766.058
418.030, 762.205
418.512, 766.299
418.994, 772.061
419.476, 782.933
419.958, 789.675
420.440, 791.595
420.922, 789.172
421.404, 780.936
421.887, 767.417
422.369, 754.029
422.851, 744.437
423.333, 738.914
423.815, 742.017
424.297, 759.592
424.779, 775.205
425.261, 777.255
425.743, 770.719
426.226, 763.852
426.708, 757.575
427.190, 753.130
427.672, 752.168
428.154, 754.101
428.636, 759.237
429.118, 770.720
429.600, 776.582
430.082, 752.757
430.565, 736.765
431.047, 756.322
431.529, 767.250
432.011, 770.012
432.493, 740.151
432.975, 752.416
433.457, 747.799
433.940, 751.540
434.422, 769.238
434.904, 781.579
435.386, 787.204
435.868, 789.022
436.350, 785.227
436.832, 779.609
437.314, 773.824
437.796, 768.801
438.279, 767.184
438.761, 774.220
439.243, 788.364
439.725, 795.079
440.207, 790.381
440.689, 785.986
441.171, 791.437
441.653, 800.964
442.135, 805.435
442.618, 801.938
443.100, 794.754
443.582, 783.872
444.064, 771.640
444.546, 765.965
445.028, 769.857
445.510, 776.573
445.992, 777.737
446.474, 771.841
446.957, 767.154
447.439, 761.769
447.921, 759.328
448.403, 763.137
448.885, 771.365
449.367, 781.318
449.849, 791.918
450.331, 800.011
450.814, 795.993
451.296, 770.791
451.778, 753.740
452.260, 753.655
452.742, 756.656
453.224, 754.550
453.706, 747.563
454.188, 740.892
454.671, 738.956
455.153, 739.594
455.635, 736.627
456.117, 729.263
456.599, 722.723
457.081, 719.231
457.563, 718.215
458.045, 719.401
458.527, 725.128
459.009, 725.743
459.492, 710.165
459.974, 690.181
460.456, 684.754
460.938, 695.751
461.420, 707.772
461.902, 707.106
462.384, 694.380
462.866, 688.227
463.349, 694.278
463.831, 699.773
464.313, 702.322
464.795, 702.914
465.277, 701.918
465.759, 699.748
466.241, 698.647
466.723, 702.833
467.206, 712.961
467.688, 718.134
468.170, 717.349
468.652, 712.517
469.134, 699.711
469.616, 684.749
470.098, 679.547
470.580, 692.330
471.062, 707.405
471.544, 709.424
472.027, 701.169
472.509, 692.928
472.991, 687.038
473.473, 683.466
473.955, 682.727
474.437, 685.560
474.919, 686.867
475.401, 686.455
475.884, 684.658
476.366, 680.917
476.848, 676.002
477.330, 671.496
477.812, 668.163
478.294, 665.177
478.776, 660.151
479.258, 650.622
479.741, 646.087
480.223, 651.971
480.705, 658.765
481.187, 663.390
481.669, 665.264
482.151, 663.506
482.633, 655.027
483.115, 645.301
483.597, 643.756
484.080, 650.303
484.562, 658.076
485.044, 666.043
485.526, 672.440
486.008, 672.688
486.490, 665.520
486.972, 663.095
487.454, 671.812
487.936, 682.927
488.419, 691.172
488.901, 695.600
489.383, 695.190
489.865, 689.033
490.347, 678.646
490.829, 668.034
491.311, 652.984
491.793, 645.970
492.276, 653.812
492.758, 664.030
493.240, 668.698
493.722, 668.016
494.204, 666.747
494.686, 667.762
495.168, 670.477
495.650, 674.075
496.133, 678.787
496.615, 682.148
497.097, 682.714
497.579, 681.782
498.061, 681.942
498.543, 683.899
499.025, 683.237
499.507, 675.042
499.989, 666.194
500.471, 662.874
500.954, 665.288
501.436, 672.015
501.918, 682.914
502.400, 695.825
502.882, 702.692
503.364, 700.767
503.846, 697.154
504.328, 689.003
504.811, 682.150
505.293, 681.586
505.775, 686.618
506.257, 692.170
506.739, 694.961
507.221, 695.739
507.703, 696.766
508.185, 698.366
508.668, 697.000
509.150, 688.652
509.632, 678.941
510.114, 677.961
510.596, 687.808
511.078, 693.818
511.560, 688.846
512.042, 680.750
512.524, 676.080
513.006, 675.078
513.489, 675.793
513.971, 677.122
514.453, 679.101
514.935, 682.034
515.417, 687.121
515.899, 690.851
516.381, 692.889
516.864, 693.730
517.346, 693.371
517.828, 692.019
518.310, 690.260
518.792, 688.490
519.274, 686.477
519.756, 683.227
520.238, 678.672
520.720, 675.723
521.203, 675.599
521.685, 677.289
522.167, 679.757
522.649, 683.222
523.131, 685.748
523.613, 687.705
524.095, 688.046
524.577, 683.450
525.059, 676.595
525.542, 675.176
526.024, 683.370
526.506, 695.572
526.988, 699.817
527.470, 694.364
527.952, 686.198
528.434, 666.969
528.916, 653.446
529.398, 658.729
529.881, 676.059
530.363, 687.574
530.845, 682.525
531.327, 673.454
531.809, 677.160
532.291, 690.381
532.773, 695.609
533.255, 686.470
533.737, 674.139
534.220, 671.482
534.702, 680.084
535.184, 686.636
535.666, 691.604
536.148, 694.035
536.630, 691.296
537.112, 686.532
537.594, 684.198
538.077, 685.812
538.559, 689.618
539.041, 694.196
539.523, 699.680
540.005, 702.175
540.487, 700.149
540.969, 697.576
541.451, 696.885
541.933, 696.872
542.416, 695.024
542.898, 689.000
543.380, 686.154
543.862, 695.668
544.344, 709.512
544.826, 712.506
545.308, 703.040
545.791, 692.476
546.273, 689.770
546.755, 694.238
547.237, 700.472
547.719, 715.588
548.201, 722.530
548.683, 714.680
549.165, 701.689
549.647, 689.493
550.130, 679.823
550.612, 674.301
551.094, 675.537
551.576, 681.306
552.058, 686.565
552.540, 691.373
553.022, 694.746
553.504, 695.073
553.987, 695.095
554.469, 701.305
554.951, 715.862
555.433, 722.443
555.915, 711.295
556.397, 697.947
556.879, 692.269
557.361, 693.236
557.843, 695.465
558.326, 696.271
558.808, 700.110
559.290, 693.840
559.772, 706.852
560.254, 715.183
560.736, 719.086
561.218, 705.295
561.700, 714.042
562.182, 719.334
562.665, 723.425
563.147, 720.895
563.629, 718.433
564.111, 723.241
564.593, 731.306
565.075, 734.558
565.557, 731.387
566.039, 722.331
566.521, 705.774
567.004, 682.899
567.486, 673.062
567.968, 689.539
568.450, 702.791
568.932, 709.475
569.414, 711.686
569.896, 710.601
570.378, 706.824
570.860, 701.672
571.343, 694.375
571.825, 687.026
572.307, 685.875
572.789, 691.155
573.271, 694.574
573.753, 691.817
574.235, 687.187
574.718, 688.430
575.200, 697.594
575.682, 702.172
576.164, 696.211
576.646, 690.258
577.128, 690.685
577.610, 695.620
578.092, 700.911
578.574, 704.828
579.057, 708.052
579.539, 714.162
580.021, 723.950
580.503, 718.380
580.985, 685.354
581.467, 656.968
581.949, 656.351
582.431, 672.076
582.914, 687.151
583.396, 701.568
583.878, 710.227
584.360, 708.409
584.842, 700.671
585.324, 689.486
585.806, 677.034
586.288, 668.700
586.770, 666.530
587.253, 674.912
587.735, 664.734
588.217, 678.845
588.699, 687.060
589.181, 689.695
589.663, 670.042
590.145, 679.170
590.627, 676.764
591.109, 673.885
591.592, 687.064
592.074, 670.653
592.556, 683.577
593.038, 684.791
593.520, 691.365
594.002, 686.333
594.484, 684.886
594.966, 695.048
595.448, 698.781
595.931, 692.414
596.413, 699.328
596.895, 682.511
597.377, 686.519
597.859, 699.511
598.341, 693.727
598.823, 700.853
599.305, 703.063
599.787, 682.926
600.270, 701.651
600.752, 703.570
601.234, 688.232
601.716, 705.626
602.198, 692.667
602.680, 690.542
603.162, 696.182
603.644, 701.662
604.127, 704.468
604.609, 702.774
605.091, 700.457
605.573, 698.246
606.055, 696.870
606.537, 697.810
607.019, 701.444
607.501, 705.010
607.984, 705.112
608.466, 702.337
608.948, 700.081
609.430, 698.542
609.912, 697.077
610.394, 695.286
610.876, 693.377
611.358, 691.857
611.841, 690.803
612.323, 689.779
612.805, 686.489
613.287, 685.146
613.769, 692.113
614.251, 703.196
614.733, 707.914
615.215, 701.052
615.697, 689.020
616.180, 681.549
616.662, 678.651
617.144, 677.112
617.626, 676.359
618.108, 677.819
618.590, 685.197
619.072, 694.904
619.554, 697.841
620.036, 690.639
620.519, 682.711
621.001, 672.592
621.483, 666.026
621.965, 672.570
622.447, 688.689
622.929, 699.905
623.411, 696.941
623.893, 686.060
624.375, 682.039
624.858, 686.537
625.340, 685.027
625.822, 669.348
626.304, 656.688
626.786, 665.457
627.268, 686.593
627.750, 696.938
628.232, 686.435
628.714, 675.672
629.197, 674.370
629.679, 676.894
630.161, 675.348
630.643, 670.098
631.125, 668.823
631.607, 677.894
632.089, 692.562
632.571, 697.700
633.054, 690.240
633.536, 686.875
634.018, 693.800
634.500, 701.143
634.982, 701.913
635.464, 697.171
635.946, 690.132
636.428, 680.004
636.911, 669.591
637.393, 657.598
637.875, 647.351
638.357, 644.326
638.839, 648.523
639.321, 654.933
639.803, 659.763
640.285, 663.722
640.768, 670.017
641.250, 680.212
641.732, 686.417
642.214, 684.540
642.696, 681.150
643.178, 681.985
643.660, 685.850
644.142, 687.899
644.624, 685.800
645.107, 683.312
645.589, 682.073
646.071, 681.700
646.553, 681.372
647.035, 681.175
647.517, 682.946
647.999, 689.230
648.481, 696.972
648.963, 693.079
649.446, 673.459
649.928, 659.733
650.410, 656.069
650.892, 659.710
651.374, 673.438
651.856, 693.570
652.338, 704.258
