##NAMES=Laurelite
##RRUFFID=R100035
##IDEAL CHEMISTRY=Pb^2+^_7_F_12_Cl_2_
##LOCALITY=Grand Reef mine, Klondyke, Aravaipa District, Graham County, Arizona, USA
##OWNER=RRUFF
##SOURCE=Natural History Museum of Los Angeles County 
##DESCRIPTION=Colorless fragments from the type specimen, associated with grandreefite R100012 and pseudograndreefite R100006.  Photos of type specimen are courtesy of LACMNH.
##STATUS=The identification of this mineral has been confirmed by single-crystal X-ray diffraction.
##URL=rruff.info/R100035
92.49744, 857.9579
92.97955, 869.4537
93.46167, 885.1439
93.94379, 892.8880
94.42590, 897.3957
94.90802, 900.6392
95.39014, 902.6302
95.87225, 903.2382
96.35437, 903.4510
96.83649, 904.0002
97.31860, 905.1428
97.80072, 907.0234
98.28284, 908.4493
98.76495, 908.9625
99.24707, 911.1464
99.72919, 916.2931
100.2113, 922.2352
100.6934, 928.3328
101.1755, 934.6105
101.6577, 941.2344
102.1398, 948.4694
102.6219, 956.3416
103.1040, 964.3295
103.5861, 973.1261
104.0682, 981.3457
104.5504, 988.4054
105.0325, 994.1115
105.5146, 998.4564
105.9967, 1001.209
106.4788, 1002.137
106.9609, 1001.481
107.4431, 998.9628
107.9252, 994.8965
108.4073, 989.6442
108.8894, 983.2342
109.3715, 975.7308
109.8536, 967.4175
110.3358, 958.3817
110.8179, 948.4474
111.3000, 936.7834
111.7821, 923.6314
112.2642, 911.4257
112.7463, 901.4927
113.2285, 892.7983
113.7106, 884.2604
114.1927, 875.6789
114.6748, 867.3973
115.1569, 859.8909
115.6390, 852.9833
116.1212, 847.2448
116.6033, 843.9125
117.0854, 841.2083
117.5675, 837.4559
118.0496, 831.8367
118.5317, 824.4899
119.0139, 816.1934
119.4960, 807.2792
119.9781, 796.8087
120.4602, 784.8107
120.9423, 771.1039
121.4244, 755.3180
121.9066, 736.9596
122.3887, 715.7458
122.8708, 695.3632
123.3529, 676.0504
123.8350, 657.0317
124.3171, 637.4043
124.7993, 617.3900
125.2814, 598.6522
125.7635, 582.8350
126.2456, 570.6180
126.7277, 559.2747
127.2098, 548.8864
127.6920, 539.3139
128.1741, 530.1995
128.6562, 521.4299
129.1383, 513.5599
129.6204, 507.7407
130.1025, 503.6949
130.5847, 499.9476
131.0668, 495.8881
131.5489, 491.6504
132.0310, 487.6319
132.5131, 483.4969
132.9952, 480.1455
133.4774, 478.5009
133.9595, 478.5518
134.4416, 478.8028
134.9237, 477.7738
135.4058, 475.2237
135.8879, 473.0712
136.3701, 471.9329
136.8522, 471.1602
137.3343, 470.4611
137.8164, 469.7522
138.2985, 469.0802
138.7806, 468.5030
139.2628, 467.9846
139.7449, 467.6632
140.2270, 467.5524
140.7091, 467.6010
141.1912, 467.7942
141.6733, 468.1226
142.1555, 468.5415
142.6376, 468.8970
143.1197, 469.0765
143.6018, 469.3046
144.0839, 469.5545
144.5660, 469.8690
145.0482, 470.2877
145.5303, 470.8153
146.0124, 471.4798
146.4945, 472.5238
146.9766, 474.4348
147.4587, 476.1559
147.9409, 477.0873
148.4230, 477.3669
148.9051, 477.6417
149.3872, 478.2970
149.8693, 479.3633
150.3514, 480.6658
150.8336, 482.7250
151.3157, 484.7007
151.7978, 485.6306
152.2799, 485.3541
152.7620, 485.1023
153.2441, 486.0104
153.7263, 487.5860
154.2084, 489.0783
154.6905, 490.5497
155.1726, 491.7221
155.6547, 491.8333
156.1368, 490.3294
156.6190, 488.7259
157.1011, 487.6148
157.5832, 486.9982
158.0653, 486.9267
158.5474, 487.7545
159.0295, 489.3631
159.5117, 490.1886
159.9938, 489.9870
160.4759, 489.1061
160.9580, 487.0705
161.4401, 484.3631
161.9222, 482.1284
162.4044, 481.6507
162.8865, 483.4517
163.3686, 483.8771
163.8507, 482.2558
164.3328, 479.9658
164.8149, 477.1739
165.2971, 474.1167
165.7792, 471.3742
166.2613, 469.7189
166.7434, 469.9479
167.2255, 468.8910
167.7076, 465.7274
168.1898, 462.0405
168.6719, 458.7691
169.1540, 456.1429
169.6361, 454.1064
170.1182, 452.6906
170.6003, 452.4123
171.0825, 451.3965
171.5646, 448.9281
172.0467, 445.9306
172.5288, 443.5304
173.0109, 442.0961
173.4930, 441.0063
173.9752, 439.0274
174.4573, 435.9387
174.9394, 433.5113
175.4215, 432.8426
175.9036, 433.1927
176.3857, 432.8876
176.8679, 431.3132
177.3500, 429.0898
177.8321, 426.9734
178.3142, 424.9182
178.7963, 423.1776
179.2784, 422.2215
179.7606, 421.8978
180.2427, 420.9578
180.7248, 418.3666
181.2069, 415.6595
181.6890, 414.2882
182.1711, 414.3911
182.6533, 414.8937
183.1354, 414.8135
183.6175, 414.0931
184.0996, 413.2516
184.5817, 412.0201
185.0638, 410.9421
185.5460, 410.4709
186.0281, 410.6861
186.5102, 411.1311
186.9923, 411.1372
187.4744, 410.4888
187.9565, 409.9664
188.4387, 409.6470
188.9208, 409.4772
189.4029, 409.4329
189.8850, 409.5038
190.3671, 409.6841
190.8492, 410.0389
191.3314, 411.1422
191.8135, 411.3927
192.2956, 409.8651
192.7777, 407.9619
193.2598, 407.0620
193.7419, 407.6856
194.2241, 409.1391
194.7062, 409.7485
195.1883, 408.2006
195.6704, 407.2879
196.1525, 407.4047
196.6346, 408.0804
197.1168, 408.8080
197.5989, 409.3732
198.0810, 409.8198
198.5631, 410.2669
199.0452, 410.6190
199.5273, 411.0935
200.0095, 411.6780
200.4916, 412.4120
200.9737, 413.3803
201.4558, 414.6444
201.9379, 416.1340
202.4200, 417.6873
202.9022, 419.2772
203.3843, 420.9388
203.8664, 422.7041
204.3485, 424.5572
204.8306, 426.4110
205.3127, 428.1617
205.7949, 429.9825
206.2770, 432.1934
206.7591, 434.8804
207.2412, 437.7347
207.7233, 440.7864
208.2054, 443.9626
208.6876, 446.6702
209.1697, 448.3040
209.6518, 449.6167
210.1339, 451.6450
210.6160, 454.4698
211.0981, 457.8586
211.5803, 461.8635
212.0624, 466.4791
212.5445, 470.8816
213.0266, 474.5225
213.5087, 477.9291
213.9908, 481.5431
214.4730, 485.3979
214.9551, 489.5135
215.4372, 493.8946
215.9193, 498.5882
216.4014, 503.3715
216.8836, 507.9922
217.3657, 512.8222
217.8478, 518.3306
218.3299, 524.6174
218.8120, 531.0836
219.2941, 536.7621
219.7763, 541.3124
220.2584, 546.1826
220.7405, 552.0254
221.2226, 558.0385
221.7047, 563.7182
222.1868, 568.9218
222.6690, 573.7841
223.1511, 578.3820
223.6332, 582.3056
224.1153, 587.0135
224.5974, 593.2540
225.0795, 599.7935
225.5617, 605.7241
226.0438, 610.7997
226.5259, 615.4264
227.0080, 620.3199
227.4901, 625.6826
227.9722, 630.9232
228.4544, 636.1282
228.9365, 641.1605
229.4186, 645.8125
229.9007, 650.0424
230.3828, 654.0368
230.8649, 658.1045
231.3471, 662.7408
231.8292, 666.6041
232.3113, 669.0244
232.7934, 671.1210
233.2755, 674.0392
233.7576, 678.0136
234.2398, 682.1826
234.7219, 685.0450
235.2040, 685.6175
235.6861, 686.5204
236.1682, 688.5174
236.6503, 690.4296
237.1325, 690.9597
237.6146, 689.8098
238.0967, 688.0002
238.5788, 687.0836
239.0609, 687.7277
239.5430, 687.7229
240.0252, 687.0703
240.5073, 685.7052
240.9894, 683.4427
241.4715, 680.2327
241.9536, 676.4824
242.4357, 672.6630
242.9179, 668.8088
243.4000, 664.7684
243.8821, 660.8800
244.3642, 656.6486
244.8463, 651.4431
245.3284, 645.0925
245.8106, 638.1729
246.2927, 631.2960
246.7748, 624.4705
247.2569, 617.4161
247.7390, 610.2023
248.2211, 602.6606
248.7033, 594.3824
249.1854, 585.2044
249.6675, 575.9758
250.1496, 567.5903
250.6317, 559.8743
251.1138, 552.1797
251.5960, 544.5737
252.0781, 536.8132
252.5602, 528.3508
253.0423, 519.0744
253.5244, 509.7467
254.0065, 501.1131
254.4887, 493.0423
254.9708, 485.2311
255.4529, 477.9507
255.9350, 470.7722
256.4171, 463.0816
256.8992, 454.7642
257.3813, 446.3954
257.8635, 438.1249
258.3456, 430.0852
258.8277, 422.5161
259.3098, 415.5977
259.7919, 409.1874
260.2740, 403.1648
260.7562, 397.5747
261.2383, 392.1823
261.7204, 386.9560
262.2025, 381.8057
262.6846, 376.5512
263.1667, 371.0522
263.6489, 365.5367
264.1310, 360.1825
264.6131, 354.9051
265.0952, 350.1548
265.5773, 346.6725
266.0594, 343.6397
266.5416, 340.2147
267.0237, 336.0334
267.5058, 331.7716
267.9879, 328.5203
268.4700, 326.6144
268.9521, 324.2132
269.4343, 319.8461
269.9164, 315.1632
270.3985, 311.5070
270.8806, 309.2422
271.3627, 307.5644
271.8448, 305.4666
272.3270, 302.8146
272.8091, 300.3920
273.2912, 298.8310
273.7733, 297.2700
274.2554, 294.9198
274.7375, 291.6777
275.2197, 288.5594
275.7018, 287.0011
276.1839, 287.3832
276.6660, 286.8740
277.1481, 283.9150
277.6302, 280.7898
278.1124, 278.7133
278.5945, 277.7137
279.0766, 276.9964
279.5587, 275.6586
280.0408, 273.5652
280.5229, 272.0635
281.0051, 272.0839
281.4872, 271.9827
281.9693, 270.9616
282.4514, 269.1621
282.9335, 267.2368
283.4156, 265.7756
283.8978, 264.7923
284.3799, 263.6142
284.8620, 262.0963
285.3441, 260.5081
285.8262, 258.7201
286.3083, 256.9266
286.7905, 255.5288
287.2726, 254.9074
287.7547, 254.9614
288.2368, 254.7459
288.7189, 254.2185
289.2010, 253.4221
289.6832, 252.2219
290.1653, 250.8079
290.6474, 249.3894
291.1295, 248.0481
291.6116, 246.8727
292.0938, 246.3110
292.5759, 247.1802
293.0580, 247.4809
293.5401, 246.4516
294.0222, 244.8476
294.5043, 243.5592
294.9865, 242.9938
295.4686, 242.7981
295.9507, 242.0617
296.4328, 240.2592
296.9149, 238.8614
297.3970, 238.3857
297.8792, 238.1409
298.3613, 237.5058
298.8434, 236.2985
299.3255, 234.8291
299.8076, 233.5528
300.2897, 232.3381
300.7719, 231.6621
301.2540, 232.1021
301.7361, 232.5923
302.2182, 232.3936
302.7003, 231.4246
303.1824, 230.1675
303.6646, 229.1351
304.1467, 228.2894
304.6288, 227.8456
305.1109, 228.4543
305.5930, 228.8731
306.0751, 228.2274
306.5573, 226.7517
307.0394, 225.4529
307.5215, 225.3708
308.0036, 226.6400
308.4857, 227.1246
308.9678, 226.1156
309.4500, 224.9814
309.9321, 223.9239
310.4142, 223.0393
310.8963, 222.4628
311.3784, 222.3342
311.8605, 222.5631
312.3427, 222.4375
312.8248, 221.5927
313.3069, 220.7912
313.7890, 220.1774
314.2711, 219.6857
314.7532, 219.1660
315.2354, 218.5357
315.7175, 217.9398
316.1996, 217.8486
316.6817, 218.8100
317.1638, 219.4111
317.6459, 219.4290
318.1281, 219.1029
318.6102, 218.6094
319.0923, 218.0145
319.5744, 217.3328
320.0565, 216.5371
320.5386, 215.4208
321.0208, 214.6913
321.5029, 214.5163
321.9850, 214.5637
322.4671, 214.7179
322.9492, 214.9155
323.4313, 215.0602
323.9135, 215.0971
324.3956, 215.0880
324.8777, 214.6254
325.3598, 212.6996
325.8419, 211.2517
326.3240, 211.3943
326.8062, 212.7204
327.2883, 214.0126
327.7704, 214.3359
328.2525, 213.7372
328.7346, 213.0517
329.2167, 211.6819
329.6989, 210.9490
330.1810, 211.7769
330.6631, 213.2996
331.1452, 214.1767
331.6273, 213.6297
332.1094, 212.1747
332.5916, 211.4657
333.0737, 212.1429
333.5558, 212.4818
334.0379, 211.9984
334.5200, 211.1928
335.0021, 210.4723
335.4843, 209.9752
335.9664, 209.6959
336.4485, 209.7184
336.9306, 210.2684
337.4127, 210.4342
337.8948, 209.5405
338.3770, 208.6986
338.8591, 208.8153
339.3412, 209.8236
339.8233, 210.7392
340.3055, 210.2868
340.7876, 208.2342
341.2697, 207.1967
341.7518, 208.1696
342.2339, 209.2537
342.7160, 209.8043
343.1982, 209.8772
343.6803, 209.7333
344.1624, 209.5174
344.6445, 209.2323
345.1266, 208.8634
345.6087, 208.2589
346.0909, 207.8327
346.5730, 207.6988
347.0551, 207.7944
347.5372, 208.1525
348.0193, 208.8853
348.5014, 209.5555
348.9836, 209.1894
349.4657, 207.3583
349.9478, 205.9400
350.4299, 205.8663
350.9120, 206.1185
351.3941, 205.8562
351.8763, 204.9389
352.3584, 204.1107
352.8405, 204.2408
353.3226, 205.3578
353.8047, 206.4230
354.2868, 207.4835
354.7690, 208.2484
355.2511, 208.4336
355.7332, 208.1452
356.2153, 207.8289
356.6974, 207.7778
357.1795, 207.9319
357.6617, 208.1055
358.1438, 208.4173
358.6259, 208.4844
359.1080, 207.8672
359.5901, 206.9202
360.0722, 206.2217
360.5544, 206.0898
361.0365, 206.1650
361.5186, 205.9248
362.0007, 205.3344
362.4828, 204.6934
362.9649, 203.9326
363.4471, 203.3020
363.9292, 203.1631
364.4113, 203.6610
364.8934, 204.1606
365.3755, 204.0607
365.8576, 203.4881
366.3398, 203.1789
366.8219, 203.4329
367.3040, 203.8024
367.7861, 203.7943
368.2682, 203.4458
368.7503, 203.0862
369.2325, 202.7412
369.7146, 202.4987
370.1967, 202.6458
370.6788, 203.2988
371.1609, 203.7619
371.6430, 203.3282
372.1252, 202.2500
372.6073, 201.3892
373.0894, 201.0701
373.5715, 200.8360
374.0536, 200.1849
374.5357, 199.2245
375.0179, 198.6064
375.5000, 198.6980
375.9821, 199.3014
376.4642, 200.0319
376.9463, 201.2434
377.4284, 201.7890
377.9106, 200.7050
378.3927, 198.7925
378.8748, 197.3609
379.3569, 196.7458
379.8390, 196.7693
380.3211, 197.3954
380.8033, 198.8137
381.2854, 199.6691
381.7675, 199.6387
382.2496, 199.1720
382.7317, 198.3355
383.2138, 197.2708
383.6960, 196.6179
384.1781, 196.9380
384.6602, 198.1469
385.1423, 198.9808
385.6244, 199.3838
386.1065, 199.5551
386.5887, 199.4563
387.0708, 199.1851
387.5529, 198.8985
388.0350, 198.6650
388.5171, 198.4367
388.9992, 198.0894
389.4814, 197.1361
389.9635, 196.8667
390.4456, 197.9434
390.9277, 199.2560
391.4098, 200.0040
391.8919, 200.0312
392.3741, 199.5050
392.8562, 198.4753
393.3383, 196.7584
393.8204, 195.9600
394.3025, 196.9105
394.7846, 197.8502
395.2668, 198.2273
395.7489, 198.1518
396.2310, 197.8656
396.7131, 197.4783
397.1952, 197.0932
397.6773, 197.1050
398.1595, 197.9202
398.6416, 198.4581
399.1237, 198.4650
399.6058, 198.2435
400.0879, 198.0000
400.5700, 197.8015
401.0522, 197.6746
401.5343, 197.6919
402.0164, 197.8985
402.4985, 197.9698
402.9806, 197.5733
403.4627, 197.3515
403.9449, 197.7786
404.4270, 198.6207
404.9091, 199.2491
405.3912, 199.1763
405.8733, 198.6568
406.3554, 198.5693
406.8376, 199.2014
407.3197, 199.5383
407.8018, 198.8235
408.2839, 197.7765
408.7660, 197.1169
409.2481, 197.0272
409.7303, 197.2290
410.2124, 197.5232
410.6945, 197.9001
411.1766, 198.2013
411.6587, 198.3652
412.1408, 198.4812
412.6230, 198.6446
413.1051, 198.8466
413.5872, 199.0175
414.0693, 199.1724
414.5514, 199.2623
415.0335, 199.2079
415.5157, 199.0032
415.9978, 198.6542
416.4799, 197.9961
416.9620, 197.2293
417.4441, 196.9443
417.9262, 197.4836
418.4084, 198.0797
418.8905, 198.1868
419.3726, 198.0091
419.8547, 198.1185
420.3368, 198.7560
420.8189, 199.6010
421.3011, 200.1219
421.7832, 200.2333
422.2653, 200.4087
422.7474, 201.0011
423.2295, 201.4743
423.7116, 201.2457
424.1938, 200.3517
424.6759, 199.3481
425.1580, 198.6313
425.6401, 198.1987
426.1222, 197.9913
426.6043, 198.0336
427.0865, 198.2307
427.5686, 198.7915
428.0507, 199.4199
428.5328, 199.6269
429.0149, 199.2368
429.4970, 198.6382
429.9792, 198.5663
430.4613, 199.5353
430.9434, 199.8880
431.4255, 199.3743
431.9076, 198.5853
432.3897, 197.6072
432.8719, 196.6192
433.3540, 196.0180
433.8361, 196.2193
434.3182, 197.0601
434.8003, 197.2756
435.2824, 196.0605
435.7646, 195.4823
436.2467, 196.7616
436.7288, 198.5207
437.2109, 199.1781
437.6930, 198.2300
438.1751, 196.7334
438.6573, 195.9517
439.1394, 195.9229
439.6215, 196.1371
440.1036, 196.8392
440.5857, 197.4180
441.0678, 197.3830
441.5500, 196.8729
442.0321, 196.4308
442.5142, 196.4279
442.9963, 196.6267
443.4784, 196.5809
443.9605, 196.2654
444.4427, 195.9026
444.9248, 195.6200
445.4069, 195.3449
445.8890, 194.8999
446.3711, 194.1250
446.8532, 193.6051
447.3354, 193.9492
447.8175, 194.7503
448.2996, 195.0954
448.7817, 194.7548
449.2638, 194.1142
449.7459, 193.5179
450.2281, 192.9683
450.7102, 192.5807
451.1923, 192.5456
451.6744, 192.5075
452.1565, 192.1662
452.6386, 191.6229
453.1208, 191.2117
453.6029, 191.1123
454.0850, 191.2298
454.5671, 191.3034
455.0492, 191.2993
455.5313, 191.2938
456.0135, 191.2927
456.4956, 191.2879
456.9777, 191.2482
457.4598, 191.1862
457.9419, 191.1760
458.4240, 191.3083
458.9062, 191.5873
459.3883, 191.7385
459.8704, 191.8606
460.3525, 191.7194
460.8346, 191.0045
461.3167, 190.0941
461.7989, 189.4985
462.2810, 189.4134
462.7631, 189.5291
463.2452, 189.3563
463.7273, 188.8411
464.2094, 188.3397
464.6916, 187.6983
465.1737, 187.2841
465.6558, 187.4266
466.1379, 188.0009
466.6200, 188.5534
467.1021, 188.9249
467.5843, 189.0744
468.0664, 188.8792
468.5485, 188.3078
469.0306, 187.5983
469.5127, 186.7249
469.9948, 185.8553
470.4770, 185.2303
470.9591, 184.8619
471.4412, 184.7303
471.9233, 184.9466
472.4054, 185.3651
472.8875, 185.7814
473.3697, 186.1722
473.8518, 186.3654
474.3339, 186.1507
474.8160, 185.5266
475.2981, 185.0260
475.7802, 184.8069
476.2624, 184.5427
476.7445, 183.8585
477.2266, 183.0571
477.7087, 182.7900
478.1908, 183.3197
478.6729, 184.2251
479.1551, 184.7620
479.6372, 184.8606
480.1193, 184.7110
480.6014, 184.1013
481.0835, 183.4662
481.5656, 183.0080
482.0478, 182.7351
482.5299, 182.6030
483.0120, 182.5990
483.4941, 182.6826
483.9762, 182.7021
484.4583, 182.6458
484.9405, 182.5489
485.4226, 182.3452
485.9047, 182.1577
486.3868, 182.1868
486.8689, 182.4158
487.3510, 182.4706
487.8332, 181.8150
488.3153, 180.6599
488.7974, 180.0755
489.2795, 180.2726
489.7616, 180.6186
490.2437, 180.8509
490.7259, 180.9542
491.2080, 180.8549
491.6901, 180.4285
492.1722, 180.0167
492.6543, 180.0056
493.1364, 180.2133
493.6186, 180.0001
494.1007, 179.0980
494.5828, 178.2042
495.0649, 178.2720
495.5470, 179.4368
496.0291, 179.8826
496.5113, 178.9306
496.9934, 177.8248
497.4755, 177.2651
497.9576, 177.1384
498.4397, 177.0800
498.9218, 176.9165
499.4040, 176.7195
499.8861, 176.6811
500.3682, 177.1789
500.8503, 177.1097
501.3324, 175.7621
501.8145, 174.5192
502.2967, 174.4850
502.7788, 175.3687
503.2609, 175.9912
503.7430, 175.4486
504.2251, 174.1157
504.7072, 173.4898
505.1894, 173.8680
505.6715, 174.2747
506.1536, 174.4866
506.6357, 174.6127
507.1178, 174.7905
507.5999, 175.0210
508.0821, 175.0581
508.5642, 174.6956
509.0463, 174.0027
509.5284, 173.0479
510.0105, 171.7075
510.4926, 170.6991
510.9748, 170.7081
511.4569, 171.3156
511.9390, 171.5083
512.4211, 171.0789
512.9032, 170.5135
513.3853, 170.0811
513.8674, 169.6619
514.3495, 168.8999
514.8317, 167.7122
515.3138, 166.7718
515.7959, 166.8703
516.2780, 168.1181
516.7601, 168.7026
517.2422, 168.2515
517.7244, 167.6710
518.2065, 167.1974
518.6886, 166.8076
519.1707, 166.3554
519.6528, 165.8101
520.1349, 165.4492
520.6171, 165.8801
521.0992, 167.5287
521.5813, 168.2326
522.0634, 167.1065
522.5455, 165.8694
523.0276, 164.9238
523.5098, 164.3462
523.9919, 164.3174
524.4740, 165.0918
524.9561, 165.9400
525.4382, 165.5107
525.9203, 163.7713
526.4025, 162.8200
526.8846, 163.5501
527.3667, 164.6820
527.8488, 164.9401
528.3309, 164.4541
528.8130, 164.0352
529.2952, 163.9786
529.7773, 164.0437
530.2594, 164.0369
530.7415, 163.9598
531.2236, 163.8623
531.7057, 163.7809
532.1879, 163.6488
532.6700, 163.3279
533.1521, 162.7122
533.6342, 162.1350
534.1163, 161.6585
534.5984, 161.1767
535.0806, 160.4873
535.5627, 159.7225
536.0448, 159.2871
536.5269, 159.4648
537.0090, 160.0072
537.4911, 160.1130
537.9733, 159.4346
538.4554, 159.0905
538.9375, 159.5003
539.4196, 160.0276
539.9017, 160.3591
540.3839, 160.4578
540.8660, 160.3505
541.3481, 159.9047
541.8302, 159.3484
542.3123, 159.3514
542.7944, 160.0245
543.2766, 160.2483
543.7587, 159.2447
544.2408, 157.8462
544.7229, 157.3694
545.2050, 157.9432
545.6871, 158.2426
546.1693, 157.2390
546.6514, 156.0940
547.1335, 156.4748
547.6156, 158.1880
548.0977, 159.2593
548.5798, 158.3209
549.0620, 156.1380
549.5441, 155.3012
550.0262, 157.6338
550.5083, 158.9023
550.9904, 158.5191
551.4725, 157.4965
551.9547, 156.3045
552.4368, 155.1637
552.9189, 154.3704
553.4010, 154.1979
553.8831, 154.4934
554.3652, 154.6389
554.8474, 154.5468
555.3295, 154.5266
555.8116, 154.9590
556.2937, 155.2803
556.7758, 154.8687
557.2579, 153.7758
557.7401, 152.9525
558.2222, 153.2448
558.7043, 154.0514
559.1864, 154.3037
559.6685, 153.9699
560.1506, 153.5407
560.6328, 153.1826
561.1149, 152.9418
561.5970, 152.9666
562.0791, 153.3475
562.5612, 153.6418
563.0433, 153.6974
563.5255, 153.6862
564.0076, 153.7569
564.4897, 153.9026
564.9718, 154.0544
565.4539, 154.1822
565.9360, 154.2407
566.4182, 154.0566
566.9003, 153.4165
567.3824, 152.9365
567.8645, 152.6708
568.3466, 152.5480
568.8287, 152.5769
569.3109, 152.7182
569.7930, 152.8798
570.2751, 153.0439
570.7572, 153.1528
571.2393, 153.0041
571.7214, 152.5607
572.2036, 152.3207
572.6857, 152.5051
573.1678, 152.8966
573.6499, 153.3983
574.1320, 154.0060
574.6141, 154.0930
575.0963, 153.1058
575.5784, 151.8306
576.0605, 150.8211
576.5426, 150.1046
577.0247, 149.6318
577.5068, 149.3800
577.9890, 149.3940
578.4711, 149.8119
578.9532, 150.9979
579.4353, 151.6450
579.9174, 151.4632
580.3995, 151.1073
580.8817, 150.7461
581.3638, 150.4710
581.8459, 150.4242
582.3280, 150.6908
582.8101, 151.0676
583.2922, 151.2231
583.7744, 151.1434
584.2565, 151.0483
584.7386, 151.0254
585.2207, 150.9007
585.7029, 150.3875
