##NAMES=Laurelite
##RRUFFID=R100035
##IDEAL CHEMISTRY=Pb^2+^_7_F_12_Cl_2_
##LOCALITY=Grand Reef mine, Klondyke, Aravaipa District, Graham County, Arizona, USA
##OWNER=RRUFF
##SOURCE=Natural History Museum of Los Angeles County 
##DESCRIPTION=Colorless fragments from the type specimen, associated with grandreefite R100012 and pseudograndreefite R100006.  Photos of type specimen are courtesy of LACMNH.
##STATUS=The identification of this mineral has been confirmed by single-crystal X-ray diffraction.
##URL=rruff.info/R100035
90.49219, 76.29426
90.97430, 79.46818
91.45642, 80.59944
91.93854, 78.41688
92.42065, 74.55362
92.90277, 71.01746
93.38489, 67.72132
93.86700, 65.56001
94.34912, 66.68574
94.83124, 70.51246
95.31335, 73.63742
95.79547, 73.66873
96.27759, 71.17843
96.75970, 68.49259
97.24182, 65.93661
97.72394, 63.34583
98.20605, 59.79498
98.68817, 55.03735
99.17029, 51.26235
99.65240, 50.52603
100.1345, 53.02419
100.6166, 55.74851
101.0988, 58.21251
101.5809, 60.43171
102.0630, 62.90458
102.5451, 66.22316
103.0272, 68.78497
103.5093, 68.12965
103.9915, 62.30091
104.4736, 58.41724
104.9557, 59.25504
105.4378, 66.22473
105.9199, 69.75617
106.4020, 67.75197
106.8842, 63.35539
107.3663, 62.22092
107.8484, 67.82479
108.3305, 72.67981
108.8126, 74.18595
109.2947, 70.70365
109.7769, 66.57699
110.2590, 59.81338
110.7411, 52.03863
111.2232, 48.48378
111.7053, 54.31647
112.1874, 60.81067
112.6696, 64.00911
113.1517, 59.95702
113.6338, 56.44881
114.1159, 54.26598
114.5980, 53.40725
115.0801, 53.77800
115.5623, 57.02277
116.0444, 60.70089
116.5265, 62.91683
117.0086, 60.92527
117.4907, 59.38681
117.9728, 60.61906
118.4550, 64.77245
118.9371, 68.44743
119.4192, 70.90392
119.9013, 71.85073
120.3834, 70.86840
120.8655, 64.58895
121.3477, 58.33604
121.8298, 56.66186
122.3119, 60.65549
122.7940, 65.00304
123.2761, 65.64326
123.7582, 63.78709
124.2404, 62.13147
124.7225, 61.17834
125.2046, 61.55430
125.6867, 64.56572
126.1688, 71.32328
126.6509, 78.49593
127.1331, 81.54932
127.6152, 81.33080
128.0973, 82.05190
128.5794, 87.11222
129.0615, 95.26795
129.5436, 103.5761
130.0258, 111.3816
130.5079, 119.0755
130.9900, 126.9812
131.4721, 135.0318
131.9542, 144.7199
132.4363, 157.7765
132.9185, 173.8697
133.4006, 190.6409
133.8827, 207.1842
134.3648, 223.8561
134.8469, 242.6119
135.3290, 263.1902
135.8112, 287.1185
136.2933, 316.7585
136.7754, 352.5431
137.2575, 389.1821
137.7396, 425.1422
138.2217, 459.8648
138.7039, 495.9962
139.1860, 534.0664
139.6681, 572.8046
140.1502, 611.6097
140.6323, 650.7479
141.1144, 687.8162
141.5966, 722.1309
142.0787, 753.5989
142.5608, 781.4449
143.0429, 804.1445
143.5250, 824.0303
144.0071, 845.5383
144.4893, 866.2929
144.9714, 892.2484
145.4535, 926.4568
145.9356, 974.4245
146.4177, 1020.201
146.8998, 1061.724
147.3820, 1100.749
147.8641, 1146.769
148.3462, 1204.521
148.8283, 1264.222
149.3104, 1321.262
149.7925, 1371.426
150.2747, 1424.046
150.7568, 1480.598
151.2389, 1540.548
151.7210, 1597.361
152.2031, 1649.524
152.6852, 1698.918
153.1674, 1747.279
153.6495, 1797.283
154.1316, 1843.042
154.6137, 1883.425
155.0958, 1918.377
155.5779, 1950.077
156.0601, 1976.000
156.5422, 2000.093
157.0243, 2025.425
157.5064, 2055.765
157.9885, 2084.423
158.4706, 2108.196
158.9528, 2126.135
159.4349, 2146.539
159.9170, 2171.412
160.3991, 2199.907
160.8812, 2231.047
161.3633, 2265.873
161.8455, 2302.228
162.3276, 2339.784
162.8097, 2378.335
163.2918, 2416.436
163.7739, 2451.721
164.2560, 2483.408
164.7382, 2498.954
165.2203, 2513.944
165.7024, 2530.524
166.1845, 2547.442
166.6666, 2565.724
167.1487, 2580.800
167.6309, 2588.569
168.1130, 2591.532
168.5951, 2594.806
169.0772, 2601.623
169.5593, 2609.388
170.0414, 2616.139
170.5236, 2621.903
171.0057, 2625.829
171.4878, 2627.693
171.9699, 2627.383
172.4520, 2624.497
172.9341, 2615.622
173.4163, 2605.196
173.8984, 2598.736
174.3805, 2598.749
174.8626, 2600.672
175.3447, 2600.440
175.8268, 2598.337
176.3090, 2595.728
176.7911, 2592.004
177.2732, 2588.615
177.7553, 2588.266
178.2374, 2593.079
178.7195, 2599.514
179.2017, 2602.934
179.6838, 2603.607
180.1659, 2603.821
180.6480, 2605.031
181.1301, 2607.108
181.6122, 2609.819
182.0944, 2613.201
182.5765, 2617.078
183.0586, 2621.668
183.5407, 2626.883
184.0228, 2631.560
184.5049, 2634.168
184.9871, 2635.216
185.4692, 2636.392
185.9513, 2638.159
186.4334, 2640.424
186.9155, 2643.027
187.3976, 2645.952
187.8798, 2649.255
188.3619, 2653.854
188.8440, 2659.369
189.3261, 2662.946
189.8082, 2662.838
190.2903, 2660.098
190.7725, 2658.314
191.2546, 2657.452
191.7367, 2657.591
192.2188, 2659.824
192.7009, 2663.970
193.1830, 2666.196
193.6652, 2664.177
194.1473, 2658.695
194.6294, 2654.629
195.1115, 2651.988
195.5936, 2650.683
196.0757, 2650.767
196.5579, 2652.258
197.0400, 2654.558
197.5221, 2658.313
198.0042, 2663.279
198.4863, 2664.973
198.9684, 2662.374
199.4506, 2658.793
199.9327, 2659.333
200.4148, 2664.316
200.8969, 2670.304
201.3790, 2676.614
201.8611, 2683.281
202.3433, 2687.599
202.8254, 2688.911
203.3075, 2688.850
203.7896, 2689.867
204.2717, 2691.862
204.7538, 2695.158
205.2360, 2700.429
205.7181, 2708.005
206.2002, 2714.016
206.6823, 2717.853
207.1644, 2720.825
207.6465, 2725.746
208.1287, 2733.313
208.6108, 2740.283
209.0929, 2744.145
209.5750, 2743.468
210.0571, 2748.171
210.5392, 2759.774
211.0214, 2775.526
211.5035, 2789.833
211.9856, 2802.186
212.4677, 2814.300
212.9498, 2826.938
213.4319, 2840.065
213.9140, 2853.334
214.3962, 2866.331
214.8783, 2879.773
215.3604, 2895.162
215.8425, 2913.069
216.3246, 2931.800
216.8067, 2950.814
217.2889, 2969.827
217.7710, 2989.297
218.2531, 3009.425
218.7352, 3029.772
219.2173, 3049.668
219.6994, 3068.646
220.1816, 3088.122
220.6637, 3109.684
221.1458, 3135.450
221.6279, 3156.966
222.1100, 3172.114
222.5921, 3183.877
223.0743, 3200.983
223.5564, 3226.077
224.0385, 3251.859
224.5206, 3274.133
225.0027, 3291.148
225.4848, 3310.648
225.9670, 3334.292
226.4491, 3359.850
226.9312, 3381.361
227.4133, 3395.807
227.8954, 3410.888
228.3775, 3430.379
228.8597, 3457.973
229.3418, 3481.237
229.8239, 3498.007
230.3060, 3510.819
230.7881, 3526.207
231.2702, 3544.917
231.7524, 3565.177
232.2345, 3586.278
232.7166, 3609.917
233.1987, 3631.013
233.6808, 3649.082
234.1629, 3664.641
234.6451, 3679.430
235.1272, 3693.897
235.6093, 3706.933
236.0914, 3718.250
236.5735, 3728.492
237.0556, 3735.744
237.5378, 3738.997
238.0199, 3739.730
238.5020, 3741.808
238.9841, 3747.102
239.4662, 3751.153
239.9483, 3751.881
240.4305, 3747.807
240.9126, 3743.927
241.3947, 3740.841
241.8768, 3737.683
242.3589, 3732.511
242.8410, 3725.570
243.3232, 3716.090
243.8053, 3703.337
244.2874, 3685.219
244.7695, 3668.953
245.2516, 3656.488
245.7337, 3645.015
246.2159, 3627.946
246.6980, 3602.554
247.1801, 3575.865
247.6622, 3550.500
248.1443, 3527.330
248.6264, 3503.007
249.1086, 3477.508
249.5907, 3450.779
250.0728, 3422.778
250.5549, 3393.931
251.0370, 3363.047
251.5191, 3328.782
252.0013, 3289.458
252.4834, 3253.441
252.9655, 3222.769
253.4476, 3194.425
253.9297, 3162.835
254.4118, 3126.843
254.8940, 3090.334
255.3761, 3054.889
255.8582, 3020.958
256.3403, 2985.485
256.8224, 2947.681
257.3046, 2908.951
257.7867, 2872.444
258.2688, 2838.357
258.7509, 2805.536
259.2330, 2773.924
259.7151, 2743.331
260.1973, 2714.358
260.6794, 2688.492
261.1615, 2663.473
261.6436, 2636.430
262.1257, 2606.074
262.6078, 2576.254
263.0900, 2547.950
263.5721, 2520.709
264.0542, 2497.219
264.5363, 2478.483
265.0184, 2461.956
265.5005, 2443.492
265.9827, 2422.233
266.4648, 2401.872
266.9469, 2383.569
267.4290, 2367.397
267.9111, 2352.303
268.3932, 2339.052
268.8754, 2325.829
269.3575, 2310.361
269.8396, 2291.799
270.3217, 2273.495
270.8038, 2255.776
271.2859, 2238.634
271.7681, 2225.341
272.2502, 2217.364
272.7323, 2210.234
273.2144, 2199.068
273.6965, 2182.829
274.1786, 2167.985
274.6608, 2155.950
275.1429, 2146.468
275.6250, 2137.367
276.1071, 2128.718
276.5892, 2120.299
277.0714, 2112.097
277.5535, 2104.066
278.0356, 2096.385
278.5177, 2089.065
278.9998, 2082.141
279.4819, 2075.877
279.9641, 2070.356
280.4462, 2064.989
280.9283, 2059.261
281.4104, 2053.222
281.8925, 2047.249
282.3746, 2041.498
282.8568, 2035.784
283.3389, 2029.417
283.8210, 2022.288
284.3031, 2015.245
284.7852, 2008.710
285.2673, 2002.721
285.7495, 1997.390
286.2316, 1992.755
286.7137, 1988.662
287.1958, 1984.767
287.6779, 1981.038
288.1600, 1977.756
288.6422, 1975.764
289.1243, 1974.660
289.6064, 1971.509
290.0885, 1965.521
290.5706, 1958.721
291.0527, 1954.846
291.5349, 1953.698
292.0170, 1952.113
292.4991, 1948.222
292.9812, 1942.496
293.4633, 1936.529
293.9454, 1930.281
294.4276, 1924.252
294.9097, 1919.266
295.3918, 1915.183
295.8739, 1911.357
296.3560, 1907.567
296.8381, 1903.795
297.3203, 1900.093
297.8024, 1896.460
298.2845, 1892.891
298.7666, 1889.292
299.2487, 1885.753
299.7308, 1882.477
300.2130, 1880.224
300.6951, 1878.031
301.1772, 1873.948
301.6593, 1868.017
302.1414, 1861.982
302.6235, 1857.629
303.1057, 1854.327
303.5878, 1850.848
304.0699, 1846.088
304.5520, 1841.488
305.0341, 1838.732
305.5162, 1837.729
305.9984, 1837.618
306.4805, 1839.200
306.9626, 1840.923
307.4447, 1840.397
307.9268, 1835.664
308.4089, 1830.181
308.8911, 1826.991
309.3732, 1825.661
309.8553, 1824.472
310.3374, 1822.302
310.8195, 1819.799
311.3016, 1817.706
311.7838, 1816.441
312.2659, 1815.062
312.7480, 1813.143
313.2301, 1810.701
313.7122, 1807.709
314.1943, 1801.881
314.6765, 1796.970
315.1586, 1796.224
315.6407, 1801.273
316.1228, 1806.360
316.6049, 1808.785
317.0870, 1809.434
317.5692, 1809.737
318.0513, 1811.045
318.5334, 1811.422
319.0155, 1809.445
319.4976, 1804.588
319.9797, 1800.107
320.4619, 1796.490
320.9440, 1793.948
321.4261, 1792.761
321.9082, 1793.692
322.3903, 1795.245
322.8724, 1797.823
323.3546, 1801.466
323.8367, 1802.801
324.3188, 1798.271
324.8009, 1792.818
325.2830, 1790.272
325.7651, 1795.295
326.2473, 1798.632
326.7294, 1798.305
327.2115, 1794.792
327.6936, 1791.762
328.1757, 1787.338
328.6578, 1785.038
329.1400, 1786.734
329.6221, 1799.290
330.1042, 1806.457
330.5863, 1805.260
331.0684, 1798.490
331.5505, 1794.396
332.0327, 1794.357
332.5148, 1795.264
332.9969, 1795.962
333.4790, 1796.266
333.9611, 1796.807
334.4432, 1797.994
334.9254, 1799.157
335.4075, 1799.061
335.8896, 1797.142
336.3717, 1795.075
336.8538, 1793.059
337.3359, 1790.919
337.8180, 1790.991
338.3001, 1794.081
338.7823, 1798.184
339.2644, 1801.103
339.7465, 1802.779
340.2286, 1803.547
340.7107, 1803.002
341.1928, 1801.502
341.6750, 1801.657
342.1571, 1803.639
342.6392, 1806.552
343.1213, 1809.964
343.6034, 1813.844
344.0855, 1817.447
344.5677, 1820.848
345.0498, 1823.625
345.5319, 1823.828
346.0140, 1821.332
346.4961, 1819.836
346.9782, 1823.261
347.4604, 1830.259
347.9425, 1833.501
348.4246, 1831.591
348.9067, 1828.158
349.3888, 1828.208
349.8709, 1831.386
350.3531, 1835.642
350.8352, 1840.981
351.3173, 1846.476
351.7994, 1849.771
352.2815, 1850.570
352.7636, 1851.705
353.2458, 1857.314
353.7279, 1865.288
354.2100, 1871.039
354.6921, 1871.277
355.1742, 1869.473
355.6563, 1868.742
356.1385, 1869.090
356.6206, 1870.600
357.1027, 1875.690
357.5848, 1881.091
358.0669, 1882.574
358.5490, 1876.019
359.0312, 1869.752
359.5133, 1870.750
359.9954, 1876.665
360.4775, 1880.233
360.9596, 1875.814
361.4417, 1869.246
361.9239, 1864.298
362.4060, 1861.648
362.8881, 1860.356
363.3702, 1861.875
363.8523, 1864.190
364.3344, 1864.211
364.8166, 1857.585
365.2987, 1851.617
365.7808, 1850.048
366.2629, 1853.763
366.7450, 1855.511
367.2271, 1852.798
367.7093, 1848.344
368.1914, 1844.538
368.6735, 1842.099
369.1556, 1839.779
369.6377, 1838.069
370.1198, 1836.729
370.6020, 1833.457
371.0841, 1825.211
371.5662, 1817.843
372.0483, 1814.885
372.5304, 1820.350
373.0125, 1822.521
373.4947, 1819.998
373.9768, 1814.443
374.4589, 1809.547
374.9410, 1805.237
375.4231, 1801.722
375.9052, 1799.178
376.3874, 1797.720
376.8695, 1796.275
377.3516, 1794.736
377.8337, 1793.378
378.3158, 1792.913
378.7979, 1793.630
379.2801, 1792.932
379.7622, 1789.515
380.2443, 1784.192
380.7264, 1780.685
381.2085, 1779.219
381.6906, 1778.047
382.1728, 1775.088
382.6549, 1770.793
383.1370, 1768.505
383.6191, 1769.287
384.1012, 1771.360
384.5833, 1771.967
385.0655, 1771.196
385.5476, 1769.812
386.0297, 1767.542
386.5118, 1765.127
386.9939, 1764.279
387.4760, 1765.394
387.9582, 1766.315
388.4403, 1764.492
388.9224, 1760.978
389.4045, 1757.988
389.8866, 1756.250
390.3687, 1755.518
390.8509, 1756.562
391.3330, 1759.091
391.8151, 1760.093
392.2972, 1756.342
392.7793, 1750.839
393.2614, 1746.394
393.7436, 1743.747
394.2257, 1742.330
394.7078, 1742.853
395.1899, 1744.551
395.6720, 1745.413
396.1541, 1743.751
396.6363, 1741.973
397.1184, 1741.255
397.6005, 1741.998
398.0826, 1742.967
398.5647, 1744.834
399.0468, 1746.553
399.5290, 1746.854
400.0111, 1743.417
400.4932, 1740.993
400.9753, 1740.899
401.4574, 1743.125
401.9395, 1744.236
402.4217, 1744.124
402.9038, 1743.006
403.3859, 1740.504
403.8680, 1734.452
404.3501, 1732.472
404.8322, 1736.786
405.3144, 1744.674
405.7965, 1748.768
406.2786, 1748.405
406.7607, 1746.531
407.2428, 1743.703
407.7249, 1739.818
408.2071, 1738.755
408.6892, 1741.244
409.1713, 1744.364
409.6534, 1743.616
410.1355, 1739.274
410.6176, 1736.896
411.0998, 1738.975
411.5819, 1743.503
412.0640, 1745.476
412.5461, 1744.966
413.0282, 1744.240
413.5103, 1745.843
413.9925, 1748.377
414.4746, 1748.689
414.9567, 1745.772
415.4388, 1741.990
415.9209, 1738.697
416.4030, 1736.365
416.8852, 1736.085
417.3673, 1741.615
417.8494, 1747.326
418.3315, 1747.393
418.8136, 1741.406
419.2957, 1736.465
419.7779, 1737.351
420.2600, 1740.944
420.7421, 1744.108
421.2242, 1746.609
421.7063, 1747.891
422.1884, 1747.082
422.6706, 1744.772
423.1527, 1743.130
423.6348, 1743.397
424.1169, 1743.892
424.5990, 1743.920
425.0811, 1743.488
425.5633, 1742.452
426.0454, 1739.205
426.5275, 1736.039
427.0096, 1736.043
427.4917, 1742.014
427.9738, 1746.873
428.4560, 1748.504
428.9381, 1747.146
429.4202, 1748.548
429.9023, 1754.400
430.3844, 1759.828
430.8665, 1760.758
431.3487, 1756.330
431.8308, 1752.404
432.3129, 1749.144
432.7950, 1747.024
433.2771, 1747.885
433.7592, 1751.849
434.2414, 1755.103
434.7235, 1755.304
435.2056, 1753.261
435.6877, 1752.292
436.1698, 1752.443
436.6519, 1752.984
437.1341, 1753.373
437.6162, 1753.591
438.0983, 1753.563
438.5804, 1753.114
439.0625, 1752.657
439.5446, 1752.867
440.0268, 1753.550
440.5089, 1753.971
440.9910, 1753.584
441.4731, 1752.842
441.9552, 1752.073
442.4373, 1751.298
442.9195, 1750.734
443.4016, 1750.759
443.8837, 1750.982
444.3658, 1750.921
444.8479, 1750.771
445.3300, 1749.983
445.8122, 1747.475
446.2943, 1743.649
446.7764, 1741.801
447.2585, 1744.578
447.7406, 1747.773
448.2227, 1749.252
448.7049, 1747.945
449.1870, 1746.891
449.6691, 1746.067
450.1512, 1745.512
450.6333, 1745.230
451.1154, 1744.940
451.5976, 1745.580
452.0797, 1747.854
452.5618, 1751.563
453.0439, 1753.500
453.5260, 1753.287
454.0081, 1752.382
454.4903, 1751.921
454.9724, 1751.900
455.4545, 1751.348
455.9366, 1749.810
456.4187, 1748.423
456.9008, 1749.852
457.3830, 1753.693
457.8651, 1756.663
458.3472, 1756.331
458.8293, 1754.418
459.3114, 1753.779
459.7935, 1754.456
460.2757, 1756.360
460.7578, 1761.588
461.2399, 1767.341
461.7220, 1769.281
462.2041, 1763.955
462.6862, 1758.577
463.1684, 1758.162
463.6505, 1761.251
464.1326, 1764.489
464.6147, 1767.036
465.0968, 1768.970
465.5789, 1770.274
466.0611, 1770.944
466.5432, 1770.997
467.0253, 1769.474
467.5074, 1767.820
467.9895, 1767.260
468.4716, 1769.073
468.9538, 1770.409
469.4359, 1771.010
469.9180, 1771.025
470.4001, 1770.915
470.8822, 1770.844
471.3643, 1770.410
471.8465, 1769.391
472.3286, 1767.743
472.8107, 1765.925
473.2928, 1763.539
473.7749, 1762.073
474.2570, 1764.226
474.7392, 1769.971
475.2213, 1773.555
475.7034, 1773.102
476.1855, 1770.551
476.6676, 1769.570
477.1497, 1770.095
477.6319, 1771.542
478.1140, 1774.156
478.5961, 1777.256
479.0782, 1779.685
479.5603, 1781.325
480.0424, 1782.643
480.5246, 1783.682
481.0067, 1784.713
481.4888, 1786.105
481.9709, 1787.776
482.4530, 1790.065
482.9352, 1794.314
483.4173, 1799.531
483.8994, 1802.587
484.3815, 1799.894
484.8636, 1796.863
485.3457, 1796.360
485.8279, 1799.482
486.3100, 1801.717
486.7921, 1802.991
487.2742, 1803.043
487.7563, 1801.315
488.2384, 1794.841
488.7206, 1791.881
489.2027, 1794.632
489.6848, 1801.351
490.1669, 1805.824
490.6490, 1807.562
491.1311, 1808.459
491.6133, 1808.809
492.0954, 1808.657
492.5775, 1810.992
493.0596, 1816.271
493.5417, 1822.121
494.0238, 1826.485
494.5060, 1829.341
494.9881, 1830.081
495.4702, 1827.548
495.9523, 1824.415
496.4344, 1824.658
496.9165, 1827.674
497.3987, 1831.187
497.8808, 1834.308
498.3629, 1837.111
498.8450, 1839.708
499.3271, 1842.125
499.8092, 1844.112
500.2914, 1845.182
500.7735, 1845.916
501.2556, 1846.885
501.7377, 1847.758
502.2198, 1849.396
502.7019, 1853.594
503.1841, 1858.787
503.6662, 1860.750
504.1483, 1856.430
504.6304, 1851.743
505.1125, 1848.209
505.5946, 1845.869
506.0768, 1844.257
506.5589, 1843.803
507.0410, 1843.510
507.5231, 1842.505
508.0052, 1840.678
508.4873, 1839.249
508.9695, 1838.845
509.4516, 1838.188
509.9337, 1833.641
510.4158, 1825.505
510.8979, 1819.590
511.3800, 1820.465
511.8622, 1824.604
512.3443, 1823.528
512.8264, 1817.468
513.3085, 1810.761
513.7906, 1806.135
514.2728, 1803.041
514.7549, 1800.877
515.2370, 1799.691
515.7191, 1798.929
516.2012, 1799.184
516.6833, 1799.450
517.1655, 1798.185
517.6476, 1792.409
518.1297, 1787.513
518.6118, 1786.099
519.0939, 1787.837
519.5760, 1788.462
520.0582, 1786.130
520.5403, 1783.748
521.0224, 1782.619
521.5045, 1783.255
521.9866, 1783.610
522.4688, 1783.683
522.9509, 1783.444
523.4330, 1782.626
523.9151, 1780.972
524.3972, 1780.195
524.8793, 1780.986
525.3615, 1782.599
525.8436, 1783.018
526.3257, 1782.255
526.8078, 1781.323
527.2899, 1780.531
527.7720, 1780.047
528.2542, 1780.565
528.7363, 1782.162
529.2184, 1783.526
529.7005, 1782.890
530.1826, 1781.552
530.6647, 1781.372
531.1469, 1783.573
531.6290, 1785.855
532.1111, 1786.952
532.5932, 1787.198
533.0753, 1787.278
533.5574, 1786.641
534.0396, 1786.573
534.5217, 1788.027
535.0038, 1791.143
535.4859, 1792.767
535.9680, 1791.876
536.4501, 1790.373
536.9323, 1789.346
537.4144, 1789.043
537.8965, 1788.247
538.3786, 1786.222
538.8607, 1784.674
539.3428, 1787.030
539.8250, 1793.712
540.3071, 1798.870
540.7892, 1800.386
541.2713, 1799.675
541.7534, 1799.999
542.2355, 1801.284
542.7177, 1802.635
543.1998, 1804.335
543.6819, 1805.444
544.1640, 1803.655
544.6461, 1798.623
545.1282, 1794.619
545.6104, 1796.135
546.0925, 1799.750
546.5746, 1801.493
547.0567, 1797.809
547.5388, 1795.525
548.0209, 1798.406
548.5031, 1804.231
548.9852, 1808.174
549.4673, 1807.126
549.9494, 1806.659
550.4315, 1808.652
550.9136, 1813.088
551.3958, 1815.853
551.8779, 1816.877
552.3600, 1816.352
552.8421, 1813.437
553.3242, 1807.519
553.8063, 1805.574
554.2885, 1808.697
554.7706, 1813.594
555.2527, 1816.214
555.7348, 1816.748
556.2169, 1816.156
556.6990, 1813.936
557.1812, 1811.763
557.6633, 1812.476
558.1454, 1815.451
558.6275, 1818.354
559.1096, 1820.341
559.5917, 1821.356
560.0739, 1820.613
560.5560, 1818.027
561.0381, 1816.816
561.5202, 1820.544
562.0023, 1824.785
562.4844, 1826.109
562.9666, 1820.267
563.4487, 1817.241
563.9308, 1819.494
564.4129, 1823.959
564.8950, 1825.773
565.3771, 1823.268
565.8593, 1821.876
566.3414, 1823.369
566.8235, 1826.806
567.3056, 1827.635
567.7877, 1825.474
568.2698, 1823.350
568.7520, 1823.078
569.2341, 1824.320
569.7162, 1826.213
570.1983, 1828.810
570.6804, 1830.683
571.1625, 1829.769
571.6447, 1827.422
572.1268, 1825.909
572.6089, 1826.206
573.0910, 1826.518
573.5731, 1825.231
574.0552, 1823.259
574.5374, 1822.162
575.0195, 1822.585
575.5016, 1823.875
575.9837, 1826.620
576.4658, 1830.557
576.9479, 1832.672
577.4301, 1831.878
577.9122, 1830.476
578.3943, 1829.126
578.8764, 1827.537
579.3585, 1827.959
579.8406, 1830.963
580.3228, 1834.695
580.8049, 1837.295
581.2870, 1838.792
581.7691, 1839.867
582.2512, 1840.334
582.7333, 1841.043
583.2155, 1843.815
583.6975, 1847.948
