##NAMES=Laurite
##RRUFFID=R110120
##IDEAL CHEMISTRY=Ru^2+^(S_2_)^2-^
##LOCALITY=Tambiano River, Riampinang, Kalimantan Selatan Province, Borneo Island, Indonesia
##OWNER=RRUFF
##SOURCE=Mark N Feinglos
##DESCRIPTION=Loose aggregate of black grains associated with platinum R110126
##STATUS=The identification of this mineral has been confirmed only by single crystal X-ray diffraction.
##URL=rruff.info/R110120
181.0245, 242.4190
182.9530, 243.1691
184.8814, 243.1689
186.8099, 242.6433
188.7384, 241.7801
190.6668, 240.4924
192.5953, 238.9897
194.5238, 237.1350
196.4522, 235.0514
198.3807, 233.5149
200.3092, 233.2132
202.2376, 233.1526
204.1661, 232.3571
206.0946, 230.5090
208.0230, 228.5172
209.9515, 226.4424
211.8800, 224.2526
213.8084, 222.6816
215.7369, 221.8500
217.6654, 221.4538
219.5938, 221.3908
221.5223, 221.8168
223.4508, 222.2249
225.3792, 222.2732
227.3077, 221.8903
229.2362, 221.4627
231.1646, 220.8073
233.0931, 220.3234
235.0216, 220.1594
236.9500, 220.4111
238.8785, 220.5667
240.8070, 220.4661
242.7354, 220.3521
244.6639, 220.7803
246.5924, 222.0287
248.5208, 223.1485
250.4493, 223.9500
252.3778, 223.9272
254.3062, 224.4263
256.2347, 225.8595
258.1632, 227.7430
260.0916, 229.0228
262.0201, 228.8618
263.9486, 228.5783
265.8770, 229.0757
267.8055, 230.7551
269.7340, 232.3447
271.6624, 233.1641
273.5909, 233.5774
275.5194, 234.3037
277.4478, 236.0032
279.3763, 237.4262
281.3048, 238.2529
283.2332, 238.5867
285.1617, 238.9110
287.0902, 238.6082
289.0186, 238.1426
290.9471, 238.4407
292.8756, 240.2595
294.8040, 242.3611
296.7325, 244.2022
298.6610, 245.7288
300.5894, 247.2681
302.5179, 249.1337
304.4464, 251.4562
306.3748, 254.0682
308.3033, 256.5426
310.2318, 260.3814
312.1602, 265.4869
314.0887, 271.6531
316.0172, 279.2119
317.9456, 288.0278
319.8741, 298.4066
321.8026, 310.7133
323.7310, 324.7369
325.6595, 339.3736
327.5880, 355.8340
329.5164, 373.0446
331.4449, 389.3554
333.3734, 404.9917
335.3018, 420.2216
337.2303, 434.3571
339.1588, 447.3402
341.0872, 462.5391
343.0157, 480.4579
344.9442, 499.1216
346.8727, 517.7582
348.8011, 537.5759
350.7296, 553.5131
352.6581, 564.3950
354.5865, 570.4498
356.5150, 571.1234
358.4435, 564.9655
360.3719, 554.4592
362.3004, 539.4323
364.2289, 519.9259
366.1573, 499.2523
368.0858, 478.9576
370.0143, 459.0399
371.9427, 438.9645
373.8712, 418.5431
375.7997, 399.9582
377.7281, 384.4774
379.6566, 372.0129
381.5851, 361.3849
383.5135, 351.7682
385.4420, 342.8758
387.3705, 334.7933
389.2989, 327.5907
391.2274, 321.3930
393.1559, 316.2672
395.0843, 311.9461
397.0128, 308.4036
398.9413, 305.9385
400.8697, 303.0103
402.7982, 298.8080
404.7267, 293.6679
406.6551, 288.9826
408.5836, 285.4505
410.5121, 282.0942
412.4405, 278.2659
414.3690, 273.8622
416.2975, 269.6912
418.2259, 266.1221
420.1544, 263.1192
422.0829, 260.6201
424.0113, 258.7524
425.9398, 256.9206
427.8683, 254.9476
429.7967, 252.9659
431.7252, 251.4014
433.6537, 250.3826
435.5821, 249.5359
437.5106, 248.6938
439.4391, 247.9248
441.3675, 247.1316
443.2960, 246.4082
445.2245, 245.6323
447.1529, 244.7994
449.0814, 243.1685
451.0099, 241.2959
452.9383, 239.3868
454.8668, 238.0227
456.7953, 236.9690
458.7237, 236.5561
460.6522, 235.9143
462.5807, 234.5037
464.5091, 231.6270
466.4376, 229.7882
468.3661, 229.6501
470.2945, 230.1528
472.2230, 230.1161
474.1515, 229.4428
476.0799, 228.8926
478.0084, 228.6792
479.9369, 228.7932
481.8653, 229.1588
483.7938, 229.8250
485.7223, 230.3946
487.6507, 230.6948
489.5792, 230.9201
491.5077, 231.1211
493.4361, 230.8812
495.3646, 230.7655
497.2931, 231.3450
499.2215, 232.8910
501.1500, 233.9872
503.0785, 234.1834
505.0069, 233.9851
506.9354, 233.8745
508.8639, 233.6026
510.7923, 233.5490
512.7208, 233.8173
514.6493, 234.3950
516.5778, 235.0678
518.5062, 236.0299
520.4347, 237.0057
522.3632, 237.9140
524.2916, 238.5057
526.2201, 239.0011
528.1486, 239.4296
530.0770, 239.8061
532.0055, 240.0095
533.9340, 240.1458
535.8624, 240.5357
537.7909, 241.2617
539.7194, 242.0474
541.6478, 242.8032
543.5763, 243.6575
545.5048, 244.7693
547.4332, 246.5007
549.3617, 248.2165
551.2902, 249.3611
553.2186, 249.7986
555.1471, 250.2655
557.0756, 250.9890
559.0040, 251.5081
560.9325, 251.8640
562.8610, 251.9723
564.7894, 252.2802
566.7179, 252.8205
568.6464, 253.7960
570.5748, 254.7909
572.5033, 255.8617
574.4318, 256.5653
576.3602, 256.6148
578.2887, 256.0986
580.2172, 256.0927
582.1456, 257.0781
584.0741, 258.3043
586.0026, 259.2778
587.9310, 260.1797
589.8595, 260.8343
591.7880, 261.1004
593.7164, 261.0899
595.6449, 261.0938
597.5734, 261.1496
599.5018, 261.2061
601.4303, 261.1803
603.3588, 261.1876
605.2872, 261.5018
607.2157, 262.1972
609.1442, 262.9445
611.0726, 263.6383
613.0011, 264.3799
614.9296, 265.0143
616.8580, 265.4900
618.7865, 265.7757
620.7150, 265.8974
622.6434, 265.8761
624.5719, 266.0037
626.5004, 266.4432
628.4288, 266.9801
630.3573, 267.5465
632.2858, 268.3256
634.2142, 268.8118
636.1427, 268.3775
638.0712, 267.8147
639.9996, 268.3311
641.9281, 270.2514
643.8566, 271.9897
645.7850, 272.9554
647.7135, 273.4181
649.6420, 273.9467
651.5704, 274.4717
653.4989, 275.1854
655.4274, 276.2036
657.3558, 277.4970
659.2843, 278.9220
661.2128, 280.7242
663.1412, 282.2769
665.0697, 283.2595
666.9982, 283.6850
668.9266, 284.2421
670.8551, 284.8787
672.7836, 285.6173
674.7120, 286.4139
676.6405, 287.2414
678.5690, 288.4453
680.4974, 290.4835
682.4259, 292.7288
684.3544, 294.8345
686.2828, 296.5235
688.2113, 297.8829
690.1398, 298.6748
692.0682, 299.3957
693.9967, 300.2528
695.9252, 301.2487
697.8536, 302.1825
699.7821, 302.8803
701.7106, 303.5880
703.6390, 304.5473
705.5675, 306.2389
707.4960, 307.7550
709.4244, 308.5666
711.3529, 308.8693
713.2814, 309.9965
715.2098, 312.7429
717.1383, 315.1514
719.0668, 316.3762
720.9952, 316.6516
722.9237, 317.2289
724.8522, 318.3080
726.7806, 319.7036
728.7091, 321.2274
730.6376, 322.7352
732.5660, 324.5498
734.4945, 327.1069
736.4230, 329.3186
738.3514, 330.7245
740.2799, 332.0020
742.2084, 333.4444
744.1368, 334.6891
746.0653, 336.1291
747.9938, 337.2137
749.9222, 338.4955
751.8507, 339.7744
753.7792, 340.9941
755.7076, 342.0377
757.6361, 343.0731
759.5646, 344.3716
761.4930, 345.3105
763.4215, 345.5578
765.3500, 345.6372
767.2784, 346.1512
769.2069, 346.9727
771.1354, 347.9819
773.0638, 349.3888
774.9923, 350.9537
776.9208, 352.1695
778.8492, 353.0139
780.7777, 353.8324
782.7062, 354.5694
784.6346, 355.1761
786.5631, 356.0375
788.4916, 357.0195
790.4200, 357.4898
792.3485, 356.9196
794.2770, 356.4705
796.2054, 356.6074
798.1339, 356.8146
800.0624, 356.5980
801.9908, 355.8083
803.9193, 355.1347
805.8478, 354.8126
807.7762, 354.9659
809.7047, 355.1968
811.6332, 355.2847
813.5616, 355.1173
815.4901, 355.2391
817.4186, 355.6267
819.3470, 355.1617
821.2755, 353.2916
823.2040, 352.7347
825.1324, 356.4229
827.0609, 360.6654
828.9894, 362.3869
830.9178, 360.5823
832.8463, 358.1387
834.7748, 354.4228
836.7032, 351.5735
838.6317, 350.1035
840.5602, 349.7471
842.4886, 349.3751
844.4171, 349.2567
846.3456, 348.8666
848.2740, 348.3627
850.2025, 347.8750
852.1310, 347.6645
854.0594, 347.6614
855.9879, 347.3601
857.9164, 346.6300
859.8448, 345.6216
861.7733, 344.8120
863.7018, 344.4110
865.6302, 344.1156
867.5587, 343.5760
869.4872, 342.6856
871.4156, 341.3112
873.3441, 339.2041
875.2726, 336.9527
877.2010, 335.4983
879.1295, 334.7725
881.0580, 333.9525
882.9865, 332.1927
884.9149, 330.8578
886.8434, 330.5466
888.7719, 330.7349
890.7003, 330.3894
892.6288, 329.3941
894.5573, 328.9689
896.4857, 329.0317
898.4142, 328.7259
900.3427, 327.6758
902.2711, 326.2383
904.1996, 325.5156
906.1281, 325.1884
908.0565, 324.7444
909.9850, 324.0768
911.9135, 323.4560
913.8419, 323.2907
915.7704, 323.2463
917.6989, 322.9538
919.6273, 322.5163
921.5558, 322.0935
923.4843, 321.4084
925.4127, 320.6242
927.3412, 320.3505
929.2697, 320.4394
931.1981, 320.6602
933.1266, 321.2823
935.0551, 322.0947
936.9835, 322.9362
938.9120, 323.8341
940.8405, 324.6324
942.7689, 325.2026
944.6974, 326.1530
946.6259, 326.7900
948.5543, 326.4109
950.4828, 325.5703
952.4113, 325.2501
954.3397, 325.5735
956.2682, 325.8779
958.1967, 326.1638
960.1251, 326.2089
962.0536, 325.9217
963.9821, 325.6950
965.9105, 325.8804
967.8390, 326.3304
969.7675, 326.8365
971.6959, 327.3197
973.6244, 327.6409
975.5529, 327.5426
977.4813, 327.1533
979.4098, 327.0751
981.3383, 327.6609
983.2667, 328.4366
985.1952, 328.6189
987.1237, 327.7265
989.0521, 326.7215
990.9806, 326.7134
992.9091, 327.8203
994.8375, 329.5981
996.7660, 330.6818
998.6945, 331.5510
1000.623, 332.5336
1002.551, 333.0543
1004.480, 331.9869
1006.408, 331.3154
1008.337, 332.7621
1010.265, 334.9757
1012.194, 336.1214
1014.122, 336.1241
1016.051, 336.5058
1017.979, 338.1628
1019.908, 339.2994
1021.836, 339.3710
1023.765, 338.7474
1025.693, 339.1443
1027.621, 340.9909
1029.550, 342.2615
1031.478, 342.6027
1033.407, 342.2518
1035.335, 342.2564
1037.264, 342.9856
1039.192, 343.8351
1041.121, 344.0156
1043.049, 343.9100
1044.978, 344.3942
1046.906, 345.8075
1048.835, 346.8708
1050.763, 346.5738
1052.692, 345.6036
1054.620, 345.3448
1056.548, 346.4366
1058.477, 347.1147
1060.405, 346.2440
1062.334, 344.9640
1064.262, 344.6054
1066.191, 345.4283
1068.119, 346.1615
1070.048, 346.3608
1071.976, 345.9361
1073.905, 345.3346
1075.833, 344.9330
1077.762, 345.1576
1079.690, 346.4931
1081.619, 347.5015
1083.547, 347.2869
1085.475, 346.6113
1087.404, 346.7900
1089.332, 348.3256
1091.261, 349.0687
1093.189, 348.0858
1095.118, 347.2441
1097.046, 347.2819
1098.975, 348.0150
1100.903, 348.9696
1102.832, 350.5460
1104.760, 351.6517
1106.689, 351.4577
1108.617, 350.1393
1110.546, 349.2239
1112.474, 349.0302
1114.402, 349.5713
1116.331, 350.7046
1118.259, 351.7172
1120.188, 352.5143
1122.116, 353.0131
1124.045, 353.3185
1125.973, 353.6712
1127.902, 353.5520
1129.830, 353.8659
1131.759, 353.9200
1133.687, 353.7259
1135.616, 353.1578
1137.544, 352.8162
1139.473, 352.8656
1141.401, 353.2859
1143.329, 353.8804
1145.258, 355.0199
1147.186, 355.6512
1149.115, 355.3696
1151.043, 354.7415
1152.972, 354.3417
1154.900, 354.3802
1156.829, 354.7920
1158.757, 355.8973
1160.686, 356.8186
1162.614, 357.0155
1164.543, 356.8134
1166.471, 356.9796
1168.400, 357.7117
1170.328, 358.3994
1172.256, 358.9556
1174.185, 359.4944
1176.113, 359.6620
1178.042, 359.1262
1179.970, 358.9966
1181.899, 359.4833
1183.827, 360.1947
1185.756, 360.9251
1187.684, 361.6271
1189.613, 362.4148
1191.541, 363.3347
1193.470, 364.2615
1195.398, 365.5779
1197.327, 366.6803
1199.255, 366.7555
1201.183, 365.7264
1203.112, 365.1376
1205.040, 365.2746
1206.969, 365.7278
1208.897, 366.4676
1210.826, 367.3201
1212.754, 367.8939
1214.683, 367.8742
1216.611, 368.0697
1218.540, 368.6789
1220.468, 369.4921
1222.397, 370.4899
1224.325, 371.6316
1226.254, 372.3780
1228.182, 372.3233
1230.110, 372.5200
1232.039, 373.5699
1233.967, 374.9351
1235.896, 375.7911
1237.824, 375.8489
1239.753, 376.2550
1241.681, 377.9359
1243.610, 379.4708
1245.538, 379.7188
1247.467, 378.7244
1249.395, 378.7158
1251.324, 380.7870
1253.252, 382.3674
1255.181, 382.5330
1257.109, 382.4063
1259.037, 383.2611
1260.966, 385.1285
1262.894, 386.4286
1264.823, 386.6383
1266.751, 386.6460
1268.680, 386.7253
1270.608, 386.9490
1272.537, 387.5313
1274.465, 388.5936
1276.394, 389.6330
1278.322, 390.6202
1280.251, 391.4979
1282.179, 392.2530
1284.108, 392.7835
1286.036, 393.1006
1287.964, 392.5301
1289.893, 392.9063
1291.821, 395.4469
1293.750, 398.5887
1295.678, 400.1700
1297.607, 399.5247
1299.535, 399.8757
1301.464, 402.1908
1303.392, 404.5094
1305.321, 405.9851
1307.249, 406.7808
1309.178, 407.1634
1311.106, 407.1346
1313.035, 407.4966
1314.963, 408.7500
1316.891, 409.9279
1318.820, 410.5340
1320.748, 410.7384
1322.677, 411.1165
1324.605, 411.5855
1326.534, 412.2540
1328.462, 413.3814
1330.391, 414.7434
1332.319, 415.9161
1334.248, 416.6983
1336.176, 416.7878
1338.105, 415.1146
1340.033, 414.0699
1341.962, 415.0876
1343.890, 417.3999
1345.818, 418.8855
1347.747, 418.6587
1349.675, 418.8091
1351.604, 420.5569
1353.532, 422.1696
1355.461, 422.2358
1357.389, 421.3934
1359.318, 420.9825
1361.246, 420.7329
1363.175, 420.7746
1365.103, 421.8282
1367.032, 422.8206
1368.960, 422.7224
1370.889, 421.6331
1372.817, 421.4540
1374.745, 423.1155
1376.674, 424.7085
1378.602, 425.8994
1380.531, 426.6823
1382.459, 426.8741
1384.388, 426.1701
1386.316, 425.9182
1388.245, 426.8041
1390.173, 427.6404
1392.102, 428.3618
1394.030, 429.0649
1395.959, 429.8969
1397.887, 430.5409
1399.816, 430.1887
1401.744, 428.2038
1403.672, 427.4664
1405.601, 429.5346
1407.529, 432.0793
1409.458, 432.7506
1411.386, 432.0372
1413.315, 432.1268
1415.243, 433.6938
1417.172, 435.0885
1419.100, 435.5524
1421.029, 435.5874
1422.957, 435.5200
1424.886, 435.3316
1426.814, 435.7744
1428.743, 437.5031
1430.671, 439.0088
1432.599, 439.4595
1434.528, 439.4137
1436.456, 439.7062
1438.385, 440.6425
1440.313, 441.7837
1442.242, 443.3292
1444.170, 444.2675
1446.099, 444.0069
1448.027, 443.3226
1449.956, 443.1139
1451.884, 443.3851
1453.813, 443.8545
1455.741, 445.1716
1457.670, 446.0165
1459.598, 445.8324
1461.526, 445.1456
1463.455, 444.3188
1465.383, 443.3291
1467.312, 443.5173
1469.240, 445.5871
1471.169, 447.6046
1473.097, 449.4663
1475.026, 450.6059
1476.954, 449.7228
1478.883, 447.1258
1480.811, 446.2816
1482.740, 448.6700
1484.668, 450.8272
1486.597, 450.5846
1488.525, 449.8701
1490.453, 450.8511
1492.382, 453.4942
1494.310, 455.5362
1496.239, 456.0956
1498.167, 456.3437
1500.096, 456.4868
1502.024, 456.6154
1503.953, 456.9100
1505.881, 457.5087
1507.810, 458.3921
1509.738, 459.6653
1511.667, 460.2352
1513.595, 459.5298
1515.524, 458.8722
1517.452, 459.1055
1519.380, 460.0721
1521.309, 461.0568
1523.237, 461.8289
1525.166, 462.9659
1527.094, 464.7251
1529.023, 466.3489
1530.951, 467.5718
1532.880, 468.4606
1534.808, 468.9814
1536.737, 468.8708
1538.665, 468.9912
1540.594, 470.0485
1542.522, 470.8771
1544.451, 470.2864
1546.379, 469.7155
1548.307, 471.2545
1550.236, 475.0423
1552.164, 477.9587
1554.093, 479.6091
1556.021, 480.6400
1557.950, 481.1905
1559.878, 481.4542
1561.807, 481.4054
1563.735, 481.0817
1565.664, 480.7046
1567.592, 480.1148
1569.521, 480.3139
1571.449, 482.1523
1573.378, 484.0102
1575.306, 485.1868
1577.234, 485.6508
1579.163, 485.1647
1581.091, 483.7104
1583.020, 483.5641
1584.948, 485.8943
1586.877, 487.9530
1588.805, 488.3725
1590.734, 488.0746
1592.662, 487.7566
1594.591, 487.4927
1596.519, 487.7732
1598.448, 488.7246
1600.376, 489.8877
1602.305, 491.1916
1604.233, 492.3346
1606.161, 493.4162
1608.090, 494.1756
1610.018, 493.8851
1611.947, 492.3942
1613.875, 491.2375
1615.804, 490.6823
1617.732, 490.5500
1619.661, 491.5125
1621.589, 492.4663
1623.518, 491.9605
1625.446, 490.2225
1627.375, 489.6749
1629.303, 490.6712
1631.232, 491.9516
1633.160, 493.7948
1635.089, 495.0294
1637.017, 494.2786
1638.945, 492.6180
1640.874, 492.8138
1642.802, 495.3094
1644.731, 496.7045
1646.659, 496.2565
1648.588, 495.6530
1650.516, 495.3008
1652.445, 495.1346
1654.373, 495.0888
1656.302, 495.1401
1658.230, 495.2227
1660.159, 495.1883
1662.087, 495.4509
1664.016, 496.2435
1665.944, 497.0879
1667.872, 498.1667
1669.801, 499.0020
1671.729, 498.8529
1673.658, 497.6552
1675.586, 496.5129
1677.515, 494.8114
1679.443, 494.4543
1681.372, 496.9995
1683.300, 499.5648
1685.229, 500.3959
1687.157, 500.1597
1689.086, 500.2093
1691.014, 500.5099
1692.943, 501.0043
1694.871, 501.6849
1696.799, 502.4722
1698.728, 503.6143
1700.656, 504.6324
1702.585, 505.1277
1704.513, 505.2990
1706.442, 505.7669
1708.370, 506.7937
1710.299, 507.2796
1712.227, 506.1610
1714.156, 505.8932
1716.084, 508.0789
1718.013, 510.3820
1719.941, 510.4505
1721.870, 508.8462
1723.798, 508.4195
1725.726, 509.7149
1727.655, 510.4093
1729.583, 509.7427
1731.512, 509.2857
1733.440, 509.7355
1735.369, 510.3895
1737.297, 510.2970
1739.226, 511.6458
1741.154, 510.7553
1743.083, 513.9104
1745.011, 516.2997
1746.940, 517.1175
1748.868, 517.8079
1750.797, 518.7465
1752.725, 519.7151
1754.653, 520.4645
1756.582, 521.0106
1758.510, 521.7848
1760.439, 523.0877
1762.367, 523.1685
1764.296, 520.8716
1766.224, 519.0159
1768.153, 518.6815
1770.081, 519.1111
1772.010, 519.9568
1773.938, 521.0973
1775.867, 521.9270
1777.795, 522.3754
1779.724, 523.0479
1781.652, 524.1780
1783.580, 525.1267
1785.509, 525.3712
1787.437, 525.5757
1789.366, 526.1920
1791.294, 527.0734
1793.223, 528.0370
1795.151, 529.0818
1797.080, 529.5343
1799.008, 528.9859
1800.937, 528.8483
1802.865, 530.1443
1804.794, 531.3482
1806.722, 531.0768
1808.651, 530.3649
1810.579, 530.9860
1812.507, 532.7419
1814.436, 533.4997
1816.364, 532.6825
1818.293, 532.3474
1820.221, 532.6672
1822.150, 533.9484
1824.078, 537.7797
1826.007, 541.6490
1827.935, 542.1498
1829.864, 540.2446
1831.792, 539.8232
1833.721, 541.2986
1835.649, 542.4191
1837.578, 542.6193
1839.506, 542.8395
1841.434, 543.1976
1843.363, 543.7755
1845.291, 544.7610
1847.220, 545.9310
1849.148, 546.7734
1851.077, 547.2101
1853.005, 547.9759
1854.934, 549.9944
1856.862, 550.7559
1858.791, 548.4777
1860.719, 546.7253
1862.648, 548.0894
1864.576, 550.2147
1866.505, 549.7158
1868.433, 547.1918
1870.361, 546.7799
1872.290, 549.7265
1874.218, 551.7630
1876.147, 552.5565
1878.075, 552.9705
1880.004, 552.2100
1881.932, 552.1972
1883.861, 555.1046
1885.789, 559.0922
1887.718, 560.7662
1889.646, 560.0782
1891.575, 559.5742
1893.503, 559.2048
1895.432, 559.0294
1897.360, 558.9973
1899.288, 559.2932
1901.217, 560.6292
1903.145, 561.8785
1905.074, 562.0353
1907.002, 561.6980
1908.931, 561.8386
1910.859, 562.4834
1912.788, 564.1892
1914.716, 567.5020
1916.645, 569.2101
1918.573, 567.3776
1920.502, 565.5704
1922.430, 565.5703
1924.359, 566.1124
1926.287, 566.0768
1928.215, 565.8014
1930.144, 566.2092
1932.072, 567.3843
1934.001, 568.0027
1935.929, 567.7513
1937.858, 567.6262
1939.786, 567.5514
1941.715, 567.8713
1943.643, 568.9816
1945.572, 570.2589
1947.500, 571.2004
1949.429, 571.8459
1951.357, 572.2491
1953.286, 572.3347
1955.214, 572.7149
1957.143, 573.5511
1959.071, 574.2734
1961.000, 574.7330
1962.928, 575.2744
1964.856, 576.7914
1966.785, 577.7157
1968.713, 576.2665
1970.642, 573.8400
1972.570, 572.7747
1974.499, 573.0190
1976.427, 574.4225
1978.356, 577.1326
1980.284, 579.7834
1982.213, 582.6953
1984.141, 584.1495
1986.070, 581.5048
1987.998, 579.5090
1989.927, 582.0720
1991.855, 586.1223
1993.783, 587.8552
1995.712, 587.6672
1997.640, 587.0433
1999.569, 585.6740
2001.497, 585.6531
2003.426, 588.4243
2005.354, 590.2830
2007.283, 589.9556
2009.211, 589.8760
2011.140, 591.8041
2013.068, 593.5084
2014.997, 592.4085
2016.925, 590.0580
2018.854, 589.8616
2020.782, 591.7219
2022.710, 593.0023
2024.639, 593.6910
2026.567, 593.4804
2028.496, 590.8843
2030.424, 591.1996
2032.353, 599.2382
2034.281, 605.9071
2036.210, 604.6068
2038.138, 600.7172
2040.067, 599.1264
2041.995, 599.2463
2043.924, 599.9327
2045.852, 601.1737
2047.781, 601.8964
2049.709, 602.0143
2051.637, 601.7747
2053.566, 600.7519
2055.494, 600.0170
2057.423, 599.8434
2059.351, 600.0271
2061.280, 600.7753
2063.208, 601.6773
2065.137, 602.2479
2067.065, 602.6750
2068.994, 603.4023
2070.922, 604.4139
2072.851, 605.4779
2074.779, 606.5417
2076.708, 607.2723
2078.636, 607.2935
2080.564, 607.4423
2082.493, 607.9393
2084.421, 608.6238
2086.350, 609.7607
2088.278, 610.8657
2090.207, 611.4522
2092.135, 611.8293
2094.064, 612.5264
2095.992, 613.5540
2097.921, 614.6137
2099.849, 615.6121
2101.778, 616.7537
2103.706, 619.3143
2105.635, 619.4601
2107.563, 613.8588
2109.491, 609.7812
2111.420, 611.1272
2113.348, 613.0859
2115.277, 611.8496
2117.205, 613.8342
2119.134, 611.7037
2121.062, 615.3801
2122.991, 617.1302
2124.919, 616.9505
2126.848, 617.0502
2128.776, 617.5790
2130.705, 617.9612
2132.633, 617.4352
2134.562, 617.7664
2136.490, 620.3558
2138.418, 622.4741
2140.347, 622.5992
2142.275, 622.2236
2144.204, 622.2079
2146.132, 622.7396
2148.061, 624.5696
2149.989, 627.2355
2151.918, 628.4474
2153.846, 628.2535
2155.775, 628.1252
2157.703, 628.1046
2159.632, 628.2856
2161.560, 628.7464
2163.489, 629.0336
2165.417, 628.4677
2167.345, 628.3469
