##NAMES=Laurelite
##RRUFFID=R100011
##IDEAL CHEMISTRY=Pb^2+^_7_F_12_Cl_2_
##LOCALITY=Grand Reef mine, Klondyke, Aravaipa District, Graham County, Arizona, USA
##OWNER=RRUFF
##SOURCE=William W. Pinch
##DESCRIPTION=Both prismatic and acicular colorless crystals associated with aravaipaite R100032 and scotlandite R100043
##STATUS=The identification of this mineral has been confirmed by single-crystal X-ray diffraction.
##URL=rruff.info/R100011
92.49744, 1635.806
92.97955, 1660.991
93.46167, 1696.283
93.94379, 1713.864
94.42590, 1721.813
94.90802, 1726.005
95.39014, 1728.327
95.87225, 1728.140
96.35437, 1728.888
96.83649, 1732.688
97.31860, 1739.191
97.80072, 1748.233
98.28284, 1757.862
98.76495, 1766.531
99.24707, 1775.604
99.72919, 1784.329
100.2113, 1795.477
100.6934, 1809.967
101.1755, 1827.049
101.6577, 1845.180
102.1398, 1863.320
102.6219, 1881.294
103.1040, 1899.457
103.5861, 1918.674
104.0682, 1937.102
104.5504, 1953.974
105.0325, 1968.991
105.5146, 1982.169
105.9967, 1993.264
106.4788, 2002.685
106.9609, 2007.749
107.4431, 2007.052
107.9252, 2002.189
108.4073, 1995.342
108.8894, 1987.284
109.3715, 1977.019
109.8536, 1962.934
110.3358, 1944.891
110.8179, 1924.956
111.3000, 1903.016
111.7821, 1879.375
112.2642, 1857.113
112.7463, 1837.532
113.2285, 1819.995
113.7106, 1803.540
114.1927, 1787.822
114.6748, 1773.911
115.1569, 1763.853
115.6390, 1758.812
116.1212, 1754.564
116.6033, 1750.952
117.0854, 1746.929
117.5675, 1741.292
118.0496, 1733.306
118.5317, 1723.398
119.0139, 1713.868
119.4960, 1709.273
119.9781, 1699.771
120.4602, 1683.756
120.9423, 1661.554
121.4244, 1633.791
121.9066, 1600.545
122.3887, 1561.335
122.8708, 1522.076
123.3529, 1482.313
123.8350, 1442.713
124.3171, 1402.667
124.7993, 1362.575
125.2814, 1324.684
125.7635, 1290.870
126.2456, 1261.850
126.7277, 1236.760
127.2098, 1216.741
127.6920, 1200.158
128.1741, 1185.460
128.6562, 1172.545
129.1383, 1160.949
129.6204, 1150.152
130.1025, 1139.995
130.5847, 1131.148
131.0668, 1124.421
131.5489, 1119.332
132.0310, 1114.163
132.5131, 1108.094
132.9952, 1102.370
133.4774, 1097.750
133.9595, 1094.264
134.4416, 1091.926
134.9237, 1091.460
135.4058, 1093.365
135.8879, 1093.697
136.3701, 1089.825
136.8522, 1085.366
137.3343, 1082.481
137.8164, 1081.677
138.2985, 1081.811
138.7806, 1080.731
139.2628, 1076.895
139.7449, 1074.781
140.2270, 1075.415
140.7091, 1077.351
141.1912, 1079.620
141.6733, 1081.769
142.1555, 1083.538
142.6376, 1083.990
143.1197, 1079.926
143.6018, 1078.050
144.0839, 1080.177
144.5660, 1084.835
145.0482, 1089.786
145.5303, 1093.781
146.0124, 1096.897
146.4945, 1099.826
146.9766, 1102.018
147.4587, 1104.569
147.9409, 1108.271
148.4230, 1112.884
148.9051, 1117.261
149.3872, 1120.540
149.8693, 1122.868
150.3514, 1125.586
150.8336, 1129.025
151.3157, 1132.673
151.7978, 1136.273
152.2799, 1139.904
152.7620, 1143.010
153.2441, 1144.547
153.7263, 1145.282
154.2084, 1146.538
154.6905, 1149.066
155.1726, 1152.352
155.6547, 1155.396
156.1368, 1158.417
156.6190, 1160.676
157.1011, 1161.990
157.5832, 1162.406
158.0653, 1161.952
158.5474, 1160.217
159.0295, 1157.350
159.5117, 1155.411
159.9938, 1155.739
160.4759, 1155.682
160.9580, 1153.980
161.4401, 1151.028
161.9222, 1147.979
162.4044, 1145.901
162.8865, 1144.970
163.3686, 1143.919
163.8507, 1143.518
164.3328, 1142.364
164.8149, 1139.680
165.2971, 1135.504
165.7792, 1130.486
166.2613, 1125.258
166.7434, 1119.615
167.2255, 1114.500
167.7076, 1110.376
168.1898, 1106.377
168.6719, 1102.047
169.1540, 1097.239
169.6361, 1091.913
170.1182, 1085.836
170.6003, 1078.221
171.0825, 1072.025
171.5646, 1067.932
172.0467, 1065.132
172.5288, 1063.119
173.0109, 1061.913
173.4930, 1060.538
173.9752, 1056.903
174.4573, 1050.742
174.9394, 1045.032
175.4215, 1040.554
175.9036, 1037.125
176.3857, 1034.471
176.8679, 1032.698
177.3500, 1031.376
177.8321, 1030.008
178.3142, 1028.619
178.7963, 1026.968
179.2784, 1024.752
179.7606, 1022.034
180.2427, 1019.448
180.7248, 1016.915
181.2069, 1014.849
181.6890, 1013.664
182.1711, 1013.409
182.6533, 1013.534
183.1354, 1013.689
183.6175, 1013.935
184.0996, 1013.738
184.5817, 1012.236
185.0638, 1010.702
185.5460, 1010.096
186.0281, 1010.593
186.5102, 1011.284
186.9923, 1010.775
187.4744, 1008.465
187.9565, 1006.533
188.4387, 1005.038
188.9208, 1004.073
189.4029, 1004.125
189.8850, 1005.246
190.3671, 1006.494
190.8492, 1005.949
191.3314, 1002.012
191.8135, 998.8033
192.2956, 996.3452
192.7777, 994.7363
193.2598, 994.3937
193.7419, 995.4363
194.2241, 997.1389
194.7062, 997.7546
195.1883, 996.1871
195.6704, 994.6796
196.1525, 992.6351
196.6346, 990.8856
197.1168, 990.7309
197.5989, 992.8037
198.0810, 996.0923
198.5631, 997.6105
199.0452, 995.6772
199.5273, 994.3237
200.0095, 994.2470
200.4916, 995.1461
200.9737, 996.6331
201.4558, 998.6371
201.9379, 1000.947
202.4200, 1002.905
202.9022, 1003.793
203.3843, 1005.537
203.8664, 1009.416
204.3485, 1014.770
204.8306, 1019.708
205.3127, 1023.279
205.7949, 1026.109
206.2770, 1029.587
206.7591, 1033.928
207.2412, 1038.401
207.7233, 1042.602
208.2054, 1046.580
208.6876, 1050.409
209.1697, 1053.480
209.6518, 1057.005
210.1339, 1062.808
210.6160, 1071.649
211.0981, 1080.701
211.5803, 1086.931
212.0624, 1090.311
212.5445, 1095.424
213.0266, 1105.217
213.5087, 1116.702
213.9908, 1127.023
214.4730, 1135.562
214.9551, 1143.819
215.4372, 1153.417
215.9193, 1164.636
216.4014, 1175.703
216.8836, 1186.254
217.3657, 1196.429
217.8478, 1205.935
218.3299, 1214.620
218.8120, 1223.806
219.2941, 1235.448
219.7763, 1250.239
220.2584, 1265.205
220.7405, 1280.727
221.2226, 1295.737
221.7047, 1309.368
222.1868, 1321.407
222.6690, 1332.467
223.1511, 1343.211
223.6332, 1352.817
224.1153, 1364.261
224.5974, 1379.019
225.0795, 1394.599
225.5617, 1409.287
226.0438, 1422.584
226.5259, 1435.038
227.0080, 1447.629
227.4901, 1460.598
227.9722, 1473.154
228.4544, 1484.872
228.9365, 1496.464
229.4186, 1508.579
229.9007, 1521.314
230.3828, 1534.043
230.8649, 1545.531
231.3471, 1555.135
231.8292, 1564.455
232.3113, 1572.929
232.7934, 1581.435
233.2755, 1591.026
233.7576, 1601.856
234.2398, 1613.031
234.7219, 1622.949
235.2040, 1631.321
235.6861, 1638.667
236.1682, 1645.033
236.6503, 1650.382
237.1325, 1654.546
237.6146, 1657.484
238.0967, 1659.485
238.5788, 1660.935
239.0609, 1661.733
239.5430, 1662.044
240.0252, 1662.238
240.5073, 1661.761
240.9894, 1660.122
241.4715, 1657.197
241.9536, 1653.048
242.4357, 1647.493
242.9179, 1640.221
243.4000, 1632.952
243.8821, 1626.768
244.3642, 1620.258
244.8463, 1611.524
245.3284, 1600.072
245.8106, 1587.845
246.2927, 1577.421
246.7748, 1568.930
247.2569, 1558.899
247.7390, 1546.763
248.2211, 1532.801
248.7033, 1517.096
249.1854, 1499.539
249.6675, 1480.943
250.1496, 1461.807
250.6317, 1442.061
251.1138, 1422.035
251.5960, 1401.343
252.0781, 1380.541
252.5602, 1360.234
253.0423, 1340.676
253.5244, 1321.166
254.0065, 1301.361
254.4887, 1281.353
254.9708, 1261.211
255.4529, 1240.872
255.9350, 1220.490
256.4171, 1200.568
256.8992, 1181.256
257.3813, 1161.807
257.8635, 1140.734
258.3456, 1119.177
258.8277, 1098.996
259.3098, 1081.042
259.7919, 1064.729
260.2740, 1049.550
260.7562, 1035.710
261.2383, 1022.128
261.7204, 1008.297
262.2025, 994.2776
262.6846, 979.8396
263.1667, 964.4321
263.6489, 949.1736
264.1310, 935.7325
264.6131, 924.4675
265.0952, 913.4470
265.5773, 900.9313
266.0594, 888.6536
266.5416, 878.5875
267.0237, 871.6816
267.5058, 866.0157
267.9879, 858.9821
268.4700, 850.3677
268.9521, 841.4733
269.4343, 832.2667
269.9164, 823.1923
270.3985, 814.5801
270.8806, 806.4863
271.3627, 799.0344
271.8448, 792.5751
272.3270, 787.2824
272.8091, 781.9160
273.2912, 775.8691
273.7733, 769.8471
274.2554, 764.3163
274.7375, 759.3132
275.2197, 754.5308
275.7018, 749.5521
276.1839, 744.3405
276.6660, 739.2750
277.1481, 734.6018
277.6302, 729.9660
278.1124, 724.8518
278.5945, 719.4001
279.0766, 714.6948
279.5587, 712.2852
280.0408, 712.5421
280.5229, 711.7078
281.0051, 709.0338
281.4872, 705.6677
281.9693, 701.7215
282.4514, 697.4189
282.9335, 693.2039
283.4156, 689.3799
283.8978, 685.9415
284.3799, 683.1650
284.8620, 681.7614
285.3441, 680.3430
285.8262, 678.2983
286.3083, 675.8568
286.7905, 673.5958
287.2726, 672.0255
287.7547, 671.0295
288.2368, 669.5156
288.7189, 667.0247
289.2010, 664.5147
289.6832, 662.3969
290.1653, 660.4152
290.6474, 658.0770
291.1295, 655.0336
291.6116, 651.5713
292.0938, 648.9189
292.5759, 647.8205
293.0580, 646.5233
293.5401, 644.7488
294.0222, 642.5923
294.5043, 640.0656
294.9865, 637.1537
295.4686, 634.1352
295.9507, 631.7247
296.4328, 630.3463
296.9149, 628.8517
297.3970, 626.7563
297.8792, 624.6887
298.3613, 623.4026
298.8434, 623.0657
299.3255, 622.9467
299.8076, 621.7684
300.2897, 618.9777
300.7719, 616.3311
301.2540, 613.5012
301.7361, 611.0984
302.2182, 609.8439
302.7003, 609.6722
303.1824, 609.5505
303.6646, 608.0673
304.1467, 604.6249
304.6288, 602.0115
305.1109, 600.3611
305.5930, 599.3401
306.0751, 599.3541
306.5573, 600.0202
307.0394, 600.2309
307.5215, 598.7955
308.0036, 595.5233
308.4857, 593.2908
308.9678, 593.2894
309.4500, 593.1931
309.9321, 592.2855
310.4142, 590.7633
310.8963, 589.0706
311.3784, 587.4168
311.8605, 585.8899
312.3427, 585.2497
312.8248, 587.3428
313.3069, 588.1232
313.7890, 585.7680
314.2711, 582.0291
314.7532, 579.1432
315.2354, 578.2376
315.7175, 578.7752
316.1996, 579.3343
316.6817, 580.5724
317.1638, 580.6906
317.6459, 578.6479
318.1281, 575.9980
318.6102, 574.2367
319.0923, 573.8028
319.5744, 573.8929
320.0565, 573.0218
320.5386, 570.2411
321.0208, 568.7403
321.5029, 569.7424
321.9850, 571.0250
322.4671, 571.3116
322.9492, 570.4078
323.4313, 568.8005
323.9135, 566.8940
324.3956, 564.5712
324.8777, 562.5475
325.3598, 560.6111
325.8419, 559.1612
326.3240, 558.7087
326.8062, 558.9288
327.2883, 558.9709
327.7704, 558.1213
328.2525, 556.4442
328.7346, 555.0345
329.2167, 553.6291
329.6989, 552.8626
330.1810, 553.6679
330.6631, 555.0291
331.1452, 555.3588
331.6273, 553.7123
332.1094, 550.8038
332.5916, 548.8560
333.0737, 548.3251
333.5558, 548.0551
334.0379, 548.2672
334.5200, 548.3875
335.0021, 547.6565
335.4843, 545.8616
335.9664, 543.8557
336.4485, 543.1357
336.9306, 544.2362
337.4127, 545.0217
337.8948, 545.3093
338.3770, 545.2209
338.8591, 544.6352
339.3412, 543.6362
339.8233, 542.6298
340.3055, 542.0998
340.7876, 542.1227
341.2697, 541.8554
341.7518, 541.0059
342.2339, 540.1351
342.7160, 539.2711
343.1982, 538.5494
343.6803, 538.3002
344.1624, 539.0286
344.6445, 540.3652
345.1266, 540.3209
345.6087, 537.8985
346.0909, 535.6889
346.5730, 534.5825
347.0551, 534.1328
347.5372, 533.7844
348.0193, 533.2937
348.5014, 532.8505
348.9836, 532.9789
349.4657, 534.0524
349.9478, 534.4321
350.4299, 532.8560
350.9120, 530.9329
351.3941, 529.8606
351.8763, 529.8572
352.3584, 530.2272
352.8405, 530.3400
353.3226, 530.1926
353.8047, 529.8875
354.2868, 529.2861
354.7690, 528.6801
355.2511, 528.1645
355.7332, 527.7747
356.2153, 527.6303
356.6974, 528.1801
357.1795, 529.0993
357.6617, 529.0462
358.1438, 527.7204
358.6259, 525.9970
359.1080, 523.8224
359.5901, 521.6976
360.0722, 520.5154
360.5544, 520.8766
361.0365, 521.9898
361.5186, 522.8878
362.0007, 523.5845
362.4828, 523.8999
362.9649, 523.6536
363.4471, 523.0140
363.9292, 522.0814
364.4113, 520.7723
364.8934, 519.5803
365.3755, 519.0402
365.8576, 519.0114
366.3398, 518.7111
366.8219, 517.9018
367.3040, 516.8409
367.7861, 515.4739
368.2682, 513.8708
368.7503, 513.1485
369.2325, 514.5569
369.7146, 516.8949
370.1967, 518.1362
370.6788, 518.0580
371.1609, 517.1885
371.6430, 515.5419
372.1252, 513.3802
372.6073, 511.6231
373.0894, 510.6196
373.5715, 509.8815
374.0536, 508.8589
374.5357, 507.6753
375.0179, 507.1674
375.5000, 508.0379
375.9821, 509.5734
376.4642, 510.0432
376.9463, 509.0777
377.4284, 508.0729
377.9106, 507.6617
378.3927, 507.5222
378.8748, 507.0343
379.3569, 506.0027
379.8390, 504.8545
380.3211, 504.1565
380.8033, 504.0070
381.2854, 503.7675
381.7675, 503.2925
382.2496, 502.7873
382.7317, 502.2740
383.2138, 501.8214
383.6960, 501.8057
384.1781, 502.6707
384.6602, 504.2890
385.1423, 504.8339
385.6244, 503.5317
386.1065, 502.2326
386.5887, 501.3398
387.0708, 500.8921
387.5529, 501.0337
388.0350, 501.8553
388.5171, 502.9915
388.9992, 503.6359
389.4814, 503.2835
389.9635, 503.1930
390.4456, 503.7080
390.9277, 504.2571
391.4098, 504.1615
391.8919, 503.4598
392.3741, 502.9635
392.8562, 503.6110
393.3383, 505.6380
393.8204, 507.0284
394.3025, 507.5187
394.7846, 507.7037
395.2668, 507.4682
395.7489, 507.1086
396.2310, 507.2357
396.7131, 508.2838
397.1952, 509.7807
397.6773, 509.9582
398.1595, 507.3422
398.6416, 505.8667
399.1237, 506.5847
399.6058, 508.1638
400.0879, 509.6382
400.5700, 510.7211
401.0522, 511.4540
401.5343, 511.8509
402.0164, 511.8693
402.4985, 511.7684
402.9806, 511.0374
403.4627, 510.7017
403.9449, 511.5565
404.4270, 513.1922
404.9091, 514.5313
405.3912, 514.8027
405.8733, 514.3456
406.3554, 514.2618
406.8376, 514.7598
407.3197, 515.1027
407.8018, 514.9295
408.2839, 514.4876
408.7660, 513.9700
409.2481, 513.3947
409.7303, 512.8754
410.2124, 512.4147
410.6945, 512.0389
411.1766, 512.2603
411.6587, 513.8949
412.1408, 515.2185
412.6230, 514.4084
413.1051, 511.7358
413.5872, 509.1201
414.0693, 507.3372
414.5514, 506.1158
415.0335, 505.0182
415.5157, 504.0008
415.9978, 503.3485
416.4799, 503.5075
416.9620, 504.1374
417.4441, 504.1480
417.9262, 502.8725
418.4084, 501.8061
418.8905, 502.2302
419.3726, 503.5373
419.8547, 504.1041
420.3368, 503.3124
420.8189, 501.7844
421.3011, 500.4316
421.7832, 499.2363
422.2653, 498.2901
422.7474, 497.7914
423.2295, 497.4245
423.7116, 496.9656
424.1938, 496.3784
424.6759, 495.6173
425.1580, 494.5623
425.6401, 493.2623
426.1222, 492.6241
426.6043, 493.5591
427.0865, 493.9873
427.5686, 493.0135
428.0507, 491.3365
428.5328, 489.8102
429.0149, 488.7747
429.4970, 488.2885
429.9792, 488.5608
430.4613, 490.3675
430.9434, 491.2070
431.4255, 490.8735
431.9076, 489.9513
432.3897, 488.2031
432.8719, 486.0705
433.3540, 484.7353
433.8361, 485.3579
434.3182, 487.5432
434.8003, 488.3480
435.2824, 486.8420
435.7646, 485.3235
436.2467, 484.4091
436.7288, 483.7611
437.2109, 483.0971
437.6930, 482.3319
438.1751, 481.3486
438.6573, 479.7145
439.1394, 477.3215
439.6215, 475.8685
440.1036, 476.1334
440.5857, 476.8141
441.0678, 477.1268
441.5500, 477.1161
442.0321, 477.0211
442.5142, 476.9366
442.9963, 476.8547
443.4784, 476.8042
443.9605, 476.8098
444.4427, 476.6261
444.9248, 475.8555
445.4069, 474.9679
445.8890, 474.8271
446.3711, 475.7354
446.8532, 476.6427
447.3354, 477.0844
447.8175, 477.0947
448.2996, 476.5556
448.7817, 475.3381
449.2638, 474.2638
449.7459, 474.5139
450.2281, 476.1931
450.7102, 476.6001
451.1923, 474.4731
451.6744, 472.0791
452.1565, 470.8418
452.6386, 470.5450
453.1208, 470.2946
453.6029, 469.5939
454.0850, 468.7327
454.5671, 468.5234
455.0492, 469.8754
455.5313, 470.6468
456.0135, 470.5334
456.4956, 470.0221
456.9777, 469.3182
457.4598, 468.5636
457.9419, 468.0375
458.4240, 468.0139
458.9062, 468.4996
459.3883, 469.1722
459.8704, 470.4299
460.3525, 471.4272
460.8346, 471.8253
461.3167, 471.9185
461.7989, 472.0749
462.2810, 472.4349
462.7631, 472.8905
463.2452, 473.2932
463.7273, 473.6441
464.2094, 473.9254
464.6916, 474.2091
465.1737, 474.3288
465.6558, 474.0435
466.1379, 473.4785
466.6200, 473.0774
467.1021, 473.0899
467.5843, 473.4174
468.0664, 474.0370
468.5485, 475.0547
469.0306, 475.5465
469.5127, 474.4760
469.9948, 473.0157
470.4770, 473.1747
470.9591, 475.5296
471.4412, 477.5813
471.9233, 477.5063
472.4054, 476.4283
472.8875, 476.6356
473.3697, 478.6081
473.8518, 480.6635
474.3339, 481.1856
474.8160, 480.1728
475.2981, 479.7437
475.7802, 480.3932
476.2624, 481.0865
476.7445, 481.2732
477.2266, 481.1848
477.7087, 481.2944
478.1908, 481.7911
478.6729, 482.4940
479.1551, 483.0941
479.6372, 483.6376
480.1193, 483.9377
480.6014, 483.8300
481.0835, 483.6589
481.5656, 483.4873
482.0478, 483.4126
482.5299, 483.7177
483.0120, 484.7069
483.4941, 485.9897
483.9762, 485.9105
484.4583, 483.5219
484.9405, 481.7155
485.4226, 481.4630
485.9047, 481.6831
486.3868, 481.5156
486.8689, 480.8717
487.3510, 480.3268
487.8332, 480.7484
488.3153, 481.7846
488.7974, 481.5851
489.2795, 479.7167
489.7616, 477.5105
490.2437, 475.3379
490.7259, 473.4496
491.2080, 472.3548
491.6901, 472.4608
492.1722, 472.7641
492.6543, 472.4781
493.1364, 471.8104
493.6186, 471.4712
494.1007, 471.7357
494.5828, 471.9227
495.0649, 471.0965
495.5470, 469.1192
496.0291, 467.7818
496.5113, 467.3075
496.9934, 467.3284
497.4755, 468.0776
497.9576, 469.1435
498.4397, 469.5234
498.9218, 468.7058
499.4040, 467.2359
499.8861, 466.3566
500.3682, 466.6340
500.8503, 466.4724
501.3324, 465.4939
501.8145, 464.4496
502.2967, 463.8098
502.7788, 463.5269
503.2609, 463.2696
503.7430, 462.7860
504.2251, 462.1725
504.7072, 461.7758
505.1894, 461.5150
505.6715, 461.6660
506.1536, 462.9132
506.6357, 464.1883
507.1178, 464.3982
507.5999, 463.4832
508.0821, 462.7862
508.5642, 463.6827
509.0463, 465.5545
509.5284, 466.5013
510.0105, 466.2646
510.4926, 465.7748
510.9748, 465.6059
511.4569, 465.5777
511.9390, 465.2162
512.4211, 464.1420
512.9032, 463.3888
513.3853, 463.6057
513.8674, 464.4427
514.3495, 465.3167
514.8317, 466.1024
515.3138, 466.9480
515.7959, 468.0436
516.2780, 469.4238
516.7601, 470.5298
517.2422, 471.5428
517.7244, 472.1324
518.2065, 471.7459
518.6886, 471.0149
519.1707, 470.9387
519.6528, 471.8436
520.1349, 473.0719
520.6171, 473.5217
521.0992, 472.8569
521.5813, 472.8011
522.0634, 474.0486
522.5455, 475.2451
523.0276, 476.0648
523.5098, 476.4567
523.9919, 476.3026
524.4740, 475.4230
524.9561, 474.3442
525.4382, 474.1278
525.9203, 474.8061
526.4025, 474.3188
526.8846, 471.4986
527.3667, 468.2817
527.8488, 466.7087
528.3309, 466.5138
528.8130, 465.9734
529.2952, 464.4111
529.7773, 462.4248
530.2594, 460.3483
530.7415, 458.2767
531.2236, 456.4873
531.7057, 455.0629
532.1879, 454.1094
532.6700, 453.8995
533.1521, 454.9513
533.6342, 455.5803
534.1163, 455.8554
534.5984, 455.6168
535.0806, 454.4142
535.5627, 452.5806
536.0448, 450.9825
536.5269, 450.1712
537.0090, 449.9183
537.4911, 449.5251
537.9733, 448.7868
538.4554, 448.3579
538.9375, 448.8954
539.4196, 449.2729
539.9017, 448.6628
540.3839, 447.1849
540.8660, 445.6054
541.3481, 444.2473
541.8302, 443.2115
542.3123, 442.9092
542.7944, 443.4555
543.2766, 443.7220
543.7587, 443.0877
544.2408, 442.0960
544.7229, 441.5107
545.2050, 441.3487
545.6871, 441.3945
546.1693, 441.8688
546.6514, 442.3354
547.1335, 442.0712
547.6156, 441.1987
548.0977, 440.8168
548.5798, 441.7308
549.0620, 443.3939
549.5441, 443.9587
550.0262, 441.9578
550.5083, 440.7839
550.9904, 441.0792
551.4725, 441.7227
551.9547, 441.7753
552.4368, 441.3209
552.9189, 441.1535
553.4010, 441.9849
553.8831, 443.4240
554.3652, 443.7793
554.8474, 442.5443
555.3295, 441.5077
555.8116, 441.3486
556.2937, 441.4022
556.7758, 441.1178
557.2579, 440.5054
557.7401, 440.1352
558.2222, 440.7606
558.7043, 441.6797
559.1864, 441.3700
559.6685, 439.7881
560.1506, 438.7701
560.6328, 439.4178
561.1149, 440.9717
561.5970, 441.7746
562.0791, 441.6539
562.5612, 441.4978
563.0433, 441.5614
563.5255, 441.5799
564.0076, 441.1954
564.4897, 440.5167
564.9718, 439.9555
565.4539, 439.7383
565.9360, 439.9529
566.4182, 441.0067
566.9003, 443.9416
567.3824, 445.7430
567.8645, 445.3522
568.3466, 444.6387
568.8287, 444.7517
569.3109, 445.6317
569.7930, 446.6590
570.2751, 447.6414
570.7572, 448.3369
571.2393, 447.9642
571.7214, 446.3969
572.2036, 445.3364
572.6857, 445.5362
573.1678, 446.2490
573.6499, 446.5576
574.1320, 446.4725
574.6141, 446.5639
575.0963, 446.8307
575.5784, 447.4581
576.0605, 449.0899
576.5426, 451.2892
577.0247, 452.5089
577.5068, 451.9627
577.9890, 450.5909
578.4711, 450.1557
578.9532, 451.0412
579.4353, 451.9330
579.9174, 453.0081
580.3995, 453.9191
580.8817, 454.4342
581.3638, 454.6703
581.8459, 454.8740
582.3280, 455.1686
582.8101, 455.4219
583.2922, 455.3770
583.7744, 455.0090
584.2565, 454.7122
584.7386, 454.6197
585.2207, 454.4810
585.7029, 454.0582
586.1850, 453.4533
586.6671, 452.8910
587.1492, 452.0732
587.6313, 451.7806
588.1135, 453.1277
