##NAMES=Lavenite
##RRUFFID=R120044
##IDEAL CHEMISTRY=(Na,Ca)_2_(Mn^2+^,Fe^2+^)(Zr^4+^,Ti^4+^,Nb^5+^)(Si_2_O_7_)(O,F)_2_
##LOCALITY=Mont Saint-Hilaire, Rouville RCM, Montérégie, Québec, Canada
##OWNER=RRUFF
##SOURCE=Donald Doell
##DESCRIPTION=Prismatic yellowish-orange on black amphibole
##STATUS=The identification of this mineral has been confirmed by single-crystal X-ray diffraction.
##URL=rruff.info/R120044
9.112140e+001, 0.000000e+000
9.160352e+001, 2.613300e+002
9.208563e+001, 2.550154e+002
9.256775e+001, 2.541987e+002
9.304987e+001, 2.614401e+002
9.353198e+001, 2.710246e+002
9.401410e+001, 2.783024e+002
9.449622e+001, 2.829404e+002
9.497833e+001, 2.857785e+002
9.546045e+001, 2.875862e+002
9.594257e+001, 2.883586e+002
9.642468e+001, 2.888529e+002
9.690680e+001, 2.887376e+002
9.738892e+001, 2.890685e+002
9.787103e+001, 2.906303e+002
9.835315e+001, 2.927941e+002
9.883527e+001, 2.943577e+002
9.931738e+001, 2.948329e+002
9.979950e+001, 2.938053e+002
1.002816e+002, 2.935858e+002
1.007637e+002, 2.943576e+002
1.012458e+002, 2.956188e+002
1.017280e+002, 2.968972e+002
1.022101e+002, 2.980601e+002
1.026922e+002, 2.993239e+002
1.031743e+002, 3.011547e+002
1.036564e+002, 3.035231e+002
1.041385e+002, 3.058770e+002
1.046207e+002, 3.079719e+002
1.051028e+002, 3.098692e+002
1.055849e+002, 3.117998e+002
1.060670e+002, 3.136683e+002
1.065491e+002, 3.156478e+002
1.070313e+002, 3.179305e+002
1.075134e+002, 3.205553e+002
1.079955e+002, 3.232886e+002
1.084776e+002, 3.258978e+002
1.089597e+002, 3.283621e+002
1.094418e+002, 3.307519e+002
1.099240e+002, 3.329821e+002
1.104061e+002, 3.351862e+002
1.108882e+002, 3.373743e+002
1.113703e+002, 3.395305e+002
1.118524e+002, 3.418092e+002
1.123345e+002, 3.446666e+002
1.128167e+002, 3.487065e+002
1.132988e+002, 3.525663e+002
1.137809e+002, 3.559504e+002
1.142630e+002, 3.590563e+002
1.147451e+002, 3.622485e+002
1.152272e+002, 3.657668e+002
1.157094e+002, 3.695822e+002
1.161915e+002, 3.725301e+002
1.166736e+002, 3.741049e+002
1.171557e+002, 3.754828e+002
1.176378e+002, 3.768715e+002
1.181199e+002, 3.783566e+002
1.186021e+002, 3.801097e+002
1.190842e+002, 3.823680e+002
1.195663e+002, 3.851602e+002
1.200484e+002, 3.874057e+002
1.205305e+002, 3.885973e+002
1.210126e+002, 3.895626e+002
1.214948e+002, 3.911786e+002
1.219769e+002, 3.936293e+002
1.224590e+002, 3.960074e+002
1.229411e+002, 3.972143e+002
1.234232e+002, 3.975307e+002
1.239053e+002, 3.976694e+002
1.243875e+002, 3.978171e+002
1.248696e+002, 3.979573e+002
1.253517e+002, 3.980258e+002
1.258338e+002, 3.979370e+002
1.263159e+002, 3.978914e+002
1.267980e+002, 3.980043e+002
1.272802e+002, 3.982681e+002
1.277623e+002, 3.986375e+002
1.282444e+002, 3.991841e+002
1.287265e+002, 3.999520e+002
1.292086e+002, 4.004142e+002
1.296907e+002, 4.001169e+002
1.301729e+002, 3.997951e+002
1.306550e+002, 3.999260e+002
1.311371e+002, 4.005008e+002
1.316192e+002, 4.010454e+002
1.321013e+002, 4.008466e+002
1.325834e+002, 3.993695e+002
1.330656e+002, 3.981676e+002
1.335477e+002, 3.970379e+002
1.340298e+002, 3.962632e+002
1.345119e+002, 3.962843e+002
1.349940e+002, 3.971967e+002
1.354761e+002, 3.984759e+002
1.359583e+002, 3.989128e+002
1.364404e+002, 3.975879e+002
1.369225e+002, 3.965154e+002
1.374046e+002, 3.961327e+002
1.378867e+002, 3.959948e+002
1.383688e+002, 3.953587e+002
1.388510e+002, 3.937736e+002
1.393331e+002, 3.916964e+002
1.398152e+002, 3.906837e+002
1.402973e+002, 3.914368e+002
1.407794e+002, 3.919945e+002
1.412615e+002, 3.914699e+002
1.417437e+002, 3.900204e+002
1.422258e+002, 3.883154e+002
1.427079e+002, 3.865751e+002
1.431900e+002, 3.848642e+002
1.436721e+002, 3.832819e+002
1.441542e+002, 3.818341e+002
1.446364e+002, 3.805099e+002
1.451185e+002, 3.793273e+002
1.456006e+002, 3.783065e+002
1.460827e+002, 3.773067e+002
1.465648e+002, 3.762621e+002
1.470469e+002, 3.751938e+002
1.475291e+002, 3.741154e+002
1.480112e+002, 3.730286e+002
1.484933e+002, 3.719401e+002
1.489754e+002, 3.708305e+002
1.494575e+002, 3.695403e+002
1.499396e+002, 3.685305e+002
1.504218e+002, 3.681134e+002
1.509039e+002, 3.679713e+002
1.513860e+002, 3.676678e+002
1.518681e+002, 3.669063e+002
1.523502e+002, 3.657583e+002
1.528323e+002, 3.648940e+002
1.533145e+002, 3.646914e+002
1.537966e+002, 3.644239e+002
1.542787e+002, 3.638844e+002
1.547608e+002, 3.631612e+002
1.552429e+002, 3.624785e+002
1.557250e+002, 3.620429e+002
1.562072e+002, 3.619014e+002
1.566893e+002, 3.612584e+002
1.571714e+002, 3.593954e+002
1.576535e+002, 3.577780e+002
1.581356e+002, 3.571396e+002
1.586177e+002, 3.573910e+002
1.590999e+002, 3.578941e+002
1.595820e+002, 3.580565e+002
1.600641e+002, 3.577979e+002
1.605462e+002, 3.578031e+002
1.610283e+002, 3.584976e+002
1.615104e+002, 3.591588e+002
1.619926e+002, 3.591328e+002
1.624747e+002, 3.583428e+002
1.629568e+002, 3.573760e+002
1.634389e+002, 3.568416e+002
1.639210e+002, 3.567199e+002
1.644031e+002, 3.566715e+002
1.648853e+002, 3.567765e+002
1.653674e+002, 3.568863e+002
1.658495e+002, 3.567610e+002
1.663316e+002, 3.563254e+002
1.668137e+002, 3.557640e+002
1.672958e+002, 3.551120e+002
1.677780e+002, 3.544253e+002
1.682601e+002, 3.540138e+002
1.687422e+002, 3.542864e+002
1.692243e+002, 3.550237e+002
1.697064e+002, 3.552941e+002
1.701885e+002, 3.546993e+002
1.706707e+002, 3.539852e+002
1.711528e+002, 3.536567e+002
1.716349e+002, 3.536550e+002
1.721170e+002, 3.536954e+002
1.725991e+002, 3.534798e+002
1.730812e+002, 3.529829e+002
1.735634e+002, 3.527750e+002
1.740455e+002, 3.534252e+002
1.745276e+002, 3.539416e+002
1.750097e+002, 3.538191e+002
1.754918e+002, 3.531055e+002
1.759739e+002, 3.522121e+002
1.764561e+002, 3.515829e+002
1.769382e+002, 3.512915e+002
1.774203e+002, 3.510049e+002
1.779024e+002, 3.505613e+002
1.783845e+002, 3.502412e+002
1.788666e+002, 3.502115e+002
1.793488e+002, 3.504839e+002
1.798309e+002, 3.509672e+002
1.803130e+002, 3.515942e+002
1.807951e+002, 3.527035e+002
1.812772e+002, 3.531055e+002
1.817593e+002, 3.523387e+002
1.822415e+002, 3.512640e+002
1.827236e+002, 3.504286e+002
1.832057e+002, 3.499884e+002
1.836878e+002, 3.498678e+002
1.841699e+002, 3.499665e+002
1.846520e+002, 3.503903e+002
1.851342e+002, 3.508724e+002
1.856163e+002, 3.516481e+002
1.860984e+002, 3.523828e+002
1.865805e+002, 3.526107e+002
1.870626e+002, 3.521680e+002
1.875447e+002, 3.515049e+002
1.880269e+002, 3.513999e+002
1.885090e+002, 3.519276e+002
1.889911e+002, 3.525521e+002
1.894732e+002, 3.533713e+002
1.899553e+002, 3.541796e+002
1.904374e+002, 3.545068e+002
1.909196e+002, 3.540609e+002
1.914017e+002, 3.534420e+002
1.918838e+002, 3.536093e+002
1.923659e+002, 3.545977e+002
1.928480e+002, 3.555149e+002
1.933301e+002, 3.558191e+002
1.938123e+002, 3.556841e+002
1.942944e+002, 3.558069e+002
1.947765e+002, 3.565733e+002
1.952586e+002, 3.573818e+002
1.957407e+002, 3.574586e+002
1.962228e+002, 3.567865e+002
1.967050e+002, 3.563177e+002
1.971871e+002, 3.568846e+002
1.976692e+002, 3.584393e+002
1.981513e+002, 3.598899e+002
1.986334e+002, 3.610477e+002
1.991155e+002, 3.620038e+002
1.995977e+002, 3.627384e+002
2.000798e+002, 3.632760e+002
2.005619e+002, 3.638434e+002
2.010440e+002, 3.647371e+002
2.015261e+002, 3.660440e+002
2.020082e+002, 3.671413e+002
2.024904e+002, 3.677734e+002
2.029725e+002, 3.683040e+002
2.034546e+002, 3.688878e+002
2.039367e+002, 3.695527e+002
2.044188e+002, 3.702636e+002
2.049009e+002, 3.709165e+002
2.053831e+002, 3.713659e+002
2.058652e+002, 3.722247e+002
2.063473e+002, 3.740348e+002
2.068294e+002, 3.758322e+002
2.073115e+002, 3.770519e+002
2.077936e+002, 3.776059e+002
2.082758e+002, 3.777727e+002
2.087579e+002, 3.778589e+002
2.092400e+002, 3.775572e+002
2.097221e+002, 3.779113e+002
2.102042e+002, 3.794757e+002
2.106863e+002, 3.811871e+002
2.111685e+002, 3.823029e+002
2.116506e+002, 3.826905e+002
2.121327e+002, 3.827466e+002
2.126148e+002, 3.830332e+002
2.130969e+002, 3.836129e+002
2.135790e+002, 3.843400e+002
2.140612e+002, 3.855616e+002
2.145433e+002, 3.867081e+002
2.150254e+002, 3.872351e+002
2.155075e+002, 3.870400e+002
2.159896e+002, 3.865753e+002
2.164717e+002, 3.864760e+002
2.169539e+002, 3.869213e+002
2.174360e+002, 3.873546e+002
2.179181e+002, 3.877632e+002
2.184002e+002, 3.881582e+002
2.188823e+002, 3.886280e+002
2.193644e+002, 3.891951e+002
2.198466e+002, 3.896299e+002
2.203287e+002, 3.895482e+002
2.208108e+002, 3.888461e+002
2.212929e+002, 3.882364e+002
2.217750e+002, 3.879688e+002
2.222571e+002, 3.877850e+002
2.227393e+002, 3.872839e+002
2.232214e+002, 3.863366e+002
2.237035e+002, 3.853541e+002
2.241856e+002, 3.849122e+002
2.246677e+002, 3.849627e+002
2.251498e+002, 3.850517e+002
2.256320e+002, 3.852724e+002
2.261141e+002, 3.854117e+002
2.265962e+002, 3.850029e+002
2.270783e+002, 3.838087e+002
2.275604e+002, 3.825396e+002
2.280425e+002, 3.820652e+002
2.285247e+002, 3.821904e+002
2.290068e+002, 3.820948e+002
2.294889e+002, 3.812101e+002
2.299710e+002, 3.799086e+002
2.304531e+002, 3.791201e+002
2.309352e+002, 3.792229e+002
2.314174e+002, 3.792299e+002
2.318995e+002, 3.781576e+002
2.323816e+002, 3.763625e+002
2.328637e+002, 3.748177e+002
2.333458e+002, 3.741555e+002
2.338279e+002, 3.741212e+002
2.343101e+002, 3.738803e+002
2.347922e+002, 3.733645e+002
2.352743e+002, 3.727119e+002
2.357564e+002, 3.719975e+002
2.362385e+002, 3.712282e+002
2.367206e+002, 3.703986e+002
2.372028e+002, 3.694142e+002
2.376849e+002, 3.683652e+002
2.381670e+002, 3.676738e+002
2.386491e+002, 3.676827e+002
2.391312e+002, 3.675380e+002
2.396133e+002, 3.667674e+002
2.400955e+002, 3.656418e+002
2.405776e+002, 3.646164e+002
2.410597e+002, 3.639961e+002
2.415418e+002, 3.636828e+002
2.420239e+002, 3.631992e+002
2.425060e+002, 3.623405e+002
2.429882e+002, 3.615895e+002
2.434703e+002, 3.612499e+002
2.439524e+002, 3.610639e+002
2.444345e+002, 3.605803e+002
2.449166e+002, 3.594520e+002
2.453987e+002, 3.579273e+002
2.458809e+002, 3.572511e+002
2.463630e+002, 3.583481e+002
2.468451e+002, 3.591370e+002
2.473272e+002, 3.588684e+002
2.478093e+002, 3.581465e+002
2.482914e+002, 3.579037e+002
2.487736e+002, 3.587100e+002
2.492557e+002, 3.601068e+002
2.497378e+002, 3.601798e+002
2.502199e+002, 3.572729e+002
2.507020e+002, 3.550360e+002
2.511841e+002, 3.542763e+002
2.516663e+002, 3.543252e+002
2.521484e+002, 3.544055e+002
2.526305e+002, 3.541420e+002
2.531126e+002, 3.536596e+002
2.535947e+002, 3.533413e+002
2.540768e+002, 3.531279e+002
2.545590e+002, 3.532004e+002
2.550411e+002, 3.539537e+002
2.555232e+002, 3.548484e+002
2.560053e+002, 3.552480e+002
2.564874e+002, 3.548837e+002
2.569695e+002, 3.540453e+002
2.574517e+002, 3.534330e+002
2.579338e+002, 3.531197e+002
2.584159e+002, 3.529828e+002
2.588980e+002, 3.529938e+002
2.593801e+002, 3.531903e+002
2.598622e+002, 3.537148e+002
2.603444e+002, 3.546042e+002
2.608265e+002, 3.555851e+002
2.613086e+002, 3.561328e+002
2.617907e+002, 3.558464e+002
2.622728e+002, 3.557305e+002
2.627549e+002, 3.559180e+002
2.632371e+002, 3.562208e+002
2.637192e+002, 3.564098e+002
2.642013e+002, 3.564303e+002
2.646834e+002, 3.564747e+002
2.651655e+002, 3.568618e+002
2.656476e+002, 3.578541e+002
2.661298e+002, 3.585425e+002
2.666119e+002, 3.588998e+002
2.670940e+002, 3.589569e+002
2.675761e+002, 3.584528e+002
2.680582e+002, 3.573874e+002
2.685403e+002, 3.566006e+002
2.690225e+002, 3.571969e+002
2.695046e+002, 3.596203e+002
2.699867e+002, 3.615345e+002
2.704688e+002, 3.625984e+002
2.709509e+002, 3.633119e+002
2.714330e+002, 3.641022e+002
2.719152e+002, 3.650175e+002
2.723973e+002, 3.658360e+002
2.728794e+002, 3.662729e+002
2.733615e+002, 3.662977e+002
2.738436e+002, 3.666266e+002
2.743257e+002, 3.674723e+002
2.748079e+002, 3.684847e+002
2.752900e+002, 3.692899e+002
2.757721e+002, 3.699018e+002
2.762542e+002, 3.707656e+002
2.767363e+002, 3.723383e+002
2.772184e+002, 3.745204e+002
2.777006e+002, 3.763417e+002
2.781827e+002, 3.775996e+002
2.786648e+002, 3.786393e+002
2.791469e+002, 3.795672e+002
2.796290e+002, 3.804191e+002
2.801111e+002, 3.814551e+002
2.805933e+002, 3.828996e+002
2.810754e+002, 3.846374e+002
2.815575e+002, 3.862144e+002
2.820396e+002, 3.874261e+002
2.825217e+002, 3.887225e+002
2.830038e+002, 3.906016e+002
2.834860e+002, 3.929088e+002
2.839681e+002, 3.947885e+002
2.844502e+002, 3.956422e+002
2.849323e+002, 3.960057e+002
2.854144e+002, 3.970094e+002
2.858965e+002, 3.987878e+002
2.863787e+002, 4.008266e+002
2.868608e+002, 4.028329e+002
2.873429e+002, 4.048607e+002
2.878250e+002, 4.072037e+002
2.883071e+002, 4.101342e+002
2.887892e+002, 4.131738e+002
2.892714e+002, 4.156490e+002
2.897535e+002, 4.175328e+002
2.902356e+002, 4.191955e+002
2.907177e+002, 4.207441e+002
2.911998e+002, 4.222000e+002
2.916819e+002, 4.236275e+002
2.921641e+002, 4.250202e+002
2.926462e+002, 4.264303e+002
2.931283e+002, 4.279535e+002
2.936104e+002, 4.295699e+002
2.940925e+002, 4.311339e+002
2.945746e+002, 4.326503e+002
2.950568e+002, 4.340599e+002
2.955389e+002, 4.351897e+002
2.960210e+002, 4.359398e+002
2.965031e+002, 4.366460e+002
2.969852e+002, 4.377724e+002
2.974673e+002, 4.391265e+002
2.979495e+002, 4.401305e+002
2.984316e+002, 4.401668e+002
2.989137e+002, 4.399077e+002
2.993958e+002, 4.405777e+002
2.998779e+002, 4.424504e+002
3.003600e+002, 4.440415e+002
3.008422e+002, 4.440079e+002
3.013243e+002, 4.430560e+002
3.018064e+002, 4.423567e+002
3.022885e+002, 4.423124e+002
3.027706e+002, 4.424725e+002
3.032527e+002, 4.423371e+002
3.037349e+002, 4.418925e+002
3.042170e+002, 4.413425e+002
3.046991e+002, 4.408187e+002
3.051812e+002, 4.402144e+002
3.056633e+002, 4.393268e+002
3.061454e+002, 4.379894e+002
3.066276e+002, 4.367263e+002
3.071097e+002, 4.361726e+002
3.075918e+002, 4.362754e+002
3.080739e+002, 4.360645e+002
3.085560e+002, 4.352063e+002
3.090381e+002, 4.338770e+002
3.095203e+002, 4.322572e+002
3.100024e+002, 4.303109e+002
3.104845e+002, 4.284104e+002
3.109666e+002, 4.267394e+002
3.114487e+002, 4.253055e+002
3.119308e+002, 4.242448e+002
3.124130e+002, 4.238678e+002
3.128951e+002, 4.234575e+002
3.133772e+002, 4.223639e+002
3.138593e+002, 4.206568e+002
3.143414e+002, 4.187688e+002
3.148235e+002, 4.167018e+002
3.153057e+002, 4.146167e+002
3.157878e+002, 4.129386e+002
3.162699e+002, 4.118004e+002
3.167520e+002, 4.108598e+002
3.172341e+002, 4.100927e+002
3.177162e+002, 4.093470e+002
3.181984e+002, 4.082135e+002
3.186805e+002, 4.060201e+002
3.191626e+002, 4.036022e+002
3.196447e+002, 4.025433e+002
3.201268e+002, 4.031657e+002
3.206089e+002, 4.035393e+002
3.210911e+002, 4.021051e+002
3.215732e+002, 3.998615e+002
3.220553e+002, 3.982370e+002
3.225374e+002, 3.978283e+002
3.230195e+002, 3.975911e+002
3.235016e+002, 3.960876e+002
3.239838e+002, 3.932904e+002
3.244659e+002, 3.914568e+002
3.249480e+002, 3.922745e+002
3.254301e+002, 3.939337e+002
3.259122e+002, 3.940803e+002
3.263943e+002, 3.923358e+002
3.268765e+002, 3.904315e+002
3.273586e+002, 3.896749e+002
3.278407e+002, 3.898730e+002
3.283228e+002, 3.899847e+002
3.288049e+002, 3.897948e+002
3.292870e+002, 3.894090e+002
3.297692e+002, 3.888665e+002
3.302513e+002, 3.881889e+002
3.307334e+002, 3.876501e+002
3.312155e+002, 3.874604e+002
3.316976e+002, 3.874988e+002
3.321797e+002, 3.875069e+002
3.326619e+002, 3.874784e+002
3.331440e+002, 3.873605e+002
3.336261e+002, 3.869771e+002
3.341082e+002, 3.864568e+002
3.345903e+002, 3.861270e+002
3.350724e+002, 3.861236e+002
3.355546e+002, 3.863466e+002
3.360367e+002, 3.867481e+002
3.365188e+002, 3.873516e+002
3.370009e+002, 3.878596e+002
3.374830e+002, 3.880172e+002
3.379651e+002, 3.879891e+002
3.384473e+002, 3.880879e+002
3.389294e+002, 3.883920e+002
3.394115e+002, 3.887599e+002
3.398936e+002, 3.890441e+002
3.403757e+002, 3.892701e+002
3.408578e+002, 3.896473e+002
3.413400e+002, 3.903653e+002
3.418221e+002, 3.911587e+002
3.423042e+002, 3.915886e+002
3.427863e+002, 3.915846e+002
3.432684e+002, 3.916374e+002
3.437505e+002, 3.918341e+002
3.442327e+002, 3.922690e+002
3.447148e+002, 3.933022e+002
3.451969e+002, 3.951917e+002
3.456790e+002, 3.971996e+002
3.461611e+002, 3.983917e+002
3.466432e+002, 3.988983e+002
3.471254e+002, 3.993844e+002
3.476075e+002, 4.002843e+002
3.480896e+002, 4.011273e+002
3.485717e+002, 4.010005e+002
3.490538e+002, 3.997765e+002
3.495359e+002, 3.989983e+002
3.500181e+002, 4.001387e+002
3.505002e+002, 4.027446e+002
3.509823e+002, 4.045647e+002
3.514644e+002, 4.047969e+002
3.519465e+002, 4.047856e+002
3.524286e+002, 4.054444e+002
3.529108e+002, 4.066601e+002
3.533929e+002, 4.079203e+002
3.538750e+002, 4.090155e+002
3.543571e+002, 4.099555e+002
3.548392e+002, 4.107358e+002
3.553214e+002, 4.111877e+002
3.558035e+002, 4.118621e+002
3.562856e+002, 4.130380e+002
3.567677e+002, 4.145521e+002
3.572498e+002, 4.161783e+002
3.577319e+002, 4.178878e+002
3.582141e+002, 4.195088e+002
3.586962e+002, 4.207240e+002
3.591783e+002, 4.214120e+002
3.596604e+002, 4.224768e+002
3.601425e+002, 4.244401e+002
3.606246e+002, 4.265749e+002
3.611068e+002, 4.281060e+002
3.615889e+002, 4.290072e+002
3.620710e+002, 4.298908e+002
3.625531e+002, 4.313353e+002
3.630352e+002, 4.333239e+002
3.635173e+002, 4.347909e+002
3.639995e+002, 4.353813e+002
3.644816e+002, 4.358629e+002
3.649637e+002, 4.362753e+002
3.654458e+002, 4.368460e+002
3.659279e+002, 4.382266e+002
3.664100e+002, 4.408680e+002
3.668922e+002, 4.442806e+002
3.673743e+002, 4.468153e+002
3.678564e+002, 4.479358e+002
3.683385e+002, 4.490076e+002
3.688206e+002, 4.502393e+002
3.693027e+002, 4.514939e+002
3.697849e+002, 4.525184e+002
3.702670e+002, 4.532572e+002
3.707491e+002, 4.540523e+002
3.712312e+002, 4.554736e+002
3.717133e+002, 4.580453e+002
3.721954e+002, 4.595174e+002
3.726776e+002, 4.588304e+002
3.731597e+002, 4.580120e+002
3.736418e+002, 4.583672e+002
3.741239e+002, 4.598174e+002
3.746060e+002, 4.614794e+002
3.750881e+002, 4.626517e+002
3.755703e+002, 4.633551e+002
3.760524e+002, 4.644519e+002
3.765345e+002, 4.667666e+002
3.770166e+002, 4.685399e+002
3.774987e+002, 4.689996e+002
3.779808e+002, 4.687716e+002
3.784630e+002, 4.688189e+002
3.789451e+002, 4.695883e+002
3.794272e+002, 4.707183e+002
3.799093e+002, 4.713217e+002
3.803914e+002, 4.708963e+002
3.808735e+002, 4.707758e+002
3.813557e+002, 4.710056e+002
3.818378e+002, 4.715177e+002
3.823199e+002, 4.724915e+002
3.828020e+002, 4.738215e+002
3.832841e+002, 4.749534e+002
3.837662e+002, 4.751786e+002
3.842484e+002, 4.743223e+002
3.847305e+002, 4.737724e+002
3.852126e+002, 4.739619e+002
3.856947e+002, 4.740426e+002
3.861768e+002, 4.736547e+002
3.866589e+002, 4.729535e+002
3.871411e+002, 4.722359e+002
3.876232e+002, 4.716272e+002
3.881053e+002, 4.712086e+002
3.885874e+002, 4.713613e+002
3.890695e+002, 4.725751e+002
3.895516e+002, 4.734284e+002
3.900338e+002, 4.734947e+002
3.905159e+002, 4.731688e+002
3.909980e+002, 4.727768e+002
3.914801e+002, 4.724117e+002
3.919622e+002, 4.720170e+002
3.924443e+002, 4.714706e+002
3.929265e+002, 4.707426e+002
3.934086e+002, 4.701784e+002
3.938907e+002, 4.699091e+002
3.943728e+002, 4.697493e+002
3.948549e+002, 4.696035e+002
3.953370e+002, 4.694742e+002
3.958192e+002, 4.693972e+002
3.963013e+002, 4.695505e+002
3.967834e+002, 4.697713e+002
3.972655e+002, 4.694111e+002
3.977476e+002, 4.681938e+002
3.982297e+002, 4.671154e+002
3.987119e+002, 4.668599e+002
3.991940e+002, 4.670054e+002
3.996761e+002, 4.670187e+002
4.001582e+002, 4.666982e+002
4.006403e+002, 4.663588e+002
4.011224e+002, 4.663900e+002
4.016046e+002, 4.667634e+002
4.020867e+002, 4.670061e+002
4.025688e+002, 4.669507e+002
4.030509e+002, 4.667224e+002
4.035330e+002, 4.663394e+002
4.040151e+002, 4.657810e+002
4.044973e+002, 4.656482e+002
4.049794e+002, 4.667663e+002
4.054615e+002, 4.683237e+002
4.059436e+002, 4.687322e+002
4.064257e+002, 4.676911e+002
4.069078e+002, 4.664691e+002
4.073900e+002, 4.661969e+002
4.078721e+002, 4.666606e+002
4.083542e+002, 4.666676e+002
4.088363e+002, 4.655080e+002
4.093184e+002, 4.644391e+002
4.098005e+002, 4.644942e+002
4.102827e+002, 4.653759e+002
4.107648e+002, 4.660028e+002
4.112469e+002, 4.658430e+002
4.117290e+002, 4.652720e+002
4.122111e+002, 4.651725e+002
4.126932e+002, 4.657721e+002
4.131754e+002, 4.661943e+002
4.136575e+002, 4.662598e+002
4.141396e+002, 4.660898e+002
4.146217e+002, 4.656922e+002
4.151038e+002, 4.651089e+002
4.155859e+002, 4.646327e+002
4.160681e+002, 4.645676e+002
