##NAMES=Lavinskyite
##RRUFFID=R120057
##IDEAL CHEMISTRY=K(LiCu^2+^)Cu^2+^_6_(Si_4_O_11_)_2_(OH)_4_
##LOCALITY=Wessels mine, Kalahari manganese field, Northern Cape Province, South Africa
##OWNER=RRUFF
##SOURCE=William W. Pinch, Robert Lavinsky, and Marcus Origlieri
##DESCRIPTION=Light blue plates, associated with R120019 wesselsite, and R120077 scottyite. This is the type sample.
##STATUS=The identification of this mineral is confirmed by single-crystal X-ray diffraction and chemical analysis.
##URL=rruff.info/R120057
##MEASURED CHEMISTRY=(K_0.99_Ba_0.01_)_Σ=1.00_(Li_1.04_Cu_0.50_Mg_0.43_Na_0.10_Mn_0.01_)_Σ=2.08_Cu_6.00_Si_7.99_O_22_(OH)_4.00_  ; (Lavinskyite is the darkest material in the image)
91.60352, 1568.108
92.08563, 1511.263
92.56775, 1504.273
93.04987, 1573.694
93.53198, 1658.342
94.01410, 1721.148
94.49622, 1762.212
94.97833, 1790.441
95.46045, 1813.416
95.94257, 1831.197
96.42468, 1844.677
96.90680, 1855.242
97.38892, 1863.824
97.87103, 1870.704
98.35315, 1873.886
98.83527, 1872.791
99.31738, 1872.113
99.79950, 1872.678
100.2816, 1873.355
100.7637, 1873.667
101.2458, 1873.652
101.7280, 1873.467
102.2101, 1873.127
102.6922, 1872.286
103.1743, 1869.958
103.6564, 1866.071
104.1385, 1861.801
104.6207, 1857.647
105.1028, 1853.359
105.5849, 1848.035
106.0670, 1840.640
106.5491, 1831.946
107.0313, 1822.759
107.5134, 1812.864
107.9955, 1803.317
108.4776, 1795.372
108.9597, 1789.289
109.4418, 1783.338
109.9240, 1777.034
110.4061, 1770.600
110.8882, 1763.998
111.3703, 1757.137
111.8524, 1750.528
112.3345, 1745.688
112.8167, 1744.489
113.2988, 1742.683
113.7809, 1739.582
114.2630, 1735.545
114.7451, 1730.932
115.2272, 1725.952
115.7094, 1720.605
116.1915, 1715.836
116.6736, 1712.533
117.1557, 1708.783
117.6378, 1703.509
118.1199, 1697.042
118.6021, 1690.632
119.0842, 1685.311
119.5663, 1681.203
120.0484, 1677.350
120.5305, 1674.036
121.0126, 1670.751
121.4948, 1666.963
121.9769, 1662.550
122.4590, 1658.055
122.9411, 1654.374
123.4232, 1651.214
123.9053, 1647.428
124.3875, 1642.185
124.8696, 1635.993
125.3517, 1630.340
125.8338, 1625.665
126.3159, 1621.182
126.7980, 1616.093
127.2802, 1610.564
127.7623, 1605.427
128.2444, 1601.454
128.7265, 1598.776
129.2086, 1596.082
129.6907, 1593.425
130.1729, 1590.614
130.6550, 1587.505
131.1371, 1584.107
131.6192, 1580.590
132.1013, 1577.169
132.5834, 1573.721
133.0656, 1570.608
133.5477, 1567.857
134.0298, 1565.368
134.5119, 1563.075
134.9940, 1560.961
135.4761, 1559.033
135.9583, 1557.338
136.4404, 1556.156
136.9225, 1554.897
137.4046, 1553.572
137.8867, 1552.147
138.3688, 1550.575
138.8510, 1548.814
139.3331, 1546.912
139.8152, 1545.076
140.2973, 1543.668
140.7794, 1541.822
141.2615, 1538.534
141.7437, 1534.234
142.2258, 1530.929
142.7079, 1530.293
143.1900, 1531.060
143.6721, 1530.398
144.1542, 1527.490
144.6364, 1523.963
145.1185, 1521.446
145.6006, 1520.095
146.0827, 1518.802
146.5648, 1517.163
147.0469, 1515.222
147.5291, 1512.957
148.0112, 1510.352
148.4933, 1507.441
148.9754, 1504.285
149.4575, 1500.783
149.9396, 1497.163
150.4218, 1493.501
150.9039, 1489.779
151.3860, 1486.042
151.8681, 1482.358
152.3502, 1478.641
152.8323, 1474.378
153.3145, 1468.536
153.7966, 1463.109
154.2787, 1458.795
154.7608, 1455.189
155.2429, 1451.392
155.7250, 1446.615
156.2072, 1440.752
156.6893, 1435.593
157.1714, 1431.705
157.6535, 1427.810
158.1356, 1423.399
158.6177, 1418.459
159.0999, 1413.190
159.5820, 1407.776
160.0641, 1402.177
160.5462, 1396.367
161.0283, 1389.431
161.5104, 1382.929
161.9926, 1378.613
162.4747, 1376.676
162.9568, 1374.848
163.4389, 1370.516
163.9210, 1363.813
164.4031, 1357.428
164.8853, 1351.669
165.3674, 1346.531
165.8495, 1342.306
166.3316, 1339.281
166.8137, 1336.439
167.2958, 1332.673
167.7780, 1328.212
168.2601, 1323.902
168.7422, 1320.312
169.2243, 1317.244
169.7064, 1313.909
170.1885, 1309.885
170.6707, 1306.053
171.1528, 1303.147
171.6349, 1300.975
172.1170, 1298.696
172.5991, 1295.462
173.0812, 1291.206
173.5634, 1287.428
174.0455, 1284.289
174.5276, 1281.608
175.0097, 1279.637
175.4918, 1278.207
175.9739, 1276.731
176.4561, 1274.596
176.9382, 1271.658
177.4203, 1268.431
177.9024, 1264.453
178.3845, 1260.572
178.8666, 1257.205
179.3488, 1254.435
179.8309, 1252.104
180.3130, 1250.067
180.7951, 1248.465
181.2772, 1246.874
181.7593, 1245.228
182.2415, 1243.637
182.7236, 1242.418
183.2057, 1241.574
183.6878, 1240.526
184.1699, 1238.333
184.6520, 1234.085
185.1342, 1230.465
185.6163, 1227.536
186.0984, 1225.264
186.5805, 1223.825
187.0626, 1223.320
187.5447, 1223.144
188.0269, 1222.281
188.5090, 1220.684
188.9911, 1218.816
189.4732, 1216.344
189.9553, 1213.724
190.4374, 1211.840
190.9196, 1211.040
191.4017, 1210.801
191.8838, 1210.410
192.3659, 1209.874
192.8480, 1209.211
193.3301, 1208.360
193.8123, 1207.362
194.2944, 1206.341
194.7765, 1205.185
195.2586, 1204.203
195.7407, 1203.819
196.2228, 1204.044
196.7050, 1204.102
197.1871, 1203.202
197.6692, 1201.407
198.1513, 1200.073
198.6334, 1199.833
199.1155, 1199.862
199.5977, 1199.642
200.0798, 1199.139
200.5619, 1198.534
201.0440, 1197.808
201.5261, 1196.834
202.0082, 1196.622
202.4904, 1198.153
202.9725, 1199.906
203.4546, 1201.387
203.9367, 1202.432
204.4188, 1202.859
204.9009, 1202.144
205.3831, 1199.543
205.8652, 1198.128
206.3473, 1199.387
206.8294, 1200.719
207.3115, 1200.588
207.7936, 1198.776
208.2758, 1196.096
208.7579, 1193.660
209.2400, 1191.602
209.7221, 1189.505
210.2042, 1187.541
210.6863, 1185.439
211.1685, 1182.887
211.6506, 1179.877
212.1327, 1176.766
212.6148, 1174.051
213.0969, 1171.975
213.5790, 1169.881
214.0612, 1167.988
214.5433, 1165.955
215.0254, 1163.269
215.5075, 1159.889
215.9896, 1156.473
216.4717, 1154.031
216.9539, 1153.186
217.4360, 1151.842
217.9181, 1149.673
218.4002, 1147.134
218.8823, 1144.517
219.3644, 1141.894
219.8466, 1139.508
220.3287, 1137.856
220.8108, 1137.144
221.2929, 1135.918
221.7750, 1133.416
222.2571, 1130.517
222.7393, 1128.463
223.2214, 1127.620
223.7035, 1127.005
224.1856, 1125.291
224.6677, 1122.583
225.1498, 1119.939
225.6320, 1117.789
226.1141, 1115.829
226.5962, 1113.446
227.0783, 1110.370
227.5604, 1107.370
228.0425, 1105.226
228.5247, 1103.796
229.0068, 1102.658
229.4889, 1102.053
229.9710, 1101.608
230.4531, 1100.367
230.9352, 1097.944
231.4174, 1095.335
231.8995, 1093.380
232.3816, 1091.872
232.8637, 1090.270
233.3458, 1088.198
233.8279, 1085.816
234.3101, 1083.610
234.7922, 1081.642
235.2743, 1079.814
235.7564, 1077.993
236.2385, 1076.248
236.7206, 1074.747
237.2028, 1073.926
237.6849, 1073.455
238.1670, 1071.826
238.6491, 1068.386
239.1312, 1064.677
239.6133, 1061.056
240.0955, 1057.665
240.5776, 1054.698
241.0597, 1052.353
241.5418, 1050.514
242.0239, 1048.692
242.5060, 1046.914
242.9882, 1045.103
243.4703, 1043.238
243.9524, 1041.323
244.4345, 1039.381
244.9166, 1037.452
245.3987, 1035.478
245.8809, 1033.193
246.3630, 1029.977
246.8451, 1027.279
247.3272, 1025.831
247.8093, 1024.917
248.2914, 1023.630
248.7736, 1021.473
249.2557, 1018.612
249.7378, 1015.731
250.2199, 1012.413
250.7020, 1009.623
251.1841, 1007.744
251.6663, 1006.373
252.1484, 1005.205
252.6305, 1004.099
253.1126, 1002.848
253.5947, 1000.716
254.0768, 996.2080
254.5590, 992.6479
255.0411, 990.7977
255.5232, 989.7664
256.0053, 988.5129
256.4874, 986.6065
256.9695, 984.4125
257.4517, 982.8179
257.9338, 982.9030
258.4159, 982.2885
258.8980, 980.3411
259.3801, 977.9476
259.8622, 975.9160
260.3444, 974.5359
260.8265, 973.7631
261.3086, 973.5822
261.7907, 975.2786
262.2728, 975.4030
262.7549, 972.6500
263.2371, 968.9127
263.7192, 966.0984
264.2013, 964.7039
264.6834, 963.9224
265.1655, 962.5637
265.6476, 960.3033
266.1298, 958.2203
266.6119, 956.2863
267.0940, 954.5605
267.5761, 953.0519
268.0582, 951.7679
268.5403, 950.8944
269.0225, 950.8483
269.5046, 952.0222
269.9867, 951.9952
270.4688, 949.8688
270.9509, 947.0527
271.4330, 944.6008
271.9152, 942.6718
272.3973, 941.1163
272.8794, 939.8422
273.3615, 938.8811
273.8436, 938.0828
274.3257, 937.5616
274.8079, 937.1099
275.2900, 936.7441
275.7721, 936.4134
276.2542, 935.6307
276.7363, 933.8157
277.2184, 931.1249
277.7006, 929.0548
278.1827, 927.9841
278.6648, 927.2477
279.1469, 926.6270
279.6290, 926.0531
280.1111, 925.0158
280.5933, 922.9451
281.0754, 920.2578
281.5575, 918.3857
282.0396, 917.8039
282.5217, 917.4545
283.0038, 916.7158
283.4860, 915.6522
283.9681, 914.5998
284.4502, 913.7621
284.9323, 912.9786
285.4144, 911.9103
285.8965, 910.4552
286.3787, 908.9850
286.8608, 907.7316
287.3429, 906.6409
287.8250, 905.4146
288.3071, 903.7434
288.7892, 902.2119
289.2714, 901.7316
289.7535, 902.3956
290.2356, 903.1111
290.7177, 903.8341
291.1998, 904.2410
291.6819, 903.2297
292.1641, 900.0222
292.6462, 896.3775
293.1283, 894.1348
293.6104, 893.1458
294.0925, 892.7838
294.5746, 893.5242
295.0568, 894.6110
295.5389, 894.2656
296.0210, 891.8400
296.5031, 889.3102
296.9852, 888.7743
297.4673, 889.5570
297.9495, 889.8505
298.4316, 888.8968
298.9137, 887.1902
299.3958, 885.3890
299.8779, 883.4894
300.3600, 881.5768
300.8422, 879.3141
301.3243, 877.1435
301.8064, 876.0016
302.2885, 876.6619
302.7706, 877.8682
303.2527, 878.1452
303.7349, 877.4334
304.2170, 876.6800
304.6991, 876.5771
305.1812, 876.5499
305.6633, 875.6918
306.1454, 873.5463
306.6276, 871.4343
307.1097, 870.7556
307.5918, 871.4163
308.0739, 871.7393
308.5560, 871.1956
309.0381, 870.0178
309.5203, 868.3649
310.0024, 866.1608
310.4845, 864.2360
310.9666, 863.2535
311.4487, 863.0651
311.9308, 863.0067
312.4130, 863.0836
312.8951, 863.0533
313.3772, 862.7726
313.8593, 862.2394
314.3414, 861.3972
314.8235, 859.7664
315.3057, 857.8184
315.7878, 856.9504
316.2699, 857.7320
316.7520, 858.5042
317.2341, 857.7986
317.7162, 856.1671
318.1984, 854.7653
318.6805, 854.2928
319.1626, 854.1637
319.6447, 853.3270
320.1268, 851.6130
320.6089, 850.0710
321.0911, 849.6229
321.5732, 849.6262
322.0553, 849.1615
322.5374, 847.8460
323.0195, 846.3414
323.5016, 845.3123
323.9838, 844.7543
324.4659, 844.3807
324.9480, 844.2128
325.4301, 844.0901
325.9122, 843.8727
326.3943, 843.5773
326.8765, 843.0410
327.3586, 841.8889
327.8407, 840.2838
328.3228, 839.2340
328.8049, 839.2619
329.2870, 839.5099
329.7692, 839.0116
330.2513, 837.8387
330.7334, 836.7751
331.2155, 836.2732
331.6976, 836.1454
332.1797, 835.9688
332.6619, 835.6960
333.1440, 835.3809
333.6261, 835.0974
334.1082, 834.8105
334.5903, 834.4097
335.0724, 833.6092
335.5546, 832.8061
336.0367, 832.7454
336.5188, 833.5350
337.0009, 833.9285
337.4830, 832.9299
337.9651, 831.1276
338.4473, 829.6243
338.9294, 828.5320
339.4115, 827.7708
339.8936, 827.6006
340.3757, 827.8865
340.8578, 827.5400
341.3400, 825.8487
341.8221, 823.6284
342.3042, 822.1041
342.7863, 821.3173
343.2684, 820.8461
343.7505, 820.6976
344.2327, 820.7032
344.7148, 820.4294
345.1969, 819.7356
345.6790, 818.8766
346.1611, 818.0515
346.6432, 817.2618
347.1254, 816.6732
347.6075, 816.6461
348.0896, 816.6893
348.5717, 816.0994
349.0538, 814.7947
349.5359, 813.4338
350.0181, 812.4575
350.5002, 811.8369
350.9823, 811.3311
351.4644, 811.2657
351.9465, 811.0267
352.4286, 809.9104
352.9108, 808.1425
353.3929, 806.8508
353.8750, 806.7568
354.3571, 807.3087
354.8392, 807.0912
355.3214, 805.8060
355.8035, 804.5590
356.2856, 803.8763
356.7677, 803.4763
357.2498, 802.7752
357.7319, 801.5559
358.2141, 800.2960
358.6962, 799.7646
359.1783, 800.1490
359.6604, 800.0673
360.1425, 798.8510
360.6246, 797.4202
361.1068, 796.9077
361.5889, 797.3207
362.0710, 797.3571
362.5531, 795.7264
363.0352, 792.4720
363.5173, 790.4153
363.9995, 790.3782
364.4816, 790.5880
364.9637, 790.2660
365.4458, 789.5214
365.9279, 788.6509
366.4100, 787.7529
366.8922, 786.9609
367.3743, 786.7715
367.8564, 788.0837
368.3385, 788.6837
368.8206, 787.8157
369.3027, 786.2867
369.7849, 784.9541
370.2670, 784.0737
370.7491, 783.4905
371.2312, 783.0228
371.7133, 782.7594
372.1954, 782.3336
372.6776, 781.5758
373.1597, 780.8135
373.6418, 780.1595
374.1239, 779.6709
374.6060, 779.4828
375.0881, 779.7733
375.5703, 780.5128
376.0524, 780.6486
376.5345, 779.6388
377.0166, 778.6711
377.4987, 778.0822
377.9808, 777.6823
378.4630, 777.0956
378.9451, 776.1465
379.4272, 775.1181
379.9093, 774.7075
380.3914, 775.3723
380.8735, 775.9220
381.3557, 776.5272
381.8378, 776.8672
382.3199, 776.4216
382.8020, 775.2820
383.2841, 774.2967
383.7662, 774.5866
384.2484, 776.4639
384.7305, 777.4037
385.2126, 776.5108
385.6947, 775.4913
386.1768, 774.7666
386.6589, 774.3248
387.1411, 774.0482
387.6232, 773.8839
388.1053, 773.8007
388.5874, 773.7076
389.0695, 773.6632
389.5516, 773.4875
390.0338, 773.0455
390.5159, 772.5260
390.9980, 772.0569
391.4801, 771.6783
391.9622, 771.4705
392.4443, 771.7372
392.9265, 772.6022
393.4086, 772.7415
393.8907, 771.1798
394.3728, 769.6160
394.8549, 769.1233
395.3370, 769.5255
395.8192, 769.9960
396.3013, 770.0989
396.7834, 769.8670
397.2655, 769.2897
397.7476, 768.1259
398.2297, 767.2502
398.7119, 767.5650
399.1940, 768.3046
399.6761, 768.4085
400.1582, 767.3828
400.6403, 766.1593
401.1224, 765.8011
401.6046, 766.2430
402.0867, 766.4245
402.5688, 765.8520
403.0509, 765.0803
403.5330, 764.7819
404.0151, 764.9592
404.4973, 765.2106
404.9794, 765.6788
405.4615, 766.0184
405.9436, 765.4271
406.4257, 763.7094
406.9078, 761.9397
407.3900, 760.9473
407.8721, 760.6790
408.3542, 760.6619
408.8363, 761.0537
409.3184, 761.5284
409.8005, 761.9717
410.2827, 762.3442
410.7648, 762.4436
411.2469, 762.1022
411.7290, 761.5964
412.2111, 761.6081
412.6932, 762.3651
413.1754, 762.9749
413.6575, 763.2275
414.1396, 763.2866
414.6217, 763.3203
415.1038, 763.3552
415.5859, 763.3224
416.0681, 763.1505
416.5502, 762.8268
417.0323, 762.4504
417.5144, 761.7850
417.9965, 761.3140
418.4786, 761.1317
418.9608, 761.2985
419.4429, 762.0071
419.9250, 763.3875
420.4071, 765.1154
420.8892, 766.2993
421.3713, 766.7708
421.8535, 766.8832
422.3356, 766.4417
422.8177, 765.8255
423.2998, 765.2739
423.7819, 764.8459
424.2640, 764.5197
424.7462, 764.2448
425.2283, 764.0029
425.7104, 764.0682
426.1925, 764.8735
426.6746, 765.5215
427.1567, 765.5922
427.6389, 765.3759
428.1210, 765.3555
428.6031, 765.7871
429.0852, 766.4272
429.5673, 766.8096
430.0494, 766.9252
430.5316, 766.8281
431.0137, 766.0119
431.4958, 765.3494
431.9779, 765.5512
432.4600, 766.6075
432.9421, 767.7700
433.4243, 768.6130
433.9064, 769.1220
434.3885, 769.1889
434.8706, 768.6846
435.3527, 768.0272
435.8348, 767.1798
436.3170, 766.4039
436.7991, 766.2419
437.2812, 767.1555
437.7633, 768.2562
438.2454, 768.8566
438.7275, 768.9567
439.2097, 768.4720
439.6918, 767.1801
440.1739, 765.5734
440.6560, 764.2607
441.1381, 763.1629
441.6202, 762.6761
442.1024, 763.6073
442.5845, 764.8287
443.0666, 764.9864
443.5487, 763.9913
444.0308, 762.6188
444.5129, 761.3492
444.9951, 760.2108
445.4772, 759.3704
445.9593, 759.6129
446.4414, 759.2148
446.9235, 757.2648
447.4056, 754.4593
447.8878, 751.7726
448.3699, 749.5445
448.8520, 747.6380
449.3341, 745.8533
449.8162, 744.2653
450.2983, 742.6011
450.7805, 740.8737
451.2626, 739.0767
451.7447, 737.1165
452.2268, 735.0751
452.7089, 733.1231
453.1910, 731.3802
453.6732, 729.8267
454.1553, 728.4241
454.6374, 727.3694
455.1195, 726.1168
455.6016, 724.3799
456.0837, 722.5670
456.5659, 720.9571
457.0480, 719.6171
457.5301, 718.6036
458.0122, 718.2090
458.4943, 718.4077
458.9764, 717.9421
459.4586, 716.5180
459.9407, 714.7797
460.4228, 712.7237
460.9049, 710.6794
461.3870, 709.2756
461.8691, 708.8655
462.3513, 708.9617
462.8334, 709.2082
463.3155, 709.5817
463.7976, 709.4485
464.2797, 708.5580
464.7618, 707.1185
465.2440, 704.9879
465.7261, 702.0977
466.2082, 700.4484
466.6903, 701.7932
467.1724, 704.1520
467.6545, 705.2281
468.1367, 704.8490
468.6188, 703.6811
469.1009, 702.0462
469.5830, 700.0125
470.0651, 697.8796
470.5472, 695.2351
471.0294, 693.0344
471.5115, 691.4865
471.9936, 690.5280
472.4757, 690.3455
472.9578, 690.9052
473.4399, 691.4086
473.9221, 690.8246
474.4042, 688.8744
474.8863, 687.4449
475.3684, 686.5587
475.8505, 686.0812
476.3326, 686.5148
476.8148, 687.2141
477.2969, 687.0056
477.7790, 685.2941
478.2611, 682.8759
478.7432, 681.6002
479.2253, 682.1468
479.7075, 681.9183
480.1896, 679.3002
480.6717, 676.9451
481.1538, 676.8887
481.6359, 678.6477
482.1180, 679.8079
482.6002, 678.3242
483.0823, 675.1980
483.5644, 673.2809
484.0465, 672.8381
484.5286, 672.7003
485.0107, 672.8652
485.4929, 672.7864
485.9750, 671.4942
486.4571, 668.5543
486.9392, 666.1926
487.4213, 666.3356
487.9034, 667.9465
488.3856, 668.8036
488.8677, 668.5574
489.3498, 667.5500
489.8319, 665.7748
490.3140, 663.3441
490.7961, 661.6982
491.2783, 661.2768
491.7604, 661.1513
492.2425, 661.1302
492.7246, 661.0643
493.2067, 660.6273
493.6888, 659.7078
494.1710, 658.6127
494.6531, 657.8198
495.1352, 657.3981
495.6173, 657.0930
496.0994, 657.1775
496.5815, 657.0997
497.0637, 656.5186
497.5458, 655.5691
498.0279, 654.5637
498.5100, 653.6727
498.9921, 652.8538
499.4742, 651.9668
499.9564, 650.9388
500.4385, 650.0266
500.9206, 648.6095
501.4027, 647.8248
501.8848, 649.2839
502.3669, 652.4315
502.8491, 654.3751
503.3312, 652.4550
503.8133, 648.0563
504.2954, 644.8591
504.7775, 643.0096
505.2596, 641.7740
505.7418, 641.3223
506.2239, 641.0395
506.7060, 639.9747
507.1881, 637.9001
507.6702, 635.8258
508.1523, 633.9890
508.6345, 632.5665
509.1166, 632.1105
509.5987, 632.7026
510.0808, 633.2297
510.5629, 632.7309
511.0450, 631.3041
511.5272, 630.1824
512.0093, 629.8130
512.4914, 629.1662
512.9735, 627.4817
513.4556, 625.5304
513.9377, 624.4810
514.4199, 624.5883
514.9020, 624.9443
515.3841, 624.4094
515.8662, 622.8655
516.3483, 621.2672
516.8304, 619.4384
517.3126, 617.7531
517.7947, 616.3214
518.2768, 615.1068
518.7589, 614.0284
519.2410, 613.0500
519.7231, 612.2615
520.2053, 611.8881
520.6874, 611.9724
521.1695, 611.8548
521.6516, 611.4558
522.1337, 610.8088
522.6158, 610.0190
523.0980, 609.0368
523.5801, 607.6865
524.0622, 605.5974
524.5443, 603.4264
525.0264, 601.7665
525.5085, 600.6082
525.9907, 600.0635
526.4728, 600.3215
526.9549, 600.8757
527.4370, 600.9739
527.9191, 600.5605
528.4012, 600.1191
528.8834, 599.9094
529.3655, 599.5079
529.8476, 598.4476
530.3297, 596.9274
530.8118, 595.5292
531.2939, 594.5585
531.7761, 593.9219
532.2582, 593.4215
532.7403, 593.3432
533.2224, 592.8398
533.7045, 591.3102
534.1866, 589.9103
534.6688, 589.5490
535.1509, 589.9542
535.6330, 590.1548
536.1151, 589.4816
536.5972, 588.2229
537.0793, 587.1005
537.5615, 586.1169
538.0436, 585.2957
538.5257, 584.7462
539.0078, 584.3094
539.4899, 583.9333
539.9720, 583.5997
540.4542, 583.0603
540.9363, 582.0010
541.4184, 580.7691
541.9005, 579.8868
542.3826, 579.3590
542.8647, 578.8655
543.3469, 578.2296
543.8290, 577.5255
544.3111, 576.9446
544.7932, 576.5097
545.2753, 576.1170
545.7574, 576.1381
546.2396, 575.9114
546.7217, 574.4689
547.2038, 572.0971
547.6859, 570.2104
548.1680, 569.8541
548.6501, 570.6541
549.1323, 570.9720
549.6144, 570.6953
550.0965, 570.0921
550.5786, 568.8417
551.0607, 567.5922
551.5428, 566.9177
552.0250, 566.7698
552.5071, 566.5818
552.9892, 565.7833
553.4713, 564.6909
553.9534, 564.3931
554.4355, 565.1245
554.9177, 565.4467
555.3998, 564.6118
555.8819, 563.1776
556.3640, 561.8730
556.8461, 560.7010
557.3282, 559.7070
557.8104, 558.9481
558.2925, 558.3458
558.7746, 557.9674
559.2567, 557.7355
559.7388, 557.1149
560.2209, 555.6664
560.7031, 553.7754
561.1852, 552.6726
561.6673, 553.3876
562.1494, 553.4330
562.6315, 552.3796
563.1136, 550.9594
563.5958, 549.4188
564.0779, 547.9690
564.5600, 547.1143
565.0421, 547.3411
565.5242, 548.1836
566.0063, 548.0034
566.4885, 546.4454
566.9706, 544.8996
567.4527, 543.2886
567.9348, 542.1193
568.4169, 542.1337
568.8990, 543.1389
569.3812, 543.7091
569.8633, 542.6741
570.3454, 540.9946
570.8275, 540.1324
571.3096, 540.0398
571.7917, 539.8167
572.2739, 539.0540
572.7560, 538.0038
573.2381, 537.0800
573.7202, 536.2614
574.2023, 535.6295
574.6844, 535.2686
575.1666, 535.0300
575.6487, 534.9736
576.1308, 534.9523
576.6129, 534.5828
577.0950, 533.6454
577.5771, 532.4454
578.0593, 531.6654
578.5414, 531.4485
579.0235, 531.2569
579.5056, 531.1406
579.9877, 530.9690
580.4698, 530.6955
