##NAMES=Lavinskyite
##RRUFFID=R120057
##IDEAL CHEMISTRY=K(LiCu^2+^)Cu^2+^_6_(Si_4_O_11_)_2_(OH)_4_
##LOCALITY=Wessels mine, Kalahari manganese field, Northern Cape Province, South Africa
##OWNER=RRUFF
##SOURCE=William W. Pinch, Robert Lavinsky, and Marcus Origlieri
##DESCRIPTION=Light blue plates, associated with R120019 wesselsite, and R120077 scottyite. This is the type sample.
##STATUS=The identification of this mineral is confirmed by single-crystal X-ray diffraction and chemical analysis.
##URL=rruff.info/R120057
##MEASURED CHEMISTRY=(K_0.99_Ba_0.01_)_Σ=1.00_(Li_1.04_Cu_0.50_Mg_0.43_Na_0.10_Mn_0.01_)_Σ=2.08_Cu_6.00_Si_7.99_O_22_(OH)_4.00_  ; (Lavinskyite is the darkest material in the image)
90.49219, 458.0887
90.97430, 461.0933
91.45642, 461.0813
91.93854, 458.1271
92.42065, 452.8632
92.90277, 444.3965
93.38489, 433.9199
93.86700, 424.2739
94.34912, 417.0379
94.83124, 411.1559
95.31335, 404.0909
95.79547, 395.5740
96.27759, 387.6509
96.75970, 383.7319
97.24182, 383.4589
97.72394, 381.6779
98.20605, 372.3204
98.68817, 356.7727
99.17029, 354.5654
99.65240, 369.7294
100.1345, 392.0143
100.6166, 401.0225
101.0988, 394.6591
101.5809, 384.4971
102.0630, 376.4682
102.5451, 371.0377
103.0272, 364.8064
103.5093, 356.4629
103.9915, 347.2558
104.4736, 342.4174
104.9557, 343.5893
105.4378, 346.8332
105.9199, 349.9129
106.4020, 354.5024
106.8842, 355.8289
107.3663, 352.6611
107.8484, 344.9804
108.3305, 336.7873
108.8126, 326.2789
109.2947, 316.3438
109.7769, 309.6552
110.2590, 310.4020
110.7411, 310.1553
111.2232, 306.6458
111.7053, 298.4848
112.1874, 293.1403
112.6696, 293.5171
113.1517, 296.3979
113.6338, 297.6133
114.1159, 291.7700
114.5980, 288.0701
115.0801, 290.9105
115.5623, 304.6396
116.0444, 315.5310
116.5265, 316.4257
117.0086, 311.8930
117.4907, 311.3570
117.9728, 326.6386
118.4550, 341.7922
118.9371, 346.0365
119.4192, 331.6047
119.9013, 314.4714
120.3834, 302.8533
120.8655, 295.4956
121.3477, 287.4504
121.8298, 270.6225
122.3119, 253.6637
122.7940, 246.4120
123.2761, 260.9082
123.7582, 278.0733
124.2404, 279.8993
124.7225, 267.4570
125.2046, 253.9368
125.6867, 249.6454
126.1688, 251.4002
126.6509, 253.4938
127.1331, 253.1932
127.6152, 252.1347
128.0973, 253.2927
128.5794, 256.8646
129.0615, 260.2609
129.5436, 260.1640
130.0258, 257.2895
130.5079, 254.7900
130.9900, 255.8713
131.4721, 258.6002
131.9542, 256.5008
132.4363, 248.6829
132.9185, 238.1615
133.4006, 227.1375
133.8827, 215.5867
134.3648, 209.4005
134.8469, 214.8782
135.3290, 230.9455
135.8112, 241.7433
136.2933, 245.3167
136.7754, 243.9360
137.2575, 242.4066
137.7396, 240.8111
138.2217, 238.6114
138.7039, 234.2185
139.1860, 226.6960
139.6681, 224.3158
140.1502, 230.4172
140.6323, 241.9458
141.1144, 244.5685
141.5966, 234.3572
142.0787, 222.7190
142.5608, 219.1464
143.0429, 227.3234
143.5250, 233.1027
144.0071, 233.7537
144.4893, 229.5061
144.9714, 226.3020
145.4535, 224.5564
145.9356, 223.4740
146.4177, 222.1641
146.8998, 219.0156
147.3820, 218.1995
147.8641, 221.5642
148.3462, 230.1471
148.8283, 235.4866
149.3104, 236.2254
149.7925, 234.3911
150.2747, 232.2411
150.7568, 227.2200
151.2389, 224.5618
151.7210, 226.7982
152.2031, 237.2143
152.6852, 242.0539
153.1674, 233.0439
153.6495, 220.1156
154.1316, 217.5645
154.6137, 237.7897
155.0958, 258.8080
155.5779, 272.6375
156.0601, 273.0975
156.5422, 279.4423
157.0243, 297.5187
157.5064, 323.1268
157.9885, 348.1324
158.4706, 366.0987
158.9528, 386.5030
159.4349, 414.4583
159.9170, 455.5760
160.3991, 495.6856
160.8812, 524.1687
161.3633, 547.8058
161.8455, 584.3978
162.3276, 655.2602
162.8097, 731.5252
163.2918, 796.0021
163.7739, 837.9008
164.2560, 876.0016
164.7382, 912.8486
165.2203, 950.7938
165.7024, 998.8383
166.1845, 1070.807
166.6666, 1150.848
167.1487, 1224.044
167.6309, 1285.292
168.1130, 1340.785
168.5951, 1392.463
169.0772, 1440.787
169.5593, 1487.100
170.0414, 1531.968
170.5236, 1575.521
171.0057, 1617.267
171.4878, 1655.652
171.9699, 1693.887
172.4520, 1733.514
172.9341, 1774.752
173.4163, 1818.380
173.8984, 1864.807
174.3805, 1914.452
174.8626, 1966.459
175.3447, 2023.218
175.8268, 2081.722
176.3090, 2136.350
176.7911, 2186.551
177.2732, 2242.156
177.7553, 2305.717
178.2374, 2370.329
178.7195, 2431.047
179.2017, 2484.537
179.6838, 2534.519
180.1659, 2584.833
180.6480, 2635.970
181.1301, 2688.239
181.6122, 2741.911
182.0944, 2797.656
182.5765, 2856.326
183.0586, 2925.044
183.5407, 2996.086
184.0228, 3054.867
184.5049, 3099.699
184.9871, 3138.712
185.4692, 3176.510
185.9513, 3214.586
186.4334, 3259.343
186.9155, 3320.402
187.3976, 3391.404
187.8798, 3450.303
188.3619, 3494.164
188.8440, 3533.713
189.3261, 3583.225
189.8082, 3642.411
190.2903, 3702.325
190.7725, 3758.882
191.2546, 3813.040
191.7367, 3865.178
192.2188, 3915.185
192.7009, 3964.225
193.1830, 4012.535
193.6652, 4059.887
194.1473, 4108.860
194.6294, 4160.345
195.1115, 4214.259
195.5936, 4270.679
196.0757, 4330.799
196.5579, 4391.366
197.0400, 4444.373
197.5221, 4488.951
198.0042, 4535.148
198.4863, 4588.873
198.9684, 4649.939
199.4506, 4715.310
199.9327, 4784.382
200.4148, 4857.137
200.8969, 4933.826
201.3790, 5016.055
201.8611, 5097.773
202.3433, 5172.958
202.8254, 5240.229
203.3075, 5319.104
203.7896, 5413.141
204.2717, 5516.678
204.7538, 5614.586
205.2360, 5705.940
205.7181, 5794.911
206.2002, 5884.818
206.6823, 5976.633
207.1644, 6063.598
207.6465, 6148.263
208.1287, 6225.856
208.6108, 6283.376
209.0929, 6317.923
209.5750, 6340.632
210.0571, 6358.415
210.5392, 6372.785
211.0214, 6376.283
211.5035, 6368.604
211.9856, 6349.796
212.4677, 6317.511
212.9498, 6267.605
213.4319, 6213.779
213.9140, 6163.833
214.3962, 6119.060
214.8783, 6073.755
215.3604, 6027.737
215.8425, 5980.914
216.3246, 5934.451
216.8067, 5886.912
217.2889, 5841.556
217.7710, 5799.787
218.2531, 5761.421
218.7352, 5726.594
219.2173, 5695.497
219.6994, 5667.354
220.1816, 5639.850
220.6637, 5610.513
221.1458, 5584.917
221.6279, 5567.015
222.1100, 5558.163
222.5921, 5553.125
223.0743, 5553.131
223.5564, 5556.727
224.0385, 5556.664
224.5206, 5550.976
225.0027, 5544.981
225.4848, 5541.537
225.9670, 5539.966
226.4491, 5543.288
226.9312, 5553.874
227.4133, 5569.808
227.8954, 5581.999
228.3775, 5588.502
228.8597, 5593.863
229.3418, 5600.899
229.8239, 5611.014
230.3060, 5619.193
230.7881, 5623.555
231.2702, 5625.384
231.7524, 5630.861
232.2345, 5640.503
232.7166, 5652.601
233.1987, 5666.459
233.6808, 5683.712
234.1629, 5698.734
234.6451, 5711.135
235.1272, 5720.988
235.6093, 5729.554
236.0914, 5739.423
236.5735, 5744.506
237.0556, 5740.823
237.5378, 5724.412
238.0199, 5708.088
238.5020, 5692.708
238.9841, 5678.013
239.4662, 5663.344
239.9483, 5649.080
240.4305, 5634.664
240.9126, 5619.940
241.3947, 5605.961
241.8768, 5589.478
242.3589, 5568.958
242.8410, 5546.063
243.3232, 5526.219
243.8053, 5510.542
244.2874, 5496.424
244.7695, 5483.172
245.2516, 5472.669
245.7337, 5457.768
246.2159, 5434.359
246.6980, 5406.652
247.1801, 5389.532
247.6622, 5388.719
248.1443, 5389.375
248.6264, 5384.594
249.1086, 5372.643
249.5907, 5359.056
250.0728, 5342.501
250.5549, 5324.813
251.0370, 5311.752
251.5191, 5308.278
252.0013, 5301.739
252.4834, 5284.750
252.9655, 5249.747
253.4476, 5225.199
253.9297, 5214.527
254.4118, 5212.895
254.8940, 5209.528
255.3761, 5204.195
255.8582, 5197.463
256.3403, 5189.275
256.8224, 5178.932
257.3046, 5169.187
257.7867, 5160.042
258.2688, 5151.408
258.7509, 5143.144
259.2330, 5135.081
259.7151, 5127.703
260.1973, 5121.101
260.6794, 5115.320
261.1615, 5110.662
261.6436, 5107.805
262.1257, 5105.600
262.6078, 5102.451
263.0900, 5099.101
263.5721, 5093.337
264.0542, 5083.314
264.5363, 5067.606
265.0184, 5058.029
265.5005, 5057.660
265.9827, 5059.842
266.4648, 5053.508
266.9469, 5034.653
267.4290, 5019.183
267.9111, 5012.718
268.3932, 5015.892
268.8754, 5017.359
269.3575, 5016.058
269.8396, 5014.451
270.3217, 5016.331
270.8038, 5022.906
271.2859, 5027.792
271.7681, 5029.173
272.2502, 5027.054
272.7323, 5022.423
273.2144, 5014.280
273.6965, 5005.737
274.1786, 4999.930
274.6608, 4996.899
275.1429, 4996.616
275.6250, 5000.924
276.1071, 5008.523
276.5892, 5008.038
277.0714, 4997.268
277.5535, 4984.760
278.0356, 4978.828
278.5177, 4980.060
278.9998, 4981.582
279.4819, 4982.303
279.9641, 4982.157
280.4462, 4982.071
280.9283, 4983.046
281.4104, 4979.646
281.8925, 4964.015
282.3746, 4935.920
282.8568, 4915.126
283.3389, 4907.145
283.8210, 4906.890
284.3031, 4899.333
284.7852, 4883.709
285.2673, 4868.144
285.7495, 4858.411
286.2316, 4854.241
286.7137, 4851.451
287.1958, 4849.950
287.6779, 4849.065
288.1600, 4847.119
288.6422, 4844.069
289.1243, 4841.405
289.6064, 4840.874
290.0885, 4841.765
290.5706, 4840.015
291.0527, 4834.327
291.5349, 4827.843
292.0170, 4825.132
292.4991, 4826.052
292.9812, 4829.608
293.4633, 4837.534
293.9454, 4847.831
294.4276, 4853.616
294.9097, 4853.958
295.3918, 4852.154
295.8739, 4851.993
296.3560, 4853.226
296.8381, 4854.604
297.3203, 4856.156
297.8024, 4857.367
298.2845, 4856.083
298.7666, 4851.888
299.2487, 4849.159
299.7308, 4852.612
300.2130, 4861.154
300.6951, 4871.582
301.1772, 4884.568
301.6593, 4897.692
302.1414, 4906.644
302.6235, 4911.433
303.1057, 4916.571
303.5878, 4925.334
304.0699, 4937.099
304.5520, 4950.843
305.0341, 4969.068
305.5162, 4986.500
305.9984, 4996.967
306.4805, 5001.108
306.9626, 5003.920
307.4447, 5006.536
307.9268, 5010.504
308.4089, 5018.356
308.8911, 5033.421
309.3732, 5048.404
309.8553, 5058.009
310.3374, 5062.769
310.8195, 5064.599
311.3016, 5059.781
311.7838, 5054.914
312.2659, 5056.154
312.7480, 5065.951
313.2301, 5078.929
313.7122, 5095.284
314.1943, 5112.629
314.6765, 5125.568
315.1586, 5129.702
315.6407, 5130.108
316.1228, 5129.601
316.6049, 5128.361
317.0870, 5127.042
317.5692, 5124.508
318.0513, 5122.413
318.5334, 5123.091
319.0155, 5128.313
319.4976, 5135.611
319.9797, 5143.922
320.4619, 5153.131
320.9440, 5163.905
321.4261, 5179.524
321.9082, 5195.317
322.3903, 5206.787
322.8724, 5211.563
323.3546, 5213.236
323.8367, 5210.456
324.3188, 5203.560
324.8009, 5200.636
325.2830, 5205.440
325.7651, 5213.184
326.2473, 5220.806
326.7294, 5227.044
327.2115, 5234.505
327.6936, 5245.372
328.1757, 5258.464
328.6578, 5267.979
329.1400, 5271.085
329.6221, 5273.159
330.1042, 5276.441
330.5863, 5281.073
331.0684, 5286.752
331.5505, 5292.803
332.0327, 5299.893
332.5148, 5309.600
332.9969, 5323.233
333.4790, 5337.394
333.9611, 5350.782
334.4432, 5362.543
334.9254, 5376.687
335.4075, 5395.536
335.8896, 5414.350
336.3717, 5425.447
336.8538, 5424.344
337.3359, 5426.056
337.8180, 5435.743
338.3001, 5453.207
338.7823, 5467.354
339.2644, 5478.022
339.7465, 5485.709
340.2286, 5490.928
340.7107, 5493.816
341.1928, 5493.689
341.6750, 5489.742
342.1571, 5483.035
342.6392, 5477.849
343.1213, 5474.463
343.6034, 5471.200
344.0855, 5467.036
344.5677, 5462.022
345.0498, 5455.343
345.5319, 5445.807
346.0140, 5436.483
346.4961, 5436.613
346.9782, 5445.649
347.4604, 5449.135
347.9425, 5433.018
348.4246, 5403.738
348.9067, 5386.602
349.3888, 5384.405
349.8709, 5387.018
350.3531, 5384.363
350.8352, 5376.667
351.3173, 5364.850
351.7994, 5343.112
352.2815, 5319.404
352.7636, 5308.509
353.2458, 5310.369
353.7279, 5314.844
354.2100, 5315.345
354.6921, 5312.246
355.1742, 5305.993
355.6563, 5294.252
356.1385, 5281.890
356.6206, 5273.577
357.1027, 5268.737
357.5848, 5264.795
358.0669, 5261.434
358.5490, 5257.588
359.0312, 5251.833
359.5133, 5242.524
359.9954, 5234.412
360.4775, 5230.836
360.9596, 5230.511
361.4417, 5230.697
361.9239, 5229.489
362.4060, 5229.182
362.8881, 5232.438
363.3702, 5240.985
363.8523, 5245.324
364.3344, 5237.750
364.8166, 5225.967
365.2987, 5218.713
365.7808, 5221.671
366.2629, 5225.922
366.7450, 5229.599
367.2271, 5232.618
367.7093, 5234.977
368.1914, 5235.262
368.6735, 5235.701
369.1556, 5237.724
369.6377, 5241.086
370.1198, 5246.255
370.6020, 5253.507
371.0841, 5262.543
371.5662, 5272.483
372.0483, 5283.324
372.5304, 5294.825
373.0125, 5307.749
373.4947, 5324.843
373.9768, 5334.383
374.4589, 5332.424
374.9410, 5326.166
375.4231, 5327.234
375.9052, 5337.347
376.3874, 5350.261
376.8695, 5364.558
377.3516, 5380.483
377.8337, 5396.945
378.3158, 5414.558
378.7979, 5432.006
379.2801, 5447.592
379.7622, 5461.416
380.2443, 5475.185
380.7264, 5489.236
381.2085, 5503.643
381.6906, 5518.327
382.1728, 5533.144
382.6549, 5549.593
383.1370, 5570.042
383.6191, 5593.121
384.1012, 5611.872
384.5833, 5624.525
385.0655, 5636.650
385.5476, 5658.268
386.0297, 5686.477
386.5118, 5709.748
386.9939, 5715.025
387.4760, 5715.345
387.9582, 5732.499
388.4403, 5767.244
388.9224, 5802.476
389.4045, 5822.970
389.8866, 5835.425
390.3687, 5849.574
390.8509, 5872.030
391.3330, 5893.396
391.8151, 5904.193
392.2972, 5907.375
392.7793, 5914.968
393.2614, 5936.940
393.7436, 5962.923
394.2257, 5986.183
394.7078, 6005.032
395.1899, 6021.735
395.6720, 6036.011
396.1541, 6048.744
396.6363, 6061.387
397.1184, 6072.256
397.6005, 6084.907
398.0826, 6102.097
398.5647, 6124.956
399.0468, 6143.352
399.5290, 6153.658
400.0111, 6160.586
400.4932, 6167.819
400.9753, 6172.528
401.4574, 6181.650
401.9395, 6198.466
402.4217, 6220.757
402.9038, 6236.966
403.3859, 6242.266
403.8680, 6248.633
404.3501, 6262.435
404.8322, 6286.017
405.3144, 6308.741
405.7965, 6330.896
406.2786, 6351.534
406.7607, 6367.174
407.2428, 6375.998
407.7249, 6390.168
408.2071, 6416.543
408.6892, 6452.247
409.1713, 6476.838
409.6534, 6488.883
410.1355, 6498.428
410.6176, 6513.067
411.0998, 6532.755
411.5819, 6557.843
412.0640, 6589.962
412.5461, 6624.861
413.0282, 6657.661
413.5103, 6688.033
413.9925, 6714.929
414.4746, 6736.845
414.9567, 6755.480
415.4388, 6772.368
415.9209, 6787.497
416.4030, 6803.537
416.8852, 6824.823
417.3673, 6848.393
417.8494, 6869.474
418.3315, 6884.080
418.8136, 6897.700
419.2957, 6915.595
419.7779, 6936.678
420.2600, 6954.445
420.7421, 6961.914
421.2242, 6967.442
421.7063, 6977.236
422.1884, 6995.690
422.6706, 7012.698
423.1527, 7025.512
423.6348, 7035.402
424.1169, 7044.820
424.5990, 7050.622
425.0811, 7059.365
425.5633, 7073.384
426.0454, 7093.141
426.5275, 7114.117
427.0096, 7136.750
427.4917, 7160.233
427.9738, 7184.048
428.4560, 7208.367
428.9381, 7232.005
429.4202, 7253.469
429.9023, 7274.026
430.3844, 7300.730
430.8665, 7336.318
431.3487, 7369.785
431.8308, 7393.976
432.3129, 7408.187
432.7950, 7427.186
433.2771, 7452.093
433.7592, 7479.205
434.2414, 7505.055
434.7235, 7529.606
435.2056, 7551.508
435.6877, 7568.771
436.1698, 7584.258
436.6519, 7604.750
437.1341, 7630.111
437.6162, 7656.552
438.0983, 7684.673
438.5804, 7711.526
439.0625, 7731.307
439.5446, 7741.986
440.0268, 7749.252
440.5089, 7755.843
440.9910, 7762.836
441.4731, 7772.302
441.9552, 7789.794
442.4373, 7806.398
442.9195, 7817.769
443.4016, 7823.563
443.8837, 7822.343
444.3658, 7808.567
444.8479, 7790.055
445.3300, 7773.182
445.8122, 7763.393
446.2943, 7749.427
446.7764, 7729.979
447.2585, 7704.913
447.7406, 7673.932
448.2227, 7635.440
448.7049, 7592.455
449.1870, 7544.015
449.6691, 7489.151
450.1512, 7437.666
450.6333, 7391.501
451.1154, 7347.484
451.5976, 7303.058
452.0797, 7259.182
452.5618, 7213.611
453.0439, 7165.680
453.5260, 7116.401
454.0081, 7065.037
454.4903, 7010.870
454.9724, 6958.330
455.4545, 6907.633
455.9366, 6859.784
456.4187, 6820.234
456.9008, 6790.395
457.3830, 6763.326
457.8651, 6734.091
458.3472, 6701.748
458.8293, 6664.372
459.3114, 6617.795
459.7935, 6568.903
460.2757, 6524.704
460.7578, 6485.045
461.2399, 6448.405
461.7220, 6414.769
462.2041, 6383.118
462.6862, 6353.236
463.1684, 6325.538
463.6505, 6298.227
464.1326, 6271.146
464.6147, 6244.202
465.0968, 6216.768
465.5789, 6187.208
466.0611, 6159.610
466.5432, 6135.375
467.0253, 6114.499
467.5074, 6094.671
467.9895, 6076.657
468.4716, 6058.882
468.9538, 6040.085
469.4359, 6016.553
469.9180, 6000.752
470.4001, 5995.163
470.8822, 5995.325
471.3643, 5995.131
471.8465, 5995.195
472.3286, 5992.798
472.8107, 5986.846
473.2928, 5977.808
473.7749, 5966.303
474.2570, 5951.151
474.7392, 5939.942
475.2213, 5941.217
475.7034, 5952.835
476.1855, 5960.104
476.6676, 5961.249
477.1497, 5958.872
477.6319, 5954.526
478.1140, 5949.240
478.5961, 5946.357
479.0782, 5950.204
479.5603, 5955.491
480.0424, 5955.151
480.5246, 5949.864
481.0067, 5945.252
481.4888, 5942.367
481.9709, 5943.008
482.4530, 5949.604
482.9352, 5965.025
483.4173, 5980.201
483.8994, 5993.376
484.3815, 6003.615
484.8636, 6009.396
485.3457, 5999.984
485.8279, 5996.661
486.3100, 6007.555
486.7921, 6032.936
487.2742, 6055.415
487.7563, 6074.766
488.2384, 6091.894
488.7206, 6106.460
489.2027, 6115.618
489.6848, 6130.486
490.1669, 6153.525
490.6490, 6179.953
491.1311, 6201.758
491.6133, 6217.685
492.0954, 6236.467
492.5775, 6261.625
493.0596, 6291.406
493.5417, 6319.570
494.0238, 6345.895
494.5060, 6372.635
494.9881, 6402.724
495.4702, 6434.114
495.9523, 6462.875
496.4344, 6488.307
496.9165, 6510.585
497.3987, 6528.666
497.8808, 6543.890
498.3629, 6558.475
498.8450, 6575.733
499.3271, 6590.757
499.8092, 6601.130
500.2914, 6606.841
500.7735, 6606.979
501.2556, 6594.397
501.7377, 6581.435
502.2198, 6576.913
502.7019, 6588.209
503.1841, 6591.393
503.6662, 6579.632
504.1483, 6559.874
504.6304, 6540.219
505.1125, 6522.106
505.5946, 6502.295
506.0768, 6480.422
506.5589, 6456.350
507.0410, 6428.250
507.5231, 6394.331
508.0052, 6361.331
508.4873, 6332.684
508.9695, 6308.744
509.4516, 6284.664
509.9337, 6260.380
510.4158, 6235.822
510.8979, 6211.234
511.3800, 6186.243
511.8622, 6160.064
512.3443, 6131.517
512.8264, 6103.019
513.3085, 6077.612
513.7906, 6054.761
514.2728, 6032.482
514.7549, 6012.575
515.2370, 5990.956
515.7191, 5961.597
516.2012, 5923.422
516.6833, 5890.320
517.1655, 5869.506
517.6476, 5855.925
518.1297, 5845.373
518.6118, 5842.145
519.0939, 5835.510
519.5760, 5820.972
520.0582, 5802.090
520.5403, 5787.011
521.0224, 5777.646
521.5045, 5769.626
521.9866, 5762.087
522.4688, 5754.954
522.9509, 5747.311
523.4330, 5738.760
523.9151, 5730.320
524.3972, 5722.752
524.8793, 5716.054
525.3615, 5709.559
525.8436, 5703.151
526.3257, 5696.783
526.8078, 5691.602
527.2899, 5686.873
527.7720, 5679.040
528.2542, 5664.417
528.7363, 5647.822
529.2184, 5635.095
529.7005, 5626.059
530.1826, 5619.118
530.6647, 5615.736
531.1469, 5612.643
531.6290, 5605.441
532.1111, 5591.769
532.5932, 5583.389
533.0753, 5591.772
533.5574, 5604.925
534.0396, 5610.277
534.5217, 5593.671
535.0038, 5583.458
535.4859, 5587.746
535.9680, 5601.544
536.4501, 5608.911
536.9323, 5606.916
537.4144, 5603.437
537.8965, 5600.649
538.3786, 5598.481
538.8607, 5599.080
539.3428, 5602.989
539.8250, 5607.745
540.3071, 5610.780
540.7892, 5612.267
541.2713, 5614.963
541.7534, 5619.685
542.2355, 5624.429
542.7177, 5625.108
543.1998, 5623.228
543.6819, 5623.599
544.1640, 5629.755
544.6461, 5638.226
545.1282, 5646.468
545.6104, 5654.397
546.0925, 5661.739
546.5746, 5668.140
547.0567, 5674.070
547.5388, 5679.393
548.0209, 5683.125
548.5031, 5689.609
548.9852, 5701.761
549.4673, 5716.154
549.9494, 5729.297
550.4315, 5742.499
550.9136, 5752.156
551.3958, 5757.257
551.8779, 5758.661
552.3600, 5758.366
552.8421, 5755.517
553.3242, 5753.845
553.8063, 5755.554
554.2885, 5760.060
554.7706, 5762.258
555.2527, 5761.917
555.7348, 5761.838
556.2169, 5765.575
556.6990, 5771.455
557.1812, 5775.641
557.6633, 5777.937
558.1454, 5777.072
558.6275, 5768.595
559.1096, 5756.632
559.5917, 5748.233
560.0739, 5749.485
560.5560, 5752.077
561.0381, 5751.900
561.5202, 5749.521
562.0023, 5747.633
562.4844, 5746.665
562.9666, 5746.455
563.4487, 5747.472
563.9308, 5750.403
564.4129, 5750.774
564.8950, 5747.479
565.3771, 5742.729
565.8593, 5738.860
566.3414, 5736.964
566.8235, 5730.378
567.3056, 5716.870
567.7877, 5700.688
568.2698, 5688.646
568.7520, 5680.667
569.2341, 5677.138
569.7162, 5681.740
570.1983, 5688.562
570.6804, 5685.331
571.1625, 5673.374
571.6447, 5661.512
572.1268, 5655.390
572.6089, 5652.308
573.0910, 5650.850
573.5731, 5651.417
574.0552, 5649.128
574.5374, 5636.664
575.0195, 5622.791
575.5016, 5615.624
575.9837, 5624.225
576.4658, 5630.102
576.9479, 5630.447
577.4301, 5627.101
577.9122, 5623.341
578.3943, 5617.646
578.8764, 5614.221
579.3585, 5614.865
