##NAMES=Lawsonite
##RRUFFID=R050042
##IDEAL CHEMISTRY=CaAl_2_Si_2_O_7_(OH)_2_&#183;H_2_O
##LOCALITY=California, USA
##OWNER=RRUFF
##SOURCE=University of Arizona Mineral Museum
##DESCRIPTION=White to colorless fragments
##STATUS=The identification of this mineral has been confirmed by X-ray diffraction and chemical analysis
##URL=rruff.info/R050042
##MEASURED CHEMISTRY=(Ca_0.98_Fe^2+^_0.02_)Al_2.00_Si_2.00_O_7_(OH)_2_Â·H_2_O
136.1626, 1023.147
136.6447, 1061.223
137.1268, 1091.458
137.6089, 1112.084
138.0910, 1130.274
138.5731, 1150.219
139.0553, 1173.928
139.5374, 1190.493
140.0195, 1196.580
140.5016, 1195.436
140.9837, 1199.739
141.4658, 1211.918
141.9480, 1225.789
142.4301, 1237.253
142.9122, 1245.892
143.3943, 1252.678
143.8764, 1255.465
144.3585, 1254.461
144.8407, 1262.351
145.3228, 1283.836
145.8049, 1310.612
146.2870, 1335.178
146.7691, 1359.120
147.2512, 1378.327
147.7334, 1389.541
148.2155, 1389.440
148.6976, 1396.890
149.1797, 1419.167
149.6618, 1446.957
150.1439, 1467.765
150.6261, 1473.424
151.1082, 1479.191
151.5903, 1488.817
152.0724, 1503.598
152.5545, 1519.519
153.0366, 1540.989
153.5188, 1563.175
154.0009, 1576.531
154.4830, 1570.041
154.9651, 1561.750
155.4472, 1559.820
155.9293, 1570.093
156.4115, 1579.669
156.8936, 1586.992
157.3757, 1591.907
157.8578, 1594.052
158.3399, 1589.779
158.8221, 1584.736
159.3042, 1582.583
159.7863, 1588.713
160.2684, 1593.439
160.7505, 1592.847
161.2326, 1587.515
161.7148, 1581.910
162.1969, 1574.470
162.6790, 1568.969
163.1611, 1569.103
163.6432, 1584.121
164.1253, 1598.659
164.6075, 1603.741
165.0896, 1599.016
165.5717, 1592.706
166.0538, 1588.037
166.5359, 1584.907
167.0180, 1583.132
167.5002, 1583.583
167.9823, 1584.742
168.4644, 1585.012
168.9465, 1583.969
169.4286, 1584.164
169.9107, 1591.453
170.3929, 1601.513
170.8750, 1605.415
171.3571, 1590.968
171.8392, 1571.293
172.3213, 1561.700
172.8034, 1566.465
173.2856, 1573.826
173.7677, 1573.305
174.2498, 1566.315
174.7319, 1557.767
175.2140, 1548.401
175.6961, 1539.850
176.1783, 1535.729
176.6604, 1539.227
177.1425, 1542.859
177.6246, 1535.494
178.1067, 1518.686
178.5888, 1502.018
179.0710, 1493.408
179.5531, 1490.234
180.0352, 1487.086
180.5173, 1483.048
180.9994, 1478.083
181.4815, 1471.306
181.9637, 1462.749
182.4458, 1455.330
182.9279, 1452.606
183.4100, 1453.356
183.8921, 1452.815
184.3742, 1448.726
184.8564, 1442.862
185.3385, 1440.810
185.8206, 1443.002
186.3027, 1443.543
186.7848, 1434.716
187.2669, 1417.727
187.7491, 1401.450
188.2312, 1387.695
188.7133, 1377.033
189.1954, 1372.605
189.6775, 1375.357
190.1596, 1380.260
190.6418, 1382.254
191.1239, 1381.307
191.6060, 1377.135
192.0881, 1365.417
192.5702, 1348.070
193.0524, 1345.304
193.5345, 1361.415
194.0166, 1380.959
194.4987, 1376.412
194.9808, 1346.049
195.4629, 1317.575
195.9451, 1305.400
196.4272, 1309.033
196.9093, 1312.277
197.3914, 1314.749
197.8735, 1316.638
198.3556, 1318.595
198.8378, 1320.830
199.3199, 1321.810
199.8020, 1320.287
200.2841, 1316.094
200.7662, 1311.958
201.2483, 1307.806
201.7305, 1304.002
202.2126, 1301.833
202.6947, 1301.815
203.1768, 1301.507
203.6589, 1298.535
204.1410, 1292.098
204.6232, 1289.135
205.1053, 1291.181
205.5874, 1296.689
206.0695, 1300.495
206.5516, 1302.163
207.0337, 1303.270
207.5159, 1305.766
207.9980, 1310.816
208.4801, 1310.954
208.9622, 1302.943
209.4443, 1289.364
209.9264, 1284.090
210.4086, 1290.703
210.8907, 1298.440
211.3728, 1297.805
211.8549, 1285.229
212.3370, 1276.445
212.8191, 1273.832
213.3013, 1277.006
213.7834, 1283.247
214.2655, 1294.174
214.7476, 1305.607
215.2297, 1314.293
215.7118, 1320.760
216.1940, 1322.713
216.6761, 1317.034
217.1582, 1304.419
217.6403, 1302.542
218.1224, 1316.561
218.6045, 1334.441
219.0867, 1344.771
219.5688, 1345.594
220.0509, 1343.017
220.5330, 1336.827
221.0151, 1326.772
221.4972, 1321.734
221.9794, 1324.236
222.4615, 1328.885
222.9436, 1329.282
223.4257, 1321.777
223.9078, 1317.748
224.3899, 1321.406
224.8721, 1333.824
225.3542, 1339.854
225.8363, 1335.772
226.3184, 1328.885
226.8005, 1327.987
227.2827, 1335.548
227.7648, 1344.442
228.2469, 1352.798
228.7290, 1360.262
229.2111, 1370.297
229.6932, 1386.394
230.1754, 1402.120
230.6575, 1408.349
231.1396, 1399.371
231.6217, 1390.838
232.1038, 1386.697
232.5859, 1387.275
233.0681, 1390.842
233.5502, 1399.215
234.0323, 1409.247
234.5144, 1415.802
234.9965, 1414.536
235.4786, 1417.169
235.9608, 1428.557
236.4429, 1451.295
236.9250, 1470.083
237.4071, 1484.460
237.8892, 1495.015
238.3713, 1502.259
238.8535, 1504.268
239.3356, 1506.157
239.8177, 1509.266
240.2998, 1513.416
240.7819, 1519.596
241.2640, 1528.331
241.7462, 1538.889
242.2283, 1549.817
242.7104, 1559.666
243.1925, 1572.370
243.6746, 1590.775
244.1567, 1619.058
244.6389, 1638.753
245.1210, 1647.770
245.6031, 1649.468
246.0852, 1647.739
246.5673, 1634.893
247.0494, 1631.886
247.5316, 1649.258
248.0137, 1696.659
248.4958, 1731.480
248.9779, 1749.241
249.4600, 1756.728
249.9421, 1765.871
250.4243, 1777.583
250.9064, 1789.394
251.3885, 1799.780
251.8706, 1807.023
252.3527, 1818.826
252.8348, 1835.628
253.3170, 1856.639
253.7991, 1881.578
254.2812, 1914.307
254.7633, 1942.972
255.2454, 1960.593
255.7275, 1960.580
256.2097, 1974.053
256.6918, 2005.031
257.1739, 2046.559
257.6560, 2086.942
258.1381, 2126.919
258.6202, 2164.300
259.1024, 2196.681
259.5845, 2220.031
260.0666, 2254.271
260.5487, 2302.596
261.0308, 2359.344
261.5129, 2416.685
261.9951, 2473.994
262.4772, 2532.228
262.9593, 2590.838
263.4414, 2650.009
263.9235, 2711.017
264.4056, 2774.584
264.8878, 2840.065
265.3699, 2907.686
265.8520, 2978.029
266.3341, 3050.551
266.8162, 3127.495
267.2983, 3209.833
267.7805, 3283.852
268.2626, 3342.621
268.7447, 3400.174
269.2268, 3484.648
269.7089, 3604.168
270.1910, 3721.010
270.6732, 3819.485
271.1553, 3896.528
271.6374, 3981.462
272.1195, 4076.588
272.6016, 4176.434
273.0837, 4270.107
273.5659, 4358.165
274.0480, 4439.595
274.5301, 4517.203
275.0122, 4591.044
275.4943, 4645.262
275.9764, 4675.738
276.4586, 4694.335
276.9407, 4724.169
277.4228, 4768.604
277.9049, 4792.749
278.3870, 4778.868
278.8691, 4728.357
279.3513, 4670.493
279.8334, 4602.476
280.3155, 4534.305
280.7976, 4479.198
281.2798, 4437.906
281.7619, 4403.346
282.2440, 4377.879
282.7261, 4358.972
283.2082, 4325.052
283.6903, 4273.516
284.1725, 4216.548
284.6546, 4168.454
285.1367, 4129.391
285.6188, 4092.592
286.1009, 4055.219
286.5830, 4018.185
287.0652, 3986.965
287.5473, 3962.857
288.0294, 3938.515
288.5115, 3906.879
288.9936, 3867.976
289.4757, 3824.092
289.9579, 3778.563
290.4400, 3727.840
290.9221, 3657.332
291.4042, 3565.900
291.8863, 3468.889
292.3684, 3381.774
292.8506, 3302.510
293.3327, 3220.522
293.8148, 3127.508
294.2969, 3032.036
294.7790, 2947.570
295.2611, 2873.823
295.7433, 2810.923
296.2254, 2765.745
296.7075, 2731.246
297.1896, 2688.199
297.6717, 2620.797
298.1538, 2549.721
298.6360, 2511.754
299.1181, 2504.203
299.6002, 2499.321
300.0823, 2472.323
300.5644, 2433.119
301.0465, 2400.306
301.5287, 2380.046
302.0108, 2366.525
302.4929, 2353.995
302.9750, 2342.686
303.4571, 2334.616
303.9392, 2334.332
304.4214, 2337.071
304.9035, 2335.680
305.3856, 2325.453
305.8677, 2315.595
306.3498, 2315.506
306.8319, 2323.053
307.3141, 2330.756
307.7962, 2330.790
308.2783, 2330.353
308.7604, 2337.603
309.2425, 2357.354
309.7246, 2377.685
310.2068, 2388.261
310.6889, 2393.176
311.1710, 2403.155
311.6531, 2431.057
312.1352, 2461.340
312.6173, 2480.573
313.0995, 2481.723
313.5816, 2485.539
314.0637, 2500.151
314.5458, 2524.334
315.0279, 2555.781
315.5100, 2602.070
315.9922, 2649.018
316.4743, 2686.781
316.9564, 2710.387
317.4385, 2740.789
317.9206, 2790.597
318.4027, 2850.042
318.8849, 2905.472
319.3670, 2955.935
319.8491, 2999.382
320.3312, 3031.825
320.8133, 3050.360
321.2954, 3074.919
321.7776, 3110.752
322.2597, 3154.105
322.7418, 3200.981
323.2239, 3260.078
323.7060, 3313.395
324.1881, 3357.207
324.6703, 3391.255
325.1524, 3417.484
325.6345, 3432.394
326.1166, 3441.109
326.5987, 3448.037
327.0808, 3465.959
327.5630, 3467.019
328.0451, 3443.214
328.5272, 3395.679
329.0093, 3348.594
329.4914, 3303.335
329.9735, 3258.386
330.4557, 3213.041
330.9378, 3167.059
331.4199, 3120.806
331.9020, 3072.937
332.3841, 3024.406
332.8662, 2980.684
333.3484, 2946.909
333.8305, 2910.792
334.3126, 2862.845
334.7947, 2796.066
335.2768, 2740.425
335.7589, 2697.872
336.2411, 2667.126
336.7232, 2644.818
337.2053, 2632.404
337.6874, 2624.676
338.1695, 2621.275
338.6516, 2623.470
339.1338, 2617.396
339.6159, 2599.174
340.0980, 2578.511
340.5801, 2573.864
341.0622, 2586.841
341.5443, 2600.730
342.0265, 2608.634
342.5086, 2611.190
342.9907, 2613.758
343.4728, 2615.371
343.9549, 2620.726
344.4370, 2636.432
344.9192, 2661.737
345.4013, 2690.991
345.8834, 2724.380
346.3655, 2759.372
346.8476, 2785.986
347.3297, 2803.806
347.8119, 2822.281
348.2940, 2850.347
348.7761, 2886.143
349.2582, 2923.389
349.7403, 2961.194
350.2225, 2999.667
350.7046, 3039.907
351.1867, 3081.894
351.6688, 3122.657
352.1509, 3159.749
352.6331, 3194.444
353.1152, 3228.546
353.5973, 3262.245
354.0794, 3295.849
354.5615, 3328.733
355.0436, 3361.559
355.5258, 3396.340
356.0079, 3428.171
356.4900, 3465.779
356.9721, 3521.512
357.4542, 3605.217
357.9363, 3680.079
358.4185, 3719.301
358.9006, 3736.355
359.3827, 3754.555
359.8648, 3781.265
360.3469, 3812.825
360.8290, 3847.716
361.3112, 3886.062
361.7933, 3926.823
362.2754, 3978.762
362.7575, 4029.881
363.2396, 4067.292
363.7217, 4074.486
364.2039, 4080.767
364.6860, 4093.473
365.1681, 4112.943
365.6502, 4133.156
366.1323, 4157.426
366.6144, 4179.966
367.0966, 4196.792
367.5787, 4201.894
368.0608, 4208.317
368.5429, 4217.715
369.0250, 4229.375
369.5071, 4240.059
369.9893, 4255.443
370.4714, 4263.302
370.9535, 4255.840
371.4356, 4222.390
371.9177, 4198.448
372.3998, 4187.622
372.8820, 4184.883
373.3641, 4179.678
373.8462, 4171.920
374.3283, 4161.977
374.8104, 4149.838
375.2925, 4135.266
375.7747, 4121.108
376.2568, 4109.201
376.7389, 4093.853
377.2210, 4062.678
377.7031, 4013.872
378.1852, 3975.874
378.6674, 3960.849
379.1495, 3963.325
379.6316, 3960.562
380.1137, 3952.587
380.5958, 3939.331
381.0779, 3918.376
381.5601, 3891.075
382.0422, 3865.122
382.5243, 3839.948
383.0064, 3819.129
383.4885, 3809.661
383.9706, 3810.627
384.4528, 3815.878
384.9349, 3826.708
385.4170, 3837.718
385.8991, 3837.961
386.3812, 3822.363
386.8633, 3807.184
387.3455, 3809.828
387.8276, 3824.576
388.3097, 3838.439
388.7918, 3835.181
389.2739, 3834.536
389.7560, 3857.257
390.2382, 3907.175
390.7203, 3953.137
391.2024, 3971.714
391.6845, 3979.232
392.1666, 3994.751
392.6487, 4025.844
393.1309, 4064.860
393.6130, 4113.854
394.0951, 4171.389
394.5772, 4220.457
395.0593, 4248.960
395.5414, 4272.625
396.0236, 4300.995
396.5057, 4340.140
396.9878, 4378.561
397.4699, 4419.068
397.9520, 4458.458
398.4341, 4486.222
398.9163, 4492.188
399.3984, 4497.139
399.8805, 4511.310
400.3626, 4545.518
400.8447, 4556.247
401.3268, 4537.375
401.8090, 4499.503
402.2911, 4457.322
402.7732, 4413.977
403.2553, 4358.885
403.7374, 4286.600
404.2195, 4198.149
404.7017, 4113.319
405.1838, 4034.022
405.6659, 3952.157
406.1480, 3855.818
406.6301, 3744.195
407.1122, 3645.183
407.5944, 3566.642
408.0765, 3500.313
408.5586, 3426.176
409.0407, 3344.163
409.5228, 3267.467
410.0049, 3204.116
410.4871, 3153.503
410.9692, 3114.557
411.4513, 3088.373
411.9334, 3068.759
412.4155, 3054.135
412.8976, 3040.738
413.3798, 3018.615
413.8619, 2971.738
414.3440, 2920.154
414.8261, 2883.840
415.3082, 2863.178
415.7903, 2850.730
416.2725, 2846.810
416.7546, 2846.246
417.2367, 2843.189
417.7188, 2836.879
418.2009, 2826.605
418.6830, 2809.732
419.1652, 2787.948
419.6473, 2768.105
420.1294, 2746.733
420.6115, 2731.957
421.0937, 2729.932
421.5758, 2751.078
422.0579, 2764.319
422.5400, 2760.061
423.0221, 2746.702
423.5042, 2737.888
423.9864, 2736.351
424.4685, 2736.955
424.9506, 2739.696
425.4327, 2744.955
425.9148, 2746.649
426.3969, 2742.583
426.8791, 2737.459
427.3612, 2735.185
427.8433, 2735.984
428.3254, 2739.299
428.8075, 2746.510
429.2896, 2755.629
429.7718, 2759.950
430.2539, 2759.294
430.7360, 2755.060
431.2181, 2745.632
431.7002, 2731.699
432.1823, 2722.752
432.6645, 2718.851
433.1466, 2721.334
433.6287, 2734.541
434.1108, 2756.709
434.5929, 2779.389
435.0750, 2799.495
435.5572, 2817.578
436.0393, 2834.000
436.5214, 2848.839
437.0035, 2863.833
437.4856, 2879.841
437.9677, 2896.850
438.4499, 2914.992
438.9320, 2935.307
439.4141, 2955.052
439.8962, 2966.784
440.3783, 2975.827
440.8604, 2996.266
441.3426, 3051.062
441.8247, 3106.060
442.3068, 3139.775
442.7889, 3145.442
443.2710, 3151.223
443.7531, 3162.441
444.2353, 3178.408
444.7174, 3198.566
445.1995, 3235.828
445.6816, 3262.749
446.1637, 3268.438
446.6458, 3255.627
447.1280, 3254.481
447.6101, 3273.107
448.0922, 3294.522
448.5743, 3309.196
449.0564, 3314.644
449.5385, 3321.316
450.0207, 3333.255
450.5028, 3343.132
450.9849, 3331.624
451.4670, 3292.504
451.9491, 3264.597
452.4312, 3269.591
452.9134, 3301.504
453.3955, 3311.268
453.8776, 3296.666
454.3597, 3275.821
454.8418, 3267.203
455.3239, 3267.726
455.8061, 3264.931
456.2882, 3255.556
456.7703, 3242.236
457.2524, 3231.996
457.7345, 3222.336
458.2166, 3202.556
458.6988, 3156.553
459.1809, 3102.093
459.6630, 3061.720
460.1451, 3039.710
460.6272, 3013.854
461.1093, 2965.500
461.5915, 2906.658
462.0736, 2853.179
462.5557, 2816.818
463.0378, 2780.246
463.5199, 2734.350
464.0020, 2681.244
464.4842, 2635.555
464.9663, 2610.156
465.4484, 2586.135
465.9305, 2552.841
466.4126, 2499.954
466.8947, 2454.337
467.3769, 2415.024
467.8590, 2383.498
468.3411, 2363.371
468.8232, 2362.127
469.3053, 2357.518
469.7874, 2342.788
470.2696, 2318.532
470.7517, 2295.414
471.2338, 2273.465
471.7159, 2252.725
472.1980, 2232.750
472.6801, 2213.551
473.1623, 2199.708
473.6444, 2194.033
474.1265, 2189.501
474.6086, 2170.481
475.0907, 2139.566
475.5728, 2113.538
476.0550, 2104.810
476.5371, 2105.364
477.0192, 2103.867
477.5013, 2099.968
477.9834, 2092.258
478.4655, 2076.490
478.9477, 2057.177
479.4298, 2040.113
479.9119, 2023.643
480.3940, 2013.791
480.8761, 2019.406
481.3582, 2034.962
481.8404, 2044.500
482.3225, 2037.197
482.8046, 2027.328
483.2867, 2021.399
483.7688, 2021.138
484.2509, 2020.735
484.7331, 2021.952
485.2152, 2021.634
485.6973, 2016.083
486.1794, 1998.306
486.6615, 1987.373
487.1436, 1987.122
487.6258, 1995.743
488.1079, 2005.952
488.5900, 2019.542
489.0721, 2029.542
489.5542, 2028.268
490.0363, 2015.513
490.5185, 2017.237
491.0006, 2037.024
491.4827, 2061.495
491.9648, 2072.735
492.4470, 2072.760
492.9291, 2071.674
493.4112, 2069.438
493.8933, 2070.960
494.3754, 2089.883
494.8575, 2122.976
495.3397, 2148.784
495.8218, 2146.095
496.3039, 2132.468
496.7860, 2128.059
497.2681, 2138.432
497.7502, 2147.621
498.2324, 2142.083
498.7145, 2131.685
499.1966, 2129.739
499.6787, 2150.461
500.1608, 2169.887
500.6429, 2179.480
501.1251, 2179.790
501.6072, 2182.263
502.0893, 2193.500
502.5714, 2201.970
503.0535, 2200.918
503.5356, 2181.698
504.0178, 2174.232
504.4999, 2182.857
504.9820, 2199.403
505.4641, 2213.177
505.9462, 2224.879
506.4283, 2229.723
506.9105, 2224.353
507.3926, 2211.450
507.8747, 2199.759
508.3568, 2189.024
508.8389, 2184.017
509.3210, 2192.325
509.8032, 2209.006
510.2853, 2220.232
510.7674, 2223.690
511.2495, 2224.192
511.7316, 2226.592
512.2137, 2229.691
512.6959, 2231.026
513.1780, 2225.563
513.6601, 2221.346
514.1422, 2226.535
514.6243, 2239.312
515.1064, 2247.074
515.5886, 2236.785
516.0707, 2225.634
516.5528, 2225.271
517.0349, 2245.515
517.5170, 2259.023
517.9991, 2256.180
518.4813, 2247.881
518.9634, 2248.074
519.4455, 2262.064
519.9276, 2275.535
520.4097, 2286.014
520.8918, 2293.573
521.3740, 2299.017
521.8561, 2301.225
522.3382, 2305.029
522.8203, 2315.567
523.3024, 2332.098
523.7845, 2341.146
524.2667, 2339.728
524.7488, 2339.679
525.2309, 2360.507
525.7130, 2396.127
526.1951, 2424.370
526.6772, 2430.821
527.1594, 2432.984
527.6415, 2457.005
528.1236, 2496.838
528.6057, 2526.401
529.0878, 2512.811
529.5699, 2494.787
530.0521, 2504.711
530.5342, 2553.591
531.0163, 2599.341
531.4984, 2623.840
531.9805, 2640.801
532.4626, 2664.930
532.9448, 2705.735
533.4269, 2744.730
533.9090, 2779.071
534.3911, 2810.016
534.8732, 2840.758
535.3553, 2870.500
535.8375, 2902.276
536.3196, 2936.875
536.8017, 2974.740
537.2838, 3016.178
537.7659, 3062.879
538.2480, 3108.861
538.7302, 3138.649
539.2123, 3157.759
539.6944, 3205.597
540.1765, 3299.529
540.6586, 3409.647
541.1407, 3497.567
541.6229, 3567.743
542.1050, 3637.618
542.5871, 3711.313
543.0692, 3792.428
543.5513, 3883.284
544.0334, 3983.293
544.5156, 4093.234
544.9977, 4222.212
545.4798, 4356.259
545.9619, 4482.016
546.4440, 4578.916
546.9261, 4694.500
547.4083, 4842.546
547.8904, 5012.797
548.3725, 5183.859
548.8546, 5353.612
549.3367, 5529.043
549.8188, 5709.012
550.3010, 5894.733
550.7831, 6103.487
551.2652, 6340.225
551.7473, 6584.455
552.2294, 6815.491
552.7115, 7036.766
553.1937, 7276.819
553.6758, 7541.352
554.1579, 7810.351
554.6400, 8058.085
555.1221, 8291.051
555.6042, 8523.241
556.0864, 8765.509
556.5685, 9007.143
557.0506, 9236.525
557.5327, 9455.184
558.0148, 9665.062
558.4969, 9881.122
558.9791, 10078.86
559.4612, 10244.74
559.9433, 10378.37
560.4254, 10472.48
560.9075, 10513.98
561.3896, 10520.65
561.8718, 10511.39
562.3539, 10501.50
562.8360, 10448.42
563.3181, 10342.81
563.8002, 10195.86
564.2823, 10028.22
564.7645, 9838.626
565.2466, 9640.282
565.7287, 9442.638
566.2108, 9241.977
566.6929, 9019.025
567.1750, 8774.853
567.6572, 8524.682
568.1393, 8276.110
568.6214, 8035.383
569.1035, 7827.922
569.5856, 7661.668
570.0677, 7504.043
570.5499, 7321.204
571.0320, 7128.492
571.5141, 6948.981
571.9962, 6797.202
572.4783, 6654.128
572.9604, 6512.473
573.4426, 6374.248
573.9247, 6246.422
574.4068, 6135.940
574.8889, 6032.418
575.3710, 5937.062
575.8531, 5857.375
576.3353, 5749.506
576.8174, 5598.201
577.2995, 5442.875
577.7816, 5323.596
578.2637, 5244.998
578.7458, 5158.296
579.2280, 5054.603
579.7101, 4943.198
580.1922, 4842.267
580.6743, 4749.490
581.1564, 4651.775
581.6385, 4541.702
582.1207, 4423.801
582.6028, 4299.417
583.0849, 4171.523
583.5670, 4054.790
584.0491, 3966.076
584.5313, 3887.061
585.0134, 3803.858
585.4955, 3713.698
585.9776, 3622.314
586.4597, 3526.921
586.9418, 3433.234
587.4240, 3349.325
587.9061, 3285.603
588.3882, 3213.873
588.8703, 3123.960
589.3524, 3026.057
589.8345, 2951.582
590.3167, 2904.702
590.7988, 2865.188
591.2809, 2828.327
591.7630, 2792.501
592.2451, 2749.544
592.7272, 2699.199
593.2094, 2647.988
593.6915, 2601.252
594.1736, 2557.528
594.6557, 2512.116
595.1378, 2463.258
595.6199, 2420.846
596.1021, 2398.612
596.5842, 2386.114
597.0663, 2368.385
597.5485, 2334.501
598.0306, 2301.119
598.5127, 2272.267
598.9948, 2248.013
599.4769, 2228.166
599.9590, 2219.073
600.4412, 2206.200
600.9233, 2183.495
601.4054, 2149.929
601.8875, 2120.352
602.3696, 2093.873
602.8517, 2074.141
603.3339, 2070.380
603.8160, 2080.534
604.2981, 2076.372
604.7802, 2053.149
605.2623, 2020.887
605.7444, 1986.145
606.2266, 1952.302
606.7087, 1930.364
607.1908, 1933.404
607.6729, 1939.766
608.1550, 1930.698
608.6371, 1910.395
609.1193, 1892.181
609.6014, 1882.799
610.0835, 1875.657
610.5656, 1867.362
611.0477, 1857.083
611.5298, 1850.713
612.0120, 1852.111
612.4941, 1853.808
612.9762, 1851.037
613.4583, 1843.303
613.9404, 1831.870
614.4225, 1814.323
614.9047, 1797.533
615.3868, 1794.681
615.8689, 1804.294
616.3510, 1806.390
616.8331, 1791.339
617.3152, 1770.799
617.7974, 1763.870
618.2795, 1767.517
618.7616, 1769.525
619.2437, 1759.886
619.7258, 1748.523
620.2079, 1743.879
620.6901, 1746.341
621.1722, 1746.774
621.6543, 1738.430
622.1364, 1729.519
622.6185, 1725.676
623.1006, 1729.736
623.5828, 1733.260
624.0649, 1736.904
624.5470, 1739.410
625.0291, 1738.987
625.5112, 1735.156
625.9933, 1730.781
626.4755, 1726.066
626.9576, 1721.570
627.4397, 1717.813
627.9218, 1715.022
628.4039, 1714.926
628.8860, 1722.076
629.3682, 1730.482
629.8503, 1731.581
630.3324, 1725.996
630.8145, 1718.492
631.2966, 1708.135
631.7787, 1699.515
632.2609, 1696.605
