##NAMES=Lazaraskeite
##RRUFFID=R190015
##IDEAL CHEMISTRY=Cu^2+^(C_2_H_3_O_3_)_2_
##LOCALITY=Western end of Pusch Ridge in the Santa Catalina Mountains, north of Tucson, Pima County, Arizona, USA
##OWNER=RRUFF
##SOURCE=Warren Lazar
##DESCRIPTION=Greenish-blue bladed or prismatic crystals, associated with lazaraskeite (R180026), chrysocolla, muscovite, orthoclase, calcite, and quartz.
##STATUS=The identification of this mineral is confirmed by single-crystal X-ray diffraction and chemical analysis.
##URL=rruff.info/R190015
##MEASURED CHEMISTRY=Cu_1.01_(C_1.98_H_3.00_O_3_)_2_ ; The C content of 22.2(2) wt.% was obtained from an Elemental Combustion System equipped with mass spectrometry. Crystals are easily damaged by electron beam
8.813672e+001, 8.594632e+002
8.861884e+001, 8.675194e+002
8.910095e+001, 8.780766e+002
8.958307e+001, 8.949456e+002
9.006519e+001, 9.133035e+002
9.054730e+001, 9.287191e+002
9.102942e+001, 9.420369e+002
9.151154e+001, 9.500858e+002
9.199365e+001, 9.479559e+002
9.247577e+001, 9.382178e+002
9.295789e+001, 9.276367e+002
9.344000e+001, 9.203398e+002
9.392212e+001, 9.139952e+002
9.440424e+001, 9.033203e+002
9.488635e+001, 8.886301e+002
9.536847e+001, 8.727220e+002
9.585059e+001, 8.588651e+002
9.633270e+001, 8.468954e+002
9.681482e+001, 8.367096e+002
9.729694e+001, 8.278938e+002
9.777905e+001, 8.204772e+002
9.826117e+001, 8.166568e+002
9.874329e+001, 8.174335e+002
9.922540e+001, 8.209111e+002
9.970752e+001, 8.224060e+002
1.001896e+002, 8.213918e+002
1.006718e+002, 8.202593e+002
1.011539e+002, 8.206611e+002
1.016360e+002, 8.228765e+002
1.021181e+002, 8.252571e+002
1.026002e+002, 8.275400e+002
1.030823e+002, 8.298083e+002
1.035645e+002, 8.326408e+002
1.040466e+002, 8.362478e+002
1.045287e+002, 8.402307e+002
1.050108e+002, 8.443206e+002
1.054929e+002, 8.483955e+002
1.059750e+002, 8.528826e+002
1.064572e+002, 8.579951e+002
1.069393e+002, 8.638683e+002
1.074214e+002, 8.695634e+002
1.079035e+002, 8.740801e+002
1.083856e+002, 8.790378e+002
1.088677e+002, 8.861063e+002
1.093499e+002, 8.967864e+002
1.098320e+002, 9.083066e+002
1.103141e+002, 9.203148e+002
1.107962e+002, 9.333344e+002
1.112783e+002, 9.458837e+002
1.117604e+002, 9.593395e+002
1.122426e+002, 9.722252e+002
1.127247e+002, 9.819976e+002
1.132068e+002, 9.870225e+002
1.136889e+002, 9.898886e+002
1.141710e+002, 9.917707e+002
1.146531e+002, 9.939084e+002
1.151353e+002, 9.928912e+002
1.156174e+002, 9.855876e+002
1.160995e+002, 9.741415e+002
1.165816e+002, 9.639866e+002
1.170637e+002, 9.573143e+002
1.175458e+002, 9.524770e+002
1.180280e+002, 9.481097e+002
1.185101e+002, 9.423078e+002
1.189922e+002, 9.390386e+002
1.194743e+002, 9.415135e+002
1.199564e+002, 9.488524e+002
1.204385e+002, 9.570867e+002
1.209207e+002, 9.630213e+002
1.214028e+002, 9.689498e+002
1.218849e+002, 9.775504e+002
1.223670e+002, 9.928187e+002
1.228491e+002, 1.008932e+003
1.233312e+002, 1.020358e+003
1.238134e+002, 1.027254e+003
1.242955e+002, 1.032297e+003
1.247776e+002, 1.036999e+003
1.252597e+002, 1.041317e+003
1.257418e+002, 1.045198e+003
1.262239e+002, 1.048731e+003
1.267061e+002, 1.051747e+003
1.271882e+002, 1.054195e+003
1.276703e+002, 1.056154e+003
1.281524e+002, 1.056699e+003
1.286345e+002, 1.054404e+003
1.291166e+002, 1.049622e+003
1.295988e+002, 1.044008e+003
1.300809e+002, 1.038149e+003
1.305630e+002, 1.032044e+003
1.310451e+002, 1.025722e+003
1.315272e+002, 1.019272e+003
1.320093e+002, 1.012472e+003
1.324915e+002, 1.004744e+003
1.329736e+002, 9.960795e+002
1.334557e+002, 9.872446e+002
1.339378e+002, 9.782204e+002
1.344199e+002, 9.690577e+002
1.349020e+002, 9.617120e+002
1.353842e+002, 9.566886e+002
1.358663e+002, 9.530146e+002
1.363484e+002, 9.481293e+002
1.368305e+002, 9.416268e+002
1.373126e+002, 9.355945e+002
1.377947e+002, 9.319506e+002
1.382769e+002, 9.312480e+002
1.387590e+002, 9.288040e+002
1.392411e+002, 9.238577e+002
1.397232e+002, 9.168719e+002
1.402053e+002, 9.101082e+002
1.406874e+002, 9.038094e+002
1.411696e+002, 8.971133e+002
1.416517e+002, 8.891168e+002
1.421338e+002, 8.785946e+002
1.426159e+002, 8.701129e+002
1.430980e+002, 8.644625e+002
1.435801e+002, 8.615343e+002
1.440623e+002, 8.593645e+002
1.445444e+002, 8.582094e+002
1.450265e+002, 8.576235e+002
1.455086e+002, 8.572112e+002
1.459907e+002, 8.564543e+002
1.464728e+002, 8.567745e+002
1.469550e+002, 8.588410e+002
1.474371e+002, 8.628130e+002
1.479192e+002, 8.657823e+002
1.484013e+002, 8.662598e+002
1.488834e+002, 8.665907e+002
1.493655e+002, 8.689656e+002
1.498477e+002, 8.747708e+002
1.503298e+002, 8.811011e+002
1.508119e+002, 8.874952e+002
1.512940e+002, 8.939086e+002
1.517761e+002, 9.004727e+002
1.522583e+002, 9.068488e+002
1.527404e+002, 9.133711e+002
1.532225e+002, 9.204564e+002
1.537046e+002, 9.287885e+002
1.541867e+002, 9.370429e+002
1.546688e+002, 9.448608e+002
1.551510e+002, 9.522570e+002
1.556331e+002, 9.594892e+002
1.561152e+002, 9.651949e+002
1.565973e+002, 9.710610e+002
1.570794e+002, 9.792873e+002
1.575615e+002, 9.933643e+002
1.580437e+002, 1.007550e+003
1.585258e+002, 1.019272e+003
1.590079e+002, 1.027277e+003
1.594900e+002, 1.035848e+003
1.599721e+002, 1.046474e+003
1.604542e+002, 1.058464e+003
1.609364e+002, 1.070607e+003
1.614185e+002, 1.082338e+003
1.619006e+002, 1.094186e+003
1.623827e+002, 1.106386e+003
1.628648e+002, 1.118871e+003
1.633469e+002, 1.131906e+003
1.638291e+002, 1.146007e+003
1.643112e+002, 1.160701e+003
1.647933e+002, 1.175234e+003
1.652754e+002, 1.190577e+003
1.657575e+002, 1.204877e+003
1.662396e+002, 1.216608e+003
1.667218e+002, 1.224881e+003
1.672039e+002, 1.231698e+003
1.676860e+002, 1.238454e+003
1.681681e+002, 1.244792e+003
1.686502e+002, 1.249791e+003
1.691323e+002, 1.253347e+003
1.696145e+002, 1.255103e+003
1.700966e+002, 1.254626e+003
1.705787e+002, 1.251598e+003
1.710608e+002, 1.246649e+003
1.715429e+002, 1.239393e+003
1.720250e+002, 1.230193e+003
1.725072e+002, 1.221239e+003
1.729893e+002, 1.213266e+003
1.734714e+002, 1.206353e+003
1.739535e+002, 1.200655e+003
1.744356e+002, 1.196400e+003
1.749177e+002, 1.193114e+003
1.753999e+002, 1.190706e+003
1.758820e+002, 1.189013e+003
1.763641e+002, 1.186975e+003
1.768462e+002, 1.183823e+003
1.773283e+002, 1.179755e+003
1.778104e+002, 1.175091e+003
1.782926e+002, 1.169790e+003
1.787747e+002, 1.164150e+003
1.792568e+002, 1.158677e+003
1.797389e+002, 1.153413e+003
1.802210e+002, 1.147862e+003
1.807031e+002, 1.142262e+003
1.811853e+002, 1.136215e+003
1.816674e+002, 1.128675e+003
1.821495e+002, 1.119042e+003
1.826316e+002, 1.107933e+003
1.831137e+002, 1.096557e+003
1.835958e+002, 1.084804e+003
1.840780e+002, 1.073003e+003
1.845601e+002, 1.061717e+003
1.850422e+002, 1.050772e+003
1.855243e+002, 1.038469e+003
1.860064e+002, 1.024279e+003
1.864885e+002, 1.008422e+003
1.869707e+002, 9.918077e+002
1.874528e+002, 9.742792e+002
1.879349e+002, 9.560720e+002
1.884170e+002, 9.370311e+002
1.888991e+002, 9.172845e+002
1.893812e+002, 8.978624e+002
1.898634e+002, 8.787443e+002
1.903455e+002, 8.601212e+002
1.908276e+002, 8.422713e+002
1.913097e+002, 8.249506e+002
1.917918e+002, 8.088280e+002
1.922739e+002, 7.947250e+002
1.927561e+002, 7.824476e+002
1.932382e+002, 7.713552e+002
1.937203e+002, 7.611050e+002
1.942024e+002, 7.517725e+002
1.946845e+002, 7.437510e+002
1.951666e+002, 7.372518e+002
1.956488e+002, 7.314316e+002
1.961309e+002, 7.251043e+002
1.966130e+002, 7.180984e+002
1.970951e+002, 7.120118e+002
1.975772e+002, 7.074407e+002
1.980593e+002, 7.042874e+002
1.985415e+002, 7.014296e+002
1.990236e+002, 6.988178e+002
1.995057e+002, 6.966959e+002
1.999878e+002, 6.953643e+002
2.004699e+002, 6.948323e+002
2.009520e+002, 6.951964e+002
2.014342e+002, 6.965451e+002
2.019163e+002, 6.988900e+002
2.023984e+002, 7.021083e+002
2.028805e+002, 7.064707e+002
2.033626e+002, 7.112253e+002
2.038447e+002, 7.150131e+002
2.043269e+002, 7.173975e+002
2.048090e+002, 7.210262e+002
2.052911e+002, 7.270937e+002
2.057732e+002, 7.356865e+002
2.062553e+002, 7.434356e+002
2.067374e+002, 7.498190e+002
2.072196e+002, 7.561337e+002
2.077017e+002, 7.641076e+002
2.081838e+002, 7.738396e+002
2.086659e+002, 7.848965e+002
2.091480e+002, 7.973183e+002
2.096301e+002, 8.113282e+002
2.101123e+002, 8.246834e+002
2.105944e+002, 8.368564e+002
2.110765e+002, 8.491708e+002
2.115586e+002, 8.636743e+002
2.120407e+002, 8.809828e+002
2.125228e+002, 8.987730e+002
2.130050e+002, 9.161456e+002
2.134871e+002, 9.329011e+002
2.139692e+002, 9.503599e+002
2.144513e+002, 9.686119e+002
2.149334e+002, 9.874647e+002
2.154155e+002, 1.006747e+003
2.158977e+002, 1.025925e+003
2.163798e+002, 1.046963e+003
2.168619e+002, 1.070789e+003
2.173440e+002, 1.097727e+003
2.178261e+002, 1.124188e+003
2.183082e+002, 1.150357e+003
2.187904e+002, 1.175552e+003
2.192725e+002, 1.198916e+003
2.197546e+002, 1.220609e+003
2.202367e+002, 1.239756e+003
2.207188e+002, 1.256021e+003
2.212009e+002, 1.269623e+003
2.216831e+002, 1.279729e+003
2.221652e+002, 1.285286e+003
2.226473e+002, 1.288380e+003
2.231294e+002, 1.291475e+003
2.236115e+002, 1.294043e+003
2.240936e+002, 1.297740e+003
2.245758e+002, 1.303055e+003
2.250579e+002, 1.310034e+003
2.255400e+002, 1.318588e+003
2.260221e+002, 1.330468e+003
2.265042e+002, 1.342385e+003
2.269863e+002, 1.350584e+003
2.274685e+002, 1.357441e+003
2.279506e+002, 1.356165e+003
2.284327e+002, 1.344620e+003
2.289148e+002, 1.322031e+003
2.293969e+002, 1.293634e+003
2.298790e+002, 1.258304e+003
2.303612e+002, 1.218089e+003
2.308433e+002, 1.175030e+003
2.313254e+002, 1.126096e+003
2.318075e+002, 1.078864e+003
2.322896e+002, 1.034573e+003
2.327717e+002, 9.931885e+002
2.332539e+002, 9.562746e+002
2.337360e+002, 9.245186e+002
2.342181e+002, 8.974720e+002
2.347002e+002, 8.746970e+002
2.351823e+002, 8.573649e+002
2.356644e+002, 8.425599e+002
2.361466e+002, 8.297429e+002
2.366287e+002, 8.189554e+002
2.371108e+002, 8.102735e+002
2.375929e+002, 8.043250e+002
2.380750e+002, 8.001097e+002
2.385571e+002, 7.965875e+002
2.390393e+002, 7.933651e+002
2.395214e+002, 7.916386e+002
2.400035e+002, 7.920623e+002
2.404856e+002, 7.947935e+002
2.409677e+002, 7.968002e+002
2.414498e+002, 7.977750e+002
2.419320e+002, 7.983063e+002
2.424141e+002, 7.989422e+002
2.428962e+002, 7.996974e+002
2.433783e+002, 8.004747e+002
2.438604e+002, 8.012170e+002
2.443425e+002, 8.019068e+002
2.448247e+002, 8.027215e+002
2.453068e+002, 8.038233e+002
2.457889e+002, 8.048310e+002
2.462710e+002, 8.055295e+002
2.467531e+002, 8.063132e+002
2.472352e+002, 8.059213e+002
2.477174e+002, 8.036876e+002
2.481995e+002, 7.997737e+002
2.486816e+002, 7.968565e+002
2.491637e+002, 7.951190e+002
2.496458e+002, 7.942021e+002
2.501279e+002, 7.939671e+002
2.506101e+002, 7.949222e+002
2.510922e+002, 7.955585e+002
2.515743e+002, 7.957774e+002
2.520564e+002, 7.955755e+002
2.525385e+002, 7.948094e+002
2.530206e+002, 7.936596e+002
2.535028e+002, 7.917019e+002
2.539849e+002, 7.889130e+002
2.544670e+002, 7.860016e+002
2.549491e+002, 7.803435e+002
2.554312e+002, 7.707755e+002
2.559133e+002, 7.581162e+002
2.563955e+002, 7.464068e+002
2.568776e+002, 7.363237e+002
2.573597e+002, 7.260165e+002
2.578418e+002, 7.141403e+002
2.583239e+002, 6.996559e+002
2.588061e+002, 6.860547e+002
2.592882e+002, 6.735159e+002
2.597703e+002, 6.619205e+002
2.602524e+002, 6.510632e+002
2.607345e+002, 6.407279e+002
2.612166e+002, 6.313873e+002
2.616988e+002, 6.231813e+002
2.621809e+002, 6.163622e+002
2.626630e+002, 6.104487e+002
2.631451e+002, 6.056902e+002
2.636272e+002, 6.017621e+002
2.641093e+002, 5.979477e+002
2.645915e+002, 5.942401e+002
2.650736e+002, 5.906324e+002
2.655557e+002, 5.869394e+002
2.660378e+002, 5.830098e+002
2.665199e+002, 5.799658e+002
2.670020e+002, 5.780459e+002
2.674842e+002, 5.768710e+002
2.679663e+002, 5.758054e+002
2.684484e+002, 5.749899e+002
2.689305e+002, 5.738632e+002
2.694126e+002, 5.718175e+002
2.698947e+002, 5.683709e+002
2.703769e+002, 5.669687e+002
2.708590e+002, 5.683617e+002
2.713411e+002, 5.707949e+002
2.718232e+002, 5.710457e+002
2.723053e+002, 5.684514e+002
2.727874e+002, 5.661912e+002
2.732696e+002, 5.657074e+002
2.737517e+002, 5.671454e+002
2.742338e+002, 5.674090e+002
2.747159e+002, 5.661709e+002
2.751980e+002, 5.643773e+002
2.756801e+002, 5.633256e+002
2.761623e+002, 5.631081e+002
2.766444e+002, 5.631093e+002
2.771265e+002, 5.631984e+002
2.776086e+002, 5.633760e+002
2.780907e+002, 5.636033e+002
2.785728e+002, 5.640026e+002
2.790550e+002, 5.641535e+002
2.795371e+002, 5.632139e+002
2.800192e+002, 5.610431e+002
2.805013e+002, 5.598305e+002
2.809834e+002, 5.604772e+002
2.814655e+002, 5.625677e+002
2.819477e+002, 5.639492e+002
2.824298e+002, 5.645369e+002
2.829119e+002, 5.647699e+002
2.833940e+002, 5.650035e+002
2.838761e+002, 5.652321e+002
2.843582e+002, 5.653198e+002
2.848404e+002, 5.650102e+002
2.853225e+002, 5.646552e+002
2.858046e+002, 5.655966e+002
2.862867e+002, 5.679353e+002
2.867688e+002, 5.703503e+002
2.872509e+002, 5.718515e+002
2.877331e+002, 5.724877e+002
2.882152e+002, 5.726461e+002
2.886973e+002, 5.722285e+002
2.891794e+002, 5.715645e+002
2.896615e+002, 5.715001e+002
2.901436e+002, 5.720275e+002
2.906258e+002, 5.723796e+002
2.911079e+002, 5.714325e+002
2.915900e+002, 5.697118e+002
2.920721e+002, 5.696728e+002
2.925542e+002, 5.718866e+002
2.930363e+002, 5.751822e+002
2.935185e+002, 5.781124e+002
2.940006e+002, 5.806677e+002
2.944827e+002, 5.825481e+002
2.949648e+002, 5.832921e+002
2.954469e+002, 5.832773e+002
2.959290e+002, 5.835606e+002
2.964112e+002, 5.842811e+002
2.968933e+002, 5.849854e+002
2.973754e+002, 5.849394e+002
2.978575e+002, 5.843431e+002
2.983396e+002, 5.839393e+002
2.988217e+002, 5.842754e+002
2.993039e+002, 5.849862e+002
2.997860e+002, 5.853766e+002
3.002681e+002, 5.854074e+002
3.007502e+002, 5.854348e+002
3.012323e+002, 5.859452e+002
3.017144e+002, 5.867328e+002
3.021966e+002, 5.872813e+002
3.026787e+002, 5.872373e+002
3.031608e+002, 5.869476e+002
3.036429e+002, 5.869954e+002
3.041250e+002, 5.873478e+002
3.046071e+002, 5.873411e+002
3.050893e+002, 5.856438e+002
3.055714e+002, 5.833793e+002
3.060535e+002, 5.825018e+002
3.065356e+002, 5.847470e+002
3.070177e+002, 5.873885e+002
3.074998e+002, 5.877009e+002
3.079820e+002, 5.860437e+002
3.084641e+002, 5.843059e+002
3.089462e+002, 5.835663e+002
3.094283e+002, 5.834172e+002
3.099104e+002, 5.834722e+002
3.103925e+002, 5.837675e+002
3.108747e+002, 5.840157e+002
3.113568e+002, 5.841207e+002
3.118389e+002, 5.840402e+002
3.123210e+002, 5.836560e+002
3.128031e+002, 5.826578e+002
3.132852e+002, 5.814854e+002
3.137674e+002, 5.805286e+002
3.142495e+002, 5.799995e+002
3.147316e+002, 5.792719e+002
3.152137e+002, 5.778687e+002
3.156958e+002, 5.760862e+002
3.161779e+002, 5.744299e+002
3.166601e+002, 5.728677e+002
3.171422e+002, 5.716533e+002
3.176243e+002, 5.710804e+002
3.181064e+002, 5.712941e+002
3.185885e+002, 5.713611e+002
3.190706e+002, 5.710067e+002
3.195528e+002, 5.703234e+002
3.200349e+002, 5.694156e+002
3.205170e+002, 5.683199e+002
3.209991e+002, 5.669963e+002
3.214812e+002, 5.652610e+002
3.219633e+002, 5.631016e+002
3.224455e+002, 5.612666e+002
3.229276e+002, 5.602688e+002
3.234097e+002, 5.594347e+002
3.238918e+002, 5.582596e+002
3.243739e+002, 5.554622e+002
3.248560e+002, 5.536464e+002
3.253382e+002, 5.538233e+002
3.258203e+002, 5.556298e+002
3.263024e+002, 5.566260e+002
3.267845e+002, 5.558709e+002
3.272666e+002, 5.548291e+002
3.277487e+002, 5.542104e+002
3.282309e+002, 5.546800e+002
3.287130e+002, 5.546809e+002
3.291951e+002, 5.541053e+002
3.296772e+002, 5.530645e+002
3.301593e+002, 5.517695e+002
3.306414e+002, 5.493353e+002
3.311236e+002, 5.476966e+002
3.316057e+002, 5.477680e+002
3.320878e+002, 5.505354e+002
3.325699e+002, 5.519857e+002
3.330520e+002, 5.514344e+002
3.335341e+002, 5.500069e+002
3.340163e+002, 5.493867e+002
3.344984e+002, 5.501436e+002
3.349805e+002, 5.506019e+002
3.354626e+002, 5.501256e+002
3.359447e+002, 5.486459e+002
3.364268e+002, 5.482011e+002
3.369090e+002, 5.493030e+002
3.373911e+002, 5.506539e+002
3.378732e+002, 5.508809e+002
3.383553e+002, 5.496849e+002
3.388374e+002, 5.485275e+002
3.393195e+002, 5.474716e+002
3.398017e+002, 5.466633e+002
3.402838e+002, 5.469415e+002
3.407659e+002, 5.485656e+002
3.412480e+002, 5.503236e+002
3.417301e+002, 5.514619e+002
3.422122e+002, 5.519590e+002
3.426944e+002, 5.518953e+002
3.431765e+002, 5.511366e+002
3.436586e+002, 5.500212e+002
3.441407e+002, 5.492556e+002
3.446228e+002, 5.488497e+002
3.451049e+002, 5.485306e+002
3.455871e+002, 5.480702e+002
3.460692e+002, 5.475494e+002
3.465513e+002, 5.475635e+002
3.470334e+002, 5.482589e+002
3.475155e+002, 5.489701e+002
3.479977e+002, 5.484518e+002
3.484798e+002, 5.470176e+002
3.489619e+002, 5.463309e+002
3.494440e+002, 5.479432e+002
3.499261e+002, 5.504609e+002
3.504082e+002, 5.506240e+002
3.508904e+002, 5.484324e+002
3.513725e+002, 5.463134e+002
3.518546e+002, 5.468702e+002
3.523367e+002, 5.489832e+002
3.528188e+002, 5.502778e+002
3.533009e+002, 5.497567e+002
3.537831e+002, 5.485163e+002
3.542652e+002, 5.474832e+002
3.547473e+002, 5.466895e+002
3.552294e+002, 5.462988e+002
3.557115e+002, 5.468264e+002
3.561936e+002, 5.476334e+002
3.566758e+002, 5.480485e+002
3.571579e+002, 5.479537e+002
3.576400e+002, 5.475104e+002
3.581221e+002, 5.463497e+002
3.586042e+002, 5.449588e+002
3.590863e+002, 5.442700e+002
3.595685e+002, 5.455199e+002
3.600506e+002, 5.470092e+002
3.605327e+002, 5.476977e+002
3.610148e+002, 5.474512e+002
3.614969e+002, 5.468708e+002
3.619790e+002, 5.457103e+002
3.624612e+002, 5.445309e+002
3.629433e+002, 5.439153e+002
3.634254e+002, 5.442784e+002
3.639075e+002, 5.449516e+002
3.643896e+002, 5.460054e+002
3.648717e+002, 5.473464e+002
3.653539e+002, 5.481087e+002
3.658360e+002, 5.472951e+002
3.663181e+002, 5.463631e+002
3.668002e+002, 5.461865e+002
3.672823e+002, 5.481083e+002
3.677644e+002, 5.491774e+002
3.682466e+002, 5.484860e+002
3.687287e+002, 5.467552e+002
3.692108e+002, 5.460261e+002
3.696929e+002, 5.473754e+002
3.701750e+002, 5.486058e+002
3.706571e+002, 5.489817e+002
3.711393e+002, 5.483182e+002
3.716214e+002, 5.474070e+002
3.721035e+002, 5.459471e+002
3.725856e+002, 5.444659e+002
3.730677e+002, 5.436652e+002
3.735498e+002, 5.437203e+002
3.740320e+002, 5.441127e+002
3.745141e+002, 5.448745e+002
3.749962e+002, 5.459637e+002
3.754783e+002, 5.466926e+002
3.759604e+002, 5.470536e+002
3.764425e+002, 5.470829e+002
3.769247e+002, 5.466794e+002
3.774068e+002, 5.457606e+002
3.778889e+002, 5.451185e+002
3.783710e+002, 5.449183e+002
3.788531e+002, 5.449952e+002
3.793352e+002, 5.449057e+002
3.798174e+002, 5.446220e+002
3.802995e+002, 5.444706e+002
3.807816e+002, 5.446766e+002
3.812637e+002, 5.451887e+002
3.817458e+002, 5.456575e+002
3.822279e+002, 5.460318e+002
3.827101e+002, 5.464883e+002
3.831922e+002, 5.476207e+002
3.836743e+002, 5.491768e+002
3.841564e+002, 5.499079e+002
3.846385e+002, 5.486895e+002
3.851206e+002, 5.466544e+002
3.856028e+002, 5.460150e+002
3.860849e+002, 5.467038e+002
3.865670e+002, 5.474147e+002
3.870491e+002, 5.465105e+002
3.875312e+002, 5.450892e+002
3.880133e+002, 5.451689e+002
3.884955e+002, 5.481324e+002
3.889776e+002, 5.511430e+002
3.894597e+002, 5.510430e+002
3.899418e+002, 5.488269e+002
3.904239e+002, 5.473233e+002
3.909060e+002, 5.491974e+002
3.913882e+002, 5.516146e+002
3.918703e+002, 5.520757e+002
3.923524e+002, 5.498841e+002
3.928345e+002, 5.480431e+002
3.933166e+002, 5.485485e+002
3.937987e+002, 5.500795e+002
3.942809e+002, 5.509592e+002
3.947630e+002, 5.494451e+002
3.952451e+002, 5.484142e+002
3.957272e+002, 5.494164e+002
3.962093e+002, 5.522979e+002
3.966914e+002, 5.540654e+002
3.971736e+002, 5.527405e+002
3.976557e+002, 5.510075e+002
3.981378e+002, 5.505085e+002
3.986199e+002, 5.530187e+002
3.991020e+002, 5.547233e+002
3.995841e+002, 5.552074e+002
4.000663e+002, 5.548279e+002
4.005484e+002, 5.544245e+002
4.010305e+002, 5.539929e+002
4.015126e+002, 5.535387e+002
4.019947e+002, 5.530290e+002
4.024768e+002, 5.524239e+002
4.029590e+002, 5.519540e+002
4.034411e+002, 5.514408e+002
4.039232e+002, 5.512701e+002
4.044053e+002, 5.521536e+002
4.048874e+002, 5.546914e+002
4.053695e+002, 5.561483e+002
4.058517e+002, 5.556279e+002
4.063338e+002, 5.536994e+002
4.068159e+002, 5.529491e+002
4.072980e+002, 5.535945e+002
4.077801e+002, 5.543870e+002
