##NAMES=Lazulite
##RRUFFID=R050110
##IDEAL CHEMISTRY=MgAl_2_(PO_4_)_2_(OH)_2_
##LOCALITY=Rapid Creek, Yukon Territory, Canada
##OWNER=RRUFF
##SOURCE=Rock Currier
##DESCRIPTION=Azure-blue stubby crystals with complex terminations
##STATUS=The identification of this mineral has been confirmed by X-ray diffraction and chemical analysis
##URL=rruff.info/R050110
##MEASURED CHEMISTRY=(Mg_0.84_Fe_0.16_)Al_2.00_(P_1.00_O_4_)_2_(OH)_2_
166.2348, 1707.780
166.7169, 1724.008
167.1991, 1736.597
167.6812, 1746.218
168.1633, 1752.985
168.6454, 1759.269
169.1275, 1775.609
169.6096, 1805.424
170.0918, 1842.571
170.5739, 1894.206
171.0560, 1952.103
171.5381, 2004.001
172.0202, 2042.609
172.5023, 2068.082
172.9845, 2083.632
173.4666, 2080.846
173.9487, 2078.790
174.4308, 2079.366
174.9129, 2085.465
175.3951, 2105.194
175.8772, 2147.351
176.3593, 2213.597
176.8414, 2272.220
177.3235, 2318.716
177.8056, 2361.962
178.2878, 2405.924
178.7699, 2451.262
179.2520, 2502.158
179.7341, 2564.572
180.2162, 2638.683
180.6983, 2712.539
181.1805, 2772.822
181.6626, 2836.977
182.1447, 2929.217
182.6268, 3055.660
183.1089, 3196.677
183.5910, 3322.098
184.0732, 3436.258
184.5553, 3582.148
185.0374, 3773.579
185.5195, 4007.184
186.0016, 4270.322
186.4837, 4542.059
186.9659, 4880.729
187.4480, 5360.097
187.9301, 5966.864
188.4122, 6575.899
188.8943, 7199.837
189.3764, 7806.303
189.8586, 8148.994
190.3407, 8116.556
190.8228, 7833.544
191.3049, 7355.239
191.7870, 6690.389
192.2691, 5995.725
192.7513, 5394.964
193.2334, 4889.469
193.7155, 4464.873
194.1976, 4182.685
194.6797, 3943.187
195.1618, 3694.547
195.6440, 3426.670
196.1261, 3163.028
196.6082, 2933.931
197.0903, 2743.152
197.5724, 2574.539
198.0546, 2424.718
198.5367, 2294.585
199.0188, 2189.035
199.5009, 2108.700
199.9830, 2046.456
200.4651, 1989.218
200.9473, 1940.531
201.4294, 1890.462
201.9115, 1827.681
202.3936, 1767.763
202.8757, 1726.726
203.3578, 1711.468
203.8400, 1712.904
204.3221, 1706.979
204.8042, 1689.360
205.2863, 1669.043
205.7684, 1640.878
206.2505, 1612.698
206.7327, 1593.215
207.2148, 1587.054
207.6969, 1591.974
208.1790, 1598.959
208.6611, 1614.366
209.1432, 1624.788
209.6254, 1624.468
210.1075, 1618.680
210.5896, 1615.358
211.0717, 1619.145
211.5538, 1628.936
212.0359, 1636.935
212.5181, 1643.049
213.0002, 1647.755
213.4823, 1648.998
213.9644, 1648.825
214.4465, 1651.040
214.9286, 1657.881
215.4108, 1669.297
215.8929, 1685.338
216.3750, 1712.366
216.8571, 1736.615
217.3392, 1748.076
217.8214, 1751.025
218.3035, 1759.130
218.7856, 1781.640
219.2677, 1818.529
219.7498, 1859.842
220.2319, 1907.983
220.7141, 1957.694
221.1962, 2005.630
221.6783, 2052.231
222.1604, 2102.494
222.6425, 2164.355
223.1246, 2234.380
223.6068, 2281.800
224.0889, 2308.753
224.5710, 2312.434
225.0531, 2285.623
225.5352, 2229.354
226.0173, 2159.306
226.4995, 2083.320
226.9816, 2001.952
227.4637, 1924.432
227.9458, 1849.855
228.4279, 1779.889
228.9100, 1713.304
229.3922, 1649.549
229.8743, 1597.978
230.3564, 1573.091
230.8385, 1568.173
231.3206, 1557.840
231.8027, 1531.850
232.2849, 1501.578
232.7670, 1480.216
233.2491, 1468.887
233.7312, 1462.690
234.2133, 1458.667
234.6954, 1457.048
235.1776, 1459.301
235.6597, 1468.061
236.1418, 1480.149
236.6239, 1491.198
237.1060, 1501.180
237.5881, 1509.906
238.0703, 1514.166
238.5524, 1516.899
239.0345, 1524.706
239.5166, 1543.014
239.9987, 1567.058
240.4808, 1587.984
240.9630, 1604.460
241.4451, 1621.099
241.9272, 1640.378
242.4093, 1662.000
242.8914, 1685.925
243.3735, 1713.181
243.8557, 1742.674
244.3378, 1772.415
244.8199, 1803.204
245.3020, 1832.388
245.7841, 1854.638
246.2662, 1874.364
246.7484, 1900.151
247.2305, 1937.304
247.7126, 1983.304
248.1947, 2029.905
248.6768, 2071.953
249.1589, 2124.790
249.6411, 2193.339
250.1232, 2276.425
250.6053, 2374.503
251.0874, 2493.474
251.5695, 2626.660
252.0517, 2759.173
252.5338, 2916.854
253.0159, 3024.710
253.4980, 3051.487
253.9801, 3013.287
254.4622, 2933.366
254.9444, 2814.568
255.4265, 2665.423
255.9086, 2512.033
256.3907, 2346.766
256.8728, 2191.745
257.3549, 2047.189
257.8370, 1917.438
258.3192, 1809.813
258.8013, 1730.993
259.2834, 1676.673
259.7655, 1630.360
260.2476, 1592.641
260.7297, 1562.825
261.2119, 1542.060
261.6940, 1527.360
262.1761, 1514.161
262.6582, 1499.626
263.1403, 1484.945
263.6224, 1475.199
264.1046, 1472.231
264.5867, 1471.712
265.0688, 1470.699
265.5509, 1470.996
266.0330, 1475.531
266.5151, 1486.681
266.9973, 1502.521
267.4794, 1515.766
267.9615, 1521.626
268.4436, 1533.066
268.9258, 1556.514
269.4079, 1586.234
269.8900, 1614.775
270.3721, 1638.221
270.8542, 1658.250
271.3363, 1679.371
271.8185, 1700.558
272.3006, 1725.003
272.7827, 1755.275
273.2648, 1788.078
273.7469, 1818.432
274.2290, 1842.924
274.7112, 1865.702
275.1933, 1897.615
275.6754, 1939.349
276.1575, 1989.947
276.6396, 2052.131
277.1217, 2119.587
277.6039, 2186.270
278.0860, 2249.375
278.5681, 2309.777
279.0502, 2370.977
279.5323, 2435.362
280.0144, 2494.657
280.4966, 2555.455
280.9787, 2607.583
281.4608, 2643.897
281.9429, 2661.975
282.4250, 2658.284
282.9071, 2623.090
283.3893, 2545.205
283.8714, 2459.502
284.3535, 2362.558
284.8356, 2266.668
285.3177, 2183.055
285.7998, 2115.459
286.2820, 2055.170
286.7641, 1986.491
287.2462, 1901.164
287.7283, 1828.276
288.2104, 1776.626
288.6925, 1734.603
289.1747, 1694.264
289.6568, 1653.506
290.1389, 1615.401
290.6210, 1583.522
291.1031, 1557.904
291.5852, 1539.065
292.0674, 1536.356
292.5495, 1533.752
293.0316, 1519.043
293.5137, 1491.032
293.9958, 1461.230
294.4779, 1444.253
294.9601, 1443.119
295.4422, 1440.189
295.9243, 1432.946
296.4064, 1424.218
296.8885, 1414.577
297.3706, 1404.451
297.8528, 1394.891
298.3349, 1387.040
298.8170, 1381.125
299.2991, 1375.410
299.7812, 1370.058
300.2633, 1364.741
300.7455, 1357.836
301.2276, 1350.276
301.7097, 1345.582
302.1918, 1347.920
302.6739, 1357.396
303.1560, 1364.936
303.6382, 1363.201
304.1203, 1367.916
304.6024, 1391.480
305.0845, 1427.813
305.5666, 1459.799
306.0487, 1470.390
306.5309, 1463.941
307.0130, 1475.860
307.4951, 1521.128
307.9772, 1564.906
308.4593, 1586.704
308.9414, 1596.844
309.4236, 1615.675
309.9057, 1658.495
310.3878, 1717.281
310.8699, 1764.747
311.3520, 1795.982
311.8341, 1824.257
312.3163, 1851.417
312.7984, 1880.119
313.2805, 1913.853
313.7626, 1954.087
314.2447, 2000.434
314.7268, 2053.031
315.2090, 2113.000
315.6911, 2176.583
316.1732, 2240.811
316.6553, 2308.229
317.1374, 2381.162
317.6195, 2458.408
318.1017, 2545.426
318.5838, 2659.117
319.0659, 2807.505
319.5480, 2933.757
320.0301, 3012.059
320.5122, 3060.987
320.9944, 3097.896
321.4765, 3128.067
321.9586, 3133.397
322.4407, 3088.233
322.9228, 2992.825
323.4049, 2889.925
323.8871, 2782.709
324.3692, 2679.947
324.8513, 2589.391
325.3334, 2511.579
325.8155, 2441.971
326.2976, 2373.431
326.7798, 2308.505
327.2619, 2264.740
327.7440, 2253.754
328.2261, 2254.026
328.7082, 2242.502
329.1903, 2220.313
329.6725, 2203.465
330.1546, 2200.800
330.6367, 2208.966
331.1188, 2219.835
331.6009, 2231.995
332.0830, 2247.741
332.5652, 2274.330
333.0473, 2308.212
333.5294, 2333.681
334.0115, 2337.016
334.4936, 2333.088
334.9757, 2343.200
335.4579, 2369.728
335.9400, 2399.332
336.4221, 2419.212
336.9042, 2433.583
337.3863, 2458.513
337.8684, 2506.743
338.3506, 2558.445
338.8327, 2591.349
339.3148, 2607.634
339.7969, 2634.135
340.2791, 2688.289
340.7612, 2764.733
341.2433, 2839.919
341.7254, 2923.116
342.2075, 2994.518
342.6896, 3037.452
343.1718, 3059.758
343.6539, 3084.730
344.1360, 3124.127
344.6181, 3170.371
345.1002, 3204.518
345.5823, 3235.996
346.0645, 3243.470
346.5466, 3204.732
347.0287, 3143.048
347.5108, 3096.764
347.9929, 3079.263
348.4750, 3067.714
348.9572, 3024.220
349.4393, 2931.467
349.9214, 2847.490
350.4035, 2776.979
350.8856, 2715.776
351.3677, 2659.890
351.8499, 2608.917
352.3320, 2564.460
352.8141, 2529.234
353.2962, 2505.467
353.7783, 2481.634
354.2604, 2452.811
354.7426, 2428.110
355.2247, 2414.823
355.7068, 2410.978
356.1889, 2408.467
356.6710, 2400.584
357.1531, 2387.461
357.6353, 2380.094
358.1174, 2386.262
358.5995, 2389.446
359.0816, 2382.920
359.5637, 2370.749
360.0458, 2359.298
360.5280, 2351.704
361.0101, 2348.353
361.4922, 2350.707
361.9743, 2363.174
362.4564, 2375.642
362.9385, 2385.680
363.4207, 2395.914
363.9028, 2408.485
364.3849, 2424.209
364.8670, 2443.493
365.3491, 2468.462
365.8312, 2504.107
366.3134, 2532.458
366.7955, 2538.851
367.2776, 2548.132
367.7597, 2577.597
368.2418, 2627.727
368.7239, 2684.272
369.2061, 2733.824
369.6882, 2775.783
370.1703, 2816.409
370.6524, 2852.520
371.1345, 2890.866
371.6166, 2927.840
372.0988, 2968.505
372.5809, 3026.784
373.0630, 3122.748
373.5451, 3242.114
374.0272, 3328.506
374.5093, 3364.481
374.9915, 3405.167
375.4736, 3494.456
375.9557, 3600.745
376.4378, 3679.699
376.9199, 3716.094
377.4020, 3720.791
377.8842, 3705.308
378.3663, 3669.542
378.8484, 3616.649
379.3305, 3544.455
379.8126, 3456.354
380.2947, 3357.128
380.7769, 3244.821
381.2590, 3129.084
381.7411, 3010.817
382.2232, 2892.996
382.7053, 2786.695
383.1874, 2693.663
383.6696, 2614.356
384.1517, 2552.949
384.6338, 2509.495
385.1159, 2464.973
385.5980, 2404.633
386.0801, 2345.225
386.5623, 2309.985
387.0444, 2302.007
387.5265, 2302.486
388.0086, 2295.549
388.4907, 2280.803
388.9728, 2270.771
389.4550, 2268.066
389.9371, 2267.542
390.4192, 2267.967
390.9013, 2268.328
391.3834, 2266.420
391.8655, 2261.172
392.3477, 2252.426
392.8298, 2239.266
393.3119, 2216.889
393.7940, 2196.288
394.2761, 2179.388
394.7582, 2165.020
395.2404, 2152.468
395.7225, 2141.317
396.2046, 2130.488
396.6867, 2117.302
397.1688, 2096.010
397.6509, 2084.631
398.1331, 2080.511
398.6152, 2086.657
399.0973, 2106.648
399.5794, 2139.480
400.0615, 2180.527
400.5436, 2226.728
401.0258, 2278.367
401.5079, 2327.796
401.9900, 2371.951
402.4721, 2416.981
402.9542, 2463.839
403.4363, 2513.003
403.9185, 2564.180
404.4006, 2615.016
404.8827, 2671.164
405.3648, 2748.214
405.8469, 2850.705
406.3290, 2962.896
406.8112, 3072.366
407.2933, 3192.686
407.7754, 3325.694
408.2575, 3468.779
408.7396, 3660.752
409.2217, 3952.605
409.7039, 4339.356
410.1860, 4754.946
410.6681, 5211.593
411.1502, 5664.133
411.6324, 6121.936
412.1145, 6574.775
412.5966, 6859.440
413.0787, 6904.671
413.5608, 6740.021
414.0429, 6362.783
414.5251, 5754.462
415.0072, 5108.738
415.4893, 4546.140
415.9714, 4071.066
416.4535, 3660.331
416.9356, 3326.786
417.4178, 3049.320
417.8999, 2821.688
418.3820, 2641.652
418.8641, 2503.355
419.3462, 2407.161
419.8283, 2344.858
420.3105, 2297.190
420.7926, 2265.497
421.2747, 2244.783
421.7568, 2230.521
422.2389, 2229.206
422.7210, 2251.778
423.2032, 2298.823
423.6853, 2356.017
424.1674, 2406.853
424.6495, 2449.055
425.1316, 2494.622
425.6137, 2564.007
426.0959, 2616.728
426.5780, 2637.238
427.0601, 2627.152
427.5422, 2593.845
428.0243, 2541.243
428.5064, 2470.323
428.9886, 2382.377
429.4707, 2262.046
429.9528, 2149.317
430.4349, 2052.467
430.9170, 1965.555
431.3991, 1881.640
431.8813, 1798.353
432.3634, 1723.989
432.8455, 1671.087
433.3276, 1640.256
433.8097, 1614.416
434.2918, 1594.717
434.7740, 1575.589
435.2561, 1550.887
435.7382, 1522.104
436.2203, 1497.971
436.7024, 1485.195
437.1845, 1479.285
437.6667, 1471.989
438.1488, 1462.761
438.6309, 1453.917
439.1130, 1447.348
439.5951, 1442.285
440.0772, 1436.164
440.5594, 1426.307
441.0415, 1418.415
441.5236, 1416.225
442.0057, 1418.435
442.4878, 1423.057
442.9699, 1430.317
443.4521, 1436.006
443.9342, 1431.414
444.4163, 1407.437
444.8984, 1395.296
445.3805, 1407.048
445.8626, 1423.803
446.3448, 1428.126
446.8269, 1420.366
447.3090, 1414.545
447.7911, 1423.808
448.2732, 1448.230
448.7553, 1464.485
449.2375, 1465.393
449.7196, 1465.799
450.2017, 1467.570
450.6838, 1471.074
451.1659, 1476.094
451.6480, 1482.497
452.1302, 1491.283
452.6123, 1506.031
453.0944, 1530.418
453.5765, 1548.356
454.0586, 1549.474
454.5407, 1549.245
455.0229, 1558.243
455.5050, 1575.771
455.9871, 1591.669
456.4692, 1596.318
456.9513, 1593.190
457.4334, 1594.528
457.9156, 1601.448
458.3977, 1610.758
458.8798, 1626.169
459.3619, 1641.845
459.8440, 1645.430
460.3261, 1628.552
460.8083, 1607.042
461.2904, 1591.949
461.7725, 1581.936
462.2546, 1571.765
462.7367, 1559.277
463.2188, 1546.552
463.7010, 1538.361
464.1831, 1538.038
464.6652, 1530.683
465.1473, 1509.061
465.6294, 1483.524
466.1115, 1459.443
466.5937, 1439.156
467.0758, 1427.762
467.5579, 1430.774
468.0400, 1447.362
468.5221, 1458.475
469.0042, 1456.649
469.4864, 1457.823
469.9685, 1468.264
470.4506, 1482.022
470.9327, 1489.175
471.4148, 1486.409
471.8969, 1484.374
472.3791, 1502.923
472.8612, 1548.598
473.3433, 1586.021
473.8254, 1605.851
474.3075, 1621.992
474.7896, 1639.391
475.2718, 1658.948
475.7539, 1681.841
476.2360, 1712.672
476.7181, 1746.211
477.2002, 1773.150
477.6823, 1794.705
478.1645, 1802.160
478.6466, 1786.460
479.1287, 1754.894
479.6108, 1722.025
480.0929, 1687.651
480.5751, 1653.593
481.0572, 1620.808
481.5393, 1589.027
482.0214, 1555.542
482.5035, 1519.157
482.9857, 1488.353
483.4678, 1475.582
483.9499, 1486.827
484.4320, 1480.269
484.9141, 1436.671
485.3962, 1394.744
485.8784, 1376.665
486.3605, 1376.079
486.8426, 1375.627
487.3247, 1365.473
487.8068, 1350.960
488.2889, 1348.501
488.7711, 1367.314
489.2532, 1381.262
489.7353, 1386.860
490.2174, 1388.345
490.6995, 1385.565
491.1816, 1380.191
491.6638, 1379.013
492.1459, 1391.346
492.6280, 1414.568
493.1101, 1430.039
493.5922, 1436.238
494.0743, 1437.651
494.5565, 1431.852
495.0386, 1424.055
495.5207, 1423.540
496.0028, 1437.957
496.4849, 1449.573
496.9670, 1437.639
497.4492, 1410.090
497.9313, 1396.252
498.4134, 1406.240
498.8955, 1425.987
499.3776, 1438.146
499.8597, 1441.630
500.3419, 1442.867
500.8240, 1441.133
501.3061, 1438.157
501.7882, 1433.270
502.2703, 1427.925
502.7524, 1426.708
503.2346, 1432.902
503.7167, 1443.621
504.1988, 1447.738
504.6809, 1438.623
505.1630, 1433.076
505.6451, 1432.882
506.1273, 1436.050
506.6094, 1442.317
507.0915, 1450.935
507.5736, 1459.160
508.0557, 1464.119
508.5378, 1466.164
509.0200, 1468.512
509.5021, 1470.412
509.9842, 1474.136
510.4663, 1481.207
510.9484, 1490.683
511.4305, 1502.069
511.9127, 1517.220
512.3948, 1530.139
512.8769, 1536.233
513.3590, 1536.255
513.8411, 1530.646
514.3232, 1517.555
514.8054, 1506.432
515.2875, 1510.043
515.7696, 1531.519
516.2517, 1548.014
516.7338, 1557.471
517.2159, 1563.226
517.6981, 1564.477
518.1802, 1563.651
518.6623, 1566.702
519.1444, 1577.090
519.6265, 1591.061
520.1086, 1598.296
520.5908, 1595.286
521.0729, 1592.033
521.5550, 1586.179
522.0371, 1582.656
522.5192, 1587.787
523.0013, 1599.508
523.4835, 1607.601
523.9656, 1602.347
524.4477, 1587.838
524.9298, 1578.738
525.4119, 1576.215
525.8940, 1574.892
526.3762, 1573.058
526.8583, 1570.700
527.3404, 1568.053
527.8225, 1565.515
528.3046, 1561.419
528.7867, 1552.813
529.2689, 1542.641
529.7510, 1535.932
530.2331, 1533.570
530.7152, 1534.593
531.1973, 1539.363
531.6794, 1547.985
532.1616, 1549.714
532.6437, 1541.231
533.1258, 1530.851
533.6079, 1520.426
534.0900, 1509.844
534.5721, 1497.286
535.0543, 1482.431
535.5364, 1469.879
536.0185, 1467.495
536.5006, 1477.737
536.9827, 1485.960
537.4648, 1497.967
537.9470, 1500.666
538.4291, 1479.828
538.9112, 1446.309
539.3933, 1424.340
539.8754, 1428.877
540.3575, 1441.520
540.8397, 1439.454
541.3218, 1423.691
541.8039, 1404.316
542.2860, 1382.316
542.7681, 1361.420
543.2502, 1347.846
543.7324, 1341.865
544.2145, 1336.464
544.6966, 1331.891
545.1787, 1326.485
545.6608, 1318.836
546.1429, 1309.255
546.6251, 1298.717
547.1072, 1287.676
547.5893, 1276.663
548.0714, 1266.952
548.5535, 1258.212
549.0356, 1251.677
549.5178, 1249.717
549.9999, 1247.832
550.4820, 1241.939
550.9641, 1232.896
551.4462, 1225.624
551.9283, 1225.843
552.4105, 1229.569
552.8926, 1223.323
553.3747, 1204.199
553.8568, 1189.485
554.3389, 1187.094
554.8210, 1192.893
555.3032, 1200.510
555.7853, 1210.486
556.2674, 1219.715
556.7495, 1227.985
557.2316, 1234.381
557.7137, 1237.485
558.1959, 1237.310
558.6780, 1234.429
559.1601, 1228.127
559.6422, 1219.916
560.1243, 1220.204
560.6064, 1243.982
561.0886, 1257.701
561.5707, 1249.152
562.0528, 1235.022
562.5349, 1231.288
563.0170, 1239.838
563.4991, 1250.058
563.9813, 1249.840
564.4634, 1241.394
564.9455, 1244.889
565.4276, 1267.247
565.9097, 1285.049
566.3918, 1281.906
566.8740, 1269.691
567.3561, 1263.044
567.8382, 1264.349
568.3203, 1269.478
568.8024, 1280.280
569.2845, 1292.143
569.7667, 1295.336
570.2488, 1288.565
570.7309, 1281.771
571.2130, 1283.675
571.6951, 1293.733
572.1772, 1301.164
572.6594, 1306.783
573.1415, 1308.919
573.6236, 1300.223
574.1057, 1291.589
574.5878, 1296.117
575.0699, 1315.876
575.5521, 1340.657
576.0342, 1361.231
576.5163, 1377.645
576.9984, 1388.907
577.4805, 1394.110
577.9626, 1395.933
578.4448, 1394.984
578.9269, 1391.700
579.4090, 1386.678
579.8911, 1380.574
580.3732, 1371.098
580.8553, 1350.538
581.3375, 1327.290
581.8196, 1322.017
582.3017, 1337.884
582.7838, 1348.995
583.2659, 1330.640
583.7480, 1284.615
584.2302, 1253.414
584.7123, 1251.149
585.1944, 1245.462
585.6765, 1226.239
586.1587, 1202.978
586.6408, 1184.299
587.1229, 1172.716
587.6050, 1167.594
588.0872, 1170.593
588.5693, 1180.742
589.0514, 1187.153
589.5335, 1188.764
590.0156, 1189.074
590.4977, 1185.643
590.9799, 1183.546
591.4620, 1191.754
591.9441, 1215.402
592.4262, 1236.618
592.9083, 1240.606
593.3904, 1238.925
593.8726, 1251.336
594.3547, 1279.453
594.8368, 1307.212
595.3189, 1320.481
595.8010, 1322.185
596.2831, 1337.861
596.7653, 1382.461
597.2474, 1422.693
597.7295, 1452.895
598.2116, 1479.062
598.6937, 1504.720
599.1758, 1531.286
599.6580, 1561.204
600.1401, 1595.472
600.6222, 1634.745
601.1043, 1683.009
601.5864, 1742.607
602.0685, 1800.587
602.5507, 1852.335
603.0328, 1898.246
603.5149, 1940.462
603.9970, 1980.375
604.4791, 2011.784
604.9612, 2028.957
605.4434, 2039.626
605.9255, 2049.138
606.4076, 2059.241
606.8897, 2072.680
607.3718, 2091.051
607.8539, 2114.400
608.3361, 2143.147
608.8182, 2181.105
609.3003, 2217.009
609.7824, 2252.986
610.2645, 2284.303
610.7466, 2305.077
611.2288, 2317.614
611.7109, 2331.457
612.1930, 2354.256
612.6751, 2379.305
613.1572, 2397.390
613.6393, 2408.422
614.1215, 2410.884
614.6036, 2400.451
615.0857, 2388.733
615.5678, 2392.653
616.0499, 2414.930
616.5320, 2439.572
617.0142, 2464.969
617.4963, 2493.396
617.9784, 2524.163
618.4605, 2559.231
618.9426, 2604.971
619.4247, 2664.116
619.9069, 2725.142
620.3890, 2770.189
620.8711, 2797.384
621.3532, 2820.008
621.8353, 2843.173
622.3174, 2855.186
622.7996, 2852.585
623.2817, 2834.889
623.7638, 2798.760
624.2459, 2734.259
624.7280, 2668.033
625.2101, 2618.473
625.6923, 2580.158
626.1744, 2542.854
626.6565, 2504.272
627.1386, 2466.492
627.6207, 2429.910
628.1028, 2394.850
628.5850, 2373.167
629.0671, 2383.062
629.5492, 2384.530
630.0313, 2367.047
630.5134, 2342.109
630.9955, 2318.154
631.4777, 2297.682
631.9598, 2282.946
632.4419, 2280.036
632.9240, 2283.877
633.4061, 2279.388
633.8882, 2265.970
634.3704, 2249.047
634.8525, 2229.425
635.3346, 2208.985
635.8167, 2192.721
636.2988, 2183.658
636.7809, 2167.026
637.2631, 2128.861
637.7452, 2092.413
638.2273, 2074.667
638.7094, 2072.959
639.1915, 2076.792
639.6736, 2080.852
640.1558, 2085.725
640.6379, 2091.967
641.1200, 2098.952
641.6021, 2111.363
642.0842, 2135.423
642.5663, 2157.948
643.0485, 2167.697
643.5306, 2169.944
644.0127, 2178.508
644.4948, 2201.979
644.9769, 2225.317
645.4590, 2244.889
645.9412, 2255.523
646.4233, 2242.727
646.9054, 2204.209
647.3875, 2158.163
647.8696, 2122.682
648.3517, 2097.003
648.8339, 2061.912
649.3160, 2011.129
649.7981, 1958.787
650.2802, 1908.345
650.7623, 1856.673
651.2444, 1798.844
651.7266, 1735.418
652.2087, 1674.901
652.6908, 1625.816
653.1729, 1582.629
653.6550, 1532.337
654.1371, 1475.171
654.6193, 1427.877
655.1014, 1399.306
655.5835, 1381.087
656.0656, 1359.794
656.5477, 1334.446
657.0298, 1308.046
657.5120, 1276.064
657.9941, 1247.683
658.4762, 1227.514
658.9583, 1214.329
659.4404, 1206.669
659.9225, 1204.071
660.4047, 1202.240
660.8868, 1194.737
661.3689, 1182.015
661.8510, 1170.552
