##NAMES=Lazurite
##RRUFFID=R040023
##IDEAL CHEMISTRY=Na_3_Ca(Si_3_Al_3_)O_12_S^2-^
##LOCALITY=Chile
##OWNER=RRUFF
##SOURCE=University of Arizona Mineral Museum
##DESCRIPTION=Blue fine-grained massive
##STATUS=The identification of this mineral has been confirmed by X-ray diffraction and chemical analysis
##URL=rruff.info/R040023
##MEASURED CHEMISTRY=(Na_0.99_K_0.01_)_6_(Ca_0.99_Na_0.01_)_2_Al_6.00_Si_6.00_O_24_[(SO_4_)_0.67_S_0.32_Cl_0.01_]_2_
138.7252, 1536.264
139.2073, 1538.160
139.6894, 1539.869
140.1716, 1542.118
140.6537, 1545.069
141.1358, 1547.407
141.6179, 1548.851
142.1000, 1550.033
142.5821, 1552.265
143.0643, 1556.172
143.5464, 1559.855
144.0285, 1562.406
144.5106, 1562.983
144.9927, 1564.628
145.4748, 1567.664
145.9570, 1571.695
146.4391, 1575.575
146.9212, 1580.111
147.4033, 1583.583
147.8854, 1585.057
148.3675, 1582.156
148.8497, 1580.969
149.3318, 1582.565
149.8139, 1586.268
150.2960, 1588.773
150.7781, 1589.030
151.2602, 1588.817
151.7424, 1589.085
152.2245, 1590.818
152.7066, 1591.875
153.1887, 1591.397
153.6708, 1589.597
154.1529, 1589.188
154.6351, 1591.533
155.1172, 1594.594
155.5993, 1597.005
156.0814, 1597.927
156.5635, 1598.918
157.0456, 1600.552
157.5278, 1602.827
158.0099, 1604.422
158.4920, 1604.398
158.9741, 1603.922
159.4562, 1604.032
159.9383, 1605.081
160.4205, 1606.685
160.9026, 1609.185
161.3847, 1612.699
161.8668, 1615.318
162.3489, 1614.634
162.8310, 1613.230
163.3132, 1614.105
163.7953, 1620.859
164.2774, 1628.124
164.7595, 1633.028
165.2416, 1635.087
165.7237, 1636.653
166.2059, 1639.236
166.6880, 1642.012
167.1701, 1643.741
167.6522, 1642.795
168.1343, 1641.282
168.6164, 1640.911
169.0985, 1642.156
169.5807, 1643.139
170.0628, 1642.130
170.5449, 1639.970
171.0270, 1638.310
171.5091, 1638.276
171.9912, 1639.008
172.4734, 1639.873
172.9555, 1640.987
173.4376, 1641.627
173.9197, 1640.783
174.4018, 1638.908
174.8839, 1637.228
175.3661, 1636.608
175.8482, 1636.540
176.3303, 1636.167
176.8124, 1634.977
177.2945, 1634.355
177.7766, 1636.745
178.2588, 1641.383
178.7409, 1645.029
179.2230, 1644.183
179.7051, 1641.151
180.1872, 1640.508
180.6693, 1643.773
181.1515, 1648.300
181.6336, 1650.661
182.1157, 1651.008
182.5978, 1650.412
183.0799, 1648.558
183.5620, 1646.245
184.0442, 1645.911
184.5263, 1648.715
185.0084, 1652.748
185.4905, 1654.494
185.9726, 1654.036
186.4547, 1653.707
186.9369, 1655.476
187.4190, 1658.972
187.9011, 1662.725
188.3832, 1666.972
188.8653, 1670.885
189.3474, 1672.375
189.8296, 1671.413
190.3117, 1669.654
190.7938, 1667.978
191.2759, 1666.501
191.7580, 1666.097
192.2401, 1667.079
192.7223, 1669.203
193.2044, 1672.280
193.6865, 1676.546
194.1686, 1680.099
194.6507, 1680.574
195.1328, 1678.125
195.6150, 1676.248
196.0971, 1675.807
196.5792, 1676.504
197.0613, 1677.332
197.5434, 1678.293
198.0255, 1679.256
198.5077, 1679.910
198.9898, 1680.216
199.4719, 1681.039
199.9540, 1682.678
200.4361, 1684.998
200.9182, 1687.611
201.4004, 1690.808
201.8825, 1693.404
202.3646, 1693.717
202.8467, 1691.398
203.3288, 1689.890
203.8109, 1690.277
204.2931, 1692.309
204.7752, 1693.673
205.2573, 1694.084
205.7394, 1694.523
206.2215, 1696.208
206.7036, 1699.414
207.1858, 1702.324
207.6679, 1704.422
208.1500, 1705.764
208.6321, 1707.300
209.1142, 1709.203
209.5963, 1710.971
210.0785, 1711.809
210.5606, 1711.248
211.0427, 1711.551
211.5248, 1713.625
212.0069, 1717.411
212.4890, 1719.877
212.9712, 1720.337
213.4533, 1720.570
213.9354, 1722.833
214.4175, 1728.074
214.8996, 1732.510
215.3817, 1735.030
215.8639, 1735.602
216.3460, 1736.787
216.8281, 1738.568
217.3102, 1740.968
217.7923, 1744.169
218.2744, 1748.680
218.7565, 1752.679
219.2387, 1755.411
219.7208, 1756.844
220.2029, 1759.335
220.6850, 1763.557
221.1671, 1767.999
221.6492, 1770.621
222.1314, 1770.099
222.6135, 1770.900
223.0956, 1774.420
223.5777, 1780.854
224.0598, 1786.289
224.5419, 1790.683
225.0241, 1794.193
225.5062, 1796.833
225.9883, 1797.796
226.4704, 1799.614
226.9525, 1803.286
227.4346, 1809.008
227.9168, 1812.611
228.3989, 1812.891
228.8810, 1812.336
229.3631, 1813.470
229.8452, 1816.704
230.3273, 1820.885
230.8095, 1825.962
231.2916, 1831.970
231.7737, 1838.139
232.2558, 1844.971
232.7379, 1851.460
233.2200, 1856.219
233.7022, 1857.632
234.1843, 1860.530
234.6664, 1866.384
235.1485, 1875.195
235.6306, 1882.751
236.1127, 1888.457
236.5949, 1893.603
237.0770, 1899.427
237.5591, 1906.211
238.0412, 1913.050
238.5233, 1919.434
239.0054, 1925.402
239.4876, 1933.126
239.9697, 1944.014
240.4518, 1955.220
240.9339, 1963.887
241.4160, 1967.665
241.8981, 1973.617
242.3803, 1983.820
242.8624, 1998.135
243.3445, 2009.624
243.8266, 2016.186
244.3087, 2022.393
244.7908, 2032.326
245.2730, 2048.460
245.7551, 2063.235
246.2372, 2074.906
246.7193, 2083.791
247.2014, 2094.619
247.6835, 2108.241
248.1657, 2122.612
248.6478, 2135.945
249.1299, 2147.697
249.6120, 2159.739
250.0941, 2172.371
250.5762, 2185.521
251.0584, 2198.887
251.5405, 2213.428
252.0226, 2226.794
252.5047, 2236.928
252.9868, 2242.481
253.4689, 2248.290
253.9511, 2255.264
254.4332, 2263.049
254.9153, 2269.407
255.3974, 2274.527
255.8795, 2278.043
256.3616, 2279.787
256.8438, 2280.052
257.3259, 2277.875
257.8080, 2272.878
258.2901, 2265.430
258.7722, 2256.708
259.2543, 2246.519
259.7365, 2235.247
260.2186, 2222.502
260.7007, 2207.488
261.1828, 2193.750
261.6649, 2181.987
262.1470, 2171.426
262.6292, 2159.177
263.1113, 2144.339
263.5934, 2129.699
264.0755, 2116.897
264.5576, 2106.476
265.0397, 2095.417
265.5219, 2083.172
266.0040, 2070.511
266.4861, 2058.665
266.9682, 2047.467
267.4503, 2037.804
267.9324, 2030.745
268.4146, 2026.949
268.8967, 2022.233
269.3788, 2016.163
269.8609, 2009.664
270.3430, 2004.657
270.8251, 2001.477
271.3073, 1998.733
271.7894, 1996.143
272.2715, 1993.792
272.7536, 1990.227
273.2357, 1984.616
273.7178, 1978.997
274.2000, 1976.781
274.6821, 1978.645
275.1642, 1980.841
275.6463, 1981.993
276.1284, 1982.083
276.6105, 1982.818
277.0927, 1984.467
277.5748, 1986.162
278.0569, 1986.494
278.5390, 1985.232
279.0211, 1984.657
279.5032, 1985.691
279.9854, 1988.153
280.4675, 1990.461
280.9496, 1992.687
281.4317, 1994.596
281.9138, 1995.693
282.3959, 1995.945
282.8781, 1996.709
283.3602, 1998.700
283.8423, 2001.438
284.3244, 2002.560
284.8065, 2001.848
285.2886, 2000.899
285.7708, 2001.319
286.2529, 2003.011
286.7350, 2004.399
287.2171, 2005.307
287.6992, 2005.559
288.1813, 2004.213
288.6635, 2001.149
289.1456, 1998.312
289.6277, 1997.969
290.1098, 1999.564
290.5919, 1999.284
291.0740, 1996.048
291.5562, 1991.332
292.0383, 1988.145
292.5204, 1986.386
293.0025, 1984.564
293.4846, 1981.525
293.9667, 1977.608
294.4489, 1974.057
294.9310, 1971.243
295.4131, 1968.437
295.8952, 1964.245
296.3773, 1958.936
296.8594, 1954.020
297.3416, 1950.462
297.8237, 1947.874
298.3058, 1945.418
298.7879, 1943.014
299.2700, 1940.811
299.7521, 1938.631
300.2343, 1936.719
300.7164, 1935.977
301.1985, 1938.193
301.6806, 1941.371
302.1627, 1941.846
302.6448, 1939.311
303.1270, 1936.704
303.6091, 1936.941
304.0912, 1939.068
304.5733, 1941.128
305.0554, 1942.463
305.5375, 1943.227
306.0197, 1943.298
306.5018, 1942.718
306.9839, 1942.294
307.4660, 1942.921
307.9481, 1944.014
308.4302, 1944.755
308.9124, 1944.925
309.3945, 1944.636
309.8766, 1943.485
310.3587, 1941.725
310.8408, 1940.722
311.3229, 1941.793
311.8051, 1943.825
312.2872, 1945.725
312.7693, 1947.410
313.2514, 1948.660
313.7335, 1948.850
314.2156, 1948.417
314.6978, 1948.641
315.1799, 1949.747
315.6620, 1951.961
316.1441, 1955.752
316.6262, 1961.991
317.1083, 1967.630
317.5905, 1970.856
318.0726, 1972.631
318.5547, 1974.686
319.0368, 1978.140
319.5189, 1981.575
320.0010, 1984.445
320.4832, 1986.810
320.9653, 1988.098
321.4474, 1987.915
321.9295, 1986.666
322.4116, 1984.827
322.8937, 1980.409
323.3759, 1977.482
323.8580, 1978.040
324.3401, 1982.356
324.8222, 1985.618
325.3043, 1986.469
325.7864, 1986.385
326.2686, 1986.505
326.7507, 1987.405
327.2328, 1987.996
327.7149, 1987.352
328.1970, 1985.750
328.6791, 1986.256
329.1613, 1991.572
329.6434, 1996.859
330.1255, 1999.627
330.6076, 1997.301
331.0897, 1996.142
331.5718, 1996.449
332.0540, 1997.984
332.5361, 2000.223
333.0182, 2004.468
333.5003, 2007.737
333.9824, 2008.539
334.4645, 2005.691
334.9467, 2004.167
335.4288, 2004.852
335.9109, 2006.259
336.3930, 2005.717
336.8751, 2002.147
337.3572, 1999.209
337.8394, 1998.484
338.3215, 2000.169
338.8036, 1999.268
339.2857, 1994.533
339.7678, 1989.377
340.2499, 1987.890
340.7320, 1990.795
341.2141, 1993.254
341.6963, 1994.324
342.1784, 1994.078
342.6605, 1992.529
343.1426, 1989.457
343.6247, 1986.116
344.1068, 1983.498
344.5890, 1981.599
345.0711, 1979.829
345.5532, 1978.165
346.0353, 1976.509
346.5174, 1974.735
346.9995, 1972.823
347.4817, 1970.775
347.9638, 1968.029
348.4459, 1965.056
348.9280, 1963.856
349.4101, 1964.850
349.8922, 1966.468
350.3744, 1966.859
350.8565, 1966.193
351.3386, 1965.107
351.8207, 1963.739
352.3028, 1962.217
352.7849, 1960.399
353.2671, 1958.264
353.7492, 1956.927
354.2313, 1958.049
354.7134, 1960.542
355.1955, 1962.499
355.6776, 1962.995
356.1598, 1962.966
356.6419, 1962.992
357.1240, 1963.161
357.6061, 1963.908
358.0882, 1966.201
358.5703, 1968.889
359.0525, 1970.710
359.5346, 1970.925
360.0167, 1971.174
360.4988, 1972.709
360.9809, 1974.959
361.4630, 1976.679
361.9452, 1976.944
362.4273, 1976.782
362.9094, 1976.399
363.3915, 1975.462
363.8736, 1975.897
364.3557, 1979.721
364.8379, 1984.760
365.3200, 1988.461
365.8021, 1989.979
366.2842, 1990.358
366.7663, 1989.218
367.2484, 1986.563
367.7306, 1985.164
368.2127, 1986.326
368.6948, 1988.291
369.1769, 1989.908
369.6590, 1991.235
370.1411, 1992.156
370.6233, 1992.227
371.1054, 1991.839
371.5875, 1992.617
372.0696, 1996.366
372.5517, 1999.053
373.0338, 1998.356
373.5160, 1991.566
373.9981, 1989.370
374.4802, 1993.456
374.9623, 2000.752
375.4444, 2006.784
375.9265, 2012.159
376.4087, 2014.553
376.8908, 2012.221
377.3729, 2005.385
377.8550, 2001.390
378.3371, 2000.633
378.8192, 2001.739
379.3014, 2003.827
379.7835, 2006.980
380.2656, 2009.690
380.7477, 2011.654
381.2298, 2012.997
381.7119, 2013.610
382.1941, 2013.445
382.6762, 2014.107
383.1583, 2017.889
383.6404, 2023.634
384.1225, 2026.315
384.6046, 2024.942
385.0868, 2022.285
385.5689, 2021.569
386.0510, 2022.509
386.5331, 2023.995
387.0152, 2025.681
387.4973, 2027.565
387.9795, 2030.070
388.4616, 2033.206
388.9437, 2035.505
389.4258, 2034.726
389.9079, 2032.708
390.3900, 2032.148
390.8722, 2034.786
391.3543, 2038.086
391.8364, 2040.256
392.3185, 2041.536
392.8006, 2042.885
393.2827, 2045.048
393.7649, 2047.241
394.2470, 2048.768
394.7291, 2049.163
395.2112, 2049.798
395.6933, 2050.787
396.1754, 2052.345
396.6576, 2054.808
397.1397, 2057.788
397.6218, 2062.083
398.1039, 2069.243
398.5860, 2079.835
399.0681, 2086.700
399.5503, 2086.255
400.0324, 2083.568
400.5145, 2082.407
400.9966, 2084.526
401.4787, 2085.758
401.9608, 2085.341
402.4430, 2083.813
402.9251, 2083.196
403.4072, 2083.551
403.8893, 2084.761
404.3714, 2086.946
404.8535, 2090.452
405.3357, 2093.517
405.8178, 2096.052
406.2999, 2098.187
406.7820, 2099.906
407.2641, 2101.051
407.7462, 2102.747
408.2284, 2105.928
408.7105, 2109.919
409.1926, 2111.195
409.6747, 2109.480
410.1568, 2107.141
410.6389, 2106.108
411.1211, 2106.230
411.6032, 2106.609
412.0853, 2107.226
412.5674, 2107.827
413.0495, 2108.081
413.5316, 2108.010
414.0138, 2107.680
414.4959, 2107.619
414.9780, 2107.144
415.4601, 2104.553
415.9422, 2099.557
416.4243, 2095.284
416.9065, 2094.698
417.3886, 2096.343
417.8707, 2098.094
418.3528, 2099.791
418.8349, 2100.776
419.3170, 2100.192
419.7992, 2098.347
420.2813, 2096.764
420.7634, 2095.977
421.2455, 2095.723
421.7276, 2095.828
422.2097, 2096.253
422.6919, 2097.044
423.1740, 2098.230
423.6561, 2099.783
424.1382, 2101.694
424.6203, 2104.756
425.1024, 2107.333
425.5846, 2108.912
426.0667, 2109.435
426.5488, 2109.984
427.0309, 2110.973
427.5130, 2111.628
427.9951, 2111.188
428.4773, 2108.310
428.9594, 2107.390
429.4415, 2109.384
429.9236, 2113.217
430.4057, 2116.359
430.8878, 2118.888
431.3700, 2120.468
431.8521, 2120.498
432.3342, 2118.995
432.8163, 2119.253
433.2984, 2121.841
433.7805, 2124.286
434.2627, 2122.744
434.7448, 2117.765
435.2269, 2114.919
435.7090, 2115.929
436.1911, 2119.544
436.6732, 2123.990
437.1554, 2129.100
437.6375, 2133.454
438.1196, 2135.784
438.6017, 2136.799
439.0838, 2137.525
439.5659, 2138.003
440.0480, 2138.544
440.5302, 2139.204
441.0123, 2140.138
441.4944, 2141.609
441.9765, 2144.912
442.4586, 2147.817
442.9407, 2148.401
443.4229, 2146.987
443.9050, 2146.302
444.3871, 2148.281
444.8692, 2150.859
445.3513, 2152.747
445.8334, 2153.835
446.3156, 2154.063
446.7977, 2152.828
447.2798, 2150.814
447.7619, 2149.219
448.2440, 2148.092
448.7261, 2147.425
449.2083, 2147.236
449.6904, 2147.526
450.1725, 2148.120
450.6546, 2148.656
451.1367, 2149.936
451.6188, 2153.052
452.1010, 2159.220
452.5831, 2162.963
453.0652, 2163.179
453.5473, 2161.404
454.0294, 2161.124
454.5115, 2162.506
454.9937, 2164.071
455.4758, 2165.256
455.9579, 2166.074
456.4400, 2166.565
456.9221, 2166.685
457.4042, 2166.774
457.8864, 2166.886
458.3685, 2167.194
458.8506, 2168.381
459.3327, 2171.068
459.8148, 2173.896
460.2969, 2174.821
460.7791, 2174.426
461.2612, 2174.622
461.7433, 2177.245
462.2254, 2180.461
462.7075, 2182.374
463.1896, 2182.701
463.6718, 2183.641
464.1539, 2187.323
464.6360, 2191.791
465.1181, 2195.034
465.6002, 2195.352
466.0823, 2195.701
466.5645, 2197.296
467.0466, 2199.633
467.5287, 2200.746
468.0108, 2198.363
468.4929, 2196.567
468.9750, 2197.062
469.4572, 2200.737
469.9393, 2203.265
470.4214, 2204.123
470.9035, 2204.240
471.3856, 2204.458
471.8677, 2204.528
472.3499, 2205.516
472.8320, 2207.938
473.3141, 2211.281
473.7962, 2213.875
474.2783, 2215.715
474.7604, 2217.001
475.2426, 2217.725
475.7247, 2217.978
476.2068, 2218.005
476.6889, 2217.719
477.1710, 2217.965
477.6531, 2219.794
478.1353, 2222.921
478.6174, 2226.654
479.0995, 2231.519
479.5816, 2236.029
480.0637, 2238.115
480.5458, 2238.247
481.0280, 2238.192
481.5101, 2238.221
481.9922, 2238.867
482.4743, 2240.577
482.9564, 2243.447
483.4385, 2246.985
483.9207, 2252.137
484.4028, 2257.348
484.8849, 2260.986
485.3670, 2261.577
485.8491, 2261.825
486.3312, 2261.867
486.8134, 2261.906
487.2955, 2262.776
487.7776, 2264.860
488.2597, 2267.385
488.7418, 2270.102
489.2239, 2273.007
489.7061, 2276.218
490.1882, 2280.045
490.6703, 2283.747
491.1524, 2286.246
491.6345, 2287.285
492.1166, 2289.102
492.5988, 2292.253
493.0809, 2296.288
493.5630, 2300.307
494.0451, 2304.295
494.5272, 2307.661
495.0093, 2309.548
495.4915, 2310.636
495.9736, 2312.363
496.4557, 2314.764
496.9378, 2318.044
497.4199, 2323.625
497.9020, 2329.909
498.3842, 2334.177
498.8663, 2334.325
499.3484, 2334.252
499.8305, 2336.510
500.3126, 2340.510
500.7947, 2344.710
501.2769, 2348.113
501.7590, 2352.042
502.2411, 2357.765
502.7232, 2365.960
503.2053, 2371.981
503.6874, 2372.168
504.1696, 2371.839
504.6517, 2375.017
505.1338, 2385.204
505.6159, 2392.507
506.0980, 2394.810
506.5801, 2394.516
507.0623, 2397.533
507.5444, 2405.074
508.0265, 2412.075
508.5086, 2416.359
508.9907, 2418.364
509.4728, 2421.750
509.9550, 2426.573
510.4371, 2432.214
510.9192, 2438.381
511.4013, 2444.966
511.8834, 2451.146
512.3655, 2456.552
512.8477, 2462.565
513.3298, 2471.585
513.8119, 2482.531
514.2940, 2492.786
514.7761, 2499.903
515.2582, 2506.883
515.7404, 2515.672
516.2225, 2526.326
516.7046, 2538.891
517.1867, 2554.443
517.6688, 2571.175
518.1509, 2587.728
518.6331, 2603.040
519.1152, 2620.325
519.5973, 2639.517
520.0794, 2661.103
520.5615, 2685.280
521.0436, 2713.224
521.5258, 2741.872
522.0079, 2769.642
522.4900, 2797.575
522.9721, 2831.322
523.4542, 2870.827
523.9363, 2914.229
524.4185, 2960.154
524.9006, 3008.834
525.3827, 3062.523
525.8648, 3121.688
526.3469, 3184.852
526.8290, 3249.734
527.3112, 3317.120
527.7933, 3390.754
528.2754, 3473.015
528.7575, 3560.543
529.2396, 3650.427
529.7217, 3743.658
530.2039, 3841.142
530.6860, 3943.826
531.1681, 4051.488
531.6502, 4165.805
532.1323, 4287.306
532.6144, 4415.004
533.0966, 4553.864
533.5787, 4696.248
534.0608, 4838.427
534.5429, 4973.965
535.0250, 5117.121
535.5071, 5268.267
535.9893, 5426.342
536.4714, 5586.640
536.9535, 5746.873
537.4356, 5913.150
537.9177, 6085.647
538.3998, 6265.204
538.8820, 6448.692
539.3641, 6634.319
539.8462, 6821.816
540.3283, 7009.587
540.8104, 7196.608
541.2925, 7385.437
541.7747, 7576.899
542.2568, 7758.833
542.7389, 7920.116
543.2210, 8061.821
543.7031, 8187.571
544.1852, 8302.950
544.6674, 8395.262
545.1495, 8456.261
545.6316, 8484.280
546.1137, 8475.044
546.5958, 8429.880
547.0779, 8344.324
547.5601, 8213.379
548.0422, 8036.602
548.5243, 7828.103
549.0064, 7585.623
549.4885, 7315.682
549.9706, 7020.960
550.4528, 6689.482
550.9349, 6355.708
551.4170, 6007.632
551.8991, 5660.554
552.3812, 5333.085
552.8633, 5024.448
553.3455, 4738.099
553.8276, 4473.365
554.3097, 4232.330
554.7918, 4021.331
555.2739, 3843.774
555.7560, 3690.894
556.2382, 3562.813
556.7203, 3455.582
557.2024, 3361.764
557.6845, 3281.110
558.1666, 3210.874
558.6487, 3151.339
559.1309, 3100.460
559.6130, 3057.176
560.0951, 3022.747
560.5772, 2991.941
561.0593, 2961.885
561.5414, 2933.684
562.0236, 2909.720
562.5057, 2892.421
562.9878, 2877.145
563.4699, 2862.326
563.9520, 2848.159
564.4341, 2836.378
564.9163, 2827.483
565.3984, 2820.222
565.8805, 2813.845
566.3626, 2808.156
566.8447, 2804.671
567.3268, 2803.875
567.8090, 2803.765
568.2911, 2801.867
568.7732, 2798.416
569.2553, 2795.457
569.7374, 2792.986
570.2195, 2792.035
570.7017, 2795.005
571.1838, 2800.861
571.6659, 2806.232
572.1480, 2808.788
572.6301, 2810.728
573.1122, 2813.620
573.5944, 2817.519
574.0765, 2822.330
574.5586, 2829.254
575.0407, 2836.142
575.5228, 2841.500
576.0049, 2844.121
576.4871, 2848.038
576.9692, 2855.082
577.4513, 2862.636
577.9334, 2868.611
578.4155, 2873.446
578.8976, 2875.207
579.3798, 2872.675
579.8619, 2867.751
580.3440, 2865.363
580.8261, 2865.783
581.3082, 2865.583
581.7903, 2863.437
582.2725, 2859.590
582.7546, 2855.124
583.2367, 2849.964
583.7188, 2842.788
584.2009, 2832.012
584.6830, 2818.940
585.1652, 2804.779
585.6473, 2789.331
586.1294, 2774.743
586.6115, 2762.308
587.0936, 2751.141
587.5757, 2740.483
588.0578, 2731.400
588.5399, 2721.242
589.0220, 2709.077
589.5042, 2695.485
589.9863, 2681.819
590.4684, 2667.978
590.9505, 2654.446
591.4326, 2641.411
591.9147, 2628.833
592.3969, 2616.311
592.8790, 2603.824
593.3611, 2591.585
593.8432, 2579.620
594.3253, 2568.146
594.8074, 2556.795
595.2896, 2545.467
595.7717, 2535.431
596.2538, 2528.776
596.7359, 2524.157
597.2180, 2519.048
597.7001, 2512.644
598.1823, 2506.288
598.6644, 2501.833
599.1465, 2497.911
599.6286, 2492.151
600.1107, 2481.350
600.5928, 2471.187
601.0750, 2462.948
601.5571, 2456.788
602.0392, 2452.868
602.5213, 2452.978
603.0034, 2452.787
603.4855, 2450.323
603.9677, 2445.317
604.4498, 2441.362
604.9319, 2438.639
605.4140, 2436.202
605.8961, 2432.915
606.3782, 2428.994
606.8604, 2426.663
607.3425, 2426.576
607.8246, 2426.430
608.3067, 2422.690
608.7888, 2416.849
609.2709, 2412.232
609.7531, 2410.808
610.2352, 2410.094
610.7173, 2408.384
611.1994, 2406.097
611.6815, 2404.335
612.1636, 2404.873
612.6458, 2404.669
613.1279, 2401.567
613.6100, 2395.430
614.0921, 2392.782
614.5742, 2396.318
615.0563, 2399.801
615.5385, 2399.180
616.0206, 2393.198
616.5027, 2391.307
616.9848, 2394.801
617.4669, 2398.527
617.9490, 2394.585
618.4312, 2384.931
618.9133, 2380.263
619.3954, 2383.801
619.8775, 2390.049
620.3596, 2392.864
620.8417, 2393.323
621.3239, 2393.801
621.8060, 2395.050
622.2881, 2396.834
622.7702, 2399.102
623.2523, 2401.795
623.7344, 2404.723
624.2166, 2408.717
624.6987, 2412.047
625.1808, 2413.481
625.6629, 2412.750
626.1450, 2413.906
626.6271, 2417.577
627.1093, 2422.073
627.5914, 2426.573
628.0735, 2431.156
628.5556, 2434.127
629.0377, 2435.011
629.5198, 2435.719
630.0020, 2438.053
630.4841, 2442.059
630.9662, 2448.461
631.4483, 2459.093
631.9304, 2468.738
632.4125, 2471.503
632.8947, 2469.653
633.3768, 2467.775
633.8589, 2466.441
634.3410, 2466.826
