##NAMES=Lazulite
##RRUFFID=R050269
##IDEAL CHEMISTRY=MgAl_2_(PO_4_)_2_(OH)_2_
##LOCALITY=Horsjoberg, Varmland, Sweden
##OWNER=RRUFF
##SOURCE=Marcus Origlieri
##DESCRIPTION=Deep-blue indistinct crystals
##STATUS=The identification of this mineral has been confirmed by X-ray diffraction and chemical analysis
##URL=rruff.info/R050269
##MEASURED CHEMISTRY=(Mg_0.69_Fe_0.25_Mn_0.01_)Al_2.00_(P_1.00_O_4_)_2_(OH)_2_
92.67285, 56.53548
93.15497, 56.35497
93.63708, 56.55251
94.11920, 57.96243
94.60132, 59.80751
95.08344, 62.03048
95.56555, 63.56807
96.04767, 64.65733
96.52979, 65.77041
97.01190, 66.71588
97.49402, 67.22919
97.97614, 67.49472
98.45825, 67.28741
98.94037, 66.68806
99.42249, 65.56139
99.90460, 63.70237
100.3867, 61.13946
100.8688, 58.17649
101.3510, 55.18955
101.8331, 52.00023
102.3152, 49.10226
102.7973, 46.90171
103.2794, 45.40031
103.7615, 44.11758
104.2437, 42.84327
104.7258, 41.67898
105.2079, 40.76931
105.6900, 40.18884
106.1721, 39.81309
106.6542, 39.37867
107.1364, 38.84597
107.6185, 38.28669
108.1006, 37.59834
108.5827, 36.91657
109.0648, 36.43744
109.5469, 36.31301
110.0291, 36.53114
110.5112, 36.62260
110.9933, 36.49817
111.4754, 36.33616
111.9575, 36.15077
112.4396, 35.96516
112.9218, 35.81342
113.4039, 35.72495
113.8860, 35.70425
114.3681, 35.77339
114.8502, 36.06489
115.3323, 36.35386
115.8144, 36.44903
116.2966, 36.31319
116.7787, 36.07537
117.2608, 35.84526
117.7429, 35.60101
118.2250, 35.55772
118.7071, 36.00249
119.1893, 36.67768
119.6714, 36.99298
120.1535, 36.65936
120.6356, 36.11518
121.1177, 35.84878
121.5998, 35.85938
122.0820, 35.95605
122.5641, 35.99941
123.0462, 35.98455
123.5283, 36.00663
124.0104, 36.16555
124.4925, 36.32249
124.9747, 36.41740
125.4568, 36.43474
125.9389, 36.35297
126.4210, 36.09732
126.9031, 35.49135
127.3852, 35.08345
127.8674, 35.04597
128.3495, 35.14460
128.8316, 35.15302
129.3137, 34.96798
129.7958, 34.67306
130.2780, 34.57253
130.7601, 35.01834
131.2422, 35.28563
131.7243, 35.22878
132.2064, 34.94699
132.6885, 34.58305
133.1707, 34.21262
133.6528, 33.84507
134.1349, 33.57999
134.6170, 33.41825
135.0991, 33.33063
135.5812, 33.32565
136.0633, 33.39367
136.5455, 33.49505
137.0276, 33.63043
137.5097, 33.77567
137.9918, 33.82456
138.4739, 33.64405
138.9560, 33.42867
139.4382, 33.43062
139.9203, 33.71215
140.4024, 33.97324
140.8845, 33.94060
141.3666, 33.72571
141.8487, 33.51350
142.3309, 33.37962
142.8130, 33.30893
143.2951, 33.24514
143.7772, 33.15786
144.2593, 33.12831
144.7414, 33.26591
145.2236, 33.49555
145.7057, 33.63663
146.1878, 33.50886
146.6699, 33.09069
147.1520, 32.76999
147.6341, 32.57380
148.1163, 32.46107
148.5984, 32.48543
149.0805, 32.60663
149.5626, 32.70670
150.0447, 32.64754
150.5268, 32.36351
151.0090, 32.10828
151.4911, 31.82144
151.9732, 31.59838
152.4553, 31.51919
152.9374, 31.58950
153.4195, 31.73700
153.9017, 31.86175
154.3838, 31.97245
154.8659, 32.02700
155.3480, 31.91157
155.8301, 31.78779
156.3122, 31.90193
156.7944, 32.35562
157.2765, 32.86580
157.7586, 32.83082
158.2407, 32.12187
158.7228, 31.52617
159.2049, 31.28910
159.6871, 31.32239
160.1692, 31.44872
160.6513, 31.65324
161.1334, 31.86869
161.6155, 31.98565
162.0976, 31.98714
162.5798, 31.99009
163.0619, 32.05763
163.5440, 32.18856
164.0261, 32.37629
164.5082, 32.66520
164.9903, 32.98083
165.4725, 33.24002
165.9546, 33.42088
166.4367, 33.62436
166.9188, 33.93471
167.4009, 34.33343
167.8830, 34.93122
168.3652, 35.98455
168.8473, 37.11129
169.3294, 38.02645
169.8115, 38.63805
170.2936, 39.10004
170.7757, 39.72897
171.2579, 40.69307
171.7400, 41.51226
172.2221, 42.12103
172.7042, 42.58881
173.1863, 42.95920
173.6684, 43.25172
174.1506, 43.49450
174.6327, 43.77314
175.1148, 44.14192
175.5969, 44.48910
176.0790, 44.65942
176.5611, 44.83898
177.0433, 45.28412
177.5254, 46.13844
178.0075, 47.32580
178.4896, 48.48973
178.9717, 49.61821
179.4538, 50.73722
179.9360, 51.83057
180.4181, 52.91535
180.9002, 54.00658
181.3823, 55.08514
181.8644, 56.19764
182.3465, 57.52029
182.8287, 59.08741
183.3108, 60.78620
183.7929, 62.39290
184.2750, 64.00146
184.7571, 66.14298
185.2392, 69.27242
185.7214, 73.16981
186.2035, 76.94730
186.6856, 80.30156
187.1677, 83.80495
187.6498, 88.25732
188.1319, 93.73348
188.6141, 98.68796
189.0962, 102.9262
189.5783, 105.8238
190.0604, 106.3597
190.5425, 103.8481
191.0246, 99.37369
191.5068, 94.15565
191.9889, 87.99165
192.4710, 81.74337
192.9531, 75.39518
193.4352, 69.32774
193.9173, 63.99239
194.3995, 59.61062
194.8816, 56.00216
195.3637, 52.69543
195.8458, 49.60602
196.3279, 47.07221
196.8100, 45.43147
197.2922, 44.19851
197.7743, 42.74342
198.2564, 40.66620
198.7385, 38.28705
199.2206, 36.87563
199.7027, 37.36769
200.1849, 37.68425
200.6670, 37.33331
201.1491, 36.60232
201.6312, 35.87987
202.1133, 35.39694
202.5954, 35.10344
203.0776, 34.69927
203.5597, 33.80451
204.0418, 33.21004
204.5239, 33.29454
205.0060, 33.73477
205.4881, 34.01068
205.9703, 33.79173
206.4524, 33.14407
206.9345, 32.64085
207.4166, 32.28618
207.8987, 32.04876
208.3808, 32.00726
208.8630, 32.08376
209.3451, 32.10862
209.8272, 31.96129
210.3093, 31.68067
210.7914, 31.56309
211.2735, 31.73545
211.7557, 31.90482
212.2378, 31.93506
212.7199, 31.86068
213.2020, 31.80392
213.6841, 31.84574
214.1662, 31.96001
214.6484, 32.01920
215.1305, 31.99492
215.6126, 31.94918
216.0947, 31.87463
216.5768, 31.78688
217.0589, 31.78108
217.5410, 31.88977
218.0232, 32.14527
218.5053, 32.57739
218.9874, 33.37837
219.4695, 34.12733
219.9516, 34.45963
220.4337, 34.38200
220.9159, 34.21091
221.3980, 34.02168
221.8801, 33.86367
222.3622, 33.82834
222.8443, 33.99324
223.3264, 34.16139
223.8086, 34.11976
224.2907, 33.85361
224.7728, 33.52687
225.2549, 33.16327
225.7370, 32.78936
226.2191, 32.41250
226.7013, 32.02200
227.1834, 31.67911
227.6655, 31.47639
228.1476, 31.43962
228.6297, 31.43397
229.1118, 31.47115
229.5940, 31.49450
230.0761, 31.41494
230.5582, 31.19927
231.0403, 31.00934
231.5224, 31.12791
232.0045, 31.68308
232.4867, 32.16771
232.9688, 32.50364
233.4509, 32.73704
233.9330, 32.86653
234.4151, 32.89737
234.8972, 32.89779
235.3794, 32.99299
235.8615, 33.26684
236.3436, 33.43933
236.8257, 33.44146
237.3078, 33.38006
237.7899, 33.26155
238.2721, 33.11171
238.7542, 33.05803
239.2363, 33.35478
239.7184, 34.33345
240.2005, 35.00270
240.6826, 35.14451
241.1648, 35.15389
241.6469, 35.26526
242.1290, 35.54994
242.6111, 35.98444
243.0932, 36.54113
243.5753, 37.29942
244.0575, 38.03102
244.5396, 38.77174
245.0217, 39.46434
245.5038, 39.99947
245.9859, 40.38880
246.4680, 40.80039
246.9502, 41.45447
247.4323, 42.36329
247.9144, 43.56199
248.3965, 45.32487
248.8786, 47.16128
249.3607, 48.72079
249.8429, 49.94912
250.3250, 51.02197
250.8071, 52.17943
251.2892, 53.54171
251.7713, 54.40909
252.2534, 54.83849
252.7356, 54.76113
253.2177, 54.05727
253.6998, 52.74180
254.1819, 50.97969
254.6640, 48.82658
255.1461, 46.18778
255.6283, 44.00512
256.1104, 42.40508
256.5925, 41.16804
257.0746, 40.18647
257.5567, 39.43431
258.0388, 38.83287
258.5210, 38.30438
259.0031, 37.87279
259.4852, 37.65035
259.9673, 37.76355
260.4494, 37.98990
260.9315, 38.14354
261.4137, 38.22787
261.8958, 38.41953
262.3779, 38.95140
262.8600, 39.70981
263.3421, 40.05696
263.8242, 39.36908
264.3064, 38.74378
264.7885, 39.12323
265.2706, 40.42762
265.7527, 41.76600
266.2348, 42.62532
266.7169, 43.11067
267.1991, 43.61346
267.6812, 44.10496
268.1633, 44.65528
268.6454, 45.28175
269.1275, 45.99142
269.6096, 46.88298
270.0918, 48.09640
270.5739, 49.46538
271.0560, 50.66190
271.5381, 51.60099
272.0202, 52.55702
272.5023, 53.75907
272.9845, 55.17730
273.4666, 56.54664
273.9487, 57.70636
274.4308, 58.85477
274.9129, 60.25531
275.3951, 61.93864
275.8772, 63.67228
276.3593, 65.40108
276.8414, 67.08961
277.3235, 68.50822
277.8056, 69.57421
278.2878, 70.33947
278.7699, 70.94161
279.2520, 71.38239
279.7341, 71.55287
280.2162, 71.44434
280.6983, 71.02854
281.1805, 70.13716
281.6626, 68.61523
282.1447, 66.76082
282.6268, 64.83501
283.1089, 62.82869
283.5910, 60.69338
284.0732, 58.30843
284.5553, 55.76109
285.0374, 53.33600
285.5195, 51.02915
286.0016, 48.90629
286.4837, 46.97511
286.9659, 45.22637
287.4480, 43.65466
287.9301, 42.27153
288.4122, 41.05805
288.8943, 39.99366
289.3764, 39.12592
289.8586, 38.30227
290.3407, 37.39921
290.8228, 36.49712
291.3049, 35.69831
291.7870, 35.05145
292.2691, 34.52842
292.7513, 34.09176
293.2334, 33.78363
293.7155, 33.44932
294.1976, 32.93576
294.6797, 32.41506
295.1618, 32.05406
295.6440, 31.91718
296.1261, 31.90805
296.6082, 31.83750
297.0903, 31.62437
297.5724, 31.69601
298.0545, 32.72032
298.5367, 33.72924
299.0188, 33.95163
299.5009, 33.25222
299.9830, 32.28849
300.4651, 31.75586
300.9472, 31.69308
301.4294, 31.74491
301.9115, 31.88141
302.3936, 32.11836
302.8757, 32.55290
303.3578, 33.14526
303.8399, 33.66965
304.3221, 33.86193
304.8042, 33.71376
305.2863, 33.73117
305.7684, 34.06596
306.2505, 34.43324
306.7326, 34.61505
307.2148, 34.70868
307.6969, 34.98475
308.1790, 35.72186
308.6611, 36.81869
309.1432, 37.62040
309.6253, 37.89322
310.1075, 38.19225
310.5896, 38.76242
311.0717, 39.47802
311.5538, 40.15433
312.0359, 40.69487
312.5180, 41.13474
313.0002, 41.53931
313.4823, 41.78965
313.9644, 42.26574
314.4465, 43.14967
314.9286, 44.24612
315.4107, 45.41304
315.8929, 46.61792
316.3750, 47.77268
316.8571, 48.72870
317.3392, 49.45750
317.8213, 50.10228
318.3034, 50.77821
318.7856, 51.32341
319.2677, 51.62170
319.7498, 51.65582
320.2319, 51.48360
320.7140, 51.19737
321.1961, 50.82080
321.6783, 50.13115
322.1604, 48.77263
322.6425, 47.36949
323.1246, 46.26496
323.6067, 45.41354
324.0888, 44.52484
324.5710, 43.25788
325.0531, 41.66703
325.5352, 40.50030
326.0173, 40.04244
326.4994, 39.68454
326.9815, 39.12656
327.4637, 38.48577
327.9458, 37.99790
328.4279, 37.83789
328.9100, 37.88586
329.3921, 37.75216
329.8742, 37.31789
330.3564, 36.94625
330.8385, 36.76549
331.3206, 36.69525
331.8027, 36.65759
332.2848, 36.62633
332.7669, 36.61292
333.2491, 36.65773
333.7312, 36.79603
334.2133, 36.85360
334.6954, 36.68090
335.1775, 36.48104
335.6596, 36.38384
336.1418, 36.40865
336.6239, 36.49525
337.1060, 36.60335
337.5881, 36.73409
338.0702, 36.83413
338.5523, 36.89921
339.0345, 36.92627
339.5165, 36.84883
339.9987, 36.71524
340.4808, 36.69355
340.9629, 37.01913
341.4450, 37.58447
341.9271, 37.80117
342.4092, 37.48644
342.8914, 37.13296
343.3735, 36.97683
343.8556, 36.94542
344.3377, 36.93309
344.8198, 36.89900
345.3019, 36.85674
345.7841, 36.86296
346.2662, 36.96233
346.7483, 36.93449
347.2304, 36.51940
347.7125, 36.01336
348.1946, 35.65470
348.6768, 35.49038
349.1589, 35.48359
349.6410, 35.66233
350.1231, 36.02369
350.6052, 36.31664
351.0873, 36.50969
351.5695, 36.57707
352.0516, 36.43884
352.5337, 36.11753
353.0158, 35.87852
353.4979, 35.93032
353.9800, 36.20152
354.4622, 36.44644
354.9443, 36.63108
355.4264, 36.81865
355.9085, 37.06025
356.3906, 37.33953
356.8727, 37.62680
357.3549, 37.97734
357.8370, 38.29256
358.3191, 38.37921
358.8012, 38.20498
359.2833, 38.08082
359.7654, 38.19773
360.2476, 38.45464
360.7297, 38.68314
361.2118, 38.83651
361.6939, 39.02362
362.1760, 39.36757
362.6581, 39.83573
363.1403, 40.23756
363.6224, 40.49403
364.1045, 40.68552
364.5866, 40.89436
365.0687, 41.11103
365.5508, 41.42529
366.0330, 41.93415
366.5151, 42.54757
366.9972, 43.08643
367.4793, 43.50177
367.9614, 43.95555
368.4435, 44.61810
368.9257, 45.46297
369.4078, 46.34026
369.8899, 47.28291
370.3720, 48.20739
370.8541, 48.99324
371.3362, 49.66517
371.8184, 50.43649
372.3005, 51.52208
372.7826, 52.74570
373.2647, 53.51632
373.7468, 53.58376
374.2289, 53.65091
374.7111, 54.11830
375.1932, 54.76548
375.6753, 55.14182
376.1574, 55.07771
376.6395, 54.79642
377.1216, 54.71038
377.6038, 55.00998
378.0859, 54.75774
378.5680, 53.55371
379.0501, 51.94677
379.5322, 50.31811
380.0143, 48.75368
380.4965, 47.36541
380.9786, 46.28169
381.4607, 45.51067
381.9428, 44.66571
382.4249, 43.73566
382.9070, 42.75479
383.3892, 41.60923
383.8713, 40.42967
384.3534, 39.50018
384.8355, 38.97753
385.3176, 38.77024
385.7997, 38.61512
386.2819, 38.69414
386.7640, 38.59233
387.2461, 38.03422
387.7282, 37.43551
388.2103, 37.19167
388.6924, 37.38677
389.1746, 37.82384
389.6567, 38.25363
390.1388, 38.61467
390.6209, 39.23721
391.1030, 40.13296
391.5851, 41.22753
392.0673, 42.50154
392.5494, 43.95100
393.0315, 45.58712
393.5136, 47.42369
393.9957, 49.44944
394.4778, 51.58749
394.9600, 54.25992
395.4421, 56.46975
395.9242, 58.01111
396.4063, 59.07505
396.8884, 59.73799
397.3705, 60.05374
397.8527, 60.32295
398.3348, 60.98881
398.8169, 62.10128
399.2990, 63.44985
399.7811, 65.03596
400.2632, 66.86201
400.7454, 68.91709
401.2275, 71.21133
401.7096, 73.79308
402.1917, 76.68620
402.6738, 79.88156
403.1559, 83.37558
403.6381, 87.15759
404.1202, 91.27026
404.6023, 95.52162
405.0844, 100.1267
405.5665, 105.3026
406.0486, 111.0308
406.5308, 117.6560
407.0129, 125.7226
407.4950, 135.2866
407.9771, 145.7439
408.4592, 157.1949
408.9413, 169.4975
409.4235, 182.7499
409.9056, 196.9154
410.3877, 210.6934
410.8698, 225.2126
411.3519, 238.7438
411.8340, 247.4410
412.3162, 251.3421
412.7983, 249.3357
413.2804, 238.5033
413.7625, 221.0999
414.2446, 201.6292
414.7267, 178.7385
415.2089, 156.2560
415.6910, 137.0168
416.1731, 120.9099
416.6552, 107.4544
417.1373, 96.67661
417.6194, 88.20222
418.1016, 81.54546
418.5837, 76.68613
419.0658, 72.88887
419.5479, 70.24781
420.0300, 68.42301
420.5121, 67.13479
420.9943, 66.31423
421.4764, 65.72569
421.9585, 65.16225
422.4406, 64.63171
422.9227, 64.27799
423.4048, 64.33456
423.8870, 64.31285
424.3691, 64.10188
424.8512, 63.64459
425.3333, 62.82647
425.8154, 61.58587
426.2975, 60.03178
426.7797, 58.39207
427.2618, 56.84163
427.7439, 54.91619
428.2260, 52.24868
428.7081, 49.48684
429.1902, 47.06150
429.6724, 45.03394
430.1545, 43.23397
430.6366, 41.50787
431.1187, 39.86172
431.6008, 38.31214
432.0829, 36.67831
432.5651, 35.34594
433.0472, 34.59180
433.5293, 34.12786
434.0114, 33.52566
434.4935, 32.59880
434.9756, 31.58537
435.4578, 30.95660
435.9399, 30.83905
436.4220, 30.70185
436.9041, 30.48705
437.3862, 30.22518
437.8683, 29.89270
438.3505, 29.51348
438.8326, 29.17966
439.3147, 29.00339
439.7968, 28.93332
440.2789, 28.70293
440.7610, 28.18290
441.2432, 27.80573
441.7253, 28.00353
442.2074, 28.39163
442.6895, 28.46316
443.1716, 28.00774
443.6537, 27.47828
444.1359, 27.29380
444.6180, 27.41297
445.1001, 27.58464
445.5822, 27.79495
446.0643, 27.95830
446.5464, 27.92266
447.0286, 27.71390
447.5107, 27.58884
447.9928, 27.68665
448.4749, 27.85865
448.9570, 27.94091
449.4391, 27.93339
449.9213, 27.93210
450.4034, 27.99516
450.8855, 28.10748
451.3676, 28.21227
451.8497, 28.34342
452.3318, 28.41880
452.8140, 28.35877
453.2961, 28.25595
453.7782, 28.20462
454.2603, 28.23332
454.7424, 28.38053
455.2245, 28.72971
455.7067, 29.36692
456.1888, 29.68142
456.6709, 29.44218
457.1530, 29.17954
457.6351, 29.09347
458.1172, 29.14478
458.5994, 29.24236
459.0815, 29.34250
459.5636, 29.42569
460.0457, 29.44913
460.5278, 29.43770
461.0099, 29.30701
461.4921, 28.99071
461.9742, 28.61712
462.4563, 28.20340
462.9384, 27.79326
463.4205, 27.50524
463.9026, 27.46419
464.3848, 27.63736
464.8669, 27.81607
465.3490, 28.02256
465.8311, 28.19038
466.3132, 28.21424
466.7953, 28.22093
467.2775, 28.36285
467.7596, 28.68621
468.2417, 29.10679
468.7238, 29.52260
469.2059, 29.95248
469.6880, 30.54242
470.1702, 31.40539
470.6523, 32.27623
471.1344, 32.80548
471.6165, 33.09273
472.0986, 33.55761
472.5807, 34.50634
473.0629, 35.53274
473.5450, 36.28465
474.0271, 36.77486
474.5092, 37.11073
474.9913, 37.31392
475.4734, 37.43309
475.9556, 37.60804
476.4377, 37.99051
476.9198, 38.05783
477.4019, 37.59792
477.8840, 36.86871
478.3661, 36.06358
478.8483, 35.22493
479.3304, 34.38698
479.8125, 33.57798
480.2946, 32.79439
480.7767, 31.89073
481.2589, 30.70445
481.7410, 29.59567
482.2231, 28.58627
482.7052, 27.69962
483.1873, 27.00682
483.6694, 26.50577
484.1516, 26.04120
484.6337, 25.34554
485.1158, 24.32044
485.5979, 23.64427
486.0800, 23.70631
486.5621, 23.70861
487.0443, 23.26942
487.5264, 22.56605
488.0085, 21.91915
488.4906, 21.44995
488.9727, 21.16488
489.4548, 21.13423
489.9370, 21.37640
490.4191, 21.57913
490.9012, 21.62276
491.3833, 21.63725
491.8654, 21.78360
492.3475, 22.04655
492.8297, 22.23326
493.3118, 22.27672
493.7939, 22.19166
494.2760, 21.92783
494.7581, 21.49643
495.2402, 21.15639
495.7224, 21.07270
496.2045, 21.16546
496.6866, 21.18548
497.1687, 21.06939
497.6508, 21.01917
498.1329, 21.17019
498.6151, 21.36228
499.0972, 21.39072
499.5793, 21.24124
500.0614, 21.07321
500.5435, 21.02487
501.0256, 21.09535
501.5078, 21.25260
501.9899, 21.56630
502.4720, 21.88394
502.9541, 22.23503
503.4362, 22.54870
503.9183, 22.73518
504.4004, 22.77213
504.8825, 22.71638
505.3647, 22.61983
505.8468, 22.46994
506.3289, 22.37377
506.8110, 22.33532
507.2931, 22.35298
507.7752, 22.44932
508.2574, 22.59218
508.7395, 22.72198
509.2216, 22.80720
509.7037, 22.89304
510.1858, 23.07447
510.6679, 23.34117
511.1501, 23.48755
511.6322, 23.40689
512.1143, 23.27141
512.5964, 23.29454
513.0786, 23.44972
513.5607, 23.53305
514.0428, 23.42398
514.5249, 23.27308
515.0070, 23.21509
515.4891, 23.23784
515.9713, 23.27531
516.4534, 23.30295
516.9355, 23.31086
517.4176, 23.27829
517.8997, 23.20869
518.3818, 23.08550
518.8640, 22.81393
519.3461, 22.56222
519.8282, 22.42769
520.3103, 22.42296
520.7924, 22.57034
521.2745, 22.91571
521.7567, 23.35873
522.2388, 23.43541
522.7209, 22.83091
523.2030, 22.43988
523.6851, 22.55118
524.1672, 22.76631
524.6494, 22.75201
525.1315, 22.51136
525.6136, 22.33302
526.0957, 22.50284
526.5778, 22.91317
527.0599, 23.18826
527.5421, 23.32971
528.0242, 23.31672
528.5063, 22.98706
528.9884, 22.57202
529.4705, 22.39295
529.9526, 22.51612
530.4348, 22.67948
530.9169, 22.76435
531.3990, 22.79428
531.8811, 22.82023
532.3632, 22.84844
532.8453, 22.80733
533.3275, 22.60934
533.8096, 22.29035
534.2917, 22.14269
534.7738, 22.29847
535.2559, 22.42710
535.7380, 22.48832
536.2202, 22.46774
536.7023, 22.32664
537.1844, 22.07125
537.6665, 21.76998
538.1486, 21.48934
538.6307, 21.22952
539.1129, 21.01586
539.5950, 20.88516
540.0771, 20.75625
540.5592, 20.63618
541.0413, 20.49629
541.5234, 20.25538
542.0056, 19.89953
542.4877, 19.62825
542.9698, 19.75953
543.4519, 20.21297
543.9340, 20.36890
544.4161, 20.09433
544.8983, 19.73567
545.3804, 19.48894
545.8625, 19.31944
546.3446, 19.16506
546.8267, 19.00892
547.3088, 18.88443
547.7910, 18.82518
548.2731, 18.80830
548.7552, 18.78090
549.2373, 18.73129
549.7194, 18.70713
550.2015, 18.77161
550.6837, 18.92931
551.1658, 18.97847
551.6479, 18.80992
552.1300, 18.68133
552.6121, 18.66475
553.0942, 18.72667
553.5764, 18.86131
554.0585, 19.04968
554.5406, 19.18685
555.0227, 19.11405
555.5048, 18.80988
555.9869, 18.64380
556.4691, 18.72060
556.9512, 18.79293
557.4333, 18.79958
557.9154, 18.74084
558.3975, 18.59000
558.8796, 18.32611
559.3618, 18.08660
559.8439, 17.98053
560.3260, 18.00091
560.8081, 18.17930
561.2902, 18.57932
561.7723, 18.87779
562.2545, 18.75374
562.7366, 18.31128
563.2187, 18.08203
563.7008, 18.23060
564.1829, 18.38982
564.6650, 18.39778
565.1472, 18.34238
565.6293, 18.36455
566.1114, 18.48479
566.5935, 18.58618
567.0756, 18.54572
567.5577, 18.36411
568.0399, 18.22104
568.5220, 18.14163
569.0041, 18.07320
569.4862, 18.03209
569.9683, 17.98410
570.4504, 17.86885
570.9326, 17.68589
571.4147, 17.53823
571.8968, 17.56479
572.3789, 17.72920
572.8610, 17.79542
573.3431, 17.75225
573.8253, 17.63773
574.3074, 17.37310
574.7895, 17.09238
575.2716, 17.00733
575.7537, 17.17940
576.2358, 17.34933
576.7180, 17.42161
577.2001, 17.40424
577.6822, 17.25427
578.1643, 16.98822
578.6464, 16.80449
579.1285, 16.87023
579.6107, 17.09780
580.0928, 17.10535
580.5749, 16.61061
581.0570, 16.26949
581.5391, 16.12777
582.0212, 16.12922
582.5034, 16.31536
582.9855, 16.61963
583.4676, 16.84206
583.9497, 16.82391
584.4318, 16.63869
584.9139, 16.52481
585.3961, 16.49145
585.8782, 16.49741
586.3602, 16.55718
586.8423, 16.63365
587.3245, 16.68515
587.8066, 16.71756
588.2887, 16.78855
588.7708, 16.97254
