##NAMES=Lazulite
##RRUFFID=R050269
##IDEAL CHEMISTRY=MgAl_2_(PO_4_)_2_(OH)_2_
##LOCALITY=Horsjoberg, Varmland, Sweden
##OWNER=RRUFF
##SOURCE=Marcus Origlieri
##DESCRIPTION=Deep-blue indistinct crystals
##STATUS=The identification of this mineral has been confirmed by X-ray diffraction and chemical analysis
##URL=rruff.info/R050269
##MEASURED CHEMISTRY=(Mg_0.69_Fe_0.25_Mn_0.01_)Al_2.00_(P_1.00_O_4_)_2_(OH)_2_
92.54132, 0.0000000E+00
93.02344, 1.188929
93.50555, 1.164241
93.98767, 1.155277
94.46979, 1.173711
94.95190, 1.207180
95.43402, 1.207100
95.91614, 1.160084
96.39825, 1.141904
96.88037, 1.322655
97.36249, 1.688243
97.84460, 1.950919
98.32672, 1.818722
98.80884, 1.336104
99.29095, 1.246583
99.77307, 1.674309
100.2552, 2.408667
100.7373, 2.977683
101.2194, 3.334147
101.7015, 3.689185
102.1837, 4.158257
102.6658, 4.734967
103.1479, 5.460181
103.6300, 6.430381
104.1121, 7.563691
104.5942, 8.348421
105.0763, 8.608541
105.5585, 8.763549
106.0406, 9.153064
106.5227, 9.923847
107.0048, 10.67276
107.4869, 11.38464
107.9690, 12.07536
108.4512, 12.50579
108.9333, 12.39951
109.4154, 12.17500
109.8975, 12.25623
110.3796, 12.94995
110.8617, 13.65964
111.3439, 14.22670
111.8260, 14.53725
112.3081, 15.09818
112.7902, 16.13782
113.2723, 17.40847
113.7544, 18.54913
114.2366, 19.33402
114.7187, 20.11411
115.2008, 21.03264
115.6829, 22.18669
116.1650, 23.30352
116.6471, 24.27990
117.1293, 25.17587
117.6114, 26.13883
118.0935, 27.33339
118.5756, 28.54176
119.0577, 29.64706
119.5398, 30.66423
120.0220, 31.49690
120.5041, 31.99204
120.9862, 32.22636
121.4683, 32.51136
121.9504, 32.84362
122.4325, 33.37428
122.9147, 34.28764
123.3968, 35.83875
123.8789, 37.62336
124.3610, 39.47738
124.8431, 41.36905
125.3252, 42.83317
125.8074, 43.37777
126.2895, 43.24574
126.7716, 42.89653
127.2537, 42.11438
127.7358, 41.34881
128.2179, 41.42469
128.7001, 42.37878
129.1822, 43.61440
129.6643, 44.51241
130.1464, 45.15879
130.6285, 45.91052
131.1106, 47.08685
131.5928, 48.51361
132.0749, 49.57888
132.5570, 50.19102
133.0391, 50.63851
133.5212, 51.33424
134.0033, 52.19129
134.4855, 52.78967
134.9676, 52.99108
135.4497, 53.00613
135.9318, 53.19976
136.4139, 53.63559
136.8960, 54.18665
137.3782, 54.59346
137.8603, 54.82460
138.3424, 55.10012
138.8245, 55.57952
139.3066, 56.30173
139.7887, 56.95934
140.2709, 57.57306
140.7530, 58.08928
141.2351, 58.25945
141.7172, 57.95152
142.1993, 57.59786
142.6814, 57.50444
143.1636, 57.77020
143.6457, 57.99545
144.1278, 58.09025
144.6099, 58.08319
145.0920, 58.28545
145.5741, 58.84937
146.0563, 59.44176
146.5384, 59.80556
147.0205, 59.90590
147.5026, 59.83829
147.9847, 59.52094
148.4668, 58.93240
148.9490, 58.60395
149.4311, 58.75865
149.9132, 59.03614
150.3953, 59.10253
150.8774, 58.76891
151.3595, 58.43555
151.8417, 58.12697
152.3238, 57.81063
152.8059, 57.69624
153.2880, 58.01586
153.7701, 58.45387
154.2522, 58.67427
154.7344, 58.34937
155.2165, 58.08162
155.6986, 58.03960
156.1807, 58.27537
156.6628, 58.56150
157.1449, 59.08054
157.6271, 59.57678
158.1092, 59.70501
158.5913, 58.83721
159.0734, 58.03308
159.5555, 57.76419
160.0376, 58.25415
160.5198, 58.76815
161.0019, 59.07800
161.4840, 59.27223
161.9661, 59.49514
162.4482, 59.83667
162.9303, 60.19404
163.4125, 60.51007
163.8946, 60.76844
164.3767, 61.00242
164.8588, 61.15035
165.3409, 61.27660
165.8230, 61.53823
166.3052, 61.95382
166.7873, 62.55848
167.2694, 63.39555
167.7515, 64.53819
168.2336, 65.79536
168.7157, 66.97532
169.1978, 68.14493
169.6800, 69.55923
170.1621, 71.42579
170.6442, 73.57277
171.1263, 75.89907
171.6084, 78.60783
172.0905, 81.16245
172.5727, 83.07211
173.0548, 84.40578
173.5369, 85.53803
174.0190, 86.70094
174.5011, 87.82328
174.9832, 88.81213
175.4654, 89.67272
175.9475, 90.35795
176.4296, 90.53894
176.9117, 90.31658
177.3938, 90.53983
177.8759, 92.13024
178.3581, 94.59272
178.8402, 97.00352
179.3223, 99.07461
179.8044, 100.9386
180.2865, 102.6415
180.7686, 104.1897
181.2508, 105.9356
181.7329, 108.1123
182.2150, 110.7115
182.6971, 113.7138
183.1792, 117.1275
183.6613, 120.9161
184.1435, 124.7303
184.6256, 128.5787
185.1077, 133.0957
185.5898, 139.0810
186.0719, 146.2879
186.5540, 154.2091
187.0362, 162.8153
187.5183, 171.9433
188.0004, 181.1971
188.4825, 190.7567
188.9646, 199.6149
189.4467, 207.7031
189.9289, 214.7258
190.4110, 218.1476
190.8931, 216.9181
191.3752, 211.4228
191.8573, 202.6971
192.3394, 190.3370
192.8216, 176.3497
193.3037, 162.3231
193.7858, 148.2907
194.2679, 135.6350
194.7500, 124.9312
195.2321, 116.0821
195.7143, 108.2688
196.1964, 101.5830
196.6785, 95.78539
197.1606, 90.63389
197.6427, 86.06613
198.1248, 82.13301
198.6070, 78.85621
199.0891, 76.21958
199.5712, 74.04732
200.0533, 72.40590
200.5354, 71.07271
201.0175, 69.74992
201.4997, 68.40080
201.9818, 67.29707
202.4639, 66.64427
202.9460, 66.44464
203.4281, 65.87619
203.9102, 64.80251
204.3924, 63.61095
204.8745, 62.89612
205.3566, 62.74632
205.8387, 62.66046
206.3208, 62.48095
206.8029, 62.20586
207.2851, 61.84726
207.7672, 61.34784
208.2493, 60.84697
208.7314, 60.60681
209.2135, 60.72714
209.6956, 60.76144
210.1778, 60.47826
210.6599, 59.80735
211.1420, 59.48838
211.6241, 59.67741
212.1062, 60.03603
212.5883, 59.99055
213.0705, 59.37548
213.5526, 58.80401
214.0347, 58.47561
214.5168, 58.39061
214.9989, 58.53096
215.4810, 58.98859
215.9632, 59.58294
216.4453, 60.01746
216.9274, 60.25694
217.4095, 60.42611
217.8916, 60.54027
218.3737, 60.57403
218.8559, 60.70718
219.3380, 60.97869
219.8201, 61.31298
220.3022, 61.62427
220.7843, 61.99755
221.2664, 62.16184
221.7486, 61.99560
222.2307, 61.44752
222.7128, 60.88202
223.1949, 60.36420
223.6770, 59.78171
224.1591, 58.92719
224.6413, 57.58207
225.1234, 56.38028
225.6055, 55.56464
226.0876, 55.26194
226.5697, 54.71886
227.0518, 53.81895
227.5340, 52.76770
228.0161, 51.88117
228.4982, 51.16236
228.9803, 50.58714
229.4624, 50.17155
229.9445, 49.94249
230.4267, 49.69444
230.9088, 49.33695
231.3909, 49.02319
231.8730, 48.98133
232.3551, 49.32751
232.8372, 49.74415
233.3194, 50.15772
233.8015, 50.57948
234.2836, 50.95565
234.7657, 51.24281
235.2478, 51.52018
235.7299, 51.91249
236.2121, 52.52482
236.6942, 53.06480
237.1763, 53.44059
237.6584, 53.62341
238.1405, 53.82622
238.6226, 53.98097
239.1048, 54.20746
239.5869, 54.67198
240.0690, 55.52612
240.5511, 56.34491
241.0332, 57.02860
241.5153, 57.55763
241.9975, 58.08339
242.4796, 58.54298
242.9617, 59.04789
243.4438, 59.71839
243.9259, 60.57046
244.4080, 61.56232
244.8902, 62.71280
245.3723, 64.03250
245.8544, 65.32648
246.3365, 66.46837
246.8186, 67.70648
247.3007, 69.29417
247.7829, 71.24991
248.2650, 73.52937
248.7471, 76.20223
249.2292, 79.29065
249.7113, 82.31057
250.1934, 85.31355
250.6756, 88.21945
251.1577, 91.03785
251.6398, 93.95971
252.1219, 96.43982
252.6040, 98.66555
253.0861, 100.5614
253.5683, 100.6620
254.0504, 98.43851
254.5325, 95.04776
255.0146, 91.32481
255.4967, 87.02299
255.9788, 82.90334
256.4609, 79.01514
256.9431, 75.39949
257.4252, 72.07047
257.9073, 68.83885
258.3894, 66.15125
258.8715, 64.43011
259.3536, 64.06837
259.8358, 63.59791
260.3179, 62.76139
260.8000, 61.67012
261.2821, 60.97041
261.7642, 60.76299
262.2463, 60.76320
262.7285, 60.81425
263.2106, 60.93835
263.6927, 61.02535
264.1748, 60.98946
264.6569, 60.92606
265.1390, 61.23467
265.6212, 62.08953
266.1033, 62.95093
266.5854, 63.49543
267.0675, 63.60633
267.5496, 63.80931
268.0317, 64.10941
268.5139, 64.52941
268.9960, 65.14562
269.4781, 66.00744
269.9602, 66.92587
270.4423, 67.81647
270.9244, 68.68660
271.4066, 69.44158
271.8887, 69.94947
272.3708, 70.47137
272.8529, 71.56699
273.3350, 73.34974
273.8171, 75.29089
274.2993, 77.22807
274.7814, 79.14110
275.2635, 80.94211
275.7456, 82.53210
276.2277, 84.15948
276.7098, 86.34657
277.1920, 89.25491
277.6741, 91.82980
278.1562, 93.59518
278.6383, 94.57486
279.1204, 95.59827
279.6025, 96.75018
280.0847, 97.76167
280.5668, 98.39067
281.0489, 98.66580
281.5310, 98.24574
282.0131, 96.93935
282.4952, 94.80478
282.9774, 92.32014
283.4595, 89.44718
283.9416, 86.33835
284.4237, 83.05112
284.9058, 79.58738
285.3879, 76.28550
285.8701, 73.19923
286.3522, 70.34880
286.8343, 67.86515
287.3164, 65.79935
287.7985, 63.86381
288.2806, 61.66919
288.7628, 59.28149
289.2449, 57.41578
289.7270, 56.34517
290.2091, 55.78193
290.6912, 55.07156
291.1733, 54.22546
291.6555, 53.29944
292.1376, 52.21605
292.6197, 51.05217
293.1018, 50.18857
293.5839, 49.75001
294.0660, 49.54298
294.5482, 49.28077
295.0303, 48.96621
295.5124, 48.61834
295.9945, 48.20226
296.4766, 47.75716
296.9587, 47.38318
297.4409, 47.07426
297.9230, 46.88407
298.4051, 46.96262
298.8872, 47.25359
299.3693, 47.51665
299.8514, 47.64410
300.3336, 47.64938
300.8157, 47.47414
301.2978, 47.07427
301.7799, 46.77035
302.2620, 46.97158
302.7441, 47.54627
303.2263, 48.14922
303.7084, 48.66575
304.1905, 49.10760
304.6726, 49.47405
305.1547, 49.75985
305.6368, 50.05085
306.1190, 50.39188
306.6011, 50.79008
307.0832, 51.24560
307.5653, 51.76196
308.0474, 52.33906
308.5295, 53.00570
309.0117, 53.75542
309.4938, 54.47337
309.9759, 54.95008
310.4580, 55.40504
310.9401, 56.09727
311.4222, 57.21735
311.9044, 58.44611
312.3865, 59.53189
312.8686, 60.52113
313.3507, 61.60914
313.8328, 62.87056
314.3149, 64.28456
314.7971, 65.81940
315.2792, 67.51649
315.7613, 69.28867
316.2434, 71.13279
316.7255, 73.02223
317.2076, 74.89986
317.6898, 76.83530
318.1719, 78.68724
318.6540, 80.37765
319.1361, 81.89075
319.6182, 83.20134
320.1003, 84.42677
320.5825, 85.41319
321.0646, 85.94902
321.5467, 85.82652
322.0288, 85.38013
322.5109, 84.67632
322.9930, 83.70937
323.4752, 82.65707
323.9573, 81.49209
324.4394, 80.28667
324.9215, 79.10591
325.4036, 77.61392
325.8857, 76.51052
326.3679, 76.09942
326.8500, 76.34429
327.3321, 76.44736
327.8142, 75.99052
328.2963, 75.61303
328.7784, 75.69492
329.2606, 76.82565
329.7427, 77.70034
330.2248, 78.14909
330.7069, 78.29107
331.1890, 78.57701
331.6711, 79.04207
332.1533, 79.61641
332.6354, 80.29343
333.1175, 81.16497
333.5996, 81.93588
334.0817, 82.59055
334.5638, 83.15128
335.0460, 83.63613
335.5281, 83.92909
336.0102, 84.36917
336.4923, 85.11780
336.9744, 86.23792
337.4565, 87.17713
337.9387, 87.84380
338.4208, 88.46207
338.9029, 89.26782
339.3850, 90.25075
339.8671, 91.47536
340.3492, 93.06902
340.8313, 94.96153
341.3134, 96.52642
341.7956, 97.75011
342.2777, 98.73925
342.7598, 99.62935
343.2419, 100.4154
343.7240, 100.9179
344.2061, 101.1085
344.6883, 100.9962
345.1704, 100.5676
345.6525, 99.81284
346.1346, 98.85303
346.6167, 97.85032
347.0988, 96.73170
347.5810, 95.08173
348.0631, 92.74096
348.5452, 90.16811
349.0273, 87.95899
349.5094, 86.07097
349.9915, 84.37155
350.4737, 82.86538
350.9558, 81.47427
351.4379, 80.08047
351.9200, 78.67239
352.4021, 77.31165
352.8842, 75.95628
353.3664, 74.68255
353.8485, 73.65984
354.3306, 73.07383
354.8127, 72.66040
355.2948, 72.09839
355.7769, 71.41926
356.2591, 70.84843
356.7412, 70.51060
357.2233, 70.37788
357.7054, 70.44312
358.1875, 70.79668
358.6696, 71.17837
359.1518, 71.36577
359.6339, 71.43359
360.1160, 71.56242
360.5981, 71.91081
361.0802, 72.29860
361.5623, 72.58841
362.0445, 72.73471
362.5266, 72.91328
363.0087, 73.18505
363.4908, 73.53218
363.9729, 73.93140
364.4550, 74.26366
364.9372, 74.75118
365.4193, 75.50565
365.9014, 76.53296
366.3835, 77.61771
366.8656, 78.73362
367.3477, 79.87735
367.8299, 81.06880
368.3120, 82.34462
368.7941, 83.62716
369.2762, 84.90770
369.7583, 86.18819
370.2404, 87.48569
370.7226, 88.76472
371.2047, 90.07826
371.6868, 91.44331
372.1689, 92.81322
372.6510, 94.36769
373.1331, 96.24235
373.6153, 98.23750
374.0974, 100.0700
374.5795, 101.8299
375.0616, 103.2138
375.5437, 104.1020
376.0258, 104.4895
376.5080, 104.6205
376.9901, 104.5072
377.4722, 104.1121
377.9543, 103.4124
378.4364, 102.4260
378.9185, 101.0245
379.4007, 99.16187
379.8828, 96.91438
380.3649, 94.43393
380.8470, 91.70205
381.3291, 89.08704
381.8112, 86.94885
382.2934, 85.20338
382.7755, 83.37301
383.2576, 81.40889
383.7397, 79.37443
384.2218, 77.25550
384.7039, 75.08701
385.1861, 73.17372
385.6682, 71.62207
386.1503, 70.41558
386.6324, 69.54750
387.1145, 69.03335
387.5966, 68.66050
388.0788, 68.30543
388.5609, 67.95647
389.0430, 67.58521
389.5251, 67.13189
390.0072, 66.70931
390.4893, 66.42888
390.9715, 66.27179
391.4536, 66.15334
391.9357, 65.90710
392.4178, 65.75220
392.8999, 65.87344
393.3820, 66.32524
393.8642, 66.97604
394.3463, 67.79389
394.8284, 68.76907
395.3105, 69.87237
395.7926, 71.09872
396.2747, 72.45863
396.7569, 74.05725
397.2390, 75.91313
397.7211, 77.51931
398.2032, 78.44059
398.6853, 79.27273
399.1674, 80.44173
399.6496, 82.38596
400.1317, 84.19693
400.6138, 85.57112
401.0959, 86.72840
401.5780, 88.43678
402.0602, 90.81187
402.5423, 93.61034
403.0244, 96.67297
403.5065, 99.90004
403.9886, 103.7658
404.4707, 108.2152
404.9529, 113.3542
405.4350, 119.2469
405.9171, 125.7838
406.3992, 133.4905
406.8813, 142.5282
407.3634, 152.8380
407.8456, 164.7276
408.3277, 178.3289
408.8098, 193.0202
409.2919, 208.5121
409.7740, 224.7946
410.2561, 240.6561
410.7383, 256.1524
411.2204, 270.8630
411.7025, 286.3854
412.1846, 302.0735
412.6667, 312.5291
413.1488, 315.7978
413.6310, 311.6134
414.1131, 297.5409
414.5952, 273.1804
415.0773, 245.3141
415.5594, 216.8952
416.0415, 189.5601
416.5237, 165.5708
417.0058, 145.8765
417.4879, 129.9833
417.9700, 118.4123
418.4521, 110.6797
418.9342, 104.5658
419.4164, 99.19421
419.8985, 94.77613
420.3806, 91.63653
420.8627, 89.97851
421.3448, 88.96949
421.8269, 88.71023
422.3091, 88.78254
422.7912, 88.59871
423.2733, 87.57347
423.7554, 86.71210
424.2375, 86.37788
424.7196, 86.59252
425.2018, 86.74151
425.6839, 87.29234
426.1660, 87.39514
426.6481, 86.53370
427.1302, 84.29115
427.6123, 81.77187
428.0945, 78.79533
428.5766, 75.60381
429.0587, 72.74033
429.5408, 70.31926
430.0229, 67.99090
430.5050, 65.60741
430.9872, 63.17670
431.4693, 61.02468
431.9514, 59.15525
432.4335, 57.50062
432.9156, 56.00724
433.3977, 54.67611
433.8799, 53.42492
434.3620, 52.22460
434.8441, 51.10733
435.3262, 50.12152
435.8083, 49.26985
436.2904, 48.61034
436.7726, 48.30564
437.2547, 48.20654
437.7368, 47.91209
438.2189, 47.36093
438.7010, 46.86410
439.1831, 46.83045
439.6652, 47.05619
440.1473, 47.14762
440.6295, 46.91973
441.1116, 46.53043
441.5937, 45.91908
442.0758, 45.17901
442.5579, 44.79364
443.0400, 45.48467
443.5222, 46.32013
444.0043, 46.53682
444.4864, 45.69880
444.9685, 45.03007
445.4506, 45.04947
445.9327, 45.43379
446.4149, 45.71998
446.8970, 45.79013
447.3791, 45.77803
447.8612, 45.66803
448.3433, 45.45744
448.8254, 45.34884
449.3076, 45.30825
449.7897, 45.40174
450.2718, 45.69965
450.7539, 46.36578
451.2360, 46.85651
451.7181, 47.11420
452.2003, 47.22192
452.6824, 47.31707
453.1645, 47.37674
453.6466, 47.52156
454.1287, 47.84241
454.6108, 48.30836
455.0930, 48.58823
455.5751, 48.66690
456.0572, 48.67753
456.5393, 48.72196
457.0214, 48.79894
457.5035, 48.90757
457.9857, 49.06077
458.4678, 49.21914
458.9499, 49.32122
459.4320, 49.37844
459.9141, 49.43406
460.3962, 49.55474
460.8784, 49.66375
461.3605, 49.71602
461.8426, 49.70927
462.3247, 49.50969
462.8068, 48.76673
463.2889, 47.89832
463.7711, 47.36766
464.2532, 47.52971
464.7353, 47.72788
465.2174, 47.61968
465.6995, 47.35390
466.1816, 47.28294
466.6638, 47.69482
467.1459, 48.13843
467.6280, 48.44381
468.1101, 48.56345
468.5922, 48.71223
469.0743, 48.76146
469.5565, 48.93665
470.0386, 49.43388
470.5207, 50.35331
471.0028, 51.40359
471.4849, 52.68528
471.9670, 54.02731
472.4492, 54.87433
472.9313, 55.05378
473.4134, 55.32039
473.8955, 56.10850
474.3776, 57.38445
474.8597, 58.32077
475.3419, 58.89852
475.8240, 59.27134
476.3061, 59.63413
476.7882, 59.94195
477.2703, 59.99585
477.7524, 59.76287
478.2346, 59.23059
478.7167, 58.28398
479.1988, 56.99262
479.6809, 55.61552
480.1630, 54.33229
480.6451, 53.01552
481.1273, 51.48757
481.6094, 49.72237
482.0915, 48.00565
482.5736, 46.42751
483.0557, 44.99894
483.5378, 43.71265
484.0200, 42.63075
484.5021, 41.61410
484.9842, 40.57825
485.4663, 39.57137
485.9484, 38.73822
486.4305, 38.13621
486.9127, 37.68054
487.3948, 37.38070
487.8769, 37.27235
488.3590, 37.08579
488.8411, 36.78162
489.3232, 36.44147
489.8054, 36.12604
490.2875, 35.82573
490.7696, 35.58935
491.2517, 35.42533
491.7338, 35.32875
492.2159, 35.29086
492.6981, 35.31108
493.1802, 35.39972
493.6623, 35.63693
494.1444, 35.95187
494.6265, 36.02715
495.1086, 35.86034
495.5908, 35.61629
496.0729, 35.36018
496.5550, 35.13737
497.0371, 35.06350
497.5192, 35.20818
498.0013, 35.38942
498.4835, 35.37462
498.9656, 35.27837
499.4477, 35.33783
499.9298, 35.90446
500.4119, 36.44858
500.8940, 36.59472
501.3762, 36.35340
501.8583, 36.23499
502.3404, 36.44471
502.8225, 36.78757
503.3046, 37.15528
503.7867, 37.69270
504.2689, 37.99806
504.7510, 37.87181
505.2331, 37.59332
505.7152, 37.58739
506.1973, 37.97020
506.6794, 38.39948
507.1616, 38.83614
507.6437, 39.26354
508.1258, 39.48120
508.6079, 39.41821
509.0900, 39.42362
509.5721, 39.83764
510.0543, 40.60091
510.5364, 41.06068
511.0185, 41.14959
511.5006, 41.05832
511.9827, 40.89724
512.4648, 40.73000
512.9470, 40.76626
513.4291, 41.16689
513.9112, 41.70143
514.3933, 42.19509
514.8754, 42.62818
515.3575, 42.92837
515.8397, 42.92762
516.3218, 42.86818
516.8039, 42.97687
517.2860, 43.32347
517.7681, 43.50097
518.2502, 43.11200
518.7324, 42.62555
519.2145, 42.46107
519.6966, 43.10616
520.1787, 43.55421
520.6608, 43.66948
521.1429, 43.53767
521.6251, 43.34304
522.1072, 42.95760
522.5893, 42.75316
523.0714, 42.95798
523.5535, 43.56301
524.0356, 43.67714
524.5178, 43.17786
524.9999, 42.61298
525.4820, 42.53646
525.9641, 42.88367
526.4462, 42.94579
526.9283, 42.57361
527.4105, 42.08925
527.8926, 41.89032
528.3747, 41.93499
528.8568, 42.09052
529.3389, 42.50481
529.8210, 42.85209
530.3032, 42.64333
530.7853, 41.99675
531.2674, 41.50441
531.7495, 41.70581
532.2316, 42.04020
532.7137, 42.07928
533.1959, 41.68621
533.6780, 41.32009
534.1601, 41.06776
534.6422, 40.91167
535.1243, 40.83229
535.6064, 40.95030
536.0886, 40.98667
536.5707, 40.91641
537.0528, 40.74846
537.5349, 40.50092
538.0170, 40.13487
538.4991, 39.78983
538.9813, 39.55310
539.4634, 39.41164
539.9455, 39.11792
540.4276, 38.65106
540.9097, 38.15690
541.3918, 37.77400
541.8740, 37.48292
542.3561, 37.22008
542.8382, 36.99190
543.3203, 36.73968
543.8024, 36.30862
544.2845, 35.79875
544.7667, 35.44530
545.2488, 35.50144
545.7309, 35.62802
546.2130, 35.63324
546.6951, 35.51710
547.1772, 35.28412
547.6594, 34.76643
548.1415, 34.26617
548.6236, 33.98296
549.1057, 34.03587
549.5878, 33.94710
550.0699, 33.40379
550.5521, 32.88387
551.0342, 32.82705
551.5163, 33.55088
551.9984, 34.04414
552.4805, 34.17019
552.9626, 34.04370
553.4448, 33.88691
553.9269, 33.68473
554.4090, 33.56350
554.8911, 33.60831
555.3732, 33.76557
555.8553, 33.82131
556.3375, 33.77705
556.8196, 33.76346
557.3017, 33.92142
557.7838, 34.16420
558.2659, 34.33820
558.7480, 34.41120
559.2302, 34.49060
559.7123, 34.69004
560.1944, 34.93377
560.6765, 35.12379
561.1586, 35.21746
561.6407, 35.26760
562.1229, 35.17118
562.6050, 35.03217
563.0871, 35.15037
563.5692, 35.99113
564.0513, 36.65386
564.5334, 36.81422
565.0156, 36.44530
565.4977, 36.32139
565.9798, 36.56869
566.4619, 36.83123
566.9440, 36.80036
567.4261, 36.44307
567.9083, 36.31413
568.3904, 36.48999
568.8725, 36.78126
569.3546, 36.97047
569.8367, 37.06330
570.3188, 37.08405
570.8010, 36.99959
571.2831, 36.89895
571.7652, 36.89128
572.2473, 36.96254
572.7294, 37.06456
573.2115, 37.19416
573.6937, 37.32961
574.1758, 37.46410
574.6579, 37.59657
575.1400, 37.70777
575.6221, 37.82204
576.1042, 37.89421
576.5864, 37.88686
577.0685, 37.71445
577.5506, 37.62529
578.0327, 37.71740
578.5148, 37.82058
578.9969, 37.68409
579.4791, 37.22747
579.9612, 36.81285
580.4433, 36.52847
580.9254, 36.32058
581.4075, 36.08638
581.8896, 35.82476
582.3718, 35.43256
582.8539, 34.69739
583.3360, 33.83041
583.8181, 33.28070
584.3002, 33.05215
584.7823, 33.02962
585.2645, 33.32900
585.7466, 33.69061
586.2286, 33.82339
586.7108, 33.60940
587.1929, 33.38813
587.6750, 33.28105
588.1571, 33.25692
588.6392, 33.27755
