##NAMES=Lazurite
##RRUFFID=R040023
##IDEAL CHEMISTRY=Na_3_Ca(Si_3_Al_3_)O_12_S^2-^
##LOCALITY=Chile
##OWNER=RRUFF
##SOURCE=University of Arizona Mineral Museum
##DESCRIPTION=Blue fine-grained massive
##STATUS=The identification of this mineral has been confirmed by X-ray diffraction and chemical analysis
##URL=rruff.info/R040023
##MEASURED CHEMISTRY=(Na_0.99_K_0.01_)_6_(Ca_0.99_Na_0.01_)_2_Al_6.00_Si_6.00_O_24_[(SO_4_)_0.67_S_0.32_Cl_0.01_]_2_
131.6330, 1346.789
132.1152, 1344.646
132.5973, 1341.999
133.0794, 1339.574
133.5615, 1337.588
134.0436, 1337.034
134.5257, 1339.969
135.0079, 1342.200
135.4900, 1343.111
135.9721, 1342.943
136.4542, 1341.964
136.9363, 1340.146
137.4184, 1337.669
137.9006, 1337.232
138.3827, 1340.386
138.8648, 1343.668
139.3469, 1345.729
139.8290, 1346.507
140.3111, 1346.225
140.7933, 1344.655
141.2754, 1341.977
141.7575, 1340.009
142.2396, 1339.086
142.7217, 1338.814
143.2038, 1338.824
143.6860, 1339.098
144.1681, 1339.642
144.6502, 1340.741
145.1323, 1342.141
145.6144, 1343.262
146.0965, 1343.904
146.5787, 1344.084
147.0608, 1343.794
147.5429, 1342.685
148.0250, 1341.557
148.5071, 1340.767
148.9892, 1340.301
149.4714, 1340.109
149.9535, 1340.032
150.4356, 1340.017
150.9177, 1340.762
151.3998, 1344.151
151.8819, 1346.797
152.3641, 1347.008
152.8462, 1344.983
153.3283, 1342.284
153.8104, 1340.664
154.2925, 1340.483
154.7746, 1340.488
155.2568, 1340.774
155.7389, 1341.137
156.2210, 1341.681
156.7031, 1342.328
157.1852, 1342.638
157.6673, 1341.847
158.1495, 1338.598
158.6316, 1336.583
159.1137, 1336.428
159.5958, 1337.176
160.0779, 1337.927
160.5600, 1338.380
161.0422, 1338.699
161.5243, 1339.328
162.0064, 1340.807
162.4885, 1341.375
162.9706, 1339.925
163.4527, 1337.327
163.9349, 1335.236
164.4170, 1334.250
164.8991, 1334.180
165.3812, 1334.733
165.8633, 1336.229
166.3454, 1337.385
166.8276, 1337.071
167.3097, 1335.526
167.7918, 1334.626
168.2739, 1335.729
168.7560, 1337.400
169.2381, 1337.885
169.7203, 1336.830
170.2024, 1335.223
170.6845, 1333.913
171.1666, 1332.887
171.6487, 1332.280
172.1308, 1332.863
172.6130, 1333.535
173.0951, 1333.186
173.5772, 1331.334
174.0593, 1329.119
174.5414, 1328.829
175.0235, 1331.932
175.5057, 1333.843
175.9878, 1333.072
176.4699, 1331.117
176.9520, 1329.195
177.4341, 1327.835
177.9162, 1327.026
178.3984, 1326.715
178.8805, 1326.801
179.3626, 1327.639
179.8447, 1330.134
180.3268, 1333.132
180.8089, 1335.381
181.2911, 1336.193
181.7732, 1335.627
182.2553, 1333.884
182.7374, 1328.622
183.2195, 1324.772
183.7016, 1324.005
184.1838, 1325.292
184.6659, 1326.850
185.1480, 1327.685
185.6301, 1327.789
186.1122, 1327.055
186.5943, 1324.698
187.0764, 1322.509
187.5586, 1320.988
188.0407, 1320.163
188.5228, 1320.067
189.0049, 1320.864
189.4870, 1322.450
189.9691, 1323.904
190.4513, 1325.322
190.9334, 1326.526
191.4155, 1327.626
191.8976, 1328.568
192.3797, 1328.641
192.8618, 1326.733
193.3440, 1323.649
193.8261, 1321.735
194.3082, 1322.334
194.7903, 1323.483
195.2724, 1322.661
195.7545, 1319.476
196.2367, 1316.949
196.7188, 1318.420
197.2009, 1321.537
197.6830, 1323.116
198.1651, 1321.565
198.6472, 1318.405
199.1294, 1316.174
199.6115, 1315.076
200.0936, 1314.466
200.5757, 1314.121
201.0578, 1313.994
201.5399, 1314.078
202.0221, 1314.446
202.5042, 1314.957
202.9863, 1315.111
203.4684, 1314.322
203.9505, 1314.162
204.4326, 1315.714
204.9148, 1317.967
205.3969, 1319.484
205.8790, 1319.356
206.3611, 1317.941
206.8432, 1317.059
207.3253, 1316.905
207.8075, 1317.145
208.2896, 1317.714
208.7717, 1318.606
209.2538, 1319.943
209.7359, 1321.883
210.2180, 1324.287
210.7002, 1325.762
211.1823, 1325.075
211.6644, 1324.696
212.1465, 1325.572
212.6286, 1327.061
213.1107, 1327.960
213.5929, 1327.412
214.0750, 1325.550
214.5571, 1324.281
215.0392, 1323.643
215.5213, 1323.477
216.0034, 1324.089
216.4856, 1325.172
216.9677, 1326.115
217.4498, 1326.523
217.9319, 1326.424
218.4140, 1326.218
218.8961, 1325.504
219.3783, 1325.108
219.8604, 1325.557
220.3425, 1326.633
220.8246, 1327.613
221.3067, 1327.934
221.7888, 1327.789
222.2710, 1328.468
222.7531, 1331.455
223.2352, 1333.772
223.7173, 1333.116
224.1994, 1330.112
224.6815, 1327.960
225.1637, 1329.096
225.6458, 1332.448
226.1279, 1333.619
226.6100, 1330.830
227.0921, 1327.666
227.5742, 1326.671
228.0564, 1327.660
228.5385, 1328.732
229.0206, 1329.086
229.5027, 1328.702
229.9848, 1327.634
230.4669, 1325.273
230.9491, 1323.038
231.4312, 1322.366
231.9133, 1323.266
232.3954, 1324.145
232.8775, 1324.292
233.3596, 1323.966
233.8418, 1323.603
234.3239, 1323.443
234.8060, 1322.859
235.2881, 1320.498
235.7702, 1316.004
236.2523, 1313.135
236.7345, 1315.678
237.2166, 1319.369
237.6987, 1320.214
238.1808, 1317.062
238.6629, 1312.538
239.1451, 1309.679
239.6272, 1308.670
240.1093, 1308.319
240.5914, 1309.113
241.0735, 1309.989
241.5556, 1310.136
242.0378, 1309.348
242.5199, 1308.150
243.0020, 1307.313
243.4841, 1307.100
243.9662, 1306.240
244.4483, 1303.072
244.9305, 1300.099
245.4126, 1299.248
245.8947, 1300.866
246.3768, 1303.391
246.8589, 1304.820
247.3410, 1305.018
247.8231, 1304.470
248.3053, 1302.075
248.7874, 1299.817
249.2695, 1299.217
249.7516, 1300.402
250.2337, 1302.063
250.7158, 1302.445
251.1980, 1301.112
251.6801, 1299.658
252.1622, 1297.883
252.6443, 1296.204
253.1264, 1294.707
253.6085, 1293.487
254.0907, 1292.766
254.5728, 1292.914
255.0549, 1294.321
255.5370, 1295.430
256.0191, 1297.034
256.5013, 1297.780
256.9834, 1296.088
257.4655, 1292.354
257.9476, 1288.828
258.4297, 1288.212
258.9118, 1291.726
259.3940, 1293.078
259.8761, 1290.370
260.3582, 1287.595
260.8403, 1286.869
261.3224, 1288.138
261.8045, 1290.151
262.2867, 1291.906
262.7688, 1293.594
263.2509, 1293.434
263.7330, 1289.673
264.2151, 1286.106
264.6972, 1284.682
265.1794, 1285.152
265.6615, 1286.010
266.1436, 1286.009
266.6257, 1285.091
267.1078, 1284.773
267.5899, 1285.281
268.0721, 1286.027
268.5542, 1287.255
269.0363, 1288.594
269.5184, 1288.986
270.0005, 1287.495
270.4826, 1284.327
270.9648, 1282.635
271.4469, 1282.504
271.9290, 1283.367
272.4111, 1285.976
272.8932, 1289.484
273.3753, 1291.893
273.8575, 1291.915
274.3396, 1290.010
274.8217, 1288.557
275.3038, 1288.049
275.7859, 1287.323
276.2680, 1285.457
276.7502, 1283.126
277.2323, 1281.735
277.7144, 1281.971
278.1965, 1283.492
278.6786, 1285.527
279.1607, 1288.842
279.6428, 1291.268
280.1249, 1292.250
280.6071, 1291.959
281.0892, 1290.227
281.5713, 1286.599
282.0534, 1282.676
282.5355, 1282.111
283.0176, 1285.816
283.4998, 1288.855
283.9819, 1289.400
284.4640, 1288.698
284.9461, 1288.812
285.4282, 1290.411
285.9103, 1292.319
286.3925, 1292.737
286.8746, 1291.586
287.3567, 1290.421
287.8388, 1289.395
288.3209, 1288.583
288.8030, 1288.245
289.2852, 1288.482
289.7673, 1288.649
290.2494, 1287.723
290.7315, 1285.795
291.2136, 1284.887
291.6957, 1286.392
292.1779, 1288.482
292.6600, 1288.992
293.1421, 1287.685
293.6242, 1286.115
294.1063, 1285.440
294.5884, 1285.589
295.0706, 1286.037
295.5527, 1287.067
296.0348, 1288.143
296.5169, 1288.912
296.9990, 1289.353
297.4811, 1289.276
297.9633, 1288.263
298.4454, 1286.673
298.9275, 1285.690
299.4096, 1285.818
299.8917, 1286.019
300.3738, 1285.479
300.8560, 1284.294
301.3381, 1283.161
301.8202, 1282.350
302.3023, 1281.828
302.7844, 1281.442
303.2665, 1281.181
303.7487, 1281.093
304.2308, 1281.985
304.7129, 1283.259
305.1950, 1282.484
305.6771, 1278.100
306.1592, 1272.419
306.6414, 1268.825
307.1235, 1267.410
307.6056, 1266.349
308.0877, 1264.871
308.5698, 1263.174
309.0519, 1261.665
309.5341, 1260.392
310.0162, 1259.419
310.4983, 1259.073
310.9804, 1259.235
311.4625, 1259.061
311.9446, 1257.867
312.4268, 1256.306
312.9089, 1255.449
313.3910, 1255.500
313.8731, 1255.698
314.3552, 1255.107
314.8373, 1254.089
315.3195, 1253.896
315.8016, 1255.510
316.2837, 1257.623
316.7658, 1259.073
317.2479, 1259.846
317.7300, 1259.537
318.2122, 1257.000
318.6943, 1253.414
319.1764, 1251.698
319.6585, 1253.305
320.1406, 1255.278
320.6227, 1255.165
321.1049, 1253.251
321.5870, 1251.571
322.0691, 1250.981
322.5512, 1251.163
323.0333, 1251.562
323.5154, 1252.411
323.9976, 1252.778
324.4797, 1251.937
324.9618, 1250.191
325.4439, 1248.358
325.9260, 1246.458
326.4081, 1244.921
326.8903, 1244.620
327.3724, 1245.559
327.8545, 1245.955
328.3366, 1244.525
328.8187, 1242.322
329.3008, 1241.149
329.7830, 1241.376
330.2651, 1242.128
330.7472, 1242.651
331.2293, 1242.989
331.7114, 1243.407
332.1935, 1243.964
332.6757, 1244.617
333.1578, 1245.532
333.6399, 1246.712
334.1220, 1247.422
334.6041, 1247.066
335.0862, 1245.823
335.5684, 1244.630
336.0505, 1244.064
336.5326, 1243.000
337.0147, 1240.090
337.4968, 1235.821
337.9789, 1232.467
338.4611, 1231.271
338.9432, 1231.399
339.4253, 1230.886
339.9074, 1229.439
340.3895, 1228.199
340.8716, 1228.008
341.3538, 1228.288
341.8359, 1227.768
342.3180, 1225.968
342.8001, 1223.716
343.2822, 1222.296
343.7643, 1221.824
344.2465, 1220.867
344.7286, 1218.723
345.2107, 1216.183
345.6928, 1214.028
346.1749, 1212.364
346.6570, 1211.181
347.1392, 1210.659
347.6213, 1210.801
348.1034, 1210.349
348.5855, 1208.413
349.0676, 1206.619
349.5497, 1206.074
350.0319, 1206.656
350.5140, 1207.643
350.9961, 1208.693
351.4782, 1209.769
351.9603, 1210.686
352.4424, 1212.313
352.9246, 1212.817
353.4067, 1211.017
353.8888, 1207.809
354.3709, 1204.527
354.8530, 1201.572
355.3351, 1199.400
355.8173, 1199.121
356.2994, 1202.102
356.7815, 1203.796
357.2636, 1203.204
357.7457, 1201.500
358.2278, 1199.249
358.7100, 1196.741
359.1921, 1195.143
359.6742, 1196.028
360.1563, 1200.103
360.6384, 1202.271
361.1205, 1201.229
361.6027, 1199.674
362.0848, 1198.760
362.5669, 1198.571
363.0490, 1199.019
363.5311, 1200.169
364.0132, 1201.833
364.4954, 1202.431
364.9775, 1200.761
365.4596, 1199.509
365.9417, 1199.627
366.4238, 1200.343
366.9059, 1200.613
367.3881, 1200.010
367.8702, 1198.805
368.3523, 1197.489
368.8344, 1195.307
369.3165, 1194.352
369.7986, 1195.844
370.2808, 1197.606
370.7629, 1197.681
371.2450, 1196.031
371.7271, 1194.337
372.2092, 1194.521
372.6913, 1196.985
373.1735, 1198.759
373.6556, 1199.814
374.1377, 1200.262
374.6198, 1199.694
375.1019, 1198.553
375.5840, 1197.779
376.0662, 1198.068
376.5483, 1199.025
377.0304, 1198.633
377.5125, 1194.938
377.9946, 1192.761
378.4767, 1193.962
378.9589, 1196.383
379.4410, 1197.935
379.9231, 1197.920
380.4052, 1196.981
380.8873, 1195.976
381.3694, 1194.781
381.8516, 1193.933
382.3337, 1193.109
382.8158, 1192.935
383.2979, 1194.258
383.7800, 1196.744
384.2621, 1198.969
384.7443, 1199.357
385.2264, 1198.153
385.7085, 1198.702
386.1906, 1203.197
386.6727, 1206.221
387.1548, 1204.218
387.6370, 1199.893
388.1191, 1197.378
388.6012, 1198.605
389.0833, 1202.131
389.5654, 1205.853
390.0475, 1210.080
390.5297, 1213.074
391.0118, 1213.152
391.4939, 1212.413
391.9760, 1212.480
392.4581, 1213.579
392.9402, 1214.923
393.4224, 1215.615
393.9045, 1215.870
394.3866, 1217.250
394.8687, 1220.713
395.3508, 1224.074
395.8329, 1225.012
396.3151, 1224.294
396.7972, 1224.466
397.2793, 1227.619
397.7614, 1231.688
398.2435, 1233.425
398.7256, 1232.625
399.2078, 1231.914
399.6899, 1232.764
400.1720, 1234.729
400.6541, 1236.831
401.1362, 1239.520
401.6183, 1241.426
402.1004, 1241.015
402.5826, 1239.129
403.0647, 1238.143
403.5468, 1238.839
404.0289, 1240.482
404.5110, 1242.350
404.9931, 1244.554
405.4753, 1245.930
405.9574, 1245.621
406.4395, 1244.771
406.9216, 1244.298
407.4037, 1244.326
407.8858, 1244.972
408.3680, 1246.542
408.8501, 1248.888
409.3322, 1250.141
409.8143, 1250.082
410.2964, 1249.382
410.7785, 1247.841
411.2607, 1245.909
411.7428, 1244.402
412.2249, 1243.679
412.7070, 1243.302
413.1891, 1242.436
413.6712, 1241.178
414.1534, 1239.146
414.6355, 1235.277
415.1176, 1231.454
415.5997, 1229.532
416.0818, 1229.290
416.5639, 1228.750
417.0461, 1225.969
417.5282, 1220.908
418.0103, 1217.016
418.4924, 1215.347
418.9745, 1213.751
419.4566, 1211.500
419.9388, 1209.112
420.4209, 1207.253
420.9030, 1206.234
421.3851, 1205.992
421.8672, 1206.764
422.3493, 1209.731
422.8315, 1210.632
423.3136, 1206.694
423.7957, 1202.541
424.2778, 1201.337
424.7599, 1202.935
425.2420, 1204.753
425.7242, 1204.643
426.2063, 1202.769
426.6884, 1200.537
427.1705, 1197.109
427.6526, 1194.808
428.1347, 1195.301
428.6169, 1197.215
429.0990, 1198.604
429.5811, 1198.720
430.0632, 1198.302
430.5453, 1198.323
431.0274, 1198.798
431.5096, 1198.950
431.9917, 1198.242
432.4738, 1197.448
432.9559, 1197.528
433.4380, 1198.465
433.9201, 1199.143
434.4023, 1198.542
434.8844, 1197.473
435.3665, 1197.670
435.8486, 1199.448
436.3307, 1200.960
436.8128, 1200.817
437.2950, 1199.241
437.7771, 1197.532
438.2592, 1194.882
438.7413, 1193.000
439.2234, 1193.722
439.7055, 1195.919
440.1877, 1196.734
440.6698, 1195.015
441.1519, 1192.005
441.6340, 1189.633
442.1161, 1188.088
442.5982, 1186.699
443.0804, 1185.079
443.5625, 1183.883
444.0446, 1183.871
444.5267, 1184.865
445.0088, 1185.889
445.4909, 1186.204
445.9731, 1185.888
446.4552, 1185.694
446.9373, 1185.925
447.4194, 1185.909
447.9015, 1185.593
448.3836, 1184.961
448.8658, 1183.955
449.3479, 1182.576
449.8300, 1180.952
450.3121, 1179.281
450.7942, 1177.608
451.2763, 1175.711
451.7585, 1172.967
452.2406, 1170.585
452.7227, 1169.345
453.2048, 1168.852
453.6869, 1168.072
454.1690, 1166.168
454.6512, 1163.906
455.1333, 1163.466
455.6154, 1165.522
456.0975, 1167.382
456.5796, 1168.743
457.0617, 1169.220
457.5439, 1168.064
458.0260, 1165.194
458.5081, 1162.267
458.9902, 1160.498
459.4723, 1159.695
459.9544, 1159.281
460.4366, 1159.383
460.9187, 1159.369
461.4008, 1158.761
461.8829, 1157.672
462.3650, 1156.247
462.8471, 1153.319
463.3293, 1154.097
463.8114, 1154.408
464.2935, 1154.279
464.7756, 1152.389
465.2577, 1152.773
465.7398, 1152.245
466.2220, 1151.680
466.7041, 1152.384
467.1862, 1150.750
467.6683, 1151.434
468.1504, 1151.192
468.6325, 1151.374
469.1147, 1150.639
469.5968, 1150.187
470.0789, 1150.653
470.5610, 1150.610
471.0431, 1149.770
471.5252, 1149.979
472.0074, 1148.312
472.4895, 1148.292
472.9716, 1148.981
473.4537, 1148.186
473.9358, 1148.412
474.4179, 1148.249
474.9001, 1146.321
475.3822, 1147.463
475.8643, 1145.554
476.3464, 1144.589
476.8285, 1143.794
477.3106, 1143.643
477.7928, 1143.813
478.2749, 1143.744
478.7570, 1143.154
479.2391, 1142.352
479.7212, 1141.800
480.2033, 1141.489
480.6855, 1140.923
481.1676, 1141.668
481.6497, 1141.946
482.1318, 1141.784
482.6139, 1139.860
483.0960, 1140.211
483.5782, 1139.651
484.0603, 1139.052
484.5424, 1139.723
485.0245, 1138.056
485.5066, 1138.707
485.9887, 1138.432
486.4709, 1138.581
486.9530, 1137.813
487.4351, 1137.328
487.9172, 1137.760
488.3993, 1137.685
488.8814, 1136.811
489.3636, 1136.987
489.8457, 1135.287
490.3278, 1135.233
490.8099, 1135.890
491.2920, 1135.062
491.7741, 1135.255
492.2563, 1134.395
492.7384, 1134.721
493.2205, 1134.916
493.7026, 1134.984
494.1847, 1135.061
494.6668, 1135.176
495.1490, 1135.018
495.6311, 1133.880
496.1132, 1131.109
496.5953, 1129.489
497.0774, 1130.100
497.5595, 1130.854
498.0417, 1130.960
498.5238, 1130.561
499.0059, 1130.074
499.4880, 1129.667
499.9701, 1129.390
500.4522, 1129.416
500.9344, 1129.814
501.4165, 1130.058
501.8986, 1129.824
502.3807, 1129.533
502.8628, 1129.713
503.3449, 1130.337
503.8271, 1130.633
504.3092, 1129.802
504.7913, 1128.606
505.2734, 1128.421
505.7555, 1129.315
506.2376, 1130.011
506.7198, 1129.725
507.2019, 1128.750
507.6840, 1127.996
508.1661, 1127.384
508.6482, 1127.111
509.1303, 1127.684
509.6125, 1128.393
510.0946, 1128.127
510.5767, 1126.853
511.0588, 1125.894
511.5409, 1126.672
512.0230, 1129.161
512.5051, 1129.928
512.9872, 1126.186
513.4694, 1124.014
513.9515, 1125.583
514.4336, 1128.851
514.9157, 1131.860
515.3978, 1133.918
515.8799, 1134.854
516.3621, 1133.699
516.8442, 1130.009
517.3263, 1129.135
517.8084, 1133.209
518.2905, 1137.488
518.7726, 1139.947
519.2548, 1141.152
519.7369, 1141.939
520.2190, 1142.349
520.7011, 1143.071
521.1832, 1145.006
521.6653, 1148.030
522.1475, 1151.188
522.6296, 1154.287
523.1117, 1157.397
523.5938, 1160.433
524.0759, 1163.431
524.5580, 1166.957
525.0402, 1171.351
525.5223, 1176.083
526.0044, 1180.678
526.4865, 1185.277
526.9686, 1190.367
527.4507, 1196.131
527.9329, 1202.479
528.4150, 1209.284
528.8971, 1216.825
529.3792, 1224.117
529.8613, 1230.816
530.3434, 1237.555
530.8256, 1244.957
531.3077, 1252.714
531.7898, 1259.907
532.2719, 1265.890
532.7540, 1271.425
533.2361, 1278.804
533.7183, 1289.225
534.2004, 1298.164
534.6825, 1303.318
535.1646, 1307.989
535.6467, 1313.848
536.1288, 1320.964
536.6110, 1328.767
537.0931, 1337.514
537.5752, 1346.434
538.0573, 1353.850
538.5394, 1359.722
539.0215, 1365.306
539.5037, 1370.815
539.9858, 1376.621
540.4679, 1383.883
540.9500, 1393.297
541.4321, 1400.465
541.9142, 1402.709
542.3964, 1403.110
542.8785, 1404.998
543.3606, 1408.232
543.8427, 1410.652
544.3248, 1411.004
544.8069, 1409.276
545.2891, 1405.413
545.7712, 1398.608
546.2533, 1390.544
546.7354, 1382.042
547.2175, 1371.798
547.6996, 1358.266
548.1818, 1341.918
548.6639, 1324.554
549.1460, 1307.738
549.6281, 1291.108
550.1102, 1273.239
550.5923, 1253.203
551.0745, 1234.185
551.5566, 1216.661
552.0387, 1200.707
552.5208, 1186.678
553.0029, 1174.556
553.4850, 1163.409
553.9672, 1152.663
554.4493, 1142.463
554.9314, 1132.569
555.4135, 1122.971
555.8956, 1115.618
556.3777, 1112.386
556.8599, 1111.550
557.3420, 1108.267
557.8241, 1101.080
558.3062, 1095.354
558.7883, 1092.744
559.2704, 1091.613
559.7526, 1090.691
560.2347, 1089.811
560.7168, 1089.300
561.1989, 1089.462
561.6810, 1090.048
562.1631, 1089.900
562.6453, 1088.317
563.1274, 1087.161
563.6095, 1087.231
564.0916, 1087.273
564.5737, 1086.286
565.0558, 1084.320
565.5380, 1082.160
566.0201, 1080.140
566.5022, 1078.436
566.9843, 1077.674
567.4664, 1078.009
567.9485, 1078.292
568.4307, 1077.921
568.9128, 1077.457
569.3949, 1077.783
569.8770, 1079.004
570.3591, 1079.907
570.8412, 1079.980
571.3234, 1079.639
571.8055, 1079.041
572.2876, 1078.350
572.7697, 1078.236
573.2518, 1079.155
573.7339, 1080.617
574.2161, 1081.387
574.6982, 1081.256
575.1803, 1080.702
575.6624, 1078.731
576.1445, 1077.220
576.6266, 1077.708
577.1088, 1079.639
577.5909, 1081.492
578.0730, 1082.443
578.5551, 1082.521
579.0372, 1081.553
579.5193, 1079.276
580.0015, 1077.393
580.4836, 1076.140
580.9657, 1075.527
581.4478, 1076.093
581.9299, 1077.412
582.4120, 1077.636
582.8942, 1074.904
583.3763, 1071.774
583.8584, 1071.228
584.3405, 1072.537
584.8226, 1072.970
585.3047, 1071.587
585.7869, 1069.025
586.2690, 1065.896
586.7511, 1061.811
587.2332, 1059.328
587.7153, 1059.028
588.1974, 1059.570
588.6796, 1061.598
589.1617, 1063.724
589.6438, 1063.597
590.1259, 1060.433
590.6080, 1056.066
591.0901, 1052.976
591.5723, 1051.243
592.0544, 1049.963
592.5365, 1049.040
593.0186, 1048.723
593.5007, 1049.398
593.9828, 1050.588
594.4650, 1051.789
594.9471, 1053.114
595.4292, 1053.505
595.9113, 1051.052
596.3934, 1047.216
596.8755, 1045.849
597.3577, 1047.609
597.8398, 1049.610
598.3219, 1049.618
598.8040, 1047.958
599.2861, 1046.809
599.7682, 1046.603
600.2504, 1046.271
600.7325, 1045.167
601.2146, 1044.195
601.6967, 1044.543
602.1788, 1046.049
602.6609, 1047.316
603.1431, 1047.150
603.6252, 1045.920
604.1073, 1045.245
604.5894, 1045.295
605.0715, 1045.447
605.5536, 1045.559
606.0358, 1045.706
606.5179, 1046.028
607.0000, 1046.480
607.4821, 1046.737
607.9642, 1046.383
608.4464, 1045.917
608.9285, 1046.085
609.4106, 1046.763
609.8927, 1047.204
610.3748, 1047.113
610.8569, 1046.700
611.3391, 1046.289
611.8212, 1045.966
612.3033, 1045.267
612.7854, 1043.159
613.2675, 1041.787
613.7496, 1042.615
614.2318, 1044.675
614.7139, 1046.333
615.1960, 1047.007
615.6781, 1047.348
616.1602, 1048.451
616.6423, 1050.394
617.1245, 1051.043
617.6066, 1049.176
618.0887, 1048.112
618.5708, 1050.440
619.0529, 1054.204
619.5350, 1056.765
620.0172, 1057.589
620.4993, 1057.797
620.9814, 1057.816
621.4635, 1057.719
621.9456, 1057.487
622.4277, 1057.170
622.9099, 1057.228
623.3920, 1058.024
623.8741, 1059.333
624.3562, 1060.345
624.8383, 1060.351
625.3204, 1061.125
625.8026, 1063.634
626.2847, 1066.058
626.7668, 1066.949
627.2489, 1066.719
