##NAMES=Leadhillite
##RRUFFID=R050642
##IDEAL CHEMISTRY=Pb^2+^_4_(S^6+^O_4_)(CO_3_)_2_(OH)_2_
##LOCALITY=Mammoth mine, Tiger, Pinal County, Arizona, USA
##OWNER=RRUFF
##SOURCE=University of Arizona Mineral Museum
##DESCRIPTION=Blue hexagonal prisms associated with transparent platy molybdophyllite and susannite
##STATUS=The identification of this mineral has been confirmed by single-crystal X-ray diffraction.
##URL=rruff.info/R050642
90.612, 16.195
91.094, 18.610
91.576, 19.011
92.058, 17.918
92.540, 16.941
93.023, 17.091
93.505, 18.044
93.987, 18.452
94.469, 17.788
94.951, 16.984
95.433, 16.540
95.915, 16.485
96.397, 16.913
96.880, 18.170
97.362, 20.326
97.844, 22.042
98.326, 22.951
98.808, 23.425
99.290, 22.841
99.772, 21.281
100.254, 20.719
100.737, 24.214
101.219, 33.623
101.701, 41.893
102.183, 46.505
102.665, 50.743
103.147, 57.456
103.629, 67.522
104.111, 79.012
104.593, 87.596
105.076, 90.750
105.558, 94.763
106.040, 100.996
106.522, 108.085
107.004, 114.278
107.486, 118.650
107.968, 122.146
108.450, 128.508
108.932, 140.507
109.415, 152.794
109.897, 166.638
110.379, 180.144
110.861, 190.568
111.343, 196.124
111.825, 197.074
112.307, 196.492
112.789, 192.648
113.271, 189.262
113.754, 187.581
114.236, 187.350
114.718, 187.167
115.200, 185.231
115.682, 181.569
116.164, 186.423
116.646, 202.470
117.128, 223.278
117.610, 244.733
118.093, 267.073
118.575, 293.688
119.057, 328.104
119.539, 371.823
120.021, 415.414
120.503, 458.935
120.985, 502.244
121.467, 545.654
121.950, 589.128
122.432, 631.476
122.914, 670.446
123.396, 706.108
123.878, 742.608
124.360, 782.808
124.842, 823.490
125.324, 862.114
125.807, 899.798
126.289, 930.078
126.771, 943.144
127.253, 941.245
127.735, 934.162
128.217, 924.990
128.699, 913.128
129.181, 896.655
129.663, 873.794
130.146, 848.580
130.628, 824.130
131.110, 800.479
131.592, 778.915
132.074, 760.034
132.556, 743.803
133.038, 729.766
133.520, 716.044
134.003, 707.029
134.485, 705.302
134.967, 710.974
135.449, 722.513
135.931, 739.502
136.413, 762.046
136.895, 787.407
137.377, 812.820
137.859, 843.353
138.342, 884.552
138.824, 937.664
139.306, 992.764
139.788, 1039.786
140.270, 1077.393
140.752, 1114.349
141.234, 1151.518
141.716, 1189.229
142.199, 1227.689
142.681, 1266.981
143.163, 1306.113
143.645, 1345.242
144.127, 1386.275
144.609, 1420.153
145.091, 1443.965
145.573, 1461.107
146.055, 1473.803
146.538, 1482.780
147.020, 1486.793
147.502, 1482.137
147.984, 1462.629
148.466, 1447.929
148.948, 1443.821
149.430, 1443.674
149.912, 1442.673
150.395, 1439.021
150.877, 1432.673
151.359, 1422.495
151.841, 1401.403
152.323, 1389.096
152.805, 1390.163
153.287, 1398.940
153.769, 1410.241
154.251, 1421.765
154.734, 1434.102
155.216, 1449.143
155.698, 1469.446
156.180, 1489.246
156.662, 1504.845
157.144, 1520.585
157.626, 1540.865
158.108, 1567.729
158.590, 1601.037
159.073, 1640.181
159.555, 1699.667
160.037, 1747.718
160.519, 1772.564
161.001, 1786.300
161.483, 1803.312
161.965, 1831.226
162.447, 1868.845
162.930, 1910.109
163.412, 1966.713
163.894, 2014.522
164.376, 2043.488
164.858, 2062.955
165.340, 2087.409
165.822, 2125.140
166.304, 2173.363
166.786, 2213.868
167.269, 2238.177
167.751, 2264.155
168.233, 2304.842
168.715, 2348.383
169.197, 2372.116
169.679, 2360.827
170.161, 2322.015
170.643, 2306.236
171.126, 2337.122
171.608, 2363.089
172.090, 2373.284
172.572, 2370.281
173.054, 2359.462
173.536, 2343.543
174.018, 2322.990
174.500, 2300.259
174.982, 2278.374
175.465, 2251.704
175.947, 2217.658
176.429, 2177.768
176.911, 2134.674
177.393, 2089.412
177.875, 2042.629
178.357, 1997.951
178.839, 1955.524
179.322, 1914.761
179.804, 1876.767
180.286, 1840.152
180.768, 1800.929
181.250, 1755.951
181.732, 1706.827
182.214, 1665.797
182.696, 1637.098
183.178, 1609.585
183.661, 1580.233
184.143, 1549.312
184.625, 1517.422
185.107, 1484.566
185.589, 1451.147
186.071, 1421.304
186.553, 1395.458
187.035, 1371.608
187.518, 1348.861
188.000, 1327.632
188.482, 1309.427
188.964, 1295.550
189.446, 1285.051
189.928, 1272.412
190.410, 1258.794
190.892, 1242.482
191.374, 1221.216
191.857, 1196.796
192.339, 1172.932
192.821, 1151.011
193.303, 1131.570
193.785, 1116.761
194.267, 1109.467
194.749, 1102.605
195.231, 1095.146
195.714, 1086.514
196.196, 1075.115
196.678, 1059.636
197.160, 1041.311
197.642, 1024.953
198.124, 1010.700
198.606, 997.643
199.088, 987.189
199.570, 977.732
200.053, 965.360
200.535, 947.725
201.017, 926.966
201.499, 910.492
201.981, 898.924
202.463, 889.224
202.945, 881.461
203.427, 874.883
203.909, 867.944
204.392, 859.806
204.874, 851.342
205.356, 845.392
205.838, 845.117
206.320, 841.828
206.802, 830.117
207.284, 814.453
207.766, 802.838
208.249, 798.666
208.731, 798.959
209.213, 797.219
209.695, 793.456
210.177, 788.106
210.659, 778.867
211.141, 768.663
211.623, 762.618
212.105, 762.917
212.587, 765.641
213.070, 763.024
213.552, 752.975
214.034, 742.960
214.516, 731.556
214.998, 721.655
215.480, 719.200
215.962, 726.375
216.445, 735.514
216.927, 733.604
217.409, 715.140
217.891, 700.344
218.373, 693.917
218.855, 690.868
219.337, 685.457
219.819, 676.319
220.301, 666.665
220.783, 661.144
221.266, 662.316
221.748, 660.192
222.230, 651.103
222.712, 640.503
223.194, 633.904
223.676, 632.153
224.158, 631.219
224.641, 626.750
225.123, 618.080
225.605, 606.914
226.087, 590.073
226.569, 573.004
227.051, 559.180
227.533, 549.142
228.015, 542.172
228.497, 537.903
228.980, 536.920
229.462, 535.336
229.944, 533.189
230.426, 530.479
230.908, 526.154
231.390, 520.849
231.872, 517.568
232.354, 519.863
232.836, 528.450
233.319, 527.692
233.801, 507.542
234.283, 489.390
234.765, 484.520
235.247, 490.280
235.729, 497.669
236.211, 500.508
236.693, 499.023
237.176, 497.371
237.658, 496.199
238.140, 494.212
238.622, 489.042
239.104, 482.879
239.586, 480.617
240.068, 485.723
240.550, 495.925
241.032, 498.756
241.514, 485.480
241.997, 474.908
242.479, 471.239
242.961, 471.615
243.443, 471.739
243.925, 469.544
244.407, 466.370
244.889, 466.165
245.372, 472.776
245.854, 477.717
246.336, 479.652
246.818, 480.203
247.300, 480.527
247.782, 481.123
248.264, 482.635
248.746, 486.410
249.228, 494.084
249.710, 501.400
250.193, 510.128
250.675, 517.363
251.157, 519.304
251.639, 515.820
252.121, 511.805
252.603, 514.609
253.085, 528.151
253.568, 538.193
254.050, 544.120
254.532, 547.485
255.014, 546.380
255.496, 542.361
255.978, 541.231
256.460, 550.427
256.942, 572.243
257.424, 588.387
257.906, 595.678
258.389, 599.782
258.871, 600.537
259.353, 599.399
259.835, 599.242
260.317, 602.312
260.799, 608.450
261.281, 615.471
261.763, 624.337
262.246, 632.958
262.728, 640.667
263.210, 647.696
263.692, 654.914
264.174, 663.662
264.656, 672.199
265.138, 674.414
265.620, 667.273
266.103, 659.563
266.585, 653.711
267.067, 649.111
267.549, 645.543
268.031, 643.422
268.513, 640.880
268.995, 633.584
269.477, 619.453
269.959, 608.990
270.442, 610.364
270.924, 614.536
271.406, 614.801
271.888, 609.785
272.370, 601.361
272.852, 590.561
273.334, 577.359
273.816, 564.312
274.298, 551.378
274.781, 539.417
275.263, 529.231
275.745, 520.817
276.227, 513.270
276.709, 506.718
277.191, 500.687
277.673, 493.148
278.155, 482.891
278.638, 472.782
279.120, 465.828
279.602, 461.544
280.084, 457.435
280.566, 453.600
281.048, 449.085
281.530, 442.000
282.012, 431.959
282.495, 421.177
282.977, 410.370
283.459, 400.047
283.941, 392.628
284.423, 390.140
284.905, 389.346
285.387, 388.057
285.869, 386.194
286.351, 383.703
286.833, 380.432
287.316, 376.527
287.798, 372.768
288.280, 368.884
288.762, 365.410
289.244, 362.740
289.726, 360.632
290.208, 358.648
290.690, 356.686
291.173, 354.512
291.655, 351.387
292.137, 345.173
292.619, 341.705
293.101, 345.050
293.583, 350.096
294.065, 349.596
294.547, 341.943
295.030, 333.553
295.512, 334.166
295.994, 350.585
296.476, 357.377
296.958, 346.394
297.440, 332.885
297.922, 325.615
298.404, 325.460
298.886, 329.951
299.369, 337.759
299.851, 349.583
300.333, 355.266
300.815, 346.312
301.297, 340.157
301.779, 344.734
302.261, 355.891
302.743, 365.232
303.225, 367.555
303.708, 364.211
304.190, 361.024
304.672, 358.428
305.154, 355.326
305.636, 350.355
306.118, 345.379
306.600, 342.422
307.082, 342.264
307.565, 343.717
308.047, 345.118
308.529, 346.622
309.011, 347.475
309.493, 346.565
309.975, 345.635
310.457, 345.866
310.939, 347.332
311.422, 349.058
311.904, 350.905
312.386, 352.698
312.868, 351.790
313.350, 346.015
313.832, 340.205
314.314, 337.219
314.796, 336.727
315.278, 337.820
315.760, 342.178
316.243, 347.240
316.725, 347.545
317.207, 342.168
317.689, 336.774
318.171, 335.213
318.653, 336.090
319.135, 336.359
319.617, 335.598
320.100, 334.199
320.582, 332.053
321.064, 329.373
321.546, 326.834
322.028, 324.087
322.510, 322.455
322.992, 325.522
323.474, 335.502
323.957, 343.657
324.439, 347.161
324.921, 347.451
325.403, 345.701
325.885, 342.168
326.367, 338.833
326.849, 338.347
327.331, 341.917
327.813, 343.986
328.296, 343.032
328.778, 341.885
329.260, 343.624
329.742, 347.287
330.224, 348.119
330.706, 341.620
331.188, 328.471
331.670, 323.844
332.152, 338.959
332.635, 349.967
333.117, 349.167
333.599, 342.070
334.081, 335.918
334.563, 333.959
335.045, 335.628
335.527, 340.405
336.009, 351.346
336.491, 358.688
336.974, 359.402
337.456, 358.079
337.938, 357.706
338.420, 358.783
338.902, 360.162
339.384, 360.462
339.866, 359.649
340.349, 359.570
340.831, 359.431
341.313, 361.309
341.795, 367.613
342.277, 376.698
342.759, 384.268
343.241, 387.262
343.723, 387.805
344.205, 390.121
344.688, 394.630
345.170, 398.643
345.652, 399.466
346.134, 399.482
346.616, 402.869
347.098, 411.647
347.580, 420.772
348.062, 426.776
348.544, 430.332
349.027, 433.579
349.509, 437.196
349.991, 440.760
350.473, 443.209
350.955, 444.011
351.437, 446.579
351.919, 450.829
352.401, 457.516
352.884, 469.129
353.366, 485.179
353.848, 500.330
354.330, 509.786
354.812, 513.330
355.294, 517.190
355.776, 520.334
356.258, 524.810
356.740, 532.059
357.223, 541.046
357.705, 550.134
358.187, 558.602
358.669, 566.285
359.151, 572.844
359.633, 578.698
360.115, 582.541
360.597, 583.751
361.079, 583.586
361.562, 582.896
362.044, 581.847
362.526, 580.182
363.008, 576.865
363.490, 571.691
363.972, 569.441
364.454, 573.143
364.936, 576.086
365.418, 575.425
365.901, 571.748
366.383, 566.114
366.865, 556.986
367.347, 548.003
367.829, 547.368
368.311, 556.544
368.793, 561.515
369.276, 553.230
369.758, 539.057
370.240, 530.035
370.722, 527.421
371.204, 527.287
371.686, 528.762
372.168, 531.033
372.650, 532.563
373.132, 533.125
373.615, 532.125
374.097, 527.946
374.579, 519.784
375.061, 515.669
375.543, 519.224
376.025, 524.152
376.507, 526.800
376.989, 527.133
377.471, 525.855
377.954, 522.992
378.436, 519.451
378.918, 519.579
379.400, 528.196
379.882, 534.856
380.364, 539.219
380.846, 541.000
381.328, 538.282
381.810, 531.193
382.293, 524.585
382.775, 526.208
383.257, 538.937
383.739, 546.597
384.221, 543.799
384.703, 540.755
385.185, 541.793
385.667, 545.987
386.150, 550.406
386.632, 553.503
387.114, 555.699
387.596, 557.938
388.078, 560.257
388.560, 562.413
389.042, 562.883
389.524, 563.962
390.007, 569.193
390.489, 580.256
390.971, 590.613
391.453, 596.019
391.935, 597.679
392.417, 597.627
392.899, 595.746
393.381, 594.990
393.863, 599.085
394.346, 608.559
394.828, 616.898
395.310, 622.795
395.792, 628.336
396.274, 636.366
396.756, 645.387
397.238, 650.053
397.720, 646.718
398.203, 638.568
398.685, 636.791
399.167, 648.443
399.649, 657.275
400.131, 659.011
400.613, 659.875
401.095, 666.090
401.577, 678.146
402.059, 690.660
402.542, 697.421
403.024, 697.985
403.506, 701.099
403.988, 707.377
404.470, 715.649
404.952, 726.459
405.434, 738.530
405.916, 749.628
406.398, 758.240
406.881, 766.525
407.363, 776.229
407.845, 787.389
408.327, 804.171
408.809, 830.972
409.291, 860.833
409.773, 884.213
410.255, 900.699
410.737, 917.221
411.220, 936.019
411.702, 956.269
412.184, 975.934
412.666, 995.093
413.148, 1017.724
413.630, 1047.771
414.112, 1084.416
414.595, 1115.052
415.077, 1132.033
415.559, 1152.955
416.041, 1185.125
416.523, 1222.613
417.005, 1257.666
417.487, 1287.600
417.969, 1315.522
418.451, 1346.298
418.934, 1380.578
419.416, 1415.156
419.898, 1449.726
420.380, 1484.739
420.862, 1520.646
421.344, 1557.264
421.826, 1594.359
422.308, 1631.714
422.790, 1669.285
423.273, 1708.753
423.755, 1752.208
424.237, 1786.850
424.719, 1802.773
425.201, 1811.002
425.683, 1826.551
426.165, 1852.206
426.647, 1872.188
427.129, 1881.512
427.612, 1879.382
428.094, 1862.720
428.576, 1831.094
429.058, 1790.776
429.540, 1744.065
430.022, 1691.556
430.504, 1652.244
430.986, 1642.942
431.469, 1626.405
431.951, 1586.045
432.433, 1531.677
432.915, 1476.630
433.397, 1426.019
433.879, 1380.079
434.361, 1340.232
434.843, 1309.906
435.326, 1275.574
435.808, 1232.778
436.290, 1190.186
436.772, 1150.716
437.254, 1114.212
437.736, 1079.529
438.218, 1045.757
438.700, 1013.355
439.182, 982.750
439.664, 953.365
440.147, 928.099
440.629, 909.472
441.111, 894.539
441.593, 879.817
442.075, 865.379
442.557, 850.319
443.039, 833.297
443.522, 815.820
444.004, 799.396
444.486, 784.242
444.968, 771.766
445.450, 763.052
445.932, 757.959
446.414, 755.340
446.896, 757.636
447.378, 758.986
447.861, 756.862
448.343, 753.633
448.825, 751.778
449.307, 752.089
449.789, 754.364
450.271, 758.880
450.753, 766.192
451.235, 771.709
451.717, 773.059
452.200, 775.300
452.682, 781.931
453.164, 790.468
453.646, 796.822
454.128, 799.882
454.610, 799.004
455.092, 792.018
455.574, 779.293
456.056, 766.868
456.539, 756.868
457.021, 746.948
457.503, 734.414
457.985, 719.557
458.467, 702.024
458.949, 680.300
459.431, 657.029
459.913, 632.507
460.396, 607.912
460.878, 586.431
461.360, 570.174
461.842, 557.602
462.324, 544.514
462.806, 532.079
463.288, 516.937
463.770, 494.641
464.253, 473.185
464.735, 459.688
465.217, 453.196
465.699, 446.368
466.181, 432.615
466.663, 413.934
467.145, 399.527
467.627, 391.111
468.109, 382.189
468.592, 368.811
469.074, 354.328
469.556, 342.693
470.038, 334.793
470.520, 327.254
471.002, 317.902
471.484, 307.672
471.966, 298.754
472.448, 291.421
472.931, 283.215
473.413, 271.505
473.895, 256.676
474.377, 245.721
474.859, 240.075
475.341, 235.841
475.823, 233.118
476.305, 230.833
476.788, 227.538
477.270, 222.963
477.752, 218.374
478.234, 216.033
478.716, 216.430
479.198, 212.346
479.680, 198.892
480.162, 187.571
480.645, 184.044
481.127, 185.059
481.609, 185.680
482.091, 184.378
482.573, 182.420
483.055, 181.048
483.537, 180.056
484.019, 178.559
484.501, 176.361
484.983, 173.606
485.466, 169.898
485.948, 165.175
486.430, 163.042
486.912, 167.219
487.394, 170.261
487.876, 167.772
488.358, 161.811
488.841, 155.825
489.323, 151.199
489.805, 148.010
490.287, 146.772
490.769, 148.448
491.251, 148.711
491.733, 145.746
492.215, 143.081
492.697, 142.151
493.180, 142.569
493.662, 143.660
494.144, 145.789
494.626, 147.198
495.108, 144.795
495.590, 139.033
496.072, 134.498
496.554, 132.570
497.036, 131.812
497.519, 130.690
498.001, 129.202
498.483, 127.547
498.965, 124.322
499.447, 122.259
499.929, 124.126
500.411, 128.360
500.893, 131.585
501.375, 132.299
501.858, 131.179
502.340, 129.202
502.822, 125.551
503.304, 123.303
503.786, 124.448
504.268, 125.194
504.750, 122.859
505.232, 118.865
505.715, 116.852
506.197, 119.394
506.679, 123.195
507.161, 123.410
507.643, 120.350
508.125, 117.773
508.607, 116.831
509.089, 116.512
509.572, 115.831
510.054, 114.839
510.536, 112.797
511.018, 107.229
511.500, 102.881
511.982, 103.649
512.464, 107.657
512.946, 110.814
513.428, 111.326
513.911, 110.179
514.393, 108.868
514.875, 106.968
515.357, 106.330
515.839, 108.641
516.321, 110.622
516.803, 110.730
517.285, 109.467
517.768, 108.020
518.250, 106.831
518.732, 105.688
519.214, 104.169
519.696, 102.410
520.178, 101.128
520.660, 100.477
521.142, 100.471
521.624, 101.257
522.107, 102.943
522.589, 104.472
523.071, 106.295
523.553, 107.477
524.035, 107.144
524.517, 106.027
524.999, 105.016
525.481, 104.489
525.963, 104.857
526.446, 107.427
526.928, 112.869
527.410, 115.264
527.892, 112.886
528.374, 109.718
528.856, 107.732
529.338, 106.258
529.820, 103.969
530.302, 99.996
530.785, 96.488
531.267, 95.268
531.749, 95.736
532.231, 96.849
532.713, 98.457
533.195, 99.446
533.677, 98.478
534.159, 95.632
534.641, 94.814
535.124, 97.296
535.606, 100.046
536.088, 103.937
536.570, 106.974
537.052, 106.709
537.534, 102.901
538.016, 97.815
538.498, 92.826
538.981, 88.275
539.463, 86.817
539.945, 89.181
540.427, 92.392
540.909, 95.760
541.391, 98.810
541.873, 100.770
542.355, 101.358
542.838, 101.789
543.320, 103.484
543.802, 104.659
544.284, 102.143
544.766, 96.629
545.248, 92.849
545.730, 94.127
546.212, 98.764
546.695, 100.584
547.177, 97.627
547.659, 95.571
548.141, 94.224
548.623, 94.367
549.105, 97.427
549.587, 102.625
550.069, 107.218
550.551, 110.346
551.034, 111.516
551.516, 108.858
551.998, 102.864
552.480, 98.334
552.962, 96.719
553.444, 97.426
553.926, 100.554
554.408, 107.274
554.890, 109.651
555.373, 102.971
555.855, 96.843
556.337, 96.905
556.819, 100.268
557.301, 101.850
557.783, 99.795
558.265, 96.213
558.747, 93.181
559.229, 90.635
559.712, 91.500
560.194, 98.178
560.676, 104.084
561.158, 104.062
561.640, 101.233
562.122, 100.657
562.604, 103.795
563.086, 107.317
563.568, 110.865
564.051, 113.230
564.533, 111.861
565.015, 106.918
565.497, 101.727
565.979, 98.762
566.461, 97.764
566.943, 97.355
567.425, 96.990
567.908, 98.247
568.390, 103.574
568.872, 108.608
569.354, 109.851
569.836, 107.663
570.318, 105.104
570.800, 102.858
571.282, 102.001
571.765, 105.399
572.247, 112.366
572.729, 117.173
573.211, 117.706
573.693, 116.025
574.175, 114.587
574.657, 113.315
575.139, 112.885
575.622, 113.080
576.104, 114.294
576.586, 118.003
577.068, 122.354
577.550, 124.660
578.032, 124.082
578.514, 122.084
578.996, 118.968
579.478, 115.276
579.961, 117.325
580.443, 127.939
580.925, 135.617
581.407, 130.836
581.889, 120.044
582.371, 118.725
582.853, 131.526
583.335, 141.917
583.817, 142.844
584.300, 141.013
584.782, 142.432
585.264, 147.148
585.746, 152.796
586.228, 158.149
586.710, 162.628
587.192, 164.245
587.674, 161.886
588.156, 160.960
588.639, 162.367
589.121, 165.175
589.603, 169.016
590.085, 173.692
590.567, 178.568
591.049, 182.587
591.531, 187.910
592.013, 198.304
592.495, 210.583
592.978, 217.679
593.460, 218.317
593.942, 217.568
594.424, 220.373
594.906, 226.404
595.388, 230.338
595.870, 230.342
596.352, 231.026
596.835, 233.342
597.317, 236.464
597.799, 241.020
598.281, 246.373
598.763, 248.592
599.245, 241.817
599.727, 232.765
600.209, 232.550
600.692, 239.454
601.174, 242.997
601.656, 239.130
602.138, 231.709
602.620, 226.096
603.102, 222.794
603.584, 218.793
604.066, 212.725
604.549, 207.612
605.031, 206.025
605.513, 205.220
605.995, 200.516
606.477, 190.928
606.959, 182.852
607.441, 184.107
607.923, 191.150
608.405, 193.736
608.888, 191.268
609.370, 187.839
609.852, 185.163
610.334, 183.104
610.816, 181.289
611.298, 179.308
611.780, 178.632
612.262, 180.981
612.744, 183.010
613.227, 182.321
613.709, 180.011
614.191, 178.550
614.673, 178.997
615.155, 179.805
615.637, 178.332
616.119, 175.108
616.601, 174.652
617.083, 178.189
617.566, 180.937
618.048, 179.042
618.530, 174.363
619.012, 173.094
619.494, 177.530
619.976, 180.681
620.458, 181.033
620.940, 180.037
621.422, 177.718
621.905, 175.045
622.387, 174.352
622.869, 177.139
623.351, 181.400
623.833, 183.952
624.315, 184.794
624.797, 183.736
625.279, 179.781
625.762, 176.185
626.244, 175.850
626.726, 177.949
627.208, 178.714
627.690, 177.570
628.172, 175.854
628.654, 173.576
629.136, 171.126
629.619, 168.511
630.101, 166.014
630.583, 164.651
631.065, 165.500
631.547, 166.817
632.029, 163.788
632.511, 155.794
632.993, 150.318
633.476, 149.122
633.958, 149.965
634.440, 151.978
634.922, 154.688
635.404, 155.817
635.886, 154.495
636.368, 152.439
636.850, 149.911
637.332, 147.127
637.815, 144.212
638.297, 141.261
638.779, 138.470
639.261, 135.888
639.743, 133.705
640.225, 132.680
640.707, 133.050
641.189, 132.576
641.671, 130.393
642.154, 127.893
642.636, 126.761
