##NAMES=Leadhillite
##RRUFFID=R060047
##IDEAL CHEMISTRY=Pb^2+^_4_(S^6+^O_4_)(CO_3_)_2_(OH)_2_
##LOCALITY=Tsumeb mine, Tsumeb, Otavi District, Oshikoto, Namibia
##OWNER=RRUFF
##SOURCE=University of Arizona Mineral Museum
##DESCRIPTION=Grayish-blue cleavage fragment
##STATUS=The identification of this mineral has been confirmed by X-ray diffraction and chemical analysis
##URL=rruff.info/R060047
##MEASURED CHEMISTRY=Pb_4.00_(S_1.00_O_4_)(CO_3_)_2_(OH)_2_
99.88531, 2389.498
100.3674, 2391.181
100.8495, 2397.720
101.3317, 2403.161
101.8138, 2411.340
102.2959, 2423.530
102.7780, 2440.100
103.2601, 2461.224
103.7422, 2487.214
104.2244, 2515.194
104.7065, 2546.274
105.1886, 2577.812
105.6707, 2608.565
106.1528, 2637.996
106.6349, 2666.175
107.1171, 2693.412
107.5992, 2720.487
108.0813, 2745.134
108.5634, 2767.223
109.0455, 2786.343
109.5276, 2802.095
110.0098, 2814.342
110.4919, 2822.849
110.9740, 2827.452
111.4561, 2828.467
111.9382, 2826.113
112.4203, 2819.924
112.9025, 2810.038
113.3846, 2798.174
113.8667, 2785.128
114.3488, 2770.316
114.8309, 2753.056
115.3130, 2732.672
115.7952, 2710.343
116.2773, 2688.217
116.7594, 2668.462
117.2415, 2643.469
117.7236, 2610.087
118.2057, 2570.576
118.6879, 2527.325
119.1700, 2480.907
119.6521, 2431.696
120.1342, 2384.088
120.6163, 2340.385
121.0984, 2296.026
121.5806, 2251.172
122.0627, 2204.991
122.5448, 2155.897
123.0269, 2102.008
123.5090, 2042.110
123.9911, 1985.433
124.4732, 1934.807
124.9554, 1884.402
125.4375, 1830.739
125.9196, 1773.867
126.4017, 1716.123
126.8838, 1659.757
127.3659, 1605.239
127.8481, 1552.815
128.3302, 1502.227
128.8123, 1453.925
129.2944, 1408.358
129.7765, 1365.850
130.2586, 1325.329
130.7408, 1285.605
131.2229, 1246.658
131.7050, 1208.410
132.1871, 1170.306
132.6692, 1132.776
133.1513, 1097.146
133.6335, 1064.015
134.1156, 1033.101
134.5977, 1003.537
135.0798, 975.2443
135.5619, 948.2786
136.0440, 922.8849
136.5262, 899.0768
137.0083, 876.3475
137.4904, 855.3070
137.9725, 834.8540
138.4546, 814.1310
138.9367, 792.9340
139.4189, 772.1043
139.9010, 753.2369
140.3831, 736.7510
140.8652, 722.0207
141.3473, 709.6057
141.8294, 698.3795
142.3116, 687.3665
142.7937, 676.0117
143.2758, 664.5637
143.7579, 653.7411
144.2400, 644.3882
144.7221, 634.8784
145.2043, 624.3581
145.6864, 613.5487
146.1685, 603.8311
146.6506, 596.1141
147.1327, 590.2899
147.6148, 584.2590
148.0970, 577.4202
148.5791, 570.9932
149.0612, 565.2443
149.5433, 560.2762
150.0254, 556.4121
150.5075, 554.2057
150.9896, 553.5779
151.4718, 552.5239
151.9539, 550.2687
152.4360, 548.0031
152.9181, 546.8391
153.4002, 546.9017
153.8823, 547.6042
154.3645, 548.8582
154.8466, 550.4296
155.3287, 551.8049
155.8108, 552.4705
156.2929, 552.8488
156.7750, 553.9913
157.2572, 556.2891
157.7393, 558.7405
158.2214, 560.4357
158.7035, 561.7492
159.1856, 563.5621
159.6677, 566.6581
160.1499, 570.9473
160.6320, 575.0250
161.1141, 579.3109
161.5962, 582.8704
162.0783, 585.3451
162.5604, 586.7980
163.0426, 587.4462
163.5247, 587.3745
164.0068, 586.4240
164.4889, 585.5931
164.9710, 584.9939
165.4531, 584.4250
165.9353, 584.0348
166.4174, 583.7006
166.8995, 582.9556
167.3816, 581.1078
167.8637, 577.2848
168.3458, 574.7189
168.8280, 574.4824
169.3101, 574.6164
169.7922, 573.9389
170.2743, 572.1293
170.7564, 569.3258
171.2385, 565.5676
171.7207, 560.2781
172.2028, 555.3134
172.6849, 551.1124
173.1670, 547.1351
173.6491, 542.7345
174.1312, 537.6705
174.6133, 532.2759
175.0955, 527.1844
175.5776, 522.4733
176.0597, 517.5269
176.5418, 511.6075
177.0239, 505.3232
177.5060, 500.0461
177.9882, 496.4362
178.4703, 493.6571
178.9524, 490.6383
179.4345, 487.4352
179.9166, 483.7694
180.3987, 479.2327
180.8809, 473.9294
181.3630, 468.8708
181.8451, 464.4592
182.3272, 460.3086
182.8093, 455.8645
183.2914, 451.0610
183.7736, 446.7280
184.2557, 443.8747
184.7378, 442.6972
185.2199, 441.4543
185.7020, 439.5521
186.1841, 437.5909
186.6663, 435.9430
187.1484, 434.6815
187.6305, 433.5869
188.1126, 432.4297
188.5947, 431.3804
189.0768, 429.7842
189.5590, 427.0295
190.0411, 424.1116
190.5232, 421.7152
191.0053, 420.0499
191.4874, 418.8116
191.9695, 417.4665
192.4517, 416.3139
192.9338, 414.4881
193.4159, 411.4915
193.8980, 408.1141
194.3801, 404.9360
194.8622, 402.1775
195.3443, 399.8626
195.8265, 398.0357
196.3086, 397.3894
196.7907, 396.4430
197.2728, 395.0092
197.7549, 393.3252
198.2370, 391.6478
198.7192, 390.0859
199.2013, 388.5906
199.6834, 387.0525
200.1655, 385.4341
200.6476, 383.8216
201.1297, 382.3048
201.6119, 380.7925
202.0940, 379.0439
202.5761, 376.8676
203.0582, 374.6212
203.5403, 373.3400
204.0224, 373.2764
204.5046, 373.3766
204.9867, 373.3511
205.4688, 373.2148
205.9509, 372.9783
206.4330, 372.5918
206.9151, 372.1787
207.3973, 372.0524
207.8794, 372.4332
208.3615, 372.5213
208.8436, 371.8248
209.3257, 370.4195
209.8078, 368.6834
210.2900, 366.5904
210.7721, 364.3547
211.2542, 362.2126
211.7363, 360.1385
212.2184, 358.2987
212.7005, 356.9976
213.1827, 356.2355
213.6648, 355.2562
214.1469, 353.5640
214.6290, 351.7264
215.1111, 350.3569
215.5932, 349.5828
216.0754, 348.6981
216.5575, 346.8565
217.0396, 343.9282
217.5217, 340.9521
218.0038, 337.9671
218.4859, 335.1342
218.9680, 332.5923
219.4502, 330.3665
219.9323, 328.3651
220.4144, 326.5557
220.8965, 325.0897
221.3786, 323.2819
221.8607, 320.6572
222.3429, 317.9404
222.8250, 315.6788
223.3071, 313.9516
223.7892, 312.3400
224.2713, 310.1725
224.7534, 307.1309
225.2356, 304.2676
225.7177, 301.6199
226.1998, 299.1340
226.6819, 296.7793
227.1640, 294.5602
227.6461, 292.4930
228.1283, 290.6439
228.6104, 289.1600
229.0925, 287.6146
229.5746, 286.1237
230.0567, 284.5118
230.5388, 282.4606
231.0210, 279.9783
231.5031, 277.5459
231.9852, 275.8945
232.4673, 275.6287
232.9494, 275.0093
233.4315, 273.7942
233.9137, 272.4149
234.3958, 271.1902
234.8779, 270.1955
235.3600, 269.3118
235.8421, 268.4185
236.3242, 267.7437
236.8064, 266.3923
237.2885, 263.9143
237.7706, 261.0368
238.2527, 258.3584
238.7348, 255.9994
239.2169, 253.7704
239.6991, 251.4438
240.1812, 248.9277
240.6633, 246.5928
241.1454, 244.5449
241.6275, 242.6257
242.1096, 240.6452
242.5918, 238.5841
243.0739, 236.5904
243.5560, 234.9737
244.0381, 233.7988
244.5202, 232.1283
245.0023, 229.4307
245.4845, 226.4163
245.9666, 223.7901
246.4487, 221.6514
246.9308, 219.8516
247.4129, 218.4438
247.8950, 217.3548
248.3772, 215.9180
248.8593, 213.7466
249.3414, 211.3080
249.8235, 209.1180
250.3056, 207.2208
250.7877, 205.5223
251.2699, 204.0539
251.7520, 202.7519
252.2341, 201.4035
252.7162, 199.8428
253.1983, 198.2724
253.6804, 197.0344
254.1626, 196.1911
254.6447, 195.3354
255.1268, 194.1665
255.6089, 192.7889
256.0910, 191.3451
256.5731, 189.7766
257.0552, 188.2212
257.5374, 186.9093
258.0195, 185.8964
258.5016, 184.8488
258.9837, 183.5892
259.4658, 182.1738
259.9479, 180.5940
260.4301, 178.6963
260.9122, 176.8421
261.3943, 175.5412
261.8764, 174.8566
262.3585, 174.4009
262.8406, 174.4134
263.3228, 174.4043
263.8049, 173.8775
264.2870, 172.6514
264.7691, 171.0438
265.2512, 169.4307
265.7333, 167.7963
266.2155, 166.2020
266.6976, 164.6161
267.1797, 163.1004
267.6618, 161.7473
268.1439, 160.5902
268.6260, 159.4604
269.1082, 158.1570
269.5903, 156.6574
270.0724, 155.0848
270.5545, 153.2931
271.0366, 151.5528
271.5187, 150.0891
272.0009, 148.9207
272.4830, 147.8030
272.9651, 146.4225
273.4472, 144.7150
273.9293, 143.1176
274.4114, 141.9438
274.8936, 140.6838
275.3757, 138.9484
275.8578, 136.7976
276.3399, 134.6765
276.8220, 133.0457
277.3041, 131.9690
277.7863, 130.9621
278.2684, 130.0886
278.7505, 129.2312
279.2326, 128.3976
279.7147, 127.5564
280.1968, 126.6293
280.6790, 125.5555
281.1611, 124.3289
281.6432, 123.0127
282.1253, 121.2136
282.6074, 119.7122
283.0895, 118.9329
283.5717, 118.6410
284.0538, 118.3357
284.5359, 117.6377
285.0180, 116.5926
285.5001, 115.7335
285.9822, 115.3625
286.4644, 114.8443
286.9465, 113.7717
287.4286, 112.5049
287.9107, 111.6263
288.3928, 111.4955
288.8749, 111.9364
289.3571, 112.1778
289.8392, 112.1255
290.3213, 111.9681
290.8034, 111.6840
291.2855, 111.3372
291.7676, 110.9928
292.2498, 110.6812
292.7319, 110.3916
293.2140, 110.0875
293.6961, 109.6749
294.1782, 109.4075
294.6603, 109.3552
295.1425, 109.4149
295.6246, 109.4771
296.1067, 109.5132
296.5888, 109.6017
297.0709, 109.9076
297.5530, 110.6561
298.0351, 111.1850
298.5172, 111.2175
298.9994, 111.2525
299.4815, 111.7720
299.9636, 112.7811
300.4457, 113.7697
300.9278, 114.0356
301.4099, 113.1915
301.8921, 112.8953
302.3742, 113.5272
302.8563, 114.2780
303.3384, 114.7711
303.8205, 114.9887
304.3026, 115.0717
304.7848, 115.1169
305.2669, 115.0949
305.7490, 115.3660
306.2311, 116.1167
306.7132, 116.9521
307.1953, 117.9208
307.6775, 118.8745
308.1596, 119.5106
308.6417, 119.5840
309.1238, 119.1623
309.6059, 118.9657
310.0880, 119.3501
310.5702, 119.5768
311.0523, 119.4077
311.5344, 119.0255
312.0165, 118.6638
312.4986, 118.4367
312.9807, 118.3587
313.4629, 118.4790
313.9450, 118.9801
314.4271, 119.4601
314.9092, 119.9516
315.3913, 120.3810
315.8734, 120.6358
316.3556, 120.6882
316.8377, 120.6666
317.3198, 120.8124
317.8019, 121.2769
318.2840, 121.6364
318.7661, 121.8362
319.2483, 121.9846
319.7304, 122.1638
320.2125, 122.3819
320.6946, 122.5860
321.1767, 122.7134
321.6588, 122.7497
322.1410, 122.7606
322.6231, 122.7198
323.1052, 122.6818
323.5873, 122.6753
324.0694, 122.6957
324.5515, 122.7026
325.0337, 122.6365
325.5158, 122.4976
325.9979, 122.6653
326.4800, 123.6274
326.9621, 124.3800
327.4442, 124.5324
327.9264, 124.3218
328.4085, 124.1484
328.8906, 124.2406
329.3727, 124.5447
329.8548, 124.8500
330.3369, 125.2545
330.8191, 125.5220
331.3012, 125.4759
331.7833, 125.3562
332.2654, 125.4200
332.7475, 125.7584
333.2296, 126.2554
333.7118, 126.6979
334.1939, 127.0569
334.6760, 127.4110
335.1581, 127.8041
335.6402, 128.1627
336.1223, 128.4043
336.6045, 128.5376
337.0866, 128.6713
337.5687, 128.9548
338.0508, 129.4511
338.5329, 129.7830
339.0150, 129.7975
339.4972, 129.7980
339.9793, 129.8382
340.4614, 129.9609
340.9435, 130.2241
341.4256, 130.6705
341.9077, 131.2975
342.3898, 132.0781
342.8719, 133.4205
343.3541, 134.4469
343.8362, 134.7485
344.3183, 134.6952
344.8004, 134.7813
345.2825, 135.2491
345.7646, 135.9836
346.2468, 136.7050
346.7289, 137.4620
347.2110, 138.1044
347.6931, 138.4770
348.1752, 138.8298
348.6573, 139.3684
349.1395, 140.1425
349.6216, 141.0470
350.1037, 141.9359
350.5858, 142.7611
351.0679, 143.7405
351.5500, 145.2246
352.0322, 146.5697
352.5143, 147.2006
352.9964, 147.3282
353.4785, 147.7958
353.9606, 149.5490
354.4427, 152.4838
354.9249, 154.4365
355.4070, 154.6684
355.8891, 154.8016
356.3712, 155.3492
356.8533, 156.1945
357.3354, 157.1044
357.8176, 157.9302
358.2997, 158.8089
358.7818, 160.1868
359.2639, 162.4679
359.7460, 164.2566
360.2281, 164.7770
360.7103, 164.8805
361.1924, 165.3372
361.6745, 166.3486
362.1566, 167.4117
362.6387, 167.9197
363.1208, 167.8382
363.6030, 167.6183
364.0851, 167.3036
364.5672, 166.8741
365.0493, 166.3259
365.5314, 165.6600
366.0135, 164.8768
366.4957, 163.9664
366.9778, 162.9403
367.4599, 161.7777
367.9420, 160.2868
368.4241, 159.0419
368.9063, 158.6978
369.3884, 158.7632
369.8705, 158.3280
370.3526, 156.7649
370.8347, 154.8419
371.3168, 153.7204
371.7990, 153.4879
372.2811, 153.3563
372.7632, 153.0283
373.2453, 152.6165
373.7274, 152.2622
374.2095, 151.9913
374.6917, 151.7196
375.1738, 151.2998
375.6559, 150.7964
376.1380, 150.5158
376.6201, 150.5227
377.1022, 150.7901
377.5844, 151.2998
378.0665, 152.0295
378.5486, 152.9260
379.0307, 154.1576
379.5128, 155.4695
379.9949, 156.4168
380.4771, 156.9334
380.9592, 157.4401
381.4413, 158.2195
381.9234, 159.2469
382.4055, 160.3691
382.8876, 161.6971
383.3698, 163.0125
383.8519, 164.1796
384.3340, 165.2100
384.8161, 166.1322
385.2982, 166.8837
385.7803, 167.6325
386.2624, 168.7650
386.7445, 170.3422
387.2267, 172.0049
387.7088, 173.8524
388.1909, 175.6660
388.6730, 177.0064
389.1551, 177.7853
389.6372, 178.5885
390.1194, 180.1267
390.6015, 182.5710
391.0836, 184.5569
391.5657, 185.6571
392.0478, 186.6700
392.5299, 188.1103
393.0121, 189.9044
393.4942, 191.6640
393.9763, 193.1281
394.4584, 194.3924
394.9405, 195.9955
395.4226, 198.1500
395.9048, 200.3382
396.3869, 202.3969
396.8690, 204.4874
397.3511, 206.8400
397.8332, 209.5124
398.3153, 212.4024
398.7975, 215.3245
399.2796, 218.2790
399.7617, 221.3469
400.2438, 224.8737
400.7259, 228.2027
401.2080, 230.8433
401.6902, 232.9103
402.1723, 234.8184
402.6544, 236.8576
403.1365, 239.0432
403.6186, 241.5648
404.1007, 244.4814
404.5829, 247.7109
405.0650, 251.4429
405.5471, 255.3820
406.0292, 259.0689
406.5113, 262.3356
406.9934, 265.6389
407.4756, 269.8873
407.9577, 275.3751
408.4398, 280.9151
408.9219, 286.2778
409.4040, 291.7812
409.8861, 297.8909
410.3683, 304.4344
410.8504, 310.5693
411.3325, 315.4439
411.8146, 319.2579
412.2967, 323.3466
412.7788, 327.7170
413.2610, 332.4028
413.7431, 337.8596
414.2252, 343.4959
414.7073, 348.4418
415.1894, 352.3100
415.6715, 355.6779
416.1537, 359.2870
416.6358, 363.1517
417.1179, 366.9914
417.6000, 371.0067
418.0821, 374.6987
418.5642, 377.4747
419.0464, 379.3350
419.5285, 381.3103
420.0106, 384.3875
420.4927, 387.9054
420.9748, 390.2871
421.4569, 391.2401
421.9391, 391.7812
422.4212, 392.4251
422.9033, 393.2632
423.3854, 394.5808
423.8675, 396.5363
424.3496, 398.8609
424.8318, 401.6277
425.3139, 404.6699
425.7960, 407.4684
426.2781, 409.9367
426.7602, 411.7918
427.2423, 412.4182
427.7245, 411.9064
428.2066, 410.2735
428.6887, 407.3239
429.1708, 403.3619
429.6529, 398.3637
430.1350, 392.4795
430.6172, 386.5220
431.0992, 381.2269
431.5814, 376.6393
432.0635, 371.4091
432.5456, 364.8456
433.0277, 358.5616
433.5098, 353.0107
433.9919, 348.0495
434.4741, 343.3803
434.9562, 338.8557
435.4383, 334.5649
435.9204, 330.7278
436.4025, 327.7653
436.8846, 324.3896
437.3668, 320.3466
437.8489, 316.1678
438.3310, 312.1896
438.8131, 308.3870
439.2952, 304.6120
439.7773, 300.8437
440.2595, 297.0019
440.7416, 292.2468
441.2237, 286.1679
441.7058, 279.7098
442.1879, 273.1569
442.6700, 266.4200
443.1522, 259.3109
443.6343, 251.7524
444.1164, 244.0043
444.5985, 236.2257
445.0806, 228.4496
445.5627, 220.8025
446.0449, 213.1973
446.5270, 205.9378
447.0091, 199.1897
447.4912, 192.9027
447.9733, 186.7777
448.4554, 180.3286
448.9376, 174.0547
449.4197, 168.9599
449.9018, 165.1212
450.3839, 161.6577
450.8660, 158.3392
451.3481, 155.0351
451.8303, 151.4956
452.3124, 147.5731
452.7945, 143.7781
453.2766, 140.2578
453.7587, 137.0745
454.2408, 134.4144
454.7230, 132.3601
455.2051, 130.4942
455.6872, 128.4328
456.1693, 126.1508
456.6514, 123.7754
457.1335, 121.0373
457.6157, 118.4467
458.0978, 116.3777
458.5799, 114.6978
459.0620, 113.0562
459.5441, 111.2800
460.0262, 109.4763
460.5084, 107.9434
460.9905, 106.8140
461.4726, 105.7830
461.9547, 105.0232
462.4368, 104.2333
462.9189, 102.9935
463.4011, 101.4262
463.8832, 100.1765
464.3653, 99.86150
464.8474, 100.4101
465.3295, 100.6699
465.8116, 100.5962
466.2938, 100.2533
466.7759, 99.71247
467.2580, 98.90327
467.7401, 97.66275
468.2222, 95.95723
468.7043, 94.07982
469.1865, 92.48638
469.6686, 91.22548
470.1507, 89.61205
470.6328, 87.18597
471.1149, 84.86761
471.5970, 83.27879
472.0792, 82.19489
472.5613, 81.01355
473.0434, 79.45403
473.5255, 77.66373
474.0076, 75.81157
474.4897, 73.89464
474.9719, 72.02210
475.4540, 70.24158
475.9361, 68.52495
476.4182, 66.85492
476.9003, 65.24342
477.3824, 63.58060
477.8645, 61.64694
478.3466, 59.70621
478.8288, 58.15821
479.3109, 57.03661
479.7930, 56.13875
480.2751, 55.33327
480.7572, 54.62230
481.2393, 53.96616
481.7215, 53.61834
482.2036, 53.02565
482.6857, 51.80814
483.1678, 50.34043
483.6499, 49.10489
484.1320, 48.24599
484.6142, 47.60176
485.0963, 46.97036
485.5784, 46.34551
486.0605, 45.76590
486.5426, 45.26512
487.0247, 44.76614
487.5069, 44.23668
487.9890, 43.68917
488.4711, 43.13888
488.9532, 42.59394
489.4353, 42.07476
489.9174, 41.63447
490.3996, 41.28917
490.8817, 40.97333
491.3638, 40.67969
491.8459, 40.41382
492.3280, 40.23146
492.8102, 40.09812
493.2923, 39.86877
493.7744, 39.37789
494.2565, 38.75668
494.7386, 38.31152
495.2207, 38.07014
495.7029, 37.83455
496.1850, 37.49340
496.6671, 37.12006
497.1492, 36.80997
497.6313, 36.55671
498.1134, 36.40866
498.5956, 36.51677
499.0777, 36.70045
499.5598, 36.63052
500.0419, 36.25904
500.5240, 35.84924
501.0061, 35.62197
501.4883, 35.56150
501.9704, 35.43521
502.4525, 35.26568
502.9346, 35.01450
503.4167, 34.55313
503.8988, 34.04761
504.3810, 33.75690
504.8631, 33.74605
505.3452, 33.81733
505.8273, 33.69083
506.3094, 33.29409
506.7915, 33.08273
507.2737, 33.39019
507.7558, 33.52779
508.2379, 33.07802
508.7200, 32.35237
509.2021, 31.89110
509.6842, 31.94755
510.1664, 32.22235
510.6485, 32.17525
511.1306, 31.74059
511.6127, 31.44437
512.0948, 31.46337
512.5769, 31.54061
513.0590, 31.54370
513.5411, 31.46632
514.0233, 31.29859
514.5054, 30.97269
514.9875, 30.59967
515.4696, 30.31730
515.9517, 30.12556
516.4338, 30.02997
516.9160, 30.06227
517.3981, 30.15734
517.8802, 30.23125
518.3623, 30.30732
518.8444, 30.25623
519.3265, 29.88968
519.8087, 29.49598
520.2908, 29.37989
520.7729, 29.51360
521.2550, 29.64665
521.7371, 29.62489
522.2192, 29.46647
522.7014, 29.24177
523.1835, 28.79202
523.6656, 28.49033
524.1477, 28.38826
524.6298, 28.40827
525.1119, 28.55536
525.5941, 28.78371
526.0762, 28.95088
526.5583, 28.92791
527.0404, 28.73919
527.5225, 28.54011
528.0046, 28.28042
528.4868, 28.11087
528.9689, 28.17862
529.4510, 28.29285
529.9331, 28.24625
530.4152, 28.00555
530.8973, 27.78839
531.3795, 27.81937
531.8616, 28.00368
532.3437, 28.03821
532.8258, 27.87074
533.3079, 27.70494
533.7900, 27.67594
534.2722, 27.74999
534.7543, 27.80815
535.2364, 27.84593
535.7185, 27.87261
536.2006, 27.87965
536.6827, 27.88245
537.1649, 27.94129
537.6470, 28.05706
538.1291, 28.07702
538.6112, 27.81029
539.0933, 27.24945
539.5754, 27.03579
540.0576, 27.53370
540.5397, 27.92311
541.0218, 27.96527
541.5039, 27.84291
541.9860, 27.75648
542.4681, 27.76516
542.9503, 27.82233
543.4324, 27.87384
543.9145, 27.91870
544.3966, 27.99874
544.8787, 28.15717
545.3608, 28.28405
545.8430, 28.32076
546.3251, 28.30679
546.8072, 28.29132
547.2893, 28.28560
547.7714, 28.28639
548.2535, 28.30037
548.7357, 28.31949
549.2178, 28.31904
549.6999, 28.29659
550.1820, 28.24015
550.6641, 28.09206
551.1462, 27.88594
551.6284, 27.85875
552.1105, 28.19238
552.5926, 28.50242
553.0747, 28.61616
553.5568, 28.61639
554.0389, 28.63598
554.5211, 28.70661
555.0032, 28.75039
555.4853, 28.66725
555.9674, 28.44117
556.4495, 28.27732
556.9316, 28.23085
557.4138, 28.18571
557.8959, 28.14288
558.3780, 28.07570
558.8601, 27.95326
559.3422, 27.76697
559.8243, 27.53618
560.3065, 27.24320
560.7886, 26.89832
561.2707, 26.69460
561.7528, 26.70047
562.2349, 26.72697
562.7170, 26.59035
563.1992, 26.41520
563.6813, 26.42770
564.1634, 26.74789
564.6455, 27.06323
565.1276, 27.18266
565.6097, 27.16029
566.0919, 27.07339
566.5740, 26.93677
567.0561, 26.82581
567.5382, 26.82218
568.0203, 26.91742
568.5024, 26.90999
568.9846, 26.63017
569.4667, 26.47432
569.9488, 26.58229
570.4309, 26.82419
570.9130, 27.13698
571.3951, 27.46388
571.8773, 27.62350
572.3594, 27.35546
572.8415, 26.70777
573.3236, 26.48761
573.8057, 26.97654
574.2878, 27.39083
574.7700, 27.33636
575.2521, 27.17078
575.7342, 27.29156
576.2163, 27.76742
576.6984, 28.20339
577.1805, 28.28150
577.6627, 28.13935
578.1448, 28.03005
578.6269, 27.96865
579.1090, 28.03047
579.5911, 28.28604
580.0732, 28.68070
580.5554, 29.06794
581.0375, 29.47326
581.5196, 29.81919
582.0017, 30.03644
582.4838, 30.22493
582.9659, 30.43113
583.4481, 30.68568
583.9302, 31.06309
584.4123, 31.63240
584.8944, 32.32467
585.3765, 32.87884
585.8586, 33.16601
586.3408, 33.58076
586.8229, 34.36498
587.3050, 35.11828
587.7871, 35.51419
588.2692, 35.63109
588.7513, 35.84216
589.2334, 36.38503
589.7155, 37.11790
590.1976, 37.82966
590.6797, 38.52304
591.1619, 39.17297
591.6440, 39.71163
592.1261, 40.29536
592.6082, 41.21579
593.0903, 42.47623
593.5724, 43.51816
594.0546, 44.02967
594.5367, 44.52891
595.0188, 45.40760
