##NAMES=Leadhillite
##RRUFFID=R060047
##IDEAL CHEMISTRY=Pb^2+^_4_(S^6+^O_4_)(CO_3_)_2_(OH)_2_
##LOCALITY=Tsumeb mine, Tsumeb, Otavi District, Oshikoto, Namibia
##OWNER=RRUFF
##SOURCE=University of Arizona Mineral Museum
##DESCRIPTION=Grayish-blue cleavage fragment
##STATUS=The identification of this mineral has been confirmed by X-ray diffraction and chemical analysis
##URL=rruff.info/R060047
##MEASURED CHEMISTRY=Pb_4.00_(S_1.00_O_4_)(CO_3_)_2_(OH)_2_
94.79071, 535.7091
95.27283, 527.8365
95.75494, 562.6694
96.23706, 624.7862
96.71918, 696.2266
97.20129, 775.6647
97.68341, 861.6592
98.16553, 952.8358
98.64764, 1048.657
99.12976, 1153.203
99.61188, 1269.044
100.0940, 1392.070
100.5761, 1515.662
101.0582, 1639.774
101.5403, 1761.551
102.0225, 1880.262
102.5046, 1994.682
102.9867, 2106.530
103.4688, 2216.264
103.9509, 2323.007
104.4330, 2428.946
104.9152, 2531.819
105.3973, 2633.981
105.8794, 2734.749
106.3615, 2831.204
106.8436, 2932.809
107.3257, 3041.330
107.8079, 3154.295
108.2900, 3281.736
108.7721, 3426.814
109.2542, 3583.441
109.7363, 3747.997
110.2184, 3923.947
110.7006, 4103.318
111.1827, 4283.705
111.6648, 4466.989
112.1469, 4646.605
112.6290, 4824.800
113.1111, 4996.727
113.5933, 5159.441
114.0754, 5312.700
114.5575, 5454.938
115.0396, 5585.484
115.5217, 5711.386
116.0038, 5817.877
116.4860, 5900.415
116.9681, 5960.489
117.4502, 6003.427
117.9323, 6026.997
118.4144, 6036.229
118.8965, 6034.748
119.3786, 6022.813
119.8608, 6001.100
120.3429, 5970.144
120.8250, 5929.677
121.3071, 5879.344
121.7892, 5813.702
122.2713, 5739.146
122.7535, 5663.345
123.2356, 5589.728
123.7177, 5515.710
124.1998, 5438.444
124.6819, 5356.763
125.1640, 5276.218
125.6462, 5199.437
126.1283, 5126.099
126.6104, 5055.530
127.0925, 4986.958
127.5746, 4920.828
128.0567, 4860.054
128.5389, 4805.205
129.0210, 4750.915
129.5031, 4692.795
129.9852, 4630.748
130.4673, 4565.376
130.9494, 4494.901
131.4316, 4419.608
131.9137, 4328.706
132.3958, 4221.132
132.8779, 4117.649
133.3600, 4010.618
133.8421, 3901.056
134.3243, 3792.270
134.8064, 3684.914
135.2885, 3579.984
135.7706, 3479.541
136.2527, 3383.439
136.7348, 3291.432
137.2170, 3204.542
137.6991, 3121.453
138.1812, 3044.286
138.6633, 2975.537
139.1454, 2915.405
139.6275, 2856.778
140.1097, 2798.717
140.5918, 2741.313
141.0739, 2686.780
141.5560, 2635.103
142.0381, 2586.892
142.5202, 2542.281
143.0023, 2502.088
143.4845, 2464.044
143.9666, 2428.114
144.4487, 2393.973
144.9308, 2362.123
145.4129, 2331.916
145.8951, 2304.304
146.3772, 2279.724
146.8593, 2260.551
147.3414, 2240.893
147.8235, 2219.398
148.3056, 2195.207
148.7878, 2172.517
149.2699, 2150.945
149.7520, 2130.714
150.2341, 2112.307
150.7162, 2094.401
151.1983, 2079.216
151.6805, 2067.610
152.1626, 2061.320
152.6447, 2054.281
153.1268, 2045.363
153.6089, 2035.745
154.0910, 2027.437
154.5732, 2020.445
155.0553, 2014.732
155.5374, 2010.212
156.0195, 2006.343
156.5016, 2004.697
156.9837, 2006.487
157.4659, 2010.644
157.9480, 2014.937
158.4301, 2019.963
158.9122, 2024.235
159.3943, 2027.006
159.8764, 2027.952
160.3586, 2027.778
160.8407, 2025.242
161.3228, 2021.501
161.8049, 2019.777
162.2870, 2023.169
162.7691, 2027.704
163.2513, 2030.750
163.7334, 2030.572
164.2155, 2030.336
164.6976, 2031.871
165.1797, 2034.609
165.6618, 2036.363
166.1440, 2037.268
166.6261, 2036.173
167.1082, 2031.999
167.5903, 2023.057
168.0724, 2012.438
168.5545, 2001.154
169.0367, 1989.420
169.5188, 1978.524
170.0009, 1970.794
170.4830, 1963.902
170.9651, 1954.915
171.4472, 1941.901
171.9293, 1927.319
172.4115, 1912.999
172.8936, 1898.911
173.3757, 1884.505
173.8578, 1869.589
174.3399, 1854.242
174.8220, 1838.416
175.3042, 1821.896
175.7863, 1805.030
176.2684, 1788.255
176.7505, 1771.541
177.2326, 1753.799
177.7147, 1733.437
178.1969, 1711.347
178.6790, 1689.943
179.1611, 1669.774
179.6432, 1650.965
180.1253, 1634.068
180.6074, 1619.277
181.0896, 1605.440
181.5717, 1591.512
182.0538, 1577.741
182.5359, 1564.363
183.0180, 1552.095
183.5001, 1540.410
183.9823, 1528.163
184.4644, 1515.333
184.9465, 1502.841
185.4286, 1492.184
185.9107, 1483.030
186.3928, 1474.166
186.8750, 1464.691
187.3571, 1455.081
187.8392, 1446.742
188.3213, 1439.888
188.8034, 1433.762
189.2855, 1427.542
189.7677, 1421.280
190.2498, 1415.236
190.7319, 1410.054
191.2140, 1405.409
191.6961, 1399.248
192.1782, 1391.220
192.6604, 1382.745
193.1425, 1376.421
193.6246, 1372.262
194.1067, 1367.770
194.5888, 1361.501
195.0709, 1353.696
195.5531, 1346.432
196.0352, 1339.883
196.5173, 1333.456
196.9994, 1325.756
197.4815, 1316.627
197.9636, 1308.114
198.4458, 1301.259
198.9279, 1296.069
199.4100, 1291.011
199.8921, 1285.861
200.3742, 1281.014
200.8563, 1277.705
201.3385, 1276.277
201.8206, 1274.071
202.3027, 1269.252
202.7848, 1261.509
203.2669, 1254.966
203.7490, 1249.802
204.2311, 1245.762
204.7133, 1242.567
205.1954, 1240.457
205.6775, 1238.280
206.1596, 1235.285
206.6417, 1231.253
207.1238, 1228.231
207.6060, 1226.972
208.0881, 1226.080
208.5702, 1221.959
209.0523, 1213.509
209.5344, 1205.201
210.0165, 1199.635
210.4987, 1197.680
210.9808, 1194.105
211.4629, 1188.347
211.9450, 1181.227
212.4271, 1174.543
212.9092, 1168.190
213.3914, 1162.502
213.8735, 1157.869
214.3556, 1154.814
214.8377, 1150.986
215.3198, 1146.355
215.8019, 1140.946
216.2841, 1134.890
216.7662, 1128.007
217.2483, 1120.825
217.7304, 1113.506
218.2125, 1106.024
218.6946, 1098.715
219.1768, 1091.444
219.6589, 1084.458
220.1410, 1078.257
220.6231, 1073.686
221.1052, 1068.298
221.5873, 1060.526
222.0695, 1049.013
222.5516, 1039.250
223.0337, 1031.982
223.5158, 1026.239
223.9979, 1019.037
224.4800, 1009.228
224.9622, 1000.041
225.4443, 993.2967
225.9264, 990.4833
226.4085, 986.1057
226.8906, 979.5475
227.3727, 971.6704
227.8549, 964.1832
228.3370, 957.4562
228.8191, 950.6302
229.3012, 943.1064
229.7833, 934.2239
230.2654, 926.6243
230.7476, 920.7998
231.2297, 916.1328
231.7118, 911.1318
232.1939, 905.1456
232.6760, 899.9023
233.1581, 896.3231
233.6402, 895.5850
234.1224, 893.2643
234.6045, 888.5729
235.0866, 882.5576
235.5687, 877.5006
236.0508, 873.7131
236.5329, 870.3091
237.0151, 867.1688
237.4972, 864.7720
237.9793, 861.1193
238.4614, 855.5288
238.9435, 848.9529
239.4256, 843.2220
239.9078, 838.8693
240.3899, 834.6237
240.8720, 830.1445
241.3541, 825.5382
241.8362, 820.3659
242.3183, 814.2596
242.8005, 807.7676
243.2826, 801.7352
243.7647, 796.2116
244.2468, 791.1979
244.7289, 786.7624
245.2110, 783.0198
245.6932, 779.4325
246.1753, 776.2267
246.6574, 773.0251
247.1395, 769.0346
247.6216, 763.2272
248.1037, 758.4858
248.5859, 755.9800
249.0680, 756.3029
249.5501, 755.5704
250.0322, 753.0353
250.5143, 750.0145
250.9964, 748.4491
251.4786, 749.4485
251.9607, 749.8456
252.4428, 748.6031
252.9249, 745.4766
253.4070, 742.9476
253.8891, 741.1903
254.3713, 739.8760
254.8534, 738.5282
255.3355, 736.7587
255.8176, 735.8107
256.2997, 736.2106
256.7818, 738.0460
257.2639, 739.4335
257.7461, 740.4506
258.2282, 740.9349
258.7103, 740.4899
259.1924, 738.3299
259.6745, 737.1000
260.1566, 737.7650
260.6388, 740.2522
261.1209, 741.3088
261.6030, 740.4005
262.0851, 738.8192
262.5672, 737.8436
263.0493, 737.9039
263.5315, 737.3727
264.0136, 735.8124
264.4957, 733.3651
264.9778, 731.2701
265.4599, 729.8387
265.9420, 728.2708
266.4242, 725.8989
266.9063, 722.4806
267.3884, 718.9978
267.8705, 715.6132
268.3526, 712.2833
268.8347, 708.8210
269.3169, 705.5167
269.7990, 701.4879
270.2811, 695.9029
270.7632, 688.4381
271.2453, 680.9132
271.7274, 673.4905
272.2096, 666.0901
272.6917, 658.0474
273.1738, 649.0803
273.6559, 640.0421
274.1380, 631.4792
274.6201, 623.3922
275.1023, 615.2950
275.5844, 607.0953
276.0665, 598.9655
276.5486, 591.2251
277.0307, 584.2096
277.5128, 576.3899
277.9950, 566.1960
278.4771, 553.2864
278.9592, 543.0712
279.4413, 536.2729
279.9234, 531.2700
280.4055, 525.0270
280.8877, 517.3405
281.3698, 509.7308
281.8519, 502.9349
282.3340, 496.9456
282.8161, 490.9879
283.2982, 485.0483
283.7804, 479.1260
284.2625, 473.2235
284.7446, 467.3002
285.2267, 461.6882
285.7088, 456.4709
286.1909, 451.6581
286.6731, 447.3885
287.1552, 443.7065
287.6373, 440.3641
288.1194, 437.1961
288.6015, 434.1804
289.0836, 431.1552
289.5658, 427.9825
290.0479, 424.7743
290.5300, 421.8854
291.0121, 419.3400
291.4942, 417.1437
291.9763, 415.5112
292.4585, 414.3469
292.9406, 412.9247
293.4227, 410.8410
293.9048, 408.5543
294.3869, 407.3060
294.8690, 407.0897
295.3512, 406.8340
295.8333, 405.2202
296.3154, 402.7776
296.7975, 401.3230
297.2796, 401.5957
297.7617, 402.5146
298.2439, 402.1362
298.7260, 400.6460
299.2081, 399.4776
299.6902, 400.0866
300.1723, 401.6862
300.6544, 402.4916
301.1366, 401.9805
301.6187, 401.2875
302.1008, 402.0052
302.5829, 403.7919
303.0650, 405.3846
303.5471, 405.8238
304.0293, 405.6821
304.5114, 405.8022
304.9935, 406.2994
305.4756, 406.8603
305.9577, 406.9348
306.4398, 406.8301
306.9220, 407.2570
307.4041, 409.1894
307.8862, 411.4575
308.3683, 412.9565
308.8504, 413.6058
309.3326, 413.7536
309.8147, 412.9905
310.2968, 412.0087
310.7789, 411.8346
311.2610, 413.6986
311.7431, 415.9391
312.2252, 417.4258
312.7073, 418.1752
313.1895, 418.5421
313.6716, 418.7429
314.1537, 418.6696
314.6358, 418.1923
315.1179, 416.9540
315.6000, 415.6527
316.0822, 414.4557
316.5643, 413.4380
317.0464, 412.9072
317.5285, 413.0214
318.0106, 413.6549
318.4927, 414.8000
318.9749, 416.9258
319.4570, 418.7510
319.9391, 419.7838
320.4212, 420.1644
320.9033, 420.2549
321.3854, 419.9912
321.8676, 419.5886
322.3497, 419.0865
322.8318, 418.3660
323.3139, 417.9075
323.7960, 417.9451
324.2781, 418.2754
324.7603, 418.6043
325.2424, 418.7476
325.7245, 419.0172
326.2066, 419.6520
326.6887, 420.8030
327.1708, 421.4762
327.6530, 421.0127
328.1351, 420.3125
328.6172, 420.1978
329.0993, 421.4880
329.5814, 422.5045
330.0635, 422.9283
330.5457, 422.7823
331.0278, 422.7720
331.5099, 422.9105
331.9920, 423.1747
332.4741, 423.5590
332.9562, 424.2227
333.4384, 424.7184
333.9205, 424.8187
334.4026, 424.7168
334.8847, 425.1441
335.3668, 426.2159
335.8489, 427.6479
336.3311, 429.3531
336.8132, 431.4759
337.2953, 433.5418
337.7774, 435.7474
338.2595, 437.7230
338.7416, 438.4194
339.2238, 437.1411
339.7059, 436.6877
340.1880, 438.4787
340.6701, 442.6303
341.1522, 445.4819
341.6343, 446.7716
342.1165, 447.3971
342.5986, 448.1826
343.0807, 449.0701
343.5628, 450.8427
344.0449, 454.0225
344.5270, 458.2164
345.0092, 461.8521
345.4913, 464.9065
345.9734, 467.7957
346.4555, 470.9048
346.9376, 474.1851
347.4197, 477.4384
347.9019, 480.5267
348.3840, 483.6566
348.8661, 487.4479
349.3482, 491.8389
349.8303, 496.2451
350.3124, 500.2865
350.7946, 504.0853
351.2767, 507.9389
351.7588, 511.8825
352.2409, 516.0591
352.7230, 520.8734
353.2051, 526.1329
353.6873, 531.3704
354.1694, 536.0267
354.6515, 540.6396
355.1336, 546.0351
355.6157, 552.3223
356.0978, 558.6219
356.5800, 564.6814
357.0621, 570.2987
357.5442, 575.1471
358.0263, 578.5548
358.5084, 581.6715
358.9905, 585.4208
359.4727, 589.6813
359.9548, 593.9075
360.4369, 597.5059
360.9190, 601.0509
361.4011, 605.1133
361.8832, 610.3125
362.3654, 615.0626
362.8475, 618.7448
363.3296, 621.4733
363.8117, 623.4978
364.2938, 625.0181
364.7759, 625.7355
365.2581, 625.4127
365.7402, 623.8871
366.2223, 621.9373
366.7044, 619.5962
367.1865, 616.9716
367.6686, 614.1432
368.1508, 610.9255
368.6329, 607.7520
369.1150, 604.7429
369.5971, 601.9041
370.0792, 598.9968
370.5613, 595.7786
371.0435, 592.6980
371.5256, 590.0467
372.0077, 588.1069
372.4898, 586.1318
372.9719, 583.8006
373.4540, 581.4126
373.9361, 580.0289
374.4182, 580.3801
374.9004, 580.5533
375.3825, 579.5480
375.8646, 576.8827
376.3467, 575.2214
376.8288, 574.8917
377.3109, 575.1229
377.7931, 574.5880
378.2752, 572.9313
378.7573, 572.1268
379.2394, 572.8966
379.7215, 575.0485
380.2036, 577.4600
380.6858, 580.1884
381.1679, 582.6965
381.6500, 584.1913
382.1321, 584.7963
382.6142, 585.8638
383.0963, 587.6425
383.5785, 590.0276
384.0606, 593.1616
384.5427, 596.9251
385.0248, 600.5199
385.5069, 602.9716
385.9890, 604.9154
386.4712, 607.8016
386.9533, 611.7887
387.4354, 616.4033
387.9175, 621.4812
388.3996, 626.7151
388.8817, 631.4465
389.3639, 634.6694
389.8460, 637.6166
390.3281, 641.6390
390.8102, 646.6695
391.2923, 651.8893
391.7744, 657.0707
392.2566, 662.0753
392.7387, 666.7535
393.2208, 670.4127
393.7029, 674.7064
394.1850, 680.9752
394.6671, 688.6074
395.1493, 696.0424
395.6314, 702.8251
396.1135, 709.1539
396.5956, 714.9639
397.0777, 720.0081
397.5598, 725.7242
398.0420, 732.7384
398.5241, 740.4875
399.0062, 748.3213
399.4883, 756.4278
399.9704, 764.3462
400.4525, 771.5934
400.9347, 778.2368
401.4168, 785.7330
401.8989, 794.4352
402.3810, 803.6575
402.8631, 812.9847
403.3452, 822.2139
403.8274, 831.9496
404.3095, 842.0007
404.7916, 852.5812
405.2737, 864.1834
405.7558, 877.1268
406.2379, 890.3669
406.7201, 903.3670
407.2022, 916.0573
407.6843, 930.7675
408.1664, 947.9790
408.6485, 965.6930
409.1306, 981.1032
409.6128, 994.2750
410.0949, 1007.617
410.5770, 1021.248
411.0591, 1035.858
411.5412, 1053.386
412.0233, 1073.946
412.5055, 1095.244
412.9876, 1116.212
413.4697, 1136.726
413.9518, 1156.204
414.4339, 1174.303
414.9160, 1191.714
415.3982, 1209.213
415.8803, 1226.402
416.3624, 1243.162
416.8445, 1259.773
417.3266, 1275.603
417.8087, 1290.035
418.2909, 1302.997
418.7730, 1315.748
419.2551, 1328.864
419.7372, 1342.126
420.2193, 1355.134
420.7014, 1367.557
421.1836, 1380.064
421.6657, 1392.422
422.1478, 1404.928
422.6299, 1418.527
423.1120, 1433.384
423.5941, 1449.455
424.0763, 1466.926
424.5584, 1486.773
425.0405, 1504.914
425.5226, 1521.396
426.0047, 1535.746
426.4868, 1547.362
426.9690, 1556.550
427.4511, 1562.604
427.9332, 1565.103
428.4153, 1564.273
428.8974, 1561.366
429.3795, 1557.310
429.8617, 1549.727
430.3438, 1537.366
430.8259, 1519.751
431.3080, 1498.528
431.7901, 1472.885
432.2722, 1444.945
432.7544, 1416.920
433.2365, 1388.964
433.7186, 1360.653
434.2007, 1331.546
434.6828, 1302.029
435.1649, 1273.231
435.6470, 1245.097
436.1292, 1218.574
436.6113, 1195.003
437.0934, 1173.716
437.5755, 1152.728
438.0576, 1131.767
438.5397, 1110.814
439.0219, 1089.756
439.5040, 1068.582
439.9861, 1047.707
440.4682, 1027.930
440.9503, 1007.968
441.4324, 986.9399
441.9146, 964.7990
442.3967, 940.7625
442.8788, 913.1083
443.3609, 883.6469
443.8430, 854.8788
444.3251, 826.7018
444.8073, 799.5717
445.2894, 773.5197
445.7715, 748.6178
446.2536, 725.0590
446.7357, 702.6093
447.2178, 681.6629
447.7000, 662.6107
448.1821, 645.7492
448.6642, 629.2240
449.1463, 612.5347
449.6284, 596.4565
450.1105, 581.5223
450.5927, 567.9633
451.0748, 555.0862
451.5569, 542.6515
452.0390, 530.8275
452.5211, 519.8928
453.0032, 510.1992
453.4854, 500.7234
453.9675, 490.7769
454.4496, 480.2106
454.9317, 471.3196
455.4138, 464.4169
455.8959, 458.5128
456.3781, 452.5367
456.8602, 446.4813
457.3423, 440.4764
457.8244, 434.6965
458.3065, 428.9205
458.7886, 422.7724
459.2708, 416.2203
459.7529, 409.7856
460.2350, 403.4268
460.7171, 397.4061
461.1992, 392.0517
461.6813, 387.5048
462.1635, 383.2654
462.6456, 378.9912
463.1277, 374.7286
463.6098, 370.5239
464.0919, 366.3533
464.5740, 362.2969
465.0562, 358.3235
465.5383, 354.4616
466.0204, 350.7933
466.5025, 347.6078
466.9846, 344.3726
467.4667, 340.8961
467.9489, 337.4909
468.4310, 333.1252
468.9131, 327.0848
469.3952, 320.3292
469.8773, 314.1397
470.3594, 309.0613
470.8416, 303.5612
471.3237, 297.1307
471.8058, 289.9671
472.2879, 283.3829
472.7700, 277.6791
473.2521, 271.8615
473.7343, 265.1216
474.2164, 257.3603
474.6985, 250.4662
475.1806, 244.6567
475.6627, 239.4035
476.1448, 233.8445
476.6270, 228.0335
477.1091, 222.4342
477.5912, 217.2215
478.0733, 212.3150
478.5554, 207.5714
479.0375, 202.9746
479.5197, 198.6023
480.0018, 194.3570
480.4839, 190.3731
480.9660, 186.8728
481.4481, 183.9569
481.9302, 181.2426
482.4124, 178.5325
482.8945, 175.8451
483.3766, 173.2017
483.8587, 170.6371
484.3408, 168.0662
484.8229, 165.3151
485.3051, 162.4357
485.7872, 159.9664
486.2693, 158.3608
486.7514, 156.8858
487.2335, 155.2159
487.7156, 153.3826
488.1978, 151.1913
488.6799, 148.1586
489.1620, 145.0615
489.6441, 143.0476
490.1262, 142.5840
490.6083, 141.9451
491.0905, 140.6731
491.5726, 138.9662
492.0547, 137.7258
492.5368, 137.0242
493.0189, 136.4538
493.5010, 135.9036
493.9832, 135.3252
494.4653, 134.2179
494.9474, 132.4820
495.4295, 130.6565
495.9116, 129.3224
496.3937, 128.3853
496.8758, 127.6338
497.3579, 127.0684
497.8401, 126.5616
498.3222, 125.9173
498.8043, 125.1895
499.2864, 124.5751
499.7685, 124.3941
500.2506, 124.2163
500.7328, 123.6962
501.2149, 122.7532
501.6970, 121.7630
502.1791, 120.7689
502.6612, 119.8410
503.1433, 119.0458
503.6255, 118.6119
504.1076, 118.0573
504.5897, 117.0363
505.0718, 115.8404
505.5539, 115.3817
506.0360, 116.3138
506.5182, 116.9938
507.0003, 116.7197
507.4824, 115.4141
507.9645, 114.6378
508.4466, 114.5844
508.9287, 114.6176
509.4109, 114.0193
509.8930, 112.7970
510.3751, 111.9580
510.8572, 111.7235
511.3393, 111.7699
511.8214, 111.5766
512.3036, 111.1716
512.7857, 110.7093
513.2678, 110.2903
513.7499, 109.8443
514.2321, 109.1479
514.7142, 108.2439
515.1963, 107.5767
515.6784, 107.8520
516.1605, 108.2929
516.6426, 108.0642
517.1248, 106.6868
517.6069, 105.4730
518.0890, 105.1912
518.5711, 105.3322
519.0532, 105.1670
519.5353, 104.1088
520.0175, 103.2032
520.4996, 102.7019
520.9817, 102.5749
521.4638, 102.6061
521.9459, 103.0445
522.4280, 103.3120
522.9102, 103.0498
523.3923, 102.0765
523.8744, 101.4728
524.3565, 101.3406
524.8386, 101.3613
525.3207, 101.1075
525.8029, 100.5828
526.2849, 100.1804
526.7670, 99.98339
527.2491, 99.96779
527.7313, 100.3088
528.2134, 100.8991
528.6955, 101.0991
529.1776, 100.0893
529.6597, 98.69116
530.1418, 98.05505
530.6240, 98.23143
531.1061, 98.46902
531.5882, 98.21587
532.0703, 97.81856
532.5524, 97.63413
533.0345, 97.94449
533.5167, 98.11536
533.9988, 97.72001
534.4809, 97.08920
534.9630, 96.78784
535.4451, 97.36993
535.9272, 97.76265
536.4094, 97.65214
536.8915, 97.08870
537.3736, 96.75697
537.8557, 96.81351
538.3378, 96.83635
538.8199, 96.47493
539.3021, 95.60384
539.7842, 95.41250
540.2663, 96.09730
540.7484, 96.94344
541.2305, 96.97841
541.7126, 96.30348
542.1948, 95.71681
542.6769, 95.40593
543.1590, 95.31643
543.6411, 95.49546
544.1232, 95.86718
544.6053, 96.14569
545.0875, 96.18039
545.5696, 96.04977
546.0517, 95.81177
546.5338, 95.47108
547.0159, 95.06107
547.4980, 94.36115
547.9802, 93.73793
548.4623, 93.49837
548.9444, 93.96443
549.4265, 94.33426
549.9086, 94.40165
550.3907, 94.33409
550.8729, 94.37980
551.3550, 94.63704
551.8371, 94.83321
552.3192, 94.88173
552.8013, 94.82081
553.2834, 94.85345
553.7656, 94.98170
554.2477, 95.19180
554.7298, 95.61629
555.2119, 96.19426
555.6940, 96.22971
556.1761, 95.67312
556.6583, 94.96605
557.1404, 94.42094
557.6225, 94.06921
558.1046, 94.03031
558.5867, 94.42713
559.0688, 94.91170
559.5510, 95.20277
560.0331, 95.34984
560.5152, 95.45580
560.9973, 95.69279
561.4794, 95.78127
561.9615, 95.43032
562.4437, 94.71080
562.9258, 94.27492
563.4079, 94.64314
563.8900, 94.99156
564.3721, 94.83764
564.8542, 93.84370
565.3364, 93.51134
565.8185, 94.12316
566.3006, 95.05891
566.7827, 95.75357
567.2648, 96.21322
567.7469, 96.30130
568.2291, 95.85051
568.7112, 95.23152
569.1933, 95.26736
569.6754, 95.89945
570.1575, 96.47887
570.6396, 96.70335
571.1218, 96.69826
571.6039, 96.57526
572.0860, 96.36101
572.5681, 96.25454
573.0502, 96.37459
573.5323, 96.67040
574.0145, 97.17674
574.4966, 97.97070
574.9787, 98.57095
575.4608, 98.49210
575.9429, 98.26409
576.4250, 98.40514
576.9072, 99.21772
577.3893, 100.1345
577.8714, 101.2127
578.3535, 102.3334
578.8356, 103.1395
579.3177, 103.4232
579.7999, 103.9166
580.2820, 104.9433
580.7641, 106.3930
581.2462, 107.4949
581.7283, 108.2134
582.2104, 108.9425
582.6926, 109.9691
583.1747, 111.2287
583.6568, 112.5161
584.1389, 113.8222
584.6210, 115.2324
585.1031, 116.9168
585.5853, 118.7190
586.0674, 120.3847
586.5495, 121.7113
587.0316, 123.1044
587.5137, 124.8031
587.9958, 126.7168
588.4780, 128.6817
588.9601, 130.5530
589.4422, 132.5783
589.9243, 134.8909
