##NAMES=Lefontite
##RRUFFID=R140428
##IDEAL CHEMISTRY=Fe^2+^_2_Al_2_Be(PO_4_)_2_(OH)_6_
##LOCALITY=João Teodoro mine, Linópolis district, Divino das Laranjeiras, Minas Gerais, Brazil
##OWNER=RRUFF
##SOURCE=Michael Scott
##DESCRIPTION=Brown prismatic crystals, associated with light-brown greifensteinite (R060588), dark green acicular gormanite (R080075), and white fine-grained leucophosphite. Type sample.
##STATUS=The identification of this mineral is confirmed by single-crystal X-ray diffraction and chemical analysis.
##URL=rruff.info/R140428
##MEASURED CHEMISTRY=(Fe_1.51_Mn_0.39_Mg_0.06_Ca_0.03_)_Σ=1.99_Al_1.99_(Be_1.02_Li_0.08_)(P_0.99_O_4_)_2_(OH)_6_ ; The BeO and Li2O were determined by ICP-MS.
110.5142, 857.7433
110.9963, 862.6818
111.4785, 868.0540
111.9606, 874.7025
112.4427, 882.5611
112.9248, 889.2663
113.4069, 894.1853
113.8890, 898.0263
114.3712, 901.4122
114.8533, 905.3829
115.3354, 908.0843
115.8175, 908.6232
116.2996, 906.8513
116.7817, 904.6674
117.2639, 902.6738
117.7460, 900.6659
118.2281, 898.3828
118.7102, 895.3638
119.1923, 892.2734
119.6744, 889.5081
120.1566, 887.1061
120.6387, 884.9312
121.1208, 882.7678
121.6029, 880.7471
122.0850, 879.1786
122.5671, 878.7495
123.0493, 878.5764
123.5314, 877.6660
124.0135, 875.6264
124.4956, 873.3142
124.9777, 871.4833
125.4598, 870.0433
125.9420, 868.7492
126.4241, 867.6595
126.9062, 866.5616
127.3883, 864.9726
127.8704, 862.4678
128.3525, 859.8390
128.8347, 858.4949
129.3168, 858.3653
129.7989, 858.3083
130.2810, 857.4506
130.7631, 855.9052
131.2452, 854.0460
131.7274, 851.7480
132.2095, 849.3142
132.6916, 847.7755
133.1737, 847.2601
133.6558, 846.7341
134.1379, 844.7361
134.6201, 841.3068
135.1022, 838.7803
135.5843, 838.2480
136.0664, 839.3708
136.5485, 839.4706
137.0306, 838.2698
137.5128, 836.7013
137.9949, 835.9487
138.4770, 836.1859
138.9591, 836.3682
139.4412, 836.2668
139.9233, 835.9051
140.4055, 834.6560
140.8876, 831.9711
141.3697, 828.9250
141.8518, 827.4177
142.3339, 828.0793
142.8160, 828.8372
143.2982, 828.9084
143.7803, 828.0125
144.2624, 827.2822
144.7445, 826.5514
145.2266, 826.0504
145.7087, 826.3919
146.1909, 828.2743
146.6730, 830.1343
147.1551, 831.4575
147.6372, 832.7122
148.1193, 832.5898
148.6014, 829.9480
149.0836, 825.7849
149.5657, 823.4626
150.0478, 824.5016
150.5299, 826.2057
151.0120, 827.4141
151.4941, 827.3417
151.9763, 827.6702
152.4584, 828.5878
152.9405, 829.9857
153.4226, 831.3518
153.9047, 832.7804
154.3868, 834.0713
154.8690, 835.1139
155.3511, 835.6061
155.8332, 836.1511
156.3153, 836.8610
156.7974, 837.7197
157.2795, 838.5782
157.7617, 839.1945
158.2438, 839.9241
158.7259, 841.0253
159.2080, 842.7395
159.6901, 844.6796
160.1722, 846.8753
160.6544, 849.3087
161.1365, 851.5751
161.6186, 852.9089
162.1007, 854.2529
162.5828, 856.5105
163.0649, 861.5053
163.5471, 866.1662
164.0292, 868.5667
164.5113, 868.6339
164.9934, 869.1732
165.4755, 872.3271
165.9576, 876.5610
166.4398, 879.9373
166.9219, 881.0842
167.4040, 881.6021
167.8861, 882.3516
168.3682, 883.3666
168.8503, 884.8235
169.3325, 887.0386
169.8146, 889.7658
170.2967, 892.5687
170.7788, 895.5489
171.2609, 898.4084
171.7430, 900.7512
172.2252, 902.5226
172.7073, 904.2322
173.1894, 905.8730
173.6715, 907.7513
174.1536, 910.4662
174.6357, 915.5358
175.1179, 921.1384
175.6000, 924.8670
176.0821, 926.2743
176.5642, 927.0345
177.0463, 928.5165
177.5284, 930.6322
178.0106, 933.0807
178.4927, 936.0295
178.9748, 939.1490
179.4569, 941.7047
179.9390, 943.5341
180.4211, 945.2804
180.9033, 947.8073
181.3854, 951.0042
181.8675, 954.2448
182.3496, 957.3143
182.8317, 960.1635
183.3138, 962.7073
183.7960, 964.7723
184.2781, 966.9167
184.7602, 970.2560
185.2423, 974.6390
185.7244, 978.5579
186.2065, 980.7736
186.6887, 981.7155
187.1708, 983.0346
187.6529, 984.8964
188.1350, 987.1863
188.6171, 989.9673
189.0992, 993.2349
189.5814, 996.0725
190.0635, 997.5599
190.5456, 997.9495
191.0277, 998.9493
191.5098, 1001.011
191.9919, 1003.385
192.4741, 1004.283
192.9562, 1003.641
193.4383, 1002.907
193.9204, 1003.096
194.4025, 1004.156
194.8846, 1005.211
195.3668, 1006.119
195.8489, 1007.005
196.3310, 1008.503
196.8131, 1010.785
197.2952, 1012.343
197.7773, 1011.626
198.2595, 1008.546
198.7416, 1006.550
199.2237, 1006.373
199.7058, 1007.289
200.1879, 1007.212
200.6700, 1005.956
201.1522, 1004.586
201.6343, 1004.069
202.1164, 1004.576
202.5985, 1004.135
203.0806, 1002.228
203.5627, 999.3788
204.0449, 997.3803
204.5270, 996.4710
205.0091, 995.6054
205.4912, 993.8693
205.9733, 991.0046
206.4554, 988.8459
206.9376, 987.8088
207.4197, 987.5715
207.9018, 986.8828
208.3839, 985.6705
208.8660, 984.1992
209.3481, 982.5524
209.8303, 980.5953
210.3124, 979.1357
210.7945, 978.4876
211.2766, 978.3878
211.7587, 977.6298
212.2408, 975.9640
212.7230, 974.1714
213.2051, 972.7366
213.6872, 971.7180
214.1693, 970.7838
214.6514, 969.7587
215.1335, 968.7688
215.6157, 968.7177
216.0978, 970.2818
216.5799, 971.4776
217.0620, 970.7706
217.5441, 967.2575
218.0262, 964.4286
218.5084, 962.7294
218.9905, 961.9529
219.4726, 961.1096
219.9547, 960.0133
220.4368, 959.1630
220.9189, 959.0955
221.4011, 960.5283
221.8832, 960.8312
222.3653, 959.3741
222.8474, 956.6386
223.3295, 954.7027
223.8116, 953.8713
224.2938, 953.4349
224.7759, 953.0172
225.2580, 952.6727
225.7401, 952.2131
226.2222, 951.6472
226.7043, 950.9453
227.1865, 949.9096
227.6686, 948.2845
228.1507, 946.7185
228.6328, 945.6593
229.1149, 945.4574
229.5970, 944.9269
230.0792, 943.8834
230.5613, 942.4677
231.0434, 941.2750
231.5255, 940.4969
232.0076, 939.7166
232.4897, 938.6951
232.9719, 937.2435
233.4540, 936.0367
233.9361, 935.2040
234.4182, 934.6358
234.9003, 933.9449
235.3824, 933.2181
235.8646, 932.2443
236.3467, 930.8068
236.8288, 928.3600
237.3109, 926.6947
237.7930, 926.2958
238.2751, 926.6130
238.7573, 925.8792
239.2394, 923.1168
239.7215, 920.6705
240.2036, 919.7433
240.6857, 921.4792
241.1678, 922.0653
241.6500, 921.0498
242.1321, 918.9987
242.6142, 917.3040
243.0963, 916.0233
243.5784, 915.0333
244.0605, 914.3655
244.5427, 914.2810
245.0248, 913.8333
245.5069, 912.8680
245.9890, 911.6111
246.4711, 910.6187
246.9532, 910.2095
247.4354, 909.5459
247.9175, 908.2013
248.3996, 905.7675
248.8817, 904.0265
249.3638, 903.2227
249.8459, 902.9942
250.3281, 902.6936
250.8102, 902.3353
251.2923, 901.9024
251.7744, 901.3255
252.2565, 900.4978
252.7386, 900.0507
253.2208, 900.1370
253.7029, 900.4944
254.1850, 900.7191
254.6671, 900.7657
255.1492, 900.7409
255.6313, 900.6625
256.1135, 900.5188
256.5956, 900.2933
257.0777, 899.9027
257.5598, 899.4792
258.0419, 899.2752
258.5240, 899.5320
259.0062, 899.3973
259.4883, 898.3409
259.9704, 896.2412
260.4525, 895.4439
260.9346, 896.5624
261.4167, 898.2368
261.8989, 898.9124
262.3810, 898.3531
262.8631, 897.3990
263.3452, 895.9713
263.8273, 894.0778
264.3094, 893.5770
264.7916, 895.0934
265.2737, 897.0287
265.7558, 897.7088
266.2379, 896.6389
266.7200, 896.0001
267.2021, 896.4479
267.6843, 897.8027
268.1664, 898.2412
268.6485, 897.5034
269.1306, 896.3716
269.6127, 895.3766
270.0948, 894.4196
270.5770, 894.0097
271.0591, 894.3326
271.5412, 895.2401
272.0233, 896.0828
272.5054, 896.7939
272.9875, 897.5433
273.4697, 898.5139
273.9518, 899.7789
274.4339, 900.8464
274.9160, 901.7554
275.3981, 902.3768
275.8802, 902.1259
276.3624, 900.7824
276.8445, 899.4775
277.3266, 899.0217
277.8087, 899.4870
278.2908, 899.8002
278.7729, 899.8323
279.2551, 899.7316
279.7372, 899.8438
280.2193, 900.2010
280.7014, 900.5936
281.1835, 901.0002
281.6656, 901.4172
282.1478, 901.4101
282.6299, 900.8076
283.1120, 900.0856
283.5941, 900.1219
284.0762, 900.9511
284.5583, 901.8558
285.0405, 902.4156
285.5226, 902.6999
286.0047, 903.4071
286.4868, 904.6056
286.9689, 906.0057
287.4510, 907.4036
287.9332, 908.7733
288.4153, 909.6293
288.8974, 909.3975
289.3795, 908.4651
289.8616, 908.3405
290.3438, 909.0755
290.8259, 910.2421
291.3080, 911.5591
291.7901, 912.9648
292.2722, 914.1608
292.7543, 914.9394
293.2365, 915.4814
293.7186, 916.2429
294.2007, 917.2213
294.6828, 918.1705
295.1649, 919.0082
295.6470, 919.6578
296.1292, 919.8256
296.6113, 919.1766
297.0934, 918.2966
297.5755, 918.2949
298.0576, 919.0864
298.5397, 919.7451
299.0219, 919.5381
299.5040, 918.7160
299.9861, 917.7076
300.4682, 916.3914
300.9503, 915.3619
301.4324, 915.7217
301.9146, 917.1473
302.3967, 918.2725
302.8788, 917.9937
303.3609, 916.9691
303.8430, 916.1622
304.3251, 915.7590
304.8073, 915.3669
305.2894, 914.4960
305.7715, 913.3311
306.2536, 912.3056
306.7357, 911.6274
307.2178, 911.1933
307.7000, 911.0389
308.1821, 911.2034
308.6642, 911.1354
309.1463, 910.6131
309.6284, 909.5539
310.1105, 907.8184
310.5927, 904.2914
311.0748, 900.8446
311.5569, 899.1896
312.0390, 899.3398
312.5211, 899.0615
313.0032, 896.3483
313.4854, 892.8303
313.9675, 890.2755
314.4496, 890.4214
314.9317, 890.6547
315.4138, 889.7303
315.8959, 887.7869
316.3781, 885.6185
316.8602, 883.5321
317.3423, 881.4109
317.8244, 879.1501
318.3065, 876.4626
318.7886, 874.0206
319.2708, 872.2563
319.7529, 870.9456
320.2350, 869.4553
320.7171, 867.3884
321.1992, 865.2560
321.6813, 863.2822
322.1635, 861.4476
322.6456, 859.8493
323.1277, 858.4432
323.6098, 857.2808
324.0919, 856.4506
324.5740, 856.7708
325.0562, 856.6899
325.5383, 855.6532
326.0204, 853.4289
326.5025, 851.1048
326.9846, 848.3436
327.4667, 845.7003
327.9489, 843.7359
328.4310, 843.3478
328.9131, 842.6579
329.3952, 841.2779
329.8773, 839.1953
330.3594, 837.2800
330.8416, 835.7498
331.3237, 834.2319
331.8058, 832.3637
332.2879, 829.1495
332.7700, 827.3563
333.2521, 827.9647
333.7343, 830.2672
334.2164, 830.7256
334.6985, 828.4162
335.1806, 825.6791
335.6627, 823.7215
336.1448, 822.7654
336.6270, 821.9518
337.1091, 821.2936
337.5912, 820.7491
338.0733, 820.2601
338.5554, 819.8848
339.0375, 819.4056
339.5197, 818.6890
340.0018, 817.7245
340.4839, 816.8705
340.9660, 816.1390
341.4481, 815.5263
341.9302, 815.1326
342.4124, 814.9808
342.8945, 814.6103
343.3766, 813.7178
343.8587, 812.4968
344.3408, 811.8508
344.8229, 811.8290
345.3051, 812.0629
345.7872, 812.3949
346.2693, 812.7646
346.7514, 812.6886
347.2335, 811.8619
347.7156, 810.8178
348.1978, 810.6908
348.6799, 811.4306
349.1620, 812.3254
349.6441, 812.9167
350.1262, 813.3199
350.6083, 813.8594
351.0905, 814.6551
351.5726, 815.3282
352.0547, 814.9947
352.5368, 814.0843
353.0189, 813.9014
353.5010, 815.9580
353.9832, 818.6945
354.4653, 820.0803
354.9474, 819.9994
355.4295, 819.6730
355.9116, 819.7471
356.3937, 820.2576
356.8759, 821.2570
357.3580, 823.2677
357.8401, 825.3573
358.3222, 826.7886
358.8043, 827.6796
359.2864, 828.6500
359.7686, 829.5624
360.2507, 830.9523
360.7328, 833.3481
361.2149, 837.4664
361.6970, 841.6037
362.1791, 845.1764
362.6613, 848.2611
363.1434, 851.0452
363.6255, 852.9876
364.1076, 855.1050
364.5897, 857.9614
365.0718, 861.7672
365.5540, 865.5783
366.0361, 869.2753
366.5182, 872.8721
367.0003, 876.3874
367.4824, 879.6570
367.9645, 883.0333
368.4467, 886.7372
368.9288, 890.7451
369.4109, 894.4568
369.8930, 897.3827
370.3751, 900.4189
370.8572, 904.2138
371.3394, 909.2257
371.8215, 914.2025
372.3036, 919.2502
372.7857, 924.1949
373.2678, 928.3704
373.7499, 931.2783
374.2321, 934.3425
374.7142, 938.2313
375.1963, 943.1531
375.6784, 948.0873
376.1605, 953.0042
376.6426, 957.9180
377.1248, 962.7952
377.6069, 967.7682
378.0890, 972.1780
378.5711, 975.5505
379.0532, 978.0990
379.5353, 981.3260
380.0175, 985.4417
380.4996, 989.3460
380.9817, 991.8890
381.4638, 993.1931
381.9459, 994.2701
382.4280, 995.1465
382.9102, 996.1152
383.3923, 997.9400
383.8744, 1000.535
384.3565, 1002.937
384.8386, 1004.305
385.3207, 1005.060
385.8029, 1006.114
386.2850, 1007.649
386.7671, 1009.021
387.2492, 1009.453
387.7313, 1009.221
388.2134, 1008.938
388.6956, 1008.801
389.1777, 1008.808
389.6598, 1009.166
390.1419, 1009.839
390.6240, 1010.151
391.1061, 1009.735
391.5883, 1008.746
392.0704, 1007.251
392.5525, 1004.371
393.0346, 1002.258
393.5167, 1002.620
393.9988, 1004.592
394.4810, 1005.735
394.9631, 1004.473
395.4452, 1002.736
395.9273, 1001.471
396.4094, 1000.899
396.8915, 1000.430
397.3737, 999.9813
397.8558, 999.5537
398.3379, 999.1471
398.8200, 998.1638
399.3021, 997.8118
399.7842, 998.5530
400.2664, 1000.371
400.7485, 1001.836
401.2306, 1002.771
401.7127, 1003.484
402.1948, 1004.144
402.6769, 1004.688
403.1591, 1005.308
403.6412, 1006.123
404.1233, 1006.964
404.6054, 1007.354
405.0875, 1007.093
405.5696, 1006.984
406.0518, 1007.554
406.5339, 1008.851
407.0160, 1009.207
407.4981, 1008.346
407.9802, 1007.365
408.4623, 1007.666
408.9445, 1009.241
409.4266, 1010.814
409.9087, 1012.062
410.3908, 1013.116
410.8729, 1014.222
411.3550, 1015.394
411.8372, 1016.638
412.3193, 1018.019
412.8014, 1019.484
413.2835, 1020.893
413.7656, 1022.209
414.2477, 1023.552
414.7299, 1024.914
415.2120, 1026.372
415.6941, 1028.086
416.1762, 1030.813
416.6583, 1033.368
417.1404, 1034.264
417.6226, 1033.550
418.1047, 1033.245
418.5868, 1035.001
419.0689, 1037.480
419.5510, 1039.441
420.0331, 1040.413
420.5153, 1040.972
420.9974, 1041.242
421.4795, 1041.257
421.9616, 1041.081
422.4437, 1040.512
422.9258, 1039.971
423.4080, 1039.739
423.8901, 1040.052
424.3722, 1039.953
424.8543, 1039.066
425.3364, 1037.913
425.8185, 1037.019
426.3007, 1036.708
426.7828, 1036.190
427.2649, 1035.366
427.7470, 1034.252
428.2291, 1032.926
428.7112, 1031.485
429.1934, 1029.657
429.6755, 1027.017
430.1576, 1023.239
430.6397, 1020.455
431.1218, 1019.025
431.6039, 1018.101
432.0861, 1016.406
432.5682, 1013.915
433.0503, 1010.898
433.5324, 1007.170
434.0145, 1003.028
434.4966, 999.5791
434.9788, 996.8493
435.4609, 994.3181
435.9430, 991.5908
436.4251, 988.7001
436.9072, 985.7370
437.3893, 982.6851
437.8715, 979.6093
438.3536, 976.5649
438.8357, 973.5513
439.3178, 970.5664
439.7999, 967.6534
440.2820, 964.7111
440.7642, 961.6540
441.2463, 958.4385
441.7284, 955.2239
442.2105, 952.0908
442.6926, 948.9486
443.1747, 945.6981
443.6569, 941.9052
444.1390, 938.4569
444.6211, 935.8915
445.1032, 933.9133
445.5853, 931.7540
446.0674, 929.3344
446.5496, 926.6542
447.0317, 923.5810
447.5138, 919.7936
447.9959, 916.7543
448.4780, 915.1116
448.9601, 913.7899
449.4423, 911.6102
449.9244, 907.8803
450.4065, 904.8773
450.8886, 903.2469
451.3707, 902.5911
451.8528, 900.9929
452.3350, 898.0643
452.8171, 895.3071
453.2992, 893.4954
453.7813, 892.6218
454.2634, 892.1119
454.7455, 892.0471
455.2277, 891.9560
455.7098, 891.0789
456.1919, 889.5338
456.6740, 888.1476
457.1561, 887.3749
457.6382, 886.7893
458.1204, 885.5134
458.6025, 883.6528
459.0846, 882.0310
459.5667, 881.4821
460.0488, 881.3905
460.5309, 880.9119
461.0131, 879.8650
461.4952, 878.7712
461.9773, 878.0108
462.4594, 877.4476
462.9415, 876.8698
463.4236, 876.3090
463.9058, 875.6197
464.3879, 874.7115
464.8700, 873.6005
465.3521, 872.3785
465.8342, 870.9658
466.3163, 869.5012
466.7985, 868.0634
467.2806, 866.7408
467.7627, 865.2813
468.2448, 863.4709
468.7269, 861.6209
469.2090, 860.1633
469.6912, 859.2629
470.1733, 858.4465
470.6554, 857.7404
471.1375, 857.0792
471.6196, 855.6874
472.1017, 853.2610
472.5839, 850.9451
473.0660, 849.4747
473.5481, 848.8647
474.0302, 848.7040
474.5123, 849.1046
474.9944, 849.5852
475.4766, 849.1617
475.9587, 848.0383
476.4408, 847.4910
476.9229, 848.3572
477.4050, 849.9307
477.8871, 851.1230
478.3693, 851.9631
478.8514, 852.6459
479.3335, 853.1670
479.8156, 853.6746
480.2977, 854.2997
480.7798, 855.0107
481.2620, 856.0004
481.7441, 857.4814
482.2262, 859.2735
482.7083, 861.1159
483.1904, 862.5856
483.6725, 864.3976
484.1547, 866.9597
484.6368, 870.1974
485.1189, 873.2926
485.6010, 875.9890
486.0831, 878.6225
486.5652, 881.3006
487.0474, 883.8533
487.5295, 886.8933
488.0116, 890.7836
488.4937, 894.8555
488.9758, 898.1453
489.4579, 900.4111
489.9401, 902.6481
490.4222, 905.0887
490.9043, 907.6930
491.3864, 910.5274
491.8685, 913.6876
492.3506, 916.4826
492.8328, 918.1931
493.3149, 919.0749
493.7970, 920.3201
494.2791, 922.0432
494.7612, 924.0629
495.2433, 926.4379
495.7255, 928.9861
496.2076, 931.2588
496.6897, 933.0419
497.1718, 934.5473
497.6539, 935.8426
498.1360, 936.9797
498.6182, 938.1778
499.1003, 940.2513
499.5824, 941.9386
500.0645, 941.9719
500.5466, 939.6918
501.0287, 938.1844
501.5109, 939.0607
501.9930, 940.8067
502.4751, 941.9012
502.9572, 941.8747
503.4393, 941.4996
503.9214, 940.9523
504.4036, 940.1273
504.8857, 938.5711
505.3678, 935.8507
505.8499, 933.1152
506.3320, 930.8093
506.8141, 928.9553
507.2963, 927.3602
507.7784, 926.1539
508.2605, 924.8167
508.7426, 922.7302
509.2247, 919.9332
509.7068, 916.9910
510.1890, 913.9763
510.6711, 910.9233
511.1532, 907.9231
511.6353, 904.9612
512.1174, 902.0706
512.5995, 899.5082
513.0817, 896.8582
513.5638, 893.5428
514.0459, 889.5721
514.5280, 885.4391
515.0101, 881.0873
515.4922, 876.9006
515.9744, 873.3408
516.4565, 870.7957
516.9386, 868.2614
517.4207, 865.2324
517.9028, 862.0516
518.3849, 859.2759
518.8671, 857.8471
519.3492, 855.9050
519.8313, 852.7540
520.3134, 848.5284
520.7955, 844.8035
521.2776, 841.4274
521.7598, 838.7491
522.2419, 837.2376
522.7240, 837.2479
523.2061, 836.3525
523.6882, 834.2678
524.1703, 831.7842
524.6525, 829.8929
525.1346, 828.5651
525.6167, 827.5439
526.0988, 827.1133
526.5809, 826.5717
527.0630, 824.0698
527.5452, 820.0119
528.0273, 816.6280
528.5094, 815.7619
528.9915, 815.9969
529.4736, 815.7569
529.9557, 814.9122
530.4379, 813.9510
530.9200, 812.8945
531.4021, 811.9728
531.8842, 811.4210
532.3663, 811.5414
532.8484, 811.6572
533.3306, 811.5905
533.8127, 811.3955
534.2948, 811.1967
534.7769, 811.1928
535.2590, 810.9577
535.7411, 810.2762
536.2233, 809.1793
536.7054, 808.5000
537.1875, 808.4527
537.6696, 808.4523
538.1517, 807.9614
538.6339, 806.9031
539.1160, 806.7150
539.5981, 807.7127
540.0802, 808.9372
540.5623, 808.8937
541.0444, 807.8401
541.5266, 807.2692
542.0087, 807.8393
542.4908, 808.8879
542.9729, 809.4769
543.4550, 809.7009
543.9371, 809.9720
544.4193, 810.3574
544.9014, 810.9929
545.3835, 812.1666
545.8656, 813.9366
546.3477, 815.3953
546.8298, 816.0146
547.3120, 816.2615
547.7941, 816.5046
548.2762, 816.4141
548.7583, 816.8600
549.2404, 818.4856
549.7225, 820.5049
550.2047, 821.5282
550.6868, 821.0231
551.1689, 820.5356
551.6510, 820.4034
552.1331, 820.6082
552.6152, 821.1682
553.0974, 822.2197
553.5795, 823.0070
554.0616, 822.7538
554.5437, 821.7177
555.0258, 821.4509
555.5079, 822.1298
555.9901, 822.9922
556.4722, 823.3466
556.9543, 823.2935
557.4364, 822.9900
557.9185, 822.2884
558.4006, 821.6586
558.8828, 821.5574
559.3649, 821.7955
559.8470, 821.9403
560.3291, 821.8779
560.8112, 821.5927
561.2933, 820.9557
561.7755, 819.9496
562.2576, 819.0824
562.7397, 819.0072
563.2218, 818.5904
563.7039, 817.1608
564.1860, 814.0436
564.6682, 811.7021
565.1503, 810.3748
565.6324, 809.5202
566.1145, 808.4289
566.5966, 807.0515
567.0787, 806.0093
567.5609, 805.5849
568.0430, 805.4207
568.5251, 804.6050
569.0072, 803.2382
569.4893, 802.1254
569.9714, 802.0934
570.4536, 802.3890
570.9357, 801.7214
571.4178, 800.1414
571.8999, 798.7916
572.3820, 798.6517
572.8641, 798.9364
573.3463, 798.9166
573.8284, 798.2674
574.3105, 797.8140
574.7926, 797.7726
575.2747, 798.0621
575.7568, 798.5822
576.2390, 799.1569
576.7211, 800.2027
577.2032, 802.0328
577.6853, 804.3499
578.1674, 806.0233
578.6495, 806.8511
579.1317, 807.6268
579.6138, 808.5810
580.0959, 809.7436
580.5780, 811.4795
581.0601, 813.8624
581.5422, 816.2194
582.0244, 817.6082
582.5065, 818.5830
582.9886, 820.5636
583.4707, 823.8710
583.9528, 827.6315
584.4349, 830.9390
584.9171, 834.2322
585.3992, 838.1672
585.8813, 843.4944
586.3634, 848.9559
586.8455, 854.0619
587.3276, 858.8962
587.8098, 863.4987
588.2919, 866.7059
588.7740, 870.8969
589.2561, 877.1683
589.7382, 885.5677
590.2203, 892.7783
590.7025, 898.0393
591.1846, 903.3347
591.6667, 910.1326
592.1488, 918.6085
592.6309, 926.4105
593.1130, 933.3976
593.5952, 940.1271
594.0773, 947.2590
594.5594, 954.7474
595.0415, 962.2342
595.5236, 969.7125
596.0057, 977.1722
596.4879, 984.4988
596.9700, 991.7442
597.4521, 998.9509
597.9342, 1006.736
598.4163, 1013.983
598.8984, 1019.985
599.3806, 1024.831
