##NAMES=Lefontite
##RRUFFID=R140539
##IDEAL CHEMISTRY=Fe^2+^_2_Al_2_Be(PO_4_)_2_(OH)_6_
##LOCALITY=Palermo No. 1 mine, Groton, New Hampshire, USA
##OWNER=RRUFF
##SOURCE=Benjamin N. Schumer
##DESCRIPTION=Dark or reddish brown prismatic crystals, associated with grey bladed eosphorite, colorless or white prismatic palermoite (R120141), and natropalermoite (130092).
##STATUS=The identification of this mineral is confirmed by single-crystal X-ray diffraction and chemical analysis.
##URL=rruff.info/R140539
##MEASURED CHEMISTRY=(Fe^2+^_1.22_Mn_0.48_Ca_0.16_Mg_0.05_)_Î£=1.91_Al_1.91_Be_0.97_(PO_4_)_2_(OH)_6.50_ ; Be2+ needs to be analyzed by Icp-ms
93.97052, 731.7615
94.45264, 730.2413
94.93475, 725.7828
95.41687, 720.4589
95.89898, 714.6799
96.38110, 708.8839
96.86321, 703.4314
97.34533, 697.9883
97.82745, 691.1913
98.30956, 684.9658
98.79168, 680.4965
99.27380, 675.4197
99.75591, 668.1808
100.2380, 659.5281
100.7201, 651.7681
101.2023, 646.2272
101.6844, 642.6934
102.1665, 639.4304
102.6486, 636.3810
103.1307, 633.5131
103.6128, 630.8223
104.0950, 628.2714
104.5771, 625.8165
105.0592, 623.1547
105.5413, 620.3975
106.0234, 617.8043
106.5055, 615.7576
106.9877, 613.9715
107.4698, 611.2098
107.9519, 606.4699
108.4340, 601.8633
108.9161, 598.1296
109.3982, 595.1801
109.8804, 592.7798
110.3625, 590.8778
110.8446, 589.6848
111.3267, 587.8548
111.8088, 584.6437
112.2909, 581.4388
112.7731, 578.9247
113.2552, 577.1779
113.7373, 575.7773
114.2194, 574.1530
114.7015, 572.1730
115.1836, 570.1268
115.6658, 568.2280
116.1479, 566.1687
116.6300, 563.4564
117.1121, 559.8641
117.5942, 555.9542
118.0763, 553.2166
118.5584, 552.1734
119.0406, 550.9059
119.5227, 548.7130
120.0048, 545.8493
120.4869, 542.9523
120.9690, 540.1923
121.4511, 537.6974
121.9333, 535.5667
122.4154, 533.8240
122.8975, 532.3883
123.3796, 531.5358
123.8617, 531.4116
124.3438, 530.5925
124.8260, 527.4255
125.3081, 523.5397
125.7902, 520.4068
126.2723, 518.7205
126.7544, 517.8679
127.2365, 516.4649
127.7187, 514.0685
128.2008, 511.8427
128.6829, 510.2895
129.1650, 509.0563
129.6471, 507.7002
130.1292, 505.9532
130.6114, 503.8294
131.0935, 501.5019
131.5756, 498.5916
132.0577, 495.8233
132.5398, 493.4129
133.0219, 491.3071
133.5041, 489.3345
133.9862, 487.3155
134.4683, 485.1815
134.9504, 483.5018
135.4325, 482.8452
135.9146, 482.1022
136.3968, 480.4560
136.8789, 477.9046
137.3610, 475.2426
137.8431, 473.5076
138.3252, 472.9900
138.8073, 471.7745
139.2895, 469.1281
139.7716, 465.9703
140.2537, 463.4275
140.7358, 461.8347
141.2179, 460.5535
141.7000, 458.6686
142.1821, 456.2336
142.6643, 454.0565
143.1464, 452.5599
143.6285, 451.6110
144.1106, 450.7386
144.5927, 449.9269
145.0748, 449.0658
145.5570, 448.1194
146.0391, 447.0854
146.5212, 445.8619
147.0033, 444.2199
147.4854, 442.0834
147.9675, 440.2509
148.4497, 438.9924
148.9318, 438.0117
149.4139, 437.3206
149.8960, 436.8906
150.3781, 436.4095
150.8602, 435.3094
151.3424, 433.0193
151.8245, 431.3638
152.3066, 430.9698
152.7887, 430.8882
153.2708, 430.3079
153.7529, 428.9398
154.2351, 427.1513
154.7172, 425.8640
155.1993, 425.6268
155.6814, 425.2919
156.1635, 424.6838
156.6456, 423.9829
157.1278, 423.4595
157.6099, 423.2628
158.0920, 423.2625
158.5741, 422.8878
159.0562, 421.8089
159.5383, 420.7809
160.0205, 419.9637
160.5026, 419.3307
160.9847, 418.8308
161.4668, 418.4685
161.9489, 418.2030
162.4310, 417.8545
162.9131, 417.1782
163.3953, 416.6505
163.8774, 416.6857
164.3595, 417.2253
164.8416, 417.6900
165.3237, 417.7163
165.8058, 417.4032
166.2880, 417.0292
166.7701, 416.6787
167.2522, 416.2319
167.7343, 415.4203
168.2164, 414.1162
168.6985, 413.0630
169.1807, 412.7293
169.6628, 412.8955
170.1449, 413.4379
170.6270, 414.5958
171.1091, 415.9343
171.5912, 416.3790
172.0734, 415.5013
172.5555, 414.4636
173.0376, 413.6770
173.5197, 413.0570
174.0018, 412.4540
174.4839, 411.7185
174.9661, 410.9383
175.4482, 410.6946
175.9303, 411.7599
176.4124, 412.5101
176.8945, 412.2726
177.3766, 411.4315
177.8588, 410.6838
178.3409, 410.5481
178.8230, 411.0301
179.3051, 411.4420
179.7872, 411.7490
180.2693, 412.0205
180.7515, 412.2514
181.2336, 412.4576
181.7157, 412.6792
182.1978, 412.9666
182.6799, 413.3441
183.1620, 413.4966
183.6441, 413.3907
184.1263, 413.1461
184.6084, 412.7075
185.0905, 412.1357
185.5726, 411.6413
186.0547, 411.4044
186.5368, 411.4596
187.0190, 411.7563
187.5011, 412.7878
187.9832, 413.7084
188.4653, 413.7443
188.9474, 412.8436
189.4296, 411.7717
189.9117, 411.2955
190.3938, 411.4034
190.8759, 411.3546
191.3580, 410.8504
191.8401, 410.2563
192.3223, 410.1085
192.8044, 410.5649
193.2865, 410.9481
193.7686, 410.2955
194.2507, 408.9452
194.7328, 407.9623
195.2150, 407.8754
195.6971, 408.3372
196.1792, 408.7227
196.6613, 409.0575
197.1434, 409.1305
197.6255, 408.6851
198.1077, 407.8661
198.5898, 407.0320
199.0719, 406.3381
199.5540, 405.7690
200.0361, 405.2690
200.5182, 404.8400
201.0004, 404.4858
201.4825, 404.2622
201.9646, 404.1139
202.4467, 403.9049
202.9288, 403.4655
203.4109, 402.8222
203.8930, 402.4433
204.3752, 402.5498
204.8573, 402.7231
205.3394, 403.0538
205.8215, 403.3531
206.3036, 403.1919
206.7857, 402.0135
207.2679, 399.7208
207.7500, 398.3201
208.2321, 399.1984
208.7142, 399.7431
209.1963, 398.7173
209.6784, 396.5543
210.1606, 394.5621
210.6427, 393.9621
211.1248, 394.9484
211.6069, 395.6264
212.0890, 395.9189
212.5711, 396.0102
213.0533, 395.9038
213.5354, 395.6439
214.0175, 395.2909
214.4996, 394.8573
214.9817, 394.2679
215.4638, 394.1964
215.9460, 395.2464
216.4281, 396.1648
216.9102, 396.2145
217.3923, 395.4814
217.8744, 394.5900
218.3565, 394.0943
218.8387, 394.0479
219.3208, 394.0561
219.8029, 394.3252
220.2850, 394.4781
220.7671, 394.1546
221.2492, 393.4041
221.7314, 392.7047
222.2135, 392.5106
222.6956, 392.8603
223.1777, 392.9412
223.6598, 392.4028
224.1419, 391.8533
224.6240, 391.8573
225.1062, 392.4162
225.5883, 392.9522
226.0704, 392.9788
226.5525, 392.5355
227.0346, 392.1221
227.5167, 391.7944
227.9989, 391.4930
228.4810, 391.2187
228.9631, 390.9777
229.4452, 390.6013
229.9273, 389.8334
230.4094, 388.8353
230.8916, 388.0540
231.3737, 387.7343
231.8558, 387.5709
232.3379, 387.1945
232.8200, 386.5708
233.3021, 385.9718
233.7843, 385.5110
234.2664, 385.1995
234.7485, 385.1063
235.2306, 385.4282
235.7127, 385.8239
236.1948, 385.7931
236.6770, 385.2500
237.1591, 384.6317
237.6412, 384.1775
238.1233, 383.7681
238.6054, 383.2639
239.0875, 382.6085
239.5697, 381.8588
240.0518, 381.0669
240.5339, 380.1719
241.0160, 379.4274
241.4981, 379.0182
241.9802, 378.7623
242.4624, 378.4987
242.9445, 378.1684
243.4266, 377.8234
243.9087, 377.5880
244.3908, 377.5550
244.8729, 377.3673
245.3550, 376.5947
245.8372, 375.8024
246.3193, 375.6045
246.8014, 376.2398
247.2835, 377.1372
247.7656, 377.3018
248.2477, 376.4967
248.7299, 375.4754
249.2120, 373.9489
249.6941, 372.5326
250.1762, 371.8010
250.6583, 371.9131
251.1404, 372.4334
251.6226, 372.6713
252.1047, 372.6115
252.5868, 372.2701
253.0689, 371.4017
253.5510, 370.4666
254.0331, 369.7621
254.5153, 369.3737
254.9974, 369.2182
255.4795, 369.1742
255.9616, 369.2429
256.4437, 369.4432
256.9258, 370.0180
257.4080, 370.5299
257.8901, 370.6750
258.3722, 370.4088
258.8543, 369.9148
259.3364, 369.4265
259.8185, 368.9409
260.3007, 368.4699
260.7828, 367.8329
261.2649, 367.3350
261.7470, 367.1850
262.2291, 367.3900
262.7112, 367.8285
263.1934, 368.4358
263.6755, 369.4518
264.1576, 369.6800
264.6397, 368.1841
265.1218, 366.8342
265.6039, 366.9019
266.0861, 368.2553
266.5682, 369.7535
267.0503, 370.2213
267.5324, 369.3850
268.0145, 369.2876
268.4966, 370.4143
268.9788, 371.6743
269.4609, 372.7097
269.9430, 373.4289
270.4251, 373.7179
270.9072, 373.3990
271.3893, 372.4359
271.8715, 372.0528
272.3536, 372.8338
272.8357, 373.4927
273.3178, 373.2424
273.7999, 372.3770
274.2820, 371.8470
274.7642, 372.4057
275.2463, 373.8904
275.7284, 374.2193
276.2105, 372.3045
276.6926, 370.6986
277.1747, 370.4369
277.6568, 371.1336
278.1389, 371.9431
278.6211, 372.4606
279.1032, 372.6677
279.5853, 372.4306
280.0674, 371.2390
280.5495, 370.2935
281.0316, 370.0939
281.5138, 370.3193
281.9959, 370.3821
282.4780, 370.0130
282.9601, 369.4006
283.4422, 369.0556
283.9243, 369.1894
284.4065, 369.1537
284.8886, 368.6810
285.3707, 367.9965
285.8528, 367.4063
286.3349, 367.0036
286.8170, 366.7625
287.2992, 366.6596
287.7813, 366.7144
288.2634, 366.8218
288.7455, 367.0807
289.2276, 367.3378
289.7097, 367.3509
290.1919, 367.0555
290.6740, 366.7148
291.1561, 366.7271
291.6382, 367.1811
292.1203, 367.2414
292.6024, 366.4720
293.0846, 365.4708
293.5667, 364.8624
294.0488, 364.7196
294.5309, 364.6188
295.0130, 364.0558
295.4951, 363.0487
295.9773, 362.6622
296.4594, 363.6145
296.9415, 364.7056
297.4236, 364.9184
297.9057, 364.2690
298.3878, 363.5302
298.8700, 363.2985
299.3521, 363.4375
299.8342, 363.1012
300.3163, 361.7933
300.7984, 360.4735
301.2805, 359.6649
301.7627, 359.3190
302.2448, 359.2333
302.7269, 359.4574
303.2090, 359.7482
303.6911, 359.3832
304.1732, 357.9106
304.6554, 356.5835
305.1375, 356.1502
305.6196, 356.3036
306.1017, 356.2492
306.5838, 355.6816
307.0659, 354.7871
307.5481, 353.8516
308.0302, 352.7842
308.5123, 351.9811
308.9944, 351.9717
309.4765, 352.2310
309.9586, 351.7235
310.4408, 350.0769
310.9229, 348.1119
311.4050, 346.9955
311.8871, 346.7382
312.3692, 346.3619
312.8513, 345.6301
313.3335, 344.6999
313.8156, 343.7082
314.2977, 342.6711
314.7798, 341.6797
315.2619, 340.9069
315.7440, 340.3081
316.2262, 339.3584
316.7083, 337.6838
317.1904, 335.8751
317.6725, 334.4290
318.1546, 333.3412
318.6367, 332.3285
319.1188, 331.1748
319.6010, 329.9564
320.0831, 328.9722
320.5652, 328.4615
321.0473, 327.9362
321.5294, 327.1458
322.0115, 326.1244
322.4937, 324.9681
322.9758, 323.7167
323.4579, 322.3692
323.9400, 320.9188
324.4221, 319.2050
324.9042, 317.7266
325.3864, 316.7482
325.8685, 316.1105
326.3506, 315.5972
326.8327, 315.2086
327.3148, 314.6689
327.7969, 313.3791
328.2791, 311.1707
328.7612, 309.3413
329.2433, 308.3076
329.7254, 307.6999
330.2075, 307.2456
330.6896, 306.8983
331.1718, 306.2910
331.6539, 304.8872
332.1360, 302.6125
332.6181, 300.9650
333.1002, 300.4272
333.5823, 300.2093
334.0645, 299.7690
334.5466, 299.0977
335.0287, 298.4384
335.5108, 298.0327
335.9929, 297.7764
336.4750, 297.0041
336.9572, 294.9048
337.4393, 293.1822
337.9214, 292.9203
338.4035, 293.5915
338.8856, 293.9095
339.3677, 293.2421
339.8499, 291.9472
340.3320, 290.9838
340.8141, 290.5047
341.2962, 290.0211
341.7783, 289.4198
342.2604, 288.7704
342.7426, 288.1915
343.2247, 287.7201
343.7068, 287.2403
344.1889, 286.5763
344.6710, 285.6180
345.1531, 284.8020
345.6353, 284.1901
346.1174, 283.6880
346.5995, 283.2397
347.0816, 282.8367
347.5637, 282.4854
348.0458, 282.2211
348.5280, 282.0532
349.0101, 281.6812
349.4922, 280.7872
349.9743, 280.0436
350.4564, 279.7540
350.9385, 279.8474
351.4207, 280.1836
351.9028, 280.7218
352.3849, 281.3513
352.8670, 281.5844
353.3491, 280.8491
353.8312, 280.4289
354.3134, 280.7411
354.7955, 281.3457
355.2776, 281.6176
355.7597, 281.3582
356.2418, 281.0550
356.7239, 281.6046
357.2061, 283.9072
357.6882, 285.1891
358.1703, 284.7785
358.6524, 283.9531
359.1345, 283.3496
359.6166, 283.1532
360.0987, 283.4854
360.5808, 284.5456
361.0630, 286.4467
361.5451, 287.9716
362.0272, 288.9340
362.5093, 289.7384
362.9914, 290.3428
363.4735, 290.9033
363.9557, 291.6822
364.4378, 292.8558
364.9199, 294.3231
365.4020, 295.6467
365.8841, 296.6391
366.3662, 297.7461
366.8484, 299.2843
367.3305, 300.8214
367.8126, 301.7413
368.2947, 301.9007
368.7768, 301.9909
369.2589, 303.2191
369.7411, 306.1908
370.2232, 308.6495
370.7053, 310.2710
371.1874, 311.6127
371.6695, 312.8888
372.1516, 314.1475
372.6338, 315.4271
373.1159, 316.7856
373.5980, 318.2130
374.0801, 319.4465
374.5622, 320.1139
375.0443, 321.0625
375.5265, 322.8359
376.0086, 324.9964
376.4907, 326.8414
376.9728, 328.0074
377.4549, 328.7494
377.9370, 329.6066
378.4192, 330.5733
378.9013, 331.6779
379.3834, 333.0651
379.8655, 334.5105
380.3476, 335.8526
380.8297, 337.0592
381.3119, 338.1826
381.7940, 339.3016
382.2761, 340.4157
382.7582, 341.3108
383.2403, 341.7319
383.7224, 342.2040
384.2046, 343.2316
384.6867, 344.6392
385.1688, 345.8128
385.6509, 346.3238
386.1330, 346.3790
386.6151, 346.4440
387.0973, 346.5397
387.5794, 346.5614
388.0615, 346.2993
388.5436, 345.9633
389.0257, 345.8703
389.5078, 346.1366
389.9900, 346.5494
390.4721, 346.9868
390.9542, 347.4348
391.4363, 347.7944
391.9184, 348.0861
392.4005, 348.1974
392.8827, 347.8542
393.3648, 346.9987
393.8469, 346.4505
394.3290, 347.0009
394.8111, 347.9102
395.2932, 347.8468
395.7754, 346.5469
396.2575, 345.0771
396.7396, 344.2580
397.2217, 344.1158
397.7038, 344.3897
398.1859, 345.4963
398.6681, 346.6473
399.1501, 347.3042
399.6323, 347.5571
400.1144, 347.7721
400.5965, 348.1291
401.0786, 348.5680
401.5607, 348.9036
402.0428, 349.0419
402.5250, 349.2540
403.0071, 349.5408
403.4892, 349.9443
403.9713, 350.6039
404.4534, 351.5234
404.9355, 352.4025
405.4177, 352.8412
405.8998, 352.6696
406.3819, 352.9190
406.8640, 353.8407
407.3461, 354.8840
407.8282, 355.8125
408.3104, 356.6410
408.7925, 357.4481
409.2746, 358.2769
409.7567, 359.1640
410.2388, 360.3000
410.7209, 362.1939
411.2031, 363.6619
411.6852, 364.3943
412.1673, 364.7848
412.6494, 365.0839
413.1315, 365.4089
413.6136, 365.9444
414.0958, 367.0542
414.5779, 369.0207
415.0600, 370.4443
415.5421, 370.6926
416.0242, 370.9690
416.5063, 371.8833
416.9885, 373.2148
417.4706, 374.3390
417.9527, 374.8203
418.4348, 374.8483
418.9169, 375.0652
419.3990, 375.4955
419.8812, 376.0688
420.3633, 377.1880
420.8454, 378.2040
421.3275, 378.3529
421.8096, 377.4295
422.2917, 376.2936
422.7739, 376.0113
423.2560, 376.5128
423.7381, 376.3128
424.2202, 374.8556
424.7023, 373.0890
425.1844, 371.7311
425.6666, 370.6900
426.1487, 369.6271
426.6308, 368.3266
427.1129, 366.9538
427.5950, 365.8385
428.0771, 364.9991
428.5593, 364.0127
429.0414, 362.6816
429.5235, 361.0314
430.0056, 359.1937
430.4877, 357.1085
430.9698, 354.9765
431.4520, 352.9723
431.9341, 350.9924
432.4162, 348.7760
432.8983, 346.2509
433.3804, 343.6166
433.8625, 341.0523
434.3447, 338.5520
434.8268, 336.3329
435.3089, 334.8411
435.7910, 333.2574
436.2731, 330.8949
436.7552, 327.9387
437.2374, 325.0951
437.7195, 322.7886
438.2016, 320.8763
438.6837, 318.8564
439.1658, 316.7042
439.6479, 314.4651
440.1301, 312.1273
440.6122, 309.7207
441.0943, 307.2205
441.5764, 304.6649
442.0585, 302.1946
442.5406, 299.9774
443.0227, 298.0081
443.5049, 296.3005
443.9870, 295.3398
444.4691, 294.1443
444.9512, 292.1784
445.4333, 289.8282
445.9154, 287.7514
446.3976, 286.3261
446.8797, 285.2262
447.3618, 283.6852
447.8439, 281.5003
448.3260, 279.4803
448.8081, 277.6822
449.2903, 276.1539
449.7724, 275.1354
450.2545, 274.5420
450.7366, 273.7721
451.2187, 272.0306
451.7008, 269.6634
452.1830, 268.3224
452.6651, 268.4122
453.1472, 268.6018
453.6293, 268.1798
454.1114, 267.3422
454.5935, 266.2726
455.0757, 264.8806
455.5578, 263.5216
456.0399, 262.5303
456.5220, 261.8362
457.0041, 261.0981
457.4862, 260.1864
457.9684, 259.2683
458.4505, 258.5728
458.9326, 258.0916
459.4147, 257.6738
459.8968, 257.4699
460.3789, 257.1959
460.8611, 256.4439
461.3432, 255.3156
461.8253, 254.4503
462.3074, 254.3067
462.7895, 254.6543
463.2716, 254.5202
463.7538, 253.4947
464.2359, 252.5611
464.7180, 251.8154
465.2001, 251.2127
465.6822, 250.7942
466.1643, 250.5224
466.6465, 250.1698
467.1286, 249.4481
467.6107, 248.2826
468.0928, 247.4078
468.5749, 246.8927
469.0570, 246.6022
469.5392, 246.6580
470.0213, 246.8776
470.5034, 247.0272
470.9855, 247.0065
471.4676, 246.8390
471.9497, 246.5150
472.4319, 245.9654
472.9140, 245.5703
473.3961, 245.5252
473.8782, 245.5387
474.3603, 245.4435
474.8424, 245.2574
475.3246, 245.0901
475.8067, 245.0504
476.2888, 245.0602
476.7709, 244.9093
477.2530, 244.5617
477.7351, 244.2896
478.2173, 244.2504
478.6994, 244.3517
479.1815, 244.4636
479.6636, 244.6096
480.1457, 244.6588
480.6278, 244.3550
481.1100, 243.9568
481.5920, 244.0215
482.0742, 244.6641
482.5563, 245.3491
483.0384, 245.5278
483.5205, 245.2217
484.0026, 245.4024
484.4847, 246.5957
484.9669, 247.6718
485.4490, 248.0673
485.9311, 248.0571
486.4132, 248.1132
486.8953, 248.4133
487.3774, 248.8812
487.8596, 249.4045
488.3417, 250.0486
488.8238, 250.5748
489.3059, 250.8859
489.7880, 251.1929
490.2701, 251.4951
490.7523, 251.8792
491.2344, 252.5580
491.7165, 253.7142
492.1986, 255.0879
492.6807, 255.9530
493.1628, 256.1906
493.6450, 256.2447
494.1271, 255.8005
494.6092, 255.4978
495.0913, 255.9990
495.5734, 257.2250
496.0555, 258.2237
496.5377, 258.0174
497.0198, 257.1053
497.5019, 256.9625
497.9840, 257.7914
498.4661, 258.5669
498.9482, 258.7111
499.4304, 258.4416
499.9125, 258.1959
500.3946, 258.0113
500.8767, 257.8125
501.3588, 257.3912
501.8409, 256.9741
502.3231, 257.1505
502.8052, 258.0519
503.2873, 258.7814
503.7694, 258.3713
504.2515, 256.7652
504.7336, 255.8324
505.2158, 256.1130
505.6979, 256.3826
506.1800, 256.2675
506.6621, 255.8428
507.1442, 255.2225
507.6263, 254.4541
508.1085, 253.5818
508.5906, 252.6564
509.0727, 251.6224
509.5548, 250.7305
510.0369, 250.2519
510.5190, 249.6442
511.0012, 248.5465
511.4833, 247.1848
511.9654, 246.0196
512.4475, 245.3082
512.9296, 244.8027
513.4117, 244.1031
513.8939, 243.2132
514.3760, 242.0609
514.8581, 240.4108
515.3402, 238.7021
515.8223, 237.3410
516.3044, 236.2805
516.7866, 235.1839
517.2687, 233.7859
517.7508, 232.3416
518.2329, 231.1851
518.7150, 230.3078
519.1971, 229.5558
519.6793, 228.9307
520.1614, 228.2983
520.6435, 227.3110
521.1256, 225.8127
521.6077, 224.4792
522.0898, 223.7073
522.5720, 222.9519
523.0541, 221.5321
523.5362, 219.5806
524.0183, 217.9292
524.5004, 217.2265
524.9825, 217.2686
525.4647, 216.9886
525.9468, 216.2351
526.4289, 215.3515
526.9110, 214.1890
527.3931, 213.0373
527.8752, 212.1664
528.3574, 211.5826
528.8395, 211.0723
529.3216, 210.4743
529.8037, 209.7926
530.2858, 209.0043
530.7679, 208.0085
531.2501, 207.1472
531.7322, 206.6692
532.2143, 206.3551
532.6964, 205.9721
533.1785, 205.4711
533.6606, 205.0099
534.1428, 204.8183
534.6249, 204.7146
535.1070, 204.2547
535.5891, 203.3611
536.0712, 202.3749
536.5533, 201.4820
537.0355, 200.7182
537.5176, 200.2574
537.9997, 200.4419
538.4818, 200.4814
538.9639, 199.9862
539.4460, 199.2991
539.9282, 198.8609
540.4103, 198.7539
540.8924, 198.7508
541.3745, 198.6199
541.8566, 198.3579
542.3387, 198.0883
542.8209, 197.5625
543.3029, 197.3452
543.7850, 197.9193
544.2672, 198.6813
544.7493, 198.8696
545.2314, 198.3051
545.7135, 197.5919
546.1956, 197.4515
546.6777, 197.8228
547.1599, 197.9484
547.6420, 197.6479
548.1241, 197.4006
548.6062, 197.5993
549.0883, 198.0298
549.5704, 198.3834
550.0526, 198.6691
550.5347, 198.7422
551.0168, 198.3035
551.4989, 197.6234
551.9810, 197.1982
552.4631, 197.1262
552.9453, 197.5322
553.4274, 198.7258
553.9095, 200.7129
554.3916, 201.6136
554.8737, 200.3288
555.3558, 199.4417
555.8380, 200.2041
556.3201, 201.5081
556.8022, 201.8451
557.2843, 200.8942
557.7664, 199.6290
558.2485, 199.1616
558.7307, 199.5195
559.2128, 199.9443
559.6949, 200.5285
560.1770, 201.0390
560.6591, 201.4184
561.1412, 201.6831
561.6234, 201.8328
562.1055, 201.8584
562.5876, 201.8643
563.0697, 201.9972
563.5518, 202.1877
564.0339, 202.1467
564.5161, 201.7861
564.9982, 201.4662
565.4803, 201.3863
565.9624, 201.5757
566.4445, 202.0682
566.9266, 203.3459
567.4088, 204.2406
567.8909, 204.0672
568.3730, 203.4265
568.8551, 203.1415
569.3372, 203.3156
569.8193, 203.3614
570.3015, 202.6400
570.7836, 201.2281
571.2657, 200.6898
571.7478, 202.0289
572.2299, 202.9055
572.7120, 202.6022
573.1942, 201.9222
573.6763, 201.6041
574.1584, 201.7621
574.6405, 202.0430
575.1226, 202.1556
575.6047, 202.1368
576.0869, 202.1170
576.5690, 202.0705
577.0511, 202.1391
577.5332, 202.5098
578.0153, 202.9648
578.4974, 203.1148
578.9796, 202.8626
579.4617, 202.7198
579.9438, 202.9968
580.4259, 203.4148
580.9080, 203.5504
581.3901, 203.4496
581.8723, 203.6142
582.3544, 204.3956
582.8365, 205.6114
583.3186, 206.6374
583.8007, 207.2350
584.2828, 208.0153
