##NAMES=Lefontite
##RRUFFID=R140539
##IDEAL CHEMISTRY=Fe^2+^_2_Al_2_Be(PO_4_)_2_(OH)_6_
##LOCALITY=Palermo No. 1 mine, Groton, New Hampshire, USA
##OWNER=RRUFF
##SOURCE=Benjamin N. Schumer
##DESCRIPTION=Dark or reddish brown prismatic crystals, associated with grey bladed eosphorite, colorless or white prismatic palermoite (R120141), and natropalermoite (130092).
##STATUS=The identification of this mineral is confirmed by single-crystal X-ray diffraction and chemical analysis.
##URL=rruff.info/R140539
##MEASURED CHEMISTRY=(Fe^2+^_1.22_Mn_0.48_Ca_0.16_Mg_0.05_)_Î£=1.91_Al_1.91_Be_0.97_(PO_4_)_2_(OH)_6.50_ ; Be2+ needs to be analyzed by Icp-ms
108.1036, 428.8594
108.5858, 430.8819
109.0679, 433.1483
109.5500, 435.6348
110.0321, 438.3995
110.5142, 441.4536
110.9963, 445.4344
111.4785, 449.0202
111.9606, 451.9821
112.4427, 454.3493
112.9248, 456.5959
113.4069, 458.7790
113.8890, 460.8772
114.3712, 462.8993
114.8533, 465.5431
115.3354, 467.4724
115.8175, 467.9291
116.2996, 466.7639
116.7817, 465.8514
117.2639, 466.4954
117.7460, 467.6108
118.2281, 467.8199
118.7102, 465.7500
119.1923, 463.2278
119.6744, 461.2679
120.1566, 459.9715
120.6387, 459.2012
121.1208, 459.0010
121.6029, 459.2569
122.0850, 459.7563
122.5671, 461.0562
123.0493, 462.2350
123.5314, 462.2178
124.0135, 460.5348
124.4956, 458.3260
124.9777, 456.4931
125.4598, 454.9962
125.9420, 453.7544
126.4241, 452.7351
126.9062, 451.9214
127.3883, 451.3239
127.8704, 451.0380
128.3525, 450.8344
128.8347, 450.3977
129.3168, 449.7267
129.7989, 448.8906
130.2810, 447.7826
130.7631, 446.5073
131.2452, 445.4988
131.7274, 445.0902
132.2095, 444.9201
132.6916, 443.8226
133.1737, 441.6675
133.6558, 439.4604
134.1379, 438.2871
134.6201, 438.1335
135.1022, 437.8349
135.5843, 436.9329
136.0664, 435.5488
136.5485, 434.6613
137.0306, 434.3586
137.5128, 434.3387
137.9949, 434.2618
138.4770, 434.1288
138.9591, 433.9309
139.4412, 433.7731
139.9233, 433.7032
140.4055, 432.8660
140.8876, 430.9048
141.3697, 428.5183
141.8518, 426.8610
142.3339, 426.1359
142.8160, 425.6791
143.2982, 425.3016
143.7803, 425.0723
144.2624, 424.7007
144.7445, 424.1264
145.2266, 423.4296
145.7087, 422.8381
146.1909, 422.5139
146.6730, 422.0865
147.1551, 421.3891
147.6372, 420.2079
148.1193, 419.1346
148.6014, 418.0689
149.0836, 417.1028
149.5657, 416.5166
150.0478, 416.6385
150.5299, 416.8897
151.0120, 417.0196
151.4941, 416.7319
151.9763, 416.6617
152.4584, 416.9604
152.9405, 417.5369
153.4226, 417.9492
153.9047, 418.2188
154.3868, 418.2756
154.8690, 418.0813
155.3511, 417.2107
155.8332, 416.5336
156.3153, 416.1599
156.7974, 416.0896
157.2795, 416.3034
157.7617, 417.5688
158.2438, 418.7170
158.7259, 418.9054
159.2080, 416.6158
159.6901, 414.6217
160.1722, 413.8681
160.6544, 414.3218
161.1365, 414.9555
161.6186, 415.6016
162.1007, 416.1775
162.5828, 416.6209
163.0649, 416.6151
163.5471, 416.7049
164.0292, 417.3000
164.5113, 418.4104
164.9934, 419.2650
165.4755, 419.2185
165.9576, 418.7563
166.4398, 418.4808
166.9219, 418.8212
167.4040, 419.2765
167.8861, 419.4410
168.3682, 419.2738
168.8503, 419.2372
169.3325, 419.8622
169.8146, 420.7944
170.2967, 421.4526
170.7788, 421.3968
171.2609, 421.0723
171.7430, 420.8446
172.2252, 420.7364
172.7073, 420.7421
173.1894, 420.7691
173.6715, 420.9038
174.1536, 421.3288
174.6357, 422.6170
175.1179, 424.0495
175.6000, 424.5815
176.0821, 423.9790
176.5642, 423.2890
177.0463, 423.7818
177.5284, 425.0903
178.0106, 426.0808
178.4927, 425.8262
178.9748, 424.9369
179.4569, 424.4195
179.9390, 424.3773
180.4211, 424.6696
180.9033, 425.3014
181.3854, 426.2001
181.8675, 426.9954
182.3496, 427.3945
182.8317, 427.5407
183.3138, 427.8235
183.7960, 428.3223
184.2781, 428.8416
184.7602, 429.0490
185.2423, 428.9771
185.7244, 428.8986
186.2065, 428.9649
186.6887, 429.1533
187.1708, 429.3642
187.6529, 429.5494
188.1350, 429.8186
188.6171, 430.4669
189.0992, 431.4857
189.5814, 432.4098
190.0635, 432.8152
190.5456, 432.8033
191.0277, 433.0651
191.5098, 433.7589
191.9919, 434.6404
192.4741, 435.2693
192.9562, 435.6481
193.4383, 435.7167
193.9204, 435.2270
194.4025, 434.2273
194.8846, 433.6112
195.3668, 433.5791
195.8489, 433.8761
196.3310, 433.9510
196.8131, 433.8047
197.2952, 433.4209
197.7773, 432.5435
198.2595, 431.1466
198.7416, 430.4580
199.2237, 430.8342
199.7058, 431.8452
200.1879, 432.2303
200.6700, 431.8633
201.1522, 431.4721
201.6343, 431.7671
202.1164, 432.8883
202.5985, 433.1676
203.0806, 432.0751
203.5627, 430.1884
204.0449, 429.4887
204.5270, 430.2509
205.0091, 431.2863
205.4912, 431.7387
205.9733, 431.4836
206.4554, 431.4078
206.9376, 431.7232
207.4197, 432.2574
207.9018, 432.2648
208.3839, 431.5239
208.8660, 430.8260
209.3481, 430.8148
209.8303, 431.6928
210.3124, 432.3683
210.7945, 432.7254
211.2766, 432.7979
211.7587, 432.6862
212.2408, 432.3152
212.7230, 431.9227
213.2051, 431.5797
213.6872, 431.1534
214.1693, 431.2842
214.6514, 432.2906
215.1335, 433.8939
215.6157, 434.7138
216.0978, 434.4527
216.5799, 433.9433
217.0620, 433.7382
217.5441, 433.9728
218.0262, 434.0785
218.5084, 433.8971
218.9905, 433.5371
219.4726, 433.6108
219.9547, 434.3930
220.4368, 435.1530
220.9189, 435.3575
221.4011, 434.7091
221.8832, 434.3236
222.3653, 434.3517
222.8474, 434.7195
223.3295, 435.0896
223.8116, 435.4414
224.2938, 435.8215
224.7759, 436.3032
225.2580, 437.0550
225.7401, 437.4694
226.2222, 437.4189
226.7043, 436.9941
227.1865, 436.5316
227.6686, 435.8778
228.1507, 435.4193
228.6328, 435.5135
229.1149, 436.7402
229.5970, 437.1110
230.0792, 436.1687
230.5613, 434.2855
231.0434, 432.9380
231.5255, 432.2904
232.0076, 431.9712
232.4897, 431.8123
232.9719, 431.8509
233.4540, 432.0049
233.9361, 432.3974
234.4182, 432.9020
234.9003, 433.0582
235.3824, 432.7161
235.8646, 432.2404
236.3467, 431.7905
236.8288, 431.3319
237.3109, 430.9609
237.7930, 430.6773
238.2751, 430.4719
238.7573, 430.3471
239.2394, 430.3713
239.7215, 430.3578
240.2036, 430.2072
240.6857, 429.8294
241.1678, 429.5093
241.6500, 429.3140
242.1321, 429.1541
242.6142, 428.7509
243.0963, 427.8076
243.5784, 427.0654
244.0605, 426.9358
244.5427, 427.8757
245.0248, 428.2392
245.5069, 427.8308
245.9890, 426.9284
246.4711, 426.1452
246.9532, 425.5536
247.4354, 424.9581
247.9175, 424.2120
248.3996, 423.0771
248.8817, 422.6270
249.3638, 423.2542
249.8459, 424.3540
250.3281, 424.7505
250.8102, 424.0013
251.2923, 423.3345
251.7744, 423.2410
252.2565, 423.9448
252.7386, 424.2736
253.2208, 424.0752
253.7029, 423.6149
254.1850, 423.3063
254.6671, 423.2227
255.1492, 423.1302
255.6313, 422.9006
256.1135, 422.4630
256.5956, 422.3335
257.0777, 422.5822
257.5598, 423.0558
258.0419, 423.6055
258.5240, 424.3541
259.0062, 424.8666
259.4883, 424.9803
259.9704, 424.6680
260.4525, 424.3123
260.9346, 423.8589
261.4167, 423.4373
261.8989, 423.2570
262.3810, 423.4955
262.8631, 423.4979
263.3452, 422.9468
263.8273, 421.8500
264.3094, 421.5862
264.7916, 422.5150
265.2737, 423.7117
265.7558, 424.2327
266.2379, 423.8343
266.7200, 423.5851
267.2021, 423.8145
267.6843, 424.4297
268.1664, 424.3954
268.6485, 423.3849
269.1306, 422.3955
269.6127, 422.3512
270.0948, 423.4489
270.5770, 424.6032
271.0591, 425.7405
271.5412, 426.7741
272.0233, 427.2599
272.5054, 427.0528
272.9875, 426.6476
273.4697, 426.3769
273.9518, 426.2517
274.4339, 426.1661
274.9160, 426.1227
275.3981, 426.1039
275.8802, 426.0587
276.3624, 425.9925
276.8445, 425.8956
277.3266, 425.8315
277.8087, 425.8253
278.2908, 425.4485
278.7729, 424.5361
279.2551, 423.3948
279.7372, 422.7130
280.2193, 422.5145
280.7014, 422.6332
281.1835, 423.2658
281.6656, 424.3943
282.1478, 424.5958
282.6299, 423.5938
283.1120, 422.0900
283.5941, 421.2369
284.0762, 421.0548
284.5583, 421.0864
285.0405, 421.2224
285.5226, 421.4359
286.0047, 421.4456
286.4868, 421.2125
286.9689, 420.8984
287.4510, 420.7012
287.9332, 420.6173
288.4153, 420.5989
288.8974, 420.6031
289.3795, 420.6533
289.8616, 420.9274
290.3438, 421.4653
290.8259, 421.9409
291.3080, 421.9261
291.7901, 421.4917
292.2722, 421.0700
292.7543, 420.8571
293.2365, 420.7257
293.7186, 420.3217
294.2007, 419.6438
294.6828, 418.9730
295.1649, 418.5055
295.6470, 418.2437
296.1292, 418.2076
296.6113, 418.5076
297.0934, 418.9220
297.5755, 419.1380
298.0576, 419.1591
298.5397, 419.0162
299.0219, 418.7240
299.5040, 418.2867
299.9861, 417.6514
300.4682, 416.6764
300.9503, 415.7840
301.4324, 415.6238
301.9146, 416.0482
302.3967, 416.4220
302.8788, 416.1933
303.3609, 415.7210
303.8430, 415.5756
304.3251, 415.9105
304.8073, 416.2825
305.2894, 416.3616
305.7715, 416.1623
306.2536, 415.7252
306.7357, 414.8725
307.2178, 413.8848
307.7000, 412.9865
308.1821, 412.1704
308.6642, 411.6226
309.1463, 411.6745
309.6284, 412.0477
310.1105, 412.3122
310.5927, 412.2632
311.0748, 412.0513
311.5569, 411.8666
312.0390, 411.7051
312.5211, 411.2048
313.0032, 409.7030
313.4854, 407.9282
313.9675, 406.6747
314.4496, 406.7573
314.9317, 406.9362
315.4138, 406.6450
315.8959, 405.9370
316.3781, 405.1196
316.8602, 404.3091
317.3423, 403.4649
317.8244, 402.5680
318.3065, 401.6912
318.7886, 400.6561
319.2708, 399.1792
319.7529, 397.4707
320.2350, 396.1183
320.7171, 395.5622
321.1992, 395.2137
321.6813, 394.7976
322.1635, 394.2665
322.6456, 393.6790
323.1277, 393.0116
323.6098, 392.2938
324.0919, 391.5749
324.5740, 390.9852
325.0562, 390.2878
325.5383, 389.4024
326.0204, 388.3002
326.5025, 387.1176
326.9846, 385.4939
327.4667, 383.9541
327.9489, 383.0428
328.4310, 383.7567
328.9131, 383.9971
329.3952, 383.3945
329.8773, 381.9380
330.3594, 380.2316
330.8416, 377.8533
331.3237, 375.6040
331.8058, 374.0707
332.2879, 373.5665
332.7700, 373.2720
333.2521, 373.3351
333.7343, 373.5802
334.2164, 373.0758
334.6985, 371.3539
335.1806, 369.6122
335.6627, 368.5247
336.1448, 368.3514
336.6270, 368.0726
337.1091, 367.7071
337.5912, 367.1935
338.0733, 366.3575
338.5554, 365.1349
339.0375, 363.8271
339.5197, 362.4630
340.0018, 361.0319
340.4839, 360.0083
340.9660, 359.4702
341.4481, 359.2096
341.9302, 359.0770
342.4124, 359.0943
342.8945, 358.8853
343.3766, 358.2690
343.8587, 357.3377
344.3408, 356.4724
344.8229, 355.6793
345.3051, 354.9346
345.7872, 354.2585
346.2693, 353.6348
346.7514, 352.9054
347.2335, 351.9890
347.7156, 351.0291
348.1978, 350.3170
348.6799, 349.8465
349.1620, 349.5106
349.6441, 349.3388
350.1262, 349.2471
350.6083, 349.0001
351.0905, 348.5304
351.5726, 348.0475
352.0547, 347.8979
352.5368, 347.9553
353.0189, 347.8378
353.5010, 346.8954
353.9832, 345.8851
354.4653, 346.0174
354.9474, 347.3909
355.4295, 348.5308
355.9116, 347.9102
356.3937, 346.3818
356.8759, 345.2368
357.3580, 345.2408
357.8401, 345.5278
358.3222, 345.4850
358.8043, 345.1768
359.2864, 344.9898
359.7686, 345.3179
360.2507, 345.7574
360.7328, 345.9299
361.2149, 345.5218
361.6970, 345.2246
362.1791, 345.5428
362.6613, 346.1772
363.1434, 346.4438
363.6255, 345.5341
364.1076, 344.6736
364.5897, 344.5136
365.0718, 345.3694
365.5540, 346.0786
366.0361, 346.3885
366.5182, 346.4616
367.0003, 346.4941
367.4824, 346.2289
367.9645, 346.2183
368.4467, 346.7266
368.9288, 347.7831
369.4109, 348.5717
369.8930, 348.9287
370.3751, 349.1556
370.8572, 349.4650
371.3394, 350.0137
371.8215, 350.3673
372.3036, 350.3299
372.7857, 350.0793
373.2678, 350.2991
373.7499, 351.2668
374.2321, 352.2066
374.7142, 352.6446
375.1963, 352.3279
375.6784, 352.6568
376.1605, 353.8664
376.6426, 355.4143
377.1248, 356.4008
377.6069, 356.7537
378.0890, 357.0407
378.5711, 357.4319
379.0532, 357.9149
379.5353, 358.3603
380.0175, 358.7625
380.4996, 359.1832
380.9817, 359.7989
381.4638, 360.5538
381.9459, 360.9240
382.4280, 360.6201
382.9102, 360.1131
383.3923, 360.4779
383.8744, 361.6249
384.3565, 362.6319
384.8386, 362.5641
385.3207, 361.9820
385.8029, 362.2179
386.2850, 363.5647
386.7671, 364.8615
387.2492, 364.7104
387.7313, 363.5925
388.2134, 362.6040
388.6956, 362.1425
389.1777, 362.1121
389.6598, 362.6490
390.1419, 363.7101
390.6240, 364.5945
391.1061, 364.6297
391.5883, 364.3843
392.0704, 364.4753
392.5525, 365.3507
393.0346, 366.2134
393.5167, 366.7110
393.9988, 366.9221
394.4810, 367.0734
394.9631, 367.0099
395.4452, 367.0876
395.9273, 367.5335
396.4094, 368.5036
396.8915, 369.4216
397.3737, 370.1706
397.8558, 370.8099
398.3379, 371.4115
398.8200, 371.7967
399.3021, 372.3325
399.7842, 373.2232
400.2664, 374.4622
400.7485, 375.2920
401.2306, 375.3994
401.7127, 375.3839
402.1948, 375.5670
402.6769, 375.7640
403.1591, 376.6071
403.6412, 378.4305
404.1233, 380.7809
404.6054, 382.6230
405.0875, 383.9258
405.5696, 384.7586
406.0518, 384.9937
406.5339, 384.6090
407.0160, 384.5693
407.4981, 384.9346
407.9802, 385.4953
408.4623, 385.9824
408.9445, 386.4078
409.4266, 387.0451
409.9087, 388.0478
410.3908, 389.2479
410.8729, 390.2125
411.3550, 390.9562
411.8372, 391.6928
412.3193, 392.5601
412.8014, 393.5439
413.2835, 394.6596
413.7656, 395.9593
414.2477, 397.2079
414.7299, 398.1608
415.2120, 398.8548
415.6941, 399.3590
416.1762, 399.3344
416.6583, 399.3700
417.1404, 400.1759
417.6226, 401.7271
418.1047, 403.0804
418.5868, 403.6141
419.0689, 403.7229
419.5510, 403.8070
420.0331, 404.1956
420.5153, 404.2635
420.9974, 403.5492
421.4795, 402.3199
421.9616, 401.2757
422.4437, 400.8260
422.9258, 400.4021
423.4080, 399.7282
423.8901, 398.6630
424.3722, 397.8065
424.8543, 397.4928
425.3364, 397.2825
425.8185, 396.7306
426.3007, 395.4156
426.7828, 394.3961
427.2649, 394.0981
427.7470, 394.3142
428.2291, 393.5790
428.7112, 391.4887
429.1934, 389.1484
429.6755, 387.1291
430.1576, 385.5215
430.6397, 383.7498
431.1218, 381.6745
431.6039, 379.6307
432.0861, 378.3643
432.5682, 377.9601
433.0503, 376.9540
433.5324, 374.2802
434.0145, 370.7151
434.4966, 369.4201
434.9788, 370.4731
435.4609, 371.5185
435.9430, 370.3033
436.4251, 367.5097
436.9072, 365.0190
437.3893, 363.1442
437.8715, 361.6921
438.3536, 360.5409
438.8357, 359.6465
439.3178, 358.8869
439.7999, 358.5482
440.2820, 358.0865
440.7642, 356.7965
441.2463, 354.6236
441.7284, 352.7019
442.2105, 352.0285
442.6926, 351.7079
443.1747, 350.8540
443.6569, 348.3399
444.1390, 346.3199
444.6211, 346.2679
445.1032, 347.3234
445.5853, 346.9992
446.0674, 342.7723
446.5496, 338.9129
447.0317, 337.3286
447.5138, 339.1449
447.9959, 339.6925
448.4780, 338.1479
448.9601, 335.9282
449.4423, 334.3943
449.9244, 333.8692
450.4065, 333.3935
450.8886, 332.7711
451.3707, 332.0985
451.8528, 331.8490
452.3350, 332.1910
452.8171, 332.4278
453.2992, 332.1285
453.7813, 331.2785
454.2634, 330.3858
454.7455, 329.3828
455.2277, 328.5403
455.7098, 328.3240
456.1919, 328.6420
456.6740, 328.8785
457.1561, 328.8379
457.6382, 328.5898
458.1204, 328.2434
458.6025, 327.7963
459.0846, 327.2430
459.5667, 326.3475
460.0488, 325.4356
460.5309, 324.9700
461.0131, 325.0802
461.4952, 325.3502
461.9773, 325.6751
462.4594, 325.9337
462.9415, 325.9498
463.4236, 325.4560
463.9058, 324.8907
464.3879, 324.4017
464.8700, 323.9983
465.3521, 323.6625
465.8342, 323.3415
466.3163, 323.1159
466.7985, 323.0400
467.2806, 323.2202
467.7627, 323.3621
468.2448, 323.5231
468.7269, 323.6133
469.2090, 323.4702
469.6912, 322.8340
470.1733, 322.4535
470.6554, 322.6371
471.1375, 323.2870
471.6196, 323.3818
472.1017, 322.7355
472.5839, 322.0518
473.0660, 321.8818
473.5481, 322.2337
474.0302, 322.3019
474.5123, 321.9516
474.9944, 321.5128
475.4766, 321.4837
475.9587, 321.8226
476.4408, 322.2601
476.9229, 322.8614
477.4050, 323.3962
477.8871, 323.3657
478.3693, 322.8275
478.8514, 322.2818
479.3335, 322.0073
479.8156, 321.9559
480.2977, 322.0936
480.7798, 322.4430
481.2620, 322.8683
481.7441, 323.1865
482.2262, 323.5473
482.7083, 324.1732
483.1904, 325.6328
483.6725, 326.8842
484.1547, 327.4033
484.6368, 327.2354
485.1189, 327.1922
485.6010, 327.2038
486.0831, 327.5126
486.5652, 328.2899
487.0474, 329.9964
487.5295, 331.1633
488.0116, 331.4995
488.4937, 331.4977
488.9758, 331.8649
489.4579, 332.7178
489.9401, 333.6022
490.4222, 334.4628
490.9043, 335.2661
491.3864, 335.8393
491.8685, 336.1493
492.3506, 336.4738
492.8328, 337.0523
493.3149, 337.8197
493.7970, 338.5094
494.2791, 339.1148
494.7612, 339.5933
495.2433, 339.8253
495.7255, 339.8974
496.2076, 340.0273
496.6897, 340.2700
497.1718, 340.6332
497.6539, 341.1374
498.1360, 341.7701
498.6182, 342.4924
499.1003, 343.5849
499.5824, 344.5503
500.0645, 344.8981
500.5466, 344.3929
501.0287, 344.1395
501.5109, 344.6241
501.9930, 345.4362
502.4751, 346.1608
502.9572, 346.7757
503.4393, 347.2563
503.9214, 347.5475
504.4036, 347.6945
504.8857, 347.8623
505.3678, 348.0629
505.8499, 348.2695
506.3320, 348.4873
506.8141, 348.7232
507.2963, 348.9042
507.7784, 349.0606
508.2605, 349.0888
508.7426, 348.7750
509.2247, 348.1532
509.7068, 347.7426
510.1890, 347.6457
510.6711, 347.7854
511.1532, 348.3560
511.6353, 349.1749
512.1174, 349.3722
512.5995, 347.6906
513.0817, 345.5731
513.5638, 345.0446
514.0459, 346.0648
514.5280, 346.8706
515.0101, 346.0784
515.4922, 344.6855
515.9744, 343.6548
516.4565, 343.4144
516.9386, 343.0952
517.4207, 342.1896
517.9028, 341.0736
518.3849, 340.3616
518.8671, 340.9611
519.3492, 341.0907
519.8313, 340.0029
520.3134, 337.8415
520.7955, 336.7214
521.2776, 337.2377
521.7598, 337.9099
522.2419, 337.8662
522.7240, 336.9417
523.2061, 336.1764
523.6882, 335.6158
524.1703, 335.1403
524.6525, 334.6207
525.1346, 334.0551
525.6167, 333.4028
526.0988, 332.6183
526.5809, 331.8000
527.0630, 331.1472
527.5452, 330.6421
528.0273, 330.1551
528.5094, 329.5387
528.9915, 328.9335
529.4736, 328.5260
529.9557, 328.3341
530.4379, 328.1354
530.9200, 327.8163
531.4021, 327.4061
531.8842, 326.9226
532.3663, 326.2314
532.8484, 325.6585
533.3306, 325.3322
533.8127, 325.1732
534.2948, 325.0300
534.7769, 325.0483
535.2590, 324.8957
535.7411, 324.4863
536.2233, 323.8296
536.7054, 323.0143
537.1875, 321.8771
537.6696, 320.9239
538.1517, 320.5359
538.6339, 320.7612
539.1160, 321.0125
539.5981, 321.2858
540.0802, 321.5132
540.5623, 321.6650
541.0444, 321.7155
541.5266, 321.5013
542.0087, 320.8221
542.4908, 320.0220
542.9729, 319.5411
543.4550, 319.3629
543.9371, 319.4063
544.4193, 319.7471
544.9014, 320.2072
545.3835, 320.7112
545.8656, 321.2621
546.3477, 321.5968
546.8298, 321.3251
547.3120, 320.9502
547.7941, 320.8942
548.2762, 321.6045
548.7583, 322.1069
549.2404, 322.2050
549.7225, 322.0883
550.2047, 322.0778
550.6868, 322.2264
551.1689, 322.3705
551.6510, 322.4231
552.1331, 322.4293
552.6152, 322.7521
553.0974, 323.4699
553.5795, 324.1354
554.0616, 324.3676
554.5437, 324.2648
555.0258, 324.3334
555.5079, 324.5920
555.9901, 325.1216
556.4722, 326.4947
556.9543, 328.1620
557.4364, 328.8646
557.9185, 327.6441
558.4006, 326.3177
558.8828, 326.3358
559.3649, 327.3437
559.8470, 328.5200
560.3291, 329.8852
560.8112, 331.0142
561.2933, 331.5948
561.7755, 331.6082
562.2576, 331.7908
562.7397, 332.4068
563.2218, 333.0719
563.7039, 333.6162
564.1860, 334.0511
564.6682, 334.3028
565.1503, 334.2342
565.6324, 334.1664
566.1145, 334.5820
566.5966, 335.5534
567.0787, 336.4176
567.5609, 337.0247
568.0430, 337.4709
568.5251, 337.9398
569.0072, 338.4296
569.4893, 338.8679
569.9714, 339.1693
570.4536, 339.4225
570.9357, 339.7633
571.4178, 340.1869
571.8999, 340.6185
572.3820, 341.0271
572.8641, 341.4036
573.3463, 341.7300
573.8284, 341.9941
574.3105, 342.2316
574.7926, 342.2058
575.2747, 342.2442
575.7568, 342.7707
576.2390, 344.5075
576.7211, 345.8204
577.2032, 346.4883
577.6853, 346.6073
578.1674, 346.3835
578.6495, 345.6131
579.1317, 345.1026
579.6138, 345.2171
580.0959, 345.9032
580.5780, 346.8294
581.0601, 348.0417
581.5422, 349.0938
582.0244, 349.3571
582.5065, 349.1980
582.9886, 349.5920
583.4707, 350.7573
583.9528, 352.0290
584.4349, 352.6627
584.9171, 353.0573
585.3992, 353.8116
585.8813, 355.6901
586.3634, 357.3678
586.8455, 357.8544
587.3276, 357.6779
587.8098, 358.2717
588.2919, 360.3964
588.7740, 362.8470
589.2561, 365.4472
589.7382, 368.2077
590.2203, 370.2787
590.7025, 371.2580
591.1846, 372.2288
591.6667, 374.0608
592.1488, 376.8664
592.6309, 378.9678
593.1130, 380.2495
593.5952, 381.1065
594.0773, 381.6743
594.5594, 382.1609
595.0415, 383.4636
595.5236, 386.2008
596.0057, 389.1179
596.4879, 390.5497
596.9700, 391.0519
597.4521, 391.9092
597.9342, 394.2661
598.4163, 396.6598
