##NAMES=Lefontite
##RRUFFID=R140074
##IDEAL CHEMISTRY=Fe^2+^_2_Al_2_Be(PO_4_)_2_(OH)_6_
##LOCALITY=Galiléia, Minas Gerais, Brazil
##OWNER=RRUFF
##SOURCE=Bob Jenkins
##DESCRIPTION=Reddish brown elongated crystals. Associated with ushkovite (R060954), atencioite, rockbridgeite, and albite.
##STATUS=The identification of this mineral is confirmed by single-crystal X-ray diffraction and chemical analysis.
##URL=rruff.info/R140074
##MEASURED CHEMISTRY=(Fe_1.02_Mn_0.81_Ca_0.13_Mg_0.04_)_Σ=2.00_Al_1.99_(Be_1.02_Li_0.08_)(P_0.99_O_4_)_2_(OH)_6_ ; The BeO and Li2O contents were taken from R140428, which were determined by ICP-MS.
115.3354, 886.3383
115.8175, 889.1730
116.2996, 889.7977
116.7817, 890.4012
117.2639, 892.4033
117.7460, 894.6924
118.2281, 895.8561
118.7102, 894.6760
119.1923, 892.7074
119.6744, 890.7108
120.1566, 888.6707
120.6387, 886.9647
121.1208, 885.6458
121.6029, 884.8012
122.0850, 884.6490
122.5671, 886.3884
123.0493, 888.3584
123.5314, 888.7322
124.0135, 886.8660
124.4956, 884.1490
124.9777, 881.6414
125.4598, 879.3105
125.9420, 877.1422
126.4241, 874.9504
126.9062, 872.9125
127.3883, 871.4510
127.8704, 870.8996
128.3525, 870.6144
128.8347, 869.4975
129.3168, 867.5851
129.7989, 865.6985
130.2810, 864.7469
130.7631, 864.4537
131.2452, 863.6188
131.7274, 861.7904
132.2095, 859.3094
132.6916, 856.9514
133.1737, 854.6776
133.6558, 852.7698
134.1379, 851.7243
134.6201, 851.5287
135.1022, 850.9391
135.5843, 849.3834
136.0664, 847.0458
136.5485, 845.3727
137.0306, 844.4440
137.5128, 843.9811
137.9949, 843.6859
138.4770, 843.5894
138.9591, 843.5029
139.4412, 843.5829
139.9233, 843.9180
140.4055, 842.9111
140.8876, 840.0047
141.3697, 836.2836
141.8518, 833.5184
142.3339, 831.9560
142.8160, 830.7833
143.2982, 829.7380
143.7803, 828.8355
144.2624, 828.0408
144.7445, 827.3838
145.2266, 826.8299
145.7087, 826.3608
146.1909, 826.2309
146.6730, 825.8712
147.1551, 824.9814
147.6372, 822.7783
148.1193, 821.4316
148.6014, 821.5681
149.0836, 822.6592
149.5657, 822.8442
150.0478, 821.0363
150.5299, 819.1988
151.0120, 818.1757
151.4941, 818.8961
151.9763, 819.3282
152.4584, 819.1937
152.9405, 818.6338
153.4226, 818.3858
153.9047, 818.9824
154.3868, 819.5844
154.8690, 819.7343
155.3511, 819.0345
155.8332, 818.2419
156.3153, 817.4468
156.7974, 816.6513
157.2795, 815.8546
157.7617, 814.6567
158.2438, 813.6818
158.7259, 813.3822
159.2080, 814.6207
159.6901, 815.8420
160.1722, 816.5696
160.6544, 816.8209
161.1365, 817.0140
161.6186, 816.9758
162.1007, 817.0759
162.5828, 817.6540
163.0649, 819.6783
163.5471, 821.4736
164.0292, 822.0916
164.5113, 821.4919
164.9934, 820.8085
165.4755, 820.3565
165.9576, 820.1934
166.4398, 820.3942
166.9219, 821.2119
167.4040, 822.2336
167.8861, 823.2325
168.3682, 824.2058
168.8503, 825.0760
169.3325, 825.7519
169.8146, 826.3055
170.2967, 826.8426
170.7788, 827.5620
171.2609, 828.2222
171.7430, 828.4129
172.2252, 828.0314
172.7073, 827.9445
173.1894, 829.1063
173.6715, 831.1165
174.1536, 833.0266
174.6357, 834.2151
175.1179, 835.1525
175.6000, 836.5486
176.0821, 838.5558
176.5642, 840.4117
177.0463, 841.0673
177.5284, 840.8820
178.0106, 840.9495
178.4927, 841.9626
178.9748, 843.5881
179.4569, 845.3317
179.9390, 847.2289
180.4211, 849.0143
180.9033, 850.2131
181.3854, 850.9724
181.8675, 851.9341
182.3496, 853.8426
182.8317, 856.2120
183.3138, 857.7979
183.7960, 858.2228
184.2781, 858.4951
184.7602, 860.3940
185.2423, 863.7201
185.7244, 866.6739
186.2065, 867.5691
186.6887, 867.0752
187.1708, 867.8948
187.6529, 870.5785
188.1350, 874.0917
188.6171, 876.7632
189.0992, 878.6208
189.5814, 879.9875
190.0635, 880.8410
190.5456, 881.2910
191.0277, 882.0520
191.5098, 883.3141
191.9919, 884.7673
192.4741, 885.5748
192.9562, 885.6927
193.4383, 886.0491
193.9204, 887.5274
194.4025, 890.0383
194.8846, 892.0040
195.3668, 893.1022
195.8489, 893.7057
196.3310, 894.8588
196.8131, 896.6708
197.2952, 898.1759
197.7773, 898.4011
198.2595, 897.2896
198.7416, 897.0138
199.2237, 898.0999
199.7058, 899.9658
200.1879, 900.9342
200.6700, 900.8743
201.1522, 900.5809
201.6343, 900.6607
202.1164, 901.1840
202.5985, 901.3651
203.0806, 900.9774
203.5627, 900.2578
204.0449, 900.0081
204.5270, 900.3232
205.0091, 900.7740
205.4912, 901.0769
205.9733, 901.2084
206.4554, 901.3026
206.9376, 901.3802
207.4197, 901.4281
207.9018, 901.4210
208.3839, 901.3971
208.8660, 901.2318
209.3481, 900.8456
209.8303, 900.2324
210.3124, 899.4290
210.7945, 898.2995
211.2766, 897.0244
211.7587, 896.3278
212.2408, 896.3864
212.7230, 896.6652
213.2051, 896.8529
213.6872, 896.9693
214.1693, 896.8479
214.6514, 896.2881
215.1335, 895.4539
215.6157, 895.3370
216.0978, 896.4350
216.5799, 897.2772
217.0620, 896.7196
217.5441, 894.0787
218.0262, 892.0215
218.5084, 891.0298
218.9905, 890.8112
219.4726, 889.9170
219.9547, 888.0307
220.4368, 886.0060
220.9189, 884.4246
221.4011, 883.4441
221.8832, 882.5389
222.3653, 881.8295
222.8474, 881.1874
223.3295, 879.9332
223.8116, 877.9642
224.2938, 875.6112
224.7759, 872.9345
225.2580, 869.5168
225.7401, 866.8738
226.2222, 865.4094
226.7043, 864.7886
227.1865, 863.5407
227.6686, 861.4828
228.1507, 859.0925
228.6328, 856.6098
229.1149, 853.9102
229.5970, 851.4483
230.0792, 849.4423
230.5613, 847.7025
231.0434, 845.4723
231.5255, 842.3861
232.0076, 839.4191
232.4897, 837.2231
232.9719, 836.3785
233.4540, 835.0150
233.9361, 832.8073
234.4182, 830.0519
234.9003, 827.7571
235.3824, 826.1346
235.8646, 824.6681
236.3467, 823.0873
236.8288, 821.2472
237.3109, 819.5735
237.7930, 818.0040
238.2751, 816.5939
238.7573, 815.6687
239.2394, 815.7587
239.7215, 815.5280
240.2036, 814.2352
240.6857, 811.0523
241.1678, 808.6939
241.6500, 807.5742
242.1321, 807.1624
242.6142, 806.0325
243.0963, 803.6698
243.5784, 801.3549
244.0605, 799.7361
244.5427, 799.3116
245.0248, 798.2189
245.5069, 795.9306
245.9890, 793.1908
246.4711, 791.8109
246.9532, 792.8011
247.4354, 793.4827
247.9175, 792.6952
248.3996, 789.7930
248.8817, 787.5568
249.3638, 786.1536
249.8459, 785.3394
250.3281, 784.7724
250.8102, 784.9020
251.2923, 784.5014
251.7744, 782.8727
252.2565, 779.4417
252.7386, 777.3709
253.2208, 777.2198
253.7029, 778.0189
254.1850, 778.2234
254.6671, 777.4993
255.1492, 776.8074
255.6313, 776.4421
256.1135, 776.4403
256.5956, 776.4625
257.0777, 776.5751
257.5598, 776.6185
258.0419, 776.2926
258.5240, 775.2845
259.0062, 774.6190
259.4883, 774.8209
259.9704, 776.0068
260.4525, 776.0469
260.9346, 774.3906
261.4167, 772.2776
261.8989, 771.2453
262.3810, 771.8146
262.8631, 772.1057
263.3452, 771.5186
263.8273, 770.0656
264.3094, 769.4608
264.7916, 770.0701
265.2737, 770.9597
265.7558, 771.0823
266.2379, 770.0294
266.7200, 769.6464
267.2021, 770.6344
267.6843, 772.7576
268.1664, 773.5282
268.6485, 772.3875
269.1306, 771.0377
269.6127, 771.0743
270.0948, 772.8683
270.5770, 774.3115
271.0591, 774.9788
271.5412, 775.0078
272.0233, 775.0613
272.5054, 775.0984
272.9875, 775.2344
273.4697, 775.5078
273.9518, 775.8901
274.4339, 776.6816
274.9160, 778.1729
275.3981, 779.9459
275.8802, 780.5576
276.3624, 779.7178
276.8445, 778.8454
277.3266, 778.8010
277.8087, 779.6201
278.2908, 780.9113
278.7729, 782.8386
279.2551, 785.0054
279.7372, 786.4818
280.2193, 787.2355
280.7014, 787.5486
281.1835, 787.4092
281.6656, 786.8280
282.1478, 786.4785
282.6299, 786.3796
283.1120, 786.5373
283.5941, 786.9941
284.0762, 787.7599
284.5583, 788.6893
285.0405, 789.8583
285.5226, 791.2125
286.0047, 792.1921
286.4868, 792.7280
286.9689, 793.1042
287.4510, 793.7520
287.9332, 794.6501
288.4153, 795.4167
288.8974, 795.9667
289.3795, 796.2599
289.8616, 795.8906
290.3438, 794.7413
290.8259, 793.7289
291.3080, 794.1633
291.7901, 795.7836
292.2722, 797.0535
292.7543, 797.3917
293.2365, 797.0816
293.7186, 796.6867
294.2007, 796.2087
294.6828, 795.7557
295.1649, 795.4807
295.6470, 795.3235
296.1292, 795.0906
296.6113, 794.7922
297.0934, 794.3345
297.5755, 793.3578
298.0576, 791.9251
298.5397, 790.7312
299.0219, 790.8705
299.5040, 791.5753
299.9861, 791.0047
300.4682, 788.3629
300.9503, 785.2750
301.4324, 783.7638
301.9146, 783.5568
302.3967, 783.4268
302.8788, 782.3884
303.3609, 781.0378
303.8430, 780.4539
304.3251, 781.0409
304.8073, 781.4131
305.2894, 779.7930
305.7715, 776.9058
306.2536, 774.4797
306.7357, 773.9849
307.2178, 774.0927
307.7000, 773.3231
308.1821, 771.4573
308.6642, 769.6318
309.1463, 769.0389
309.6284, 768.9717
310.1105, 768.3229
310.5927, 766.0389
311.0748, 763.4337
311.5569, 761.4623
312.0390, 760.1472
312.5211, 758.8257
313.0032, 756.9650
313.4854, 754.9545
313.9675, 753.2330
314.4496, 752.5423
314.9317, 751.6612
315.4138, 749.7248
315.8959, 746.9441
316.3781, 744.5153
316.8602, 743.4806
317.3423, 742.7318
317.8244, 741.4403
318.3065, 739.0243
318.7886, 736.6267
319.2708, 734.6479
319.7529, 732.9850
320.2350, 731.3442
320.7171, 729.5900
321.1992, 727.8807
321.6813, 726.3210
322.1635, 725.0327
322.6456, 723.6165
323.1277, 721.8041
323.6098, 719.8347
324.0919, 718.1039
324.5740, 716.6734
325.0562, 715.5049
325.5383, 714.7460
326.0204, 714.6347
326.5025, 713.9767
326.9846, 712.3697
327.4667, 710.3267
327.9489, 708.3713
328.4310, 706.3033
328.9131, 704.5793
329.3952, 703.4601
329.8773, 702.9770
330.3594, 702.0233
330.8416, 700.2775
331.3237, 698.3515
331.8058, 696.6456
332.2879, 694.9987
332.7700, 693.8608
333.2521, 693.4680
333.7343, 693.6269
334.2164, 693.3958
334.6985, 692.6034
335.1806, 691.6765
335.6627, 690.8017
336.1448, 689.9395
336.6270, 689.2943
337.1091, 689.0204
337.5912, 688.8599
338.0733, 688.2554
338.5554, 687.1301
339.0375, 685.8376
339.5197, 684.4154
340.0018, 682.8509
340.4839, 681.6762
340.9660, 680.9651
341.4481, 680.5297
341.9302, 680.2629
342.4124, 680.1902
342.8945, 679.8484
343.3766, 678.9854
343.8587, 677.7435
344.3408, 676.8298
344.8229, 676.3088
345.3051, 675.6896
345.7872, 674.3004
346.2693, 672.3039
346.7514, 670.7552
347.2335, 669.9409
347.7156, 669.6240
348.1978, 669.5840
348.6799, 669.7857
349.1620, 669.7151
349.6441, 668.8526
350.1262, 667.4825
350.6083, 666.2375
351.0905, 665.1689
351.5726, 664.2955
352.0547, 663.7077
352.5368, 663.3404
353.0189, 662.9974
353.5010, 662.6133
353.9832, 662.1789
354.4653, 661.5891
354.9474, 660.8198
355.4295, 660.2454
355.9116, 660.4465
356.3937, 660.9685
356.8759, 661.1276
357.3580, 660.1913
357.8401, 659.2100
358.3222, 659.1208
358.8043, 659.7502
359.2864, 660.0651
359.7686, 659.2219
360.2507, 657.9796
360.7328, 657.0264
361.2149, 656.7840
361.6970, 656.3752
362.1791, 655.0096
362.6613, 653.1976
363.1434, 652.1208
363.6255, 652.8393
364.1076, 653.8174
364.5897, 654.3467
365.0718, 654.2301
365.5540, 654.0306
366.0361, 653.8890
366.5182, 653.7028
367.0003, 653.3506
367.4824, 652.5739
367.9645, 651.8958
368.4467, 651.4509
368.9288, 651.2643
369.4109, 651.1194
369.8930, 651.0342
370.3751, 650.9981
370.8572, 651.0314
371.3394, 651.3857
371.8215, 651.3647
372.3036, 650.5646
372.7857, 649.3619
373.2678, 649.1583
373.7499, 650.3786
374.2321, 651.8258
374.7142, 652.9939
375.1963, 653.8990
375.6784, 654.3616
376.1605, 654.1057
376.6426, 653.7439
377.1248, 654.3421
377.6069, 656.0701
378.0890, 657.7488
378.5711, 659.0069
379.0532, 659.8868
379.5353, 660.5876
380.0175, 661.1041
380.4996, 661.5110
380.9817, 661.8885
381.4638, 662.2289
381.9459, 662.3456
382.4280, 661.8942
382.9102, 661.6055
383.3923, 663.3668
383.8744, 666.9786
384.3565, 670.3007
384.8386, 671.5769
385.3207, 671.6328
385.8029, 672.0586
386.2850, 673.0230
386.7671, 674.3127
387.2492, 676.0099
387.7313, 677.8845
388.2134, 679.3788
388.6956, 679.7816
389.1777, 679.9811
389.6598, 680.9387
390.1419, 682.6179
390.6240, 684.1407
391.1061, 684.7306
391.5883, 685.0154
392.0704, 685.6619
392.5525, 687.0072
393.0346, 688.5470
393.5167, 690.1608
393.9988, 691.8209
394.4810, 693.4620
394.9631, 694.8066
395.4452, 696.3250
395.9273, 698.4052
396.4094, 701.4490
396.8915, 703.9018
397.3737, 704.6982
397.8558, 704.9986
398.3379, 706.2326
398.8200, 709.7228
399.3021, 712.8788
399.7842, 714.9556
400.2664, 715.9508
400.7485, 717.6102
401.2306, 720.2222
401.7127, 723.1766
402.1948, 726.1669
402.6769, 729.5309
403.1591, 732.1165
403.6412, 733.5046
404.1233, 734.2266
404.6054, 735.7822
405.0875, 738.5359
405.5696, 741.0026
406.0518, 742.3923
406.5339, 742.6656
407.0160, 743.5694
407.4981, 745.2195
407.9802, 747.1851
408.4623, 748.9615
408.9445, 750.5706
409.4266, 752.3146
409.9087, 754.3162
410.3908, 756.4835
410.8729, 758.5842
411.3550, 760.6351
411.8372, 762.6609
412.3193, 764.8537
412.8014, 767.0417
413.2835, 768.7474
413.7656, 769.8190
414.2477, 770.7933
414.7299, 771.9989
415.2120, 773.5251
415.6941, 775.5615
416.1762, 779.0117
416.6583, 782.4783
417.1404, 784.5093
417.6226, 785.1302
418.1047, 785.6367
418.5868, 786.5992
419.0689, 787.8840
419.5510, 789.4377
420.0331, 791.8698
420.5153, 793.7010
420.9974, 794.0076
421.4795, 793.2562
421.9616, 792.6026
422.4437, 792.2772
422.9258, 792.1850
423.4080, 792.4778
423.8901, 793.5088
424.3722, 793.7314
424.8543, 792.2023
425.3364, 790.2343
425.8185, 789.1269
426.3007, 789.5460
426.7828, 789.8629
427.2649, 789.8734
427.7470, 789.5994
428.2291, 789.1702
428.7112, 788.5686
429.1934, 787.8285
429.6755, 786.9369
430.1576, 785.8733
430.6397, 784.6672
431.1218, 783.1744
431.6039, 781.7615
432.0861, 781.3196
432.5682, 781.9579
433.0503, 781.7961
433.5324, 779.7190
434.0145, 776.4363
434.4966, 774.4808
434.9788, 773.8864
435.4609, 773.8034
435.9430, 773.8211
436.4251, 773.8056
436.9072, 773.2632
437.3893, 771.8926
437.8715, 770.5270
438.3536, 770.2821
438.8357, 770.8403
439.3178, 771.3142
439.7999, 771.1075
440.2820, 770.6837
440.7642, 770.4705
441.2463, 770.4807
441.7284, 770.4658
442.2105, 770.2916
442.6926, 770.0052
443.1747, 769.6454
443.6569, 769.0198
444.1390, 768.5461
444.6211, 768.4286
445.1032, 768.5696
445.5853, 768.6954
446.0674, 768.7186
446.5496, 768.7662
447.0317, 768.8468
447.5138, 768.8846
447.9959, 769.3121
448.4780, 770.6210
448.9601, 772.0159
449.4423, 772.6968
449.9244, 772.3005
450.4065, 771.9370
450.8886, 771.6032
451.3707, 771.4429
451.8528, 772.1329
452.3350, 773.8504
452.8171, 775.8820
453.2992, 778.0297
453.7813, 780.2975
454.2634, 782.1052
454.7455, 783.4817
455.2277, 784.2482
455.7098, 783.7896
456.1919, 782.3153
456.6740, 781.2961
457.1561, 781.3820
457.6382, 782.0769
458.1204, 782.8063
458.6025, 783.5120
459.0846, 783.7022
459.5667, 782.7272
460.0488, 781.1810
460.5309, 779.7804
461.0131, 778.6183
461.4952, 777.7006
461.9773, 777.1713
462.4594, 776.8749
462.9415, 776.5750
463.4236, 776.7447
463.9058, 776.3712
464.3879, 774.7044
464.8700, 771.8983
465.3521, 769.3014
465.8342, 767.1669
466.3163, 765.3552
466.7985, 763.8369
467.2806, 763.0272
467.7627, 761.7265
468.2448, 759.6466
468.7269, 757.1915
469.2090, 754.9338
469.6912, 753.1148
470.1733, 750.9901
470.6554, 748.2800
471.1375, 745.0634
471.6196, 742.0958
472.1017, 739.3735
472.5839, 736.8956
473.0660, 734.7471
473.5481, 732.9438
474.0302, 730.8016
474.5123, 728.2720
474.9944, 725.4075
475.4766, 722.0786
475.9587, 718.3912
476.4408, 714.9704
476.9229, 712.1773
477.4050, 709.7870
477.8871, 707.4975
478.3693, 705.3124
478.8514, 703.2126
479.3335, 701.1970
479.8156, 699.2476
480.2977, 697.3632
480.7798, 695.5519
481.2620, 693.7782
481.7441, 691.8546
482.2262, 689.9835
482.7083, 688.4659
483.1904, 687.7922
483.6725, 687.0842
484.1547, 685.9037
484.6368, 684.2926
485.1189, 682.9392
485.6010, 682.3788
486.0831, 681.7373
486.5652, 680.5244
487.0474, 678.1747
487.5295, 676.4616
488.0116, 675.6608
488.4937, 675.3104
488.9758, 674.7747
489.4579, 674.0132
489.9401, 673.1696
490.4222, 672.1977
490.9043, 671.1788
491.3864, 670.5514
491.8685, 670.3854
492.3506, 670.1093
492.8328, 669.1921
493.3149, 667.8015
493.7970, 666.7095
494.2791, 666.0101
494.7612, 665.4352
495.2433, 664.6155
495.7255, 663.6733
496.2076, 662.9035
496.6897, 662.4206
497.1718, 662.1591
497.6539, 662.2350
498.1360, 662.5402
498.6182, 662.6465
499.1003, 662.2247
499.5824, 661.5940
500.0645, 660.9335
500.5466, 660.2123
501.0287, 659.6517
501.5109, 659.2672
501.9930, 659.0847
502.4751, 659.1366
502.9572, 659.7706
503.4393, 660.2142
503.9214, 660.2600
504.4036, 660.0419
504.8857, 660.1039
505.3678, 660.8665
505.8499, 661.1702
506.3320, 660.3430
506.8141, 658.2663
507.2963, 656.9017
507.7784, 656.3324
508.2605, 656.2281
508.7426, 656.4159
509.2247, 656.8604
509.7068, 656.9969
510.1890, 656.6528
510.6711, 656.0771
511.1532, 655.7692
511.6353, 655.6343
512.1174, 655.2468
512.5995, 654.0404
513.0817, 652.6354
513.5638, 651.8745
514.0459, 651.7449
514.5280, 651.5909
515.0101, 650.8835
515.4922, 650.0178
515.9744, 649.4150
516.4565, 649.4209
516.9386, 649.1893
517.4207, 648.2301
517.9028, 646.9083
518.3849, 645.8191
518.8671, 645.6458
519.3492, 645.0671
519.8313, 643.4210
520.3134, 640.8503
520.7955, 639.3917
521.2776, 639.6064
521.7598, 640.0916
522.2419, 640.1563
522.7240, 639.8254
523.2061, 638.7550
523.6882, 636.6135
524.1703, 634.4102
524.6525, 633.6599
525.1346, 634.2666
525.6167, 634.8015
526.0988, 635.0626
526.5809, 634.8281
527.0630, 633.2363
527.5452, 630.5583
528.0273, 628.2896
528.5094, 627.6728
528.9915, 627.7491
529.4736, 627.3341
529.9557, 626.3157
530.4379, 625.5303
530.9200, 625.9450
531.4021, 626.5980
531.8842, 626.5009
532.3663, 624.6323
532.8484, 623.1017
533.3306, 622.6526
533.8127, 622.8742
534.2948, 622.9230
534.7769, 622.7628
535.2590, 622.3842
535.7411, 621.7539
536.2233, 620.8853
536.7054, 619.9139
537.1875, 618.6906
537.6696, 617.6937
538.1517, 617.4188
538.6339, 617.9716
539.1160, 617.7373
539.5981, 616.3464
540.0802, 614.9847
540.5623, 615.6176
541.0444, 617.8527
541.5266, 619.4412
542.0087, 619.4290
542.4908, 618.7062
542.9729, 618.4531
543.4550, 618.5762
543.9371, 618.7025
544.4193, 618.3977
544.9014, 618.1494
545.3835, 618.3074
545.8656, 618.8976
546.3477, 619.9385
546.8298, 622.3635
547.3120, 624.7328
547.7941, 625.8184
548.2762, 623.7913
548.7583, 622.7285
549.2404, 623.3093
549.7225, 624.9074
550.2047, 626.5699
550.6868, 628.6212
551.1689, 630.0805
551.6510, 630.4992
552.1331, 630.0836
552.6152, 630.1624
553.0974, 630.7958
553.5795, 631.6650
554.0616, 632.5378
554.5437, 633.4658
555.0258, 634.7621
555.5079, 636.4924
555.9901, 638.3527
556.4722, 640.0359
556.9543, 641.6362
557.4364, 643.3090
557.9185, 644.9622
558.4006, 646.9288
558.8828, 649.9133
559.3649, 653.4111
559.8470, 656.3304
560.3291, 657.4445
560.8112, 658.5626
561.2933, 660.7160
561.7755, 663.9426
562.2576, 666.5848
562.7397, 667.8517
563.2218, 668.8818
563.7039, 670.2169
564.1860, 671.9473
564.6682, 673.7819
565.1503, 675.7784
565.6324, 677.8514
566.1145, 679.7658
566.5966, 681.4846
567.0787, 683.7626
567.5609, 687.0128
568.0430, 690.6302
568.5251, 693.1580
569.0072, 694.7228
569.4893, 696.0995
569.9714, 697.6700
570.4536, 699.3478
570.9357, 700.9549
571.4178, 702.4954
571.8999, 704.2398
572.3820, 706.5497
572.8641, 709.0092
573.3463, 711.2333
573.8284, 713.1689
574.3105, 714.8641
574.7926, 716.2150
575.2747, 717.3678
575.7568, 718.5068
576.2390, 720.0331
576.7211, 721.0125
577.2032, 721.0352
577.6853, 720.4620
578.1674, 720.5941
578.6495, 721.6712
579.1317, 722.7616
579.6138, 723.4801
580.0959, 723.8711
580.5780, 724.1395
581.0601, 724.2466
581.5422, 724.7318
582.0244, 726.6761
582.5065, 729.3118
582.9886, 730.4410
583.4707, 729.5445
583.9528, 728.5193
584.4349, 729.0926
584.9171, 730.6309
585.3992, 732.2015
585.8813, 733.9335
586.3634, 735.1346
586.8455, 735.0809
587.3276, 734.2294
587.8098, 733.8386
588.2919, 734.4382
588.7740, 735.2310
589.2561, 736.0422
589.7382, 736.8707
590.2203, 737.5451
590.7025, 738.0510
591.1846, 738.4124
591.6667, 738.5208
592.1488, 738.3300
592.6309, 738.7696
593.1130, 740.0547
593.5952, 741.3215
594.0773, 741.3066
594.5594, 740.3350
595.0415, 739.6407
595.5236, 739.5394
596.0057, 739.8444
596.4879, 740.7354
596.9700, 741.8818
597.4521, 742.4903
597.9342, 741.7648
598.4163, 740.7762
598.8984, 740.1210
599.3806, 739.7682
599.8627, 739.2986
600.3448, 738.4242
600.8269, 737.5712
601.3090, 737.0541
601.7911, 737.1661
602.2733, 736.3819
602.7554, 734.4500
603.2375, 731.9764
603.7196, 729.3798
604.2017, 726.5715
604.6838, 724.4513
605.1660, 723.2774
605.6481, 722.4413
606.1302, 721.1721
