##NAMES=Legrandite
##RRUFFID=R040151
##IDEAL CHEMISTRY=Zn^2+^_2_As^5+^O_4_(OH)&#183;H_2_O
##LOCALITY=Mapimi, Durango, Mexico
##OWNER=RRUFF
##SOURCE=University of Arizona Mineral Museum
##DESCRIPTION=Yellow crystal fragments; same material used in McLean et al. (1971) study
##STATUS=The identification of this mineral has been confirmed by X-ray diffraction and chemical analysis
##URL=rruff.info/R040151
##MEASURED CHEMISTRY=Zn_1.88_Fe^2+^_0.04_As_1.03_O_4_(OH)Â·H_2_O
156.2139, 1558.497
156.6960, 1549.151
157.1782, 1556.963
157.6603, 1583.132
158.1424, 1621.845
158.6245, 1668.608
159.1066, 1724.565
159.5887, 1795.911
160.0709, 1887.877
160.5530, 1994.631
161.0351, 2116.073
161.5172, 2260.479
161.9993, 2386.126
162.4814, 2462.677
162.9636, 2499.591
163.4457, 2505.698
163.9278, 2476.816
164.4099, 2420.485
164.8920, 2347.373
165.3741, 2253.786
165.8563, 2153.933
166.3384, 2048.676
166.8205, 1943.919
167.3026, 1850.789
167.7847, 1775.297
168.2668, 1713.448
168.7490, 1656.677
169.2311, 1604.779
169.7132, 1558.320
170.1953, 1517.223
170.6774, 1481.073
171.1595, 1450.019
171.6417, 1425.562
172.1238, 1405.652
172.6059, 1385.209
173.0880, 1363.738
173.5701, 1342.720
174.0522, 1322.026
174.5344, 1302.100
175.0165, 1284.000
175.4986, 1268.297
175.9807, 1254.597
176.4628, 1241.249
176.9449, 1226.658
177.4271, 1215.721
177.9092, 1209.821
178.3913, 1208.158
178.8734, 1210.083
179.3555, 1215.979
179.8376, 1224.639
180.3197, 1231.963
180.8019, 1234.764
181.2840, 1242.290
181.7661, 1260.618
182.2482, 1283.572
182.7303, 1303.359
183.2124, 1315.928
183.6946, 1323.437
184.1767, 1332.203
184.6588, 1343.885
185.1409, 1353.705
185.6230, 1354.951
186.1051, 1355.724
186.5873, 1366.444
187.0694, 1393.047
187.5515, 1429.245
188.0336, 1457.557
188.5157, 1466.864
188.9978, 1487.926
189.4800, 1531.431
189.9621, 1585.952
190.4442, 1640.774
190.9263, 1690.900
191.4084, 1738.243
191.8905, 1788.016
192.3727, 1845.243
192.8548, 1895.771
193.3369, 1937.935
193.8190, 1973.444
194.3011, 2002.552
194.7832, 2025.245
195.2654, 2044.980
195.7475, 2070.287
196.2296, 2110.264
196.7117, 2138.301
197.1938, 2149.568
197.6759, 2150.639
198.1581, 2146.925
198.6402, 2140.306
199.1223, 2129.259
199.6044, 2110.854
200.0865, 2083.841
200.5686, 2050.880
201.0508, 2006.697
201.5329, 1961.152
202.0150, 1922.762
202.4971, 1893.496
202.9792, 1868.889
203.4613, 1839.920
203.9435, 1797.645
204.4256, 1772.396
204.9077, 1768.404
205.3898, 1776.654
205.8719, 1792.997
206.3540, 1815.815
206.8362, 1843.577
207.3183, 1874.733
207.8004, 1909.636
208.2825, 1946.744
208.7646, 1990.720
209.2467, 2033.130
209.7289, 2069.088
210.2110, 2097.867
210.6931, 2121.932
211.1752, 2144.243
211.6573, 2165.535
212.1395, 2181.610
212.6216, 2196.014
213.1037, 2202.713
213.5858, 2195.434
214.0679, 2176.193
214.5500, 2153.233
215.0322, 2134.460
215.5143, 2120.584
215.9964, 2106.599
216.4785, 2093.111
216.9606, 2078.896
217.4427, 2060.852
217.9249, 2041.167
218.4070, 2025.310
218.8891, 2018.102
219.3712, 2019.726
219.8533, 2023.358
220.3354, 2023.304
220.8176, 2031.225
221.2997, 2051.368
221.7818, 2082.125
222.2639, 2120.771
222.7460, 2166.253
223.2281, 2217.932
223.7103, 2264.823
224.1924, 2301.742
224.6745, 2339.390
225.1566, 2386.416
225.6387, 2434.464
226.1208, 2470.761
226.6030, 2487.218
227.0851, 2487.721
227.5672, 2489.279
228.0493, 2503.996
228.5314, 2501.871
229.0135, 2472.625
229.4957, 2427.107
229.9778, 2376.123
230.4599, 2324.314
230.9420, 2272.482
231.4241, 2221.642
231.9062, 2168.788
232.3884, 2123.189
232.8705, 2084.510
233.3526, 2053.180
233.8347, 2028.460
234.3168, 2010.375
234.7989, 2000.688
235.2811, 2002.970
235.7632, 2019.802
236.2453, 2043.378
236.7274, 2074.208
237.2095, 2109.872
237.6916, 2148.889
238.1738, 2190.998
238.6559, 2237.339
239.1380, 2291.955
239.6201, 2359.627
240.1022, 2417.960
240.5843, 2470.528
241.0665, 2510.034
241.5486, 2529.974
242.0307, 2531.738
242.5128, 2523.303
242.9949, 2510.995
243.4770, 2494.589
243.9592, 2476.704
244.4413, 2459.116
244.9234, 2437.795
245.4055, 2407.703
245.8876, 2372.151
246.3697, 2339.602
246.8519, 2316.706
247.3340, 2302.273
247.8161, 2286.408
248.2982, 2264.384
248.7803, 2247.620
249.2624, 2240.249
249.7446, 2240.044
250.2267, 2242.210
250.7088, 2241.864
251.1909, 2244.767
251.6730, 2270.906
252.1551, 2335.626
252.6373, 2392.624
253.1194, 2418.323
253.6015, 2432.959
254.0836, 2458.284
254.5657, 2502.774
255.0478, 2558.118
255.5300, 2612.836
256.0121, 2667.296
256.4942, 2719.129
256.9763, 2767.527
257.4584, 2812.919
257.9406, 2855.672
258.4227, 2895.767
258.9048, 2933.573
259.3869, 2966.002
259.8690, 2992.417
260.3511, 3030.159
260.8333, 3084.001
261.3154, 3150.750
261.7975, 3231.123
262.2796, 3324.025
262.7617, 3419.008
263.2438, 3504.840
263.7260, 3585.092
264.2081, 3680.015
264.6902, 3795.361
265.1723, 3920.861
265.6544, 4050.238
266.1365, 4183.193
266.6187, 4317.212
267.1008, 4451.034
267.5829, 4585.233
268.0650, 4724.782
268.5471, 4874.680
269.0292, 5013.325
269.5114, 5122.306
269.9935, 5209.318
270.4756, 5285.220
270.9577, 5361.893
271.4398, 5421.055
271.9219, 5441.979
272.4041, 5424.272
272.8862, 5378.487
273.3683, 5304.187
273.8504, 5205.071
274.3325, 5092.168
274.8146, 4961.199
275.2968, 4824.555
275.7789, 4689.510
276.2610, 4555.671
276.7431, 4420.047
277.2252, 4281.289
277.7073, 4140.454
278.1895, 3996.192
278.6716, 3845.614
279.1537, 3705.198
279.6358, 3583.075
280.1179, 3474.787
280.6000, 3372.989
281.0822, 3275.373
281.5643, 3186.485
282.0464, 3113.085
282.5285, 3056.461
283.0106, 3003.693
283.4927, 2954.468
283.9749, 2907.900
284.4570, 2864.638
284.9391, 2824.179
285.4212, 2781.584
285.9033, 2732.303
286.3854, 2676.552
286.8676, 2623.953
287.3497, 2579.472
287.8318, 2532.996
288.3139, 2475.605
288.7960, 2411.673
289.2781, 2354.877
289.7603, 2314.085
290.2424, 2283.927
290.7245, 2242.394
291.2066, 2179.871
291.6887, 2118.678
292.1708, 2060.471
292.6530, 2005.972
293.1351, 1957.217
293.6172, 1914.792
294.0993, 1875.019
294.5814, 1831.532
295.0635, 1780.526
295.5457, 1732.796
296.0278, 1684.713
296.5099, 1642.447
296.9920, 1612.586
297.4741, 1594.475
297.9562, 1581.408
298.4384, 1566.755
298.9205, 1550.410
299.4026, 1532.898
299.8847, 1510.102
300.3668, 1490.274
300.8489, 1477.465
301.3310, 1469.822
301.8131, 1463.138
302.2953, 1454.548
302.7774, 1444.756
303.2595, 1437.456
303.7416, 1434.113
304.2237, 1431.292
304.7058, 1426.944
305.1880, 1423.243
305.6701, 1422.688
306.1522, 1426.236
306.6343, 1432.475
307.1164, 1439.654
307.5985, 1448.365
308.0807, 1455.693
308.5628, 1459.799
309.0449, 1463.238
309.5270, 1466.870
310.0091, 1471.002
310.4912, 1476.480
310.9734, 1486.260
311.4555, 1499.484
311.9376, 1505.614
312.4197, 1499.209
312.9018, 1492.294
313.3839, 1495.277
313.8661, 1503.965
314.3482, 1507.143
314.8303, 1495.475
315.3124, 1477.096
315.7945, 1466.885
316.2766, 1466.079
316.7588, 1466.380
317.2409, 1465.509
317.7230, 1462.115
318.2051, 1453.096
318.6872, 1434.009
319.1693, 1416.500
319.6515, 1411.516
320.1336, 1416.383
320.6157, 1419.049
321.0978, 1415.391
321.5799, 1407.891
322.0620, 1399.146
322.5442, 1388.239
323.0263, 1381.206
323.5084, 1382.448
323.9905, 1387.349
324.4726, 1390.494
324.9547, 1390.970
325.4369, 1389.063
325.9190, 1384.303
326.4011, 1376.301
326.8832, 1371.334
327.3653, 1370.328
327.8474, 1371.332
328.3296, 1375.267
328.8117, 1380.571
329.2938, 1382.583
329.7759, 1378.035
330.2580, 1369.037
330.7401, 1365.311
331.2223, 1373.674
331.7044, 1378.862
332.1865, 1374.794
332.6686, 1368.854
333.1507, 1370.870
333.6328, 1383.224
334.1150, 1397.745
334.5971, 1401.103
335.0792, 1385.700
335.5613, 1379.887
336.0434, 1387.449
336.5255, 1399.962
337.0077, 1415.477
337.4898, 1432.435
337.9719, 1448.335
338.4540, 1460.581
338.9361, 1469.842
339.4182, 1481.716
339.9004, 1493.057
340.3825, 1512.313
340.8646, 1545.504
341.3467, 1585.751
341.8288, 1624.598
342.3109, 1659.044
342.7931, 1690.913
343.2752, 1721.229
343.7573, 1749.035
344.2394, 1782.697
344.7215, 1827.206
345.2036, 1876.460
345.6858, 1925.802
346.1679, 1975.103
346.6500, 2026.081
347.1321, 2079.546
347.6142, 2135.449
348.0963, 2194.205
348.5785, 2256.170
349.0606, 2320.414
349.5427, 2388.905
350.0248, 2459.540
350.5069, 2525.320
350.9890, 2580.218
351.4712, 2633.939
351.9533, 2697.991
352.4354, 2769.695
352.9175, 2835.276
353.3996, 2888.694
353.8817, 2931.472
354.3639, 2966.707
354.8460, 2995.410
355.3281, 3016.754
355.8102, 3029.311
356.2923, 3034.899
356.7744, 3037.962
357.2566, 3038.795
357.7387, 3028.865
358.2208, 2997.805
358.7029, 2942.045
359.1850, 2882.674
359.6671, 2824.779
360.1493, 2759.254
360.6314, 2677.566
361.1135, 2585.203
361.5956, 2493.201
362.0777, 2407.280
362.5598, 2327.470
363.0420, 2253.575
363.5241, 2189.171
364.0062, 2125.328
364.4883, 2062.985
364.9704, 1999.507
365.4525, 1930.021
365.9347, 1854.822
366.4168, 1782.060
366.8989, 1720.909
367.3810, 1671.120
367.8631, 1629.914
368.3452, 1601.379
368.8274, 1576.836
369.3095, 1550.976
369.7916, 1525.154
370.2737, 1502.892
370.7558, 1485.709
371.2379, 1473.080
371.7201, 1464.893
372.2022, 1461.418
372.6843, 1459.615
373.1664, 1456.113
373.6485, 1455.303
374.1306, 1464.055
374.6128, 1485.034
375.0949, 1506.689
375.5770, 1517.849
376.0591, 1526.209
376.5412, 1549.815
377.0233, 1593.780
377.5055, 1641.787
377.9876, 1676.848
378.4697, 1697.146
378.9518, 1721.280
379.4339, 1748.257
379.9160, 1780.108
380.3982, 1817.985
380.8803, 1861.645
381.3624, 1911.541
381.8445, 1968.939
382.3266, 2029.136
382.8087, 2078.667
383.2909, 2104.726
383.7730, 2135.967
384.2551, 2173.096
384.7372, 2215.389
385.2193, 2265.830
385.7014, 2322.805
386.1836, 2378.027
386.6657, 2423.646
387.1478, 2459.466
387.6299, 2485.555
388.1120, 2490.045
388.5941, 2498.565
389.0763, 2529.797
389.5584, 2567.967
390.0405, 2587.428
390.5226, 2575.825
391.0047, 2545.711
391.4868, 2515.716
391.9690, 2486.361
392.4511, 2453.376
392.9332, 2416.966
393.4153, 2374.920
393.8974, 2325.945
394.3795, 2269.877
394.8617, 2209.287
395.3438, 2142.598
395.8259, 2073.224
396.3080, 2005.774
396.7901, 1940.730
397.2722, 1878.677
397.7544, 1819.845
398.2365, 1764.771
398.7186, 1713.361
399.2007, 1668.710
399.6828, 1624.702
400.1649, 1576.773
400.6471, 1528.543
401.1292, 1485.881
401.6113, 1450.511
402.0934, 1420.341
402.5755, 1392.215
403.0576, 1367.217
403.5398, 1341.344
404.0219, 1313.477
404.5040, 1285.652
404.9861, 1257.503
405.4682, 1230.151
405.9503, 1206.304
406.4325, 1187.926
406.9146, 1173.689
407.3967, 1158.975
407.8788, 1142.224
408.3609, 1128.362
408.8430, 1116.786
409.3252, 1109.114
409.8073, 1108.792
410.2894, 1115.682
410.7715, 1122.211
411.2536, 1119.451
411.7357, 1109.969
412.2179, 1107.562
412.7000, 1114.761
413.1821, 1125.098
413.6642, 1137.028
414.1463, 1148.743
414.6284, 1155.672
415.1106, 1154.098
415.5927, 1151.090
416.0748, 1150.744
416.5569, 1153.052
417.0390, 1158.977
417.5211, 1169.653
418.0033, 1180.948
418.4854, 1185.758
418.9675, 1180.275
419.4496, 1181.684
419.9317, 1195.056
420.4138, 1211.805
420.8960, 1228.249
421.3781, 1243.159
421.8602, 1254.781
422.3423, 1261.809
422.8244, 1265.200
423.3065, 1269.228
423.7887, 1276.342
424.2708, 1280.089
424.7529, 1276.825
425.2350, 1272.261
425.7171, 1270.665
426.1992, 1272.796
426.6814, 1277.245
427.1635, 1284.313
427.6456, 1293.506
428.1277, 1298.116
428.6098, 1297.201
429.0919, 1293.408
429.5741, 1288.300
430.0562, 1281.243
430.5383, 1269.925
431.0204, 1250.460
431.5025, 1233.872
431.9846, 1233.110
432.4668, 1243.470
432.9489, 1247.880
433.4310, 1241.474
433.9131, 1229.668
434.3952, 1217.544
434.8773, 1204.918
435.3595, 1195.427
435.8416, 1193.872
436.3237, 1191.407
436.8058, 1179.913
437.2879, 1162.971
437.7701, 1150.127
438.2522, 1146.396
438.7343, 1148.938
439.2164, 1150.794
439.6985, 1152.578
440.1806, 1152.424
440.6628, 1147.399
441.1449, 1143.044
441.6270, 1141.900
442.1091, 1144.621
442.5912, 1152.032
443.0733, 1166.898
443.5555, 1186.090
444.0376, 1195.904
444.5197, 1191.746
445.0018, 1191.062
445.4839, 1199.650
445.9660, 1215.758
446.4482, 1241.334
446.9303, 1278.281
447.4124, 1310.615
447.8945, 1324.432
448.3766, 1327.504
448.8587, 1335.346
449.3409, 1350.098
449.8230, 1368.996
450.3051, 1391.470
450.7872, 1416.786
451.2693, 1437.692
451.7514, 1453.893
452.2336, 1466.429
452.7157, 1474.688
453.1978, 1479.772
453.6799, 1483.063
454.1620, 1484.977
454.6441, 1485.048
455.1263, 1482.389
455.6084, 1476.419
456.0905, 1471.038
456.5726, 1473.914
457.0547, 1469.273
457.5368, 1447.281
458.0190, 1415.693
458.5011, 1386.951
458.9832, 1366.422
459.4653, 1349.726
459.9474, 1330.171
460.4295, 1307.757
460.9117, 1287.561
461.3938, 1271.468
461.8759, 1256.646
462.3580, 1239.932
462.8401, 1221.899
463.3222, 1205.618
463.8044, 1192.907
464.2865, 1181.427
464.7686, 1168.265
465.2507, 1154.327
465.7328, 1143.854
466.2149, 1139.197
466.6971, 1137.161
467.1792, 1131.571
467.6613, 1120.059
468.1434, 1109.785
468.6255, 1101.159
469.1076, 1093.368
469.5898, 1087.266
470.0719, 1081.681
470.5540, 1073.232
471.0361, 1059.022
471.5182, 1042.464
472.0003, 1034.760
472.4825, 1041.277
472.9646, 1042.121
473.4467, 1025.717
473.9288, 1007.542
474.4109, 998.2015
474.8930, 997.6254
475.3752, 997.7151
475.8573, 994.4010
476.3394, 988.5928
476.8215, 980.6837
477.3036, 970.6791
477.7857, 963.0695
478.2679, 961.1474
478.7500, 962.1909
479.2321, 959.4569
479.7142, 952.0930
480.1963, 943.9431
480.6784, 932.6906
481.1606, 923.0035
481.6427, 921.9375
482.1248, 927.8650
482.6069, 930.4509
483.0890, 921.1337
483.5711, 902.9178
484.0533, 892.5535
484.5354, 894.8526
485.0175, 897.4044
485.4996, 899.3425
485.9817, 900.1506
486.4638, 898.6324
486.9460, 895.0700
487.4281, 892.0812
487.9102, 892.4034
488.3923, 894.8376
488.8744, 895.9071
489.3565, 895.5907
489.8387, 893.9155
490.3208, 891.1367
490.8029, 886.7341
491.2850, 879.6500
491.7671, 868.5826
492.2492, 858.6064
492.7314, 851.9050
493.2135, 846.9988
493.6956, 842.3427
494.1777, 837.7691
494.6598, 833.8140
495.1419, 831.0338
495.6241, 829.1350
496.1062, 826.0573
496.5883, 819.5618
497.0704, 815.1194
497.5525, 815.1684
498.0346, 816.0560
498.5168, 814.5787
498.9989, 810.5394
499.4810, 806.1120
499.9631, 802.4138
500.4452, 799.7788
500.9273, 800.2480
501.4095, 804.8220
501.8916, 808.1657
502.3737, 806.6306
502.8558, 803.3101
503.3379, 804.0977
503.8200, 811.0300
504.3022, 813.7992
504.7843, 804.5809
505.2664, 791.4368
505.7485, 783.7717
506.2306, 781.9813
506.7127, 781.7343
507.1949, 780.2330
507.6770, 777.7975
508.1591, 775.9152
508.6412, 776.6236
509.1233, 774.7589
509.6054, 769.3036
510.0876, 761.9075
510.5697, 752.7359
511.0518, 742.5491
511.5339, 733.4341
512.0161, 727.0423
512.4982, 722.7095
512.9803, 718.4841
513.4624, 714.2230
513.9445, 711.0779
514.4266, 709.2759
514.9088, 709.0345
515.3909, 711.4683
515.8730, 717.0179
516.3551, 719.6996
516.8372, 716.4193
517.3193, 710.4529
517.8015, 702.3280
518.2836, 693.7792
518.7657, 690.4824
519.2478, 695.7850
519.7299, 706.7212
520.2120, 716.7598
520.6942, 729.3584
521.1763, 734.1232
521.6584, 723.6491
522.1405, 713.2305
522.6226, 710.4328
523.1047, 714.5385
523.5869, 722.3978
524.0690, 733.4889
524.5511, 745.0133
525.0332, 750.9401
525.5153, 751.3287
525.9974, 756.1157
526.4796, 769.5096
526.9617, 785.0126
527.4438, 796.0001
527.9259, 802.9465
528.4080, 808.2652
528.8901, 809.6699
529.3723, 812.1264
529.8544, 819.4205
530.3365, 829.7385
530.8186, 839.2281
531.3007, 846.6438
531.7828, 853.9293
532.2650, 864.4910
532.7471, 879.8146
533.2292, 889.3068
533.7113, 888.0301
534.1934, 886.3892
534.6755, 889.3329
535.1577, 893.1096
535.6398, 891.9662
536.1219, 883.8928
536.6040, 874.2296
537.0861, 867.0646
537.5682, 862.2831
538.0504, 861.5154
538.5325, 866.0801
539.0146, 865.7291
539.4967, 850.9648
539.9788, 825.3754
540.4609, 807.3591
540.9431, 803.1102
541.4252, 796.8233
541.9073, 784.1624
542.3894, 768.8090
542.8715, 752.4715
543.3536, 736.4911
543.8358, 724.1691
544.3179, 718.6658
544.8000, 718.3778
545.2821, 716.3595
545.7642, 712.2402
546.2463, 707.4391
546.7285, 703.3419
547.2106, 697.8398
547.6926, 687.9747
548.1747, 674.2466
548.6569, 662.3869
549.1390, 654.7857
549.6211, 650.4638
550.1032, 650.3474
550.5853, 653.1022
551.0674, 652.5609
551.5496, 645.7200
552.0317, 637.2796
552.5138, 635.1765
552.9959, 642.2630
553.4780, 646.0393
553.9601, 647.0624
554.4423, 644.7300
554.9244, 634.8633
555.4065, 622.6992
555.8886, 616.8722
556.3707, 620.6640
556.8528, 627.4052
557.3350, 629.9562
557.8171, 628.4866
558.2992, 623.5664
558.7813, 613.8907
559.2634, 605.0311
559.7455, 600.6428
560.2277, 600.0011
560.7098, 600.3083
561.1919, 602.6352
561.6740, 603.9905
562.1561, 603.2456
562.6382, 601.1860
563.1204, 597.5746
563.6025, 593.1418
564.0846, 590.8784
564.5667, 593.4572
565.0488, 598.9924
565.5309, 599.1042
566.0131, 589.3895
566.4952, 585.4191
566.9773, 598.8879
567.4594, 611.6061
567.9415, 609.8904
568.4236, 596.2965
568.9058, 584.8386
569.3879, 582.7298
569.8700, 584.0992
570.3521, 582.6320
570.8342, 579.5362
571.3163, 579.5543
571.7985, 584.3990
572.2806, 590.0200
572.7627, 591.2582
573.2448, 587.4220
573.7269, 585.7980
574.2090, 590.7725
574.6912, 592.5925
575.1733, 584.7772
575.6554, 574.6638
576.1375, 571.7082
576.6196, 577.4327
577.1017, 583.4117
577.5839, 579.6478
578.0660, 570.0469
578.5481, 569.5424
579.0302, 579.6614
579.5123, 586.9391
579.9944, 584.2114
580.4766, 575.9756
580.9587, 570.9864
581.4408, 570.2103
581.9229, 567.9506
582.4050, 561.4031
582.8871, 555.0081
583.3693, 551.7072
583.8514, 550.9291
584.3335, 551.3513
584.8156, 552.4017
585.2977, 552.9537
585.7798, 550.4470
586.2620, 544.3997
586.7441, 541.3644
587.2262, 543.6604
587.7083, 545.6392
588.1904, 543.1707
588.6725, 538.5113
589.1547, 535.2769
589.6368, 534.1770
590.1189, 533.8693
590.6010, 532.7591
591.0831, 532.5919
591.5652, 537.6940
592.0474, 546.9326
592.5295, 551.9843
593.0116, 546.4997
593.4937, 535.3029
593.9758, 534.7268
594.4579, 553.7213
594.9401, 562.0370
595.4222, 545.4103
595.9043, 528.1830
596.3864, 522.9083
596.8685, 526.7309
597.3506, 531.3753
597.8328, 534.8923
598.3149, 536.1172
598.7970, 531.7380
599.2791, 524.4334
599.7612, 522.0059
600.2433, 525.9669
600.7255, 530.1259
601.2076, 528.8358
601.6897, 523.0895
602.1718, 521.0357
602.6539, 526.7959
603.1360, 530.6938
603.6182, 530.6579
604.1003, 529.5999
604.5824, 530.6136
605.0645, 532.9019
605.5466, 532.1498
606.0287, 523.4856
606.5109, 513.6990
606.9930, 515.4910
607.4751, 526.9957
607.9572, 532.6788
608.4393, 527.8053
608.9214, 519.6894
609.4036, 515.1662
609.8857, 514.2636
610.3678, 514.5876
610.8499, 517.7223
611.3320, 519.9565
611.8141, 518.4598
612.2963, 516.8950
612.7784, 520.2146
613.2605, 527.9954
613.7426, 534.5313
614.2247, 535.5308
614.7068, 532.2215
615.1890, 526.2321
615.6711, 517.2964
616.1532, 512.1305
616.6353, 514.0040
617.1174, 517.9218
617.5995, 517.4134
618.0817, 512.3700
618.5638, 512.1235
619.0459, 521.8269
619.5280, 530.8307
620.0101, 535.4898
620.4922, 536.9059
620.9744, 535.3245
621.4565, 531.5958
621.9386, 529.2015
622.4207, 531.8165
622.9028, 538.0385
623.3849, 542.6702
623.8671, 545.7925
624.3492, 546.5639
624.8313, 543.1682
625.3134, 539.0819
625.7955, 539.1911
626.2776, 543.2090
626.7598, 545.5262
627.2419, 544.7604
627.7240, 542.7853
628.2061, 538.5003
628.6882, 534.4236
629.1703, 535.5831
629.6525, 542.3074
630.1346, 548.1499
630.6167, 545.7183
631.0988, 537.1416
631.5809, 534.5232
632.0630, 538.8444
632.5452, 545.5246
633.0273, 555.3416
633.5094, 564.9097
633.9915, 569.8062
634.4736, 570.3119
634.9557, 571.9968
635.4379, 578.0755
635.9200, 583.3414
636.4021, 583.8339
636.8842, 581.9779
637.3663, 581.1442
637.8484, 582.3555
638.3306, 585.8012
638.8127, 592.7214
639.2948, 601.8555
639.7769, 603.7979
640.2590, 595.0087
640.7411, 591.8979
641.2233, 602.6866
641.7054, 617.7132
642.1875, 626.7464
642.6696, 630.3298
643.1517, 634.9296
643.6339, 642.7091
644.1160, 650.9447
644.5981, 658.2255
645.0802, 664.9698
645.5623, 671.2058
646.0444, 677.2731
646.5266, 684.6924
647.0087, 694.4713
647.4908, 706.9263
647.9729, 725.8759
648.4550, 754.9984
648.9371, 774.8184
649.4193, 775.2214
649.9014, 770.1074
650.3835, 772.1619
650.8656, 780.6302
