##NAMES=Legrandite
##RRUFFID=R040151
##IDEAL CHEMISTRY=Zn^2+^_2_As^5+^O_4_(OH)&#183;H_2_O
##LOCALITY=Mapimi, Durango, Mexico
##OWNER=RRUFF
##SOURCE=University of Arizona Mineral Museum
##DESCRIPTION=Yellow crystal fragments; same material used in McLean et al. (1971) study
##STATUS=The identification of this mineral has been confirmed by X-ray diffraction and chemical analysis
##URL=rruff.info/R040151
##MEASURED CHEMISTRY=Zn_1.88_Fe^2+^_0.04_As_1.03_O_4_(OH)Â·H_2_O
150.6261, 1207.085
151.1082, 1229.081
151.5903, 1253.234
152.0724, 1276.161
152.5545, 1308.533
153.0366, 1357.369
153.5188, 1415.831
154.0009, 1470.243
154.4830, 1514.814
154.9651, 1558.359
155.4472, 1604.481
155.9293, 1648.023
156.4115, 1702.262
156.8936, 1770.136
157.3757, 1850.993
157.8578, 1943.235
158.3399, 2041.926
158.8221, 2154.300
159.3042, 2285.902
159.7863, 2431.753
160.2684, 2603.100
160.7505, 2820.815
161.2326, 3079.261
161.7148, 3319.363
162.1969, 3549.073
162.6790, 3736.955
163.1611, 3850.416
163.6432, 3864.212
164.1253, 3814.630
164.6075, 3709.148
165.0896, 3547.615
165.5717, 3362.030
166.0538, 3149.101
166.5359, 2926.818
167.0180, 2720.422
167.5002, 2531.614
167.9823, 2366.112
168.4644, 2232.179
168.9465, 2132.810
169.4286, 2048.398
169.9107, 1963.127
170.3929, 1882.588
170.8750, 1816.346
171.3571, 1779.634
171.8392, 1756.062
172.3213, 1727.175
172.8034, 1688.746
173.2856, 1652.360
173.7677, 1630.363
174.2498, 1619.970
174.7319, 1611.958
175.2140, 1603.005
175.6961, 1592.376
176.1783, 1576.441
176.6604, 1549.053
177.1425, 1526.395
177.6246, 1531.712
178.1067, 1562.116
178.5888, 1599.335
179.0710, 1628.208
179.5531, 1653.716
180.0352, 1687.015
180.5173, 1732.628
180.9994, 1785.029
181.4815, 1837.312
181.9637, 1889.737
182.4458, 1936.047
182.9279, 1972.235
183.4100, 1998.475
183.8921, 2016.053
184.3742, 2024.249
184.8564, 2024.537
185.3385, 2016.353
185.8206, 1998.692
186.3027, 1983.893
186.7848, 1982.459
187.2669, 1994.251
187.7491, 2017.883
188.2312, 2056.965
188.7133, 2107.495
189.1954, 2155.560
189.6775, 2200.356
190.1596, 2244.954
190.6418, 2294.644
191.1239, 2349.078
191.6060, 2402.693
192.0881, 2453.026
192.5702, 2500.391
193.0524, 2549.869
193.5345, 2603.925
194.0166, 2653.445
194.4987, 2681.613
194.9808, 2687.438
195.4629, 2686.813
195.9451, 2688.422
196.4272, 2692.076
196.9093, 2685.030
197.3914, 2665.617
197.8735, 2637.490
198.3556, 2607.536
198.8378, 2576.328
199.3199, 2540.494
199.8020, 2500.629
200.2841, 2457.787
200.7662, 2398.548
201.2483, 2317.040
201.7305, 2223.390
202.2126, 2141.492
202.6947, 2072.097
203.1768, 2011.666
203.6589, 1957.870
204.1410, 1910.947
204.6232, 1871.729
205.1053, 1838.639
205.5874, 1814.041
206.0695, 1807.214
206.5516, 1821.133
207.0337, 1845.023
207.5159, 1872.827
207.9980, 1904.342
208.4801, 1938.751
208.9622, 1977.909
209.4443, 2019.830
209.9264, 2054.115
210.4086, 2078.624
210.8907, 2099.888
211.3728, 2123.711
211.8549, 2153.049
212.3370, 2175.710
212.8191, 2190.803
213.3013, 2198.020
213.7834, 2194.042
214.2655, 2173.973
214.7476, 2150.504
215.2297, 2135.727
215.7118, 2133.890
216.1940, 2128.082
216.6761, 2112.655
217.1582, 2088.387
217.6403, 2074.749
218.1224, 2074.099
218.6045, 2081.095
219.0867, 2090.774
219.5688, 2102.229
220.0509, 2118.221
220.5330, 2137.717
221.0151, 2160.800
221.4972, 2195.302
221.9794, 2244.458
222.4615, 2301.718
222.9436, 2361.475
223.4257, 2425.452
223.9078, 2489.215
224.3899, 2551.126
224.8721, 2611.981
225.3542, 2672.794
225.8363, 2741.231
226.3184, 2802.906
226.8005, 2841.229
227.2827, 2850.353
227.7648, 2846.580
228.2469, 2834.324
228.7290, 2814.566
229.2111, 2778.666
229.6932, 2720.570
230.1754, 2651.693
230.6575, 2585.754
231.1396, 2524.551
231.6217, 2463.872
232.1038, 2402.169
232.5859, 2338.701
233.0681, 2277.845
233.5502, 2217.927
234.0323, 2162.030
234.5144, 2112.992
234.9965, 2067.467
235.4786, 2035.234
235.9608, 2020.124
236.4429, 2024.249
236.9250, 2036.326
237.4071, 2057.644
237.8892, 2086.079
238.3713, 2119.007
238.8535, 2159.459
239.3356, 2199.392
239.8177, 2236.873
240.2998, 2272.712
240.7819, 2303.782
241.2640, 2333.639
241.7462, 2357.170
242.2283, 2365.257
242.7104, 2353.274
243.1925, 2333.436
243.6746, 2309.794
244.1567, 2283.282
244.6389, 2248.190
245.1210, 2198.927
245.6031, 2144.516
246.0852, 2101.931
246.5673, 2077.184
247.0494, 2054.034
247.5316, 2026.604
248.0137, 1993.048
248.4958, 1960.617
248.9779, 1926.303
249.4600, 1895.003
249.9421, 1877.702
250.4243, 1880.840
250.9064, 1886.166
251.3885, 1886.394
251.8706, 1878.351
252.3527, 1875.802
252.8348, 1879.200
253.3170, 1887.755
253.7991, 1899.685
254.2812, 1913.329
254.7633, 1933.340
255.2454, 1963.964
255.7275, 2010.362
256.2097, 2046.797
256.6918, 2069.991
257.1739, 2085.077
257.6560, 2101.711
258.1381, 2121.032
258.6202, 2139.551
259.1024, 2154.289
259.5845, 2161.518
260.0666, 2180.461
260.5487, 2214.797
261.0308, 2258.045
261.5129, 2299.120
261.9951, 2334.540
262.4772, 2375.262
262.9593, 2424.437
263.4414, 2482.325
263.9235, 2550.313
264.4056, 2632.117
264.8878, 2721.419
265.3699, 2808.774
265.8520, 2893.696
266.3341, 2980.193
266.8162, 3071.511
267.2983, 3167.776
267.7805, 3263.476
268.2626, 3359.006
268.7447, 3452.643
269.2268, 3542.344
269.7089, 3629.104
270.1910, 3708.139
270.6732, 3780.773
271.1553, 3847.949
271.6374, 3895.371
272.1195, 3922.714
272.6016, 3930.799
273.0837, 3918.256
273.5659, 3883.091
274.0480, 3837.890
274.5301, 3790.494
275.0122, 3741.824
275.4943, 3663.489
275.9764, 3548.100
276.4586, 3416.939
276.9407, 3300.380
277.4228, 3201.087
277.9049, 3105.600
278.3870, 3008.961
278.8691, 2911.517
279.3513, 2820.197
279.8334, 2733.974
280.3155, 2656.521
280.7976, 2596.941
281.2798, 2556.621
281.7619, 2513.410
282.2440, 2453.162
282.7261, 2380.255
283.2082, 2330.982
283.6903, 2308.985
284.1725, 2297.225
284.6546, 2274.936
285.1367, 2242.711
285.6188, 2210.984
286.1009, 2183.161
286.5830, 2158.820
287.0652, 2136.876
287.5473, 2117.916
288.0294, 2099.050
288.5115, 2079.058
288.9936, 2057.292
289.4757, 2029.118
289.9579, 1987.537
290.4400, 1939.655
290.9221, 1906.417
291.4042, 1888.825
291.8863, 1873.370
292.3684, 1845.147
292.8506, 1806.938
293.3327, 1770.816
293.8148, 1743.435
294.2969, 1718.620
294.7790, 1680.584
295.2611, 1629.132
295.7433, 1579.196
296.2254, 1541.568
296.7075, 1514.891
297.1896, 1497.319
297.6717, 1493.441
298.1538, 1493.335
298.6360, 1480.107
299.1181, 1454.710
299.6002, 1429.842
300.0823, 1415.974
300.5644, 1409.247
301.0465, 1402.075
301.5287, 1391.440
302.0108, 1380.858
302.4929, 1375.076
302.9750, 1373.391
303.4571, 1372.100
303.9392, 1368.647
304.4214, 1364.073
304.9035, 1359.541
305.3856, 1354.935
305.8677, 1351.243
306.3498, 1348.852
306.8319, 1348.004
307.3141, 1349.565
307.7962, 1357.453
308.2783, 1366.398
308.7604, 1371.033
309.2425, 1369.004
309.7246, 1365.106
310.2068, 1358.439
310.6889, 1351.796
311.1710, 1352.264
311.6531, 1373.809
312.1352, 1397.346
312.6173, 1406.859
313.0995, 1394.708
313.5816, 1383.143
314.0637, 1386.850
314.5458, 1398.101
315.0279, 1402.383
315.5100, 1386.732
315.9922, 1368.226
316.4743, 1356.622
316.9564, 1354.951
317.4385, 1352.263
317.9206, 1343.620
318.4027, 1332.101
318.8849, 1322.004
319.3670, 1313.064
319.8491, 1306.989
320.3312, 1305.990
320.8133, 1311.594
321.2954, 1313.711
321.7776, 1305.651
322.2597, 1294.975
322.7418, 1289.744
323.2239, 1296.866
323.7060, 1303.797
324.1881, 1308.943
324.6703, 1312.510
325.1524, 1310.569
325.6345, 1295.970
326.1166, 1279.412
326.5987, 1269.405
327.0808, 1272.243
327.5630, 1274.266
328.0451, 1272.979
328.5272, 1268.652
329.0093, 1267.304
329.4914, 1271.697
329.9735, 1276.588
330.4557, 1278.599
330.9378, 1276.774
331.4199, 1273.510
331.9020, 1267.417
332.3841, 1259.753
332.8662, 1256.800
333.3484, 1259.886
333.8305, 1265.713
334.3126, 1272.607
334.7947, 1280.310
335.2768, 1289.996
335.7589, 1303.081
336.2411, 1317.411
336.7232, 1326.564
337.2053, 1327.666
337.6874, 1331.820
338.1695, 1344.387
338.6516, 1365.733
339.1338, 1392.655
339.6159, 1427.247
340.0980, 1463.641
340.5801, 1490.730
341.0622, 1508.100
341.5443, 1522.669
342.0265, 1534.513
342.5086, 1544.707
342.9907, 1565.271
343.4728, 1596.967
343.9549, 1635.394
344.4370, 1676.212
344.9192, 1719.040
345.4013, 1762.339
345.8834, 1803.384
346.3655, 1844.553
346.8476, 1891.823
347.3297, 1945.178
347.8119, 1999.367
348.2940, 2048.232
348.7761, 2093.558
349.2582, 2139.425
349.7403, 2187.731
350.2225, 2237.585
350.7046, 2289.177
351.1867, 2342.467
351.6688, 2393.577
352.1509, 2438.188
352.6331, 2479.367
353.1152, 2522.328
353.5973, 2570.299
354.0794, 2616.410
354.5615, 2657.485
355.0436, 2692.290
355.5258, 2717.076
356.0079, 2727.530
356.4900, 2728.311
356.9721, 2723.311
357.4542, 2713.208
357.9363, 2697.049
358.4185, 2674.183
358.9006, 2644.907
359.3827, 2609.735
359.8648, 2567.404
360.3469, 2520.388
360.8290, 2469.417
361.3112, 2414.076
361.7933, 2356.938
362.2754, 2294.751
362.7575, 2232.257
363.2396, 2174.367
363.7217, 2130.840
364.2039, 2084.165
364.6860, 2027.141
365.1681, 1959.307
365.6502, 1897.147
366.1323, 1840.553
366.6144, 1790.881
367.0966, 1749.007
367.5787, 1720.425
368.0608, 1693.352
368.5429, 1664.492
369.0250, 1635.678
369.5071, 1617.307
369.9893, 1615.929
370.4714, 1617.391
370.9535, 1614.584
371.4356, 1603.932
371.9177, 1596.651
372.3998, 1590.449
372.8820, 1588.965
373.3641, 1602.552
373.8462, 1637.457
374.3283, 1670.918
374.8104, 1689.766
375.2925, 1691.424
375.7747, 1713.167
376.2568, 1760.185
376.7389, 1817.347
377.2210, 1863.369
377.7031, 1897.378
378.1852, 1932.508
378.6674, 1972.456
379.1495, 2016.798
379.6316, 2066.125
380.1137, 2120.243
380.5958, 2177.380
381.0779, 2238.339
381.5601, 2301.985
382.0422, 2356.917
382.5243, 2397.655
383.0064, 2434.025
383.4885, 2485.664
383.9706, 2550.737
384.4528, 2612.091
384.9349, 2656.118
385.4170, 2689.760
385.8991, 2726.490
386.3812, 2770.421
386.8633, 2811.828
387.3455, 2839.978
387.8276, 2858.585
388.3097, 2876.596
388.7918, 2905.261
389.2739, 2930.543
389.7560, 2941.809
390.2382, 2938.072
390.7203, 2922.322
391.2024, 2891.777
391.6845, 2851.737
392.1666, 2807.832
392.6487, 2760.764
393.1309, 2711.426
393.6130, 2661.506
394.0951, 2610.518
394.5772, 2555.078
395.0593, 2489.835
395.5414, 2422.627
396.0236, 2358.969
396.5057, 2303.136
396.9878, 2246.414
397.4699, 2186.362
397.9520, 2124.863
398.4341, 2068.334
398.9163, 2017.151
399.3984, 1970.635
399.8805, 1929.001
400.3626, 1893.625
400.8447, 1858.804
401.3268, 1822.485
401.8090, 1788.288
402.2911, 1761.982
402.7732, 1747.992
403.2553, 1730.748
403.7374, 1704.218
404.2195, 1669.263
404.7017, 1640.913
405.1838, 1618.730
405.6659, 1604.234
406.1480, 1602.121
406.6301, 1612.626
407.1122, 1617.999
407.5944, 1613.275
408.0765, 1603.426
408.5586, 1599.409
409.0407, 1601.158
409.5228, 1607.441
410.0049, 1618.937
410.4871, 1634.294
410.9692, 1650.398
411.4513, 1667.352
411.9334, 1683.539
412.4155, 1694.649
412.8976, 1703.372
413.3798, 1716.884
413.8619, 1741.618
414.3440, 1771.161
414.8261, 1799.039
415.3082, 1825.225
415.7903, 1852.626
416.2725, 1884.688
416.7546, 1918.660
417.2367, 1952.015
417.7188, 1979.651
418.2009, 2010.370
418.6830, 2048.867
419.1652, 2093.958
419.6473, 2139.814
420.1294, 2186.381
420.6115, 2232.185
421.0937, 2277.583
421.5758, 2323.454
422.0579, 2365.110
422.5400, 2396.594
423.0221, 2424.675
423.5042, 2461.375
423.9864, 2521.425
424.4685, 2573.435
424.9506, 2607.389
425.4327, 2620.681
425.9148, 2643.475
426.3969, 2676.092
426.8791, 2717.789
427.3612, 2772.381
427.8433, 2851.086
428.3254, 2905.926
428.8075, 2924.659
429.2896, 2916.824
429.7718, 2915.076
430.2539, 2921.345
430.7360, 2923.631
431.2181, 2911.863
431.7002, 2887.301
432.1823, 2870.245
432.6645, 2863.943
433.1466, 2857.596
433.6287, 2834.906
434.1108, 2798.505
434.5929, 2761.033
435.0750, 2728.530
435.5572, 2698.151
436.0393, 2666.760
436.5214, 2634.151
437.0035, 2595.794
437.4856, 2540.740
437.9677, 2480.282
438.4499, 2431.017
438.9320, 2400.822
439.4141, 2376.540
439.8962, 2346.983
440.3783, 2316.004
440.8604, 2292.664
441.3426, 2286.814
441.8247, 2285.651
442.3068, 2282.197
442.7889, 2275.163
443.2710, 2268.344
443.7531, 2259.205
444.2353, 2252.199
444.7174, 2252.097
445.1995, 2262.075
445.6816, 2276.319
446.1637, 2294.658
446.6458, 2316.714
447.1280, 2340.850
447.6101, 2367.678
448.0922, 2396.030
448.5743, 2425.603
449.0564, 2458.831
449.5385, 2486.454
450.0207, 2504.042
450.5028, 2519.642
450.9849, 2551.564
451.4670, 2603.759
451.9491, 2650.653
452.4312, 2680.518
452.9134, 2695.610
453.3955, 2715.428
453.8776, 2740.652
454.3597, 2765.264
454.8418, 2787.979
455.3239, 2806.231
455.8061, 2805.664
456.2882, 2774.449
456.7703, 2736.477
457.2524, 2730.281
457.7345, 2748.851
458.2166, 2763.470
458.6988, 2757.365
459.1809, 2738.110
459.6630, 2709.612
460.1451, 2669.817
460.6272, 2637.374
461.1093, 2631.399
461.5915, 2637.483
462.0736, 2637.872
462.5557, 2623.826
463.0378, 2605.900
463.5199, 2585.246
464.0020, 2562.907
464.4842, 2545.151
464.9663, 2541.932
465.4484, 2537.411
465.9305, 2522.761
466.4126, 2489.680
466.8947, 2460.253
467.3769, 2436.431
467.8590, 2415.510
468.3411, 2394.219
468.8232, 2378.438
469.3053, 2349.722
469.7874, 2297.260
470.2696, 2223.198
470.7517, 2169.537
471.2338, 2141.062
471.7159, 2118.589
472.1980, 2084.932
472.6801, 2040.316
473.1623, 2002.218
473.6444, 1975.252
474.1265, 1951.055
474.6086, 1912.488
475.0907, 1861.943
475.5728, 1814.887
476.0550, 1782.435
476.5371, 1757.532
477.0192, 1727.830
477.5013, 1692.660
477.9834, 1661.256
478.4655, 1646.025
478.9477, 1637.118
479.4298, 1621.415
479.9119, 1587.484
480.3940, 1555.107
480.8761, 1536.431
481.3582, 1527.803
481.8404, 1519.024
482.3225, 1505.412
482.8046, 1492.029
483.2867, 1481.811
483.7688, 1476.851
484.2509, 1468.637
484.7331, 1450.030
485.2152, 1431.233
485.6973, 1422.139
486.1794, 1431.308
486.6615, 1435.276
487.1436, 1428.575
487.6258, 1414.076
488.1079, 1405.187
488.5900, 1402.557
489.0721, 1403.955
489.5542, 1410.121
490.0363, 1421.160
490.5185, 1427.226
491.0006, 1427.618
491.4827, 1424.362
491.9648, 1418.280
492.4470, 1410.131
492.9291, 1404.460
493.4112, 1404.921
493.8933, 1406.991
494.3754, 1399.879
494.8575, 1385.826
495.3397, 1379.344
495.8218, 1397.926
496.3039, 1425.224
496.7860, 1442.636
497.2681, 1445.642
497.7502, 1446.817
498.2324, 1449.785
498.7145, 1455.850
499.1966, 1466.852
499.6787, 1492.619
500.1608, 1513.971
500.6429, 1523.414
501.1251, 1521.563
501.6072, 1520.082
502.0893, 1514.847
502.5714, 1514.518
503.0535, 1524.761
503.5356, 1554.943
504.0178, 1572.790
504.4999, 1574.486
504.9820, 1567.102
505.4641, 1562.467
505.9462, 1562.607
506.4283, 1554.638
506.9105, 1532.036
507.3926, 1499.184
507.8747, 1473.442
508.3568, 1454.960
508.8389, 1439.411
509.3210, 1423.961
509.8032, 1408.669
510.2853, 1394.961
510.7674, 1384.385
511.2495, 1369.491
511.7316, 1334.919
512.2137, 1290.645
512.6959, 1257.456
513.1780, 1252.398
513.6601, 1253.925
514.1422, 1248.692
514.6243, 1237.465
515.1064, 1226.694
515.5886, 1217.880
516.0707, 1210.988
516.5528, 1206.599
517.0349, 1207.492
517.5170, 1205.104
517.9991, 1191.420
518.4813, 1176.849
518.9634, 1176.162
519.4455, 1203.826
519.9276, 1219.856
520.4097, 1210.889
520.8918, 1182.362
521.3740, 1171.202
521.8561, 1182.140
522.3382, 1194.775
522.8203, 1193.841
523.3024, 1180.462
523.7845, 1173.939
524.2667, 1175.708
524.7488, 1182.947
525.2309, 1194.737
525.7130, 1209.665
526.1951, 1222.498
526.6772, 1230.477
527.1594, 1236.577
527.6415, 1244.036
528.1236, 1252.542
528.6057, 1260.918
529.0878, 1267.779
529.5699, 1274.638
530.0521, 1282.058
530.5342, 1289.704
531.0163, 1300.095
531.4984, 1321.587
531.9805, 1343.110
532.4626, 1353.020
532.9448, 1332.523
533.4269, 1321.162
533.9090, 1327.878
534.3911, 1347.426
534.8732, 1359.239
535.3553, 1361.594
535.8375, 1359.569
536.3196, 1354.964
536.8017, 1347.672
537.2838, 1339.056
537.7659, 1329.232
538.2480, 1317.407
538.7302, 1301.182
539.2123, 1281.321
539.6944, 1264.820
540.1765, 1255.016
540.6586, 1245.859
541.1407, 1226.263
541.6229, 1199.129
542.1050, 1174.602
542.5871, 1159.314
543.0692, 1148.259
543.5513, 1138.647
544.0334, 1130.332
544.5156, 1119.363
544.9977, 1098.071
545.4798, 1076.710
545.9619, 1064.160
546.4440, 1072.831
546.9261, 1074.337
547.4083, 1057.711
547.8904, 1032.861
548.3725, 1018.121
548.8546, 1019.321
549.3367, 1020.997
549.8188, 1020.121
550.3010, 1016.676
550.7831, 1009.740
551.2652, 998.2595
551.7473, 986.7687
552.2294, 977.1705
552.7115, 969.7805
553.1937, 970.4792
553.6758, 981.6569
554.1579, 992.9192
554.6400, 989.6480
555.1221, 975.7957
555.6042, 962.7621
556.0864, 954.9519
556.5685, 949.2012
557.0506, 941.9810
557.5327, 934.1150
558.0148, 928.8148
558.4969, 928.7352
558.9791, 930.8870
559.4612, 934.0594
559.9433, 938.5850
560.4254, 941.6028
560.9075, 941.3258
561.3896, 940.0101
561.8718, 939.6638
562.3539, 940.9045
562.8360, 942.3548
563.3181, 945.5302
563.8002, 948.0831
564.2823, 942.7028
564.7645, 927.1095
565.2466, 914.0628
565.7287, 909.3270
566.2108, 911.3682
566.6929, 913.7690
567.1750, 916.5924
567.6572, 917.8940
568.1393, 914.7580
568.6214, 909.1156
569.1035, 905.0490
569.5856, 903.4421
570.0677, 902.2844
570.5499, 900.2330
571.0320, 897.4368
571.5141, 894.1255
571.9962, 885.2234
572.4783, 880.9474
572.9604, 890.8946
573.4426, 911.1055
573.9247, 921.3458
574.4068, 907.7503
574.8889, 893.1229
575.3710, 886.0705
575.8531, 887.9277
576.3353, 891.1174
576.8174, 897.1016
577.2995, 902.2029
577.7816, 902.2775
578.2637, 896.7866
578.7458, 892.2752
579.2280, 890.3637
579.7101, 888.5939
580.1922, 880.6194
580.6743, 867.8937
581.1564, 858.6251
581.6385, 860.6268
582.1207, 866.0763
582.6028, 863.7192
583.0849, 854.5514
583.5670, 846.2274
584.0491, 842.9563
584.5313, 842.5383
585.0134, 843.9005
585.4955, 847.9722
585.9776, 850.1879
586.4597, 845.6505
586.9418, 840.2353
587.4240, 841.0419
587.9061, 856.8732
588.3882, 865.1722
588.8703, 860.4265
589.3524, 847.4518
589.8345, 840.7007
590.3167, 841.5661
590.7988, 843.2968
591.2809, 842.7571
591.7630, 840.6221
592.2451, 840.4603
592.7272, 842.3129
593.2094, 845.1363
593.6915, 849.3234
594.1736, 853.6085
594.6557, 855.5884
595.1378, 854.7590
595.6199, 851.9482
596.1021, 845.7870
596.5842, 838.5468
597.0663, 833.4471
597.5485, 833.7802
598.0306, 834.1541
598.5127, 831.8941
598.9948, 828.0037
599.4769, 827.0439
599.9590, 834.7949
600.4412, 838.7641
600.9233, 833.2516
601.4054, 817.2729
601.8875, 807.0097
602.3696, 803.1318
602.8517, 803.5502
603.3339, 807.5989
603.8160, 815.0228
604.2981, 822.8995
604.7802, 831.5258
605.2623, 838.0942
605.7444, 836.8221
606.2266, 830.3428
606.7087, 825.8766
607.1908, 828.4365
607.6729, 831.4958
608.1550, 828.0470
608.6371, 820.4712
609.1193, 816.3893
609.6014, 821.2698
610.0835, 828.3461
610.5656, 835.8244
611.0477, 844.3145
611.5298, 846.7035
612.0120, 837.3400
612.4941, 827.3076
612.9762, 824.4940
613.4583, 831.4548
613.9404, 836.5933
614.4225, 839.6382
614.9047, 840.3835
615.3868, 837.6220
615.8689, 831.6323
616.3510, 826.2705
616.8331, 822.2212
617.3152, 819.9487
617.7974, 821.4102
618.2795, 825.6190
618.7616, 828.8102
619.2437, 826.5593
619.7258, 824.2417
620.2079, 827.0833
620.6901, 835.2571
621.1722, 841.2261
621.6543, 839.6329
622.1364, 836.9110
622.6185, 837.6835
623.1006, 845.8823
623.5828, 849.1375
624.0649, 844.7289
624.5470, 837.8719
625.0291, 834.6308
625.5112, 835.3639
625.9933, 838.1692
626.4755, 843.5463
626.9576, 849.6311
627.4397, 851.9960
627.9218, 851.0939
628.4039, 850.3815
628.8860, 852.3762
629.3682, 855.1163
629.8503, 854.7622
630.3324, 851.9597
630.8145, 851.6411
631.2966, 858.6500
631.7787, 867.7935
632.2609, 875.4929
632.7430, 881.0125
633.2251, 886.1838
633.7072, 893.6710
634.1893, 899.4052
634.6714, 899.4746
635.1536, 889.4095
635.6357, 883.5599
636.1178, 883.4716
636.5999, 887.5579
637.0820, 893.7399
637.5641, 902.0877
638.0463, 910.2181
638.5284, 917.5883
639.0105, 924.1385
639.4926, 929.8159
639.9747, 934.6838
640.4568, 938.9556
640.9390, 941.0964
641.4211, 943.8561
641.9032, 949.6893
642.3853, 958.7365
642.8674, 970.0782
643.3495, 986.6356
643.8317, 1003.134
644.3138, 1016.114
644.7959, 1024.008
645.2780, 1030.006
