##NAMES=Leifite
##RRUFFID=R060219
##IDEAL CHEMISTRY=Na_7_Be_2_(Si_15_Al_3_)O_39_(F,OH)_2_
##LOCALITY=Mont Saint-Hilaire, Rouville County, Quebec, Canada
##OWNER=RRUFF
##SOURCE=Royal Ontario Museum
##DESCRIPTION=Colorless hexagonal prism
##STATUS=The identification of this mineral has been confirmed by X-ray diffraction.
##URL=rruff.info/R060219
91.82715, 264.0449
92.30927, 262.8899
92.79138, 263.3521
93.27350, 263.1352
93.75562, 261.7827
94.23773, 259.4481
94.71985, 256.7299
95.20197, 254.4868
95.68408, 253.3569
96.16620, 252.7568
96.64832, 252.3029
97.13043, 251.9717
97.61255, 251.9069
98.09467, 252.2921
98.57678, 253.1769
99.05890, 253.7984
99.54102, 255.0330
100.0231, 256.4950
100.5052, 257.6620
100.9874, 258.2186
101.4695, 258.2919
101.9516, 258.6519
102.4337, 260.4347
102.9158, 261.3043
103.3979, 260.6250
103.8801, 258.7321
104.3622, 256.2805
104.8443, 253.7688
105.3264, 251.1724
105.8085, 248.3233
106.2906, 245.2256
106.7728, 241.8592
107.2549, 238.0800
107.7370, 233.9210
108.2191, 229.7016
108.7012, 225.8339
109.1833, 222.3359
109.6655, 218.6990
110.1476, 214.6758
110.6297, 210.5198
111.1118, 206.5579
111.5939, 202.8682
112.0760, 199.4478
112.5582, 196.2587
113.0403, 193.3005
113.5224, 190.5435
114.0045, 188.0827
114.4866, 185.8919
114.9688, 183.6416
115.4509, 180.6507
115.9330, 178.0813
116.4151, 176.7234
116.8972, 176.6865
117.3793, 177.3387
117.8615, 177.8582
118.3436, 178.0747
118.8257, 178.5905
119.3078, 179.4673
119.7899, 180.6100
120.2720, 182.1064
120.7542, 183.9760
121.2363, 185.9377
121.7184, 187.2057
122.2005, 188.4969
122.6826, 188.0565
123.1647, 185.2408
123.6468, 180.6932
124.1290, 175.2034
124.6111, 169.0880
125.0932, 162.4545
125.5753, 156.2191
126.0574, 150.2290
126.5395, 144.6386
127.0217, 139.5672
127.5038, 134.9705
127.9859, 130.6636
128.4680, 126.3824
128.9501, 122.3152
129.4323, 119.0648
129.9144, 117.0550
130.3965, 115.6356
130.8786, 114.1002
131.3607, 112.3588
131.8428, 110.8282
132.3250, 109.9709
132.8071, 109.5368
133.2892, 109.1543
133.7713, 108.6308
134.2534, 108.0312
134.7355, 107.5787
135.2177, 107.3384
135.6998, 107.1743
136.1819, 106.9447
136.6640, 106.7132
137.1461, 106.6402
137.6282, 106.8988
138.1104, 107.5245
138.5925, 108.0857
139.0746, 108.6080
139.5567, 109.0401
140.0388, 109.1316
140.5209, 109.0142
141.0031, 109.1565
141.4852, 110.1823
141.9673, 112.5984
142.4494, 114.6086
142.9315, 115.9226
143.4136, 117.1052
143.8958, 118.5196
144.3779, 120.2531
144.8600, 122.1947
145.3421, 124.1729
145.8242, 126.1921
146.3063, 128.2513
146.7885, 130.5647
147.2706, 132.8584
147.7527, 134.7912
148.2348, 136.2343
148.7169, 137.3182
149.1990, 138.2282
149.6812, 138.8829
150.1633, 139.6731
150.6454, 140.8743
151.1275, 142.3542
151.6096, 143.6322
152.0917, 144.3655
152.5739, 144.9878
153.0560, 146.1698
153.5381, 148.0387
154.0202, 150.0462
154.5023, 151.7947
154.9844, 153.2741
155.4665, 154.5863
155.9487, 155.4237
156.4308, 156.2740
156.9129, 157.5753
157.3950, 159.4717
157.8771, 161.6478
158.3592, 163.6469
158.8414, 165.3711
159.3235, 167.1482
159.8056, 169.0217
160.2877, 170.9886
160.7698, 173.1528
161.2519, 175.5771
161.7341, 178.0529
162.2162, 179.9057
162.6983, 180.3880
163.1804, 181.2411
163.6625, 183.3209
164.1446, 185.7319
164.6268, 187.2935
165.1089, 187.3073
165.5910, 186.0500
166.0731, 185.3008
166.5552, 185.7018
167.0373, 185.9094
167.5195, 185.7397
168.0016, 185.1781
168.4837, 184.2247
168.9658, 182.8639
169.4479, 181.0968
169.9300, 179.1975
170.4122, 176.9928
170.8943, 174.8496
171.3764, 173.0892
171.8585, 171.6089
172.3406, 169.8794
172.8227, 167.3879
173.3049, 164.2714
173.7870, 161.7327
174.2691, 160.0424
174.7512, 158.7192
175.2333, 157.5683
175.7154, 156.5932
176.1976, 155.3147
176.6797, 153.0126
177.1618, 150.1314
177.6439, 147.8186
178.1260, 146.5954
178.6081, 145.9641
179.0903, 145.1755
179.5724, 144.1508
180.0545, 143.2143
180.5366, 142.6737
181.0187, 142.3421
181.5008, 141.9357
181.9830, 141.3120
182.4651, 140.5235
182.9472, 139.7279
183.4293, 138.9602
183.9114, 138.1275
184.3935, 136.8801
184.8757, 135.5685
185.3578, 134.8468
185.8399, 135.3946
186.3220, 137.0234
186.8041, 137.6868
187.2862, 136.5708
187.7684, 135.2495
188.2505, 133.8819
188.7326, 132.6564
189.2147, 131.8723
189.6968, 131.8454
190.1789, 132.6151
190.6611, 133.0318
191.1432, 132.3609
191.6253, 132.0438
192.1074, 132.8045
192.5895, 134.3708
193.0716, 135.9473
193.5538, 136.7855
194.0359, 136.7303
194.5180, 137.2875
195.0001, 138.8812
195.4822, 140.5495
195.9643, 141.7654
196.4465, 142.5851
196.9286, 143.4594
197.4107, 144.8270
197.8928, 146.7789
198.3749, 148.5020
198.8570, 149.5799
199.3392, 150.7631
199.8213, 152.6622
200.3034, 155.2841
200.7855, 158.0378
201.2676, 160.4356
201.7497, 162.4410
202.2319, 164.2916
202.7140, 165.7675
203.1961, 167.2253
203.6782, 169.1753
204.1603, 171.7122
204.6424, 174.0372
205.1246, 175.2401
205.6067, 175.5541
206.0888, 176.0129
206.5709, 176.9583
207.0530, 178.1050
207.5351, 179.1444
208.0173, 180.1184
208.4994, 180.7653
208.9815, 180.6577
209.4636, 180.0669
209.9457, 179.5090
210.4278, 179.3671
210.9100, 179.3619
211.3921, 178.7539
211.8742, 177.1880
212.3563, 175.7677
212.8384, 175.1713
213.3205, 175.1514
213.8027, 175.3146
214.2848, 175.5978
214.7669, 175.9061
215.2490, 175.8811
215.7311, 175.4021
216.2132, 174.7400
216.6954, 174.1641
217.1775, 173.5096
217.6596, 172.4935
218.1417, 170.9393
218.6238, 168.8844
219.1059, 166.5487
219.5881, 163.8800
220.0702, 160.9564
220.5523, 157.7373
221.0344, 154.3183
221.5165, 150.8214
221.9986, 147.3459
222.4808, 143.8780
222.9629, 140.2747
223.4450, 136.2457
223.9271, 132.4224
224.4092, 128.8979
224.8913, 125.6594
225.3735, 122.6706
225.8556, 119.8844
226.3377, 117.3218
226.8198, 115.0447
227.3019, 113.2541
227.7840, 111.5667
228.2662, 109.7775
228.7483, 108.0479
229.2304, 106.7397
229.7125, 106.1226
230.1946, 106.1012
230.6767, 105.6419
231.1589, 104.1813
231.6410, 102.9346
232.1231, 102.2262
232.6052, 101.9474
233.0873, 101.8591
233.5694, 101.8235
234.0516, 101.8500
234.5337, 102.0213
235.0158, 102.5485
235.4979, 102.9640
235.9800, 103.0457
236.4621, 102.9107
236.9443, 102.7381
237.4264, 102.5432
237.9085, 102.4787
238.3906, 103.2722
238.8727, 105.7856
239.3548, 108.0111
239.8370, 109.1052
240.3191, 109.3818
240.8012, 109.5228
241.2833, 109.7507
241.7654, 110.1992
242.2475, 111.2700
242.7297, 113.3278
243.2118, 115.3008
243.6939, 116.6300
244.1760, 117.4849
244.6581, 118.3392
245.1402, 119.3161
245.6224, 120.4947
246.1045, 122.0576
246.5866, 124.1404
247.0687, 126.1736
247.5508, 127.8362
248.0329, 129.2021
248.5151, 130.5296
248.9972, 131.8273
249.4793, 133.2411
249.9614, 134.9594
250.4435, 137.0086
250.9256, 139.1648
251.4078, 141.3085
251.8899, 143.4574
252.3720, 145.8001
252.8541, 148.5563
253.3362, 151.2786
253.8183, 153.5143
254.3005, 155.2757
254.7826, 156.7857
255.2647, 158.0892
255.7468, 159.2212
256.2289, 160.3784
256.7110, 161.6873
257.1931, 162.8898
257.6753, 163.8000
258.1574, 164.4378
258.6395, 164.9302
259.1216, 165.4648
259.6037, 165.9656
260.0858, 165.9748
260.5680, 165.2434
261.0501, 164.2548
261.5322, 163.3719
262.0143, 162.5290
262.4964, 161.5215
262.9785, 159.9632
263.4607, 158.0330
263.9428, 156.8555
264.4249, 157.1407
264.9070, 157.1682
265.3891, 155.8143
265.8712, 153.6386
266.3534, 151.7753
266.8355, 150.9321
267.3176, 150.9244
267.7997, 150.9822
268.2818, 151.1472
268.7639, 151.3183
269.2461, 151.2740
269.7282, 151.2449
270.2103, 151.5939
270.6924, 152.5646
271.1745, 153.9822
271.6566, 155.2117
272.1388, 155.8616
272.6209, 157.0173
273.1030, 159.1230
273.5851, 161.7428
274.0672, 164.3394
274.5493, 166.6677
275.0315, 168.9262
275.5136, 171.6116
275.9957, 174.9793
276.4778, 178.3263
276.9599, 181.2709
277.4420, 184.2629
277.9242, 187.7034
278.4063, 191.7513
278.8884, 196.2589
279.3705, 201.0614
279.8526, 206.3678
280.3347, 211.4820
280.8169, 216.5182
281.2990, 221.2578
281.7811, 225.4879
282.2632, 229.1705
282.7453, 232.4493
283.2274, 235.6048
283.7096, 238.9373
284.1917, 241.3247
284.6738, 242.4879
285.1559, 243.0527
285.6380, 243.5102
286.1201, 243.8301
286.6023, 243.5136
287.0844, 241.9131
287.5665, 238.7841
288.0486, 235.3114
288.5307, 231.1448
289.0128, 226.9880
289.4950, 223.1693
289.9771, 219.6597
290.4592, 216.2399
290.9413, 212.6744
291.4234, 208.9304
291.9055, 205.5682
292.3877, 202.5368
292.8698, 199.9183
293.3519, 197.7550
293.8340, 196.0341
294.3161, 194.7506
294.7982, 193.9293
295.2804, 193.5385
295.7625, 193.2052
296.2446, 193.1685
296.7267, 192.9288
297.2088, 192.3846
297.6909, 191.5780
298.1731, 190.5643
298.6552, 189.3728
299.1373, 188.0294
299.6194, 186.6443
300.1015, 185.6169
300.5836, 184.0193
301.0658, 181.5753
301.5479, 178.6293
302.0300, 175.5314
302.5121, 172.4286
302.9942, 169.2326
303.4763, 165.6910
303.9585, 161.5315
304.4406, 157.4475
304.9227, 153.5939
305.4048, 149.7340
305.8869, 145.5568
306.3690, 141.0467
306.8512, 136.5263
307.3333, 132.4286
307.8154, 128.7974
308.2975, 125.5555
308.7796, 122.6820
309.2617, 120.1168
309.7439, 117.9232
310.2260, 116.0410
310.7081, 114.2863
311.1902, 112.4887
311.6723, 110.6098
312.1544, 108.8742
312.6366, 107.2096
313.1187, 105.7236
313.6008, 104.4453
314.0829, 103.3762
314.5650, 102.5425
315.0471, 101.9985
315.5293, 101.7071
316.0114, 101.1756
316.4935, 100.1348
316.9756, 99.14957
317.4577, 98.27180
317.9398, 97.53840
318.4220, 97.02140
318.9041, 96.76457
319.3862, 96.67934
319.8683, 96.48042
320.3504, 95.99276
320.8326, 95.61205
321.3147, 95.56567
321.7968, 95.53365
322.2789, 95.13802
322.7610, 94.27666
323.2431, 93.22050
323.7253, 92.42918
324.2074, 91.96087
324.6895, 91.67863
325.1716, 91.83475
325.6537, 91.96434
326.1358, 91.68275
326.6180, 90.98957
327.1001, 90.21144
327.5822, 89.69756
328.0643, 89.49255
328.5464, 89.33284
329.0285, 89.14624
329.5107, 89.06458
329.9928, 89.16637
330.4749, 89.42387
330.9570, 89.76279
331.4391, 90.13339
331.9212, 90.53415
332.4034, 90.94125
332.8855, 91.64928
333.3676, 92.03596
333.8497, 91.76564
334.3318, 91.15240
334.8139, 90.54878
335.2961, 90.12257
335.7782, 89.96555
336.2603, 90.40718
336.7424, 92.23643
337.2245, 93.48270
337.7066, 93.64302
338.1888, 93.42128
338.6709, 93.36649
339.1530, 93.65313
339.6351, 94.19762
340.1172, 94.93138
340.5993, 96.04498
341.0815, 96.84559
341.5636, 96.97767
342.0457, 97.13074
342.5278, 97.68183
343.0099, 98.63210
343.4920, 99.77005
343.9742, 100.9240
344.4563, 102.0972
344.9384, 103.2228
345.4205, 104.2351
345.9026, 105.2630
346.3847, 106.2817
346.8669, 107.3467
347.3490, 108.5653
347.8311, 110.0135
348.3132, 111.6300
348.7953, 113.1340
349.2774, 114.4440
349.7596, 115.7882
350.2417, 117.1529
350.7238, 118.5950
351.2059, 120.1929
351.6880, 121.9747
352.1701, 123.8258
352.6523, 125.5310
353.1344, 127.0173
353.6165, 128.5815
354.0986, 130.5575
354.5807, 132.3890
355.0628, 133.5479
355.5450, 134.1106
356.0271, 134.7477
356.5092, 136.2009
356.9913, 138.4966
357.4734, 140.5822
357.9555, 142.4489
358.4377, 144.0766
358.9198, 145.2694
359.4019, 146.2341
359.8840, 147.3636
360.3661, 148.8882
360.8482, 150.7342
361.3304, 152.7246
361.8125, 154.9000
362.2946, 157.1145
362.7767, 159.1692
363.2588, 161.2997
363.7409, 163.8338
364.2231, 166.9286
364.7052, 170.1529
365.1873, 172.8761
365.6694, 175.0317
366.1515, 177.4033
366.6336, 180.2341
367.1158, 183.3071
367.5979, 186.4955
368.0800, 189.7938
368.5621, 193.1376
369.0442, 196.4233
369.5263, 199.6948
370.0085, 203.1407
370.4906, 206.8075
370.9727, 210.5974
371.4548, 214.5298
371.9369, 218.5217
372.4190, 222.4307
372.9012, 226.1150
373.3833, 229.7209
373.8654, 233.3894
374.3475, 237.0799
374.8296, 241.0748
375.3117, 245.6828
375.7939, 250.5876
376.2760, 255.2902
376.7581, 259.6406
377.2402, 264.0931
377.7223, 269.0887
378.2044, 274.5030
378.6866, 279.8026
379.1687, 284.8921
379.6508, 289.7722
380.1329, 294.5894
380.6150, 299.3493
381.0971, 303.5211
381.5793, 306.5590
382.0614, 309.0813
382.5435, 311.9876
383.0256, 315.4088
383.5077, 318.8347
383.9898, 322.0760
384.4720, 324.9925
384.9541, 327.1381
385.4362, 328.5307
385.9183, 329.1084
386.4004, 328.6525
386.8825, 327.3093
387.3647, 325.5430
387.8468, 323.5598
388.3289, 321.3180
388.8110, 318.7049
389.2931, 315.8842
389.7752, 312.4476
390.2574, 307.9752
390.7395, 302.9882
391.2216, 298.1472
391.7037, 293.5995
392.1858, 288.9434
392.6679, 283.6862
393.1501, 277.6271
393.6322, 271.9806
394.1143, 266.8094
394.5964, 261.9237
395.0785, 257.4139
395.5606, 253.1442
396.0428, 248.8256
396.5249, 244.2243
397.0070, 239.4522
397.4891, 234.9464
397.9712, 230.7906
398.4533, 226.8562
398.9355, 223.1432
399.4176, 219.6319
399.8997, 216.2983
400.3818, 213.1380
400.8639, 210.0948
401.3460, 207.0401
401.8282, 203.7730
402.3103, 201.0948
402.7924, 199.4352
403.2745, 197.8764
403.7566, 195.7325
404.2387, 193.2412
404.7209, 191.2260
405.2030, 190.4199
405.6851, 190.6175
406.1672, 190.2598
406.6493, 188.8126
407.1314, 187.5699
407.6136, 186.7496
408.0957, 186.3007
408.5778, 186.2761
409.0599, 186.7027
409.5420, 187.2079
410.0241, 187.2233
410.5063, 186.6695
410.9884, 186.0566
411.4705, 185.4993
411.9526, 184.8579
412.4347, 184.1455
412.9168, 183.3118
413.3990, 182.1669
413.8811, 180.5920
414.3632, 178.6064
414.8453, 176.2025
415.3274, 173.2060
415.8095, 170.2213
416.2917, 167.8061
416.7738, 165.5324
417.2559, 162.7465
417.7380, 159.0745
418.2201, 155.3080
418.7022, 152.1982
419.1844, 149.6955
419.6665, 147.3305
420.1486, 144.9968
420.6307, 142.7282
421.1128, 140.6271
421.5949, 138.6778
422.0771, 136.6518
422.5592, 134.0826
423.0413, 131.5587
423.5234, 130.0712
424.0055, 129.7359
424.4876, 129.4404
424.9698, 128.2683
425.4519, 126.4068
425.9340, 125.1387
426.4161, 125.2102
426.8982, 125.0692
427.3803, 123.6508
427.8625, 121.5469
428.3446, 120.0690
428.8267, 119.7358
429.3088, 119.9713
429.7909, 119.7983
430.2730, 118.9993
430.7552, 118.2461
431.2373, 117.6192
431.7194, 116.9867
432.2015, 116.1716
432.6836, 115.2301
433.1657, 114.4196
433.6479, 113.9618
434.1300, 113.8306
434.6121, 113.6713
435.0942, 113.2814
435.5763, 113.1036
436.0584, 113.1655
436.5406, 113.4944
437.0227, 114.2382
437.5048, 115.4159
437.9869, 116.6745
438.4690, 117.3625
438.9511, 117.1360
439.4333, 117.4598
439.9154, 118.5684
440.3975, 120.0601
440.8796, 121.8264
441.3617, 123.8382
441.8438, 126.0962
442.3260, 128.6568
442.8081, 131.4176
443.2902, 133.9958
443.7723, 136.4589
444.2544, 138.5886
444.7365, 140.3113
445.2187, 141.6761
445.7008, 142.6402
446.1829, 143.1868
446.6650, 143.4755
447.1471, 143.4886
447.6292, 143.3052
448.1114, 143.3992
448.5935, 143.9288
449.0756, 144.5693
449.5577, 144.9427
450.0398, 145.1801
450.5219, 145.7234
451.0041, 146.6520
451.4862, 147.9640
451.9683, 149.7268
452.4504, 151.9060
452.9325, 154.2341
453.4146, 156.5453
453.8968, 158.9951
454.3789, 161.9879
454.8610, 165.5785
455.3431, 169.3174
455.8252, 173.1383
456.3073, 177.0346
456.7895, 180.9975
457.2716, 185.0299
457.7537, 189.2284
458.2358, 193.7191
458.7179, 198.5117
459.2000, 203.2159
459.6822, 207.8946
460.1643, 212.4375
460.6464, 216.6943
461.1285, 220.8416
461.6106, 225.1731
462.0927, 229.7863
462.5748, 234.3671
463.0569, 238.2708
463.5391, 240.8709
464.0212, 244.4514
464.5033, 249.7185
464.9854, 255.2257
465.4675, 260.3706
465.9496, 265.2045
466.4318, 270.0871
466.9139, 275.3568
467.3960, 280.7133
467.8781, 285.2434
468.3602, 288.8739
468.8423, 291.8981
469.3245, 294.9066
469.8066, 297.0454
470.2887, 297.7693
470.7708, 296.9723
471.2529, 294.2640
471.7350, 288.9066
472.2172, 281.3160
472.6993, 273.0615
473.1814, 264.1882
473.6635, 254.8865
474.1456, 244.8518
474.6277, 234.4924
475.1099, 224.7957
475.5920, 215.4505
476.0741, 207.4700
476.5562, 201.6215
477.0383, 197.7402
477.5204, 195.3128
478.0026, 194.2688
478.4847, 194.3706
478.9668, 195.2499
479.4489, 196.8150
479.9310, 199.9214
480.4131, 205.1355
480.8953, 211.4686
481.3774, 218.0325
481.8595, 225.0736
482.3416, 233.5850
482.8237, 244.2787
483.3058, 256.6319
483.7880, 268.9012
484.2701, 280.4393
484.7522, 292.8594
485.2343, 306.1744
485.7164, 320.4137
486.1985, 335.6940
486.6807, 352.0027
487.1628, 368.9647
487.6449, 386.2032
488.1270, 403.8575
488.6091, 423.6989
489.0912, 445.7906
489.5734, 470.2873
490.0555, 496.7192
490.5376, 525.4617
491.0197, 556.6596
491.5018, 590.2577
491.9839, 627.0038
492.4661, 666.9274
492.9482, 710.3421
493.4303, 758.6023
493.9124, 811.7698
494.3945, 870.0248
494.8766, 933.9707
495.3588, 1002.915
495.8409, 1075.356
496.3230, 1152.727
496.8051, 1231.964
497.2872, 1313.307
497.7693, 1394.691
498.2515, 1470.082
498.7336, 1538.594
499.2157, 1595.555
499.6978, 1634.227
500.1799, 1654.678
500.6620, 1654.689
501.1442, 1631.836
501.6263, 1590.326
502.1084, 1528.466
502.5905, 1450.055
503.0726, 1362.613
503.5547, 1269.857
504.0369, 1173.978
504.5190, 1081.831
505.0011, 990.7393
505.4832, 907.8405
505.9653, 832.9982
506.4474, 765.5826
506.9296, 705.7586
507.4117, 653.0064
507.8938, 605.8030
508.3759, 563.2325
508.8580, 524.9757
509.3401, 490.8801
509.8223, 461.4125
510.3044, 434.9661
510.7865, 411.4120
511.2686, 390.2528
511.7507, 371.3818
512.2328, 354.8073
512.7150, 339.7398
513.1971, 325.5556
513.6792, 312.3753
514.1613, 300.4807
514.6434, 290.0000
515.1255, 280.2886
515.6077, 270.9219
516.0898, 261.9627
516.5719, 253.5822
517.0540, 245.8002
517.5361, 238.6226
518.0182, 232.1680
518.5004, 226.2892
518.9825, 220.7612
519.4646, 215.4974
519.9467, 210.5561
520.4288, 205.9915
520.9109, 201.7983
521.3931, 198.0176
521.8752, 194.4992
522.3573, 191.4352
522.8394, 188.9584
523.3215, 186.9672
523.8036, 185.4215
524.2858, 184.3024
524.7679, 183.3140
525.2500, 181.8699
525.7321, 179.7478
526.2142, 178.3179
526.6964, 178.2625
527.1785, 178.2933
527.6606, 177.8918
528.1427, 177.1124
528.6248, 176.1414
529.1069, 175.1009
529.5891, 173.8293
530.0712, 172.1316
530.5533, 170.0117
531.0354, 167.5328
531.5175, 164.7020
531.9996, 161.5389
532.4818, 158.1369
532.9639, 154.5298
533.4460, 150.1602
533.9281, 144.0676
534.4102, 137.8918
534.8923, 132.9544
535.3745, 129.0322
535.8566, 125.0885
536.3387, 120.6473
536.8208, 116.0122
537.3029, 111.8565
537.7850, 108.3019
538.2672, 104.9501
538.7493, 101.6867
539.2314, 98.72413
539.7135, 96.18506
540.1956, 94.03484
540.6777, 92.17127
541.1599, 90.55984
541.6420, 89.09722
542.1241, 87.50941
542.6062, 85.72659
543.0883, 84.01765
543.5704, 82.49247
544.0526, 81.01573
544.5347, 79.43850
545.0168, 77.80543
545.4989, 76.38406
545.9810, 75.35965
546.4631, 74.59258
546.9453, 73.97448
547.4274, 73.49497
547.9095, 72.76682
548.3916, 71.50491
548.8737, 70.07422
549.3558, 69.14218
549.8380, 68.73250
550.3201, 68.45049
550.8022, 68.29946
551.2843, 68.19525
551.7664, 68.21962
552.2485, 68.25357
552.7307, 67.85860
553.2128, 66.73164
553.6949, 65.23233
554.1770, 64.38268
554.6591, 64.60336
555.1412, 64.74632
555.6234, 64.96677
556.1055, 64.95815
556.5876, 64.38155
557.0697, 63.39579
557.5518, 62.47771
558.0339, 61.90339
558.5161, 61.60410
558.9982, 61.48011
559.4803, 61.57706
559.9624, 61.56663
560.4445, 61.24260
560.9266, 60.89616
561.4088, 60.85368
561.8909, 61.08451
562.3730, 61.21558
562.8551, 61.01920
563.3372, 60.72044
563.8193, 60.54043
564.3015, 60.47305
564.7836, 60.45416
565.2657, 60.45963
565.7478, 60.48748
566.2299, 60.53909
566.7120, 60.64197
567.1942, 60.69600
567.6763, 60.58709
568.1584, 60.53402
568.6405, 60.72404
569.1226, 61.06681
569.6047, 61.32639
570.0869, 61.37174
570.5690, 61.34535
571.0511, 61.58746
571.5332, 62.22647
572.0153, 62.63694
572.4974, 62.46136
572.9796, 62.34270
573.4617, 62.64467
573.9438, 63.27325
574.4259, 63.96813
574.9080, 64.68026
575.3901, 65.33253
575.8723, 65.80837
576.3544, 66.13346
576.8365, 66.43969
577.3186, 66.74033
577.8007, 67.09833
578.2828, 67.60072
578.7650, 68.25784
579.2471, 68.88887
579.7292, 69.60886
580.2113, 70.17326
580.6934, 70.55149
581.1755, 70.67405
581.6577, 70.36511
582.1398, 69.58768
582.6219, 68.62528
583.1040, 67.88866
583.5861, 67.43954
584.0682, 66.73479
584.5504, 65.75121
585.0325, 64.50358
585.5146, 62.71545
585.9967, 60.79498
586.4788, 59.33263
586.9609, 58.50813
587.4431, 57.74766
587.9252, 56.43316
588.4073, 54.71821
588.8894, 53.15303
589.3715, 51.75121
589.8536, 50.66726
