##NAMES=Leifite
##RRUFFID=R060219
##IDEAL CHEMISTRY=Na_7_Be_2_(Si_15_Al_3_)O_39_(F,OH)_2_
##LOCALITY=Mont Saint-Hilaire, Rouville County, Quebec, Canada
##OWNER=RRUFF
##SOURCE=Royal Ontario Museum
##DESCRIPTION=Colorless hexagonal prism
##STATUS=The identification of this mineral has been confirmed by X-ray diffraction.
##URL=rruff.info/R060219
92.07813, 17.27218
92.56024, 17.83961
93.04236, 17.50489
93.52448, 16.46647
94.00659, 15.45854
94.48871, 14.76754
94.97083, 14.41481
95.45294, 14.54767
95.93506, 15.33868
96.41718, 16.31242
96.89929, 16.50434
97.38141, 15.90119
97.86353, 15.33945
98.34564, 15.59404
98.82776, 16.61152
99.30988, 17.27040
99.79199, 17.34982
100.2741, 16.95713
100.7562, 16.43803
101.2383, 15.72981
101.7205, 15.06615
102.2026, 14.68406
102.6847, 14.66482
103.1668, 14.62253
103.6489, 14.45970
104.1310, 14.17367
104.6132, 13.94178
105.0953, 13.73228
105.5774, 13.60946
106.0595, 13.67614
106.5416, 14.08949
107.0237, 14.45283
107.5059, 14.66017
107.9880, 14.65798
108.4701, 14.66354
108.9522, 14.75268
109.4343, 14.83558
109.9164, 14.74879
110.3986, 14.28820
110.8807, 13.82996
111.3628, 13.46828
111.8449, 13.15434
112.3270, 13.02634
112.8091, 13.11778
113.2913, 13.40454
113.7734, 13.81431
114.2555, 15.00356
114.7376, 15.88047
115.2197, 15.82509
115.7018, 13.38560
116.1840, 11.53617
116.6661, 11.25747
117.1482, 12.33171
117.6303, 13.62059
118.1124, 15.18009
118.5945, 16.57799
119.0767, 17.43562
119.5588, 17.04658
120.0409, 16.58537
120.5230, 16.58750
121.0051, 17.04821
121.4872, 17.83029
121.9694, 19.09283
122.4515, 20.57928
122.9336, 21.93973
123.4157, 22.80418
123.8978, 23.59067
124.3799, 24.64871
124.8621, 25.99472
125.3442, 27.57260
125.8263, 29.45364
126.3084, 31.54467
126.7905, 33.62658
127.2726, 35.54657
127.7548, 37.38174
128.2369, 39.27976
128.7190, 41.28557
129.2011, 43.22020
129.6832, 44.77038
130.1653, 45.98645
130.6474, 47.25678
131.1296, 48.85986
131.6117, 50.70248
132.0938, 52.53258
132.5759, 54.34945
133.0580, 56.10053
133.5401, 57.53819
134.0223, 58.65596
134.5044, 59.92421
134.9865, 61.66596
135.4686, 63.89458
135.9507, 66.34815
136.4328, 69.02128
136.9150, 71.92515
137.3971, 75.01133
137.8792, 78.27549
138.3613, 81.79650
138.8434, 85.78239
139.3255, 90.33238
139.8077, 94.62428
140.2898, 98.51711
140.7719, 102.0155
141.2540, 105.5051
141.7361, 108.9857
142.2182, 112.3939
142.7004, 115.6386
143.1825, 118.5971
143.6646, 121.6298
144.1467, 124.7052
144.6288, 127.8485
145.1109, 131.2957
145.5931, 135.2403
146.0752, 139.3569
146.5573, 143.3471
147.0394, 147.1948
147.5215, 150.8930
148.0036, 154.2077
148.4858, 156.8896
148.9679, 160.4008
149.4500, 165.2618
149.9321, 170.7952
150.4142, 175.8854
150.8963, 179.9011
151.3785, 184.1489
151.8606, 188.9219
152.3427, 194.4186
152.8248, 200.1469
153.3069, 206.0086
153.7890, 212.1273
154.2712, 218.0260
154.7533, 223.4643
155.2354, 228.5369
155.7175, 232.9306
156.1996, 236.2316
156.6817, 239.4672
157.1639, 242.6349
157.6460, 245.8432
158.1281, 249.2596
158.6102, 253.1176
159.0923, 257.0445
159.5744, 260.9142
160.0566, 264.9055
160.5387, 268.4608
161.0208, 271.2729
161.5029, 273.5010
161.9850, 275.5887
162.4671, 277.3335
162.9493, 279.2116
163.4314, 281.6413
163.9135, 285.8959
164.3956, 289.2318
164.8777, 290.1468
165.3598, 289.0673
165.8420, 287.7230
166.3241, 286.7168
166.8062, 285.9032
167.2883, 285.1592
167.7704, 284.5424
168.2525, 283.8761
168.7346, 283.1822
169.2168, 282.4083
169.6989, 281.2245
170.1810, 279.4285
170.6631, 277.1173
171.1452, 274.3921
171.6273, 271.2434
172.1095, 267.7719
172.5916, 263.8752
173.0737, 259.5936
173.5558, 255.3853
174.0379, 251.6526
174.5201, 248.2152
175.0022, 244.7136
175.4843, 240.8578
175.9664, 236.9309
176.4485, 233.4680
176.9306, 230.4265
177.4128, 227.3278
177.8949, 223.3184
178.3770, 218.9392
178.8591, 215.3037
179.3412, 213.3541
179.8233, 212.2492
180.3055, 210.6460
180.7876, 208.5096
181.2697, 206.2514
181.7518, 204.0525
182.2339, 202.0089
182.7160, 200.3583
183.1982, 199.5949
183.6803, 199.2619
184.1624, 198.1555
184.6445, 196.1593
185.1266, 194.2178
185.6087, 193.5866
186.0909, 194.0495
186.5730, 194.4923
187.0551, 194.4498
187.5372, 194.0106
188.0193, 193.3489
188.5014, 192.3871
188.9836, 191.5424
189.4657, 191.4236
189.9478, 191.9750
190.4299, 192.5857
190.9120, 192.6993
191.3941, 192.5217
191.8763, 193.3692
192.3584, 195.4499
192.8405, 197.9870
193.3226, 199.8615
193.8047, 201.0613
194.2868, 202.4186
194.7690, 204.5572
195.2511, 207.3790
195.7332, 209.5023
196.2153, 210.6914
196.6974, 211.6519
197.1795, 213.5523
197.6617, 216.4511
198.1438, 219.6117
198.6259, 222.7472
199.1080, 225.8464
199.5901, 228.8989
200.0722, 231.7954
200.5544, 234.8003
201.0365, 238.4819
201.5186, 242.9758
202.0007, 247.3783
202.4828, 251.1939
202.9649, 254.3694
203.4471, 257.6759
203.9292, 261.2036
204.4113, 264.8177
204.8934, 268.4307
205.3755, 272.1403
205.8576, 275.3113
206.3398, 277.5336
206.8219, 278.6807
207.3040, 279.7509
207.7861, 280.8065
208.2682, 281.7363
208.7503, 282.3914
209.2325, 282.8910
209.7146, 282.7431
210.1967, 281.6962
210.6788, 279.6830
211.1609, 277.0521
211.6430, 273.5953
212.1252, 269.6734
212.6073, 266.1235
213.0894, 263.0139
213.5715, 260.1310
214.0536, 257.4376
214.5357, 255.0062
215.0179, 252.4386
215.5000, 249.6205
215.9821, 246.7171
216.4642, 244.1844
216.9463, 242.3373
217.4284, 240.2256
217.9105, 237.3075
218.3927, 233.2657
218.8748, 229.5916
219.3569, 226.4480
219.8390, 223.5862
220.3211, 220.4178
220.8032, 216.9403
221.2854, 213.1298
221.7675, 208.8488
222.2496, 203.9811
222.7317, 199.1157
223.2138, 194.1615
223.6959, 189.2634
224.1781, 184.6008
224.6602, 180.2201
225.1423, 176.0450
225.6244, 172.1381
226.1065, 168.4535
226.5886, 165.0059
227.0708, 161.7951
227.5529, 158.7918
228.0350, 155.8710
228.5171, 152.7805
228.9992, 150.1452
229.4813, 148.2988
229.9635, 147.5961
230.4456, 146.5552
230.9277, 144.8954
231.4098, 143.0538
231.8919, 141.8606
232.3740, 141.5517
232.8562, 141.5277
233.3383, 141.5740
233.8204, 141.6322
234.3025, 141.9717
234.7846, 142.7295
235.2667, 143.6959
235.7489, 144.4565
236.2310, 144.8332
236.7131, 145.2898
237.1952, 145.9605
237.6773, 146.8057
238.1594, 147.9948
238.6416, 149.6488
239.1237, 151.5744
239.6058, 153.4634
240.0879, 155.3388
240.5700, 157.1731
241.0521, 158.9198
241.5343, 160.4796
242.0164, 162.3163
242.4985, 164.4676
242.9806, 166.8672
243.4627, 169.4361
243.9448, 172.2420
244.4270, 175.0904
244.9091, 177.8781
245.3912, 180.5421
245.8733, 183.5241
246.3554, 186.8676
246.8375, 190.5075
247.3197, 194.4095
247.8018, 198.8032
248.2839, 203.0323
248.7660, 206.8357
249.2481, 210.1284
249.7302, 213.8203
250.2124, 218.1570
250.6945, 222.6987
251.1766, 227.0318
251.6587, 231.2009
252.1408, 235.0678
252.6229, 238.4557
253.1051, 241.3329
253.5872, 244.7452
254.0693, 249.0372
254.5514, 253.5434
255.0335, 257.6255
255.5156, 261.2222
255.9978, 264.4474
256.4799, 267.3658
256.9620, 269.9820
257.4441, 271.9434
257.9262, 273.0943
258.4083, 273.7868
258.8904, 274.3587
259.3726, 274.9912
259.8547, 275.0498
260.3368, 274.3402
260.8189, 272.9093
261.3010, 271.4123
261.7831, 270.0451
262.2653, 268.3129
262.7474, 265.6419
263.2295, 261.3926
263.7116, 258.0854
264.1937, 256.4913
264.6758, 256.1672
265.1580, 254.3235
265.6401, 250.3428
266.1222, 246.0281
266.6043, 242.5962
267.0864, 240.1660
267.5685, 238.1087
268.0507, 236.4123
268.5328, 235.0200
269.0149, 233.6588
269.4970, 232.2241
269.9791, 231.0373
270.4612, 230.2420
270.9434, 229.8434
271.4255, 229.8407
271.9076, 230.2412
272.3897, 231.0307
272.8718, 232.2297
273.3539, 233.9140
273.8361, 235.7480
274.3182, 237.4857
274.8003, 239.0489
275.2824, 241.0342
275.7645, 243.4411
276.2466, 246.2804
276.7288, 249.6420
277.2109, 253.5698
277.6930, 257.7408
278.1751, 261.9588
278.6572, 266.2411
279.1393, 270.5902
279.6215, 275.0045
280.1036, 279.4959
280.5857, 284.0604
281.0678, 288.6722
281.5499, 293.4995
282.0320, 298.7003
282.5142, 304.2348
282.9963, 309.2180
283.4784, 313.6325
283.9605, 317.5620
284.4426, 321.0314
284.9247, 324.0361
285.4069, 326.8950
285.8890, 330.0630
286.3711, 333.1913
286.8532, 334.5230
287.3353, 333.8980
287.8174, 332.3545
288.2996, 331.0789
288.7817, 329.9845
289.2638, 328.0735
289.7459, 324.9222
290.2280, 320.8598
290.7101, 316.4659
291.1923, 311.6860
291.6744, 307.2110
292.1565, 303.6166
292.6386, 300.8086
293.1207, 298.3259
293.6028, 296.0725
294.0850, 294.0846
294.5671, 292.2769
295.0492, 290.6586
295.5313, 289.4258
296.0134, 288.9555
296.4955, 289.0051
296.9777, 288.8729
297.4598, 288.4146
297.9419, 287.8140
298.4240, 287.4825
298.9061, 287.3258
299.3882, 286.8285
299.8704, 285.4777
300.3525, 283.6168
300.8346, 282.0814
301.3167, 281.1674
301.7988, 279.7440
302.2809, 276.2892
302.7631, 271.2710
303.2452, 265.9529
303.7273, 261.0629
304.2094, 256.2498
304.6915, 251.2006
305.1736, 245.8625
305.6558, 240.1517
306.1379, 233.6324
306.6200, 226.6920
307.1021, 220.0886
307.5842, 214.0545
308.0663, 208.4953
308.5485, 203.1499
309.0306, 198.0515
309.5127, 193.5096
309.9948, 190.0647
310.4769, 187.2045
310.9590, 184.2809
311.4412, 180.7645
311.9233, 177.3832
312.4054, 174.6291
312.8875, 172.4326
313.3696, 170.5611
313.8517, 169.1995
314.3339, 167.9694
314.8160, 166.4916
315.2981, 164.4050
315.7802, 162.5118
316.2623, 161.4244
316.7444, 160.8768
317.2266, 160.1299
317.7087, 158.5075
318.1908, 156.8527
318.6729, 155.6945
319.1550, 155.2362
319.6371, 154.9471
320.1193, 154.7556
320.6014, 154.6014
321.0835, 154.3830
321.5656, 153.8889
322.0477, 153.4776
322.5298, 153.3955
323.0120, 153.7781
323.4941, 153.8404
323.9762, 153.1340
324.4583, 152.1328
324.9404, 151.3500
325.4225, 150.9812
325.9047, 150.7212
326.3868, 150.5000
326.8689, 150.3118
327.3510, 150.2473
327.8331, 150.5874
328.3152, 150.8954
328.7974, 150.8670
329.2795, 149.8264
329.7616, 149.2501
330.2437, 149.4121
330.7258, 150.1866
331.2079, 150.9002
331.6901, 151.5627
332.1722, 152.1525
332.6543, 152.6465
333.1364, 152.9187
333.6185, 153.3125
334.1006, 153.8415
334.5828, 154.4861
335.0649, 155.1871
335.5470, 155.9389
336.0291, 156.7643
336.5112, 157.6754
336.9933, 158.6949
337.4755, 159.6863
337.9576, 160.5597
338.4397, 161.4983
338.9218, 162.8140
339.4039, 164.6009
339.8860, 166.3923
340.3681, 168.0542
340.8503, 169.6053
341.3324, 171.0475
341.8145, 172.3404
342.2966, 173.6870
342.7787, 175.2993
343.2608, 177.1659
343.7430, 179.2865
344.2251, 181.7395
344.7072, 184.3767
345.1893, 186.6021
345.6714, 188.3964
346.1535, 190.2624
346.6357, 192.5221
347.1178, 195.1571
347.5999, 198.1299
348.0820, 201.5755
348.5641, 205.0805
349.0462, 207.8919
349.5284, 210.1081
350.0105, 212.5639
350.4926, 215.7805
350.9747, 219.5383
351.4568, 223.4868
351.9389, 227.6354
352.4211, 231.6077
352.9032, 234.7669
353.3853, 237.3948
353.8674, 240.1756
354.3495, 243.5602
354.8316, 247.1239
355.3138, 250.3423
355.7959, 253.2458
356.2780, 256.1251
356.7601, 259.0761
357.2422, 262.1879
357.7243, 265.6625
358.2065, 269.8387
358.6886, 273.8905
359.1707, 276.8942
359.6528, 279.2331
360.1349, 282.0627
360.6170, 286.2588
361.0992, 290.9484
361.5813, 295.4881
362.0634, 299.6007
362.5455, 304.0070
363.0276, 309.0858
363.5097, 314.6103
363.9919, 320.2444
364.4740, 326.1974
364.9561, 331.9580
365.4382, 337.0262
365.9203, 341.2874
366.4024, 346.3926
366.8846, 353.4088
367.3667, 361.0386
367.8488, 368.2319
368.3309, 374.3571
368.8130, 380.6225
369.2951, 387.0249
369.7773, 393.6762
370.2594, 401.0436
370.7415, 409.7609
371.2236, 418.6670
371.7057, 427.3110
372.1878, 435.5283
372.6700, 443.8413
373.1521, 452.1724
373.6342, 460.5705
374.1163, 469.0599
374.5984, 477.4550
375.0805, 486.1747
375.5627, 495.5475
376.0448, 505.7042
376.5269, 515.1986
377.0090, 523.7745
377.4911, 532.2604
377.9732, 541.8947
378.4554, 552.8644
378.9375, 563.3867
379.4196, 573.0968
379.9017, 582.1312
380.3838, 591.5467
380.8659, 601.3800
381.3481, 610.7102
381.8302, 618.6215
382.3123, 625.2617
382.7944, 631.6635
383.2765, 638.0316
383.7586, 644.1285
384.2408, 649.9335
384.7229, 655.3235
385.2050, 659.8490
385.6871, 663.5369
386.1692, 666.0795
386.6513, 666.8423
387.1335, 665.7751
387.6156, 663.5750
388.0977, 660.8317
388.5798, 657.4236
389.0619, 653.0920
389.5440, 647.9559
390.0262, 641.6642
390.5083, 633.5752
390.9904, 623.8317
391.4725, 613.4706
391.9546, 602.9012
392.4367, 592.1062
392.9189, 580.9639
393.4010, 569.5594
393.8831, 557.6790
394.3652, 544.5497
394.8473, 531.1124
395.3294, 518.8218
395.8116, 509.3097
396.2937, 500.1822
396.7758, 490.3323
397.2579, 479.5737
397.7400, 469.3000
398.2221, 459.9315
398.7043, 451.1810
399.1864, 442.8505
399.6685, 434.6521
400.1506, 427.1976
400.6327, 420.9704
401.1148, 415.6566
401.5970, 409.6729
402.0791, 402.1628
402.5612, 395.0560
403.0433, 389.2542
403.5254, 385.1571
404.0075, 381.2459
404.4897, 377.3917
404.9718, 373.8468
405.4539, 371.0363
405.9360, 369.0855
406.4181, 367.4959
406.9002, 366.2188
407.3824, 365.2175
407.8645, 363.8740
408.3466, 362.0203
408.8287, 360.4548
409.3108, 360.1776
409.7929, 361.1075
410.2751, 361.4601
410.7572, 360.8784
411.2393, 359.7225
411.7214, 358.7088
412.2035, 357.7892
412.6856, 356.5824
413.1678, 354.8834
413.6499, 352.7352
414.1320, 350.2908
414.6141, 347.5591
415.0962, 344.3195
415.5783, 340.2189
416.0605, 335.4685
416.5426, 330.3770
417.0247, 325.0062
417.5068, 319.3759
417.9889, 313.3650
418.4710, 307.0714
418.9532, 300.7800
419.4353, 294.6740
419.9174, 288.6700
420.3995, 282.7636
420.8816, 276.8168
421.3637, 271.1346
421.8459, 265.6566
422.3280, 260.5592
422.8101, 256.0395
423.2922, 252.7297
423.7743, 249.4939
424.2564, 245.9653
424.7386, 242.1169
425.2207, 238.4060
425.7028, 234.5811
426.1849, 231.1390
426.6670, 228.4425
427.1491, 227.2065
427.6313, 225.5821
428.1134, 223.2378
428.5955, 220.5110
429.0776, 218.3383
429.5597, 216.8822
430.0418, 215.6200
430.5240, 214.3795
431.0061, 213.1747
431.4882, 211.8668
431.9703, 210.4368
432.4524, 208.9592
432.9345, 207.4382
433.4167, 205.8688
433.8988, 204.5699
434.3809, 203.6681
434.8630, 203.0643
435.3451, 202.4943
435.8272, 201.9647
436.3094, 201.6868
436.7915, 201.8867
437.2736, 202.4394
437.7557, 203.0459
438.2378, 203.6829
438.7199, 204.3734
439.2020, 204.9520
439.6841, 205.6090
440.1663, 206.7340
440.6484, 208.6578
441.1305, 211.0020
441.6126, 213.4399
442.0947, 216.0014
442.5768, 218.8195
443.0590, 222.0227
443.5411, 225.4735
444.0232, 229.0912
444.5053, 232.9413
444.9874, 236.7862
445.4695, 240.7222
445.9517, 244.5307
446.4338, 247.9017
446.9159, 250.4407
447.3980, 252.8764
447.8801, 255.4192
448.3622, 258.1068
448.8444, 260.5471
449.3265, 262.5989
449.8086, 264.5372
450.2907, 266.4599
450.7728, 268.0168
451.2549, 270.4084
451.7371, 273.8338
452.2192, 278.0208
452.7013, 282.2769
453.1834, 286.3890
453.6655, 291.2338
454.1476, 297.1252
454.6298, 304.0058
455.1119, 311.6762
455.5940, 320.0966
456.0761, 329.1736
456.5582, 339.0241
457.0403, 349.4875
457.5225, 359.4463
458.0046, 368.2293
458.4867, 376.8574
458.9688, 386.6610
459.4509, 397.5179
459.9330, 408.5135
460.4152, 419.4572
460.8973, 430.2845
461.3794, 440.9304
461.8615, 451.5431
462.3436, 461.4963
462.8257, 469.9862
463.3079, 477.8737
463.7900, 486.1319
464.2721, 495.2805
464.7542, 504.6953
465.2363, 514.3950
465.7184, 524.2104
466.2006, 533.6572
466.6827, 542.4742
467.1648, 551.0354
467.6469, 559.5057
468.1290, 568.0544
468.6111, 575.8439
469.0933, 583.2219
469.5754, 589.6629
470.0575, 595.0270
470.5396, 600.4857
471.0217, 602.4924
471.5038, 600.3879
471.9860, 594.6166
472.4681, 586.6961
472.9502, 576.7166
473.4323, 564.2166
473.9144, 548.5833
474.3965, 529.8505
474.8787, 510.5664
475.3608, 490.6084
475.8429, 470.9390
476.3250, 452.4167
476.8071, 435.1978
477.2892, 419.9254
477.7714, 406.6175
478.2535, 395.8206
478.7356, 388.4287
479.2177, 384.3277
479.6998, 383.1253
480.1819, 384.6060
480.6641, 388.8231
481.1462, 395.7709
481.6283, 405.4607
482.1104, 417.9127
482.5925, 433.0141
483.0746, 450.9401
483.5568, 471.9610
484.0389, 496.0509
484.5210, 523.0670
485.0031, 553.1855
485.4852, 586.0925
485.9673, 621.8111
486.4495, 660.4606
486.9316, 701.3993
487.4137, 744.4145
487.8958, 789.7316
488.3779, 836.5500
488.8600, 884.6931
489.3422, 934.8835
489.8243, 988.4216
490.3064, 1044.695
490.7885, 1104.402
491.2706, 1167.386
491.7527, 1233.941
492.2349, 1306.690
492.7170, 1385.056
493.1991, 1469.079
493.6812, 1557.703
494.1633, 1650.949
494.6454, 1751.845
495.1276, 1859.661
495.6097, 1973.116
496.0918, 2090.272
496.5739, 2212.057
497.0560, 2335.891
497.5381, 2464.563
498.0203, 2592.706
498.5024, 2723.418
498.9845, 2850.721
499.4666, 2964.764
499.9487, 3067.899
500.4308, 3149.307
500.9130, 3205.715
501.3951, 3236.677
501.8772, 3234.278
502.3593, 3195.244
502.8414, 3122.490
503.3235, 3016.544
503.8057, 2860.579
504.2878, 2695.667
504.7699, 2516.797
505.2520, 2332.191
505.7341, 2154.569
506.2162, 1981.909
506.6984, 1820.705
507.1805, 1673.518
507.6626, 1540.222
508.1447, 1420.189
508.6268, 1313.943
509.1089, 1219.012
509.5911, 1134.500
510.0732, 1060.201
510.5553, 994.3231
511.0374, 937.2400
511.5195, 886.5518
512.0016, 839.7217
512.4838, 796.6526
512.9659, 758.1492
513.4480, 724.5568
513.9301, 694.5267
514.4122, 666.4791
514.8943, 640.5201
515.3765, 617.0939
515.8586, 597.5558
516.3407, 579.8338
516.8228, 562.4949
517.3049, 545.0958
517.7870, 528.9149
518.2692, 514.5380
518.7513, 501.6645
519.2334, 490.0746
519.7155, 480.4119
520.1976, 471.1948
520.6797, 461.9981
521.1619, 453.1694
521.6440, 445.8523
522.1261, 440.6017
522.6082, 436.0057
523.0903, 431.5319
523.5724, 427.1681
524.0546, 423.7197
524.5367, 421.2637
525.0188, 419.5731
525.5009, 418.6373
525.9830, 418.3935
526.4651, 418.1094
526.9473, 417.6519
527.4294, 417.5364
527.9115, 417.0856
528.3936, 417.2096
528.8757, 417.1543
529.3578, 417.0358
529.8400, 416.4450
530.3221, 415.0996
530.8042, 412.9614
531.2863, 409.7407
531.7684, 405.3734
532.2505, 399.8080
532.7327, 392.9930
533.2148, 384.8479
533.6969, 375.7788
534.1790, 366.3080
534.6611, 355.8442
535.1432, 343.8769
535.6254, 328.4680
536.1075, 313.7079
536.5896, 300.2314
537.0717, 287.7020
537.5538, 275.5876
538.0359, 263.5921
538.5181, 252.4825
539.0002, 242.6140
539.4823, 234.0054
539.9644, 225.2861
540.4465, 216.3246
540.9286, 207.9043
541.4108, 200.8456
541.8929, 194.9415
542.3750, 189.6284
542.8571, 184.8622
543.3392, 180.4975
543.8214, 176.3366
544.3035, 172.4250
544.7856, 168.7294
545.2677, 165.3373
545.7498, 162.0784
546.2319, 158.8262
546.7141, 155.6100
547.1962, 152.6073
547.6783, 149.8105
548.1604, 147.3223
548.6425, 145.2262
549.1246, 143.7495
549.6068, 142.0423
550.0889, 139.7001
550.5710, 137.2979
551.0531, 135.3638
551.5352, 134.0444
552.0173, 132.9054
552.4995, 132.0195
552.9816, 131.2191
553.4637, 130.0582
553.9458, 128.4904
554.4279, 126.8741
554.9100, 125.1852
555.3922, 123.5750
555.8743, 122.8794
556.3564, 123.1057
556.8385, 123.2164
557.3206, 122.1304
557.8027, 120.4375
558.2849, 119.1399
558.7670, 118.4330
559.2491, 117.8988
559.7312, 117.2966
560.2133, 116.6536
560.6954, 116.0077
561.1776, 115.2609
561.6597, 114.6372
562.1418, 114.2158
562.6239, 113.9775
563.1060, 113.8595
563.5881, 114.0779
564.0703, 114.1802
564.5524, 113.9154
565.0345, 113.2196
565.5166, 113.0462
565.9987, 113.5643
566.4808, 114.3191
566.9630, 115.0754
567.4451, 115.8579
567.9272, 116.1963
568.4093, 115.9767
568.8914, 115.5243
569.3735, 115.1279
569.8557, 114.8514
570.3378, 115.0101
570.8199, 115.8921
571.3020, 117.0719
571.7841, 118.0577
572.2662, 118.8736
572.7484, 119.6044
573.2305, 120.2343
573.7126, 120.8479
574.1947, 121.4796
574.6768, 122.1216
575.1589, 122.9051
575.6411, 124.0363
576.1232, 125.2035
576.6053, 126.1565
577.0874, 126.4871
577.5695, 127.2812
578.0516, 128.9995
578.5338, 130.8680
579.0159, 131.6267
579.4980, 130.8415
579.9801, 130.4674
580.4622, 131.0328
580.9443, 132.2453
581.4265, 133.4049
581.9086, 134.5109
582.3907, 135.0168
582.8728, 134.4364
583.3549, 133.0804
583.8370, 131.4595
584.3192, 129.5951
584.8013, 127.8093
585.2834, 126.8704
585.7655, 125.8761
586.2476, 123.6674
586.7297, 119.5779
587.2118, 115.4929
587.6939, 111.9935
588.1760, 108.9944
588.6581, 106.3867
589.1403, 104.6020
589.6224, 102.6705
590.1045, 100.3089
