##NAMES=Leightonite
##RRUFFID=R050211
##IDEAL CHEMISTRY=K_2_Ca_2_Cu^2+^(S^6+^O_4_)_4_&#183;2H_2_O
##LOCALITY=Chuquicamata mine, Calama, Antofagasta Province, Chile
##OWNER=RRUFF
##SOURCE=John Dagenais
##DESCRIPTION=Blue lathlike crystals
##STATUS=The identification of this mineral has been confirmed by X-ray diffraction and chemical analysis
##URL=rruff.info/R050211
##MEASURED CHEMISTRY=(K_1.91_Na_0.09_)_Σ=2_Ca_2.00_Cu_1.00_(S_1.00_O_4_)_4_·1.96H_2_O
92.35352, 44.24462
92.83563, 44.09364
93.31775, 44.08106
93.79987, 44.66267
94.28198, 44.97738
94.76410, 45.02074
95.24622, 44.87761
95.72833, 44.68741
96.21045, 44.57105
96.69257, 44.55993
97.17468, 44.48101
97.65680, 44.33678
98.13892, 44.14149
98.62103, 43.88802
99.10315, 43.51646
99.58527, 43.02772
100.0674, 42.59960
100.5495, 42.21247
101.0316, 41.92698
101.5137, 41.76946
101.9958, 41.69939
102.4780, 41.66325
102.9601, 41.62316
103.4422, 41.57662
103.9243, 41.55093
104.4064, 41.55889
104.8885, 41.56258
105.3707, 41.53235
105.8528, 41.47046
106.3349, 41.40828
106.8170, 41.36485
107.2991, 41.33764
107.7813, 41.35958
108.2634, 41.43177
108.7455, 41.55196
109.2276, 41.73925
109.7097, 42.02116
110.1918, 42.29719
110.6740, 42.44657
111.1561, 42.48400
111.6382, 42.49064
112.1203, 42.49736
112.6024, 42.50491
113.0845, 42.52726
113.5666, 42.63307
114.0488, 42.69382
114.5309, 42.60419
115.0130, 42.35529
115.4951, 42.05181
115.9772, 41.80756
116.4593, 41.62376
116.9415, 41.50258
117.4236, 41.54529
117.9057, 41.58521
118.3878, 41.49015
118.8699, 41.21189
119.3520, 40.80817
119.8342, 40.43634
120.3163, 40.11506
120.7984, 39.80620
121.2805, 39.55840
121.7626, 39.31044
122.2447, 38.98039
122.7269, 38.51674
123.2090, 37.93433
123.6911, 37.35141
124.1732, 36.77732
124.6553, 36.19306
125.1374, 35.58680
125.6196, 34.96192
126.1017, 34.33100
126.5838, 33.70240
127.0659, 33.07882
127.5480, 32.46877
128.0302, 31.89822
128.5123, 31.33023
128.9944, 30.72574
129.4765, 30.07304
129.9586, 29.42467
130.4407, 28.81795
130.9229, 28.24094
131.4050, 27.68127
131.8871, 27.09683
132.3692, 26.51950
132.8513, 26.07064
133.3334, 25.81202
133.8155, 25.61165
134.2977, 25.41006
134.7798, 25.20438
135.2619, 24.99177
135.7440, 24.76935
136.2261, 24.53547
136.7082, 24.29960
137.1904, 23.99530
137.6725, 23.74359
138.1546, 23.65228
138.6367, 23.69170
139.1188, 23.72126
139.6009, 23.54663
140.0831, 23.00987
140.5652, 22.65903
141.0473, 22.57610
141.5294, 22.58787
142.0115, 22.58732
142.4936, 22.54368
142.9758, 22.48383
143.4579, 22.45662
143.9400, 22.50723
144.4221, 22.51016
144.9042, 22.43306
145.3863, 22.31216
145.8685, 22.18845
146.3506, 22.07473
146.8327, 21.97313
147.3148, 21.89331
147.7969, 21.84327
148.2790, 21.78844
148.7612, 21.71412
149.2433, 21.62380
149.7254, 21.53201
150.2075, 21.45164
150.6896, 21.36396
151.1717, 21.23660
151.6539, 21.04922
152.1360, 20.86965
152.6181, 20.77327
153.1002, 20.76868
153.5823, 20.74504
154.0644, 20.64071
154.5466, 20.50314
155.0287, 20.36519
155.5108, 20.23559
155.9929, 20.10924
156.4750, 19.97811
156.9571, 19.84048
157.4393, 19.70182
157.9214, 19.56189
158.4035, 19.42174
158.8856, 19.28332
159.3677, 19.14761
159.8498, 19.01361
160.3320, 18.87718
160.8141, 18.72611
161.2962, 18.58738
161.7783, 18.46467
162.2604, 18.35633
162.7425, 18.26248
163.2247, 18.18390
163.7068, 18.11854
164.1889, 18.04434
164.6710, 17.92097
165.1531, 17.83072
165.6352, 17.81691
166.1174, 17.85754
166.5995, 17.90113
167.0816, 17.91227
167.5637, 17.88962
168.0458, 17.84859
168.5279, 17.75577
169.0101, 17.67603
169.4922, 17.64389
169.9743, 17.65965
170.4564, 17.70756
170.9385, 17.78949
171.4206, 17.89931
171.9028, 17.97266
172.3849, 17.97316
172.8670, 17.95464
173.3491, 17.97103
173.8312, 18.02882
174.3133, 18.09764
174.7955, 18.15029
175.2776, 18.19473
175.7597, 18.25077
176.2418, 18.34502
176.7239, 18.45111
177.2060, 18.50079
177.6882, 18.44770
178.1703, 18.43339
178.6524, 18.57863
179.1345, 18.82489
179.6166, 19.05378
180.0987, 19.20936
180.5809, 19.29526
181.0630, 19.32420
181.5451, 19.22186
182.0272, 19.15313
182.5093, 19.20155
182.9914, 19.33693
183.4736, 19.48859
183.9557, 19.60197
184.4378, 19.67553
184.9199, 19.75664
185.4020, 19.82610
185.8841, 19.92222
186.3663, 20.08150
186.8484, 20.28467
187.3305, 20.47766
187.8126, 20.60880
188.2947, 20.66620
188.7768, 20.73096
189.2590, 20.82837
189.7411, 20.91053
190.2232, 20.93019
190.7053, 20.90252
191.1874, 20.89762
191.6695, 20.99948
192.1517, 21.25892
192.6338, 21.40942
193.1159, 21.39002
193.5980, 21.32550
194.0801, 21.27846
194.5622, 21.26221
195.0444, 21.27535
195.5265, 21.32468
196.0086, 21.42904
196.4907, 21.48215
196.9728, 21.43317
197.4549, 21.36167
197.9371, 21.34090
198.4192, 21.38403
198.9013, 21.45649
199.3834, 21.54514
199.8655, 21.65304
200.3476, 21.66488
200.8298, 21.46243
201.3119, 21.18696
201.7940, 21.05828
202.2761, 21.14182
202.7582, 21.24887
203.2403, 21.15123
203.7225, 20.89306
204.2046, 20.64248
204.6867, 20.44896
205.1688, 20.30441
205.6509, 20.19415
206.1330, 20.12986
206.6152, 20.07438
207.0973, 20.00754
207.5794, 19.92732
208.0615, 19.82426
208.5436, 19.68792
209.0257, 19.52262
209.5079, 19.34822
209.9900, 19.16283
210.4721, 18.97137
210.9542, 18.78019
211.4363, 18.58746
211.9184, 18.38721
212.4006, 18.16620
212.8827, 17.92657
213.3648, 17.71775
213.8469, 17.56810
214.3290, 17.42371
214.8111, 17.24929
215.2933, 17.05915
215.7754, 16.89256
216.2575, 16.78921
216.7396, 16.75336
217.2217, 16.69773
217.7038, 16.63101
218.1859, 16.53374
218.6681, 16.35950
219.1502, 16.14158
219.6323, 15.96258
220.1144, 15.90644
220.5965, 15.99099
221.0786, 16.00164
221.5608, 15.86807
222.0429, 15.73126
222.5250, 15.64338
223.0071, 15.59825
223.4892, 15.56170
223.9713, 15.50338
224.4535, 15.41945
224.9356, 15.34795
225.4177, 15.27753
225.8998, 15.22650
226.3819, 15.21201
226.8640, 15.22669
227.3462, 15.25074
227.8283, 15.27274
228.3104, 15.29521
228.7925, 15.25707
229.2746, 15.04767
229.7567, 14.88697
230.2389, 14.93206
230.7210, 15.14855
231.2031, 15.36029
231.6852, 15.42318
232.1673, 15.33484
232.6494, 15.28884
233.1316, 15.33046
233.6137, 15.37200
234.0958, 15.34068
234.5779, 15.24906
235.0600, 15.19129
235.5421, 15.25667
236.0243, 15.42396
236.5064, 15.49064
236.9885, 15.36984
237.4706, 15.22176
237.9527, 15.15377
238.4348, 15.16250
238.9170, 15.18226
239.3991, 15.17658
239.8812, 15.14768
240.3633, 15.11222
240.8454, 15.05919
241.3275, 15.00942
241.8097, 14.97588
242.2918, 14.95850
242.7739, 14.96351
243.2560, 15.02564
243.7381, 15.09922
244.2202, 15.09366
244.7024, 14.95606
245.1845, 14.79938
245.6666, 14.74143
246.1487, 14.78549
246.6308, 14.80323
247.1129, 14.72414
247.5951, 14.59134
248.0772, 14.45101
248.5593, 14.30018
249.0414, 14.16593
249.5235, 14.09118
250.0056, 14.08208
250.4878, 14.04745
250.9699, 13.92268
251.4520, 13.77734
251.9341, 13.67659
252.4162, 13.63395
252.8983, 13.60900
253.3805, 13.56020
253.8626, 13.48512
254.3447, 13.40712
254.8268, 13.32512
255.3089, 13.24705
255.7910, 13.17741
256.2732, 13.11711
256.7553, 13.06756
257.2374, 13.03031
257.7195, 13.00553
258.2016, 12.99236
258.6837, 12.99145
259.1659, 13.00296
259.6480, 13.04084
260.1301, 13.10066
260.6122, 13.14917
261.0943, 13.14442
261.5764, 13.07680
262.0586, 13.02140
262.5407, 12.97912
263.0228, 12.95379
263.5049, 12.95728
263.9870, 12.98403
264.4691, 13.01291
264.9513, 13.02814
265.4334, 13.03118
265.9155, 13.00917
266.3976, 12.93366
266.8797, 12.85660
267.3618, 12.79651
267.8440, 12.75125
268.3261, 12.71131
268.8082, 12.67441
269.2903, 12.64212
269.7724, 12.57040
270.2545, 12.40746
270.7367, 12.25235
271.2188, 12.12689
271.7009, 12.03079
272.1830, 11.96035
272.6651, 11.91725
273.1472, 11.89851
273.6294, 11.84957
274.1115, 11.76437
274.5936, 11.65103
275.0757, 11.47495
275.5578, 11.27627
276.0399, 11.11934
276.5221, 11.04589
277.0042, 11.04236
277.4863, 11.02845
277.9684, 11.05021
278.4505, 11.00583
278.9326, 10.81942
279.4148, 10.57578
279.8969, 10.39698
280.3790, 10.34507
280.8611, 10.36960
281.3432, 10.30579
281.8253, 10.04784
282.3075, 9.821629
282.7896, 9.629490
283.2717, 9.478907
283.7538, 9.397931
284.2359, 9.394337
284.7180, 9.415624
285.2002, 9.348405
285.6823, 9.072195
286.1644, 8.872378
286.6465, 8.785794
287.1286, 8.751511
287.6107, 8.726386
288.0929, 8.695590
288.5750, 8.654815
289.0571, 8.595022
289.5392, 8.497695
290.0213, 8.425066
290.5034, 8.422457
290.9856, 8.412133
291.4677, 8.311765
291.9498, 8.124143
292.4319, 7.941417
292.9140, 7.878013
293.3961, 7.978582
293.8783, 8.004660
294.3604, 7.917680
294.8425, 7.799649
295.3246, 7.674467
295.8067, 7.556422
296.2888, 7.476892
296.7710, 7.469325
297.2531, 7.538627
297.7352, 7.575429
298.2173, 7.561778
298.6994, 7.540020
299.1815, 7.531758
299.6637, 7.531140
300.1458, 7.520227
300.6279, 7.487669
301.1100, 7.434331
301.5921, 7.363727
302.0742, 7.234553
302.5564, 7.137537
303.0385, 7.117281
303.5206, 7.144394
304.0027, 7.165069
304.4848, 7.152440
304.9669, 7.118920
305.4491, 7.102373
305.9312, 7.132797
306.4133, 7.138770
306.8954, 7.088718
307.3775, 7.016381
307.8596, 6.961895
308.3418, 6.938911
308.8239, 6.941653
309.3060, 6.964269
309.7881, 7.032862
310.2702, 7.064222
310.7523, 7.014601
311.2345, 6.948843
311.7166, 6.931359
312.1987, 6.973606
312.6808, 7.040977
313.1629, 7.101706
313.6451, 7.165114
314.1272, 7.157362
314.6093, 7.003971
315.0914, 6.839676
315.5735, 6.755524
316.0556, 6.753265
316.5378, 6.782034
317.0199, 6.803869
317.5020, 6.818318
317.9841, 6.826750
318.4662, 6.848887
318.9483, 6.847270
319.4305, 6.780563
319.9126, 6.673297
320.3947, 6.589965
320.8768, 6.569203
321.3589, 6.602831
321.8410, 6.651150
322.3232, 6.750327
322.8053, 6.820040
323.2874, 6.832973
323.7695, 6.806142
324.2516, 6.761048
324.7337, 6.705624
325.2159, 6.646051
325.6980, 6.596261
326.1801, 6.551832
326.6622, 6.525938
327.1443, 6.526744
327.6264, 6.542830
328.1086, 6.568277
328.5907, 6.600333
329.0728, 6.626804
329.5549, 6.628107
330.0370, 6.585553
330.5191, 6.583181
331.0013, 6.666115
331.4834, 6.752988
331.9655, 6.782496
332.4476, 6.755985
332.9297, 6.717021
333.4118, 6.701221
333.8940, 6.709570
334.3761, 6.729755
334.8582, 6.787262
335.3403, 6.828591
335.8224, 6.821326
336.3045, 6.780599
336.7867, 6.737568
337.2688, 6.707422
337.7509, 6.695754
338.2330, 6.732553
338.7151, 6.909779
339.1972, 7.021909
339.6793, 7.001203
340.1614, 6.911391
340.6436, 6.828128
341.1257, 6.779390
341.6078, 6.756688
342.0899, 6.743786
342.5720, 6.746274
343.0541, 6.750235
343.5363, 6.754968
344.0184, 6.761571
344.5005, 6.769654
344.9826, 6.779795
345.4647, 6.796677
345.9468, 6.830408
346.4290, 6.895700
346.9111, 6.903284
347.3932, 6.778580
347.8753, 6.678140
348.3574, 6.701902
348.8395, 6.816068
349.3217, 6.915631
349.8038, 6.920976
350.2859, 6.842897
350.7680, 6.800811
351.2501, 6.830926
351.7322, 6.856872
352.2144, 6.866904
352.6965, 6.864757
353.1786, 6.854451
353.6607, 6.837810
354.1428, 6.818733
354.6249, 6.807099
355.1071, 6.814375
355.5892, 6.810237
356.0713, 6.778808
356.5534, 6.746440
357.0355, 6.733870
357.5176, 6.744649
357.9998, 6.768281
358.4819, 6.793081
358.9640, 6.819872
359.4461, 6.844615
359.9282, 6.881735
360.4103, 6.904006
360.8925, 6.883095
361.3746, 6.835463
361.8567, 6.806529
362.3388, 6.836649
362.8209, 6.915071
363.3030, 6.939656
363.7852, 6.850463
364.2673, 6.781844
364.7494, 6.764051
365.2315, 6.782238
365.7136, 6.823143
366.1957, 6.882008
366.6779, 6.946107
367.1600, 6.988986
367.6421, 7.006029
368.1242, 7.012253
368.6063, 6.999373
369.0884, 6.984589
369.5706, 6.975241
370.0527, 6.974238
370.5348, 6.987142
371.0169, 7.038455
371.4990, 7.135066
371.9811, 7.161932
372.4633, 7.029466
372.9454, 6.918557
373.4275, 6.936624
373.9096, 7.040247
374.3917, 7.117953
374.8738, 7.088679
375.3560, 6.992121
375.8381, 6.957318
376.3202, 7.014329
376.8023, 7.063004
377.2844, 7.051889
377.7665, 7.016789
378.2487, 6.992541
378.7308, 6.987700
379.2129, 7.000238
379.6950, 7.039680
380.1771, 7.108259
380.6592, 7.145220
381.1414, 7.089688
381.6235, 7.041138
382.1056, 7.099750
382.5877, 7.261878
383.0698, 7.415196
383.5519, 7.497512
384.0341, 7.519223
384.5162, 7.505737
384.9983, 7.447458
385.4804, 7.384196
385.9625, 7.346626
386.4446, 7.326287
386.9268, 7.307911
387.4089, 7.271663
387.8910, 7.247988
388.3731, 7.291529
388.8552, 7.398761
389.3373, 7.463922
389.8195, 7.399545
390.3016, 7.291250
390.7837, 7.312998
391.2658, 7.512521
391.7479, 7.698908
392.2300, 7.753478
392.7122, 7.730497
393.1943, 7.752587
393.6764, 7.855939
394.1585, 7.981031
394.6406, 8.052255
395.1227, 8.067586
395.6049, 8.109419
396.0870, 8.219569
396.5691, 8.338105
397.0512, 8.411885
397.5333, 8.441417
398.0154, 8.455380
398.4976, 8.464945
398.9797, 8.477112
399.4618, 8.534713
399.9439, 8.661163
400.4260, 8.797351
400.9081, 8.930494
401.3903, 9.061158
401.8724, 9.192847
402.3545, 9.326970
402.8366, 9.453465
403.3187, 9.552225
403.8008, 9.600573
404.2830, 9.671520
404.7651, 9.754461
405.2472, 9.866928
405.7293, 10.04440
406.2114, 10.27133
406.6935, 10.48203
407.1757, 10.61575
407.6578, 10.67457
408.1399, 10.78208
408.6220, 10.99459
409.1041, 11.19189
409.5862, 11.32996
410.0684, 11.44412
410.5505, 11.58722
411.0326, 11.78087
411.5147, 12.00192
411.9968, 12.20550
412.4789, 12.38003
412.9611, 12.56085
413.4432, 12.74458
413.9253, 12.93919
414.4074, 13.15637
414.8895, 13.39253
415.3716, 13.62734
415.8538, 13.84057
416.3359, 14.03416
416.8180, 14.24278
417.3001, 14.48335
417.7822, 14.71477
418.2643, 14.90584
418.7465, 15.08544
419.2286, 15.29569
419.7107, 15.55695
420.1928, 15.84129
420.6749, 16.10496
421.1570, 16.34274
421.6392, 16.60134
422.1213, 16.93333
422.6034, 17.25347
423.0855, 17.47275
423.5676, 17.59855
424.0497, 17.74204
424.5319, 18.00611
425.0140, 18.33997
425.4961, 18.59133
425.9782, 18.72656
426.4603, 18.86025
426.9424, 19.07590
427.4246, 19.34560
427.9067, 19.61662
428.3888, 19.86831
428.8709, 20.13143
429.3530, 20.45332
429.8351, 20.81485
430.3173, 21.11582
430.7994, 21.29576
431.2815, 21.43754
431.7636, 21.70015
432.2457, 22.09780
432.7278, 22.46229
433.2100, 22.69281
433.6921, 22.90678
434.1742, 23.24200
434.6563, 23.70587
435.1384, 24.18987
435.6205, 24.59741
436.1027, 24.93738
436.5848, 25.37360
437.0669, 25.85148
437.5490, 26.46840
438.0311, 27.30583
438.5132, 28.28860
438.9954, 29.29154
439.4775, 30.26647
439.9596, 31.28367
440.4417, 32.44925
440.9238, 33.74626
441.4059, 35.26413
441.8881, 37.06113
442.3702, 38.99681
442.8523, 41.06215
443.3344, 43.19286
443.8165, 45.28020
444.2986, 47.22545
444.7808, 49.05341
445.2629, 50.90040
445.7450, 52.83321
446.2271, 54.68209
446.7092, 56.40728
447.1913, 58.04622
447.6735, 59.62535
448.1556, 61.14984
448.6377, 62.63177
449.1198, 64.06702
449.6019, 65.44546
450.0840, 66.90998
450.5662, 68.52569
451.0483, 70.17880
451.5304, 71.79188
452.0125, 73.38722
452.4946, 75.03243
452.9767, 76.75493
453.4589, 78.55566
453.9410, 80.41351
454.4231, 82.31161
454.9052, 84.41113
455.3873, 86.85011
455.8694, 89.47794
456.3516, 92.09317
456.8337, 94.69270
457.3158, 97.22462
457.7979, 99.61235
458.2800, 101.9200
458.7621, 104.3524
459.2443, 106.9579
459.7264, 109.3165
460.2085, 111.1908
460.6906, 112.4834
461.1727, 112.9712
461.6548, 112.6216
462.1370, 111.5122
462.6191, 109.5896
463.1012, 106.9372
463.5833, 103.6841
464.0654, 99.84582
464.5475, 95.55165
465.0297, 90.97395
465.5118, 85.92957
465.9939, 81.05762
466.4760, 76.28662
466.9581, 71.73012
467.4402, 67.50820
467.9224, 63.57093
468.4045, 59.81667
468.8866, 56.12253
469.3687, 52.55218
469.8508, 49.34205
470.3329, 46.59430
470.8151, 44.05835
471.2972, 41.66996
471.7793, 39.46149
472.2614, 37.46098
472.7435, 35.67077
473.2256, 34.03256
473.7078, 32.50989
474.1899, 31.09571
474.6720, 29.73256
475.1541, 28.37772
475.6362, 27.14859
476.1183, 26.15180
476.6005, 25.28089
477.0826, 24.37575
477.5647, 23.36249
478.0468, 22.35057
478.5289, 21.43917
479.0110, 20.63070
479.4932, 19.90348
479.9753, 19.27782
480.4574, 18.70404
480.9395, 18.13013
481.4216, 17.55617
481.9037, 17.00975
482.3859, 16.52178
482.8680, 16.05127
483.3501, 15.53853
483.8322, 14.99520
484.3143, 14.50312
484.7964, 14.11419
485.2786, 13.79393
485.7607, 13.43329
486.2428, 12.97856
486.7249, 12.58037
487.2070, 12.27721
487.6891, 12.02391
488.1713, 11.78382
488.6534, 11.54932
489.1355, 11.32962
489.6176, 11.13845
490.0997, 10.97337
490.5818, 10.77930
491.0640, 10.49733
491.5461, 10.25510
492.0282, 10.10175
492.5103, 9.985989
492.9924, 9.857117
493.4745, 9.698528
493.9567, 9.519992
494.4388, 9.322709
494.9209, 9.102964
495.4030, 8.915436
495.8851, 8.770146
496.3672, 8.651631
496.8494, 8.572651
497.3315, 8.509817
497.8136, 8.411924
498.2957, 8.240104
498.7778, 8.059165
499.2599, 7.962043
499.7421, 7.943761
500.2242, 7.907975
500.7063, 7.814301
501.1884, 7.709645
501.6705, 7.658174
502.1526, 7.656440
502.6348, 7.647076
503.1169, 7.637103
503.5990, 7.597491
504.0811, 7.469053
504.5632, 7.271251
505.0453, 7.116523
505.5274, 7.072254
506.0096, 7.100966
506.4917, 7.093202
506.9738, 7.032655
507.4559, 6.962423
507.9380, 6.857183
508.4201, 6.762003
508.9023, 6.728713
509.3844, 6.749657
509.8665, 6.766240
510.3486, 6.728740
510.8307, 6.644453
511.3128, 6.578491
511.7950, 6.540259
512.2771, 6.507779
512.7592, 6.481988
513.2413, 6.456564
513.7234, 6.423941
514.2056, 6.383383
514.6877, 6.344679
515.1698, 6.323000
515.6519, 6.314871
516.1340, 6.285685
516.6161, 6.224460
517.0983, 6.163001
517.5804, 6.114970
518.0625, 6.079395
518.5446, 6.060534
519.0267, 6.071112
519.5089, 6.069882
519.9910, 6.003356
520.4731, 5.901574
520.9552, 5.850486
521.4373, 5.872615
521.9194, 5.927063
522.4016, 5.988856
522.8837, 6.056376
523.3658, 6.058715
523.8479, 5.922724
524.3300, 5.799622
524.8121, 5.769163
525.2943, 5.796499
525.7764, 5.820046
526.2585, 5.816988
526.7406, 5.798958
527.2227, 5.781510
527.7048, 5.759336
528.1870, 5.757347
528.6691, 5.798213
529.1512, 5.834828
529.6333, 5.852154
530.1154, 5.851598
530.5975, 5.833629
531.0797, 5.796034
531.5618, 5.756696
532.0439, 5.752353
532.5260, 5.789656
533.0081, 5.810116
533.4902, 5.806783
533.9724, 5.779777
534.4545, 5.713455
534.9366, 5.622140
535.4187, 5.559542
535.9008, 5.558789
536.3829, 5.586104
536.8651, 5.603795
537.3472, 5.614797
537.8293, 5.641355
538.3114, 5.697738
538.7935, 5.760277
539.2756, 5.788492
539.7578, 5.775515
540.2399, 5.766813
540.7220, 5.784709
541.2041, 5.792391
541.6862, 5.751051
542.1683, 5.677321
542.6505, 5.614469
543.1326, 5.584322
543.6147, 5.589345
544.0968, 5.644010
544.5789, 5.807141
545.0610, 5.897870
545.5432, 5.861184
546.0253, 5.804962
546.5074, 5.790915
546.9895, 5.809268
547.4716, 5.815261
547.9537, 5.775482
548.4359, 5.717958
548.9180, 5.707096
549.4001, 5.749304
549.8822, 5.795355
550.3643, 5.848915
550.8464, 5.883405
551.3286, 5.858286
551.8107, 5.780404
552.2928, 5.733337
552.7749, 5.768072
553.2570, 5.836154
553.7391, 5.892279
554.2213, 5.934944
554.7034, 5.968173
555.1855, 5.995373
555.6676, 6.010416
556.1497, 5.998336
556.6318, 5.938138
557.1140, 5.899885
557.5961, 5.903924
558.0782, 5.913292
558.5603, 5.904755
559.0424, 5.880937
559.5245, 5.848907
560.0067, 5.810146
560.4888, 5.781443
560.9709, 5.814493
561.4530, 5.944143
561.9351, 6.036640
562.4172, 6.044356
562.8994, 6.038014
563.3815, 6.055994
563.8636, 6.091188
564.3457, 6.113370
564.8278, 6.101769
565.3099, 6.075411
565.7921, 6.053611
566.2742, 6.037454
566.7563, 6.057338
567.2384, 6.138568
567.7205, 6.234262
568.2026, 6.282537
568.6848, 6.285624
569.1669, 6.276015
569.6490, 6.220828
570.1311, 6.188592
570.6132, 6.253240
571.0953, 6.377046
571.5775, 6.462606
572.0596, 6.467320
572.5417, 6.431479
573.0238, 6.425000
573.5059, 6.460146
573.9880, 6.487254
574.4702, 6.502267
574.9523, 6.513898
575.4344, 6.508304
575.9165, 6.505591
576.3986, 6.549540
576.8807, 6.664847
577.3629, 6.788233
577.8450, 6.816539
578.3271, 6.751178
578.8092, 6.710691
579.2913, 6.702210
579.7734, 6.737458
580.2556, 6.864606
580.7377, 7.042644
581.2198, 7.168437
581.7019, 7.190400
582.1840, 7.197626
582.6661, 7.239034
583.1483, 7.306738
583.6304, 7.390556
584.1125, 7.487846
584.5946, 7.583922
585.0767, 7.661053
585.5588, 7.717526
586.0409, 7.800536
586.5230, 7.932746
587.0051, 8.063513
587.4872, 8.196088
